##NAMES=Leightonite
##RRUFFID=R050211
##IDEAL CHEMISTRY=K_2_Ca_2_Cu^2+^(S^6+^O_4_)_4_&#183;2H_2_O
##LOCALITY=Chuquicamata mine, Calama, Antofagasta Province, Chile
##OWNER=RRUFF
##SOURCE=John Dagenais
##DESCRIPTION=Blue lathlike crystals
##STATUS=The identification of this mineral has been confirmed by X-ray diffraction and chemical analysis
##URL=rruff.info/R050211
##MEASURED CHEMISTRY=(K_1.91_Na_0.09_)_Σ=2_Ca_2.00_Cu_1.00_(S_1.00_O_4_)_4_·1.96H_2_O
93.74609, 4.332794
94.22821, 4.142987
94.71033, 4.208577
95.19244, 4.499506
95.67456, 4.894473
96.15668, 5.372195
96.63879, 5.916741
97.12091, 6.461591
97.60303, 6.993804
98.08514, 7.571814
98.56726, 8.282623
99.04938, 9.131512
99.53149, 10.05627
100.0136, 10.99704
100.4957, 11.94636
100.9778, 13.04695
101.4600, 14.31830
101.9421, 15.73347
102.4242, 17.15849
102.9063, 18.56783
103.3884, 20.07987
103.8705, 21.80243
104.3527, 23.88194
104.8348, 25.78795
105.3169, 27.43535
105.7990, 28.84073
106.2811, 30.37502
106.7632, 32.14209
107.2454, 33.92406
107.7275, 35.50729
108.2096, 36.80790
108.6917, 38.04686
109.1738, 39.17020
109.6559, 40.11389
110.1381, 41.42930
110.6202, 43.28353
111.1023, 45.46094
111.5844, 47.73534
112.0665, 49.98923
112.5486, 52.47286
113.0308, 55.30310
113.5129, 58.62423
113.9950, 61.92363
114.4771, 65.16988
114.9592, 68.33533
115.4413, 71.42620
115.9235, 74.58520
116.4056, 77.54746
116.8877, 80.12505
117.3698, 82.23035
117.8519, 84.19212
118.3340, 86.20280
118.8162, 88.16689
119.2983, 89.84291
119.7804, 91.01244
120.2625, 91.93705
120.7446, 92.78960
121.2267, 93.51115
121.7089, 94.32284
122.1910, 95.09005
122.6731, 95.95052
123.1552, 97.51978
123.6373, 101.3460
124.1194, 105.7600
124.6016, 108.7199
125.0837, 108.9674
125.5658, 107.9144
126.0479, 106.5231
126.5300, 104.8400
127.0121, 103.6475
127.4943, 103.9592
127.9764, 105.2734
128.4585, 106.4470
128.9406, 106.8515
129.4227, 106.8950
129.9048, 107.3757
130.3869, 108.3345
130.8691, 109.3252
131.3512, 109.9619
131.8333, 110.2406
132.3154, 110.1368
132.7975, 109.3644
133.2796, 108.1214
133.7618, 107.3755
134.2439, 106.9848
134.7260, 106.3315
135.2081, 105.2108
135.6902, 103.8683
136.1723, 102.5807
136.6545, 101.4997
137.1366, 100.6270
137.6187, 99.74142
138.1008, 98.81634
138.5829, 97.88821
139.0650, 97.01100
139.5472, 96.18367
140.0293, 95.39412
140.5114, 94.56997
140.9935, 93.63102
141.4756, 93.04147
141.9577, 92.91956
142.4399, 93.12266
142.9220, 93.11718
143.4041, 92.78506
143.8862, 92.45891
144.3683, 92.33768
144.8504, 92.45938
145.3326, 92.69692
145.8147, 93.08823
146.2968, 93.60749
146.7789, 93.99037
147.2610, 94.16968
147.7431, 94.28393
148.2253, 94.44298
148.7074, 94.78910
149.1895, 94.96947
149.6716, 94.87280
150.1537, 94.49183
150.6358, 94.22012
151.1180, 94.09134
151.6001, 94.05215
152.0822, 94.06020
152.5643, 94.26698
153.0464, 94.36380
153.5285, 94.31870
154.0107, 94.13570
154.4928, 93.79089
154.9749, 93.03370
155.4570, 92.21362
155.9391, 91.67594
156.4212, 91.86633
156.9034, 91.95738
157.3855, 91.70177
157.8676, 91.03770
158.3497, 90.29652
158.8318, 89.38840
159.3139, 88.47128
159.7961, 87.74043
160.2782, 87.57816
160.7603, 87.33700
161.2424, 86.68220
161.7245, 85.45081
162.2066, 84.30783
162.6888, 83.53445
163.1709, 82.98493
163.6530, 82.42371
164.1351, 81.75297
164.6172, 81.05232
165.0993, 80.36714
165.5815, 79.70464
166.0636, 79.04941
166.5457, 78.26357
167.0278, 77.47034
167.5099, 76.92683
167.9920, 76.90752
168.4742, 77.09898
168.9563, 77.27190
169.4384, 77.40431
169.9205, 77.47234
170.4026, 77.39072
170.8847, 77.22108
171.3669, 77.13044
171.8490, 77.22323
172.3311, 77.43777
172.8132, 77.70763
173.2953, 78.01244
173.7774, 78.38497
174.2596, 78.86526
174.7417, 79.44219
175.2238, 80.07182
175.7059, 80.82638
176.1880, 81.58488
176.6701, 82.16043
177.1523, 82.46615
177.6344, 82.63802
178.1165, 82.75710
178.5986, 82.84536
179.0807, 83.03280
179.5628, 83.51709
180.0450, 84.16238
180.5271, 84.68539
181.0092, 84.99821
181.4913, 85.18893
181.9734, 85.39066
182.4555, 85.59869
182.9377, 85.74535
183.4198, 85.68720
183.9019, 85.51397
184.3840, 85.48400
184.8661, 85.65266
185.3482, 86.00884
185.8304, 86.61868
186.3125, 87.48133
186.7946, 88.33909
187.2767, 88.91996
187.7588, 89.28719
188.2409, 89.70346
188.7231, 90.25085
189.2052, 90.89101
189.6873, 91.55122
190.1694, 92.24040
190.6515, 92.90280
191.1336, 93.39148
191.6158, 93.74560
192.0979, 94.34615
192.5800, 95.44761
193.0621, 96.84673
193.5442, 97.81489
194.0263, 98.32682
194.5085, 98.61938
194.9906, 98.89883
195.4727, 99.16608
195.9548, 99.42945
196.4369, 99.71823
196.9190, 100.0067
197.4012, 100.1989
197.8833, 100.3219
198.3654, 100.2487
198.8475, 99.70950
199.3296, 98.67076
199.8117, 97.83260
200.2939, 97.47453
200.7760, 97.51554
201.2581, 97.30424
201.7402, 96.78431
202.2223, 96.16605
202.7044, 95.76450
203.1866, 95.64721
203.6687, 95.24305
204.1508, 94.28962
204.6329, 92.83559
205.1150, 91.62193
205.5971, 90.66855
206.0793, 89.91028
206.5614, 89.29286
207.0435, 88.83743
207.5256, 88.45139
208.0077, 88.17421
208.4898, 87.99841
208.9720, 87.51743
209.4541, 86.63193
209.9362, 85.61163
210.4183, 84.76257
210.9004, 84.11317
211.3825, 83.55276
211.8647, 83.05411
212.3468, 82.61726
212.8289, 82.26351
213.3110, 82.05649
213.7931, 81.84049
214.2752, 81.43577
214.7574, 80.81741
215.2395, 80.06821
215.7216, 79.13523
216.2037, 78.01287
216.6858, 77.13615
217.1679, 76.57310
217.6500, 76.16752
218.1322, 75.75710
218.6143, 75.35350
219.0964, 74.90031
219.5785, 74.36356
220.0606, 73.72849
220.5427, 73.20757
221.0249, 72.83485
221.5070, 72.54073
221.9891, 72.25237
222.4712, 71.95663
222.9533, 71.69083
223.4354, 71.48335
223.9176, 71.33758
224.3997, 71.12594
224.8818, 70.77117
225.3639, 70.43301
225.8460, 70.29539
226.3281, 70.44908
226.8103, 70.61678
227.2924, 70.72695
227.7745, 70.77550
228.2566, 70.89502
228.7387, 71.12980
229.2208, 71.38890
229.7030, 71.57401
230.1851, 71.67175
230.6672, 71.71839
231.1493, 71.67122
231.6314, 71.51936
232.1135, 71.59005
232.5957, 71.98322
233.0778, 72.49284
233.5599, 72.90471
234.0420, 73.13611
234.5241, 73.43620
235.0062, 73.89786
235.4884, 74.51858
235.9705, 74.96400
236.4526, 75.12895
236.9347, 75.23363
237.4168, 75.48814
237.8989, 75.97264
238.3811, 76.45089
238.8632, 76.89962
239.3453, 77.31911
239.8274, 77.64671
240.3095, 77.90445
240.7916, 78.04900
241.2738, 78.00130
241.7559, 77.54786
242.2380, 77.33909
242.7201, 77.56843
243.2022, 78.20297
243.6843, 78.62410
244.1665, 78.74122
244.6486, 78.75972
245.1307, 78.81335
245.6128, 78.82417
246.0949, 79.04723
246.5770, 79.62759
247.0592, 80.50549
247.5413, 81.08526
248.0234, 81.23715
248.5055, 81.24863
248.9876, 81.30288
249.4697, 81.38845
249.9519, 81.54039
250.4340, 81.77086
250.9161, 82.07116
251.3982, 82.42126
251.8803, 82.93115
252.3624, 83.32910
252.8446, 83.40810
253.3267, 83.00247
253.8088, 82.67981
254.2909, 82.52522
254.7730, 82.48537
255.2551, 82.32384
255.7373, 81.95180
256.2194, 81.60473
256.7015, 81.42525
257.1836, 81.47227
257.6657, 81.51671
258.1478, 81.49266
258.6299, 81.47349
259.1121, 81.70349
259.5942, 82.28098
260.0763, 82.93700
260.5584, 83.55415
261.0405, 84.10051
261.5226, 84.67152
262.0048, 85.20263
262.4869, 85.79259
262.9690, 86.71265
263.4511, 88.03368
263.9332, 89.52075
264.4153, 91.10783
264.8975, 92.86806
265.3796, 94.48982
265.8617, 95.97379
266.3438, 97.33106
266.8259, 98.60747
267.3080, 99.77727
267.7902, 100.9111
268.2723, 102.0210
268.7544, 103.1329
269.2365, 104.1592
269.7186, 105.1221
270.2007, 105.9717
270.6829, 106.5758
271.1650, 106.8636
271.6471, 107.1716
272.1292, 107.7271
272.6113, 108.5526
273.0934, 108.7102
273.5756, 108.0132
274.0577, 106.9801
274.5398, 106.2548
275.0219, 105.9108
275.5040, 105.5324
275.9861, 105.0209
276.4683, 104.3769
276.9504, 103.6025
277.4325, 102.6875
277.9146, 101.6680
278.3967, 100.5939
278.8788, 99.47826
279.3610, 98.21082
279.8431, 96.69650
280.3252, 95.02063
280.8073, 93.61185
281.2894, 92.53740
281.7715, 91.45350
282.2537, 90.02763
282.7358, 88.25343
283.2179, 86.44614
283.7000, 84.64977
284.1821, 82.86336
284.6642, 81.13749
285.1464, 79.47185
285.6285, 77.79527
286.1106, 76.00794
286.5927, 74.12547
287.0748, 72.38367
287.5569, 70.84868
288.0391, 69.42249
288.5212, 67.87299
289.0033, 66.19051
289.4854, 64.62295
289.9675, 63.41317
290.4496, 62.48864
290.9318, 61.45403
291.4139, 60.25121
291.8960, 58.95805
292.3781, 57.62453
292.8602, 56.26158
293.3423, 55.11993
293.8245, 54.51412
294.3066, 54.24301
294.7887, 53.61105
295.2708, 52.53695
295.7529, 51.32989
296.2350, 50.34064
296.7172, 49.55124
297.1993, 48.85697
297.6814, 48.24054
298.1635, 47.67339
298.6456, 47.12505
299.1277, 46.59706
299.6099, 46.02584
300.0920, 45.31701
300.5741, 44.51484
301.0562, 43.76234
301.5383, 43.06878
302.0204, 42.46929
302.5026, 42.08249
302.9847, 41.89580
303.4668, 41.69960
303.9489, 41.29206
304.4310, 40.76164
304.9131, 40.24570
305.3953, 39.78427
305.8774, 39.36224
306.3595, 38.95547
306.8416, 38.57392
307.3237, 38.25978
307.8058, 38.13140
308.2880, 38.05847
308.7701, 37.86546
309.2522, 37.44780
309.7343, 37.02732
310.2164, 36.78619
310.6985, 36.68390
311.1807, 36.61229
311.6628, 36.47220
312.1449, 36.35879
312.6270, 36.40526
313.1091, 36.70486
313.5912, 36.90032
314.0734, 36.65885
314.5555, 36.17860
315.0376, 35.81813
315.5197, 35.82139
316.0018, 35.92131
316.4839, 35.96329
316.9661, 35.92791
317.4482, 35.88054
317.9303, 35.88662
318.4124, 35.88425
318.8945, 35.80059
319.3766, 35.47719
319.8588, 35.19074
320.3409, 35.09698
320.8230, 35.19464
321.3051, 35.22969
321.7872, 35.02950
322.2693, 34.79076
322.7515, 34.66831
323.2336, 34.85588
323.7157, 34.98910
324.1978, 34.94362
324.6799, 34.75631
325.1620, 34.64405
325.6442, 34.76548
326.1263, 34.87905
326.6084, 34.85388
327.0905, 34.45534
327.5726, 34.22444
328.0547, 34.30852
328.5369, 34.58955
329.0190, 34.75882
329.5011, 34.77404
329.9832, 34.71295
330.4653, 34.58514
330.9474, 34.34044
331.4296, 34.15953
331.9117, 34.05457
332.3938, 34.00905
332.8759, 34.00147
333.3580, 34.05313
333.8401, 34.11261
334.3223, 34.17848
334.8044, 34.25678
335.2865, 34.26539
335.7686, 34.13799
336.2507, 34.01532
336.7328, 34.05591
337.2150, 34.34528
337.6971, 34.56540
338.1792, 34.64163
338.6613, 34.60049
339.1434, 34.62867
339.6255, 34.76786
340.1077, 34.87781
340.5898, 34.82830
341.0719, 34.58700
341.5540, 34.43036
342.0361, 34.38699
342.5182, 34.44197
343.0003, 34.61554
343.4825, 34.93483
343.9646, 35.16317
344.4467, 35.11281
344.9288, 34.81024
345.4109, 34.60118
345.8930, 34.50546
346.3752, 34.48195
346.8573, 34.47544
347.3394, 34.48809
347.8215, 34.54845
348.3036, 34.70790
348.7857, 34.91837
349.2679, 35.03286
349.7500, 35.04858
350.2321, 35.02895
350.7142, 35.06112
351.1963, 35.11002
351.6784, 35.05153
352.1606, 34.74606
352.6427, 34.43182
353.1248, 34.53741
353.6069, 34.99578
354.0890, 35.37595
354.5711, 35.26441
355.0533, 34.92657
355.5354, 34.74436
356.0175, 34.82055
356.4996, 34.98590
356.9817, 35.15578
357.4638, 35.30619
357.9460, 35.37941
358.4281, 35.26317
358.9102, 35.11086
359.3923, 35.04332
359.8744, 35.07470
360.3565, 35.15962
360.8387, 35.37203
361.3208, 35.59283
361.8029, 35.67308
362.2850, 35.33764
362.7671, 35.05243
363.2492, 35.07351
363.7314, 35.37817
364.2135, 35.64155
364.6956, 35.76035
365.1777, 35.79334
365.6598, 35.77671
366.1419, 35.57491
366.6241, 35.49868
367.1062, 35.74382
367.5883, 36.17509
368.0704, 36.39137
368.5525, 36.05577
369.0346, 35.74385
369.5168, 35.70147
369.9989, 36.12282
370.4810, 36.37488
370.9631, 36.39244
371.4452, 36.27093
371.9273, 36.12722
372.4095, 35.87947
372.8916, 35.73437
373.3737, 35.76670
373.8558, 35.98402
374.3379, 36.13897
374.8200, 36.19825
375.3022, 36.24222
375.7843, 36.34585
376.2664, 36.53992
376.7485, 36.68976
377.2306, 36.76077
377.7127, 36.78331
378.1949, 36.87931
378.6770, 37.07824
379.1591, 37.22709
379.6412, 37.21012
380.1233, 37.02544
380.6054, 36.87390
381.0876, 36.75739
381.5697, 36.69031
382.0518, 36.70407
382.5339, 36.79535
383.0160, 36.91848
383.4981, 37.11037
383.9803, 37.31207
384.4624, 37.26015
384.9445, 36.94364
385.4266, 36.71401
385.9087, 37.03244
386.3908, 37.68764
386.8730, 38.12072
387.3551, 38.11919
387.8372, 37.95383
388.3193, 37.93018
388.8014, 38.02732
389.2835, 38.15852
389.7657, 38.31958
390.2478, 38.46481
390.7299, 38.50125
391.2120, 38.37431
391.6941, 38.33756
392.1762, 38.62624
392.6584, 39.10973
393.1405, 39.58510
393.6226, 40.12976
394.1047, 40.51228
394.5868, 40.48726
395.0689, 40.06834
395.5511, 39.79345
396.0332, 39.96099
396.5153, 40.29107
396.9974, 40.57033
397.4795, 40.68237
397.9616, 40.82609
398.4438, 41.06360
398.9259, 41.36322
399.4080, 41.62547
399.8901, 41.66668
400.3722, 41.82501
400.8543, 42.26442
401.3365, 43.15512
401.8186, 43.82878
402.3007, 44.15361
402.7828, 44.34143
403.2649, 44.65107
403.7470, 45.13206
404.2292, 45.64167
404.7113, 46.13945
405.1934, 46.63313
405.6755, 47.19555
406.1576, 47.83175
406.6397, 48.51267
407.1219, 49.21759
407.6040, 49.94637
408.0861, 50.70654
408.5682, 51.51242
409.0503, 52.33550
409.5324, 53.10956
410.0146, 53.83045
410.4967, 54.68791
410.9788, 55.78554
411.4609, 57.09288
411.9430, 58.59771
412.4251, 60.34185
412.9073, 62.02089
413.3894, 63.22902
413.8715, 64.14833
414.3536, 65.29005
414.8357, 66.84082
415.3178, 68.65793
415.8000, 70.62907
416.2821, 72.73401
416.7642, 74.79588
417.2463, 76.50551
417.7284, 78.22014
418.2105, 80.33321
418.6927, 83.00255
419.1748, 85.73082
419.6569, 88.26249
420.1390, 90.69301
420.6211, 93.09521
421.1032, 95.58967
421.5854, 98.04488
422.0675, 100.3776
422.5496, 102.6119
423.0317, 104.8505
423.5138, 107.2368
423.9959, 109.5800
424.4781, 111.7968
424.9602, 113.7955
425.4423, 115.7033
425.9244, 117.4891
426.4065, 119.2008
426.8886, 120.9645
427.3708, 123.0531
427.8529, 124.8747
428.3350, 126.1677
428.8171, 126.8256
429.2992, 127.7415
429.7813, 129.0995
430.2635, 130.4690
430.7456, 131.4122
431.2277, 131.8351
431.7098, 132.1959
432.1919, 132.5647
432.6740, 132.9253
433.1562, 133.3064
433.6383, 133.7431
434.1204, 133.8855
434.6025, 133.6225
435.0846, 132.9161
435.5667, 131.3525
436.0489, 128.7516
436.5310, 125.9905
437.0131, 124.2269
437.4952, 123.2294
437.9773, 122.2290
438.4594, 120.7708
438.9416, 119.2994
439.4236, 118.3349
439.9058, 117.8723
440.3879, 117.8855
440.8700, 118.3233
441.3521, 119.2375
441.8342, 120.7229
442.3163, 122.8739
442.7985, 125.3610
443.2806, 127.5795
443.7627, 130.0743
444.2448, 133.7682
444.7269, 139.8206
445.2090, 146.3026
445.6912, 152.4718
446.1733, 158.2935
446.6554, 164.2821
447.1375, 170.8948
447.6196, 177.4046
448.1017, 183.3710
448.5839, 189.9928
449.0660, 194.3606
449.5481, 196.2479
450.0302, 195.9196
450.5123, 193.7706
450.9944, 189.2840
451.4766, 183.9172
451.9587, 177.7924
452.4408, 170.7827
452.9229, 164.8071
453.4050, 159.7081
453.8871, 155.7864
454.3693, 153.2642
454.8514, 152.1465
455.3335, 152.3079
455.8156, 153.8162
456.2977, 156.4662
456.7798, 159.8241
457.2620, 163.9316
457.7441, 168.9434
458.2262, 175.0000
458.7083, 182.0248
459.1904, 190.2072
459.6725, 199.5484
460.1547, 209.3501
460.6368, 219.3270
461.1189, 229.3205
461.6010, 238.9614
462.0831, 248.4894
462.5652, 257.1493
463.0474, 264.9397
463.5295, 271.4668
464.0116, 275.4001
464.4937, 275.9537
464.9758, 273.8716
465.4579, 269.3395
465.9401, 262.2635
466.4222, 253.5984
466.9043, 242.1959
467.3864, 230.0144
467.8685, 218.8986
468.3506, 208.9475
468.8328, 200.2168
469.3149, 192.9565
469.7970, 186.9691
470.2791, 181.3570
470.7612, 175.9977
471.2433, 171.2681
471.7255, 167.4011
472.2076, 164.4930
472.6897, 161.8373
473.1718, 159.5014
473.6539, 157.1967
474.1360, 154.6699
474.6182, 151.9312
475.1003, 148.6458
475.5824, 144.5482
476.0645, 140.0385
476.5466, 136.2231
477.0287, 133.0285
477.5109, 129.7285
477.9930, 125.6853
478.4751, 121.2669
478.9572, 117.1607
479.4393, 113.4161
479.9214, 109.9202
480.4036, 106.6219
480.8857, 103.5301
481.3678, 100.6940
481.8499, 98.33696
482.3320, 95.99393
482.8141, 93.32497
483.2963, 90.44215
483.7784, 87.71646
484.2605, 85.54308
484.7426, 83.39075
485.2247, 80.92984
485.7068, 78.02841
486.1890, 75.36047
486.6711, 73.16243
487.1532, 71.16252
487.6353, 69.07876
488.1174, 66.79725
488.5995, 64.69025
489.0817, 62.85441
489.5638, 61.21770
490.0459, 59.45314
490.5280, 57.44693
491.0101, 55.58170
491.4922, 54.01100
491.9744, 52.72624
492.4565, 51.62067
492.9386, 50.70652
493.4207, 49.86201
493.9028, 48.91343
494.3849, 47.89439
494.8671, 47.10577
495.3492, 46.67018
495.8313, 46.37457
496.3134, 45.91006
496.7955, 45.30890
497.2776, 44.67838
497.7598, 43.98343
498.2419, 43.35052
498.7240, 42.97759
499.2061, 42.86905
499.6882, 42.74424
500.1703, 42.37374
500.6525, 41.94049
501.1346, 41.61777
501.6167, 41.48750
502.0988, 41.40291
502.5809, 41.38846
503.0630, 41.38630
503.5452, 41.27629
504.0273, 40.91845
504.5094, 40.57791
504.9915, 40.33334
505.4736, 40.18919
505.9557, 39.99567
506.4379, 39.66856
506.9200, 39.40712
507.4021, 39.40577
507.8842, 39.76876
508.3663, 39.89285
508.8484, 39.69447
509.3306, 39.32621
509.8127, 39.02104
510.2948, 38.77993
510.7769, 38.56471
511.2590, 38.34220
511.7411, 38.14918
512.2233, 38.12718
512.7054, 38.25835
513.1875, 38.34154
513.6696, 38.15588
514.1517, 37.86153
514.6339, 37.68673
515.1160, 37.67678
515.5981, 37.72003
516.0802, 37.76128
516.5623, 37.80152
517.0444, 37.84222
517.5266, 37.99660
518.0087, 38.03515
518.4908, 37.75210
518.9729, 37.24335
519.4550, 36.94381
519.9371, 37.13684
520.4193, 37.36863
520.9014, 37.47577
521.3835, 37.44987
521.8656, 37.32093
522.3477, 36.98362
522.8298, 36.65987
523.3120, 36.58399
523.7941, 36.80806
524.2762, 37.06804
524.7583, 37.38135
525.2404, 37.65179
525.7225, 37.58213
526.2047, 37.17590
526.6868, 36.82382
527.1689, 36.75233
527.6510, 36.86654
528.1331, 36.93079
528.6152, 36.94670
529.0974, 36.94389
529.5795, 36.90823
530.0616, 36.88173
530.5437, 36.93174
531.0258, 37.09294
531.5079, 37.27064
531.9901, 37.46718
532.4722, 37.63210
532.9543, 37.68532
533.4364, 37.47805
533.9185, 37.28124
534.4006, 37.17403
534.8828, 37.15509
535.3649, 37.18052
535.8470, 37.22295
536.3291, 37.33198
536.8112, 37.54979
537.2933, 37.92857
537.7755, 38.20344
538.2576, 38.34546
538.7397, 38.41988
539.2218, 38.49975
539.7039, 38.58902
540.1860, 38.63068
540.6682, 38.60569
541.1503, 38.53860
541.6324, 38.45202
542.1145, 38.35366
542.5966, 38.31339
543.0787, 38.41003
543.5609, 38.57151
544.0430, 38.67128
544.5251, 38.71183
545.0072, 38.76720
545.4893, 38.97213
545.9714, 39.17795
546.4536, 39.20660
546.9357, 38.94192
547.4178, 38.71275
547.8999, 38.64105
548.3820, 38.68884
548.8641, 38.80372
549.3463, 39.09710
549.8284, 39.32026
550.3105, 39.39350
550.7926, 39.34682
551.2747, 39.32827
551.7568, 39.30904
552.2390, 39.36593
552.7211, 39.57531
553.2032, 39.96392
553.6853, 40.15672
554.1674, 40.11084
554.6495, 40.00253
555.1317, 40.00633
555.6138, 40.11010
556.0959, 40.22231
556.5780, 40.32352
557.0601, 40.43816
557.5422, 40.61466
558.0244, 40.83466
558.5065, 41.04455
558.9886, 41.27972
559.4707, 41.44753
559.9528, 41.39100
560.4349, 41.15630
560.9171, 41.02522
561.3992, 41.23143
561.8813, 41.50401
562.3634, 41.65900
562.8455, 41.61983
563.3276, 41.64560
563.8098, 41.86934
564.2919, 42.11199
564.7740, 42.20107
565.2561, 41.99086
565.7382, 41.92632
566.2203, 42.10463
566.7025, 42.42221
567.1846, 42.62201
567.6667, 42.70056
568.1488, 42.70473
568.6309, 42.60225
569.1130, 42.44942
569.5952, 42.46404
570.0773, 42.64577
570.5594, 42.88238
571.0415, 43.18240
571.5236, 43.45842
572.0057, 43.53482
572.4879, 43.36700
572.9700, 43.16422
573.4521, 43.04037
573.9342, 42.98101
574.4163, 42.97069
574.8984, 43.00261
575.3806, 43.08371
575.8627, 43.26697
576.3448, 43.50347
576.8269, 43.65798
577.3090, 43.61710
577.7911, 43.61408
578.2733, 43.72063
578.7554, 43.93300
579.2375, 44.13453
579.7196, 44.33854
580.2017, 44.49883
580.6838, 44.55476
581.1660, 44.50834
581.6481, 44.53254
582.1302, 44.64502
582.6123, 44.78889
583.0944, 44.85191
583.5765, 44.88671
584.0587, 45.08197
584.5408, 45.62262
585.0229, 46.11195
585.5050, 45.98332
585.9871, 45.48656
586.4692, 45.23116
586.9514, 45.69090
587.4335, 46.27233
587.9155, 46.67834
588.3976, 46.90639
588.8798, 47.14518
