##NAMES=Leiteite
##RRUFFID=R040011
##IDEAL CHEMISTRY=Zn^2+^As^3+^_2_O_4_
##LOCALITY=Tsumeb mine, Tsumeb, Otavi District, Oshikoto, Namibia
##OWNER=RRUFF
##SOURCE=Dave Bunk Minerals
##DESCRIPTION=Transparent tan colored flexible lamellar crystal
##STATUS=The identification of this mineral has been confirmed by X-ray diffraction and chemical analysis
##URL=rruff.info/R040011
##MEASURED CHEMISTRY=Zn_1.00_As^3+^_2.00_O_4_
118.9584, 576.5010
119.4405, 605.5958
119.9227, 635.5970
120.4048, 661.3495
120.8869, 681.5978
121.3690, 701.5026
121.8511, 721.8242
122.3332, 743.9688
122.8154, 770.8946
123.2975, 811.2565
123.7796, 853.9491
124.2617, 889.9074
124.7438, 919.3580
125.2259, 936.0701
125.7081, 928.9409
126.1902, 901.2095
126.6723, 864.4878
127.1544, 825.0143
127.6365, 789.3830
128.1186, 762.5548
128.6008, 746.4977
129.0829, 738.4506
129.5650, 736.7335
130.0471, 740.9941
130.5292, 746.3996
131.0113, 749.1516
131.4935, 749.7331
131.9756, 749.9839
132.4577, 749.7864
132.9398, 749.7911
133.4219, 751.5035
133.9040, 754.7775
134.3862, 760.4075
134.8683, 769.8461
135.3504, 783.0338
135.8325, 796.7589
136.3146, 810.4838
136.7967, 824.0433
137.2789, 836.0740
137.7610, 846.3854
138.2431, 855.9040
138.7252, 865.6144
139.2073, 875.2632
139.6894, 886.4075
140.1716, 899.0511
140.6537, 912.8712
141.1358, 931.3292
141.6179, 954.4968
142.1000, 982.4440
142.5821, 1014.297
143.0643, 1048.780
143.5464, 1090.212
144.0285, 1140.177
144.5106, 1196.411
144.9927, 1266.354
145.4748, 1351.658
145.9570, 1449.756
146.4391, 1550.487
146.9212, 1661.165
147.4033, 1766.870
147.8854, 1864.260
148.3675, 1976.032
148.8497, 2043.734
149.3318, 2067.848
149.8139, 2047.872
150.2960, 1975.547
150.7781, 1812.085
151.2602, 1625.234
151.7424, 1453.031
152.2245, 1284.896
152.7066, 1142.456
153.1887, 1030.790
153.6708, 949.6693
154.1529, 884.4991
154.6351, 838.1242
155.1172, 804.4150
155.5993, 779.1500
156.0814, 765.1271
156.5635, 755.6681
157.0456, 750.0381
157.5278, 748.2338
158.0099, 748.7471
158.4920, 751.7946
158.9741, 756.7949
159.4562, 763.2302
159.9383, 772.2686
160.4205, 781.5580
160.9026, 789.9454
161.3847, 797.2753
161.8668, 805.7637
162.3489, 813.0339
162.8310, 822.7733
163.3132, 839.2796
163.7953, 867.7244
164.2774, 900.3701
164.7595, 934.0771
165.2416, 968.9202
165.7237, 1003.153
166.2059, 1042.611
166.6880, 1080.269
167.1701, 1105.426
167.6522, 1114.117
168.1343, 1108.377
168.6164, 1087.174
169.0985, 1048.121
169.5807, 1003.862
170.0628, 957.6409
170.5449, 912.1908
171.0270, 873.3196
171.5091, 844.8989
171.9912, 823.9100
172.4734, 807.6700
172.9555, 795.8703
173.4376, 788.4618
173.9197, 785.4888
174.4018, 786.7920
174.8839, 792.1017
175.3661, 802.3564
175.8482, 816.0914
176.3303, 831.7487
176.8124, 849.6517
177.2945, 868.1923
177.7766, 888.5936
178.2588, 909.4473
178.7409, 924.0233
179.2230, 929.4485
179.7051, 925.6870
180.1872, 911.2596
180.6693, 882.8806
181.1515, 849.2281
181.6336, 820.0921
182.1157, 795.6085
182.5978, 776.8996
183.0799, 765.2532
183.5620, 759.8456
184.0442, 758.9308
184.5263, 762.9656
185.0084, 770.1673
185.4905, 777.1255
185.9726, 783.9241
186.4547, 793.3041
186.9369, 809.2362
187.4190, 830.1921
187.9011, 849.2627
188.3832, 865.6172
188.8653, 879.0184
189.3474, 890.5420
189.8296, 900.4825
190.3117, 903.8922
190.7938, 894.1351
191.2759, 872.6790
191.7580, 850.5867
192.2401, 828.7887
192.7223, 808.5774
193.2044, 792.9859
193.6865, 781.7645
194.1686, 775.8988
194.6507, 776.0772
195.1328, 782.2117
195.6150, 794.5438
196.0971, 813.1860
196.5792, 837.9871
197.0613, 868.6253
197.5434, 905.0544
198.0255, 946.9601
198.5077, 996.5456
198.9898, 1054.614
199.4719, 1105.775
199.9540, 1147.084
200.4361, 1178.492
200.9182, 1198.880
201.4004, 1206.262
201.8825, 1208.280
202.3646, 1211.351
202.8467, 1215.232
203.3288, 1222.215
203.8109, 1234.050
204.2931, 1249.911
204.7752, 1262.828
205.2573, 1272.723
205.7394, 1279.907
206.2215, 1284.007
206.7036, 1284.328
207.1858, 1284.835
207.6679, 1285.490
208.1500, 1286.593
208.6321, 1292.530
209.1142, 1302.821
209.5963, 1318.796
210.0785, 1341.750
210.5606, 1371.410
211.0427, 1408.359
211.5248, 1451.938
212.0069, 1502.263
212.4890, 1565.042
212.9712, 1640.667
213.4533, 1728.524
213.9354, 1825.081
214.4175, 1927.682
214.8996, 2049.441
215.3817, 2194.782
215.8639, 2362.407
216.3460, 2557.293
216.8281, 2803.959
217.3102, 3046.161
217.7923, 3227.718
218.2744, 3362.523
218.7565, 3403.993
219.2387, 3334.221
219.7208, 3152.199
220.2029, 2906.440
220.6850, 2571.396
221.1671, 2205.395
221.6492, 1871.594
222.1314, 1558.560
222.6135, 1297.285
223.0956, 1104.436
223.5777, 979.0450
224.0598, 881.1859
224.5419, 816.2906
225.0241, 771.8553
225.5062, 734.6581
225.9883, 706.1618
226.4704, 682.4421
226.9525, 663.4618
227.4346, 649.0242
227.9168, 637.7717
228.3989, 629.9678
228.8810, 625.0490
229.3631, 622.7391
229.8452, 623.8260
230.3273, 625.9117
230.8095, 628.3580
231.2916, 631.1127
231.7737, 635.6544
232.2558, 641.8809
232.7379, 649.9874
233.2200, 659.6632
233.7022, 668.9346
234.1843, 683.6113
234.6664, 705.4798
235.1485, 734.3995
235.6306, 765.8651
236.1127, 802.2949
236.5949, 839.2072
237.0770, 872.8259
237.5591, 903.4883
238.0412, 930.0356
238.5233, 951.3983
239.0054, 967.6528
239.4876, 982.5545
239.9697, 994.3041
240.4518, 1006.780
240.9339, 1023.764
241.4160, 1047.822
241.8981, 1071.199
242.3803, 1091.901
242.8624, 1110.153
243.3445, 1130.493
243.8266, 1152.873
244.3087, 1177.549
244.7908, 1204.800
245.2730, 1235.019
245.7551, 1266.946
246.2372, 1300.024
246.7193, 1334.391
247.2014, 1371.903
247.6835, 1410.477
248.1657, 1454.291
248.6478, 1505.745
249.1299, 1565.381
249.6120, 1631.612
250.0941, 1701.926
250.5762, 1777.687
251.0584, 1870.542
251.5405, 1980.732
252.0226, 2106.604
252.5047, 2246.209
252.9868, 2403.376
253.4689, 2569.277
253.9511, 2755.379
254.4332, 2952.776
254.9153, 3112.155
255.3974, 3252.543
255.8795, 3326.329
256.3616, 3297.092
256.8438, 3138.730
257.3259, 2942.834
257.8080, 2697.583
258.2901, 2421.853
258.7722, 2179.219
259.2543, 1969.815
259.7365, 1792.176
260.2186, 1643.371
260.7007, 1529.523
261.1828, 1430.654
261.6649, 1347.132
262.1470, 1277.731
262.6292, 1216.482
263.1113, 1163.922
263.5934, 1119.297
264.0755, 1082.761
264.5576, 1054.776
265.0397, 1032.191
265.5219, 1014.930
266.0040, 1002.873
266.4861, 996.1564
266.9682, 996.5676
267.4503, 998.0383
267.9324, 999.7324
268.4146, 1004.061
268.8967, 997.0907
269.3788, 976.7588
269.8609, 947.2700
270.3430, 915.9886
270.8251, 882.4418
271.3073, 848.7933
271.7894, 815.3289
272.2715, 781.4054
272.7536, 754.2949
273.2357, 735.5697
273.7178, 721.7366
274.2000, 707.7032
274.6821, 693.5132
275.1642, 679.1722
275.6463, 664.2938
276.1284, 648.8706
276.6105, 635.0189
277.0927, 622.5644
277.5748, 612.0599
278.0569, 604.5917
278.5390, 600.4426
279.0211, 597.1666
279.5032, 593.9521
279.9854, 590.9584
280.4675, 589.5884
280.9496, 590.1505
281.4317, 591.3243
281.9138, 591.6105
282.3959, 590.9669
282.8781, 590.7019
283.3602, 591.3228
283.8423, 592.5634
284.3244, 593.0292
284.8065, 592.5500
285.2886, 592.3669
285.7708, 593.8749
286.2529, 596.9741
286.7350, 599.7472
287.2171, 601.4881
287.6992, 602.8608
288.1813, 605.9042
288.6635, 610.7007
289.1456, 615.7301
289.6277, 620.1306
290.1098, 623.8600
290.5919, 626.2989
291.0740, 626.8718
291.5562, 626.8668
292.0383, 629.0490
292.5204, 633.3389
293.0025, 637.6774
293.4846, 640.4943
293.9667, 642.2605
294.4489, 644.5905
294.9310, 647.6567
295.4131, 651.3386
295.8952, 655.4048
296.3773, 659.8902
296.8594, 665.0466
297.3416, 671.7144
297.8237, 679.1591
298.3058, 685.2894
298.7879, 689.7472
299.2700, 694.2235
299.7521, 701.0616
300.2343, 709.6314
300.7164, 717.5800
301.1985, 724.5966
301.6806, 730.1185
302.1627, 732.5125
302.6448, 731.5670
303.1270, 730.1277
303.6091, 731.1321
304.0912, 733.5626
304.5733, 735.3569
305.0554, 736.6051
305.5375, 736.2636
306.0197, 733.1199
306.5018, 727.2327
306.9839, 719.1536
307.4660, 708.9103
307.9481, 696.8788
308.4302, 683.5582
308.9124, 667.8971
309.3945, 652.0316
309.8766, 636.6782
310.3587, 622.0864
310.8408, 610.3439
311.3229, 605.3214
311.8051, 602.5414
312.2872, 597.2424
312.7693, 586.0692
313.2514, 575.8930
313.7335, 571.4934
314.2156, 571.4159
314.6978, 571.3206
315.1799, 568.8126
315.6620, 565.7590
316.1441, 563.5017
316.6262, 562.3250
317.1083, 561.7063
317.5905, 562.2268
318.0726, 563.0676
318.5547, 562.8036
319.0368, 559.6314
319.5189, 556.2530
320.0010, 553.9973
320.4832, 553.0988
320.9653, 552.6564
321.4474, 552.1879
321.9295, 552.1199
322.4116, 552.9529
322.8937, 556.8385
323.3759, 559.6806
323.8580, 559.8922
324.3401, 557.2952
324.8222, 554.8595
325.3043, 552.3339
325.7864, 550.5030
326.2686, 549.9711
326.7507, 552.2816
327.2328, 554.2475
327.7149, 555.2051
328.1970, 555.2632
328.6791, 555.7926
329.1613, 557.7596
329.6434, 559.4431
330.1255, 559.9381
330.6076, 557.9010
331.0897, 556.6096
331.5718, 556.3101
332.0540, 556.7874
332.5361, 557.4197
333.0182, 558.1331
333.5003, 559.1188
333.9824, 560.6612
334.4645, 563.4492
334.9467, 564.5676
335.4288, 563.0244
335.9109, 560.5131
336.3930, 559.9819
336.8751, 562.3231
337.3572, 564.5195
337.8394, 565.3689
338.3215, 564.7376
338.8036, 565.9828
339.2857, 569.9682
339.7678, 574.3335
340.2499, 576.2443
340.7320, 575.1641
341.2141, 574.6613
341.6963, 575.6781
342.1784, 577.8731
342.6605, 579.8065
343.1426, 581.5245
343.6247, 582.6710
344.1068, 582.0133
344.5890, 579.7252
345.0711, 580.2996
345.5532, 585.1400
346.0353, 592.1152
346.5174, 596.4728
346.9995, 598.2882
347.4817, 600.1866
347.9638, 604.0006
348.4459, 609.2416
348.9280, 614.2736
349.4101, 619.0304
349.8922, 623.2880
350.3744, 626.1735
350.8565, 628.0734
351.3386, 630.5665
351.8207, 635.1708
352.3028, 640.5504
352.7849, 644.3332
353.2671, 646.5054
353.7492, 648.5598
354.2313, 651.4448
354.7134, 655.1447
355.1955, 659.7338
355.6776, 665.7339
356.1598, 672.1202
356.6419, 677.6915
357.1240, 682.7030
357.6061, 688.5051
358.0882, 696.3439
358.5703, 705.1960
359.0525, 713.9296
359.5346, 722.0952
360.0167, 730.5735
360.4988, 739.2196
360.9809, 748.4792
361.4630, 759.2758
361.9452, 773.4326
362.4273, 788.1309
362.9094, 801.0525
363.3915, 810.9576
363.8736, 823.7858
364.3557, 844.4847
364.8379, 868.0262
365.3200, 888.4385
365.8021, 905.3054
366.2842, 918.0257
366.7663, 925.9825
367.2484, 929.2344
367.7306, 929.3666
368.2127, 926.8854
368.6948, 921.1719
369.1769, 911.8011
369.6590, 896.0905
370.1411, 879.9614
370.6233, 862.4950
371.1054, 844.5571
371.5875, 829.3312
372.0696, 816.9890
372.5517, 807.3425
373.0338, 800.4580
373.5160, 797.0150
373.9981, 794.2932
374.4802, 791.8632
374.9623, 790.4612
375.4444, 791.9303
375.9265, 797.9915
376.4087, 802.0833
376.8908, 801.6089
377.3729, 796.7639
377.8550, 793.9691
378.3371, 794.0599
378.8192, 794.0337
379.3014, 790.8386
379.7835, 784.3391
380.2656, 776.8537
380.7477, 768.3283
381.2298, 759.5563
381.7119, 752.7262
382.1941, 747.9293
382.6762, 743.1990
383.1583, 736.4274
383.6404, 728.4703
384.1225, 723.0474
384.6046, 720.7067
385.0868, 720.2264
385.5689, 720.9137
386.0510, 722.3722
386.5331, 723.1280
387.0152, 721.2182
387.4973, 718.7328
387.9795, 718.8871
388.4616, 721.7223
388.9437, 725.3846
389.4258, 728.7437
389.9079, 731.9679
390.3900, 735.2936
390.8722, 739.3275
391.3543, 742.8678
391.8364, 744.6375
392.3185, 745.0299
392.8006, 745.5592
393.2827, 746.5198
393.7649, 748.1508
394.2470, 750.7078
394.7291, 754.4757
395.2112, 758.4424
395.6933, 762.5036
396.1754, 766.4713
396.6576, 770.0702
397.1397, 772.1343
397.6218, 774.8444
398.1039, 779.5995
398.5860, 786.7681
399.0681, 791.9855
399.5503, 791.6984
400.0324, 791.2050
400.5145, 794.4385
400.9966, 805.0697
401.4787, 814.3696
401.9608, 821.8947
402.4430, 827.6945
402.9251, 831.6741
403.4072, 832.3387
403.8893, 833.4752
404.3714, 836.8394
404.8535, 842.9256
405.3357, 849.2640
405.8178, 855.7894
406.2999, 862.5430
406.7820, 869.5421
407.2641, 876.7796
407.7462, 884.2239
408.2284, 891.6136
408.7105, 899.1345
409.1926, 909.2002
409.6747, 922.2500
410.1568, 934.6359
410.6389, 941.8475
411.1211, 945.0262
411.6032, 951.2269
412.0853, 962.1393
412.5674, 975.5835
413.0495, 989.5280
413.5316, 1003.801
414.0138, 1017.111
414.4959, 1027.494
414.9780, 1037.114
415.4601, 1049.270
415.9422, 1064.343
416.4243, 1080.371
416.9065, 1096.617
417.3886, 1112.676
417.8707, 1127.548
418.3528, 1138.707
418.8349, 1150.831
419.3170, 1167.367
419.7992, 1187.848
420.2813, 1209.075
420.7634, 1230.555
421.2455, 1252.145
421.7276, 1273.642
422.2097, 1294.959
422.6919, 1316.773
423.1740, 1338.915
423.6561, 1361.796
424.1382, 1386.617
424.6203, 1413.721
425.1024, 1441.961
425.5846, 1471.350
426.0667, 1501.786
426.5488, 1532.969
427.0309, 1563.259
427.5130, 1596.102
427.9951, 1634.333
428.4773, 1680.619
428.9594, 1726.187
429.4415, 1768.770
429.9236, 1810.853
430.4057, 1859.223
430.8878, 1913.448
431.3700, 1974.688
431.8521, 2045.094
432.3342, 2124.679
432.8163, 2201.530
433.2984, 2273.305
433.7805, 2350.544
434.2627, 2445.538
434.7448, 2557.469
435.2269, 2677.213
435.7090, 2802.309
436.1911, 2936.394
436.6732, 3083.591
437.1554, 3244.712
437.6375, 3422.257
438.1196, 3619.211
438.6017, 3833.236
439.0838, 4061.321
439.5659, 4304.555
440.0480, 4558.226
440.5302, 4824.828
441.0123, 5100.675
441.4944, 5379.613
441.9765, 5664.181
442.4586, 5946.835
442.9407, 6219.626
443.4229, 6482.434
443.9050, 6755.187
444.3871, 7046.566
444.8692, 7346.815
445.3513, 7648.638
445.8334, 7948.074
446.3156, 8255.427
446.7977, 8556.740
447.2798, 8867.678
447.7619, 9215.380
448.2440, 9613.394
448.7261, 10032.91
449.2083, 10460.23
449.6904, 10895.70
450.1725, 11368.55
450.6546, 11875.85
451.1367, 12417.01
451.6188, 12990.65
452.1010, 13602.97
452.5831, 14241.70
453.0652, 14920.42
453.5473, 15622.43
454.0294, 16339.11
454.5115, 17079.80
454.9937, 17780.82
455.4758, 18445.15
455.9579, 19056.44
456.4400, 19554.00
456.9221, 19946.36
457.4042, 20183.73
457.8864, 20232.64
458.3685, 20091.82
458.8506, 19754.04
459.3327, 19206.91
459.8148, 18481.35
460.2969, 17571.54
460.7791, 16499.96
461.2612, 15369.08
461.7433, 14173.13
462.2254, 12978.69
462.7075, 11851.96
463.1896, 10787.39
463.6718, 9798.399
464.1539, 8901.130
464.6360, 8083.608
465.1181, 7349.880
465.6002, 6717.313
466.0823, 6149.358
466.5645, 5648.975
467.0466, 5211.724
467.5287, 4821.106
468.0108, 4489.190
468.4929, 4191.624
468.9750, 3920.737
469.4572, 3678.027
469.9393, 3459.100
470.4214, 3268.400
470.9035, 3099.247
471.3856, 2945.656
471.8677, 2808.912
472.3499, 2682.999
472.8320, 2564.975
473.3141, 2455.797
473.7962, 2357.834
474.2783, 2271.711
474.7604, 2192.431
475.2426, 2118.122
475.7247, 2048.208
476.2068, 1981.139
476.6889, 1916.350
477.1710, 1855.409
477.6531, 1800.800
478.1353, 1751.494
478.6174, 1704.567
479.0995, 1658.311
479.5816, 1614.685
480.0637, 1577.022
480.5458, 1544.382
481.0280, 1513.962
481.5101, 1485.515
481.9922, 1457.644
482.4743, 1429.101
482.9564, 1399.123
483.4385, 1370.939
483.9207, 1346.918
484.4028, 1325.166
484.8849, 1303.729
485.3670, 1281.897
485.8491, 1261.033
486.3312, 1241.159
486.8134, 1222.457
487.2955, 1205.368
487.7776, 1190.342
488.2597, 1176.933
488.7418, 1165.404
489.2239, 1156.536
489.7061, 1146.281
490.1882, 1134.255
490.6703, 1121.383
491.1524, 1108.003
491.6345, 1093.697
492.1166, 1081.622
492.5988, 1072.954
493.0809, 1065.989
493.5630, 1056.069
494.0451, 1043.211
494.5272, 1031.037
495.0093, 1022.144
495.4915, 1015.301
495.9736, 1007.992
496.4557, 1000.172
496.9378, 991.1044
497.4199, 978.2567
497.9020, 964.2632
498.3842, 953.6412
498.8663, 949.6996
499.3484, 946.4679
499.8305, 940.0668
500.3126, 931.4247
500.7947, 922.9183
501.2769, 914.7010
501.7590, 907.3395
502.2411, 901.5223
502.7232, 897.5667
503.2053, 892.6940
503.6874, 885.6216
504.1696, 878.1115
504.6517, 871.5592
505.1338, 866.7394
505.6159, 861.4639
506.0980, 855.2347
506.5801, 848.6658
507.0623, 843.2399
507.5444, 839.0889
508.0265, 835.4741
508.5086, 832.3737
508.9907, 829.6335
509.4728, 825.9039
509.9550, 821.1373
510.4371, 815.9093
510.9192, 809.8683
511.4013, 803.6559
511.8834, 800.3456
512.3655, 801.1198
512.8477, 802.4742
513.3298, 800.0536
513.8119, 795.0293
514.2940, 790.1726
514.7761, 786.3781
515.2582, 783.5330
515.7404, 781.7821
516.2225, 781.0083
516.7046, 780.3854
517.1867, 779.6530
517.6688, 778.8710
518.1509, 778.1396
518.6331, 777.6973
519.1152, 776.7198
519.5973, 773.9594
520.0794, 771.0089
520.5615, 769.9163
521.0436, 771.8656
521.5258, 773.8189
522.0079, 775.5279
522.4900, 776.8808
522.9721, 776.9567
523.4542, 774.9576
523.9363, 773.9999
524.4185, 776.0475
524.9006, 781.0995
525.3827, 786.0068
525.8648, 790.7911
526.3469, 795.5005
526.8290, 799.0731
527.3112, 802.3880
527.7933, 808.9092
528.2754, 820.0033
528.7575, 833.7687
529.2396, 848.6628
529.7217, 864.6356
530.2039, 881.2046
530.6860, 897.2935
531.1681, 914.6608
531.6502, 935.7082
532.1323, 960.5207
532.6144, 984.7488
533.0966, 1006.768
533.5787, 1027.706
534.0608, 1048.599
534.5429, 1068.855
535.0250, 1089.988
535.5071, 1111.548
535.9893, 1134.028
536.4714, 1157.751
536.9535, 1182.939
537.4356, 1208.757
537.9177, 1234.262
538.3998, 1260.145
538.8820, 1289.087
539.3641, 1320.569
539.8462, 1355.726
540.3283, 1395.106
540.8104, 1438.357
541.2925, 1483.821
541.7747, 1530.768
542.2568, 1582.962
542.7389, 1645.891
543.2210, 1717.134
543.7031, 1791.301
544.1852, 1867.592
544.6674, 1944.930
545.1495, 2023.586
545.6316, 2101.910
546.1137, 2175.762
546.5958, 2247.606
547.0779, 2310.844
547.5601, 2366.270
548.0422, 2414.130
548.5243, 2437.095
549.0064, 2431.110
549.4885, 2399.032
549.9706, 2341.879
550.4528, 2250.796
550.9349, 2151.738
551.4170, 2040.428
551.8991, 1922.695
552.3812, 1804.789
552.8633, 1684.856
553.3455, 1571.903
553.8276, 1466.768
554.3097, 1370.833
554.7918, 1289.082
555.2739, 1222.829
555.7560, 1165.473
556.2382, 1114.703
556.7203, 1070.023
557.2024, 1030.933
557.6845, 997.4702
558.1666, 967.4639
558.6487, 939.0834
559.1309, 913.3210
559.6130, 892.2141
560.0951, 877.3742
560.5772, 864.6310
561.0593, 852.8978
561.5414, 841.7233
562.0236, 830.4929
562.5057, 816.6916
562.9878, 805.1314
563.4699, 798.2848
563.9520, 795.6118
564.4341, 790.8349
564.9163, 782.2797
565.3984, 773.9515
565.8805, 767.8075
566.3626, 764.1349
566.8447, 760.8439
567.3268, 758.0693
567.8090, 755.1820
568.2911, 751.1890
568.7732, 746.2449
569.2553, 742.0885
569.7374, 739.1342
570.2195, 736.9031
570.7017, 735.3773
571.1838, 734.0526
571.6659, 731.3824
572.1480, 724.6818
572.6301, 717.6925
573.1122, 713.8153
573.5944, 712.7697
574.0765, 711.9511
574.5586, 709.8236
575.0407, 707.8473
575.5228, 707.1460
576.0049, 708.7733
576.4871, 709.0631
576.9692, 706.3478
577.4513, 703.0507
577.9334, 701.3544
578.4155, 701.5944
578.8976, 702.8126
579.3798, 705.2195
579.8619, 708.2982
580.3440, 710.4281
580.8261, 711.4479
581.3082, 713.5195
581.7903, 718.0760
582.2725, 724.2054
582.7546, 728.3669
583.2367, 730.8134
583.7188, 735.0618
584.2009, 744.9731
584.6830, 757.6426
585.1652, 769.3179
585.6473, 779.4485
586.1294, 789.2825
586.6115, 799.6600
587.0936, 810.1997
587.5757, 820.3665
588.0578, 829.7080
588.5399, 839.0314
589.0220, 848.8295
589.5042, 858.6600
589.9863, 867.4055
590.4684, 873.4232
590.9505, 880.7905
591.4326, 890.2397
591.9147, 901.8338
592.3969, 916.4427
592.8790, 934.4132
593.3611, 953.9206
593.8432, 972.8412
594.3253, 991.7804
594.8074, 1016.351
595.2896, 1047.002
595.7717, 1080.979
596.2538, 1115.369
596.7359, 1151.235
597.2180, 1191.681
597.7001, 1239.611
598.1823, 1285.764
598.6644, 1321.891
599.1465, 1352.176
599.6286, 1383.924
600.1107, 1426.449
600.5928, 1463.118
601.0750, 1492.680
601.5571, 1513.142
602.0392, 1515.160
602.5213, 1498.460
603.0034, 1463.555
603.4855, 1408.235
603.9677, 1330.639
604.4498, 1250.650
604.9319, 1166.219
605.4140, 1083.742
605.8961, 1009.230
606.3782, 942.1069
606.8604, 886.1584
607.3425, 842.2148
607.8246, 806.1554
608.3067, 774.5649
608.7888, 747.2609
609.2709, 724.6431
609.7531, 708.1184
610.2352, 694.8139
610.7173, 683.3547
611.1994, 673.5912
611.6815, 664.9934
612.1636, 657.8636
612.6458, 651.3359
613.1279, 644.8800
613.6100, 638.5543
614.0921, 633.2197
614.5742, 628.9147
615.0563, 625.4847
