##NAMES=Leiteite
##RRUFFID=R040011
##IDEAL CHEMISTRY=Zn^2+^As^3+^_2_O_4_
##LOCALITY=Tsumeb mine, Tsumeb, Otavi District, Oshikoto, Namibia
##OWNER=RRUFF
##SOURCE=Dave Bunk Minerals
##DESCRIPTION=Transparent tan colored flexible lamellar crystal
##STATUS=The identification of this mineral has been confirmed by X-ray diffraction and chemical analysis
##URL=rruff.info/R040011
##MEASURED CHEMISTRY=Zn_1.00_As^3+^_2.00_O_4_
118.6159, 422.5320
119.0980, 437.4514
119.5801, 453.7542
120.0622, 471.3259
120.5444, 489.5570
121.0265, 506.4148
121.5086, 521.3488
121.9907, 541.2953
122.4728, 569.7855
122.9549, 604.8447
123.4371, 643.1008
123.9192, 688.6898
124.4013, 730.1614
124.8834, 759.0221
125.3655, 775.5892
125.8476, 777.8560
126.3298, 759.2303
126.8119, 718.0242
127.2940, 678.2605
127.7761, 643.7750
128.2582, 614.5624
128.7403, 592.0388
129.2225, 576.5822
129.7046, 565.4288
130.1867, 553.7334
130.6688, 540.1910
131.1509, 528.7745
131.6330, 519.3590
132.1152, 512.1060
132.5973, 506.8600
133.0794, 503.5571
133.5615, 502.5535
134.0436, 505.4947
134.5257, 515.7548
135.0079, 526.6346
135.4900, 537.0641
135.9721, 547.5620
136.4542, 559.3540
136.9363, 573.4170
137.4184, 589.5695
137.9006, 604.3005
138.3827, 616.4649
138.8648, 628.7077
139.3469, 641.5342
139.8290, 655.1923
140.3111, 670.8912
140.7933, 689.6122
141.2754, 711.6132
141.7575, 735.8043
142.2396, 761.2405
142.7217, 789.2681
143.2038, 820.4940
143.6860, 854.6418
144.1681, 893.9613
144.6502, 942.2424
145.1323, 996.9012
145.6144, 1054.076
146.0965, 1118.695
146.5787, 1185.182
147.0608, 1236.996
147.5429, 1273.835
148.0250, 1291.927
148.5071, 1295.249
148.9892, 1282.532
149.4714, 1250.139
149.9535, 1190.236
150.4356, 1100.784
150.9177, 1010.881
151.3998, 912.1961
151.8819, 820.6481
152.3641, 740.4527
152.8462, 672.7793
153.3283, 617.7962
153.8104, 575.9980
154.2925, 550.3972
154.7746, 531.6195
155.2568, 521.6974
155.7389, 515.4292
156.2210, 509.8590
156.7031, 504.3050
157.1852, 499.8304
157.6673, 498.2010
158.1495, 501.6451
158.6316, 504.4893
159.1137, 505.5634
159.5958, 506.5688
160.0779, 509.3983
160.5600, 514.7498
161.0422, 521.5449
161.5243, 527.6698
162.0064, 532.9811
162.4885, 538.1110
162.9706, 542.2180
163.4527, 546.2745
163.9349, 552.2720
164.4170, 561.1844
164.8991, 572.2248
165.3812, 584.4094
165.8633, 598.9878
166.3454, 611.4317
166.8276, 621.4056
167.3097, 628.2354
167.7918, 626.7037
168.2739, 611.9841
168.7560, 588.9278
169.2381, 563.0836
169.7203, 534.0192
170.2024, 505.2924
170.6845, 480.0443
171.1666, 458.4697
171.6487, 439.8734
172.1308, 424.4382
172.6130, 411.8252
173.0951, 402.3781
173.5772, 396.3268
174.0593, 392.7978
174.5414, 390.4038
175.0235, 389.4503
175.5057, 389.1310
175.9878, 388.7863
176.4699, 389.0423
176.9520, 390.5836
177.4341, 393.7538
177.9162, 398.1819
178.3984, 402.8703
178.8805, 409.2791
179.3626, 413.9107
179.8447, 415.8307
180.3268, 415.9930
180.8089, 415.0558
181.2911, 413.2252
181.7732, 411.1704
182.2553, 412.8736
182.7374, 420.6212
183.2195, 429.5981
183.7016, 439.1379
184.1838, 449.2900
184.6659, 460.6662
185.1480, 474.0268
185.6301, 488.8728
186.1122, 499.7812
186.5943, 504.6049
187.0764, 508.6580
187.5586, 513.8102
188.0407, 519.8600
188.5228, 526.0991
189.0049, 532.4783
189.4870, 538.4572
189.9691, 541.8931
190.4513, 542.7203
190.9334, 541.2809
191.4155, 536.6730
191.8976, 529.1475
192.3797, 521.7437
192.8618, 514.9705
193.3440, 510.3323
193.8261, 511.1578
194.3082, 517.1222
194.7903, 529.2106
195.2724, 548.2516
195.7545, 574.1368
196.2367, 607.2090
196.7188, 650.3070
197.2009, 700.5620
197.6830, 755.9897
198.1651, 818.7293
198.6472, 884.3649
199.1294, 948.2227
199.6115, 1014.555
200.0936, 1066.971
200.5757, 1096.058
201.0578, 1109.072
201.5399, 1112.460
202.0221, 1105.350
202.5042, 1093.155
202.9863, 1092.157
203.4684, 1107.624
203.9505, 1126.665
204.4326, 1144.769
204.9148, 1163.249
205.3969, 1184.290
205.8790, 1209.653
206.3611, 1238.238
206.8432, 1264.803
207.3253, 1285.052
207.8075, 1308.628
208.2896, 1336.865
208.7717, 1369.668
209.2538, 1406.748
209.7359, 1447.593
210.2180, 1492.562
210.7002, 1543.478
211.1823, 1596.732
211.6644, 1660.544
212.1465, 1734.346
212.6286, 1820.181
213.1107, 1919.834
213.5929, 2033.765
214.0750, 2163.040
214.5571, 2320.679
215.0392, 2506.488
215.5213, 2718.078
216.0034, 2986.414
216.4856, 3281.642
216.9677, 3551.490
217.4498, 3773.255
217.9319, 3938.553
218.4140, 3938.394
218.8961, 3733.096
219.3783, 3447.244
219.8604, 3088.935
220.3425, 2681.205
220.8246, 2275.090
221.3067, 1893.039
221.7888, 1543.424
222.2710, 1254.387
222.7531, 1031.855
223.2352, 855.0015
223.7173, 721.8074
224.1994, 628.5197
224.6815, 558.5504
225.1637, 505.8873
225.6458, 469.8481
226.1279, 440.0097
226.6100, 417.9730
227.0921, 400.3250
227.5742, 385.2114
228.0564, 372.6872
228.5385, 362.8098
229.0206, 356.5298
229.5027, 352.8382
229.9848, 349.0978
230.4669, 344.2530
230.9491, 340.5256
231.4312, 339.7884
231.9133, 342.0392
232.3954, 346.2002
232.8775, 352.0789
233.3596, 359.6388
233.8418, 368.8591
234.3239, 380.1690
234.8060, 392.4484
235.2881, 405.0161
235.7702, 418.0143
236.2523, 430.0243
236.7345, 441.2668
237.2166, 450.6780
237.6987, 456.5635
238.1808, 458.1458
238.6629, 458.1121
239.1451, 459.5307
239.6272, 462.5778
240.1093, 466.1329
240.5914, 469.3614
241.0735, 473.2794
241.5556, 478.6774
242.0378, 485.7732
242.5199, 494.1158
243.0020, 503.1092
243.4841, 512.4418
243.9662, 523.4910
244.4483, 537.6786
244.9305, 552.8939
245.4126, 567.7441
245.8947, 581.9323
246.3768, 596.5444
246.8589, 613.1465
247.3410, 632.2111
247.8231, 651.8177
248.3053, 671.1761
248.7874, 691.4935
249.2695, 713.9130
249.7516, 738.4819
250.2337, 764.0217
250.7158, 788.4550
251.1980, 809.8905
251.6801, 835.6315
252.1622, 865.3873
252.6443, 899.1279
253.1264, 938.2463
253.6085, 982.2523
254.0907, 1028.783
254.5728, 1076.184
255.0549, 1129.360
255.5370, 1167.950
256.0191, 1198.292
256.5013, 1212.247
256.9834, 1199.977
257.4655, 1163.858
257.9476, 1116.653
258.4297, 1071.440
258.9118, 1027.659
259.3940, 988.0931
259.8761, 957.2505
260.3582, 925.9059
260.8403, 888.5207
261.3224, 845.7267
261.8045, 801.6337
262.2867, 759.6281
262.7688, 719.6329
263.2509, 683.6039
263.7330, 649.7732
264.2151, 620.6923
264.6972, 597.5106
265.1794, 580.2220
265.6615, 568.1413
266.1436, 561.2881
266.6257, 559.9044
267.1078, 558.1108
267.5899, 557.9315
268.0721, 555.5372
268.5542, 550.1693
269.0363, 541.3657
269.5184, 527.8346
270.0005, 508.2609
270.4826, 483.0038
270.9648, 458.6349
271.4469, 433.4623
271.9290, 410.6599
272.4111, 391.8303
272.8932, 376.3505
273.3753, 362.5705
273.8575, 349.6603
274.3396, 337.7276
274.8217, 327.4377
275.3038, 320.0193
275.7859, 312.4576
276.2680, 302.8867
276.7502, 292.5411
277.2323, 283.9843
277.7144, 278.5425
278.1965, 275.4030
278.6786, 272.3374
279.1607, 269.3347
279.6428, 266.4218
280.1249, 263.2299
280.6071, 260.1673
281.0892, 258.1730
281.5713, 257.7376
282.0534, 258.0190
282.5355, 257.2010
283.0176, 254.8270
283.4998, 253.1153
283.9819, 252.8985
284.4640, 253.6073
284.9461, 254.4362
285.4282, 255.1933
285.9103, 255.9193
286.3925, 256.7159
286.8746, 257.6141
287.3567, 258.3187
287.8388, 258.3609
288.3209, 258.3389
288.8030, 259.2827
289.2852, 261.4858
289.7673, 263.6659
290.2494, 264.2290
290.7315, 263.2779
291.2136, 262.6287
291.6957, 262.3912
292.1779, 262.6694
292.6600, 263.7001
293.1421, 265.5148
293.6242, 267.6673
294.1063, 270.1950
294.5884, 272.8264
295.0706, 274.2121
295.5527, 273.1420
296.0348, 271.5178
296.5169, 270.9256
296.9990, 271.3762
297.4811, 272.2460
297.9633, 273.3248
298.4454, 274.5077
298.9275, 275.5225
299.4096, 276.7406
299.8917, 277.3594
300.3738, 276.4380
300.8560, 274.1893
301.3381, 272.1932
301.8202, 271.4035
302.3023, 271.0916
302.7844, 269.8120
303.2665, 267.4247
303.7487, 264.4765
304.2308, 260.8866
304.7129, 256.9128
305.1950, 253.5420
305.6771, 251.3663
306.1592, 249.5339
306.6414, 246.9867
307.1235, 243.8090
307.6056, 239.7156
308.0877, 233.5457
308.5698, 226.4099
309.0519, 221.0080
309.5341, 218.2233
310.0162, 216.4481
310.4983, 213.8646
310.9804, 210.6058
311.4625, 207.8123
311.9446, 205.9255
312.4268, 204.6941
312.9089, 203.8485
313.3910, 203.4322
313.8731, 203.0080
314.3552, 202.0617
314.8373, 200.7822
315.3195, 199.7806
315.8016, 199.5308
316.2837, 199.4043
316.7658, 198.5795
317.2479, 197.0186
317.7300, 195.6003
318.2122, 194.7973
318.6943, 194.5583
319.1764, 194.7114
319.6585, 195.6287
320.1406, 196.4544
320.6227, 196.4370
321.1049, 195.6772
321.5870, 194.8997
322.0691, 194.4228
322.5512, 194.0920
323.0333, 193.5113
323.5154, 192.4612
323.9976, 191.8537
324.4797, 192.7225
324.9618, 194.4924
325.4439, 195.3065
325.9260, 194.4307
326.4081, 192.8596
326.8903, 191.7176
327.3724, 190.9607
327.8545, 190.7274
328.3366, 191.6304
328.8187, 192.9374
329.3008, 193.1686
329.7830, 191.8575
330.2651, 190.6479
330.7472, 191.5378
331.2293, 194.1015
331.7114, 196.0404
332.1935, 196.6054
332.6757, 196.5524
333.1578, 196.5769
333.6399, 196.7161
334.1220, 196.9509
334.6041, 197.3139
335.0862, 197.7649
335.5684, 198.1363
336.0505, 198.3519
336.5326, 198.5613
337.0147, 198.8987
337.4968, 199.3291
337.9789, 199.5940
338.4611, 199.3410
338.9432, 199.1239
339.4253, 200.2112
339.9074, 202.9812
340.3895, 205.8416
340.8716, 208.5859
341.3538, 210.9409
341.8359, 211.9840
342.3180, 211.1266
342.8001, 210.1151
343.2822, 211.8071
343.7643, 216.4096
344.2465, 220.6217
344.7286, 223.1454
345.2107, 225.3259
345.6928, 228.6508
346.1749, 233.3398
346.6570, 238.7609
347.1392, 244.4576
347.6213, 250.4595
348.1034, 256.3423
348.5855, 262.3314
349.0676, 268.0407
349.5497, 273.3284
350.0319, 278.1748
350.5140, 282.4650
350.9961, 286.0957
351.4782, 289.1572
351.9603, 292.0670
352.4424, 294.6807
352.9246, 297.3555
353.4067, 300.2667
353.8888, 303.3183
354.3709, 306.1536
354.8530, 308.5647
355.3351, 311.1495
355.8173, 315.1153
356.2994, 321.0142
356.7815, 327.0800
357.2636, 333.5753
357.7457, 339.9503
358.2278, 345.5829
358.7100, 350.3888
359.1921, 354.8703
359.6742, 359.4682
360.1563, 364.1859
360.6384, 369.1390
361.1205, 374.4943
361.6027, 379.9027
362.0848, 384.9958
362.5669, 389.9286
363.0490, 395.4005
363.5311, 401.9868
364.0132, 409.4330
364.4954, 415.5187
364.9775, 419.3975
365.4596, 422.9982
365.9417, 427.9476
366.4238, 432.4424
366.9059, 433.9572
367.3881, 431.4720
367.8702, 425.9911
368.3523, 419.5343
368.8344, 411.9467
369.3165, 403.4806
369.7986, 392.4991
370.2808, 381.8086
370.7629, 373.6459
371.2450, 368.1841
371.7271, 363.9120
372.2092, 359.0995
372.6913, 353.2878
373.1735, 349.7912
373.6556, 348.1853
374.1377, 349.1519
374.6198, 353.9423
375.1019, 361.5246
375.5840, 370.2168
376.0662, 379.2153
376.5483, 387.9796
377.0304, 393.7715
377.5125, 396.0773
377.9946, 395.7173
378.4767, 393.2148
378.9589, 388.1895
379.4410, 379.7324
379.9231, 367.6457
380.4052, 353.6105
380.8873, 339.7480
381.3694, 325.6560
381.8516, 313.2341
382.3337, 302.5385
382.8158, 293.6046
383.2979, 287.0245
383.7800, 282.4743
384.2621, 278.7329
384.7443, 274.8090
385.2264, 270.7725
385.7085, 267.2850
386.1906, 264.2750
386.6727, 262.0074
387.1548, 260.8438
387.6370, 260.3201
388.1191, 259.7405
388.6012, 258.7642
389.0833, 257.6680
389.5654, 256.9467
390.0475, 256.6453
390.5297, 256.5140
391.0118, 256.4782
391.4939, 256.5916
391.9760, 256.9022
392.4581, 257.4160
392.9402, 258.1202
393.4224, 259.3161
393.9045, 260.8240
394.3866, 261.3529
394.8687, 260.0502
395.3508, 258.8711
395.8329, 259.7835
396.3151, 262.1776
396.7972, 264.0732
397.2793, 264.2317
397.7614, 263.6951
398.2435, 263.8443
398.7256, 264.6999
399.2078, 266.1577
399.6899, 268.4338
400.1720, 271.1896
400.6541, 273.7385
401.1362, 276.2458
401.6183, 278.1663
402.1004, 278.7854
402.5826, 278.5283
403.0647, 278.3565
403.5468, 278.3071
404.0289, 279.1359
404.5110, 282.8318
404.9931, 289.8281
405.4753, 294.6020
405.9574, 293.9880
406.4395, 292.0382
406.9216, 292.7702
407.4037, 296.4214
407.8858, 300.8052
408.3680, 304.3191
408.8501, 307.0330
409.3322, 309.8332
409.8143, 312.3360
410.2964, 315.3495
410.7785, 319.6384
411.2607, 324.5523
411.7428, 328.8058
412.2249, 331.8132
412.7070, 334.5040
413.1891, 338.7613
413.6712, 346.1053
414.1534, 352.2961
414.6355, 356.7809
415.1176, 360.5767
415.5997, 363.7376
416.0818, 366.6940
416.5639, 370.8250
417.0461, 377.7251
417.5282, 387.4525
418.0103, 394.6194
418.4924, 395.6142
418.9745, 397.9034
419.4566, 404.1440
419.9388, 412.3625
420.4209, 419.6574
420.9030, 424.6469
421.3851, 428.6901
421.8672, 434.4391
422.3493, 442.1977
422.8315, 450.9935
423.3136, 461.8040
423.7957, 472.8139
424.2778, 482.4200
424.7599, 490.9319
425.2420, 500.2863
425.7242, 512.3226
426.2063, 526.8442
426.6884, 541.5036
427.1705, 556.2457
427.6526, 571.2061
428.1347, 586.3213
428.6169, 601.7536
429.0990, 617.6011
429.5811, 633.5701
430.0632, 650.7850
430.5453, 670.3659
431.0274, 692.3004
431.5096, 717.2345
431.9917, 745.9893
432.4738, 777.4802
432.9559, 809.7638
433.4380, 842.8664
433.9201, 879.0540
434.4023, 917.6987
434.8844, 960.5646
435.3665, 1011.047
435.8486, 1069.914
436.3307, 1133.025
436.8128, 1196.618
437.2950, 1262.245
437.7771, 1334.266
438.2592, 1414.279
438.7413, 1499.531
439.2234, 1589.193
439.7055, 1682.750
440.1877, 1780.523
440.6698, 1883.789
441.1519, 1986.372
441.6340, 2078.659
442.1161, 2155.365
442.5982, 2236.739
443.0804, 2327.130
443.5625, 2419.749
444.0446, 2510.568
444.5267, 2599.067
445.0088, 2687.194
445.4909, 2775.526
445.9731, 2864.942
446.4552, 2965.240
446.9373, 3084.583
447.4194, 3206.818
447.9015, 3328.894
448.3836, 3453.273
448.8658, 3581.380
449.3479, 3713.693
449.8300, 3851.677
450.3121, 3996.379
450.7942, 4147.844
451.2763, 4305.942
451.7585, 4472.954
452.2406, 4644.940
452.7227, 4822.327
453.2048, 5003.100
453.6869, 5184.588
454.1690, 5367.618
454.6512, 5546.733
455.1333, 5716.034
455.6154, 5883.933
456.0975, 6015.400
456.5796, 6101.382
457.0617, 6143.703
457.5439, 6144.479
458.0260, 6103.495
458.5081, 6007.101
458.9902, 5835.308
459.4723, 5599.003
459.9544, 5332.318
460.4366, 5034.185
460.9187, 4716.448
461.4008, 4371.575
461.8829, 4013.119
462.3650, 3676.778
462.8471, 3367.152
463.3293, 3080.824
463.8114, 2813.934
464.2935, 2567.569
464.7756, 2346.836
465.2577, 2155.327
465.7398, 1986.028
466.2220, 1831.456
466.7041, 1690.447
467.1862, 1564.963
467.6683, 1459.547
468.1504, 1366.517
468.6325, 1281.160
469.1147, 1202.465
469.5968, 1131.492
470.0789, 1068.935
470.5610, 1014.095
471.0431, 963.2930
471.5252, 916.6104
472.0074, 873.7098
472.4895, 835.7769
472.9716, 800.9442
473.4537, 767.3798
473.9358, 734.8169
474.4179, 704.5104
474.9001, 678.3746
475.3822, 656.9240
475.8643, 636.5456
476.3464, 617.8163
476.8285, 599.7313
477.3106, 581.9283
477.7928, 564.5677
478.2749, 547.8259
478.7570, 531.6904
479.2391, 516.5193
479.7212, 503.2876
480.2033, 492.1613
480.6855, 481.0706
481.1676, 468.7312
481.6497, 457.0083
482.1318, 447.4047
482.6139, 439.7554
483.0960, 432.9116
483.5782, 426.6768
484.0603, 420.7365
484.5424, 414.6169
485.0245, 408.3187
485.5066, 401.5938
485.9887, 393.8273
486.4709, 385.8289
486.9530, 379.7773
487.4351, 376.5577
487.9172, 373.1869
488.3993, 368.4531
488.8814, 363.0403
489.3636, 357.8466
489.8457, 353.0412
490.3278, 348.4008
490.8099, 343.6072
491.2920, 338.6476
491.7741, 334.5117
492.2563, 332.0864
492.7384, 329.3523
493.2205, 325.3683
493.7026, 320.8229
494.1847, 316.7318
494.6668, 313.4779
495.1490, 310.6423
495.6311, 307.6317
496.1132, 304.5794
496.5953, 300.9409
497.0774, 295.5958
497.5595, 290.7003
498.0417, 287.3949
498.5238, 285.2009
499.0059, 283.0322
499.4880, 280.3516
499.9701, 277.2723
500.4522, 273.9118
500.9344, 270.1732
501.4165, 266.7186
501.8986, 263.8409
502.3807, 261.2612
502.8628, 258.6965
503.3449, 256.1602
503.8271, 253.8691
504.3092, 252.1849
504.7913, 250.6987
505.2734, 248.5895
505.7555, 245.8229
506.2376, 243.5495
506.7198, 242.7626
507.2019, 242.7481
507.6840, 241.2099
508.1661, 237.2287
508.6482, 233.6942
509.1303, 231.5510
509.6125, 230.1463
510.0946, 228.7904
510.5767, 227.3587
511.0588, 226.0859
511.5409, 225.2453
512.0230, 224.8309
512.5051, 223.9757
512.9872, 221.9170
513.4694, 220.3171
513.9515, 219.7921
514.4336, 219.7558
514.9157, 219.5759
515.3978, 219.0574
515.8799, 218.3723
516.3621, 217.7122
516.8442, 217.0802
517.3263, 216.4426
517.8084, 215.6442
518.2905, 215.0495
518.7726, 214.7134
519.2548, 214.6865
519.7369, 215.1224
520.2190, 216.2172
520.7011, 217.4195
521.1832, 218.1855
521.6653, 218.5299
522.1475, 218.4720
522.6296, 217.8067
523.1117, 217.1559
523.5938, 217.2352
524.0759, 217.9586
524.5580, 218.8971
525.0402, 219.5286
525.5223, 220.7496
526.0044, 223.7362
526.4865, 227.8830
526.9686, 231.3337
527.4507, 233.1956
527.9329, 234.4416
528.4150, 236.8165
528.8971, 240.3009
529.3792, 245.1560
529.8613, 251.8141
530.3434, 259.3039
530.8256, 268.2265
531.3077, 277.5296
531.7898, 284.8076
532.2719, 288.4477
532.7540, 290.0252
533.2361, 293.7821
533.7183, 300.7060
534.2004, 307.0506
534.6825, 311.8129
535.1646, 316.1236
535.6467, 320.2441
536.1288, 324.3979
536.6110, 329.1789
537.0931, 335.1826
537.5752, 341.9057
538.0573, 348.2618
538.5394, 354.2278
539.0215, 360.5866
539.5037, 367.5890
539.9858, 375.2675
540.4679, 383.5157
540.9500, 392.2445
541.4321, 402.1418
541.9142, 413.7911
542.3964, 426.4511
542.8785, 439.1892
543.3606, 452.0938
543.8427, 466.3438
544.3248, 482.8370
544.8069, 500.8268
545.2891, 517.5626
545.7712, 532.9403
546.2533, 547.0576
546.7354, 560.6348
547.2175, 572.3212
547.6996, 582.2551
548.1818, 589.5331
548.6639, 591.8791
549.1460, 587.3455
549.6281, 576.4956
550.1102, 561.4111
550.5923, 541.1146
551.0745, 519.0077
551.5566, 494.6098
552.0387, 469.4490
552.5208, 444.1990
553.0029, 419.0014
553.4850, 394.9461
553.9672, 371.5815
554.4493, 349.9582
554.9314, 331.9583
555.4135, 317.6833
555.8956, 305.8817
556.3777, 296.4839
556.8599, 288.7274
557.3420, 280.6116
557.8241, 271.3716
558.3062, 263.5703
558.7883, 258.3145
559.2704, 254.3107
559.7526, 250.5936
560.2347, 247.0335
560.7168, 243.6586
561.1989, 240.4102
561.6810, 237.5511
562.1631, 236.4566
562.6453, 238.5906
563.1274, 240.0022
563.6095, 240.2147
564.0916, 239.6879
564.5737, 238.2236
565.0558, 236.1681
565.5380, 234.8066
566.0201, 235.3398
566.5022, 237.0780
566.9843, 238.3401
567.4664, 239.1483
567.9485, 239.3134
568.4307, 238.2751
568.9128, 236.9658
569.3949, 236.9584
569.8770, 238.4473
570.3591, 238.9491
570.8412, 236.6851
571.3234, 233.6941
571.8055, 232.3107
572.2876, 232.3182
572.7697, 231.9058
573.2518, 230.0208
573.7339, 227.2766
574.2161, 225.2597
574.6982, 224.4119
575.1803, 223.5486
575.6624, 222.0366
576.1445, 221.0641
576.6266, 221.5135
577.1088, 223.1252
577.5909, 225.0455
578.0730, 226.7159
578.5551, 228.5531
579.0372, 231.6611
579.5193, 236.3009
580.0015, 240.6396
580.4836, 243.2843
580.9657, 246.6539
581.4478, 252.2509
581.9299, 260.0006
582.4120, 269.5087
582.8942, 280.8710
583.3763, 293.7605
583.8584, 308.4615
584.3405, 324.4789
584.8226, 340.1072
585.3047, 354.7568
585.7869, 368.8878
586.2690, 383.2955
586.7511, 398.4780
587.2332, 411.0383
587.7153, 419.8667
588.1974, 427.5247
588.6796, 434.0191
589.1617, 440.4315
589.6438, 448.1536
590.1259, 457.6695
590.6080, 468.8808
591.0901, 481.6471
591.5723, 496.0078
592.0544, 511.5731
592.5365, 528.3338
593.0186, 546.2374
593.5007, 565.2706
593.9828, 585.1974
594.4650, 605.7256
594.9471, 626.4387
595.4292, 648.6011
595.9113, 672.4971
596.3934, 698.4910
596.8755, 727.7245
597.3577, 760.3973
597.8398, 793.9656
598.3219, 826.1863
598.8040, 857.5715
599.2861, 892.1553
599.7682, 936.6359
600.2504, 974.9614
600.7325, 1009.373
601.2146, 1033.647
601.6967, 1043.317
602.1788, 1037.225
602.6609, 1014.765
603.1431, 975.0086
603.6252, 919.1969
604.1073, 851.5018
604.5894, 765.8536
605.0715, 683.9358
605.5536, 608.3812
606.0358, 540.4656
606.5179, 481.9261
607.0000, 432.7112
607.4821, 389.9788
607.9642, 353.1129
608.4464, 321.7773
608.9285, 296.8219
609.4106, 277.5987
609.8927, 261.1027
610.3748, 246.2602
610.8569, 233.3700
611.3391, 222.9650
611.8212, 215.6628
612.3033, 208.8634
612.7854, 202.3047
613.2675, 196.5117
613.7496, 191.7904
614.2318, 187.9440
614.7139, 184.7845
