##NAMES=Lemmleinite-Ba
##RRUFFID=R070650
##IDEAL CHEMISTRY=Na_4_K_4_Ba_2+x_Ti^4+^_8_(Si_4_O_12_)_4_(O,OH)_8_&#183;8H_2_O
##LOCALITY=Diamond Jo Quarry, Magnet Cove, Hot Spring County, Arkansas, USA
##OWNER=RRUFF
##SOURCE=Michael Scott 
##DESCRIPTION=Orange tabular crystals associated with colorless acicular pectolite
##STATUS=The identification of this mineral is confirmed by single-crystal X-ray diffraction and chemical analysis.
##URL=rruff.info/R070650
##MEASURED CHEMISTRY=(Na_3.92_Ca_0.08_)_Σ=4_(K_3.79_Na_0.21_)_Σ=4_(Ba_1.52_K_0.44_Fe^2+^_0.33_)_Σ=2.29_(Ti_7.80_Fe^3+^_0.20_)_Σ=8_(Si_4.00_O_12_)_4_((OH)_4.18_O_3.82_)_Σ=8_·13.53H_2_O ; = darker phase
156.4129, 30860.31
156.8950, 30787.07
157.3771, 30753.14
157.8592, 30736.53
158.3413, 30725.29
158.8235, 30716.80
159.3056, 30714.55
159.7877, 30717.08
160.2698, 30725.15
160.7519, 30747.02
161.2340, 30803.76
161.7162, 30868.79
162.1983, 30916.23
162.6804, 30921.46
163.1625, 30920.63
163.6446, 30932.56
164.1267, 30960.64
164.6089, 30981.76
165.0910, 30975.90
165.5731, 30956.77
166.0552, 30946.66
166.5373, 30972.48
167.0194, 31000.16
167.5016, 30993.41
167.9837, 30918.91
168.4658, 30880.19
168.9479, 31002.88
169.4300, 31227.34
169.9121, 31379.55
170.3943, 31302.26
170.8764, 31125.21
171.3585, 30983.34
171.8406, 30927.95
172.3227, 30900.67
172.8048, 30844.03
173.2870, 30764.46
173.7691, 30710.68
174.2512, 30738.10
174.7333, 30811.63
175.2154, 30874.44
175.6975, 30890.85
176.1797, 30891.46
176.6618, 30915.97
177.1439, 30965.90
177.6260, 31014.25
178.1081, 31028.71
178.5902, 31020.93
179.0724, 31022.70
179.5545, 31050.72
180.0366, 31097.32
180.5187, 31153.43
181.0008, 31222.08
181.4829, 31287.14
181.9651, 31328.70
182.4472, 31349.35
182.9293, 31362.96
183.4114, 31357.36
183.8935, 31349.79
184.3756, 31394.70
184.8578, 31513.81
185.3399, 31664.67
185.8220, 31784.64
186.3041, 31875.19
186.7862, 31935.50
187.2683, 31947.82
187.7504, 31923.66
188.2326, 31918.76
188.7147, 31950.79
189.1968, 32006.72
189.6789, 32049.17
190.1610, 32074.64
190.6431, 32114.99
191.1253, 32215.78
191.6074, 32370.33
192.0895, 32510.25
192.5716, 32611.86
193.0537, 32678.96
193.5358, 32724.73
194.0180, 32745.83
194.5001, 32756.13
194.9822, 32766.64
195.4643, 32777.31
195.9464, 32806.78
196.4285, 32869.03
196.9107, 32962.44
197.3928, 33061.45
197.8749, 33169.86
198.3570, 33277.86
198.8391, 33360.50
199.3212, 33412.77
199.8034, 33474.41
200.2855, 33576.43
200.7676, 33720.25
201.2497, 33841.98
201.7318, 33932.68
202.2139, 33999.65
202.6961, 34058.56
203.1782, 34103.84
203.6603, 34156.70
204.1424, 34239.43
204.6245, 34359.48
205.1066, 34456.02
205.5888, 34517.81
206.0709, 34550.82
206.5530, 34584.52
207.0351, 34622.70
207.5172, 34655.67
207.9993, 34668.54
208.4815, 34652.32
208.9636, 34660.51
209.4457, 34713.19
209.9278, 34807.82
210.4099, 34880.75
210.8920, 34930.12
211.3742, 34961.06
211.8563, 34986.58
212.3384, 35020.18
212.8205, 35004.52
213.3026, 34909.52
213.7847, 34726.73
214.2669, 34558.45
214.7490, 34375.23
215.2311, 34235.82
215.7132, 34270.88
216.1953, 34592.80
216.6774, 34823.32
217.1596, 34793.61
217.6417, 34421.12
218.1238, 34146.06
218.6059, 33988.99
219.0880, 33918.23
219.5701, 33868.25
220.0523, 33845.16
220.5344, 33832.13
221.0165, 33823.36
221.4986, 33822.27
221.9807, 33814.93
222.4628, 33800.09
222.9450, 33778.11
223.4271, 33750.36
223.9092, 33716.26
224.3913, 33675.97
224.8734, 33626.73
225.3555, 33557.41
225.8377, 33504.47
226.3198, 33472.47
226.8019, 33458.91
227.2840, 33449.75
227.7661, 33448.57
228.2482, 33447.20
228.7303, 33444.04
229.2125, 33454.75
229.6946, 33428.92
230.1767, 33343.27
230.6588, 33202.60
231.1409, 33111.85
231.6230, 33093.84
232.1052, 33101.55
232.5873, 33094.64
233.0694, 33066.65
233.5515, 33037.19
234.0336, 33006.25
234.5157, 32972.93
234.9979, 32961.05
235.4800, 32988.96
235.9621, 33022.75
236.4442, 33022.56
236.9263, 32968.25
237.4084, 32915.82
237.8906, 32877.41
238.3727, 32855.02
238.8548, 32836.17
239.3369, 32822.25
239.8190, 32811.23
240.3011, 32800.43
240.7833, 32789.82
241.2654, 32779.35
241.7475, 32766.67
242.2296, 32747.25
242.7117, 32742.66
243.1938, 32753.74
243.6760, 32778.59
244.1581, 32820.41
244.6402, 32912.17
245.1223, 32967.87
245.6044, 32945.14
246.0865, 32797.70
246.5687, 32703.63
247.0508, 32679.76
247.5329, 32702.12
248.0150, 32718.25
248.4971, 32721.18
248.9792, 32727.56
249.4614, 32748.81
249.9435, 32806.68
250.4256, 32825.17
250.9077, 32785.13
251.3898, 32709.47
251.8719, 32665.02
252.3541, 32662.62
252.8362, 32676.33
253.3183, 32695.48
253.8004, 32724.83
254.2825, 32751.57
254.7646, 32781.58
255.2468, 32809.18
255.7289, 32806.12
256.2110, 32750.08
256.6931, 32698.76
257.1752, 32684.95
257.6573, 32716.59
258.1395, 32767.79
258.6216, 32843.24
259.1037, 32937.80
259.5858, 33023.71
260.0679, 33102.28
260.5500, 33170.28
261.0322, 33221.07
261.5143, 33243.77
261.9964, 33278.57
262.4785, 33336.24
262.9606, 33410.42
263.4427, 33463.08
263.9249, 33484.17
264.4070, 33499.27
264.8891, 33529.38
265.3712, 33580.28
265.8533, 33629.15
266.3354, 33678.08
266.8176, 33724.37
267.2997, 33741.25
267.7818, 33711.92
268.2639, 33684.21
268.7460, 33707.01
269.2281, 33797.78
269.7103, 33875.43
270.1924, 33925.50
270.6745, 33949.87
271.1566, 33956.02
271.6387, 33932.43
272.1208, 33914.70
272.6030, 33945.77
273.0851, 34039.08
273.5672, 34116.89
274.0493, 34151.34
274.5314, 34149.84
275.0135, 34200.08
275.4957, 34319.58
275.9778, 34447.94
276.4599, 34519.23
276.9420, 34527.47
277.4241, 34513.62
277.9063, 34472.74
278.3884, 34411.95
278.8705, 34408.43
279.3526, 34470.28
279.8347, 34566.35
280.3168, 34677.13
280.7990, 34806.74
281.2811, 34903.73
281.7632, 34945.14
282.2453, 34938.96
282.7274, 34932.25
283.2095, 34923.80
283.6917, 34920.73
284.1738, 34932.16
284.6559, 34958.34
285.1380, 34991.20
285.6201, 35036.67
286.1022, 35087.99
286.5844, 35097.48
287.0665, 35053.04
287.5486, 35018.50
288.0307, 35097.94
288.5128, 35282.60
288.9949, 35420.54
289.4771, 35424.87
289.9592, 35335.80
290.4413, 35322.05
290.9234, 35391.61
291.4055, 35488.05
291.8876, 35552.77
292.3697, 35588.38
292.8518, 35614.61
293.3340, 35640.59
293.8161, 35662.56
294.2982, 35664.59
294.7803, 35644.57
295.2624, 35621.68
295.7445, 35616.52
296.2267, 35626.58
296.7088, 35640.29
297.1909, 35657.13
297.6730, 35674.73
298.1551, 35686.89
298.6372, 35694.18
299.1194, 35699.52
299.6015, 35695.98
300.0836, 35691.66
300.5657, 35709.13
301.0478, 35783.72
301.5299, 35877.43
302.0121, 35919.04
302.4942, 35904.92
302.9763, 35899.40
303.4584, 35979.43
303.9405, 36110.92
304.4226, 36222.50
304.9048, 36268.28
305.3869, 36283.63
305.8690, 36302.82
306.3511, 36325.93
306.8332, 36356.66
307.3153, 36409.46
307.7975, 36470.23
308.2796, 36514.41
308.7617, 36521.43
309.2438, 36514.82
309.7259, 36509.76
310.2080, 36506.84
310.6902, 36517.73
311.1723, 36573.24
311.6544, 36643.14
312.1365, 36685.30
312.6186, 36629.75
313.1007, 36582.65
313.5829, 36635.73
314.0650, 36791.59
314.5471, 36923.37
315.0292, 36948.57
315.5113, 36920.52
315.9934, 36900.44
316.4756, 36898.06
316.9577, 36916.92
317.4398, 36968.36
317.9219, 37051.86
318.4040, 37127.06
318.8861, 37163.56
319.3683, 37190.30
319.8504, 37234.91
320.3325, 37326.91
320.8146, 37417.12
321.2967, 37464.43
321.7788, 37470.60
322.2610, 37551.06
322.7431, 37842.65
323.2252, 38164.12
323.7073, 38371.04
324.1894, 38338.16
324.6715, 38294.13
325.1537, 38269.32
325.6358, 38265.11
326.1179, 38298.79
326.6000, 38401.95
327.0821, 38525.00
327.5642, 38633.90
328.0464, 38694.64
328.5285, 38775.97
329.0106, 38904.27
329.4927, 39072.67
329.9748, 39195.66
330.4569, 39229.03
330.9391, 39253.41
331.4212, 39321.51
331.9033, 39472.30
332.3854, 39606.38
332.8675, 39719.87
333.3496, 39812.53
333.8318, 39873.75
334.3139, 39864.18
334.7960, 39873.01
335.2781, 39964.19
335.7602, 40183.09
336.2423, 40367.70
336.7245, 40490.21
337.2066, 40571.06
337.6887, 40704.36
338.1708, 40924.05
338.6529, 41119.40
339.1350, 41216.53
339.6172, 41193.75
340.0993, 41179.63
340.5814, 41177.60
341.0635, 41194.08
341.5456, 41252.78
342.0277, 41361.17
342.5099, 41476.85
342.9920, 41583.17
343.4741, 41681.17
343.9562, 41746.10
344.4383, 41768.65
344.9204, 41772.33
345.4026, 41807.86
345.8847, 41876.07
346.3668, 41928.60
346.8489, 41914.31
347.3310, 41854.78
347.8131, 41862.01
348.2953, 41953.69
348.7774, 42074.23
349.2595, 42155.54
349.7416, 42200.36
350.2237, 42229.36
350.7058, 42252.52
351.1880, 42267.38
351.6701, 42264.73
352.1522, 42241.99
352.6343, 42219.62
353.1164, 42220.49
353.5985, 42239.42
354.0807, 42262.01
354.5628, 42295.34
355.0449, 42324.03
355.5270, 42339.67
356.0091, 42343.70
356.4912, 42308.62
356.9734, 42186.50
357.4555, 42015.90
357.9376, 41860.02
358.4197, 41724.00
358.9018, 41623.54
359.3839, 41586.29
359.8661, 41610.00
360.3482, 41625.63
360.8303, 41594.39
361.3124, 41536.93
361.7945, 41473.91
362.2766, 41405.07
362.7588, 41337.34
363.2409, 41277.40
363.7230, 41222.92
364.2051, 41157.04
364.6872, 41056.35
365.1693, 40952.59
365.6515, 40867.55
366.1336, 40801.33
366.6157, 40760.07
367.0978, 40776.61
367.5799, 40831.92
368.0620, 40830.32
368.5442, 40689.75
369.0263, 40546.36
369.5084, 40465.87
369.9905, 40494.74
370.4726, 40526.33
370.9547, 40567.06
371.4369, 40611.75
371.9190, 40643.01
372.4011, 40641.85
372.8832, 40652.55
373.3653, 40698.54
373.8474, 40806.50
374.3295, 40873.73
374.8116, 40880.89
375.2938, 40861.95
375.7759, 40876.50
376.2580, 40924.19
376.7401, 41005.52
377.2222, 41141.04
377.7043, 41339.87
378.1865, 41449.43
378.6686, 41453.66
379.1507, 41405.00
379.6328, 41349.95
380.1149, 41283.98
380.5970, 41281.38
381.0792, 41399.84
381.5613, 41604.05
382.0434, 41726.58
382.5255, 41757.42
383.0076, 41763.83
383.4897, 41817.52
383.9719, 41906.51
384.4540, 41978.57
384.9361, 42012.90
385.4182, 42025.55
385.9003, 42041.75
386.3824, 42062.00
386.8646, 42083.30
387.3467, 42106.09
387.8288, 42129.21
388.3109, 42147.27
388.7930, 42150.48
389.2751, 42164.51
389.7573, 42218.86
390.2394, 42306.97
390.7215, 42402.92
391.2036, 42494.22
391.6857, 42587.01
392.1678, 42686.91
392.6500, 42794.70
393.1321, 42908.34
393.6142, 43038.21
394.0963, 43170.28
394.5784, 43279.67
395.0605, 43300.75
395.5427, 43339.63
396.0248, 43464.78
396.5069, 43715.12
396.9890, 43920.52
397.4711, 44017.46
397.9532, 44055.12
398.4354, 44098.20
398.9175, 44147.25
399.3996, 44209.86
399.8817, 44299.50
400.3638, 44422.80
400.8459, 44509.75
401.3281, 44521.24
401.8102, 44525.67
402.2923, 44586.32
402.7744, 44762.23
403.2565, 44886.12
403.7386, 44920.24
404.2208, 44878.77
404.7029, 44858.68
405.1850, 44861.51
405.6671, 44883.59
406.1492, 44933.05
406.6313, 45020.65
407.1135, 45070.38
407.5956, 45068.58
408.0777, 45032.78
408.5598, 44993.46
409.0419, 44948.65
409.5240, 44927.68
410.0062, 44963.44
410.4883, 45044.46
410.9704, 45091.91
411.4525, 45094.04
411.9346, 45090.49
412.4167, 45148.91
412.8989, 45252.91
413.3810, 45332.31
413.8631, 45315.28
414.3452, 45265.37
414.8273, 45290.10
415.3094, 45392.88
415.7916, 45512.59
416.2737, 45610.41
416.7558, 45690.71
417.2379, 45762.59
417.7200, 45833.03
418.2021, 45893.28
418.6843, 45943.65
419.1664, 45982.41
419.6485, 45997.91
420.1306, 45906.79
420.6127, 45833.94
421.0948, 45885.23
421.5770, 46181.97
422.0591, 46460.55
422.5412, 46645.42
423.0233, 46756.63
423.5054, 46852.98
423.9875, 46911.74
424.4697, 46984.92
424.9518, 47094.89
425.4339, 47255.53
425.9160, 47420.66
426.3981, 47599.60
426.8802, 47779.17
427.3624, 47942.91
427.8445, 48096.07
428.3266, 48226.84
428.8087, 48323.97
429.2908, 48385.80
429.7729, 48480.05
430.2551, 48622.80
430.7372, 48770.73
431.2193, 48865.07
431.7014, 48888.96
432.1835, 48989.71
432.6656, 49224.43
433.1478, 49538.60
433.6299, 49744.56
434.1120, 49832.80
434.5941, 49921.86
435.0762, 50112.86
435.5583, 50379.40
436.0405, 50605.64
436.5226, 50770.29
437.0047, 50909.21
437.4868, 51072.11
437.9689, 51250.48
438.4510, 51411.51
438.9332, 51499.81
439.4153, 51579.19
439.8974, 51747.41
440.3795, 52017.76
440.8616, 52272.32
441.3438, 52412.81
441.8259, 52488.94
442.3080, 52570.26
442.7901, 52671.39
443.2722, 52791.95
443.7543, 52944.29
444.2365, 53122.04
444.7186, 53283.72
445.2007, 53417.00
445.6828, 53527.62
446.1649, 53621.05
446.6470, 53711.23
447.1292, 53766.12
447.6113, 53759.89
448.0934, 53715.76
448.5755, 53697.34
449.0576, 53739.45
449.5397, 53769.27
450.0219, 53760.97
450.5040, 53706.84
450.9861, 53653.48
451.4682, 53612.27
451.9503, 53560.18
452.4324, 53463.05
452.9146, 53310.55
453.3967, 53153.80
453.8788, 53002.87
454.3609, 52858.85
454.8430, 52752.10
455.3251, 52688.78
455.8072, 52611.15
456.2893, 52434.00
456.7715, 52185.08
457.2536, 52026.65
457.7357, 52004.87
458.2178, 52048.28
458.6999, 52060.00
459.1820, 52047.59
459.6642, 52044.77
460.1463, 52106.70
460.6284, 52173.58
461.1105, 52161.71
461.5926, 52054.70
462.0747, 51931.14
462.5569, 51810.15
463.0390, 51713.34
463.5211, 51673.11
464.0032, 51743.69
464.4853, 51833.50
464.9674, 51881.57
465.4496, 51894.11
465.9317, 51977.67
466.4138, 52229.46
466.8959, 52514.86
467.3780, 52752.98
467.8601, 52868.54
468.3423, 53019.38
468.8244, 53213.15
469.3065, 53446.93
469.7886, 53707.32
470.2707, 54023.52
470.7528, 54322.35
471.2350, 54556.02
471.7171, 54700.07
472.1992, 54962.58
472.6813, 55370.98
473.1634, 55846.77
473.6455, 56302.37
474.1277, 56739.65
474.6098, 57142.91
475.0919, 57499.35
475.5740, 57823.45
476.0561, 58142.79
476.5382, 58458.05
477.0204, 58804.97
477.5025, 59234.76
477.9846, 59711.88
478.4667, 60158.27
478.9488, 60563.38
479.4309, 60934.96
479.9131, 61247.63
480.3952, 61531.79
480.8773, 61857.94
481.3594, 62268.62
481.8415, 62722.39
482.3236, 63194.41
482.8058, 63678.11
483.2879, 64178.55
483.7700, 64730.54
484.2521, 65280.24
484.7342, 65781.65
485.2163, 66227.60
485.6985, 66610.95
486.1806, 66928.07
486.6627, 67179.85
487.1448, 67385.14
487.6269, 67589.23
488.1090, 67694.02
488.5912, 67654.09
489.0733, 67443.82
489.5554, 67178.45
490.0375, 66875.27
490.5196, 66493.84
491.0017, 65975.55
491.4839, 65307.59
491.9660, 64560.56
492.4481, 63723.46
492.9302, 62817.21
493.4123, 61961.31
493.8944, 61144.93
494.3766, 60368.34
494.8587, 59611.37
495.3408, 58889.39
495.8229, 58229.57
496.3050, 57643.13
496.7871, 57095.24
497.2693, 56532.21
497.7514, 55966.20
498.2335, 55444.22
498.7156, 55000.71
499.1977, 54596.16
499.6798, 54194.53
500.1620, 53794.57
500.6441, 53419.99
501.1262, 53057.43
501.6083, 52737.93
502.0904, 52485.08
502.5725, 52351.50
503.0547, 52235.00
503.5368, 52133.08
504.0189, 52039.34
504.5010, 51922.63
504.9831, 51737.59
505.4652, 51589.81
505.9474, 51528.66
506.4295, 51572.76
506.9116, 51621.84
507.3937, 51681.71
507.8758, 51738.02
508.3579, 51757.45
508.8401, 51732.54
509.3222, 51756.99
509.8043, 51873.29
510.2864, 52042.82
510.7685, 52148.56
511.2506, 52191.65
511.7328, 52246.38
512.2148, 52379.49
512.6970, 52557.68
513.1791, 52716.52
513.6612, 52839.96
514.1433, 52971.19
514.6254, 53150.98
515.1075, 53364.62
515.5897, 53585.57
516.0718, 53789.23
516.5539, 54011.70
517.0360, 54287.12
517.5181, 54614.21
518.0002, 54915.13
518.4824, 55150.02
518.9645, 55365.81
519.4466, 55591.79
519.9287, 55812.31
520.4108, 56073.23
520.8929, 56382.77
521.3751, 56726.23
521.8572, 57071.68
522.3393, 57418.01
522.8214, 57770.59
523.3035, 58145.91
523.7856, 58537.85
524.2678, 58856.79
524.7499, 59087.21
525.2320, 59293.28
525.7141, 59537.47
526.1962, 59811.61
526.6783, 60057.93
527.1605, 60264.48
527.6426, 60435.36
528.1247, 60578.32
528.6068, 60688.35
529.0889, 60758.04
529.5710, 60765.79
530.0532, 60739.68
530.5353, 60718.20
531.0174, 60705.09
531.4995, 60638.43
531.9816, 60471.24
532.4637, 60241.59
532.9459, 59981.01
533.4280, 59652.13
533.9101, 59347.98
534.3922, 59140.04
534.8743, 58979.71
535.3564, 58708.54
535.8386, 58218.25
536.3207, 57740.30
536.8028, 57356.71
537.2849, 57081.93
537.7670, 56804.10
538.2491, 56519.05
538.7313, 56235.96
539.2134, 55951.78
539.6955, 55665.86
540.1776, 55417.84
540.6597, 55223.73
541.1418, 55060.12
541.6240, 54884.28
542.1061, 54695.09
542.5882, 54499.29
543.0703, 54295.24
543.5524, 54088.23
544.0345, 53870.32
544.5167, 53636.87
544.9988, 53453.20
545.4809, 53419.82
545.9630, 53441.51
546.4451, 53407.00
546.9272, 53230.19
547.4094, 53046.13
547.8915, 52880.83
548.3736, 52740.75
548.8557, 52642.77
549.3378, 52662.05
549.8199, 52655.56
550.3021, 52560.25
550.7842, 52343.95
551.2663, 52195.26
551.7484, 52151.25
552.2305, 52129.57
552.7126, 52028.50
553.1948, 51825.71
553.6769, 51698.81
554.1590, 51696.65
554.6411, 51769.30
555.1232, 51812.53
555.6053, 51826.54
556.0875, 51812.13
556.5696, 51762.18
557.0517, 51686.53
557.5338, 51589.97
558.0159, 51470.86
558.4980, 51375.75
558.9802, 51354.31
559.4623, 51373.38
559.9444, 51390.41
560.4265, 51373.72
560.9086, 51378.89
561.3907, 51454.12
561.8729, 51570.45
562.3550, 51648.15
562.8371, 51658.54
563.3192, 51640.38
563.8013, 51585.88
564.2834, 51477.38
564.7656, 51469.89
565.2477, 51626.93
565.7298, 51800.92
566.2119, 51856.97
566.6940, 51771.71
567.1761, 51694.73
567.6583, 51638.15
568.1404, 51604.55
568.6225, 51616.18
569.1046, 51667.60
569.5867, 51691.32
570.0688, 51628.98
570.5510, 51529.04
571.0331, 51467.65
571.5152, 51447.41
571.9973, 51458.93
572.4794, 51534.95
572.9615, 51623.38
573.4437, 51665.12
573.9258, 51625.23
574.4079, 51583.56
574.8900, 51559.09
575.3721, 51553.48
575.8542, 51570.45
576.3364, 51615.09
576.8185, 51676.43
577.3006, 51764.95
577.7827, 51878.07
578.2648, 51937.57
578.7469, 51918.59
579.2291, 51889.57
579.7112, 51898.32
580.1933, 51948.00
580.6754, 51985.29
581.1575, 52005.90
581.6396, 52019.74
582.1218, 52019.82
582.6039, 52018.42
583.0860, 52078.14
583.5681, 52280.36
584.0502, 52499.84
584.5323, 52566.91
585.0145, 52505.82
585.4966, 52431.08
585.9787, 52381.70
586.4608, 52358.05
586.9429, 52362.75
587.4250, 52399.30
587.9072, 52448.30
588.3893, 52516.57
588.8714, 52589.81
589.3535, 52653.78
589.8356, 52710.79
590.3177, 52755.28
590.7999, 52780.25
591.2820, 52794.79
591.7641, 52834.07
592.2462, 52911.99
592.7283, 52963.60
593.2104, 52929.80
593.6926, 52832.99
594.1747, 52852.29
594.6568, 52996.00
595.1389, 53168.46
595.6210, 53302.48
596.1031, 53398.71
596.5853, 53450.52
597.0674, 53441.80
597.5495, 53425.97
598.0316, 53429.55
598.5137, 53459.14
598.9958, 53526.48
599.4780, 53689.18
599.9601, 53840.37
600.4422, 53934.89
600.9243, 53973.42
601.4064, 54009.88
601.8885, 54038.43
602.3707, 54074.39
602.8528, 54122.93
603.3349, 54177.92
603.8170, 54263.52
604.2991, 54390.27
604.7813, 54527.80
605.2634, 54641.51
605.7455, 54730.41
606.2276, 54805.98
606.7097, 54866.75
607.1918, 54921.50
607.6740, 54992.40
608.1561, 55075.45
608.6382, 55152.61
609.1203, 55200.32
609.6024, 55246.68
610.0845, 55329.15
610.5667, 55452.32
611.0488, 55549.71
611.5309, 55555.03
612.0130, 55544.95
612.4951, 55580.59
612.9772, 55720.77
613.4594, 55835.06
613.9415, 55915.02
614.4236, 55965.56
614.9057, 55990.02
615.3878, 55971.89
615.8699, 55969.45
616.3521, 56004.79
616.8342, 56065.70
617.3163, 56092.13
617.7984, 56082.00
618.2805, 56071.46
618.7626, 56100.11
619.2448, 56145.22
619.7269, 56154.99
620.2090, 56125.04
620.6911, 56076.25
621.1732, 55992.18
621.6553, 55911.98
622.1375, 55887.17
622.6196, 55984.49
623.1017, 56076.53
623.5838, 56104.71
624.0659, 56098.01
624.5480, 56129.06
625.0302, 56252.51
625.5123, 56358.95
625.9944, 56413.34
626.4765, 56416.68
626.9586, 56438.84
627.4407, 56481.11
627.9229, 56534.43
628.4050, 56587.06
628.8871, 56640.23
629.3692, 56725.86
629.8513, 56853.45
630.3334, 56979.92
630.8156, 57058.04
631.2977, 57100.82
631.7798, 57136.02
632.2619, 57165.00
632.7440, 57200.46
633.2261, 57245.07
633.7083, 57304.27
634.1904, 57389.77
634.6725, 57547.60
635.1546, 57696.54
635.6367, 57801.32
636.1188, 57857.18
636.6010, 57914.85
637.0831, 57970.04
637.5652, 58033.50
638.0473, 58110.41
638.5294, 58199.24
639.0115, 58311.45
639.4937, 58457.04
639.9758, 58599.93
640.4579, 58672.12
640.9400, 58691.79
641.4221, 58754.23
641.9042, 58920.79
642.3864, 59104.11
642.8685, 59174.30
643.3506, 59169.95
643.8327, 59212.90
644.3148, 59442.50
644.7969, 59670.20
645.2791, 59771.51
645.7612, 59725.47
646.2433, 59726.03
