##NAMES=Lemmleinite-Ba
##RRUFFID=R110017
##IDEAL CHEMISTRY=Na_4_K_4_Ba_2+x_Ti^4+^_8_(Si_4_O_12_)_4_(O,OH)_8_&#183;8H_2_O
##LOCALITY=Partomchorr Mt., Khibiny Massif, Kola, Russia
##OWNER=RRUFF
##SOURCE=Ray Grant
##DESCRIPTION=Reddish orange bladed crystals associated with white natrolite
##STATUS=The identification of this mineral has been confirmed only by single crystal X-ray diffraction.
##URL=rruff.info/R110017
189.4393, 14227.00
189.9214, 14233.87
190.4035, 14238.40
190.8857, 14241.85
191.3678, 14242.40
191.8499, 14242.20
192.3320, 14245.46
192.8141, 14255.30
193.2962, 14270.31
193.7784, 14279.37
194.2605, 14273.67
194.7426, 14272.64
195.2247, 14285.15
195.7068, 14308.09
196.1889, 14332.00
196.6711, 14350.56
197.1532, 14365.78
197.6353, 14387.58
198.1174, 14416.53
198.5995, 14450.59
199.0816, 14488.77
199.5638, 14531.23
200.0459, 14578.33
200.5280, 14630.29
201.0101, 14688.30
201.4922, 14751.68
201.9743, 14822.05
202.4565, 14896.64
202.9386, 14973.56
203.4207, 15052.99
203.9028, 15134.68
204.3849, 15217.13
204.8670, 15302.47
205.3492, 15394.21
205.8313, 15497.47
206.3134, 15601.63
206.7955, 15692.14
207.2776, 15766.93
207.7597, 15837.68
208.2419, 15910.53
208.7240, 15981.83
209.2061, 16047.31
209.6882, 16105.61
210.1703, 16157.47
210.6524, 16205.34
211.1346, 16251.62
211.6167, 16285.79
212.0988, 16304.38
212.5809, 16310.77
213.0630, 16307.11
213.5451, 16293.99
214.0273, 16272.24
214.5094, 16243.64
214.9915, 16207.64
215.4736, 16164.53
215.9557, 16113.23
216.4378, 16056.93
216.9200, 15998.04
217.4021, 15937.96
217.8842, 15876.44
218.3663, 15813.44
218.8484, 15746.87
219.3305, 15682.08
219.8127, 15621.00
220.2948, 15561.19
220.7769, 15499.31
221.2590, 15433.84
221.7411, 15366.84
222.2232, 15304.39
222.7054, 15251.65
223.1875, 15197.71
223.6696, 15138.15
224.1517, 15078.28
224.6338, 15025.43
225.1159, 14982.71
225.5980, 14946.50
226.0802, 14906.25
226.5623, 14856.86
227.0444, 14809.54
227.5265, 14763.57
228.0086, 14720.56
228.4907, 14683.67
228.9729, 14654.32
229.4550, 14630.59
229.9371, 14608.19
230.4192, 14585.88
230.9013, 14566.58
231.3834, 14552.28
231.8656, 14541.02
232.3477, 14530.23
232.8298, 14519.09
233.3119, 14507.42
233.7940, 14494.32
234.2761, 14478.63
234.7583, 14464.53
235.2404, 14453.66
235.7225, 14444.95
236.2046, 14437.66
236.6867, 14432.61
237.1688, 14425.83
237.6510, 14409.37
238.1331, 14383.27
238.6152, 14353.59
239.0973, 14321.76
239.5794, 14287.70
240.0615, 14250.77
240.5437, 14209.24
241.0258, 14167.62
241.5079, 14132.93
241.9900, 14105.06
242.4721, 14075.92
242.9542, 14040.79
243.4364, 14001.98
243.9185, 13965.34
244.4006, 13932.16
244.8827, 13901.37
245.3648, 13872.14
245.8469, 13844.39
246.3290, 13817.63
246.8112, 13790.23
247.2933, 13763.63
247.7754, 13742.36
248.2575, 13729.70
248.7396, 13718.11
249.2217, 13699.49
249.7039, 13676.28
250.1860, 13657.35
250.6681, 13648.63
251.1502, 13648.18
251.6323, 13648.63
252.1144, 13648.94
252.5966, 13651.56
253.0787, 13655.50
253.5608, 13662.20
254.0429, 13675.35
254.5250, 13698.71
255.0071, 13730.17
255.4893, 13761.73
255.9714, 13791.56
256.4535, 13824.72
256.9356, 13862.45
257.4177, 13904.42
257.8998, 13950.39
258.3820, 13999.83
258.8641, 14053.11
259.3462, 14112.17
259.8283, 14180.83
260.3104, 14249.17
260.7925, 14312.86
261.2747, 14375.06
261.7568, 14440.24
262.2389, 14511.61
262.7210, 14586.16
263.2031, 14655.71
263.6852, 14716.87
264.1674, 14778.70
264.6495, 14843.46
265.1316, 14909.73
265.6137, 14976.51
266.0958, 15043.55
266.5779, 15109.08
267.0601, 15167.69
267.5422, 15212.51
268.0243, 15262.70
268.5064, 15329.40
268.9885, 15397.60
269.4706, 15453.31
269.9528, 15491.76
270.4349, 15518.83
270.9170, 15545.48
271.3991, 15572.57
271.8812, 15596.94
272.3633, 15618.26
272.8455, 15637.38
273.3276, 15654.31
273.8097, 15669.33
274.2918, 15683.43
274.7739, 15698.58
275.2560, 15717.71
275.7382, 15731.13
276.2202, 15734.50
276.7024, 15736.63
277.1845, 15743.45
277.6666, 15755.52
278.1487, 15769.03
278.6308, 15779.66
279.1129, 15787.24
279.5951, 15791.90
280.0772, 15792.39
280.5593, 15791.53
281.0414, 15790.40
281.5235, 15789.26
282.0056, 15788.07
282.4878, 15786.93
282.9699, 15785.97
283.4520, 15783.98
283.9341, 15779.20
284.4162, 15775.38
284.8983, 15775.02
285.3805, 15777.18
285.8626, 15779.09
286.3447, 15778.51
286.8268, 15775.58
287.3089, 15774.11
287.7910, 15776.40
288.2732, 15777.73
288.7553, 15776.15
289.2374, 15772.65
289.7195, 15770.21
290.2016, 15771.20
290.6837, 15773.50
291.1659, 15764.65
291.6480, 15734.73
292.1301, 15705.20
292.6122, 15679.83
293.0943, 15656.73
293.5764, 15633.66
294.0586, 15609.53
294.5407, 15583.73
295.0228, 15554.48
295.5049, 15516.91
295.9870, 15481.72
296.4691, 15451.29
296.9513, 15422.62
297.4334, 15393.49
297.9155, 15363.18
298.3976, 15330.12
298.8797, 15291.21
299.3618, 15239.11
299.8440, 15195.39
300.3261, 15165.09
300.8082, 15140.08
301.2903, 15113.66
301.7724, 15084.67
302.2545, 15055.77
302.7367, 15030.37
303.2188, 15010.46
303.7009, 14985.81
304.1830, 14954.90
304.6651, 14920.79
305.1472, 14884.25
305.6294, 14845.88
306.1115, 14807.72
306.5936, 14772.49
307.0757, 14740.57
307.5578, 14698.03
308.0399, 14641.06
308.5221, 14579.45
309.0042, 14519.26
309.4863, 14458.16
309.9684, 14390.11
310.4505, 14311.16
310.9326, 14222.28
311.4148, 14131.88
311.8969, 14041.15
312.3790, 13947.54
312.8611, 13847.75
313.3432, 13745.36
313.8253, 13645.08
314.3075, 13549.49
314.7896, 13457.55
315.2717, 13366.21
315.7538, 13279.05
316.2359, 13186.96
316.7180, 13084.03
317.2001, 12978.08
317.6823, 12877.50
318.1644, 12784.29
318.6465, 12696.40
319.1286, 12610.38
319.6107, 12526.34
320.0928, 12445.74
320.5750, 12368.75
321.0571, 12294.44
321.5392, 12222.14
322.0213, 12151.85
322.5034, 12082.77
322.9855, 12014.56
323.4677, 11946.39
323.9498, 11881.71
324.4319, 11818.94
324.9140, 11760.19
325.3961, 11707.11
325.8782, 11659.02
326.3604, 11613.02
326.8425, 11566.96
327.3246, 11521.28
327.8067, 11480.10
328.2888, 11447.29
328.7709, 11414.10
329.2531, 11376.64
329.7352, 11337.86
330.2173, 11302.48
330.6994, 11272.71
331.1815, 11247.83
331.6636, 11225.58
332.1458, 11203.23
332.6279, 11187.61
333.1100, 11180.39
333.5921, 11179.32
334.0742, 11181.96
334.5563, 11187.70
335.0385, 11198.13
335.5206, 11216.11
336.0027, 11246.36
336.4848, 11272.21
336.9669, 11290.24
337.4490, 11307.20
337.9312, 11326.97
338.4133, 11350.05
338.8954, 11375.12
339.3775, 11401.02
339.8596, 11427.75
340.3417, 11455.61
340.8239, 11483.78
341.3060, 11513.58
341.7881, 11547.10
342.2702, 11582.59
342.7523, 11616.78
343.2344, 11647.68
343.7166, 11675.18
344.1987, 11698.46
344.6808, 11718.65
345.1629, 11732.52
345.6450, 11736.33
346.1271, 11734.91
346.6093, 11734.44
347.0914, 11737.05
347.5735, 11738.67
348.0556, 11731.46
348.5377, 11712.02
349.0198, 11689.13
349.5020, 11663.73
349.9841, 11634.96
350.4662, 11601.34
350.9483, 11563.50
351.4304, 11524.31
351.9125, 11487.85
352.3947, 11455.75
352.8768, 11415.92
353.3589, 11369.81
353.8410, 11314.80
354.3231, 11245.23
354.8052, 11166.01
355.2874, 11087.50
355.7695, 11018.32
356.2516, 10954.58
356.7337, 10871.59
357.2158, 10754.68
357.6979, 10637.02
358.1800, 10522.34
358.6621, 10410.92
359.1443, 10303.74
359.6264, 10200.60
360.1085, 10100.89
360.5906, 10002.62
361.0727, 9905.640
361.5548, 9810.591
362.0370, 9719.075
362.5191, 9628.458
363.0012, 9536.494
363.4833, 9442.792
363.9654, 9351.067
364.4475, 9265.507
364.9297, 9186.526
365.4118, 9106.170
365.8939, 9020.526
366.3760, 8937.953
366.8581, 8861.670
367.3402, 8791.064
367.8224, 8724.654
368.3045, 8662.450
368.7866, 8603.658
369.2687, 8545.417
369.7508, 8486.354
370.2329, 8431.428
370.7151, 8382.996
371.1972, 8338.751
371.6793, 8295.355
372.1614, 8251.907
372.6435, 8211.900
373.1256, 8181.290
373.6078, 8160.803
374.0899, 8140.053
374.5720, 8114.762
375.0541, 8090.652
375.5362, 8072.667
376.0183, 8060.307
376.5005, 8048.559
376.9826, 8032.686
377.4647, 8014.489
377.9468, 8000.587
378.4289, 7991.798
378.9110, 7986.348
379.3932, 7986.488
379.8753, 7988.730
380.3574, 7985.835
380.8395, 7972.221
381.3216, 7955.497
381.8037, 7945.656
382.2859, 7942.830
382.7680, 7939.539
383.2501, 7931.894
383.7322, 7922.392
384.2143, 7914.541
384.6964, 7908.141
385.1786, 7904.659
385.6607, 7906.061
386.1428, 7911.150
386.6249, 7916.046
387.1070, 7918.942
387.5891, 7924.157
388.0713, 7939.389
388.5534, 7963.582
389.0355, 7984.595
389.5176, 7995.373
389.9997, 8004.745
390.4818, 8021.731
390.9640, 8046.674
391.4461, 8074.445
391.9282, 8101.816
392.4103, 8129.212
392.8924, 8158.649
393.3745, 8189.485
393.8567, 8222.781
394.3388, 8259.744
394.8209, 8299.285
395.3030, 8340.171
395.7851, 8382.858
396.2672, 8423.121
396.7494, 8452.736
397.2315, 8463.181
397.7136, 8483.192
398.1957, 8519.816
398.6778, 8562.690
399.1599, 8605.461
399.6420, 8646.439
400.1241, 8684.238
400.6063, 8717.406
401.0884, 8745.976
401.5705, 8773.068
402.0526, 8797.443
402.5347, 8822.104
403.0168, 8850.656
403.4990, 8879.700
403.9811, 8903.813
404.4632, 8920.353
404.9453, 8934.380
405.4274, 8937.817
405.9095, 8944.403
406.3917, 8942.950
406.8738, 8933.015
407.3559, 8916.284
407.8380, 8891.237
408.3201, 8859.371
408.8022, 8826.864
409.2844, 8800.651
409.7665, 8781.644
410.2486, 8754.987
410.7307, 8714.733
411.2128, 8672.611
411.6949, 8629.486
412.1771, 8587.273
412.6592, 8548.349
413.1413, 8513.870
413.6234, 8483.296
414.1055, 8455.930
414.5876, 8432.351
415.0698, 8409.855
415.5519, 8386.555
416.0340, 8365.124
416.5161, 8347.140
416.9982, 8332.845
417.4803, 8322.788
417.9625, 8316.965
418.4446, 8315.570
418.9267, 8320.186
419.4088, 8332.585
419.8909, 8348.184
420.3730, 8364.566
420.8552, 8381.656
421.3373, 8399.259
421.8194, 8417.254
422.3015, 8435.729
422.7836, 8453.217
423.2657, 8469.765
423.7479, 8491.773
424.2300, 8521.855
424.7121, 8559.123
425.1942, 8602.247
425.6763, 8652.132
426.1584, 8702.396
426.6406, 8748.714
427.1227, 8794.228
427.6048, 8842.979
428.0869, 8895.819
428.5690, 8954.241
429.0511, 9019.487
429.5333, 9092.418
430.0154, 9170.071
430.4975, 9254.542
430.9796, 9341.913
431.4617, 9430.231
431.9438, 9519.277
432.4260, 9608.851
432.9081, 9697.926
433.3902, 9788.787
433.8723, 9886.722
434.3544, 9992.674
434.8365, 10104.42
435.3187, 10221.73
435.8008, 10344.90
436.2829, 10474.86
436.7650, 10610.92
437.2471, 10749.89
437.7292, 10888.67
438.2114, 11027.74
438.6935, 11167.86
439.1756, 11305.00
439.6577, 11448.31
440.1398, 11602.92
440.6219, 11763.80
441.1040, 11924.34
441.5862, 12081.19
442.0683, 12233.88
442.5504, 12381.56
443.0325, 12528.48
443.5146, 12658.73
443.9967, 12767.92
444.4789, 12862.31
444.9610, 12944.13
445.4431, 13012.90
445.9252, 13067.61
446.4073, 13108.21
446.8894, 13133.36
447.3716, 13137.84
447.8537, 13120.83
448.3358, 13084.68
448.8179, 13025.99
449.3000, 12950.31
449.7821, 12860.79
450.2643, 12757.16
450.7464, 12643.50
451.2285, 12522.36
451.7106, 12393.78
452.1927, 12260.66
452.6748, 12122.49
453.1570, 11983.46
453.6391, 11847.91
454.1212, 11715.28
454.6033, 11583.18
455.0854, 11448.46
455.5675, 11316.77
456.0497, 11192.24
456.5318, 11075.21
457.0139, 10963.16
457.4960, 10853.92
457.9781, 10749.97
458.4602, 10658.79
458.9424, 10584.15
459.4245, 10511.69
459.9066, 10434.28
460.3887, 10360.81
460.8708, 10300.15
461.3529, 10253.62
461.8351, 10217.89
462.3172, 10189.88
462.7993, 10169.76
463.2814, 10157.26
463.7635, 10150.73
464.2456, 10152.99
464.7278, 10163.19
465.2099, 10183.20
465.6920, 10215.42
466.1741, 10260.90
466.6562, 10318.17
467.1383, 10384.06
467.6205, 10457.37
468.1026, 10545.22
468.5847, 10650.53
469.0668, 10768.56
469.5489, 10894.99
470.0310, 11032.56
470.5132, 11187.53
470.9953, 11365.24
471.4774, 11561.71
471.9595, 11767.06
472.4416, 11980.65
472.9237, 12204.55
473.4059, 12441.05
473.8880, 12687.10
474.3701, 12939.07
474.8522, 13194.88
475.3343, 13463.47
475.8164, 13745.79
476.2986, 14043.88
476.7807, 14366.49
477.2628, 14713.36
477.7449, 15082.85
478.2270, 15470.03
478.7091, 15881.27
479.1913, 16329.09
479.6734, 16816.70
480.1555, 17337.10
480.6376, 17884.71
481.1197, 18462.58
481.6018, 19080.87
482.0839, 19743.35
482.5660, 20440.04
483.0482, 21163.88
483.5303, 21919.78
484.0124, 22682.17
484.4945, 23463.85
484.9766, 24237.56
485.4587, 25017.95
485.9409, 25781.37
486.4230, 26485.03
486.9051, 27110.34
487.3872, 27648.71
487.8693, 28075.67
488.3514, 28426.28
488.8336, 28589.88
489.3157, 28562.15
489.7978, 28375.84
490.2799, 28038.97
490.7620, 27561.16
491.2441, 26961.16
491.7263, 26238.35
492.2084, 25408.45
492.6905, 24539.82
493.1726, 23621.40
493.6547, 22696.00
494.1368, 21764.94
494.6190, 20850.69
495.1011, 19973.26
495.5832, 19135.90
496.0653, 18345.82
496.5474, 17613.43
497.0295, 16938.22
497.5117, 16325.88
497.9938, 15778.65
498.4759, 15285.87
498.9580, 14836.94
499.4401, 14433.86
499.9222, 14077.77
500.4044, 13776.08
500.8865, 13512.72
501.3686, 13281.15
501.8507, 13080.05
502.3328, 12905.15
502.8149, 12755.96
503.2971, 12627.49
503.7792, 12512.94
504.2613, 12410.47
504.7434, 12329.35
505.2255, 12272.15
505.7076, 12231.28
506.1898, 12204.24
506.6719, 12190.59
507.1540, 12191.09
507.6361, 12206.30
508.1182, 12234.25
508.6003, 12269.61
509.0825, 12309.77
509.5646, 12364.72
510.0467, 12440.21
510.5288, 12526.43
511.0109, 12618.82
511.4930, 12717.71
511.9752, 12825.49
512.4573, 12941.25
512.9394, 13068.58
513.4215, 13218.30
513.9036, 13393.40
514.3857, 13575.40
514.8679, 13756.13
515.3500, 13943.09
515.8321, 14143.49
516.3142, 14357.90
516.7963, 14581.19
517.2784, 14810.71
517.7606, 15048.98
518.2427, 15299.97
518.7248, 15564.02
519.2069, 15839.68
519.6890, 16125.19
520.1711, 16422.74
520.6533, 16734.50
521.1354, 17070.84
521.6175, 17407.30
522.0996, 17737.40
522.5817, 18066.04
523.0638, 18396.69
523.5460, 18728.38
524.0281, 19060.94
524.5102, 19394.51
524.9923, 19727.34
525.4744, 20040.08
525.9565, 20339.15
526.4387, 20602.82
526.9208, 20828.80
527.4029, 21019.63
527.8850, 21180.60
528.3671, 21312.38
528.8492, 21402.42
529.3314, 21438.93
529.8135, 21422.46
530.2956, 21355.17
530.7777, 21233.22
531.2598, 21068.63
531.7419, 20860.45
532.2241, 20616.88
532.7062, 20341.98
533.1883, 20033.90
533.6704, 19700.92
534.1525, 19340.36
534.6346, 18959.19
535.1168, 18567.04
535.5989, 18165.29
536.0810, 17761.13
536.5631, 17362.58
537.0452, 16968.50
537.5273, 16584.68
538.0095, 16205.86
538.4916, 15840.78
538.9737, 15492.71
539.4558, 15158.79
539.9379, 14833.42
540.4200, 14515.48
540.9022, 14206.70
541.3843, 13911.47
541.8664, 13629.79
542.3485, 13361.25
542.8306, 13108.19
543.3127, 12868.85
543.7948, 12644.41
544.2769, 12433.65
544.7590, 12236.87
545.2411, 12054.14
545.7233, 11881.67
546.2054, 11717.44
546.6875, 11560.82
547.1696, 11412.64
547.6517, 11274.01
548.1339, 11142.19
548.6160, 11014.03
549.0981, 10890.92
549.5802, 10777.08
550.0623, 10676.76
550.5444, 10582.98
551.0266, 10490.51
551.5087, 10400.95
551.9908, 10318.43
552.4729, 10244.37
552.9550, 10174.45
553.4371, 10103.36
553.9193, 10030.18
554.4014, 9960.446
554.8835, 9892.201
555.3656, 9829.124
555.8477, 9775.527
556.3298, 9726.589
556.8120, 9675.848
557.2941, 9620.715
557.7762, 9564.656
558.2583, 9510.848
558.7404, 9458.949
559.2225, 9415.003
559.7047, 9386.422
560.1868, 9356.828
560.6689, 9317.112
561.1510, 9271.659
561.6331, 9227.399
562.1152, 9186.513
562.5974, 9147.314
563.0795, 9107.785
563.5616, 9068.562
564.0437, 9032.369
564.5258, 8999.900
565.0079, 8969.105
565.4901, 8938.226
565.9722, 8907.371
566.4543, 8877.291
566.9364, 8847.850
567.4185, 8819.435
567.9006, 8793.395
568.3828, 8768.111
568.8649, 8740.720
569.3470, 8710.832
569.8291, 8680.345
570.3112, 8652.000
570.7933, 8625.884
571.2755, 8598.460
571.7576, 8566.333
572.2397, 8537.129
572.7218, 8513.472
573.2039, 8492.999
573.6860, 8472.937
574.1682, 8452.494
574.6503, 8433.174
575.1324, 8417.455
575.6145, 8404.214
576.0966, 8388.560
576.5787, 8370.065
577.0609, 8349.481
577.5430, 8325.931
578.0251, 8301.147
578.5072, 8279.128
578.9893, 8259.819
579.4714, 8243.601
579.9536, 8234.318
580.4357, 8226.321
580.9178, 8212.118
581.3999, 8191.273
581.8820, 8167.870
582.3641, 8144.406
582.8463, 8121.578
583.3284, 8103.166
583.8105, 8092.460
584.2926, 8081.632
584.7747, 8072.792
585.2568, 8061.617
585.7390, 8042.964
586.2211, 8018.123
586.7032, 7994.153
587.1853, 7976.881
587.6674, 7963.497
588.1495, 7946.097
588.6317, 7923.848
589.1138, 7902.577
589.5959, 7884.002
590.0780, 7867.284
590.5601, 7851.695
591.0422, 7837.174
591.5244, 7822.880
592.0065, 7811.260
592.4886, 7797.641
592.9707, 7774.650
593.4528, 7745.604
593.9349, 7722.307
594.4171, 7710.349
594.8992, 7704.128
595.3813, 7693.466
595.8634, 7674.835
596.3455, 7662.239
596.8276, 7664.447
597.3098, 7662.604
597.7919, 7644.119
598.2740, 7617.302
598.7561, 7596.244
599.2382, 7586.686
599.7203, 7584.036
600.2025, 7584.169
600.6846, 7586.930
601.1667, 7585.203
601.6488, 7576.499
602.1309, 7566.985
602.6130, 7562.327
603.0952, 7559.735
603.5773, 7552.990
604.0594, 7537.713
604.5415, 7525.079
605.0236, 7523.325
605.5057, 7526.837
605.9879, 7526.873
606.4700, 7522.154
606.9521, 7516.555
607.4342, 7513.209
607.9163, 7511.822
608.3984, 7510.327
608.8806, 7511.364
609.3627, 7508.292
609.8448, 7499.411
610.3269, 7487.133
610.8090, 7473.528
611.2911, 7458.464
611.7733, 7440.205
612.2554, 7417.126
612.7375, 7390.417
613.2196, 7362.762
613.7017, 7334.136
614.1838, 7303.185
614.6660, 7268.949
615.1481, 7232.711
615.6302, 7196.075
616.1123, 7158.982
616.5944, 7119.268
617.0765, 7073.384
617.5587, 7027.787
618.0408, 6987.628
618.5229, 6951.038
619.0050, 6913.000
619.4871, 6871.807
619.9692, 6830.650
620.4514, 6793.841
620.9335, 6761.518
621.4156, 6731.203
621.8977, 6700.943
622.3798, 6675.265
622.8619, 6659.574
623.3441, 6646.991
623.8262, 6629.548
624.3083, 6605.492
624.7904, 6579.571
625.2725, 6554.756
625.7546, 6531.392
626.2367, 6510.343
626.7188, 6491.574
627.2009, 6476.429
627.6830, 6467.468
628.1652, 6461.044
628.6473, 6447.980
629.1294, 6426.370
629.6115, 6405.859
630.0936, 6386.623
630.5757, 6369.905
631.0579, 6356.989
631.5400, 6347.261
632.0221, 6339.500
632.5042, 6333.192
632.9863, 6327.053
633.4684, 6318.864
633.9506, 6308.541
634.4327, 6296.029
634.9148, 6277.845
635.3969, 6262.036
635.8790, 6254.620
636.3611, 6251.474
636.8433, 6245.241
637.3254, 6233.399
637.8075, 6220.583
638.2896, 6210.428
638.7717, 6201.636
639.2538, 6190.530
639.7360, 6176.848
640.2181, 6165.902
640.7002, 6162.144
641.1823, 6163.472
641.6644, 6161.265
642.1465, 6152.448
642.6287, 6144.226
643.1108, 6135.049
643.5929, 6127.950
644.0750, 6126.744
644.5571, 6129.458
645.0392, 6130.283
645.5214, 6125.683
646.0035, 6118.743
646.4856, 6113.696
646.9677, 6110.555
647.4498, 6112.145
647.9319, 6120.977
648.4141, 6130.435
648.8962, 6134.626
649.3783, 6134.833
649.8604, 6135.794
650.3425, 6137.870
650.8246, 6140.659
651.3068, 6144.638
651.7889, 6148.841
652.2710, 6152.586
652.7531, 6155.443
653.2352, 6155.888
653.7173, 6152.097
654.1995, 6145.983
654.6816, 6145.942
655.1637, 6154.273
655.6458, 6163.188
656.1279, 6172.576
656.6100, 6181.331
657.0922, 6187.209
657.5743, 6191.710
658.0564, 6200.084
658.5385, 6217.943
659.0206, 6235.474
659.5027, 6240.433
659.9849, 6237.562
660.4670, 6241.265
660.9491, 6254.982
661.4312, 6270.695
661.9133, 6280.984
662.3954, 6286.406
662.8776, 6294.631
663.3597, 6309.689
663.8418, 6322.304
664.3239, 6328.028
664.8060, 6333.744
665.2881, 6345.556
665.7703, 6363.037
666.2524, 6381.850
666.7345, 6400.350
667.2166, 6417.143
667.6987, 6429.774
668.1808, 6438.294
668.6630, 6443.620
669.1451, 6444.453
669.6272, 6445.677
670.1093, 6452.640
670.5914, 6464.842
671.0735, 6474.976
671.5557, 6483.049
672.0378, 6488.796
672.5199, 6490.939
673.0020, 6491.279
673.4841, 6493.143
673.9662, 6495.903
674.4484, 6494.030
674.9305, 6482.021
675.4126, 6464.106
675.8947, 6455.504
676.3768, 6459.131
676.8589, 6459.192
677.3411, 6450.917
677.8232, 6439.933
678.3053, 6430.968
678.7874, 6423.290
679.2695, 6414.229
679.7516, 6404.078
680.2338, 6391.307
680.7159, 6370.348
681.1980, 6347.987
681.6801, 6336.780
682.1622, 6337.752
682.6443, 6340.054
683.1265, 6335.149
683.6086, 6323.763
684.0907, 6308.637
684.5728, 6285.358
685.0549, 6267.959
685.5370, 6261.174
