##NAMES=Lemoynite
##RRUFFID=R080106
##IDEAL CHEMISTRY=Na_2_CaZr^4+^_2_Si_10_O_26_&#183;5-6H_2_O
##LOCALITY=Mont Saint-Hilaire, Quebec, Canada
##OWNER=RRUFF
##SOURCE=William W. Pinch
##DESCRIPTION=Aggregates of cream-white, sub-parallel prismatic crystals
##STATUS=The identification of this mineral has been confirmed by single-crystal X-ray diffraction.
##URL=rruff.info/R080106
92.35352, 17.01292
92.83563, 16.87132
93.31775, 16.81148
93.79987, 16.75415
94.28198, 16.76826
94.76410, 17.07602
95.24622, 17.77554
95.72833, 18.73289
96.21045, 19.59819
96.69257, 20.35830
97.17468, 21.28974
97.65680, 22.66623
98.13892, 24.48616
98.62103, 26.44323
99.10315, 28.39784
99.58527, 30.39595
100.0674, 32.63066
100.5495, 35.05394
101.0316, 37.77868
101.5137, 40.91596
101.9958, 44.52880
102.4780, 48.39899
102.9601, 52.38316
103.4422, 56.41510
103.9243, 60.97507
104.4064, 66.11713
104.8885, 71.77455
105.3707, 77.97298
105.8528, 84.72588
106.3349, 91.92988
106.8170, 99.54799
107.2991, 107.9053
107.7813, 116.0627
108.2634, 123.9514
108.7455, 131.6696
109.2276, 139.2557
109.7097, 146.9221
110.1918, 154.3701
110.6740, 161.4870
111.1561, 168.1897
111.6382, 174.6513
112.1203, 180.5823
112.6024, 186.1719
113.0845, 192.2344
113.5667, 199.0229
114.0488, 206.2311
114.5309, 213.7340
115.0130, 221.1904
115.4951, 229.1650
115.9772, 237.7567
116.4594, 247.0471
116.9415, 257.1426
117.4236, 268.7356
117.9057, 280.9545
118.3878, 292.8151
118.8699, 303.8804
119.3521, 314.6863
119.8342, 325.5391
120.3163, 336.4261
120.7984, 347.6934
121.2805, 360.3876
121.7626, 373.5532
122.2448, 385.5562
122.7269, 395.2501
123.2090, 403.5952
123.6911, 411.5697
124.1732, 419.3587
124.6553, 426.4319
125.1375, 432.0099
125.6196, 436.3853
126.1017, 440.4849
126.5838, 444.7298
127.0659, 449.0867
127.5480, 453.5309
128.0302, 458.1159
128.5123, 462.7311
128.9944, 467.0135
129.4765, 471.0347
129.9586, 475.4659
130.4407, 481.0026
130.9229, 487.4180
131.4050, 493.8571
131.8871, 500.0553
132.3692, 506.1060
132.8513, 511.8614
133.3334, 516.4495
133.8156, 519.1300
134.2977, 521.4740
134.7798, 525.2272
135.2619, 528.6515
135.7440, 531.1874
136.2261, 533.1032
136.7083, 535.9594
137.1904, 539.9496
137.6725, 544.3135
138.1546, 548.4260
138.6367, 552.3420
139.1188, 555.9183
139.6010, 559.2748
140.0831, 562.4119
140.5652, 564.5521
141.0473, 565.3546
141.5294, 565.6837
142.0115, 566.5725
142.4937, 567.9924
142.9758, 569.9885
143.4579, 572.6610
143.9400, 576.1066
144.4221, 579.5983
144.9042, 583.1240
145.3864, 586.6788
145.8685, 590.1688
146.3506, 593.5056
146.8327, 596.9149
147.3148, 600.5983
147.7969, 605.0002
148.2791, 608.6202
148.7612, 611.1790
149.2433, 612.9931
149.7254, 614.8078
150.2075, 616.1373
150.6896, 617.8906
151.1718, 620.5032
151.6539, 626.1185
152.1360, 629.5153
152.6181, 629.2073
153.1002, 626.4205
153.5823, 624.8113
154.0645, 625.9703
154.5466, 627.3627
155.0287, 627.8145
155.5108, 626.7605
155.9929, 625.2878
156.4750, 623.4120
156.9572, 621.1938
157.4393, 618.9348
157.9214, 617.0588
158.4035, 614.9171
158.8856, 612.1042
159.3677, 608.1613
159.8499, 603.9019
160.3320, 599.6579
160.8141, 595.3787
161.2962, 590.6736
161.7783, 584.6945
162.2604, 578.6110
162.7426, 573.3875
163.2247, 570.1516
163.7068, 567.0943
164.1889, 563.2816
164.6710, 558.8011
165.1531, 554.5276
165.6353, 550.8763
166.1174, 547.6595
166.5995, 544.6752
167.0816, 541.9421
167.5637, 539.3388
168.0458, 536.6920
168.5280, 534.0207
169.0101, 531.6301
169.4922, 530.0276
169.9743, 528.7877
170.4564, 527.3270
170.9385, 525.2609
171.4207, 522.9606
171.9028, 520.6877
172.3849, 518.4595
172.8670, 516.3553
173.3491, 514.4415
173.8312, 512.6815
174.3134, 510.9972
174.7955, 509.5586
175.2776, 508.1071
175.7597, 506.2216
176.2418, 503.8069
176.7239, 501.4894
177.2061, 499.8291
177.6882, 498.6850
178.1703, 497.6995
178.6524, 496.6494
179.1345, 495.6444
179.6166, 494.9840
180.0988, 494.7495
180.5809, 494.4771
181.0630, 493.6035
181.5451, 492.2165
182.0272, 490.7077
182.5093, 489.0394
182.9915, 487.3878
183.4736, 486.2656
183.9557, 485.7574
184.4378, 485.5391
184.9199, 485.1922
185.4020, 484.7404
185.8842, 484.3226
186.3663, 484.0620
186.8484, 483.9069
187.3305, 483.6498
187.8126, 483.2311
188.2947, 482.8199
188.7769, 482.7852
189.2590, 483.1060
189.7411, 483.3053
190.2232, 482.7857
190.7053, 481.7601
191.1874, 481.7329
191.6696, 483.0940
192.1517, 484.9882
192.6338, 485.6084
193.1159, 484.8994
193.5980, 484.4293
194.0801, 485.3925
194.5623, 487.6597
195.0444, 489.4387
195.5265, 490.4543
196.0086, 491.0477
196.4907, 491.7347
196.9728, 492.4486
197.4550, 493.7744
197.9371, 496.5185
198.4192, 500.7177
198.9013, 503.8924
199.3834, 505.7061
199.8655, 506.5020
200.3477, 507.2018
200.8298, 507.9163
201.3119, 508.0035
201.7940, 506.9244
202.2761, 504.5860
202.7582, 502.1703
203.2404, 499.7919
203.7225, 497.3986
204.2046, 494.7774
204.6867, 491.8418
205.1688, 488.9777
205.6509, 486.4421
206.1331, 484.2382
206.6152, 482.2755
207.0973, 480.5982
207.5794, 479.1309
208.0615, 477.5483
208.5436, 475.6684
209.0258, 474.1448
209.5079, 473.5674
209.9900, 474.2230
210.4721, 474.4033
210.9542, 473.7104
211.4363, 472.5332
211.9185, 472.1977
212.4006, 472.8336
212.8827, 474.0285
213.3648, 475.5782
213.8469, 477.5899
214.3290, 479.6302
214.8112, 481.7715
215.2933, 483.8837
215.7754, 485.5244
216.2575, 486.4974
216.7396, 487.3663
217.2217, 488.5229
217.7038, 490.1932
218.1860, 491.4391
218.6681, 492.1295
219.1502, 492.3577
219.6323, 492.4847
220.1144, 492.6815
220.5965, 492.4930
221.0787, 491.6412
221.5608, 490.0141
222.0429, 488.0367
222.5250, 485.6234
223.0071, 482.8969
223.4892, 480.3115
223.9714, 477.5743
224.4535, 475.4120
224.9356, 474.4256
225.4177, 475.6063
225.8998, 475.4985
226.3819, 473.3576
226.8641, 469.8773
227.3462, 467.4912
227.8283, 466.3584
228.3104, 466.0633
228.7925, 466.5575
229.2746, 468.5064
229.7568, 469.6308
230.2389, 469.1489
230.7210, 467.9022
231.2031, 468.8123
231.6852, 473.3637
232.1673, 477.8623
232.6495, 480.4532
233.1316, 480.4383
233.6137, 480.0123
234.0958, 478.8998
234.5779, 477.4756
235.0600, 476.8436
235.5422, 477.3386
236.0243, 478.1369
236.5064, 478.8424
236.9885, 479.1846
237.4706, 480.0434
237.9527, 481.5065
238.4349, 483.4535
238.9170, 485.5821
239.3991, 487.8942
239.8812, 490.3845
240.3633, 493.1138
240.8454, 496.3277
241.3276, 499.1573
241.8097, 501.4628
242.2918, 503.3987
242.7739, 505.2531
243.2560, 506.9407
243.7381, 508.6835
244.2203, 510.6282
244.7024, 513.0024
245.1845, 514.9398
245.6666, 516.3832
246.1487, 517.4159
246.6308, 518.2011
247.1130, 518.6536
247.5951, 519.0013
248.0772, 519.3680
248.5593, 519.8817
249.0414, 519.9410
249.5235, 519.4400
250.0057, 518.5460
250.4878, 517.4740
250.9699, 516.0368
251.4520, 514.7502
251.9341, 513.8784
252.4162, 513.5847
252.8984, 512.8462
253.3805, 511.4879
253.8626, 509.8062
254.3447, 508.2567
254.8268, 506.8095
255.3089, 505.5161
255.7911, 504.4818
256.2732, 503.7686
256.7553, 502.7288
257.2374, 501.2051
257.7195, 499.5058
258.2017, 498.0458
258.6838, 496.9970
259.1659, 495.7595
259.6480, 494.0725
260.1301, 491.9218
260.6122, 490.1662
261.0944, 489.0120
261.5765, 487.9921
262.0586, 486.4672
262.5407, 484.0203
263.0228, 482.2552
263.5049, 481.6606
263.9871, 482.1886
264.4692, 482.7140
264.9513, 483.2603
265.4334, 483.7783
265.9155, 484.2048
266.3976, 484.4742
266.8798, 484.8575
267.3619, 485.4529
267.8440, 486.2204
268.3261, 486.7151
268.8082, 486.7329
269.2903, 486.8997
269.7725, 487.8728
270.2546, 489.8992
270.7367, 491.4903
271.2188, 492.2724
271.7009, 492.4752
272.1830, 493.0888
272.6652, 494.1654
273.1473, 495.4937
273.6294, 497.0894
274.1115, 499.0671
274.5936, 500.5620
275.0757, 501.4684
275.5579, 501.8650
276.0400, 501.8496
276.5221, 501.3171
277.0042, 500.7790
277.4863, 500.5913
277.9684, 500.7892
278.4506, 500.7933
278.9327, 500.4959
279.4148, 500.0746
279.8969, 499.8308
280.3790, 499.7433
280.8611, 500.0048
281.3433, 500.9665
281.8254, 502.6253
282.3075, 503.6172
282.7896, 503.7957
283.2717, 503.5671
283.7538, 503.4601
284.2360, 503.4707
284.7181, 503.7617
285.2002, 504.4280
285.6823, 505.4527
286.1644, 506.7433
286.6465, 508.3332
287.1287, 510.0127
287.6108, 511.4863
288.0929, 512.7628
288.5750, 514.0643
289.0571, 515.5045
289.5392, 517.0390
290.0214, 518.6263
290.5035, 520.3229
290.9856, 521.5830
291.4677, 521.3797
291.9498, 520.0009
292.4319, 519.2825
292.9141, 520.1619
293.3962, 521.8505
293.8783, 522.4381
294.3604, 521.9113
294.8425, 521.1112
295.3246, 520.5885
295.8068, 520.3536
296.2889, 520.4911
296.7710, 521.2107
297.2531, 522.0947
297.7352, 522.2513
298.2173, 521.7787
298.6995, 521.5245
299.1816, 522.3386
299.6637, 523.7937
300.1458, 524.9225
300.6279, 525.4254
301.1100, 525.8302
301.5922, 526.8401
302.0743, 528.3328
302.5564, 529.8285
303.0385, 531.0538
303.5206, 532.0979
304.0027, 533.1027
304.4849, 534.0632
304.9670, 535.0120
305.4491, 536.0579
305.9312, 537.1161
306.4133, 537.9839
306.8954, 538.9415
307.3776, 539.4722
307.8597, 538.8336
308.3418, 536.8996
308.8239, 534.8044
309.3060, 533.3981
309.7881, 532.3787
310.2703, 531.3102
310.7524, 530.1464
311.2345, 528.7663
311.7166, 526.9550
312.1987, 524.7322
312.6808, 522.6378
313.1630, 521.1541
313.6451, 519.8661
314.1272, 518.3093
314.6093, 515.8975
315.0914, 513.5989
315.5735, 511.9851
316.0557, 510.9503
316.5378, 509.9506
317.0199, 508.8774
317.5020, 507.6833
317.9841, 506.2749
318.4662, 504.3238
318.9484, 502.6683
319.4305, 502.0239
319.9126, 501.9334
320.3947, 501.1931
320.8768, 498.1445
321.3589, 495.3531
321.8411, 494.2692
322.3232, 495.9060
322.8053, 497.2320
323.2874, 497.7167
323.7695, 497.5338
324.2516, 496.9591
324.7338, 495.2741
325.2159, 493.8992
325.6980, 493.3382
326.1801, 493.7742
326.6622, 494.2894
327.1443, 495.0589
327.6265, 495.7804
328.1086, 496.1514
328.5907, 496.1741
329.0728, 495.8342
329.5549, 494.7889
330.0370, 493.0224
330.5192, 492.2626
331.0013, 493.1988
331.4834, 494.5536
331.9655, 495.4945
332.4476, 496.0640
332.9297, 496.1128
333.4119, 495.3518
333.8940, 494.0259
334.3761, 493.2154
334.8582, 492.9906
335.3403, 493.1783
335.8224, 493.7834
336.3046, 495.0463
336.7867, 495.9901
337.2688, 496.5529
337.7509, 496.8206
338.2330, 496.9573
338.7151, 496.9374
339.1973, 496.8594
339.6794, 496.6522
340.1615, 496.2906
340.6436, 496.5797
341.1257, 497.7534
341.6078, 499.0849
342.0899, 499.5924
342.5721, 499.2229
343.0542, 498.7438
343.5363, 498.3133
344.0184, 497.9682
344.5005, 497.9555
344.9826, 498.3339
345.4648, 498.6369
345.9469, 498.3572
346.4290, 497.5588
346.9111, 496.7697
347.3932, 496.0150
347.8753, 495.3956
348.3575, 495.2664
348.8396, 495.5728
349.3217, 495.7715
349.8038, 495.1767
350.2859, 494.2032
350.7680, 493.9490
351.2502, 494.6387
351.7323, 495.6604
352.2144, 496.4022
352.6965, 496.9182
353.1786, 497.3510
353.6607, 497.4971
354.1429, 497.7390
354.6250, 498.6070
355.1071, 500.1407
355.5892, 501.9582
356.0713, 503.8398
356.5534, 505.8104
357.0356, 507.9102
357.5177, 510.6052
357.9998, 513.0742
358.4819, 514.3757
358.9640, 514.7345
359.4461, 515.3699
359.9283, 516.9788
360.4104, 519.1010
360.8925, 521.4315
361.3746, 524.2770
361.8567, 526.6553
362.3388, 527.8713
362.8210, 528.3046
363.3031, 528.8525
363.7852, 529.8270
364.2673, 530.9461
364.7494, 532.0933
365.2315, 533.2624
365.7137, 534.4373
366.1958, 535.6674
366.6779, 536.8718
367.1600, 537.9661
367.6421, 538.9114
368.1242, 539.7784
368.6064, 540.5998
369.0885, 541.3824
369.5706, 542.0200
370.0527, 542.4747
370.5348, 542.8250
371.0169, 543.0990
371.4991, 543.0266
371.9812, 543.3781
372.4633, 544.5524
372.9454, 546.1833
373.4275, 546.9867
373.9096, 546.9296
374.3918, 546.1174
374.8739, 544.4270
375.3560, 541.5287
375.8381, 539.1833
376.3202, 537.5325
376.8023, 536.2778
377.2845, 534.8550
377.7666, 533.1293
378.2487, 532.0553
378.7308, 532.2661
379.2129, 533.4815
379.6950, 533.7170
380.1772, 532.8456
380.6593, 531.6434
381.1414, 530.7953
381.6235, 530.2703
382.1056, 529.6584
382.5877, 528.7430
383.0699, 527.8931
383.5520, 528.0007
384.0341, 528.9776
384.5162, 529.9065
384.9983, 529.9700
385.4804, 529.6033
385.9626, 529.8438
386.4447, 530.8863
386.9268, 532.0317
387.4089, 532.7615
387.8910, 533.0563
388.3731, 532.8555
388.8553, 531.3974
389.3374, 529.8904
389.8195, 529.7034
390.3016, 530.7759
390.7837, 531.8944
391.2658, 532.3362
391.7480, 532.4160
392.2301, 532.4534
392.7122, 532.5007
393.1943, 532.5821
393.6764, 532.5370
394.1585, 532.5204
394.6407, 532.9572
395.1228, 534.6479
395.6049, 536.3220
396.0870, 537.1985
396.5691, 536.7587
397.0512, 536.9283
397.5334, 538.5425
398.0155, 540.8181
398.4976, 542.7510
398.9797, 543.4073
399.4618, 544.6153
399.9439, 547.0333
400.4261, 550.6458
400.9082, 553.5195
401.3903, 555.0705
401.8724, 556.4207
402.3545, 558.2377
402.8366, 560.4293
403.3188, 563.2718
403.8009, 566.9883
404.2830, 571.2726
404.7651, 575.4171
405.2472, 579.4232
405.7293, 583.1697
406.2115, 586.4470
406.6936, 589.1999
407.1757, 592.6160
407.6578, 596.8593
408.1399, 601.3594
408.6220, 605.4748
409.1042, 609.2186
409.5863, 613.1249
410.0684, 617.4471
410.5505, 621.9263
411.0326, 626.1586
411.5147, 630.1652
411.9969, 634.0408
412.4790, 637.8698
412.9611, 641.6725
413.4432, 645.4323
413.9253, 649.1907
414.4074, 652.9037
414.8896, 656.7715
415.3717, 660.5878
415.8538, 663.8315
416.3359, 665.9543
416.8180, 667.5579
417.3001, 669.0912
417.7823, 670.5834
418.2644, 671.9609
418.7465, 673.3214
419.2286, 674.5095
419.7107, 675.3430
420.1928, 675.5452
420.6750, 675.6953
421.1571, 675.9090
421.6392, 676.2232
422.1213, 676.7371
422.6034, 677.7155
423.0855, 678.6912
423.5677, 679.4619
424.0498, 679.9402
424.5319, 680.4787
425.0140, 681.2213
425.4961, 682.0046
425.9782, 682.6605
426.4604, 683.0628
426.9425, 683.5499
427.4246, 684.1887
427.9067, 684.9709
428.3888, 685.7527
428.8709, 686.4669
429.3531, 687.2985
429.8352, 688.6031
430.3173, 690.6935
430.7994, 691.4869
431.2815, 690.7778
431.7636, 688.9822
432.2458, 686.7715
432.7279, 684.1529
433.2100, 680.8248
433.6921, 676.4286
434.1742, 671.2476
434.6563, 666.4269
435.1385, 661.9072
435.6206, 657.5608
436.1027, 653.3722
436.5848, 649.2653
437.0669, 644.9540
437.5490, 640.2331
438.0312, 635.6706
438.5133, 631.8932
438.9954, 628.7610
439.4775, 625.8729
439.9596, 622.9309
440.4417, 620.2136
440.9239, 618.0463
441.4060, 616.4527
441.8881, 615.0071
442.3702, 613.5237
442.8523, 612.0664
443.3344, 610.6900
443.8166, 609.6578
444.2987, 608.4085
444.7808, 606.7259
445.2629, 604.6798
445.7450, 602.4671
446.2271, 600.1409
446.7093, 597.6824
447.1914, 595.0245
447.6735, 592.0140
448.1556, 589.3035
448.6377, 587.5381
449.1198, 585.6636
449.6020, 582.4596
450.0841, 577.0674
450.5662, 572.3093
451.0483, 568.7626
451.5304, 566.1576
452.0125, 563.3456
452.4947, 560.1969
452.9768, 557.1689
453.4589, 554.6378
453.9410, 552.6006
454.4231, 549.9322
454.9052, 546.3786
455.3874, 542.8026
455.8695, 540.3997
456.3516, 539.0153
456.8337, 537.6059
457.3158, 535.7438
457.7979, 533.7117
458.2801, 531.9594
458.7622, 530.4870
459.2443, 529.2272
459.7264, 528.5630
460.2085, 527.9425
460.6906, 526.4249
461.1728, 523.6349
461.6549, 521.1425
462.1370, 520.3066
462.6191, 520.4749
463.1012, 520.7166
463.5833, 520.7152
464.0655, 520.6813
464.5476, 520.6687
465.0297, 520.6834
465.5118, 520.7827
465.9939, 521.0061
466.4760, 521.2872
466.9582, 521.5813
467.4403, 521.8256
467.9224, 522.1840
468.4045, 522.6946
468.8866, 523.2981
469.3687, 523.9435
469.8509, 524.7369
470.3330, 525.3502
470.8151, 525.5962
471.2972, 525.5477
471.7793, 525.9822
472.2614, 527.0421
472.7436, 528.2246
473.2257, 529.2568
473.7078, 530.1449
474.1899, 530.6509
474.6720, 530.6425
475.1541, 530.5710
475.6363, 531.1052
476.1184, 532.1878
476.6005, 533.4811
477.0826, 535.0819
477.5647, 536.6682
478.0468, 537.7177
478.5290, 538.2567
479.0111, 538.5242
479.4932, 538.0347
479.9753, 537.6497
480.4574, 538.6625
480.9395, 541.8120
481.4217, 544.6790
481.9038, 545.1794
482.3859, 544.5501
482.8680, 544.5976
483.3501, 546.3713
483.8322, 548.4726
484.3144, 550.7833
484.7965, 553.1838
485.2786, 554.6301
485.7607, 554.0798
486.2428, 553.2005
486.7249, 552.8333
487.2071, 553.3110
487.6892, 553.5912
488.1713, 553.6196
488.6534, 553.4965
489.1355, 553.3912
489.6176, 553.3849
490.0998, 553.1821
490.5819, 552.6830
491.0640, 551.9445
491.5461, 551.1970
492.0282, 550.4285
492.5103, 549.7716
492.9925, 549.4376
493.4746, 549.3331
493.9567, 548.8480
494.4388, 547.8165
494.9209, 546.9937
495.4030, 547.4026
495.8852, 548.6852
496.3673, 549.9814
496.8494, 551.1224
497.3315, 551.9570
497.8136, 552.0701
498.2957, 551.6534
498.7779, 551.5156
499.2600, 552.2707
499.7421, 553.3210
500.2242, 554.3132
500.7063, 555.2537
501.1884, 555.9611
501.6706, 555.9753
502.1527, 555.9191
502.6348, 556.4239
503.1169, 558.0029
503.5990, 559.6556
504.0811, 561.3389
504.5633, 563.0167
505.0454, 564.5591
505.5275, 565.7875
506.0096, 567.1448
506.4917, 568.8082
506.9738, 570.8080
507.4560, 572.8072
507.9381, 574.6692
508.4202, 576.8874
508.9023, 580.4951
509.3844, 585.3470
509.8665, 588.7391
510.3487, 589.7737
510.8308, 589.8642
511.3129, 591.1944
511.7950, 593.6362
512.2772, 596.5807
512.7593, 599.8265
513.2414, 603.3331
513.7235, 607.2070
514.2056, 611.4271
514.6877, 615.6014
515.1699, 619.1572
515.6520, 622.7135
516.1341, 626.8333
516.6162, 631.6966
517.0983, 637.0235
517.5804, 642.7948
518.0626, 648.9791
518.5447, 655.5289
519.0268, 662.7881
519.5089, 670.0526
519.9910, 677.0851
520.4731, 683.9249
520.9553, 690.7988
521.4374, 697.3890
521.9195, 704.3759
522.4016, 712.2024
522.8837, 720.9139
523.3658, 729.9272
523.8480, 739.3154
524.3301, 748.9025
524.8122, 758.2509
525.2943, 767.3657
525.7764, 776.9390
526.2585, 787.3616
526.7407, 798.1182
527.2228, 808.3034
527.7049, 818.1019
528.1870, 828.2355
528.6691, 839.4696
529.1512, 851.2468
529.6334, 862.9746
530.1155, 874.7049
530.5976, 886.3344
531.0797, 897.9742
531.5618, 909.5537
532.0439, 920.8363
532.5261, 931.5345
533.0082, 942.4203
533.4903, 954.6029
533.9724, 967.1116
534.4545, 978.1696
534.9366, 986.3101
535.4188, 994.4114
535.9009, 1003.405
536.3830, 1013.241
536.8651, 1021.447
537.3472, 1027.932
537.8293, 1032.996
538.3115, 1036.645
538.7936, 1038.837
539.2757, 1040.416
539.7578, 1041.570
540.2399, 1041.682
540.7220, 1039.849
541.2042, 1036.192
541.6863, 1031.384
542.1684, 1025.875
542.6505, 1018.936
543.1326, 1009.201
543.6147, 997.0504
544.0969, 983.6378
544.5790, 969.1303
545.0611, 954.2651
545.5432, 939.7586
546.0253, 925.7526
546.5074, 911.4696
546.9896, 896.0103
547.4717, 880.6045
547.9538, 866.2785
548.4359, 854.6233
548.9180, 842.1010
549.4001, 827.4703
549.8823, 812.0338
550.3644, 798.0205
550.8465, 785.6150
551.3286, 774.0522
551.8107, 763.2487
552.2928, 753.1066
552.7750, 743.2044
553.2571, 733.4141
553.7392, 724.2408
554.2213, 716.0645
554.7034, 708.8535
555.1855, 702.2227
555.6677, 696.2479
556.1498, 690.1028
556.6319, 682.1874
557.1140, 673.5798
557.5961, 666.6903
558.0782, 662.8376
558.5604, 659.8197
559.0425, 656.0289
559.5246, 651.7427
560.0067, 647.5983
560.4888, 643.9455
560.9709, 640.4493
561.4531, 636.7652
561.9352, 632.8768
562.4173, 629.9529
562.8994, 629.5315
563.3815, 628.9946
563.8636, 626.9061
564.3458, 622.4608
564.8279, 618.6513
565.3100, 615.4431
565.7921, 612.8690
566.2742, 611.2751
566.7563, 610.8115
567.2385, 609.7164
567.7206, 607.3656
568.2027, 604.4969
568.6848, 602.9379
569.1669, 602.5133
569.6490, 602.0770
570.1312, 600.8452
570.6133, 599.2947
571.0954, 598.1083
571.5775, 597.2745
572.0596, 596.6201
572.5417, 596.0314
573.0239, 595.5539
573.5060, 595.2656
573.9881, 595.2610
574.4702, 595.2139
574.9523, 595.1176
575.4344, 594.8956
575.9166, 594.4514
576.3987, 593.5515
576.8808, 592.7052
577.3629, 591.6924
577.8450, 590.7969
578.3271, 591.1180
578.8093, 593.1165
579.2914, 594.9345
579.7735, 595.6847
580.2556, 595.5137
580.7377, 595.5678
581.2198, 595.8262
581.7020, 596.4665
582.1841, 597.8964
582.6662, 599.7822
583.1483, 601.3165
583.6304, 602.3143
584.1125, 603.2551
584.5947, 604.2979
585.0768, 605.6288
585.5589, 607.5280
586.0410, 610.4486
586.5231, 613.5756
587.0052, 617.1335
587.4873, 620.6885
587.9694, 623.0013
588.4515, 622.4860
588.9337, 622.1393
589.4158, 622.7976
