##NAMES=Lemoynite
##RRUFFID=R080106
##IDEAL CHEMISTRY=Na_2_CaZr^4+^_2_Si_10_O_26_&#183;5-6H_2_O
##LOCALITY=Mont Saint-Hilaire, Quebec, Canada
##OWNER=RRUFF
##SOURCE=William W. Pinch
##DESCRIPTION=Aggregates of cream-white, sub-parallel prismatic crystals
##STATUS=The identification of this mineral has been confirmed by single-crystal X-ray diffraction.
##URL=rruff.info/R080106
92.52344, 411.5348
93.00555, 410.2531
93.48767, 410.7459
93.96979, 420.9063
94.45190, 431.0605
94.93402, 439.7365
95.41614, 441.5194
95.89825, 438.6899
96.38037, 434.9855
96.86249, 430.5055
97.34460, 425.7566
97.82672, 421.3804
98.30884, 416.9081
98.79095, 412.1700
99.27307, 406.7794
99.75519, 400.8175
100.2373, 395.5666
100.7194, 391.3046
101.2015, 387.6011
101.6837, 383.8566
102.1658, 380.7972
102.6479, 379.1810
103.1300, 379.0667
103.6121, 379.3072
104.0942, 379.1086
104.5764, 378.6223
105.0585, 378.0751
105.5406, 377.5100
106.0227, 376.9130
106.5048, 376.2785
106.9869, 375.5901
107.4691, 374.6286
107.9512, 373.4435
108.4333, 371.9623
108.9154, 370.0304
109.3975, 367.3784
109.8796, 363.8482
110.3618, 360.5345
110.8439, 357.5927
111.3260, 354.7009
111.8081, 351.7918
112.2902, 348.8307
112.7723, 345.7303
113.2544, 342.2971
113.7366, 337.7451
114.2187, 334.4599
114.7008, 333.1909
115.1829, 332.6766
115.6650, 331.7828
116.1471, 330.0964
116.6293, 328.0112
117.1114, 326.4673
117.5935, 325.6712
118.0756, 324.9190
118.5577, 323.9528
119.0398, 322.8971
119.5220, 322.0410
120.0041, 321.5267
120.4862, 321.3123
120.9683, 321.1620
121.4504, 320.8857
121.9325, 320.9618
122.4147, 322.1118
122.8968, 324.4593
123.3789, 326.3500
123.8610, 326.6505
124.3431, 326.1269
124.8252, 325.3618
125.3074, 324.4660
125.7895, 323.5043
126.2716, 322.5639
126.7537, 321.4799
127.2358, 320.7662
127.7179, 320.9143
128.2001, 321.3869
128.6822, 321.4700
129.1643, 320.6890
129.6464, 319.1071
130.1285, 317.5653
130.6107, 315.7465
131.0928, 314.2807
131.5749, 313.5638
132.0570, 313.3697
132.5391, 313.1442
133.0212, 312.3424
133.5034, 310.7675
133.9855, 310.0768
134.4676, 310.8703
134.9497, 311.8710
135.4318, 312.3595
135.9139, 312.2747
136.3960, 312.0240
136.8782, 312.0611
137.3603, 312.4561
137.8424, 312.8108
138.3245, 312.8926
138.8066, 313.0023
139.2887, 313.6036
139.7709, 314.8915
140.2530, 316.2910
140.7351, 316.9365
141.2172, 316.9000
141.6993, 317.0412
142.1814, 317.8584
142.6636, 319.1771
143.1457, 320.3350
143.6278, 321.0112
144.1099, 321.6942
144.5920, 322.8278
145.0741, 324.4079
145.5563, 326.0964
146.0384, 327.5663
146.5205, 328.7728
147.0026, 330.1256
147.4847, 332.3394
147.9668, 334.2986
148.4490, 335.1502
148.9311, 334.7750
149.4132, 333.9872
149.8953, 334.0829
150.3774, 335.7121
150.8595, 336.9128
151.3417, 337.5934
151.8238, 337.8415
152.3059, 337.6676
152.7880, 337.0875
153.2701, 336.1871
153.7522, 335.1893
154.2344, 333.8886
154.7165, 332.7280
155.1986, 331.7379
155.6807, 330.8877
156.1628, 330.2100
156.6449, 329.7523
157.1271, 329.3795
157.6092, 328.5009
158.0913, 326.9344
158.5734, 325.1846
159.0555, 323.2617
159.5376, 321.2450
160.0198, 319.3558
160.5019, 317.7636
160.9840, 316.3681
161.4661, 314.8071
161.9482, 313.0887
162.4303, 311.2111
162.9125, 309.1380
163.3946, 306.8759
163.8767, 304.5460
164.3588, 302.0280
164.8409, 299.5715
165.3230, 297.5963
165.8052, 296.4067
166.2873, 295.5244
166.7694, 294.3598
167.2515, 292.8509
167.7336, 291.2495
168.2157, 289.5268
168.6979, 287.8230
169.1800, 286.2874
169.6621, 284.9496
170.1442, 283.8474
170.6263, 283.1835
171.1084, 283.5521
171.5906, 283.3752
172.0727, 281.8850
172.5548, 279.6751
173.0369, 277.5534
173.5190, 276.0064
174.0011, 274.9774
174.4833, 273.9964
174.9654, 273.1268
175.4475, 272.2374
175.9296, 271.2848
176.4117, 270.2935
176.8938, 269.3133
177.3760, 268.3950
177.8581, 267.5440
178.3402, 266.5236
178.8223, 264.8955
179.3044, 263.5404
179.7865, 262.9824
180.2687, 263.0282
180.7508, 263.0729
181.2329, 262.5975
181.7150, 261.5408
182.1971, 260.5849
182.6792, 259.5472
183.1614, 258.7381
183.6435, 258.5108
184.1256, 258.8105
184.6077, 259.0780
185.0898, 258.7644
185.5719, 257.8219
186.0541, 257.1364
186.5362, 257.0253
187.0183, 257.0035
187.5004, 256.5019
187.9825, 255.4285
188.4646, 254.4350
188.9468, 254.3253
189.4289, 254.8654
189.9110, 255.0937
190.3931, 254.3398
190.8752, 253.2854
191.3573, 253.0475
191.8395, 253.8847
192.3216, 255.0490
192.8037, 256.1333
193.2858, 257.1096
193.7679, 257.8731
194.2500, 258.2422
194.7322, 258.3470
195.2143, 258.6137
195.6964, 259.1035
196.1785, 259.6884
196.6606, 260.2262
197.1427, 260.7827
197.6249, 261.5050
198.1070, 262.5693
198.5891, 263.9292
199.0712, 265.1217
199.5533, 266.0970
200.0354, 266.9301
200.5176, 267.7016
200.9997, 268.3612
201.4818, 268.8030
201.9639, 268.9563
202.4460, 268.8239
202.9281, 268.3639
203.4103, 267.0529
203.8924, 265.8800
204.3745, 265.2356
204.8566, 265.0006
205.3387, 264.8399
205.8208, 264.4735
206.3030, 263.8903
206.7851, 263.1816
207.2672, 262.1152
207.7493, 261.1524
208.2314, 260.4343
208.7135, 259.9849
209.1957, 259.8090
209.6778, 259.9427
210.1599, 260.4435
210.6420, 260.8072
211.1241, 261.0518
211.6062, 261.1735
212.0884, 260.9004
212.5705, 260.3841
213.0526, 260.2590
213.5347, 261.1599
214.0168, 263.2422
214.4989, 265.1241
214.9811, 267.1434
215.4632, 268.7376
215.9453, 269.3100
216.4274, 268.9094
216.9095, 268.3588
217.3916, 268.3426
217.8737, 268.8971
218.3559, 269.4508
218.8380, 270.2817
219.3201, 270.9319
219.8022, 270.9166
220.2843, 270.2018
220.7664, 269.3106
221.2486, 268.6854
221.7307, 268.2318
222.2128, 267.5694
222.6949, 266.5277
223.1770, 265.3094
223.6591, 264.1653
224.1413, 263.1226
224.6234, 261.9998
225.1055, 260.4613
225.5876, 258.7638
226.0697, 257.4142
226.5518, 256.7414
227.0340, 256.3900
227.5161, 255.8311
227.9982, 255.0022
228.4803, 254.1771
228.9624, 253.5484
229.4445, 253.0172
229.9267, 252.4389
230.4088, 251.7081
230.8909, 250.9526
231.3730, 250.3923
231.8551, 249.9938
232.3372, 249.9022
232.8194, 250.3869
233.3015, 251.1158
233.7836, 251.6828
234.2657, 251.8640
234.7478, 251.8810
235.2299, 252.2713
235.7121, 253.2638
236.1942, 254.1822
236.6763, 254.8277
237.1584, 255.3114
237.6405, 255.7232
238.1227, 256.0884
238.6048, 256.4590
239.0869, 256.9619
239.5690, 257.6199
240.0511, 258.3947
240.5332, 259.2556
241.0154, 260.2142
241.4975, 261.3510
241.9796, 262.7061
242.4617, 264.0909
242.9438, 264.9882
243.4259, 265.0076
243.9081, 265.1315
244.3902, 265.4820
244.8723, 265.9686
245.3544, 266.6029
245.8365, 267.3788
246.3186, 268.0916
246.8008, 268.2639
247.2829, 267.4918
247.7650, 266.7062
248.2471, 265.9407
248.7292, 265.1864
249.2113, 264.4925
249.6935, 263.8612
250.1756, 263.1583
250.6577, 262.0994
251.1398, 260.1791
251.6219, 258.6436
252.1040, 257.9199
252.5862, 257.3452
253.0683, 256.2579
253.5504, 254.4921
254.0325, 252.4519
254.5146, 250.7988
254.9967, 249.8006
255.4789, 248.7552
255.9610, 247.5360
256.4431, 246.3499
256.9252, 245.3989
257.4073, 244.7234
257.8894, 244.1885
258.3716, 243.6335
258.8537, 243.1132
259.3358, 242.3792
259.8179, 241.1647
260.3000, 239.8943
260.7821, 238.9899
261.2643, 238.5091
261.7464, 238.1232
262.2285, 237.4668
262.7106, 236.4604
263.1927, 235.4934
263.6748, 234.3027
264.1570, 233.3246
264.6391, 232.9816
265.1212, 233.3011
265.6033, 233.9844
266.0854, 234.9202
266.5675, 236.0941
267.0497, 236.6335
267.5318, 235.9560
268.0139, 235.0250
268.4960, 234.5714
268.9781, 234.6354
269.4602, 234.9273
269.9424, 235.3079
270.4245, 235.7487
270.9066, 236.0705
271.3887, 236.2377
271.8708, 236.3109
272.3529, 236.3135
272.8351, 236.2515
273.3172, 236.1549
273.7993, 235.9589
274.2814, 235.7772
274.7635, 235.9156
275.2456, 236.7000
275.7278, 237.4490
276.2099, 237.6062
276.6920, 237.2378
277.1741, 236.9137
277.6562, 237.0422
278.1383, 237.2680
278.6205, 236.8600
279.1026, 235.4971
279.5847, 234.1848
280.0668, 233.6790
280.5489, 233.8563
281.0310, 233.9795
281.5132, 233.6998
281.9953, 233.3504
282.4774, 233.4627
282.9595, 234.1316
283.4416, 234.6936
283.9237, 234.6915
284.4059, 234.2330
284.8880, 233.7444
285.3701, 233.2574
285.8522, 232.8756
286.3343, 232.6531
286.8164, 232.5852
287.2986, 232.7302
287.7807, 233.3221
288.2628, 234.1788
288.7449, 234.6329
289.2270, 234.3781
289.7091, 234.1053
290.1913, 234.5175
290.6734, 235.4264
291.1555, 236.1615
291.6376, 236.3592
292.1197, 236.1657
292.6018, 235.8545
293.0840, 235.3152
293.5661, 234.9583
294.0482, 235.3190
294.5303, 236.0279
295.0124, 236.3846
295.4945, 235.8679
295.9767, 234.9723
296.4588, 234.6513
296.9409, 235.0803
297.4230, 235.4828
297.9051, 235.2929
298.3872, 234.8928
298.8694, 234.7399
299.3515, 235.0165
299.8336, 235.4987
300.3157, 235.9055
300.7978, 236.2265
301.2799, 236.5472
301.7621, 236.8496
302.2442, 237.1969
302.7263, 237.6785
303.2084, 238.3302
303.6905, 238.9998
304.1726, 239.5713
304.6548, 240.0451
305.1369, 240.3571
305.6190, 240.4041
306.1011, 240.3428
306.5832, 240.2455
307.0653, 240.1250
307.5475, 240.0896
308.0296, 240.2714
308.5117, 240.6502
308.9938, 241.0087
309.4759, 241.4891
309.9580, 241.7136
310.4402, 241.3880
310.9223, 240.6070
311.4044, 239.7296
311.8865, 238.9482
312.3686, 238.2515
312.8507, 237.6024
313.3329, 237.0872
313.8150, 236.4578
314.2971, 235.4616
314.7792, 234.2762
315.2613, 233.2117
315.7434, 232.3538
316.2256, 231.7333
316.7077, 231.5251
317.1898, 231.9589
317.6719, 232.1513
318.1540, 231.4209
318.6361, 230.3598
319.1183, 229.6364
319.6004, 229.5211
320.0825, 229.5901
320.5646, 229.1571
321.0467, 228.0894
321.5288, 227.3736
322.0110, 227.6691
322.4931, 228.2434
322.9752, 228.5671
323.4573, 228.5575
323.9394, 228.3734
324.4215, 228.1078
324.9037, 227.7646
325.3858, 227.4621
325.8679, 227.1864
326.3500, 227.0045
326.8321, 227.0483
327.3142, 227.2669
327.7964, 227.3619
328.2785, 226.9538
328.7606, 226.2009
329.2427, 225.9227
329.7248, 226.4162
330.2069, 226.9544
330.6891, 227.1258
331.1712, 227.0171
331.6533, 226.7916
332.1354, 226.4635
332.6175, 226.0949
333.0996, 225.7879
333.5818, 225.5156
334.0639, 225.3898
334.5460, 225.6984
335.0281, 226.1059
335.5102, 226.1888
335.9923, 225.7455
336.4745, 225.1638
336.9566, 224.9174
337.4387, 225.0282
337.9208, 225.0979
338.4029, 224.8338
338.8850, 224.6018
339.3671, 224.8535
339.8492, 225.6636
340.3314, 226.4028
340.8135, 226.5076
341.2956, 226.0838
341.7777, 225.8105
342.2598, 225.9231
342.7419, 226.0423
343.2241, 225.7881
343.7062, 225.2316
344.1883, 224.7304
344.6704, 224.4129
345.1525, 224.2744
345.6346, 224.4321
346.1168, 225.0639
346.5989, 225.4353
347.0810, 224.7031
347.5631, 223.3630
348.0452, 222.2383
348.5273, 221.5604
349.0095, 221.1654
349.4916, 220.9629
349.9737, 220.9601
350.4558, 220.8542
350.9379, 220.4137
351.4200, 219.8413
351.9022, 219.4862
352.3843, 219.4438
352.8664, 219.4014
353.3485, 218.9142
353.8306, 218.1931
354.3127, 218.1866
354.7949, 219.4443
355.2770, 221.0292
355.7591, 221.6099
356.2412, 221.2073
356.7233, 221.1015
357.2054, 222.0505
357.6876, 223.4847
358.1697, 224.5030
358.6518, 224.9668
359.1339, 225.1889
359.6160, 225.3608
360.0981, 225.4993
360.5803, 225.6893
361.0624, 225.7757
361.5445, 226.0426
362.0266, 226.9093
362.5087, 228.2865
362.9908, 229.4612
363.4730, 230.0276
363.9551, 230.1059
364.4372, 230.1095
364.9193, 229.8582
365.4014, 229.8269
365.8835, 230.4610
366.3657, 231.4277
366.8478, 232.0090
367.3299, 231.9227
367.8120, 231.5536
368.2941, 231.5248
368.7762, 231.9356
369.2584, 232.2171
369.7405, 232.2826
370.2226, 232.1899
370.7047, 231.9336
371.1868, 231.5302
371.6689, 231.1502
372.1511, 230.9782
372.6332, 231.0251
373.1153, 230.8276
373.5974, 230.2871
374.0795, 229.6282
374.5616, 228.9777
375.0438, 228.2982
375.5259, 227.4366
376.0080, 226.2873
376.4901, 224.9637
376.9722, 223.8776
377.4543, 223.1875
377.9365, 222.5257
378.4186, 221.8063
378.9007, 221.1169
379.3828, 220.6453
379.8649, 220.4177
380.3470, 220.1488
380.8292, 219.4075
381.3113, 217.9285
381.7934, 216.7560
382.2755, 215.7669
382.7576, 215.1395
383.2397, 215.2283
383.7219, 215.8275
384.2040, 216.3367
384.6861, 216.2922
385.1682, 215.7167
385.6503, 214.9393
386.1324, 213.3176
386.6146, 212.2243
387.0967, 212.3332
387.5788, 212.9709
388.0609, 213.2616
388.5430, 212.8331
389.0251, 212.0161
389.5073, 211.4903
389.9894, 211.4789
390.4715, 211.2872
390.9536, 210.6806
391.4357, 210.0575
391.9178, 209.6078
392.4000, 209.3830
392.8821, 209.4027
393.3642, 209.7910
393.8463, 210.5695
394.3284, 210.9529
394.8105, 210.6538
395.2927, 210.2638
395.7748, 209.8580
396.2569, 209.5253
396.7390, 209.4076
397.2211, 209.6078
397.7032, 209.9959
398.1854, 210.2726
398.6675, 210.3917
399.1496, 210.5460
399.6317, 210.7241
400.1138, 211.0020
400.5959, 211.5303
401.0781, 212.3239
401.5602, 213.0525
402.0423, 213.3296
402.5244, 213.2037
403.0065, 213.1890
403.4886, 213.2235
403.9708, 213.5787
404.4529, 214.5270
404.9350, 215.9148
405.4171, 217.3375
405.8992, 218.7458
406.3813, 220.0193
406.8635, 220.9582
407.3456, 221.5459
407.8277, 221.9383
408.3098, 222.0407
408.7919, 222.0802
409.2740, 222.3869
409.7562, 222.9421
410.2383, 223.8678
410.7204, 225.5395
411.2025, 227.6672
411.6846, 229.4215
412.1667, 230.5880
412.6489, 231.3711
413.1310, 231.9171
413.6131, 232.2381
414.0952, 232.5899
414.5773, 232.8919
415.0594, 233.3277
415.5416, 234.1946
416.0237, 235.4418
416.5058, 236.6020
416.9879, 237.3974
417.4700, 237.8403
417.9521, 238.0140
418.4343, 237.5317
418.9164, 237.2860
419.3985, 237.7531
419.8806, 238.5345
420.3627, 238.9378
420.8448, 238.7481
421.3270, 238.5059
421.8091, 239.0987
422.2912, 241.1330
422.7733, 242.2000
423.2554, 241.6978
423.7375, 240.8358
424.2197, 240.1222
424.7018, 239.6680
425.1839, 239.5285
425.6660, 239.7712
426.1481, 240.3352
426.6302, 240.8148
427.1124, 241.2045
427.5945, 241.4997
428.0766, 241.4600
428.5587, 241.4472
429.0408, 241.9893
429.5229, 243.1889
430.0051, 244.4338
430.4872, 244.7210
430.9693, 243.6958
431.4514, 243.2007
431.9335, 243.8717
432.4156, 244.5719
432.8978, 244.9611
433.3799, 245.0134
433.8620, 244.7776
434.3441, 244.2739
434.8262, 243.5121
435.3083, 242.4299
435.7905, 240.8293
436.2726, 239.4691
436.7547, 238.8498
437.2368, 238.4666
437.7189, 237.8603
438.2010, 236.9304
438.6832, 236.0034
439.1653, 235.3044
439.6474, 234.8326
440.1295, 234.6366
440.6116, 234.8703
441.0938, 235.1000
441.5759, 234.8995
442.0580, 234.3860
442.5401, 233.8894
443.0222, 233.5006
443.5043, 233.1710
443.9865, 232.9589
444.4686, 232.8254
444.9507, 232.3758
445.4328, 231.2991
445.9149, 229.9202
446.3970, 229.0593
446.8792, 228.9875
447.3613, 228.5803
447.8434, 227.3398
448.3255, 225.6874
448.8076, 224.1325
449.2897, 222.7556
449.7719, 221.3639
450.2540, 219.7576
450.7361, 217.9155
451.2182, 216.2077
451.7003, 214.8186
452.1824, 213.3436
452.6646, 211.4449
453.1467, 209.3931
453.6288, 207.7143
454.1109, 206.6360
454.5930, 205.8453
455.0751, 204.6763
455.5573, 202.7315
456.0394, 201.1929
456.5215, 200.1582
457.0036, 199.3725
457.4857, 198.8271
457.9678, 198.4123
458.4500, 197.8696
458.9321, 196.9712
459.4142, 195.7889
459.8963, 194.7226
460.3784, 193.7246
460.8605, 192.9476
461.3427, 192.5933
461.8248, 192.3550
462.3069, 191.8823
462.7890, 191.0892
463.2711, 190.3006
463.7532, 189.8813
464.2354, 189.8053
464.7175, 189.7563
465.1996, 189.7623
465.6817, 189.6877
466.1638, 189.3220
466.6459, 188.8005
467.1281, 188.4772
467.6102, 188.5786
468.0923, 188.8288
468.5744, 188.9375
469.0565, 188.9168
469.5386, 188.8763
470.0208, 188.8314
470.5029, 188.8224
470.9850, 188.9589
471.4671, 189.2831
471.9492, 189.4953
472.4313, 189.4333
472.9135, 189.2734
473.3956, 189.1591
473.8777, 189.1213
474.3598, 189.2246
474.8419, 189.5451
475.3240, 190.0552
475.8062, 190.4695
476.2883, 190.9623
476.7704, 191.1685
477.2525, 190.8007
477.7346, 190.2001
478.2167, 189.7010
478.6989, 189.4178
479.1810, 189.3913
479.6631, 189.7235
480.1452, 190.5198
480.6273, 191.1205
481.1094, 191.3700
481.5916, 191.5760
482.0737, 191.8716
482.5558, 192.1833
483.0379, 192.3289
483.5200, 192.1905
484.0021, 192.0014
484.4843, 192.2549
484.9664, 193.0616
485.4485, 193.8148
485.9306, 194.6099
486.4127, 195.1174
486.8948, 194.9615
487.3770, 194.2495
487.8591, 193.5956
488.3412, 193.3306
488.8233, 193.3643
489.3054, 193.6335
489.7875, 194.1799
490.2697, 194.5192
490.7518, 194.3198
491.2339, 193.7912
491.7160, 193.3940
492.1981, 193.1849
492.6802, 192.9485
493.1624, 192.5634
493.6445, 192.1091
494.1266, 191.7104
494.6087, 191.3858
495.0908, 191.0637
495.5729, 190.6632
496.0551, 190.1882
496.5372, 189.8340
497.0193, 189.6122
497.5014, 189.4767
497.9835, 189.5506
498.4656, 189.6539
498.9478, 189.4429
499.4299, 188.8317
499.9120, 188.2055
500.3941, 188.1705
500.8762, 188.9379
501.3583, 189.4527
501.8405, 189.5700
502.3226, 189.5787
502.8047, 189.5710
503.2868, 189.5276
503.7689, 189.3519
504.2510, 188.9592
504.7331, 188.5688
505.2152, 188.5942
505.6974, 189.0783
506.1795, 189.7401
506.6616, 190.8963
507.1437, 191.8418
507.6258, 191.8642
508.1079, 191.1357
508.5901, 190.6211
509.0722, 190.9324
509.5543, 191.6559
510.0364, 192.2350
510.5185, 192.6648
511.0006, 192.9774
511.4828, 193.0967
511.9649, 193.1887
512.4470, 193.6299
512.9291, 194.5045
513.4113, 195.3634
513.8934, 195.8235
514.3755, 196.3697
514.8576, 197.6313
515.3397, 199.5824
515.8218, 201.6420
516.3040, 203.4497
516.7861, 204.9673
517.2682, 205.8962
517.7503, 205.5691
518.2324, 205.4722
518.7145, 205.5239
519.1967, 205.9944
519.6788, 207.3199
520.1609, 209.4559
520.6430, 211.7506
521.1251, 213.5292
521.6072, 214.8196
522.0894, 216.2523
522.5715, 217.8108
523.0536, 219.5589
523.5357, 221.6404
524.0178, 223.8417
524.4999, 225.9013
524.9821, 227.7460
525.4642, 229.5579
525.9463, 231.3813
526.4284, 233.2829
526.9105, 235.7239
527.3926, 238.9121
527.8748, 242.1645
528.3569, 244.9104
528.8390, 247.2859
529.3211, 249.8039
529.8032, 252.6308
530.2853, 255.4658
530.7675, 258.0935
531.2496, 260.6123
531.7317, 263.2607
532.2138, 266.1221
532.6959, 268.9413
533.1780, 271.3545
533.6602, 273.2525
534.1423, 275.4513
534.6244, 278.1907
535.1065, 280.9321
535.5886, 283.5041
536.0707, 285.9288
536.5529, 288.2887
537.0350, 290.5981
537.5171, 292.7687
537.9992, 294.6593
538.4813, 296.2960
538.9634, 297.5049
539.4456, 298.0705
539.9277, 298.4042
540.4098, 298.8557
540.8919, 299.2001
541.3740, 298.9813
541.8561, 297.9909
542.3383, 296.4368
542.8204, 294.5160
543.3025, 292.2376
543.7846, 289.6681
544.2667, 286.7752
544.7488, 283.6969
545.2310, 280.6328
545.7131, 277.5607
546.1952, 274.0639
546.6773, 269.4215
547.1594, 264.9714
547.6415, 261.9829
548.1237, 259.8751
548.6058, 257.0328
549.0879, 252.8049
549.5700, 247.9229
550.0521, 243.5413
550.5342, 239.6629
551.0164, 236.3891
551.4985, 234.4508
551.9806, 232.3029
552.4627, 228.8042
552.9448, 224.6599
553.4269, 221.3114
553.9091, 219.4831
554.3912, 218.3137
554.8733, 216.1889
555.3554, 212.8858
555.8375, 210.1096
556.3196, 208.3227
556.8018, 206.8455
557.2839, 205.2030
557.7660, 203.4836
558.2481, 201.9562
558.7302, 200.6846
559.2123, 199.6884
559.6945, 199.2990
560.1766, 199.2980
560.6587, 198.5827
561.1408, 196.6702
561.6229, 194.4356
562.1050, 192.9698
562.5872, 192.4247
563.0693, 191.7166
563.5514, 190.8020
564.0335, 189.7581
564.5156, 188.4014
564.9977, 186.9949
565.4799, 186.0664
565.9620, 185.8186
566.4441, 185.8208
566.9262, 185.3438
567.4083, 184.1932
567.8904, 183.3501
568.3726, 182.9250
568.8547, 182.7174
569.3368, 182.9453
569.8189, 183.2736
570.3010, 183.1018
570.7831, 182.1317
571.2653, 181.0017
571.7474, 180.5280
572.2295, 180.6212
572.7116, 180.5186
573.1937, 180.0471
573.6758, 179.4958
574.1580, 179.0867
574.6401, 178.7962
575.1222, 178.5280
575.6043, 178.1311
576.0864, 177.9163
576.5685, 178.2497
577.0507, 178.8073
577.5328, 179.0282
578.0149, 178.7801
578.4970, 178.3221
578.9791, 177.8831
579.4612, 177.4498
579.9434, 177.3805
580.4255, 178.1782
580.9076, 178.7527
581.3897, 178.7021
581.8718, 178.4375
582.3539, 178.4501
582.8361, 178.8320
583.3182, 179.2416
583.8003, 179.2142
584.2824, 178.8548
584.7645, 178.9837
585.2466, 179.7352
585.7288, 180.6031
586.2108, 181.3738
586.6929, 182.1006
587.1750, 182.8846
587.6572, 183.7847
588.1393, 184.5074
588.6214, 184.7058
589.1035, 184.7569
589.5856, 185.2046
