##NAMES=Lepidocrocite
##RRUFFID=R050454
##IDEAL CHEMISTRY=Fe^3+^O(OH)
##LOCALITY=Malvern, Chester County, Pennsylvania, USA
##OWNER=RRUFF
##SOURCE=University of Arizona Mineral Museum
##DESCRIPTION=Aggregate of red-brown flattened and platy crystals
##STATUS=The identification of this mineral has been confirmed by X-ray diffraction and chemical analysis
##URL=rruff.info/R050454
##MEASURED CHEMISTRY=Fe^3+^_0.99_O(OH)
92.93628, -0.1850128
93.41840, -0.3807405
93.90051, -0.6457778
94.38263, -0.9191558
94.86475, -1.109309
95.34686, -1.216491
95.82898, -1.265940
96.31110, -1.249006
96.79321, -1.173634
97.27533, -1.130023
97.75745, -1.160395
98.23956, -1.235501
98.72168, -1.223927
99.20380, -1.112225
99.68591, -0.9566224
100.1680, -0.8178636
100.6501, -0.7039518
101.1323, -0.5716702
101.6144, -0.3917217
102.0965, -0.1539837
102.5786, -4.5444942E-03
103.0607, 1.2294630E-02
103.5428, -1.9012431E-02
104.0250, 4.9347319E-02
104.5071, 0.2704015
104.9892, 0.5006707
105.4713, 0.6699540
105.9534, 0.6819867
106.4355, 0.8473570
106.9177, 1.248615
107.3998, 1.806285
107.8819, 2.287538
108.3640, 2.728614
108.8461, 3.058965
109.3282, 3.247566
109.8104, 2.922784
110.2925, 2.876268
110.7746, 3.264483
111.2567, 4.029776
111.7388, 4.738875
112.2209, 5.349129
112.7031, 5.880718
113.1852, 6.354091
113.6673, 6.693074
114.1494, 7.043996
114.6315, 7.430771
115.1136, 7.857037
115.5958, 8.353318
116.0779, 9.057255
116.5600, 9.798530
117.0421, 10.38376
117.5242, 10.55496
118.0063, 10.70187
118.4885, 11.04669
118.9706, 11.63463
119.4527, 12.27944
119.9348, 12.88377
120.4169, 13.47108
120.8990, 14.09468
121.3812, 14.82236
121.8633, 15.57592
122.3454, 16.32486
122.8275, 17.15398
123.3096, 17.76468
123.7917, 17.74519
124.2739, 17.23166
124.7560, 16.72376
125.2381, 16.52668
125.7202, 16.54947
126.2023, 16.63419
126.6844, 16.72501
127.1666, 16.89009
127.6487, 17.25659
128.1308, 17.81813
128.6129, 18.43386
129.0950, 19.05943
129.5771, 19.66598
130.0593, 20.14798
130.5414, 20.44419
131.0235, 20.60396
131.5056, 20.65080
131.9877, 20.48478
132.4698, 20.34344
132.9520, 20.68890
133.4341, 21.48967
133.9162, 22.18692
134.3983, 22.53366
134.8804, 22.58794
135.3625, 22.79208
135.8447, 23.16901
136.3268, 23.63303
136.8089, 24.07956
137.2910, 24.50840
137.7731, 24.93623
138.2552, 25.43067
138.7374, 26.03123
139.2195, 26.35648
139.7016, 26.37561
140.1837, 26.16247
140.6658, 25.82592
141.1479, 25.27502
141.6301, 24.79996
142.1122, 24.55308
142.5943, 24.63765
143.0764, 24.65647
143.5585, 24.57211
144.0406, 24.41763
144.5228, 24.29291
145.0049, 24.12835
145.4870, 24.07790
145.9691, 24.25720
146.4512, 25.00328
146.9333, 25.42632
147.4155, 25.34524
147.8976, 24.82556
148.3797, 24.48501
148.8618, 24.36002
149.3439, 24.38139
149.8260, 24.50340
150.3082, 24.97312
150.7903, 25.26998
151.2724, 25.29736
151.7545, 25.04769
152.2366, 24.82968
152.7188, 24.58538
153.2009, 24.40832
153.6830, 24.37674
154.1651, 24.81482
154.6472, 25.08848
155.1293, 24.95470
155.6115, 24.34066
156.0936, 23.89979
156.5757, 23.85466
157.0578, 23.99697
157.5399, 24.10036
158.0220, 24.09491
158.5042, 24.05952
158.9863, 24.04992
159.4684, 24.10150
159.9505, 24.03278
160.4326, 23.52072
160.9147, 22.89835
161.3969, 22.66154
161.8790, 23.40328
162.3611, 24.26874
162.8432, 24.79194
163.3253, 24.83356
163.8074, 24.75915
164.2896, 24.65834
164.7717, 24.55779
165.2538, 24.51125
165.7359, 24.61937
166.2180, 24.74592
166.7001, 24.77514
167.1823, 24.64223
167.6644, 24.50793
168.1465, 24.47110
168.6286, 24.51278
169.1107, 24.58036
169.5928, 24.67481
170.0750, 24.76795
170.5571, 24.83938
171.0392, 24.90671
171.5213, 24.91419
172.0034, 24.73543
172.4855, 24.42153
172.9677, 24.20210
173.4498, 24.35263
173.9319, 24.65571
174.4140, 24.79053
174.8961, 24.59118
175.3782, 24.28542
175.8604, 24.06276
176.3425, 23.92840
176.8246, 23.93225
177.3067, 24.25964
177.7888, 24.74655
178.2709, 25.04823
178.7531, 25.00247
179.2352, 24.77234
179.7173, 24.53252
180.1994, 24.28585
180.6815, 24.15272
181.1636, 24.35426
181.6458, 24.77662
182.1279, 25.06633
182.6100, 25.01216
183.0921, 24.79710
183.5742, 24.85282
184.0563, 25.19254
184.5385, 25.51773
185.0206, 25.46083
185.5027, 25.09813
185.9848, 24.80092
186.4669, 24.73489
186.9490, 24.82460
187.4312, 24.83814
187.9133, 24.76669
188.3954, 24.67595
188.8775, 24.61471
189.3596, 24.58731
189.8417, 24.64191
190.3239, 24.85239
190.8060, 25.17558
191.2881, 25.35430
191.7702, 25.35651
192.2523, 25.33333
192.7344, 25.53407
193.2166, 25.95757
193.6987, 26.28108
194.1808, 26.31461
194.6629, 26.09066
195.1450, 25.98862
195.6271, 26.01081
196.1093, 26.14768
196.5914, 26.44191
197.0735, 26.91143
197.5556, 27.31510
198.0377, 27.47080
198.5198, 27.37650
199.0020, 27.57352
199.4841, 28.16237
199.9662, 28.86532
200.4483, 29.19495
200.9304, 29.08865
201.4125, 28.99006
201.8947, 29.11785
202.3768, 29.49443
202.8589, 29.81159
203.3410, 30.06257
203.8231, 30.26198
204.3052, 30.40291
204.7874, 30.45422
205.2695, 30.58019
205.7516, 30.90749
206.2337, 31.49073
206.7158, 31.87928
207.1979, 31.99360
207.6801, 31.98628
208.1622, 32.19997
208.6443, 32.71547
209.1264, 33.20525
209.6085, 33.42897
210.0906, 33.23217
210.5728, 33.52281
211.0549, 34.47461
211.5370, 35.80267
212.0191, 36.82213
212.5012, 37.43465
212.9833, 38.00293
213.4655, 38.71984
213.9476, 39.67833
214.4297, 40.46229
214.9118, 41.07071
215.3939, 41.49638
215.8760, 41.76405
216.3582, 41.95070
216.8403, 41.81590
217.3224, 41.15974
217.8045, 39.73021
218.2866, 38.54572
218.7687, 37.68853
219.2508, 37.06788
219.7330, 36.47252
220.2151, 35.90718
220.6972, 35.35825
221.1793, 34.81411
221.6614, 34.23110
222.1435, 33.74505
222.6257, 33.30307
223.1078, 32.97359
223.5899, 32.98846
224.0720, 33.59504
224.5541, 34.15044
225.0362, 34.33669
225.5184, 33.95943
226.0005, 33.67973
226.4826, 33.46124
226.9647, 33.35907
227.4468, 33.54089
227.9289, 34.10359
228.4111, 34.80175
228.8932, 35.52960
229.3753, 36.27689
229.8574, 37.07786
230.3395, 37.94708
230.8216, 38.85971
231.3038, 39.75014
231.7859, 40.53055
232.2680, 41.40930
232.7501, 42.51046
233.2322, 44.00718
233.7143, 45.32034
234.1965, 46.36626
234.6786, 47.25096
235.1607, 48.30477
235.6428, 49.69061
236.1249, 51.00710
236.6070, 52.04057
237.0892, 52.54973
237.5713, 53.31767
238.0534, 54.44933
238.5355, 55.81152
239.0176, 57.04279
239.4997, 58.01498
239.9819, 59.06541
240.4640, 60.32452
240.9461, 61.82972
241.4282, 63.46608
241.9103, 65.20807
242.3924, 67.08897
242.8746, 69.19456
243.3567, 71.56876
243.8388, 74.09989
244.3209, 76.71690
244.8030, 79.24667
245.2851, 82.25766
245.7673, 85.81975
246.2494, 89.83488
246.7315, 94.15378
247.2136, 99.05893
247.6957, 103.8299
248.1778, 108.3618
248.6600, 113.0093
249.1421, 116.2406
249.6242, 117.9589
250.1063, 118.3456
250.5884, 117.8168
251.0705, 116.7314
251.5527, 114.0891
252.0348, 109.3310
252.5169, 101.8090
252.9990, 94.29475
253.4811, 86.49099
253.9632, 78.80270
254.4454, 72.05326
254.9275, 66.32482
255.4096, 61.28453
255.8917, 56.81763
256.3738, 52.94644
256.8560, 49.71139
257.3381, 47.22421
257.8202, 45.25350
258.3023, 43.40916
258.7844, 41.68406
259.2665, 40.14068
259.7487, 38.79053
260.2308, 37.63807
260.7129, 36.71700
261.1950, 36.08680
261.6771, 35.62462
262.1592, 35.18059
262.6414, 34.76912
263.1235, 34.34648
263.6056, 33.88714
264.0877, 33.37864
264.5698, 32.97548
265.0519, 32.72335
265.5341, 32.51542
266.0162, 32.19921
266.4983, 31.71186
266.9804, 31.32228
267.4625, 31.12920
267.9446, 31.12999
268.4268, 31.01423
268.9089, 30.71930
269.3910, 30.42246
269.8731, 30.33917
270.3552, 30.54089
270.8373, 30.66842
271.3195, 30.63347
271.8016, 30.44881
272.2837, 30.23477
272.7658, 29.96061
273.2479, 29.72031
273.7300, 29.61987
274.2122, 29.68707
274.6943, 29.72041
275.1764, 29.66856
275.6585, 29.55174
276.1406, 29.46980
276.6227, 29.42135
277.1049, 29.41318
277.5870, 29.46686
278.0691, 29.58970
278.5512, 29.69254
279.0333, 29.76310
279.5154, 29.80320
279.9976, 29.79927
280.4797, 29.73683
280.9618, 29.70509
281.4439, 29.82229
281.9260, 30.09044
282.4081, 30.17724
282.8903, 29.97610
283.3724, 29.64064
283.8545, 29.54749
284.3366, 29.71196
284.8187, 29.95665
285.3008, 30.21594
285.7830, 30.48169
286.2651, 30.60292
286.7472, 30.52176
287.2293, 30.37823
287.7114, 30.43312
288.1935, 30.68517
288.6757, 30.99888
289.1578, 31.32787
289.6399, 31.66321
290.1220, 31.93579
290.6041, 32.13425
291.0862, 32.29967
291.5684, 32.50675
292.0505, 32.74743
292.5326, 32.93849
293.0147, 32.99720
293.4968, 32.97432
293.9789, 33.01718
294.4611, 33.12859
294.9432, 33.30964
295.4253, 33.61589
295.9074, 34.01394
296.3895, 34.35094
296.8716, 34.20254
297.3538, 34.70484
297.8359, 35.03154
298.3180, 35.19209
298.8001, 34.68888
299.2822, 35.04278
299.7643, 35.05320
300.2465, 35.04954
300.7286, 35.52408
301.2107, 35.11740
301.6928, 35.58437
302.1749, 35.70259
302.6570, 35.98042
303.1392, 35.91265
303.6213, 35.95162
304.1034, 35.96584
304.5855, 35.76036
305.0676, 35.52048
305.5497, 35.50420
306.0319, 35.67170
306.5140, 35.81517
306.9961, 35.81215
307.4782, 35.70238
307.9603, 35.50927
308.4424, 35.17151
308.9246, 34.87912
309.4067, 34.91632
309.8888, 35.14360
310.3709, 35.16151
310.8530, 34.51101
311.3351, 33.69066
311.8173, 33.13906
312.2994, 32.97710
312.7815, 32.90746
313.2636, 32.78554
313.7457, 32.63183
314.2278, 32.48177
314.7100, 32.30278
315.1921, 32.16901
315.6742, 32.17543
316.1563, 32.37160
316.6384, 32.45277
317.1205, 32.13879
317.6027, 31.67458
318.0848, 31.37204
318.5669, 31.41309
319.0490, 31.55842
319.5311, 31.78446
320.0132, 32.09584
320.4954, 32.24454
320.9775, 31.93779
321.4596, 31.54414
321.9417, 31.38129
322.4238, 31.86186
322.9059, 32.21730
323.3881, 32.18627
323.8702, 31.80533
324.3523, 31.54520
324.8344, 31.57540
325.3165, 31.67872
325.7986, 31.72675
326.2808, 31.54868
326.7629, 31.50507
327.2450, 31.72812
327.7271, 32.13171
328.2092, 32.37431
328.6913, 32.23005
329.1735, 32.12146
329.6556, 32.23324
330.1377, 32.78488
330.6198, 33.13668
331.1019, 33.20065
331.5840, 33.08994
332.0662, 33.01042
332.5483, 32.93017
333.0304, 32.92765
333.5125, 33.04113
333.9946, 33.29590
334.4767, 33.54497
334.9589, 33.82048
335.4410, 34.05582
335.9231, 34.14606
336.4052, 34.02545
336.8873, 33.92884
337.3694, 33.90249
337.8516, 33.94641
338.3337, 34.09040
338.8158, 34.38543
339.2979, 34.67458
339.7800, 34.80651
340.2621, 34.75909
340.7442, 34.69670
341.2263, 34.62484
341.7085, 34.56953
342.1906, 34.64460
342.6727, 34.86975
343.1548, 35.10633
343.6369, 35.27797
344.1190, 35.38316
344.6012, 35.40006
345.0833, 35.29085
345.5654, 35.15941
346.0475, 35.26587
346.5296, 35.58809
347.0117, 35.78152
347.4939, 35.52611
347.9760, 34.98536
348.4581, 34.70570
348.9402, 34.74371
349.4223, 34.86672
349.9044, 34.80910
350.3866, 34.61516
350.8687, 34.43766
351.3508, 34.38603
351.8329, 34.36604
352.3150, 34.20015
352.7971, 33.89227
353.2793, 33.60064
353.7614, 33.43777
354.2435, 33.37127
354.7256, 33.34591
355.2077, 33.33580
355.6898, 33.37300
356.1720, 33.53953
356.6541, 33.79854
357.1362, 33.99179
357.6183, 33.95643
358.1004, 33.85477
358.5826, 33.83771
359.0647, 33.95881
359.5468, 34.10057
360.0289, 34.25042
360.5110, 34.37355
360.9931, 34.40368
361.4753, 34.11460
361.9574, 33.88524
362.4395, 33.95570
362.9216, 34.40036
363.4037, 34.79987
363.8858, 35.00793
364.3680, 35.11706
364.8501, 35.22517
365.3322, 35.23228
365.8143, 35.36247
366.2964, 35.73679
366.7785, 36.35023
367.2607, 36.87046
367.7428, 37.26443
368.2249, 37.56252
368.7070, 37.77949
369.1891, 37.75241
369.6712, 37.86114
370.1534, 38.15733
370.6355, 38.59801
371.1176, 39.06080
371.5997, 39.62960
372.0818, 40.11051
372.5639, 40.41465
373.0461, 40.48240
373.5282, 40.55458
374.0103, 40.58760
374.4924, 40.66516
374.9745, 40.95380
375.4566, 41.55343
375.9388, 42.05553
376.4209, 42.32704
376.9030, 42.38235
377.3851, 42.38715
377.8672, 42.32335
378.3493, 42.26973
378.8315, 42.33006
379.3136, 42.50875
379.7957, 42.62250
380.2778, 42.63660
380.7599, 42.56908
381.2420, 42.43354
381.7242, 42.23223
382.2063, 42.05012
382.6884, 41.94897
383.1705, 41.91322
383.6526, 41.90288
384.1347, 41.92004
384.6169, 41.93411
385.0990, 41.93224
385.5811, 41.90051
386.0632, 41.79405
386.5453, 41.51003
387.0274, 41.17582
387.5096, 40.98902
387.9917, 40.95113
388.4738, 40.91107
388.9559, 40.69699
389.4380, 40.42896
389.9201, 40.27047
390.4023, 40.35976
390.8844, 40.47669
391.3665, 40.47221
391.8486, 40.37154
392.3307, 40.26652
392.8128, 40.28688
393.2950, 40.26112
393.7771, 40.02849
394.2592, 39.43513
394.7413, 38.98144
395.2234, 38.96477
395.7055, 39.16313
396.1877, 39.23353
396.6698, 38.98203
397.1519, 38.70433
397.6340, 38.49933
398.1161, 38.38429
398.5982, 38.22020
399.0804, 37.97615
399.5625, 37.69394
400.0446, 37.40049
400.5267, 37.04241
401.0088, 36.75978
401.4909, 36.65490
401.9731, 36.64476
402.4552, 36.34947
402.9373, 35.52846
403.4194, 34.81527
403.9015, 34.57002
404.3836, 34.96508
404.8658, 35.12602
405.3479, 34.98384
405.8300, 34.69796
406.3121, 34.49260
406.7942, 34.37402
407.2763, 34.29102
407.7585, 34.24420
408.2406, 34.22036
408.7227, 34.12331
409.2048, 33.93983
409.6869, 33.79198
410.1690, 33.81744
410.6512, 33.98349
411.1333, 34.14270
411.6154, 34.28510
412.0975, 34.37639
412.5796, 34.32127
413.0617, 34.15051
413.5439, 34.01558
414.0260, 34.05434
414.5081, 34.16099
414.9902, 34.19693
415.4723, 34.15311
415.9544, 34.03373
416.4366, 33.75965
416.9187, 33.43015
417.4008, 33.19468
417.8829, 33.19638
418.3650, 33.23114
418.8471, 33.17961
419.3293, 33.05326
419.8114, 32.92134
420.2935, 32.84030
420.7756, 32.74675
421.2577, 32.59512
421.7398, 32.33753
422.2220, 32.09690
422.7041, 31.91080
423.1862, 31.75561
423.6683, 31.58791
424.1504, 31.38685
424.6325, 31.18529
425.1147, 30.98617
425.5968, 30.78284
426.0789, 30.61426
426.5610, 30.44333
427.0431, 30.34036
427.5252, 30.38739
428.0074, 30.69719
428.4895, 30.88736
428.9716, 30.87777
429.4537, 30.73193
429.9358, 30.65458
430.4179, 30.66619
430.9001, 30.67366
431.3822, 30.61600
431.8643, 30.49148
432.3464, 30.43208
432.8285, 30.45826
433.3106, 30.48417
433.7928, 30.37195
434.2749, 30.14125
434.7570, 29.95694
435.2391, 29.87219
435.7212, 29.86304
436.2033, 29.90124
436.6855, 29.98271
437.1676, 30.06808
437.6497, 30.14800
438.1318, 30.20851
438.6139, 30.21673
439.0960, 30.15264
439.5782, 30.09122
440.0603, 30.10831
440.5424, 30.17083
441.0245, 30.21662
441.5066, 30.23129
441.9887, 30.21189
442.4709, 30.13282
442.9530, 29.99767
443.4351, 29.89786
443.9172, 29.88665
444.3993, 29.91324
444.8814, 29.94436
445.3636, 30.04750
445.8457, 30.05601
446.3278, 29.85473
446.8099, 29.54272
447.2920, 29.36154
447.7741, 29.39419
448.2563, 29.47181
448.7384, 29.55661
449.2205, 29.65402
449.7026, 29.72851
450.1847, 29.79434
450.6668, 29.81948
451.1490, 29.73345
451.6311, 29.46141
452.1132, 29.39633
452.5953, 29.68432
453.0774, 30.14849
453.5595, 30.28177
454.0417, 30.04977
454.5238, 29.80826
455.0059, 29.73863
455.4880, 29.82265
455.9701, 30.00479
456.4522, 30.30270
456.9344, 30.56283
457.4165, 30.58704
457.8986, 30.43755
458.3807, 30.28583
458.8628, 30.18167
459.3449, 30.10400
459.8271, 29.99902
460.3092, 29.88800
460.7913, 29.85876
461.2734, 30.01698
461.7555, 30.24604
462.2376, 30.47265
462.7198, 30.70274
463.2019, 30.84217
463.6840, 30.74894
464.1661, 30.57085
464.6482, 30.48672
465.1303, 30.54975
465.6125, 30.70393
466.0946, 31.03320
466.5767, 31.50080
467.0588, 31.74971
467.5409, 31.57411
468.0230, 31.33356
468.5052, 31.17529
468.9873, 31.10566
469.4694, 31.11536
469.9515, 31.27037
470.4336, 31.44823
470.9157, 31.43672
471.3979, 31.14119
471.8800, 30.99224
472.3621, 31.14934
472.8442, 31.53491
473.3263, 31.80399
473.8084, 31.95664
474.2906, 31.99286
474.7727, 31.82401
475.2548, 31.51237
475.7369, 31.38023
476.2190, 31.48430
476.7011, 31.67173
477.1833, 31.74256
477.6654, 31.74579
478.1475, 31.81772
478.6296, 32.14165
479.1117, 32.47362
479.5938, 32.51770
480.0760, 32.31354
480.5581, 32.12654
481.0402, 32.05323
481.5223, 32.09233
482.0044, 32.28449
482.4865, 32.73946
482.9687, 33.06289
483.4508, 33.04701
483.9329, 32.83901
484.4150, 32.64968
484.8971, 32.43055
485.3792, 32.32309
485.8614, 32.45189
486.3435, 32.78876
486.8256, 32.89841
487.3077, 32.56143
487.7898, 32.25417
488.2719, 32.26117
488.7541, 32.71839
489.2362, 33.03895
489.7183, 33.17003
490.2004, 33.23001
490.6825, 33.42793
491.1646, 33.78656
491.6468, 34.05398
492.1289, 34.14008
492.6110, 34.09291
493.0931, 34.01359
493.5752, 33.90358
494.0573, 33.87806
494.5395, 34.08271
495.0216, 34.42002
495.5037, 34.70560
495.9858, 34.91673
496.4679, 35.05236
496.9500, 34.87564
497.4322, 34.65757
497.9143, 34.85182
498.3964, 36.20124
498.8785, 37.50629
499.3606, 37.99074
499.8427, 37.80595
500.3249, 37.63403
500.8070, 37.58537
501.2891, 37.71124
501.7712, 38.07925
502.2533, 38.81149
502.7354, 39.45059
503.2176, 39.83992
503.6997, 40.18038
504.1818, 40.68122
504.6639, 41.43717
505.1460, 42.17133
505.6281, 42.80765
506.1103, 43.39962
506.5924, 44.14251
507.0745, 45.06161
507.5566, 46.03969
508.0387, 47.01289
508.5208, 47.98413
509.0030, 49.04448
509.4851, 50.21161
509.9672, 51.36714
510.4493, 52.29516
510.9314, 53.09222
511.4135, 54.10779
511.8957, 55.48400
512.3778, 56.99896
512.8599, 58.41859
513.3420, 59.76472
513.8242, 61.09375
514.3063, 62.41267
514.7884, 63.76552
515.2705, 65.19569
515.7526, 66.70108
516.2347, 68.20263
516.7169, 69.52602
517.1990, 70.91441
517.6811, 72.56139
518.1632, 74.82503
518.6453, 76.90142
519.1274, 78.62560
519.6096, 80.13338
520.0917, 81.64342
520.5738, 83.16954
521.0559, 84.67754
521.5380, 86.26172
522.0201, 87.88793
522.5023, 88.86424
522.9844, 89.01418
523.4665, 89.02378
523.9486, 89.51148
524.4307, 90.43661
524.9128, 90.88966
525.3950, 90.78797
525.8771, 90.23339
526.3592, 89.23841
526.8413, 87.87913
527.3234, 86.39274
527.8055, 84.87784
528.2877, 83.28804
528.7698, 81.50939
529.2519, 79.58869
529.7340, 77.65672
530.2161, 75.81408
530.6982, 73.97747
531.1804, 72.02188
531.6625, 69.93935
532.1446, 67.92419
532.6267, 66.06973
533.1088, 64.31487
533.5909, 62.63258
534.0731, 60.88286
534.5552, 59.36326
535.0373, 58.18430
535.5194, 57.23549
536.0015, 56.13993
536.4836, 54.72454
536.9658, 53.54123
537.4479, 52.87740
537.9300, 52.70287
538.4121, 52.24531
538.8942, 51.44624
539.3763, 50.61489
539.8585, 50.06134
540.3406, 49.72489
540.8227, 49.20658
541.3048, 48.38727
541.7869, 47.60924
542.2690, 47.40359
542.7512, 47.57707
543.2333, 47.64546
543.7154, 47.37979
544.1975, 46.95131
544.6796, 46.40095
545.1617, 45.77282
545.6439, 45.28379
546.1260, 45.24021
546.6081, 45.20594
547.0902, 44.88361
547.5723, 44.15059
548.0544, 43.53104
548.5366, 43.17164
549.0187, 42.91098
549.5008, 42.60122
549.9829, 42.16688
550.4650, 41.82720
550.9471, 41.63997
551.4293, 41.53722
551.9114, 41.36519
552.3935, 41.12531
552.8756, 40.80767
553.3577, 40.38330
553.8398, 39.87835
554.3220, 39.40764
554.8041, 38.96961
555.2862, 38.56157
555.7683, 38.15592
556.2504, 37.77992
556.7325, 37.48905
557.2147, 37.29898
557.6968, 37.14799
558.1789, 36.97369
558.6610, 36.80693
559.1431, 36.69492
559.6252, 36.80522
560.1074, 36.81883
560.5895, 36.50267
561.0716, 35.96825
561.5537, 35.59541
562.0358, 35.64771
562.5179, 35.68668
563.0001, 35.53395
563.4822, 35.16361
563.9643, 34.89971
564.4464, 34.81441
564.9285, 34.73399
565.4106, 34.49569
565.8928, 34.05523
566.3749, 33.76484
566.8570, 33.68576
567.3391, 33.68221
567.8212, 33.51376
568.3033, 33.20903
568.7855, 32.99380
569.2676, 32.97305
569.7497, 33.05159
570.2318, 33.16789
570.7139, 33.28331
571.1960, 33.23851
571.6782, 32.71487
572.1603, 32.14273
572.6424, 31.91504
573.1245, 32.08315
573.6066, 32.25360
574.0887, 32.23343
574.5709, 32.18102
575.0530, 32.22435
575.5351, 32.57768
576.0172, 32.73705
576.4993, 32.59986
576.9814, 32.30712
577.4636, 32.07297
577.9457, 31.88356
578.4278, 31.80189
578.9099, 31.89711
579.3920, 32.09543
579.8741, 32.05976
580.3563, 31.76736
580.8384, 31.55208
581.3205, 31.71423
581.8026, 32.10311
582.2847, 32.24299
582.7668, 32.11631
583.2490, 31.97982
583.7311, 32.11706
584.2132, 32.34712
584.6953, 32.42881
585.1774, 32.26355
585.6595, 32.04279
586.1417, 31.72607
586.6238, 31.45223
587.1058, 31.42542
587.5880, 32.11435
