##NAMES=Lepidocrocite
##RRUFFID=R050454
##IDEAL CHEMISTRY=Fe^3+^O(OH)
##LOCALITY=Malvern, Chester County, Pennsylvania, USA
##OWNER=RRUFF
##SOURCE=University of Arizona Mineral Museum
##DESCRIPTION=Aggregate of red-brown flattened and platy crystals
##STATUS=The identification of this mineral has been confirmed by X-ray diffraction and chemical analysis
##URL=rruff.info/R050454
##MEASURED CHEMISTRY=Fe^3+^_0.99_O(OH)
93.78320, 45.34307
94.26532, 45.14043
94.74744, 45.41143
95.22955, 46.04466
95.71167, 46.72486
96.19379, 46.69134
96.67590, 46.01115
97.15802, 44.93921
97.64014, 43.19246
98.12225, 41.13282
98.60437, 39.36483
99.08649, 38.07908
99.56860, 37.23127
100.0507, 36.71495
100.5328, 36.52222
101.0150, 36.36104
101.4971, 36.00776
101.9792, 35.45369
102.4613, 34.94950
102.9434, 34.65801
103.4255, 34.41283
103.9077, 34.10697
104.3898, 33.71484
104.8719, 33.22925
105.3540, 32.56835
105.8361, 31.37683
106.3182, 30.64630
106.8004, 30.86983
107.2825, 31.51875
107.7646, 31.97267
108.2467, 31.84527
108.7288, 31.17955
109.2109, 30.53925
109.6931, 30.14683
110.1752, 29.55340
110.6573, 28.48287
111.1394, 27.07172
111.6215, 25.67273
112.1036, 24.59316
112.5858, 23.87180
113.0679, 23.29503
113.5500, 22.81014
114.0321, 22.48550
114.5142, 22.45429
114.9964, 22.73590
115.4785, 23.06650
115.9606, 23.15567
116.4427, 23.02092
116.9248, 22.73516
117.4069, 22.11418
117.8891, 21.36514
118.3712, 20.93389
118.8533, 21.00099
119.3354, 21.28142
119.8175, 21.47391
120.2996, 21.58985
120.7818, 21.75562
121.2639, 22.12218
121.7460, 22.70120
122.2281, 23.15756
122.7102, 23.47811
123.1923, 23.60954
123.6745, 23.39526
124.1566, 22.83825
124.6387, 22.22617
125.1208, 21.99537
125.6029, 22.36257
126.0850, 22.67392
126.5672, 22.95457
127.0493, 23.12981
127.5314, 23.10118
128.0135, 22.83484
128.4956, 22.42206
128.9777, 22.11301
129.4599, 22.03796
129.9420, 21.93287
130.4241, 21.79234
130.9062, 21.60813
131.3883, 21.37965
131.8705, 21.11143
132.3526, 20.78848
132.8347, 20.32336
133.3168, 19.44228
133.7989, 18.71649
134.2810, 18.46561
134.7632, 18.62181
135.2453, 18.81649
135.7274, 18.80400
136.2095, 18.64682
136.6916, 18.58986
137.1737, 18.75194
137.6559, 18.95437
138.1380, 19.00618
138.6201, 18.88465
139.1022, 18.71783
139.5843, 18.56516
140.0664, 18.42373
140.5486, 18.29232
141.0307, 18.15233
141.5128, 18.02384
141.9949, 17.98732
142.4770, 18.15081
142.9591, 18.23989
143.4413, 18.10546
143.9234, 17.82529
144.4055, 17.54106
144.8876, 17.35802
145.3697, 17.27714
145.8518, 17.17542
146.3340, 16.99314
146.8161, 16.84309
147.2982, 16.75491
147.7803, 16.73005
148.2624, 16.76290
148.7445, 16.86123
149.2267, 17.06332
149.7088, 17.16020
150.1909, 17.13275
150.6730, 17.04339
151.1551, 16.89649
151.6372, 16.70609
152.1194, 16.52168
152.6015, 16.40260
153.0836, 16.37222
153.5657, 16.36645
154.0478, 16.46155
154.5299, 16.54548
155.0121, 16.47326
155.4942, 16.19926
155.9763, 15.86860
156.4584, 15.71488
156.9405, 15.74515
157.4227, 15.77951
157.9048, 15.73509
158.3869, 15.47472
158.8690, 15.69995
159.3511, 15.82287
159.8332, 15.84898
160.3154, 15.48827
160.7975, 15.62705
161.2796, 15.56565
161.7617, 15.49605
162.2438, 15.70513
162.7259, 15.40069
163.2081, 15.60534
163.6902, 15.60677
164.1723, 15.70121
164.6544, 15.59425
165.1365, 15.54950
165.6186, 15.70621
166.1008, 15.75137
166.5829, 15.62122
167.0650, 15.72157
167.5471, 15.41010
168.0292, 15.46001
168.5113, 15.66584
168.9935, 15.54582
169.4756, 15.64985
169.9577, 15.66856
170.4398, 15.29946
170.9219, 15.60479
171.4040, 15.61845
171.8862, 15.33263
172.3683, 15.61485
172.8504, 15.37031
173.3325, 15.31380
173.8146, 15.39878
174.2967, 15.33626
174.7789, 15.40344
175.2610, 15.38834
175.7431, 15.38355
176.2252, 15.41050
176.7073, 15.45211
177.1894, 15.44990
177.6716, 15.34594
178.1537, 15.27361
178.6358, 15.25868
179.1179, 15.29230
179.6000, 15.37308
180.0821, 15.52044
180.5643, 15.68634
181.0464, 15.72234
181.5285, 15.56916
182.0106, 15.40010
182.4927, 15.25226
182.9749, 15.14063
183.4570, 15.15057
183.9391, 15.39623
184.4212, 15.74670
184.9033, 15.91579
185.3854, 15.82092
185.8676, 15.67426
186.3497, 15.67184
186.8318, 15.81932
187.3139, 15.90675
187.7960, 15.69545
188.2781, 15.44323
188.7603, 15.47122
189.2424, 15.92116
189.7245, 16.48615
190.2066, 16.74720
190.6887, 16.62080
191.1708, 16.49137
191.6530, 16.47768
192.1351, 16.53031
192.6172, 16.62948
193.0993, 16.77753
193.5814, 16.93126
194.0635, 16.98187
194.5457, 16.82563
195.0278, 16.77914
195.5099, 16.99042
195.9920, 17.28843
196.4741, 17.50408
196.9562, 17.56006
197.4384, 17.50836
197.9205, 17.49384
198.4026, 17.48988
198.8847, 17.57335
199.3668, 17.83302
199.8489, 18.15124
200.3311, 18.38309
200.8132, 18.45260
201.2953, 18.41464
201.7774, 18.48556
202.2595, 18.88108
202.7416, 19.14831
203.2238, 19.13910
203.7059, 18.99677
204.1880, 18.93223
204.6701, 19.06266
205.1522, 19.33515
205.6344, 19.51196
206.1165, 19.53111
206.5986, 19.53995
207.0807, 19.52236
207.5628, 19.51810
208.0449, 19.61295
208.5271, 19.86631
209.0092, 20.23066
209.4913, 20.50646
209.9734, 20.69400
210.4555, 20.81815
210.9376, 20.83615
211.4198, 20.78888
211.9019, 20.78956
212.3840, 20.89542
212.8661, 21.09003
213.3482, 21.32788
213.8303, 21.70619
214.3125, 21.97614
214.7946, 21.96777
215.2767, 21.71371
215.7588, 21.37971
216.2409, 20.98848
216.7230, 20.59356
217.2052, 20.26681
217.6873, 20.00265
218.1694, 19.82632
218.6515, 19.82563
219.1336, 19.99060
219.6157, 20.04316
220.0979, 19.73479
220.5800, 19.35507
221.0621, 19.23954
221.5442, 19.46536
222.0263, 19.78673
222.5084, 19.99227
222.9906, 20.08032
223.4727, 20.07562
223.9548, 19.82495
224.4369, 19.58058
224.9190, 19.52103
225.4011, 19.68051
225.8833, 20.00415
226.3654, 20.47521
226.8475, 21.13501
227.3296, 21.73285
227.8117, 22.08809
228.2938, 22.44617
228.7760, 22.97293
229.2581, 23.70098
229.7402, 24.51092
230.2223, 25.22947
230.7044, 25.79841
231.1866, 26.47249
231.6687, 27.47615
232.1508, 28.44645
232.6329, 29.10204
233.1150, 29.41690
233.5971, 29.62638
234.0793, 30.08766
234.5614, 30.97661
235.0435, 31.67896
235.5256, 31.96109
236.0077, 32.24113
236.4898, 32.76249
236.9720, 33.57072
237.4541, 34.57442
237.9362, 35.67868
238.4183, 36.98271
238.9004, 38.12063
239.3825, 39.00541
239.8647, 39.81615
240.3468, 40.60241
240.8289, 41.40435
241.3110, 42.29615
241.7931, 43.41058
242.2752, 44.89981
242.7574, 46.13767
243.2395, 47.04681
243.7216, 47.80317
244.2037, 48.50611
244.6858, 49.17059
245.1679, 49.76948
245.6501, 50.27970
246.1322, 50.70644
246.6143, 50.96381
247.0964, 51.00881
247.5785, 50.93898
248.0606, 50.92004
248.5428, 50.91790
249.0249, 50.64534
249.5070, 49.81834
249.9891, 48.34245
250.4712, 46.63403
250.9533, 44.64347
251.4355, 42.47488
251.9176, 40.07604
252.3997, 37.49085
252.8818, 34.97852
253.3639, 32.76182
253.8460, 30.86089
254.3282, 29.07671
254.8103, 27.40319
255.2924, 25.84496
255.7745, 24.38312
256.2566, 23.03063
256.7387, 21.90046
257.2209, 21.11429
257.7030, 20.65360
258.1851, 20.19197
258.6672, 19.71898
259.1493, 19.25518
259.6314, 18.79161
260.1136, 18.33550
260.5957, 17.95506
261.0778, 17.71592
261.5599, 17.57964
262.0420, 17.39978
262.5241, 17.15169
263.0063, 16.88768
263.4884, 16.61615
263.9705, 16.34441
264.4526, 16.14351
264.9347, 16.08287
265.4168, 16.09505
265.8990, 16.03480
266.3811, 15.85386
266.8632, 15.70015
267.3453, 15.72121
267.8275, 15.89052
268.3096, 15.99608
268.7917, 15.94290
269.2738, 15.80112
269.7559, 15.64794
270.2380, 15.46716
270.7202, 15.36965
271.2023, 15.51153
271.6844, 15.84580
272.1665, 16.04165
272.6486, 15.94820
273.1307, 15.75249
273.6129, 15.63421
274.0950, 15.59332
274.5771, 15.60135
275.0592, 15.64698
275.5413, 15.72826
276.0234, 15.84070
276.5056, 16.02223
276.9877, 16.18186
277.4698, 16.24503
277.9519, 16.22565
278.4340, 16.19543
278.9161, 16.20106
279.3983, 16.23260
279.8804, 16.23351
280.3625, 16.14752
280.8446, 16.11944
281.3267, 16.26679
281.8088, 16.53115
282.2910, 16.77548
282.7731, 16.88398
283.2552, 16.91708
283.7373, 17.10794
284.2194, 17.59337
284.7015, 17.97393
285.1837, 17.99885
285.6658, 17.82775
286.1479, 17.69413
286.6300, 17.71017
287.1121, 17.82155
287.5942, 17.89765
288.0764, 17.90033
288.5585, 17.96104
289.0406, 18.18430
289.5227, 18.46194
290.0048, 18.67814
290.4869, 18.78922
290.9691, 18.84145
291.4512, 18.90302
291.9333, 18.96223
292.4154, 19.06997
292.8975, 19.31322
293.3796, 19.56622
293.8618, 19.73658
294.3439, 19.80084
294.8260, 19.78683
295.3081, 19.70913
295.7902, 19.54699
296.2723, 19.42062
296.7545, 19.37561
297.2366, 19.35466
297.7187, 19.32135
298.2008, 19.27498
298.6829, 19.24775
299.1650, 19.28618
299.6472, 19.40021
300.1293, 19.48481
300.6114, 19.49769
301.0935, 19.51101
301.5756, 19.59384
302.0577, 19.71473
302.5399, 19.76989
303.0220, 19.65077
303.5041, 19.36720
303.9862, 19.12850
304.4683, 18.88817
304.9504, 18.76115
305.4326, 18.89962
305.9147, 19.16573
306.3968, 19.30310
306.8789, 19.13062
307.3610, 18.72559
307.8431, 18.42404
308.3253, 18.28220
308.8074, 18.16329
309.2895, 18.07732
309.7716, 17.97251
310.2537, 17.76587
310.7358, 17.40711
311.2180, 16.99131
311.7001, 16.74234
312.1822, 16.73611
312.6643, 16.72912
313.1464, 16.67993
313.6285, 16.60717
314.1107, 16.51785
314.5928, 16.41509
315.0749, 16.31292
315.5570, 16.21220
316.0392, 16.08099
316.5213, 16.07134
317.0034, 16.34771
317.4855, 16.63535
317.9676, 16.81169
318.4497, 16.85382
318.9319, 16.77774
319.4140, 16.53444
319.8961, 16.08828
320.3782, 15.83186
320.8603, 15.91677
321.3424, 16.06720
321.8246, 16.21428
322.3067, 16.34339
322.7888, 16.44685
323.2709, 16.52189
323.7530, 16.56626
324.2351, 16.55345
324.7173, 16.41513
325.1994, 16.31592
325.6815, 16.31360
326.1636, 16.37472
326.6457, 16.45618
327.1278, 16.54056
327.6100, 16.62325
328.0921, 16.70004
328.5742, 16.79264
329.0563, 16.82794
329.5384, 16.68507
330.0205, 16.54096
330.5027, 16.58181
330.9848, 16.85981
331.4669, 17.20639
331.9490, 17.38257
332.4311, 17.35218
332.9132, 17.31014
333.3954, 17.22393
333.8775, 17.17878
334.3596, 17.22976
334.8417, 17.37679
335.3238, 17.57861
335.8059, 17.85027
336.2881, 18.19598
336.7702, 18.36228
337.2523, 18.19414
337.7344, 18.00433
338.2165, 17.92053
338.6986, 17.92691
339.1808, 17.97080
339.6629, 18.01683
340.1450, 18.07689
340.6271, 18.22857
341.1092, 18.60310
341.5913, 18.80503
342.0735, 18.51727
342.5556, 18.05076
343.0377, 17.78347
343.5198, 17.86932
344.0019, 18.16626
344.4840, 18.48875
344.9662, 18.86818
345.4483, 19.14496
345.9304, 19.20673
346.4125, 19.17967
346.8946, 19.11541
347.3767, 19.02379
347.8589, 18.96662
348.3410, 19.01160
348.8231, 19.15684
349.3052, 19.32514
349.7873, 19.54801
350.2694, 19.74261
350.7516, 19.84762
351.2337, 19.87607
351.7158, 19.88408
352.1979, 19.82981
352.6800, 19.77572
353.1621, 19.97994
353.6443, 20.58808
354.1264, 21.12887
354.6085, 21.22221
355.0906, 21.08902
355.5727, 21.06407
356.0548, 21.26414
356.5370, 21.61075
357.0191, 22.02408
357.5012, 22.50670
357.9833, 23.00655
358.4654, 23.57242
358.9475, 24.09619
359.4297, 24.40817
359.9118, 24.44428
360.3939, 24.50874
360.8760, 24.83878
361.3581, 25.39593
361.8402, 26.02459
362.3224, 26.77718
362.8045, 27.44310
363.2866, 27.70074
363.7687, 27.60108
364.2508, 27.66885
364.7329, 28.27329
365.2151, 29.12566
365.6972, 29.69861
366.1793, 29.90410
366.6614, 30.11607
367.1436, 30.66072
367.6257, 31.44019
368.1078, 32.14660
368.5899, 32.74645
369.0720, 33.26017
369.5541, 33.68926
370.0363, 34.03984
370.5184, 34.33578
371.0005, 34.56195
371.4826, 34.76402
371.9647, 35.07290
372.4468, 35.58923
372.9290, 35.95205
373.4111, 35.91608
373.8932, 35.65039
374.3753, 35.47137
374.8574, 35.46965
375.3395, 35.51426
375.8217, 35.44482
376.3038, 35.25252
376.7859, 35.01777
377.2680, 34.73985
377.7501, 34.42664
378.2322, 34.06321
378.7144, 33.65834
379.1965, 33.27557
379.6786, 32.97232
380.1607, 32.73631
380.6428, 32.41954
381.1249, 32.02124
381.6071, 31.56079
382.0892, 30.92442
382.5713, 30.24280
383.0534, 29.79228
383.5355, 29.70225
384.0176, 29.80737
384.4998, 29.75033
384.9819, 29.42250
385.4640, 29.09626
385.9461, 28.74331
386.4282, 28.41568
386.9103, 28.19608
387.3925, 28.07778
387.8746, 27.93762
388.3567, 27.62921
388.8388, 27.10813
389.3209, 26.74678
389.8030, 26.67337
390.2852, 26.59905
390.7673, 26.42138
391.2494, 26.15771
391.7315, 25.84524
392.2136, 25.49913
392.6957, 25.14892
393.1779, 24.92177
393.6600, 24.98673
394.1421, 24.93399
394.6242, 24.65585
395.1063, 24.29251
395.5884, 23.95181
396.0706, 23.66733
396.5527, 23.43984
397.0348, 23.29935
397.5169, 23.30485
397.9990, 23.16356
398.4811, 22.74305
398.9633, 22.29288
399.4454, 21.84420
399.9275, 21.44361
400.4096, 21.18266
400.8917, 21.17296
401.3738, 21.32891
401.8560, 21.26066
402.3381, 20.82818
402.8202, 20.43551
403.3023, 20.24129
403.7844, 20.12503
404.2665, 19.94711
404.7487, 19.66050
405.2308, 19.38246
405.7129, 19.31361
406.1950, 19.47350
406.6771, 19.46194
407.1592, 19.07590
407.6414, 18.63095
408.1235, 18.35013
408.6056, 18.21873
409.0877, 18.12438
409.5698, 18.05057
410.0519, 17.96239
410.5341, 17.73625
411.0162, 17.31749
411.4983, 16.96531
411.9804, 16.90946
412.4625, 17.01017
412.9446, 17.04125
413.4268, 16.95068
413.9089, 16.81161
414.3910, 16.67456
414.8731, 16.53723
415.3553, 16.38193
415.8374, 16.18873
416.3195, 15.99942
416.8016, 15.89783
417.2837, 15.89147
417.7658, 15.83456
418.2480, 15.60185
418.7301, 15.34442
419.2122, 15.27149
419.6943, 15.39610
420.1764, 15.51866
420.6585, 15.48396
421.1407, 15.30061
421.6228, 15.11913
422.1049, 14.93565
422.5870, 14.75592
423.0691, 14.56096
423.5512, 14.37462
424.0334, 14.24913
424.5155, 14.20827
424.9976, 14.20614
425.4797, 14.15790
425.9618, 14.03781
426.4439, 13.91913
426.9261, 13.80009
427.4082, 13.68344
427.8903, 13.55811
428.3724, 13.43264
428.8545, 13.33989
429.3366, 13.30997
429.8188, 13.33976
430.3009, 13.36065
430.7830, 13.40300
431.2651, 13.39963
431.7472, 13.30492
432.2293, 13.17178
432.7115, 13.05274
433.1936, 12.96875
433.6757, 12.92888
434.1578, 12.96910
434.6399, 13.13331
435.1220, 13.22097
435.6042, 13.19051
436.0863, 13.09945
436.5684, 12.93160
437.0505, 12.71769
437.5326, 12.53566
438.0147, 12.43365
438.4969, 12.40661
438.9790, 12.45444
439.4611, 12.61995
439.9432, 12.75159
440.4253, 12.78326
440.9074, 12.75089
441.3896, 12.67907
441.8717, 12.56845
442.3538, 12.44442
442.8359, 12.32386
443.3180, 12.20725
443.8001, 12.10494
444.2823, 12.02272
444.7644, 11.94738
445.2465, 11.84002
445.7286, 11.71592
446.2107, 11.66893
446.6928, 11.79904
447.1750, 11.96754
447.6571, 12.03648
448.1392, 12.00853
448.6213, 11.92653
449.1034, 11.77199
449.5855, 11.61514
450.0677, 11.68348
450.5498, 12.13800
451.0319, 12.43921
451.5140, 12.33488
451.9961, 12.05578
452.4782, 11.88409
452.9604, 11.87166
453.4425, 11.89608
453.9246, 11.82597
454.4067, 11.64499
454.8888, 11.54636
455.3709, 11.57016
455.8531, 11.61699
456.3352, 11.66362
456.8173, 11.70619
457.2994, 11.74718
457.7815, 11.78772
458.2636, 11.81883
458.7458, 11.81943
459.2279, 11.77209
459.7100, 11.72979
460.1921, 11.66944
460.6742, 11.63422
461.1563, 11.67686
461.6385, 11.77520
462.1206, 11.84850
462.6027, 11.83174
463.0848, 11.73906
463.5669, 11.62939
464.0491, 11.45192
464.5312, 11.36552
465.0133, 11.50865
465.4954, 11.71993
465.9775, 11.82472
466.4597, 11.77709
466.9418, 11.71405
467.4239, 11.81474
467.9060, 12.03833
468.3881, 12.09235
468.8702, 11.87508
469.3524, 11.59806
469.8345, 11.38816
470.3166, 11.25255
470.7987, 11.24518
471.2808, 11.50174
471.7629, 11.79668
472.2451, 11.90567
472.7272, 11.86322
473.2093, 11.86097
473.6914, 12.00398
474.1735, 12.18316
474.6556, 12.16190
475.1378, 11.87425
475.6199, 11.64543
476.1020, 11.54496
476.5841, 11.50791
477.0662, 11.46430
477.5483, 11.41868
478.0305, 11.45094
478.5126, 11.64365
478.9947, 11.96232
479.4768, 12.09540
479.9589, 11.85154
480.4410, 11.65395
480.9232, 11.56811
481.4053, 11.54795
481.8874, 11.55162
482.3695, 11.56557
482.8516, 11.59172
483.3337, 11.64490
483.8159, 11.73654
484.2980, 11.75506
484.7801, 11.61994
485.2622, 11.50083
485.7443, 11.47181
486.2264, 11.49358
486.7086, 11.50555
487.1907, 11.48625
487.6728, 11.43367
488.1549, 11.30986
488.6370, 11.10454
489.1191, 11.00596
489.6013, 11.08686
490.0834, 11.25844
490.5655, 11.50641
491.0476, 11.80110
491.5297, 11.93106
492.0118, 11.62902
492.4940, 11.21897
492.9761, 11.17802
493.4582, 11.49355
493.9403, 11.73235
494.4224, 11.65016
494.9045, 11.37156
495.3867, 11.21145
495.8688, 11.19111
496.3509, 11.20485
496.8330, 11.22415
497.3151, 11.26793
497.7972, 11.38083
498.2794, 11.55445
498.7615, 11.70526
499.2436, 11.75540
499.7257, 11.71182
500.2078, 11.70549
500.6899, 11.80988
501.1721, 11.86221
501.6542, 11.74648
502.1363, 11.61035
502.6184, 11.64780
503.1005, 11.89380
503.5826, 12.17584
504.0648, 12.25359
504.5469, 12.09499
505.0290, 12.05910
505.5111, 12.24333
505.9932, 12.43419
506.4753, 12.54608
506.9575, 12.60936
507.4396, 12.67446
507.9217, 12.76058
508.4038, 12.85124
508.8859, 12.93864
509.3680, 13.02045
509.8502, 13.03330
510.3323, 12.89505
510.8144, 12.79409
511.2965, 12.99608
511.7786, 13.43441
512.2607, 13.74086
512.7429, 13.71260
513.2250, 13.60467
513.7071, 13.62877
514.1892, 13.76714
514.6713, 13.93332
515.1534, 14.10142
515.6356, 14.24221
516.1177, 14.28597
516.5998, 14.13261
517.0819, 14.11408
517.5640, 14.39682
518.0461, 14.68775
518.5283, 14.74598
519.0104, 14.62190
519.4925, 14.53427
519.9746, 14.63261
520.4567, 14.86036
520.9388, 15.00742
521.4210, 15.04360
521.9031, 15.05114
522.3852, 14.98364
522.8673, 14.93675
523.3494, 14.99862
523.8315, 15.15893
524.3137, 15.32586
524.7958, 15.45435
525.2779, 15.53002
525.7600, 15.46925
526.2421, 15.22260
526.7242, 15.02836
527.2064, 15.06150
527.6885, 15.16692
528.1706, 15.12372
528.6527, 14.88164
529.1348, 14.69024
529.6169, 14.71526
530.0991, 14.85888
530.5812, 14.98026
531.0633, 15.06089
531.5454, 15.07930
532.0275, 14.99727
532.5096, 14.83910
532.9918, 14.77713
533.4739, 14.99966
533.9560, 15.06377
534.4381, 14.70806
534.9202, 14.23992
535.4023, 13.99893
535.8845, 14.04242
536.3666, 14.20282
536.8487, 14.31822
537.3308, 14.38903
537.8129, 14.47812
538.2951, 14.65144
538.7772, 14.75245
539.2593, 14.69951
539.7415, 14.58469
540.2236, 14.50547
540.7057, 14.48695
541.1878, 14.48429
541.6699, 14.41625
542.1520, 14.30756
542.6342, 14.36509
543.1163, 14.68429
543.5984, 14.97056
544.0805, 14.98276
544.5626, 14.83897
545.0447, 14.75285
545.5269, 14.76653
546.0090, 14.81337
546.4911, 14.88998
546.9732, 14.96517
547.4553, 14.96240
547.9374, 14.86476
548.4196, 14.75592
548.9017, 14.71901
549.3838, 14.75594
549.8659, 14.76907
550.3480, 14.74373
550.8301, 14.71673
551.3123, 14.73830
551.7944, 14.74588
552.2765, 14.64244
552.7586, 14.41226
553.2407, 14.15138
553.7228, 13.98949
554.2050, 13.93653
554.6871, 13.78644
555.1692, 13.39611
555.6513, 13.11630
556.1334, 13.18588
556.6155, 13.38080
557.0977, 13.38787
557.5798, 13.10400
558.0619, 12.78666
558.5440, 12.69049
559.0261, 12.75697
559.5082, 12.76679
559.9904, 12.68574
560.4725, 12.56958
560.9546, 12.45464
561.4367, 12.33875
561.9188, 12.20995
562.4009, 11.99263
562.8831, 11.85814
563.3652, 11.94920
563.8473, 12.12844
564.3294, 12.21106
564.8115, 12.15724
565.2936, 12.02338
565.7758, 11.85130
566.2579, 11.64000
566.7400, 11.51977
567.2221, 11.58702
567.7042, 11.63293
568.1863, 11.59577
568.6685, 11.53591
569.1506, 11.51990
569.6327, 11.55990
570.1148, 11.61197
570.5969, 11.66716
571.0790, 11.70884
571.5612, 11.59231
572.0433, 11.23348
572.5254, 10.95583
573.0075, 10.97912
573.4896, 11.16371
573.9717, 11.31266
574.4539, 11.41559
574.9360, 11.46692
575.4181, 11.41897
575.9002, 11.33860
576.3823, 11.35130
576.8644, 11.45724
577.3466, 11.49300
577.8287, 11.31693
578.3108, 10.99527
578.7929, 10.85509
579.2750, 11.14493
579.7571, 11.29171
580.2393, 11.12817
580.7214, 10.91337
581.2035, 10.86728
581.6856, 10.98192
582.1677, 11.09200
582.6498, 11.06348
583.1320, 10.94652
583.6141, 10.92838
584.0962, 11.04983
584.5783, 11.12966
585.0604, 11.09864
585.5425, 11.02009
586.0247, 10.93302
586.5068, 10.84202
586.9889, 10.77530
587.4710, 10.77126
587.9531, 10.78068
588.4352, 10.70266
588.9174, 10.56640
589.3995, 10.57032
589.8816, 10.83288
