##NAMES=Leucophanite
##RRUFFID=R050004
##IDEAL CHEMISTRY=NaCaBeSi_2_O_6_F
##LOCALITY=Langesundfjord, Norway
##OWNER=RRUFF
##SOURCE=University of Arizona Mineral Museum
##DESCRIPTION=Pale green massive
##STATUS=The identification of this mineral has been confirmed by X-ray diffraction and chemical analysis
##URL=rruff.info/R050004
##MEASURED CHEMISTRY=Ca_1.00_Ca_1.00_Na_2.00_Be_2.00_Si_4.00_O_12_(F_0.96_(OH)_0.04_)_2_
140.3041, 952.6599
140.7862, 991.6963
141.2683, 1035.912
141.7504, 1083.700
142.2325, 1134.772
142.7147, 1188.861
143.1968, 1246.153
143.6789, 1306.630
144.1610, 1369.816
144.6431, 1436.958
145.1252, 1505.138
145.6074, 1573.527
146.0895, 1641.776
146.5716, 1708.751
147.0537, 1773.561
147.5358, 1835.931
148.0179, 1897.030
148.5001, 1959.629
148.9822, 2018.944
149.4643, 2071.600
149.9464, 2117.764
150.4285, 2159.411
150.9106, 2198.941
151.3928, 2235.322
151.8749, 2264.644
152.3570, 2281.193
152.8391, 2293.852
153.3212, 2311.289
153.8033, 2334.201
154.2855, 2357.354
154.7676, 2378.780
155.2497, 2397.384
155.7318, 2408.252
156.2139, 2403.011
156.6960, 2393.356
157.1782, 2390.819
157.6603, 2395.553
158.1424, 2409.838
158.6245, 2442.897
159.1066, 2487.671
159.5887, 2527.238
160.0709, 2555.675
160.5530, 2577.075
161.0351, 2594.944
161.5172, 2607.525
161.9993, 2623.215
162.4814, 2650.722
162.9636, 2685.445
163.4457, 2720.307
163.9278, 2753.245
164.4099, 2784.564
164.8920, 2814.877
165.3741, 2844.759
165.8563, 2871.730
166.3384, 2891.543
166.8205, 2907.727
167.3026, 2926.489
167.7847, 2953.559
168.2668, 2983.855
168.7490, 3004.980
169.2311, 3012.433
169.7132, 3021.114
170.1953, 3039.838
170.6774, 3064.695
171.1595, 3090.428
171.6417, 3117.570
172.1238, 3142.842
172.6059, 3155.615
173.0880, 3147.426
173.5701, 3143.876
174.0522, 3155.798
174.5344, 3178.991
175.0165, 3208.649
175.4986, 3245.276
175.9807, 3285.258
176.4628, 3317.882
176.9449, 3337.105
177.4271, 3360.282
177.9092, 3397.813
178.3913, 3441.767
178.8734, 3481.125
179.3555, 3510.087
179.8376, 3531.901
180.3197, 3556.071
180.8019, 3581.940
181.2840, 3611.832
181.7661, 3647.634
182.2482, 3686.796
182.7303, 3726.134
183.2124, 3764.262
183.6946, 3801.419
184.1767, 3839.455
184.6588, 3883.800
185.1409, 3918.172
185.6230, 3931.434
186.1051, 3936.425
186.5873, 3947.917
187.0694, 3973.090
187.5515, 4007.745
188.0336, 4041.960
188.5157, 4076.637
188.9978, 4108.559
189.4800, 4136.889
189.9621, 4162.498
190.4442, 4186.441
190.9263, 4208.940
191.4084, 4230.137
191.8905, 4249.765
192.3727, 4264.715
192.8548, 4284.120
193.3369, 4314.165
193.8190, 4346.523
194.3011, 4372.957
194.7832, 4390.150
195.2654, 4401.618
195.7475, 4415.091
196.2296, 4434.063
196.7117, 4448.352
197.1938, 4459.855
197.6759, 4465.465
198.1581, 4459.791
198.6402, 4441.416
199.1223, 4418.175
199.6044, 4404.540
200.0865, 4403.587
200.5686, 4407.057
201.0508, 4423.640
201.5329, 4437.858
202.0150, 4435.129
202.4971, 4412.249
202.9792, 4380.659
203.4613, 4358.548
203.9435, 4349.620
204.4256, 4342.495
204.9077, 4337.853
205.3898, 4333.626
205.8719, 4329.180
206.3540, 4324.053
206.8362, 4317.134
207.3183, 4305.547
207.8004, 4284.666
208.2825, 4271.521
208.7646, 4269.901
209.2467, 4272.067
209.7289, 4272.167
210.2110, 4270.416
210.6931, 4272.636
211.1752, 4287.149
211.6573, 4318.654
212.1395, 4344.911
212.6216, 4362.267
213.1037, 4377.788
213.5858, 4392.379
214.0679, 4407.542
214.5500, 4426.545
215.0322, 4453.390
215.5143, 4489.412
215.9964, 4524.040
216.4785, 4544.288
216.9606, 4575.275
217.4427, 4639.605
217.9249, 4725.707
218.4070, 4801.112
218.8891, 4835.885
219.3712, 4828.561
219.8533, 4833.815
220.3354, 4864.403
220.8176, 4895.915
221.2997, 4919.205
221.7818, 4938.417
222.2639, 4963.856
222.7460, 5004.118
223.2281, 5057.172
223.7103, 5097.677
224.1924, 5119.423
224.6745, 5133.909
225.1566, 5139.396
225.6387, 5140.043
226.1208, 5141.127
226.6030, 5145.536
227.0851, 5152.970
227.5672, 5162.368
228.0493, 5176.499
228.5314, 5188.909
229.0135, 5201.374
229.4957, 5210.624
229.9778, 5210.504
230.4599, 5197.790
230.9420, 5180.251
231.4241, 5178.651
231.9062, 5208.428
232.3884, 5227.586
232.8705, 5220.637
233.3526, 5207.847
233.8347, 5208.040
234.3168, 5227.181
234.7989, 5255.407
235.2811, 5275.738
235.7632, 5284.961
236.2453, 5293.757
236.7274, 5300.991
237.2095, 5309.612
237.6916, 5320.924
238.1738, 5335.478
238.6559, 5354.176
239.1380, 5379.567
239.6201, 5414.355
240.1022, 5445.961
240.5843, 5467.245
241.0665, 5490.721
241.5486, 5523.190
242.0307, 5564.479
242.5128, 5609.822
242.9949, 5658.989
243.4770, 5713.919
243.9592, 5749.370
244.4413, 5739.875
244.9234, 5734.478
245.4055, 5758.147
245.8876, 5801.903
246.3697, 5839.198
246.8519, 5845.650
247.3340, 5826.882
247.8161, 5835.509
248.2982, 5901.525
248.7803, 5955.112
249.2624, 5965.258
249.7446, 5949.446
250.2267, 5936.256
250.7088, 5941.481
251.1909, 5958.670
251.6730, 5969.307
252.1551, 5971.291
252.6373, 5970.707
253.1194, 5966.952
253.6015, 5963.000
254.0836, 5962.391
254.5657, 5966.726
255.0478, 5973.582
255.5300, 5977.438
256.0121, 5975.380
256.4942, 5981.543
256.9763, 6012.754
257.4584, 6046.446
257.9406, 6065.557
258.4227, 6066.235
258.9048, 6059.196
259.3869, 6053.970
259.8690, 6050.543
260.3511, 6049.225
260.8333, 6050.062
261.3154, 6053.339
261.7975, 6062.292
262.2796, 6076.071
262.7617, 6084.404
263.2438, 6075.360
263.7260, 6052.634
264.2081, 6039.583
264.6902, 6046.260
265.1723, 6050.839
265.6544, 6031.650
266.1365, 5996.104
266.6187, 5969.341
267.1008, 5969.904
267.5829, 5986.039
268.0650, 5994.695
268.5471, 5996.105
269.0292, 5987.527
269.5114, 5959.257
269.9935, 5920.216
270.4756, 5884.626
270.9577, 5855.626
271.4398, 5832.003
271.9219, 5809.936
272.4041, 5789.118
272.8862, 5781.852
273.3683, 5805.858
273.8504, 5841.969
274.3325, 5853.204
274.8146, 5828.938
275.2968, 5795.917
275.7789, 5765.454
276.2610, 5739.395
276.7431, 5726.895
277.2252, 5735.377
277.7073, 5753.471
278.1895, 5761.011
278.6716, 5755.333
279.1537, 5753.627
279.6358, 5766.926
280.1179, 5787.135
280.6000, 5799.200
281.0822, 5799.040
281.5643, 5795.560
282.0464, 5799.424
282.5285, 5811.206
283.0106, 5822.687
283.4927, 5838.390
283.9749, 5849.960
284.4570, 5846.493
284.9391, 5828.347
285.4212, 5809.910
285.9033, 5804.384
286.3854, 5811.251
286.8676, 5806.272
287.3497, 5775.305
287.8318, 5747.296
288.3139, 5736.771
288.7960, 5740.625
289.2781, 5750.479
289.7603, 5762.704
290.2424, 5775.725
290.7245, 5782.452
291.2066, 5773.148
291.6887, 5769.982
292.1708, 5785.161
292.6530, 5805.126
293.1351, 5810.948
293.6172, 5796.215
294.0993, 5772.048
294.5814, 5757.733
295.0635, 5754.927
295.5457, 5760.532
296.0278, 5782.993
296.5099, 5807.086
296.9920, 5820.019
297.4741, 5821.777
297.9562, 5822.408
298.4384, 5831.959
298.9205, 5851.001
299.4026, 5875.742
299.8847, 5910.384
300.3668, 5946.304
300.8489, 5979.179
301.3311, 6011.205
301.8131, 6047.269
302.2953, 6090.878
302.7774, 6140.873
303.2595, 6191.528
303.7416, 6243.920
304.2237, 6295.313
304.7058, 6343.747
305.1880, 6391.577
305.6701, 6439.788
306.1522, 6488.535
306.6343, 6541.911
307.1164, 6608.799
307.5985, 6693.217
308.0807, 6775.189
308.5628, 6853.129
309.0449, 6925.902
309.5270, 6990.255
310.0091, 7046.734
310.4912, 7100.111
310.9734, 7146.959
311.4555, 7189.839
311.9376, 7260.498
312.4197, 7382.111
312.9018, 7501.152
313.3839, 7578.738
313.8661, 7627.882
314.3482, 7681.463
314.8303, 7759.210
315.3124, 7848.336
315.7945, 7925.388
316.2766, 7988.252
316.7588, 8050.531
317.2409, 8113.568
317.7230, 8182.460
318.2051, 8266.613
318.6872, 8373.249
319.1693, 8483.698
319.6515, 8578.746
320.1336, 8663.325
320.6157, 8763.631
321.0978, 8892.740
321.5799, 9033.557
322.0620, 9157.412
322.5442, 9259.220
323.0263, 9373.624
323.5084, 9522.919
323.9905, 9685.442
324.4726, 9829.845
324.9547, 9951.565
325.4369, 10072.54
325.9190, 10212.11
326.4011, 10372.18
326.8832, 10547.25
327.3653, 10747.58
327.8474, 10953.60
328.3296, 11154.20
328.8117, 11351.68
329.2938, 11551.08
329.7759, 11754.52
330.2580, 11965.83
330.7401, 12196.10
331.2223, 12449.08
331.7044, 12718.17
332.1865, 13019.33
332.6686, 13329.61
333.1507, 13622.12
333.6328, 13888.97
334.1150, 14147.11
334.5971, 14422.61
335.0792, 14715.88
335.5613, 15023.92
336.0434, 15353.60
336.5255, 15689.36
337.0077, 16025.36
337.4898, 16359.04
337.9719, 16688.95
338.4540, 17009.74
338.9361, 17323.82
339.4182, 17655.97
339.9004, 18028.56
340.3825, 18382.11
340.8646, 18685.15
341.3467, 18968.04
341.8288, 19273.10
342.3109, 19621.70
342.7931, 19976.87
343.2752, 20286.87
343.7573, 20550.49
344.2394, 20779.28
344.7215, 20963.14
345.2036, 21121.50
345.6858, 21268.46
346.1679, 21405.33
346.6500, 21534.83
347.1321, 21670.25
347.6142, 21799.47
348.0963, 21882.04
348.5785, 21901.85
349.0606, 21913.05
349.5427, 21967.95
350.0248, 22049.66
350.5069, 22106.58
350.9890, 22117.31
351.4712, 22110.00
351.9533, 22111.32
352.4354, 22116.94
352.9175, 22100.26
353.3996, 22042.00
353.8817, 21961.52
354.3639, 21913.16
354.8460, 21918.20
355.3281, 21904.20
355.8102, 21839.46
356.2923, 21754.33
356.7744, 21689.87
357.2566, 21653.18
357.7387, 21615.01
358.2208, 21538.52
358.7029, 21410.04
359.1850, 21320.33
359.6671, 21296.04
360.1493, 21278.08
360.6314, 21255.69
361.1135, 21218.30
361.5956, 21143.99
362.0777, 21015.47
362.5598, 20854.07
363.0420, 20738.31
363.5241, 20698.24
364.0062, 20658.06
364.4883, 20598.04
364.9704, 20540.53
365.4525, 20510.81
365.9347, 20511.64
366.4168, 20515.12
366.8989, 20488.83
367.3810, 20430.79
367.8631, 20370.52
368.3452, 20293.61
368.8274, 20234.26
369.3095, 20214.15
369.7916, 20223.04
370.2737, 20236.17
370.7558, 20240.55
371.2379, 20243.73
371.7201, 20262.85
372.2022, 20300.51
372.6843, 20329.12
373.1664, 20338.87
373.6485, 20330.45
374.1306, 20305.82
374.6128, 20261.58
375.0949, 20213.57
375.5770, 20178.60
376.0591, 20144.51
376.5412, 20080.31
377.0233, 19976.35
377.5055, 19869.81
377.9876, 19808.54
378.4697, 19799.51
378.9518, 19732.87
379.4339, 19578.67
379.9160, 19392.51
380.3982, 19190.42
380.8803, 18982.89
381.3624, 18794.94
381.8445, 18641.33
382.3266, 18511.84
382.8087, 18372.87
383.2909, 18229.38
383.7730, 18069.08
384.2551, 17878.82
384.7372, 17680.76
385.2193, 17494.79
385.7014, 17322.67
386.1836, 17147.44
386.6657, 16945.83
387.1478, 16715.73
387.6299, 16515.83
388.1120, 16372.51
388.5941, 16228.80
389.0763, 16060.51
389.5584, 15881.17
390.0405, 15715.55
390.5226, 15574.35
391.0047, 15445.59
391.4868, 15310.67
391.9690, 15170.27
392.4511, 15021.43
392.9332, 14855.68
393.4153, 14688.75
393.8974, 14533.91
394.3795, 14390.92
394.8617, 14261.40
395.3438, 14156.39
395.8259, 14061.98
396.3080, 13949.21
396.7901, 13814.42
397.2722, 13687.21
397.7544, 13587.97
398.2365, 13514.91
398.7186, 13448.21
399.2007, 13393.35
399.6828, 13339.26
400.1649, 13285.73
400.6471, 13229.35
401.1292, 13158.19
401.6113, 13067.79
402.0934, 12979.48
402.5755, 12923.49
403.0576, 12905.61
403.5398, 12907.13
404.0219, 12944.00
404.5040, 12982.66
404.9861, 13000.86
405.4682, 13006.18
405.9503, 13019.29
406.4325, 13052.92
406.9146, 13104.79
407.3967, 13169.71
407.8788, 13262.52
408.3609, 13337.19
408.8430, 13362.55
409.3252, 13382.85
409.8073, 13433.63
410.2894, 13519.92
410.7715, 13621.00
411.2536, 13720.04
411.7357, 13818.90
412.2179, 13926.71
412.7000, 14049.25
413.1821, 14167.29
413.6642, 14257.45
414.1463, 14334.17
414.6284, 14425.48
415.1106, 14554.34
415.5927, 14678.15
416.0748, 14753.33
416.5569, 14796.61
417.0390, 14861.17
417.5211, 14966.82
418.0033, 15093.15
418.4854, 15211.02
418.9675, 15317.67
419.4496, 15423.67
419.9317, 15534.00
420.4138, 15639.12
420.8960, 15735.67
421.3781, 15822.03
421.8602, 15892.62
422.3423, 15941.93
422.8244, 15977.98
423.3065, 16037.13
423.7887, 16152.96
424.2708, 16238.84
424.7529, 16270.25
425.2350, 16281.75
425.7171, 16305.18
426.1992, 16342.94
426.6814, 16368.83
427.1635, 16351.51
427.6456, 16294.90
428.1277, 16246.93
428.6098, 16206.98
429.0919, 16177.25
429.5741, 16161.47
430.0562, 16155.35
430.5383, 16155.63
431.0204, 16167.78
431.5025, 16172.67
431.9846, 16154.88
432.4668, 16116.77
432.9489, 16063.50
433.4310, 15992.95
433.9131, 15919.01
434.3952, 15855.84
434.8773, 15804.02
435.3595, 15765.62
435.8416, 15755.07
436.3237, 15745.40
436.8058, 15721.95
437.2879, 15685.70
437.7701, 15639.13
438.2522, 15582.53
438.7343, 15522.82
439.2164, 15478.79
439.6985, 15464.72
440.1806, 15441.14
440.6628, 15407.63
441.1449, 15365.13
441.6270, 15309.01
442.1091, 15243.30
442.5912, 15179.88
443.0733, 15127.33
443.5555, 15084.51
444.0376, 15047.69
444.5197, 15017.87
445.0018, 14991.36
445.4839, 14979.46
445.9660, 14963.06
446.4482, 14915.48
446.9303, 14828.61
447.4124, 14750.73
447.8945, 14719.20
448.3766, 14716.06
448.8587, 14703.57
449.3409, 14676.03
449.8230, 14649.31
450.3051, 14638.58
450.7872, 14640.80
451.2693, 14626.64
451.7514, 14577.20
452.2336, 14534.66
452.7157, 14523.23
453.1978, 14523.33
453.6799, 14503.65
454.1620, 14456.46
454.6441, 14405.18
455.1263, 14383.32
455.6084, 14400.36
456.0905, 14393.22
456.5726, 14352.31
457.0547, 14295.42
457.5368, 14219.61
458.0190, 14132.97
458.5011, 14046.41
458.9832, 13963.91
459.4653, 13885.48
459.9474, 13812.90
460.4295, 13746.61
460.9117, 13674.22
461.3938, 13592.44
461.8759, 13504.91
462.3580, 13416.82
462.8401, 13326.93
463.3222, 13225.49
463.8044, 13097.75
464.2865, 12966.29
464.7686, 12854.86
465.2507, 12758.59
465.7328, 12655.47
466.2149, 12534.70
466.6971, 12407.04
467.1792, 12296.72
467.6613, 12222.85
468.1434, 12124.38
468.6255, 11982.35
469.1076, 11832.57
469.5898, 11698.33
470.0719, 11576.75
470.5540, 11453.69
471.0361, 11318.29
471.5182, 11178.54
472.0003, 11058.83
472.4825, 10973.81
472.9646, 10870.91
473.4467, 10718.39
473.9288, 10559.45
474.4109, 10421.22
474.8930, 10304.69
475.3752, 10194.70
475.8573, 10082.92
476.3394, 9972.231
476.8215, 9866.164
477.3036, 9765.021
477.7857, 9671.320
478.2679, 9590.777
478.7500, 9515.048
479.2321, 9421.214
479.7142, 9303.089
480.1963, 9187.428
480.6784, 9075.391
481.1606, 8970.634
481.6427, 8878.500
482.1248, 8797.680
482.6069, 8722.086
483.0890, 8647.393
483.5711, 8573.081
484.0533, 8493.885
484.5354, 8402.184
485.0175, 8318.195
485.4996, 8247.715
485.9817, 8182.936
486.4638, 8119.313
486.9460, 8055.551
487.4281, 7991.521
487.9102, 7921.160
488.3923, 7850.631
488.8744, 7804.770
489.3565, 7789.685
489.8387, 7764.065
490.3208, 7697.607
490.8029, 7612.500
491.2850, 7557.284
491.7671, 7543.744
492.2492, 7525.167
492.7314, 7476.425
493.2135, 7420.000
493.6956, 7388.477
494.1777, 7380.689
494.6598, 7361.482
495.1419, 7301.094
495.6241, 7208.396
496.1062, 7139.500
496.5883, 7109.382
497.0704, 7084.041
497.5525, 7065.144
498.0346, 7045.815
498.5168, 7018.963
498.9989, 6984.859
499.4810, 6951.212
499.9631, 6925.052
500.4452, 6904.355
500.9273, 6880.750
501.4095, 6852.347
501.8916, 6829.516
502.3737, 6823.368
502.8558, 6821.319
503.3379, 6800.755
503.8200, 6754.573
504.3022, 6718.789
504.7843, 6716.843
505.2664, 6726.751
505.7485, 6720.603
506.2306, 6698.555
506.7127, 6681.737
507.1949, 6685.492
507.6770, 6703.892
508.1591, 6711.100
508.6412, 6702.245
509.1233, 6688.430
509.6054, 6659.845
510.0876, 6634.738
510.5697, 6631.228
511.0518, 6646.083
511.5339, 6658.259
512.0161, 6648.639
512.4982, 6628.047
512.9803, 6630.170
513.4624, 6660.102
513.9445, 6681.354
514.4266, 6676.884
514.9088, 6661.118
515.3909, 6651.344
515.8730, 6647.345
516.3551, 6650.719
516.8372, 6667.738
517.3193, 6688.041
517.8015, 6702.425
518.2836, 6711.232
518.7657, 6718.427
519.2478, 6725.785
519.7299, 6734.063
520.2120, 6745.739
520.6942, 6767.657
521.1763, 6779.626
521.6584, 6771.151
522.1405, 6763.726
522.6226, 6770.121
523.1047, 6787.199
523.5869, 6805.246
524.0690, 6820.165
524.5511, 6831.465
525.0332, 6835.064
525.5153, 6831.064
525.9974, 6837.910
526.4796, 6867.826
526.9617, 6897.038
527.4438, 6886.644
527.9259, 6843.536
528.4080, 6837.005
528.8901, 6914.183
529.3723, 6993.539
529.8544, 7021.989
530.3365, 7018.790
530.8186, 7023.187
531.3007, 7048.618
531.7828, 7081.279
532.2650, 7102.045
532.7471, 7108.960
533.2292, 7116.548
533.7113, 7123.772
534.1934, 7133.050
534.6755, 7148.414
535.1577, 7164.945
535.6398, 7175.019
536.1219, 7175.869
536.6040, 7176.086
537.0861, 7182.123
537.5682, 7193.877
538.0504, 7210.268
538.5325, 7230.569
539.0146, 7259.880
539.4967, 7304.797
539.9788, 7361.485
540.4609, 7409.668
540.9431, 7443.277
541.4252, 7478.319
541.9073, 7528.221
542.3894, 7574.407
542.8715, 7591.450
543.3536, 7582.941
543.8358, 7579.696
544.3179, 7607.389
544.8000, 7659.062
545.2821, 7702.607
545.7642, 7730.662
546.2463, 7770.814
546.7285, 7844.410
547.2106, 7921.868
547.6927, 7982.426
548.1748, 8025.448
548.6569, 8058.489
549.1390, 8073.047
549.6211, 8087.134
550.1032, 8120.561
550.5853, 8171.343
551.0674, 8231.328
551.5496, 8299.668
552.0317, 8366.078
552.5138, 8412.658
552.9959, 8430.021
553.4780, 8459.872
553.9601, 8511.571
554.4423, 8563.999
554.9244, 8607.765
555.4065, 8646.979
555.8886, 8687.940
556.3707, 8733.063
556.8528, 8782.761
557.3350, 8840.263
557.8171, 8904.171
558.2992, 8965.413
558.7813, 9026.835
559.2634, 9073.316
559.7455, 9086.649
560.2277, 9077.939
560.7098, 9084.299
561.1919, 9114.530
561.6740, 9144.923
562.1561, 9173.079
562.6382, 9194.688
563.1204, 9203.256
563.6025, 9199.767
564.0846, 9192.379
564.5667, 9187.111
565.0488, 9182.324
565.5309, 9170.448
566.0131, 9146.896
566.4952, 9127.891
566.9773, 9120.918
567.4594, 9115.531
567.9415, 9110.984
568.4236, 9103.747
568.9058, 9080.378
569.3879, 9024.553
569.8700, 8959.533
570.3521, 8908.479
570.8342, 8867.858
571.3163, 8826.915
571.7985, 8782.718
572.2806, 8733.566
572.7627, 8677.026
573.2448, 8611.945
573.7269, 8548.468
574.2090, 8488.638
574.6912, 8427.035
575.1733, 8357.733
575.6554, 8288.401
576.1375, 8231.718
576.6196, 8188.578
577.1017, 8139.735
577.5839, 8059.847
578.0660, 7960.294
578.5481, 7882.662
579.0302, 7830.438
579.5123, 7775.168
579.9944, 7703.169
580.4766, 7621.521
580.9587, 7543.627
581.4408, 7469.380
581.9229, 7397.400
582.4050, 7328.617
582.8871, 7261.744
583.3693, 7197.203
583.8514, 7134.040
584.3335, 7070.046
584.8156, 7004.689
585.2977, 6936.265
585.7798, 6857.629
586.2620, 6766.721
586.7441, 6693.094
587.2262, 6644.295
587.7083, 6601.771
588.1904, 6558.619
588.6725, 6513.648
589.1547, 6463.418
589.6368, 6403.388
590.1189, 6348.376
590.6010, 6314.187
591.0831, 6284.194
591.5652, 6232.873
592.0474, 6161.934
592.5295, 6094.344
593.0116, 6045.019
593.4937, 6011.451
593.9758, 5987.729
594.4579, 5984.542
594.9401, 5966.032
595.4222, 5913.867
595.9043, 5859.712
596.3864, 5817.971
596.8685, 5786.985
597.3506, 5761.063
597.8328, 5740.122
598.3149, 5719.917
598.7970, 5694.544
599.2791, 5667.008
599.7612, 5647.237
600.2433, 5637.101
600.7255, 5624.136
601.2076, 5596.299
601.6897, 5556.279
602.1718, 5526.111
602.6539, 5514.290
603.1360, 5501.099
603.6182, 5483.804
604.1003, 5465.648
604.5824, 5446.152
605.0645, 5427.547
605.5466, 5417.534
606.0287, 5426.035
606.5109, 5437.908
606.9930, 5425.180
607.4751, 5391.788
607.9572, 5371.080
608.4393, 5373.603
608.9214, 5381.494
609.4036, 5377.197
609.8857, 5360.608
610.3678, 5344.332
610.8499, 5325.450
611.3320, 5310.575
611.8141, 5303.062
612.2963, 5299.110
612.7784, 5296.876
613.2605, 5294.875
613.7426, 5289.159
614.2247, 5274.090
614.7068, 5255.397
615.1890, 5249.526
615.6711, 5257.232
616.1532, 5260.260
616.6353, 5251.813
617.1174, 5239.723
617.5995, 5234.166
618.0817, 5235.287
618.5638, 5228.309
619.0459, 5196.087
619.5280, 5174.840
620.0101, 5194.214
620.4922, 5224.664
620.9744, 5222.596
621.4565, 5184.164
621.9386, 5148.368
622.4207, 5154.416
622.9028, 5189.375
623.3849, 5200.548
623.8671, 5183.574
624.3492, 5168.229
624.8313, 5164.098
625.3134, 5164.617
625.7955, 5160.509
626.2776, 5152.120
626.7598, 5151.433
627.2419, 5171.943
627.7240, 5187.721
628.2061, 5185.599
628.6882, 5170.427
629.1703, 5145.064
629.6525, 5112.765
630.1346, 5085.648
630.6167, 5077.088
631.0988, 5083.752
631.5809, 5087.455
632.0630, 5088.325
632.5452, 5085.418
633.0273, 5075.223
633.5094, 5064.190
633.9915, 5060.535
634.4736, 5063.793
634.9557, 5064.733
635.4379, 5058.097
635.9200, 5052.328
636.4021, 5053.342
