##NAMES=Leucite
##RRUFFID=R060300
##IDEAL CHEMISTRY=K(Si_2_Al)O_6_
##LOCALITY=Alban Hills, Rome Province, Latium, Italy
##OWNER=RRUFF
##SOURCE=Herb Obodda
##DESCRIPTION=Colorless complete pseudocubic crystal showing trapezohedral faces
##STATUS=The identification of this mineral has been confirmed by X-ray diffraction and chemical analysis
##URL=rruff.info/R060300
##MEASURED CHEMISTRY=(K_0.98_Na_0.02_)_Î£=1_Al_1.00_Si_2.00_O_6_
131.9542, 11.71216
132.4363, 12.35012
132.9185, 13.71866
133.4006, 15.02262
133.8827, 16.02086
134.3648, 16.79095
134.8469, 17.70197
135.3290, 18.78174
135.8112, 19.88488
136.2933, 20.77698
136.7754, 21.44076
137.2575, 22.20867
137.7396, 23.02322
138.2217, 23.89050
138.7039, 25.78463
139.1860, 28.99222
139.6681, 32.78353
140.1502, 36.03563
140.6323, 38.48360
141.1144, 41.17160
141.5966, 44.68614
142.0787, 49.35218
142.5608, 53.24866
143.0429, 56.08723
143.5250, 58.31340
144.0071, 60.93375
144.4893, 64.11906
144.9714, 67.38510
145.4535, 70.44761
145.9356, 73.10530
146.4177, 76.02750
146.8998, 79.28397
147.3820, 82.82521
147.8641, 86.60348
148.3462, 90.67722
148.8283, 94.88480
149.3104, 99.18363
149.7925, 103.4221
150.2747, 107.9128
150.7568, 112.1943
151.2389, 116.3875
151.7210, 122.1357
152.2031, 131.5815
152.6852, 141.2176
153.1674, 148.9686
153.6495, 152.9834
154.1316, 156.8765
154.6137, 161.2477
155.0958, 166.1226
155.5779, 170.5792
156.0601, 175.2775
156.5422, 179.1826
157.0243, 181.3464
157.5064, 179.7343
157.9885, 178.1013
158.4706, 177.8174
158.9528, 179.1917
159.4349, 179.7288
159.9170, 177.8035
160.3991, 174.9936
160.8812, 173.1229
161.3633, 173.7652
161.8455, 174.6168
162.3276, 174.3810
162.8097, 172.5626
163.2918, 171.5585
163.7739, 172.7606
164.2560, 175.1519
164.7382, 176.3409
165.2203, 176.8682
165.7024, 177.2507
166.1845, 177.4510
166.6666, 177.2975
167.1487, 177.5223
167.6309, 178.5020
168.1130, 180.1384
168.5951, 182.2131
169.0772, 185.0297
169.5593, 188.0259
170.0414, 190.7395
170.5236, 193.0964
171.0057, 195.1794
171.4878, 196.9494
171.9699, 198.4989
172.4520, 200.0697
172.9341, 201.5249
173.4163, 203.1853
173.8984, 205.5450
174.3805, 209.1341
174.8626, 212.7501
175.3447, 215.2503
175.8268, 216.8028
176.3090, 218.1796
176.7911, 219.8656
177.2732, 221.7134
177.7553, 223.4680
178.2374, 225.0275
178.7195, 226.5141
179.2017, 228.1902
179.6838, 230.0320
180.1659, 231.6533
180.6480, 232.8712
181.1301, 233.6619
181.6122, 234.0114
182.0944, 234.0197
182.5765, 233.5165
183.0586, 231.8626
183.5407, 229.1019
184.0228, 226.3678
184.5049, 225.1942
184.9871, 225.0471
185.4692, 224.0168
185.9513, 221.1197
186.4334, 217.0972
186.9155, 213.5976
187.3976, 210.6690
187.8798, 207.8813
188.3619, 204.7116
188.8440, 201.2190
189.3261, 198.0017
189.8082, 195.3939
190.2903, 193.1912
190.7725, 190.6739
191.2546, 187.8117
191.7367, 184.6228
192.2188, 180.9097
192.7009, 176.6749
193.1830, 172.5966
193.6652, 168.8975
194.1473, 165.5332
194.6294, 162.4316
195.1115, 159.5675
195.5936, 157.0365
196.0757, 155.0344
196.5579, 153.5714
197.0400, 152.2994
197.5221, 151.3535
198.0042, 150.6699
198.4863, 148.8161
198.9684, 145.3836
199.4506, 141.7048
199.9327, 140.0451
200.4148, 140.6102
200.8969, 141.1826
201.3790, 140.7988
201.8611, 139.4211
202.3433, 138.1644
202.8254, 136.9780
203.3075, 135.9820
203.7896, 135.3863
204.2717, 135.1937
204.7538, 135.3392
205.2360, 135.9582
205.7181, 137.1493
206.2002, 137.9014
206.6823, 138.1989
207.1644, 138.0801
207.6465, 137.4697
208.1287, 136.1853
208.6108, 135.0735
209.0929, 134.5645
209.5750, 134.7789
210.0571, 134.9447
210.5392, 135.0281
211.0214, 135.0953
211.5035, 135.3497
211.9856, 135.9318
212.4677, 136.3182
212.9498, 136.2876
213.4319, 135.8243
213.9140, 134.9838
214.3962, 133.6195
214.8783, 131.9677
215.3604, 130.6299
215.8425, 129.7311
216.3246, 128.8309
216.8067, 127.6874
217.2889, 126.2073
217.7710, 124.8579
218.2531, 123.7457
218.7352, 122.7158
219.2173, 121.3381
219.6994, 119.4461
220.1816, 117.5085
220.6637, 115.7573
221.1458, 114.3760
221.6279, 112.6136
222.1100, 110.2984
222.5921, 107.6584
223.0743, 105.1633
223.5564, 102.7137
224.0385, 100.6172
224.5206, 99.16675
225.0027, 98.74590
225.4848, 97.87215
225.9670, 96.37873
226.4491, 94.48018
226.9312, 92.68002
227.4133, 90.96774
227.8954, 89.38731
228.3775, 88.02061
228.8597, 86.96523
229.3418, 85.81142
229.8239, 84.48344
230.3060, 83.06529
230.7881, 81.84518
231.2702, 80.90293
231.7524, 80.00744
232.2345, 79.04277
232.7166, 77.86302
233.1987, 76.94327
233.6808, 76.48161
234.1629, 76.23357
234.6451, 75.48180
235.1272, 73.87200
235.6093, 72.29830
236.0914, 71.16589
236.5735, 70.65767
237.0556, 70.17573
237.5378, 69.69023
238.0199, 69.24194
238.5020, 68.97124
238.9841, 69.09746
239.4662, 69.07522
239.9483, 68.64631
240.4305, 67.63328
240.9126, 66.60336
241.3947, 65.34132
241.8768, 64.12609
242.3589, 63.75971
242.8410, 64.92312
243.3232, 65.88731
243.8053, 65.80717
244.2874, 63.96213
244.7695, 62.84667
245.2516, 62.76736
245.7337, 63.28794
246.2159, 63.40441
246.6980, 62.80549
247.1801, 62.29391
247.6622, 62.22669
248.1443, 62.85211
248.6264, 63.20096
249.1086, 63.09263
249.5907, 62.79913
250.0728, 62.93386
250.5549, 63.83189
251.0370, 64.59305
251.5191, 64.83446
252.0013, 64.36430
252.4834, 64.00000
252.9655, 63.74894
253.4476, 63.60016
253.9297, 63.51785
254.4118, 63.42424
254.8940, 63.54454
255.3761, 64.04087
255.8582, 65.09414
256.3403, 65.79154
256.8224, 66.03484
257.3046, 66.00044
257.7867, 65.93991
258.2688, 65.77221
258.7509, 65.75951
259.2330, 66.10668
259.7151, 66.97608
260.1973, 67.18114
260.6794, 66.34943
261.1615, 65.21500
261.6436, 64.92028
262.1257, 65.77780
262.6078, 66.71394
263.0900, 67.45906
263.5721, 68.03043
264.0542, 68.27574
264.5363, 68.11227
265.0184, 67.72307
265.5005, 67.28220
265.9827, 66.71017
266.4648, 66.33514
266.9469, 66.32819
267.4290, 66.70112
267.9111, 66.80576
268.3932, 66.49390
268.8754, 66.14159
269.3575, 66.25852
269.8396, 67.03361
270.3217, 67.57963
270.8038, 67.61483
271.2859, 67.17154
271.7681, 66.87474
272.2502, 66.75146
272.7323, 66.71908
273.2144, 66.72630
273.6965, 66.79602
274.1786, 66.77164
274.6608, 66.55803
275.1429, 66.20728
275.6250, 66.13079
276.1071, 66.40301
276.5892, 66.73621
277.0714, 66.82807
277.5535, 66.64244
278.0356, 66.56898
278.5177, 66.72350
278.9998, 67.03447
279.4819, 67.13227
279.9641, 66.93587
280.4462, 66.87161
280.9283, 67.37138
281.4104, 68.45177
281.8925, 69.46514
282.3746, 70.37071
282.8568, 71.10330
283.3389, 71.38673
283.8210, 71.16960
284.3031, 70.89767
284.7852, 70.69796
285.2673, 70.60103
285.7495, 71.23431
286.2316, 72.84440
286.7137, 74.97415
287.1958, 76.76001
287.6779, 78.19874
288.1600, 79.35466
288.6422, 80.19312
289.1243, 80.75257
289.6064, 81.16542
290.0885, 81.32890
290.5706, 81.64534
291.0527, 82.86333
291.5349, 84.93888
292.0170, 87.23081
292.4991, 89.47982
292.9812, 91.67690
293.4633, 93.77393
293.9454, 95.83504
294.4276, 97.58555
294.9097, 98.21198
295.3918, 97.98811
295.8739, 98.35368
296.3560, 100.5426
296.8381, 103.7655
297.3203, 106.1457
297.8024, 107.6047
298.2845, 108.5272
298.7666, 109.0321
299.2487, 109.2663
299.7308, 109.7007
300.2130, 110.8065
300.6951, 112.1268
301.1772, 112.9588
301.6593, 113.3033
302.1414, 113.2926
302.6235, 112.9444
303.1057, 112.3258
303.5878, 111.5667
304.0699, 110.5442
304.5520, 109.5279
305.0341, 108.9210
305.5162, 108.6766
305.9984, 108.3694
306.4805, 107.7199
306.9626, 106.8131
307.4447, 105.7585
307.9268, 104.4604
308.4089, 103.1696
308.8911, 102.1635
309.3732, 101.3731
309.8553, 100.5177
310.3374, 99.33527
310.8195, 98.04753
311.3016, 96.85738
311.7838, 95.73873
312.2659, 94.87337
312.7480, 94.62755
313.2301, 94.76233
313.7122, 94.67778
314.1943, 93.78813
314.6765, 92.77510
315.1586, 92.16859
315.6407, 92.16682
316.1228, 92.14230
316.6049, 91.88947
317.0870, 91.40573
317.5692, 90.69369
318.0513, 89.01132
318.5334, 87.69599
319.0155, 87.65414
319.4976, 89.17060
319.9797, 90.36239
320.4619, 90.33193
320.9440, 89.74754
321.4261, 89.35939
321.9082, 89.72723
322.3903, 89.94738
322.8724, 89.59207
323.3546, 88.63737
323.8367, 87.98121
324.3188, 87.89784
324.8009, 88.12061
325.2830, 88.44547
325.7651, 89.17233
326.2473, 89.64489
326.7294, 89.58693
327.2115, 89.09158
327.6936, 88.88902
328.1757, 89.10865
328.6578, 89.57005
329.1400, 90.19424
329.6221, 91.30306
330.1042, 92.11894
330.5863, 92.32316
331.0684, 92.22323
331.5505, 92.75159
332.0327, 94.56673
332.5148, 96.23690
332.9969, 97.17786
333.4790, 97.09486
333.9611, 97.02903
334.4432, 96.92126
334.9254, 96.86404
335.4075, 97.09293
335.8896, 97.93857
336.3717, 98.39034
336.8538, 97.94626
337.3359, 96.45596
337.8180, 95.74246
338.3001, 96.07493
338.7823, 96.77327
339.2644, 97.14776
339.7465, 97.23158
340.2286, 96.83851
340.7107, 95.79655
341.1928, 94.20313
341.6750, 92.84394
342.1571, 91.71736
342.6392, 90.75317
343.1213, 89.96986
343.6034, 89.37919
344.0855, 88.52321
344.5677, 87.20263
345.0498, 85.70963
345.5319, 84.94289
346.0140, 84.93213
346.4961, 84.81023
346.9782, 83.87929
347.4604, 82.30811
347.9425, 80.94808
348.4246, 79.87114
348.9067, 79.00330
349.3888, 78.30924
349.8709, 77.75871
350.3531, 77.17966
350.8352, 76.36529
351.3173, 75.49323
351.7994, 74.89347
352.2815, 74.58601
352.7636, 74.48850
353.2458, 74.75282
353.7279, 75.16725
354.2100, 75.26182
354.6921, 74.35406
355.1742, 73.38390
355.6563, 73.56467
356.1385, 74.78720
356.6206, 75.91240
357.1027, 75.99177
357.5848, 75.59608
358.0669, 75.41096
358.5490, 75.74535
359.0312, 76.13813
359.5133, 76.36415
359.9954, 76.42393
360.4775, 76.32645
360.9596, 75.76752
361.4417, 75.25410
361.9239, 75.14500
362.4060, 75.57548
362.8881, 76.17587
363.3702, 77.03277
363.8523, 77.93028
364.3344, 78.53751
364.8166, 78.54179
365.2987, 78.43745
365.7808, 78.39326
366.2629, 78.42442
366.7450, 78.47576
367.2271, 78.56078
367.7093, 78.65298
368.1914, 78.72923
368.6735, 78.73328
369.1556, 78.78408
369.6377, 78.93350
370.1198, 79.16528
370.6020, 79.32069
371.0841, 79.30328
371.5662, 79.29960
372.0483, 79.42405
372.5304, 79.83847
373.0125, 80.06264
373.4947, 79.95782
373.9768, 79.70071
374.4589, 79.73183
374.9410, 80.19238
375.4231, 80.65128
375.9052, 80.93184
376.3874, 81.00414
376.8695, 81.15981
377.3516, 81.44992
377.8337, 81.74077
378.3158, 81.79810
378.7979, 81.56341
379.2801, 81.56184
379.7622, 82.04141
380.2443, 82.85428
380.7264, 83.36772
381.2085, 83.56570
381.6906, 83.54871
382.1728, 83.20175
382.6549, 82.62315
383.1370, 82.50256
383.6191, 83.05154
384.1012, 83.93415
384.5833, 84.73560
385.0655, 85.43258
385.5476, 85.86452
386.0297, 85.65434
386.5118, 85.19270
386.9939, 85.29191
387.4760, 86.09061
387.9582, 86.93179
388.4403, 87.11108
388.9224, 86.88222
389.4045, 86.77306
389.8866, 87.24400
390.3687, 87.76115
390.8509, 87.87736
391.3330, 87.60613
391.8151, 87.13776
392.2972, 86.29272
392.7793, 85.44062
393.2614, 84.94925
393.7436, 85.10307
394.2257, 85.36881
394.7078, 85.73365
395.1899, 86.06158
395.6720, 85.99501
396.1541, 84.76012
396.6363, 83.63252
397.1184, 83.40844
397.6005, 84.69595
398.0826, 85.22190
398.5647, 84.18919
399.0468, 82.37137
399.5290, 80.70573
400.0111, 78.94486
400.4932, 77.68904
400.9753, 77.35648
401.4574, 77.93875
401.9395, 77.69331
402.4217, 75.89098
402.9038, 74.02629
403.3859, 73.20470
403.8680, 74.14462
404.3501, 74.36230
404.8322, 73.39642
405.3144, 71.74368
405.7965, 70.77605
406.2786, 70.64353
406.7607, 70.67603
407.2428, 70.60944
407.7249, 70.44144
408.2071, 70.18066
408.6892, 69.77489
409.1713, 69.42313
409.6534, 69.45792
410.1355, 69.85612
410.6176, 70.13577
411.0998, 70.08629
411.5819, 69.87375
412.0640, 69.88036
412.5461, 70.10280
413.0282, 70.46150
413.5103, 71.07744
413.9925, 71.76025
414.4746, 72.07031
414.9567, 71.84885
415.4388, 71.50066
415.9209, 71.29430
416.4030, 71.27860
416.8852, 71.57068
417.3673, 72.39122
417.8494, 73.43412
418.3315, 74.57732
418.8136, 75.80706
419.2957, 76.76416
419.7779, 76.93079
420.2600, 76.84883
420.7421, 77.05856
421.2242, 78.11686
421.7063, 79.07425
422.1884, 79.52242
422.6706, 79.60011
423.1527, 79.84926
423.6348, 80.34037
424.1169, 81.06941
424.5990, 82.09203
425.0811, 83.62245
425.5633, 84.95245
426.0454, 86.11290
426.5275, 87.03959
427.0096, 87.62670
427.4917, 87.51008
427.9738, 87.61337
428.4560, 88.24937
428.9381, 89.38321
429.4202, 90.05186
429.9023, 90.05679
430.3844, 89.94881
430.8665, 90.24355
431.3487, 91.10126
431.8308, 91.26176
432.3129, 90.35086
432.7950, 89.03836
433.2771, 88.99069
433.7592, 90.27445
434.2414, 91.12051
434.7235, 90.42867
435.2056, 88.59366
435.6877, 87.20525
436.1698, 86.28960
436.6519, 85.54274
437.1341, 84.70853
437.6162, 83.82176
438.0983, 82.93211
438.5804, 81.97869
439.0625, 81.13820
439.5446, 80.71852
440.0268, 80.61778
440.5089, 80.46236
440.9910, 79.84517
441.4731, 79.18974
441.9552, 78.98762
442.4373, 79.42136
442.9195, 79.59964
443.4016, 78.60561
443.8837, 77.25164
444.3658, 76.52536
444.8479, 77.49352
445.3300, 78.35286
445.8122, 78.30972
446.2943, 77.49744
446.7764, 77.18153
447.2585, 78.04433
447.7406, 79.06408
448.2227, 79.73259
448.7049, 79.85123
449.1870, 79.98122
449.6691, 80.17103
450.1512, 80.34731
450.6333, 80.32224
451.1154, 79.79916
451.5976, 79.72902
452.0797, 80.49850
452.5618, 82.03577
453.0439, 83.21965
453.5260, 83.92745
454.0081, 84.59438
454.4903, 85.56888
454.9724, 86.83902
455.4545, 88.15581
455.9366, 89.47450
456.4187, 90.83453
456.9008, 92.33378
457.3830, 93.96207
457.8651, 95.47341
458.3472, 96.53646
458.8293, 97.49598
459.3114, 99.04268
459.7935, 101.1662
460.2757, 103.5434
460.7578, 105.9902
461.2399, 108.4848
461.7220, 110.9996
462.2041, 113.6125
462.6862, 116.1488
463.1684, 118.1712
463.6505, 120.0327
464.1326, 122.5060
464.6147, 126.4033
465.0968, 130.5941
465.5789, 134.3089
466.0611, 137.3660
466.5432, 140.9902
467.0253, 145.5172
467.5074, 150.6329
467.9895, 156.0552
468.4716, 161.9710
468.9538, 168.0285
469.4359, 173.9167
469.9180, 179.8794
470.4001, 186.7620
470.8822, 194.5856
471.3643, 203.2296
471.8465, 212.7543
472.3286, 223.2277
472.8107, 233.8896
473.2928, 244.5233
473.7749, 255.5567
474.2570, 266.9548
474.7392, 278.7288
475.2213, 292.3122
475.7034, 308.5228
476.1855, 326.1094
476.6676, 342.2842
477.1497, 357.2969
477.6319, 372.7201
478.1140, 389.8365
478.5961, 408.0247
479.0782, 426.4773
479.5603, 445.1815
480.0424, 463.5143
480.5246, 480.7193
481.0067, 497.3156
481.4888, 514.0812
481.9709, 531.6487
482.4530, 549.1807
482.9352, 566.5238
483.4173, 583.5309
483.8994, 599.7410
484.3815, 614.9810
484.8636, 629.4450
485.3457, 643.0021
485.8279, 655.3863
486.3100, 668.1693
486.7921, 681.6721
487.2742, 695.5067
487.7563, 709.4851
488.2384, 723.6780
488.7206, 737.9855
489.2027, 752.2620
489.6848, 766.6635
490.1669, 781.5507
490.6490, 796.7377
491.1311, 812.6204
491.6133, 829.3597
492.0954, 847.0131
492.5775, 865.0544
493.0596, 883.7334
493.5417, 901.3602
494.0238, 916.0408
494.5060, 928.0732
494.9881, 938.7678
495.4702, 949.0795
495.9523, 957.0253
496.4344, 959.6248
496.9165, 957.2540
497.3987, 951.3558
497.8808, 941.2938
498.3629, 928.8741
498.8450, 915.4801
499.3271, 901.0638
499.8092, 886.5665
500.2914, 871.9964
500.7735, 857.7260
501.2556, 843.6914
501.7377, 829.5471
502.2198, 816.2717
502.7019, 803.4081
503.1841, 791.4689
503.6662, 781.7405
504.1483, 774.9082
504.6304, 769.5546
505.1125, 765.8502
505.5946, 764.0283
506.0768, 760.8669
506.5589, 756.0544
507.0410, 750.4115
507.5231, 744.8597
508.0052, 739.7283
508.4873, 732.7524
508.9695, 723.8321
509.4516, 712.9517
509.9337, 699.6774
510.4158, 684.0971
510.8979, 667.9356
511.3800, 651.3621
511.8622, 634.7614
512.3443, 618.5501
512.8264, 602.8876
513.3085, 588.2639
513.7906, 574.9476
514.2728, 562.9801
514.7549, 552.4470
515.2370, 543.4224
515.7191, 535.6540
516.2012, 529.1940
516.6833, 523.8697
517.1655, 519.3011
517.6476, 514.9934
518.1297, 511.8080
518.6118, 509.9196
519.0939, 509.3598
519.5760, 510.3577
520.0582, 513.1757
520.5403, 517.4039
521.0224, 522.8558
521.5045, 529.5775
521.9866, 537.4922
522.4688, 546.8416
522.9509, 557.1158
523.4330, 567.9560
523.9151, 579.4568
524.3972, 591.0759
524.8793, 602.7734
525.3615, 614.2997
525.8436, 625.3272
526.3257, 635.8896
526.8078, 645.5132
527.2899, 655.0078
527.7720, 663.3127
528.2542, 667.7047
528.7363, 668.0303
529.2184, 665.8768
529.7005, 663.5903
530.1826, 659.3430
530.6647, 650.4655
531.1469, 635.3375
531.6290, 617.0237
532.1111, 596.1337
532.5932, 573.4434
533.0753, 550.6310
533.5574, 528.7433
534.0396, 506.0654
534.5217, 480.8641
535.0038, 453.0832
535.4859, 427.7801
535.9680, 406.4240
536.4501, 386.4476
536.9323, 366.3964
537.4144, 345.4937
537.8965, 326.1493
538.3786, 308.5345
538.8607, 292.3330
539.3428, 277.5840
539.8250, 264.2195
540.3071, 251.4689
540.7892, 239.1190
541.2713, 227.3553
541.7534, 217.3096
542.2355, 208.8767
542.7177, 200.9718
543.1998, 192.5045
543.6819, 184.1653
544.1640, 177.2951
544.6461, 172.0359
545.1282, 166.9760
545.6104, 160.6841
546.0925, 154.2903
546.5746, 149.1056
547.0567, 146.2951
547.5388, 143.6158
548.0209, 140.4138
548.5031, 136.8438
548.9852, 133.1781
549.4673, 128.9308
549.9494, 125.1593
550.4315, 122.2745
550.9136, 120.2719
551.3958, 118.0116
551.8779, 115.2792
552.3600, 112.6442
552.8421, 110.5694
553.3242, 109.1615
553.8063, 107.2360
554.2885, 104.6365
554.7706, 101.8120
555.2527, 99.36856
555.7348, 97.25142
556.2169, 95.08281
556.6990, 92.65130
557.1812, 90.27748
557.6633, 88.54568
558.1454, 87.31438
558.6275, 86.04585
559.1096, 84.33492
559.5917, 82.53921
560.0739, 80.97446
560.5560, 79.65717
561.0381, 78.40736
561.5202, 77.15685
562.0023, 75.95629
562.4844, 74.84621
562.9666, 73.82610
563.4487, 72.90916
563.9308, 72.26341
564.4129, 71.64668
564.8950, 70.64510
565.3771, 69.02541
565.8593, 67.57664
566.3414, 66.52670
566.8235, 65.78030
567.3056, 64.80907
567.7877, 63.57112
568.2698, 62.45038
568.7520, 61.84458
569.2341, 61.56236
569.7162, 60.72755
570.1983, 59.28669
570.6804, 57.85911
571.1625, 57.01927
571.6447, 56.59412
572.1268, 56.36988
572.6089, 56.47909
573.0910, 56.37240
573.5731, 55.41024
574.0552, 54.03712
574.5374, 53.00873
575.0195, 52.92064
575.5016, 52.87321
575.9837, 52.53590
576.4658, 51.93440
576.9479, 51.47123
577.4301, 51.32819
577.9122, 51.12327
578.3943, 50.60712
578.8764, 49.64336
579.3585, 49.19899
579.8406, 49.40142
580.3228, 49.83894
580.8049, 50.21773
581.2870, 50.51965
581.7691, 50.29158
582.2512, 49.24286
582.7333, 48.13983
583.2155, 48.36914
583.6975, 49.54577
584.1796, 50.47351
584.6617, 50.30569
585.1439, 49.84748
585.6260, 49.90221
586.1081, 50.35210
586.5902, 50.59534
587.0723, 50.10192
587.5544, 49.51638
588.0366, 49.21050
588.5187, 49.28555
589.0008, 49.37977
589.4829, 49.66095
589.9650, 49.80263
590.4471, 49.49332
590.9293, 48.32857
591.4114, 47.69102
591.8935, 47.84438
592.3756, 48.36732
592.8577, 48.45449
593.3398, 48.07338
593.8220, 47.81242
594.3041, 47.92394
594.7862, 48.22996
595.2683, 48.38773
595.7504, 48.38745
596.2325, 48.16600
596.7147, 47.34304
597.1968, 46.46060
597.6789, 46.26474
598.1610, 46.82026
598.6431, 47.27288
599.1252, 47.27010
599.6074, 46.88749
600.0895, 46.12444
600.5716, 44.47241
601.0537, 43.33111
601.5358, 43.18102
602.0179, 43.55634
602.5001, 43.90293
602.9822, 44.28859
603.4643, 44.50554
603.9464, 44.52409
604.4285, 44.34910
604.9106, 43.89158
605.3928, 43.10300
605.8749, 42.50297
606.3570, 42.43238
606.8391, 42.74386
607.3212, 42.96965
607.8033, 43.11152
608.2855, 43.23771
608.7676, 43.43258
609.2497, 43.62748
609.7318, 43.73736
610.2139, 43.75162
610.6960, 43.67495
611.1782, 43.44624
611.6603, 43.15738
612.1424, 42.90306
612.6245, 42.82916
613.1066, 42.64301
613.5887, 42.11567
614.0709, 41.48846
614.5530, 41.26281
615.0351, 41.61491
615.5172, 42.00251
615.9993, 42.29138
616.4814, 42.49928
616.9636, 42.76353
617.4457, 43.09895
617.9278, 43.32147
618.4099, 43.25026
618.8920, 42.98031
619.3741, 42.73029
619.8563, 42.50470
620.3384, 42.39286
620.8205, 42.49678
621.3026, 42.74263
621.7847, 43.07777
622.2668, 43.58266
622.7490, 43.93209
623.2311, 44.00560
623.7132, 43.83890
624.1953, 43.47765
624.6774, 42.47952
625.1595, 41.85374
625.6417, 41.93860
626.1238, 42.43705
626.6059, 42.44689
627.0880, 41.73873
627.5701, 41.24889
