##NAMES=Leucosphenite
##RRUFFID=R060201
##IDEAL CHEMISTRY=Na_4_BaTi^4+^_2_B_2_Si_10_O_30_
##LOCALITY=Poudrette Quarry, Mont Saint-Hilaire, Rouville County, Quebec, Canada
##OWNER=RRUFF
##SOURCE=Royal Ontario Museum
##DESCRIPTION=Bluish-green prismatic crystal associated with small colorless albite crystals
##STATUS=The identification of this mineral has been confirmed by X-ray diffraction and chemical analysis
##URL=rruff.info/R060201
##MEASURED CHEMISTRY=(Ba_0.91_[box]_0.09_)_Σ=1_(Na_3.84_K_0.16_)_Σ=4_(Ti_1.77_Nb^5+^_0.18_Zr_0.05_)_Σ=2_B_2.00_Si_10.00_O_30_ ; B not measured but estimated by difference and charge balance
92.07813, 18.67539
92.56024, 18.52726
93.04236, 18.62195
93.52448, 18.90368
94.00659, 19.16626
94.48871, 19.36050
94.97083, 19.45086
95.45294, 19.28943
95.93506, 18.77606
96.41718, 18.17325
96.89929, 17.94647
97.38141, 18.10081
97.86353, 18.40042
98.34564, 18.90021
98.82776, 19.55975
99.30988, 19.53811
99.79199, 18.38605
100.2741, 16.56128
100.7562, 15.99311
101.2383, 17.07666
101.7205, 18.31784
102.2026, 18.16039
102.6847, 16.10881
103.1668, 14.58187
103.6489, 14.16263
104.1310, 14.87745
104.6132, 15.68252
105.0953, 16.77118
105.5774, 17.75978
106.0595, 18.14159
106.5416, 17.67185
107.0237, 16.96222
107.5059, 16.00965
107.9880, 14.47252
108.4701, 13.80272
108.9522, 14.67897
109.4343, 16.29012
109.9164, 17.17852
110.3986, 16.38788
110.8807, 15.66304
111.3628, 15.56670
111.8449, 16.71810
112.3270, 17.50820
112.8091, 17.58426
113.2913, 17.19467
113.7734, 17.04117
114.2555, 17.24628
114.7376, 17.70913
115.2197, 18.38417
115.7018, 19.62574
116.1840, 20.67110
116.6661, 20.97259
117.1482, 20.74506
117.6303, 21.10306
118.1124, 22.86553
118.5945, 25.22384
119.0767, 27.46378
119.5588, 29.01620
120.0409, 30.70267
120.5230, 32.96062
121.0051, 35.76586
121.4872, 38.83700
121.9694, 41.70173
122.4515, 44.76172
122.9336, 48.59109
123.4157, 53.69237
123.8978, 59.47636
124.3799, 65.31969
124.8621, 71.16480
125.3442, 77.51026
125.8263, 85.15519
126.3084, 93.68098
126.7905, 102.0992
127.2726, 109.9592
127.7548, 117.3218
128.2369, 124.1041
128.7190, 130.2023
129.2011, 136.1064
129.6832, 142.6305
130.1653, 149.5848
130.6474, 156.1971
131.1296, 161.6037
131.6117, 166.1779
132.0938, 171.4097
132.5759, 177.4706
133.0580, 184.2719
133.5401, 191.2087
134.0223, 198.2722
134.5044, 206.6870
134.9865, 217.5437
135.4686, 230.9109
135.9507, 244.8168
136.4328, 258.7849
136.9150, 273.4943
137.3971, 291.1772
137.8792, 312.3703
138.3613, 334.8038
138.8434, 356.8508
139.3255, 378.3524
139.8077, 399.7611
140.2898, 421.8342
140.7719, 444.0891
141.2540, 464.0682
141.7361, 481.7337
142.2182, 496.8354
142.7004, 508.9539
143.1825, 517.5563
143.6646, 524.2424
144.1467, 529.2305
144.6288, 532.6118
145.1109, 533.9280
145.5931, 532.9517
146.0752, 530.1115
146.5573, 525.7103
147.0394, 518.6627
147.5215, 511.6479
148.0036, 505.5453
148.4858, 500.6288
148.9679, 495.1863
149.4500, 489.4970
149.9321, 483.1744
150.4142, 475.7568
150.8963, 464.9126
151.3785, 455.0238
151.8606, 447.5029
152.3427, 443.0565
152.8248, 438.9447
153.3069, 434.8452
153.7890, 431.0572
154.2712, 427.0515
154.7533, 421.2975
155.2354, 416.4254
155.7175, 412.4746
156.1996, 409.4902
156.6817, 407.3736
157.1639, 406.4341
157.6460, 406.3075
158.1281, 406.2571
158.6102, 406.0048
159.0923, 405.8629
159.5744, 406.2442
160.0566, 409.1145
160.5387, 409.5259
161.0208, 405.1057
161.5029, 397.0624
161.9850, 388.8543
162.4671, 382.2754
162.9493, 375.6075
163.4314, 367.6516
163.9135, 357.3187
164.3956, 346.7032
164.8777, 336.2754
165.3598, 326.1084
165.8420, 316.5561
166.3241, 307.1229
166.8062, 298.6381
167.2883, 291.8880
167.7704, 288.0376
168.2525, 284.9674
168.7346, 281.2197
169.2168, 276.9563
169.6989, 273.2573
170.1810, 271.0678
170.6631, 269.7037
171.1452, 268.3608
171.6273, 267.1055
172.1095, 265.5263
172.5916, 262.8096
173.0737, 259.0903
173.5558, 255.9468
174.0379, 254.5466
174.5201, 254.4692
175.0022, 255.0203
175.4843, 256.1628
175.9664, 257.6926
176.4485, 259.5722
176.9306, 261.8062
177.4128, 263.7122
177.8949, 263.9515
178.3770, 263.3876
178.8591, 263.9494
179.3412, 267.1202
179.8233, 271.6417
180.3055, 275.7541
180.7876, 279.5107
181.2697, 282.6398
181.7518, 284.4641
182.2339, 285.3643
182.7160, 286.6348
183.1982, 289.5311
183.6803, 293.0866
184.1624, 294.9073
184.6445, 294.8117
185.1266, 294.1359
185.6087, 294.9839
186.0909, 296.8938
186.5730, 297.3407
187.0551, 294.5816
187.5372, 289.4502
188.0193, 284.4543
188.5014, 279.5662
188.9836, 275.0908
189.4657, 271.5608
189.9478, 268.9085
190.4299, 266.0277
190.9120, 261.9233
191.3941, 257.0007
191.8763, 253.5273
192.3584, 251.7433
192.8405, 250.8482
193.3226, 249.6179
193.8047, 248.0547
194.2868, 246.8989
194.7690, 246.6092
195.2511, 247.1304
195.7332, 247.6523
196.2153, 248.1354
196.6974, 248.6781
197.1795, 249.4426
197.6617, 250.4450
198.1438, 251.5325
198.6259, 252.7545
199.1080, 254.1082
199.5901, 255.0029
200.0722, 255.2629
200.5544, 255.3131
201.0365, 255.8444
201.5186, 256.8509
202.0007, 258.3430
202.4828, 260.6252
202.9649, 263.8112
203.4471, 266.1440
203.9292, 267.5032
204.4113, 268.1314
204.8934, 268.4536
205.3755, 268.4270
205.8576, 268.2466
206.3398, 267.9346
206.8219, 267.4413
207.3040, 267.1540
207.7861, 267.1173
208.2682, 267.2547
208.7503, 267.4507
209.2325, 267.7534
209.7146, 267.9670
210.1967, 268.2958
210.6788, 269.1212
211.1609, 268.0448
211.6430, 264.3511
212.1252, 259.2548
212.6073, 255.4631
213.0894, 253.1464
213.5715, 251.6944
214.0536, 250.8209
214.5357, 250.4390
215.0179, 251.0401
215.5000, 252.9202
215.9821, 255.5891
216.4642, 257.9169
216.9463, 259.6438
217.4284, 261.5410
217.9105, 263.9892
218.3927, 267.1039
218.8748, 270.2201
219.3569, 273.0126
219.8390, 275.9775
220.3211, 280.4348
220.8032, 287.1272
221.2854, 293.9585
221.7675, 300.0985
222.2496, 305.0540
222.7317, 310.6978
223.2138, 317.3407
223.6959, 324.5015
224.1781, 331.2355
224.6602, 337.0493
225.1423, 343.2326
225.6244, 350.3584
226.1065, 359.2327
226.5886, 366.9308
227.0708, 373.3062
227.5529, 378.6407
228.0350, 383.4658
228.5171, 387.4872
228.9992, 391.5872
229.4813, 396.2890
229.9635, 402.1772
230.4456, 406.7099
230.9277, 409.0648
231.4098, 410.4456
231.8919, 413.2845
232.3740, 418.4281
232.8562, 423.6416
233.3383, 428.1239
233.8204, 431.6530
234.3025, 435.1960
234.7846, 438.8509
235.2667, 442.4794
235.7489, 445.7918
236.2310, 448.9096
236.7131, 451.5232
237.1952, 453.6508
237.6773, 455.4442
238.1594, 455.9667
238.6416, 454.3725
239.1237, 452.0281
239.6058, 451.2423
240.0879, 453.0375
240.5700, 454.7286
241.0521, 455.4322
241.5343, 454.8859
242.0164, 454.4373
242.4985, 453.8971
242.9806, 453.5742
243.4627, 454.0425
243.9448, 456.0282
244.4270, 457.5258
244.9091, 457.6987
245.3912, 456.0714
245.8733, 455.6718
246.3554, 456.8646
246.8375, 458.9706
247.3197, 461.0817
247.8018, 462.9239
248.2839, 465.2412
248.7660, 468.1025
249.2481, 471.4489
249.7302, 475.9822
250.2124, 481.9246
250.6945, 488.8867
251.1766, 496.5775
251.6587, 505.2317
252.1408, 514.1860
252.6229, 523.3792
253.1051, 532.9197
253.5872, 542.3049
254.0693, 551.8451
254.5514, 561.0735
255.0335, 569.3878
255.5156, 576.0448
255.9978, 583.2833
256.4799, 591.9666
256.9620, 602.1000
257.4441, 610.6110
257.9262, 617.7376
258.4083, 622.9255
258.8904, 625.6346
259.3726, 625.9016
259.8547, 623.6257
260.3368, 618.6028
260.8189, 610.8929
261.3010, 601.5873
261.7831, 590.4025
262.2653, 578.1110
262.7474, 565.0262
263.2295, 549.9686
263.7116, 537.2784
264.1937, 527.7809
264.6758, 521.1368
265.1580, 514.8503
265.6401, 508.6117
266.1222, 503.4069
266.6043, 499.8060
267.0864, 497.6749
267.5685, 497.6665
268.0507, 500.4561
268.5328, 505.2769
269.0149, 509.2598
269.4970, 512.2400
269.9791, 514.8856
270.4612, 517.8507
270.9434, 521.4318
271.4255, 523.7971
271.9076, 524.7059
272.3897, 524.4285
272.8718, 523.6183
273.3539, 522.2214
273.8361, 520.4427
274.3182, 518.2388
274.8003, 515.5149
275.2824, 513.0963
275.7645, 510.9834
276.2466, 509.2326
276.7288, 507.9345
277.2109, 507.0738
277.6930, 506.7249
278.1751, 506.6177
278.6572, 506.6647
279.1393, 508.5780
279.6215, 512.3486
280.1036, 518.0048
280.5857, 525.8805
281.0678, 536.0691
281.5499, 547.2688
282.0320, 558.4247
282.5142, 569.7458
282.9963, 583.9973
283.4784, 601.7824
283.9605, 620.6628
284.4426, 637.8051
284.9247, 653.1968
285.4069, 667.6872
285.8890, 681.8598
286.3711, 695.3241
286.8532, 706.8124
287.3353, 716.2929
287.8174, 724.0016
288.2996, 730.5235
288.7817, 735.7545
289.2638, 737.8814
289.7459, 735.8912
290.2280, 730.7375
290.7101, 725.0890
291.1923, 718.9740
291.6744, 711.4045
292.1565, 701.1290
292.6386, 688.4625
293.1207, 674.8348
293.6028, 659.9717
294.0850, 644.9443
294.5671, 630.9445
295.0492, 617.9750
295.5313, 606.1408
296.0134, 595.5695
296.4955, 586.2528
296.9777, 578.3979
297.4598, 572.2657
297.9419, 567.2532
298.4240, 563.0087
298.9061, 559.4122
299.3882, 555.7131
299.8704, 551.8372
300.3525, 547.5179
300.8346, 541.9743
301.3167, 535.0057
301.7988, 527.5281
302.2809, 520.6760
302.7631, 514.1555
303.2452, 506.8449
303.7273, 497.9999
304.2094, 488.1527
304.6915, 478.2041
305.1736, 468.1324
305.6558, 457.6605
306.1379, 445.8273
306.6200, 433.4284
307.1021, 422.0118
307.5842, 412.7267
308.0663, 404.3048
308.5485, 395.0143
309.0306, 384.9464
309.5127, 375.9387
309.9948, 369.5918
310.4769, 364.9497
310.9590, 360.8160
311.4412, 356.6022
311.9233, 352.9012
312.4054, 349.9220
312.8875, 347.7023
313.3696, 346.5936
313.8517, 347.2568
314.3339, 348.8810
314.8160, 350.7638
315.2981, 352.5283
315.7802, 354.8496
316.2623, 358.5332
316.7444, 363.0899
317.2266, 367.2714
317.7087, 370.8833
318.1908, 373.6920
318.6729, 375.5777
319.1550, 376.4730
319.6371, 376.5764
320.1193, 376.4125
320.6014, 375.4378
321.0835, 372.7419
321.5656, 366.9079
322.0477, 360.2768
322.5298, 353.5129
323.0120, 346.5347
323.4941, 340.1892
323.9762, 334.2696
324.4583, 329.2060
324.9404, 325.4643
325.4225, 323.9122
325.9047, 322.8813
326.3868, 322.0237
326.8689, 321.3123
327.3510, 321.0174
327.8331, 321.6975
328.3152, 322.4899
328.7974, 322.7979
329.2795, 322.2027
329.7616, 321.6105
330.2437, 321.1180
330.7258, 320.6968
331.2079, 320.1617
331.6901, 319.2607
332.1722, 318.4899
332.6543, 318.0408
333.1364, 317.6157
333.6185, 318.0492
334.1006, 319.3492
334.5828, 321.5081
335.0649, 324.5834
335.5470, 329.1346
336.0291, 333.6528
336.5112, 337.3917
336.9933, 340.0681
337.4755, 343.5459
337.9576, 347.9181
338.4397, 352.9398
338.9218, 358.3308
339.4039, 363.9785
339.8860, 370.2741
340.3681, 377.4585
340.8503, 385.5013
341.3324, 392.8626
341.8145, 399.2843
342.2966, 405.9959
342.7787, 414.1729
343.2608, 423.7422
343.7430, 434.8853
344.2251, 447.6991
344.7072, 461.9878
345.1893, 476.9002
345.6714, 492.5863
346.1535, 508.6615
346.6357, 524.6752
347.1178, 540.7819
347.5999, 558.2854
348.0820, 578.1043
348.5641, 597.8619
349.0462, 614.0254
349.5284, 626.8287
350.0105, 638.6308
350.4926, 652.1270
350.9747, 665.3124
351.4568, 673.7006
351.9389, 677.0005
352.4211, 676.5020
352.9032, 672.9435
353.3853, 666.5402
353.8674, 657.7823
354.3495, 645.9448
354.8316, 632.4385
355.3138, 618.6024
355.7959, 604.4650
356.2780, 590.3510
356.7601, 575.6791
357.2422, 561.2942
357.7243, 548.0385
358.2065, 535.8282
358.6886, 525.5266
359.1707, 518.1388
359.6528, 513.2481
360.1349, 509.6024
360.6170, 507.0739
361.0992, 505.2471
361.5813, 503.7847
362.0634, 502.5558
362.5455, 501.9996
363.0276, 502.6303
363.5097, 503.9711
363.9919, 505.3140
364.4740, 505.6671
364.9561, 506.6830
365.4382, 509.2145
365.9203, 513.4288
366.4024, 517.6371
366.8846, 521.4874
367.3667, 525.2389
367.8488, 529.1026
368.3309, 533.0503
368.8130, 537.1785
369.2951, 541.3596
369.7773, 545.7018
370.2594, 550.7203
370.7415, 556.6899
371.2236, 563.1264
371.7057, 569.8963
372.1878, 577.2074
372.6700, 584.4599
373.1521, 591.2640
373.6342, 598.1231
374.1163, 606.0850
374.5984, 615.6493
375.0805, 625.2263
375.5627, 634.5432
376.0448, 643.6959
376.5269, 651.5317
377.0090, 657.5578
377.4911, 663.2263
377.9732, 670.7863
378.4554, 680.7935
378.9375, 688.6910
379.4196, 693.2122
379.9017, 695.1011
380.3838, 696.7471
380.8659, 697.9827
381.3481, 700.1969
381.8302, 704.3528
382.3123, 710.3789
382.7944, 717.8115
383.2765, 726.8152
383.7586, 736.8402
384.2408, 746.8911
384.7229, 757.1151
385.2050, 769.0126
385.6871, 783.1280
386.1692, 799.2866
386.6513, 817.8089
387.1335, 838.5616
387.6156, 861.3209
388.0977, 886.2547
388.5798, 912.6771
389.0619, 939.7780
389.5440, 967.5107
390.0262, 995.2360
390.5083, 1024.344
390.9904, 1054.070
391.4725, 1079.575
391.9546, 1099.772
392.4367, 1113.558
392.9189, 1120.529
393.4010, 1121.315
393.8831, 1113.000
394.3652, 1091.265
394.8473, 1060.108
395.3294, 1025.789
395.8116, 985.8825
396.2937, 947.4802
396.7758, 912.7606
397.2579, 881.7393
397.7400, 855.9684
398.2221, 836.7057
398.7043, 822.5567
399.1864, 812.4841
399.6685, 807.4209
400.1506, 805.2654
400.6327, 806.0566
401.1148, 809.6281
401.5970, 815.3978
402.0791, 824.4942
402.5612, 834.3930
403.0433, 844.1857
403.5254, 854.3135
404.0075, 863.1788
404.4897, 870.9181
404.9718, 877.3137
405.4539, 882.0311
405.9360, 885.0575
406.4181, 886.4958
406.9002, 886.2419
407.3824, 884.3912
407.8645, 881.6464
408.3466, 877.9016
408.8287, 873.6472
409.3108, 868.9300
409.7929, 863.8179
410.2751, 859.4904
410.7572, 855.9548
411.2393, 853.4647
411.7214, 852.6066
412.2035, 853.3110
412.6856, 855.1153
413.1678, 857.3983
413.6499, 860.6585
414.1320, 866.1187
414.6141, 873.9572
415.0962, 883.1977
415.5783, 893.8776
416.0605, 905.2719
416.5426, 916.1682
417.0247, 925.1505
417.5068, 934.4033
417.9889, 946.3046
418.4710, 960.3207
418.9532, 974.3108
419.4353, 986.9525
419.9174, 999.0461
420.3995, 1011.147
420.8816, 1023.818
421.3637, 1035.585
421.8459, 1046.623
422.3280, 1056.191
422.8101, 1063.304
423.2922, 1067.310
423.7743, 1069.074
424.2564, 1068.849
424.7386, 1066.679
425.2207, 1062.202
425.7028, 1054.906
426.1849, 1045.619
426.6670, 1034.968
427.1491, 1024.151
427.6313, 1010.081
428.1134, 991.5823
428.5955, 970.0342
429.0776, 949.1628
429.5597, 928.9084
430.0418, 908.9429
430.5240, 888.7098
431.0061, 868.1509
431.4882, 849.1682
431.9703, 832.0803
432.4524, 816.1111
432.9345, 800.3158
433.4167, 784.7250
433.8988, 769.9578
434.3809, 756.3223
434.8630, 743.7906
435.3451, 733.0359
435.8272, 723.9871
436.3094, 714.5901
436.7915, 703.8513
437.2736, 691.6637
437.7557, 677.6893
438.2378, 661.6469
438.7199, 644.9725
439.2020, 628.8860
439.6841, 613.2505
440.1663, 597.7844
440.6484, 582.7822
441.1305, 567.5364
441.6126, 551.0082
442.0947, 533.4851
442.5768, 517.1727
443.0590, 504.0947
443.5411, 492.1718
444.0232, 479.7519
444.5053, 466.1712
444.9874, 452.7919
445.4695, 439.5797
445.9517, 427.0677
446.4338, 415.9793
446.9159, 407.2125
447.3980, 399.1034
447.8801, 391.3265
448.3622, 383.8231
448.8444, 376.8101
449.3265, 370.6015
449.8086, 364.5909
450.2907, 358.2755
450.7728, 350.8985
451.2549, 344.8564
451.7371, 340.6247
452.2192, 337.6332
452.7013, 334.6302
453.1834, 331.4932
453.6655, 328.9063
454.1476, 327.2884
454.6298, 326.5609
455.1119, 326.0077
455.5940, 325.7646
456.0761, 324.9867
456.5582, 322.3096
457.0403, 318.1573
457.5225, 315.0102
458.0046, 313.7910
458.4867, 313.1055
458.9688, 310.6956
459.4509, 306.9384
459.9330, 303.5004
460.4152, 301.7015
460.8973, 300.4835
461.3794, 298.4787
461.8615, 295.5705
462.3436, 292.7969
462.8257, 290.8887
463.3079, 289.4405
463.7900, 288.0029
464.2721, 286.5693
464.7542, 284.9509
465.2363, 282.7389
465.7184, 280.2456
466.2006, 278.3555
466.6827, 277.8716
467.1648, 277.5224
467.6469, 276.7826
468.1290, 275.4812
468.6111, 274.3375
469.0933, 272.8643
469.5754, 271.8850
470.0575, 272.1452
470.5396, 274.0591
471.0217, 276.3709
471.5038, 278.9479
471.9860, 281.8383
472.4681, 285.2446
472.9502, 289.1943
473.4323, 293.5812
473.9144, 298.0662
474.3965, 302.7041
474.8787, 309.0720
475.3608, 317.3800
475.8429, 326.2984
476.3250, 333.9986
476.8071, 340.8117
477.2892, 348.6713
477.7714, 358.7146
478.2535, 368.9343
478.7356, 376.4819
479.2177, 381.6366
479.6998, 385.4581
480.1819, 388.7617
480.6641, 391.0126
481.1462, 391.1761
481.6283, 389.0628
482.1104, 387.0096
482.5925, 385.9344
483.0746, 385.8056
483.5568, 386.5918
484.0389, 387.5629
484.5210, 390.2330
485.0031, 395.1857
485.4852, 402.1668
485.9673, 410.5412
486.4495, 420.7553
486.9316, 431.7496
487.4137, 442.7604
487.8958, 453.2442
488.3779, 466.7065
488.8600, 483.8512
489.3422, 503.3304
489.8243, 524.3122
490.3064, 546.6377
490.7885, 570.3604
491.2706, 595.8478
491.7527, 622.3925
492.2349, 649.0215
492.7170, 675.4901
493.1991, 702.2840
493.6812, 729.7188
494.1633, 757.4079
494.6454, 785.4990
495.1276, 813.9525
495.6097, 839.2518
496.0918, 858.2106
496.5739, 871.4789
497.0560, 879.7745
497.5381, 883.5920
498.0203, 882.3336
498.5024, 874.3613
498.9845, 860.9753
499.4666, 844.8248
499.9487, 826.0759
500.4308, 805.9205
500.9130, 784.4789
501.3951, 761.8904
501.8772, 739.9064
502.3593, 718.5647
502.8414, 698.6126
503.3235, 680.2772
503.8057, 662.8552
504.2878, 648.4532
504.7699, 637.7936
505.2520, 629.8790
505.7341, 623.3608
506.2162, 619.5253
506.6984, 614.5955
507.1805, 607.9081
507.6626, 599.3924
508.1447, 588.4142
508.6268, 574.9318
509.1089, 559.1261
509.5911, 540.4625
510.0732, 519.1853
510.5553, 497.7007
511.0374, 475.9390
511.5195, 455.0413
512.0016, 435.9971
512.4838, 418.8874
512.9659, 404.4436
513.4480, 393.2736
513.9301, 384.1402
514.4122, 375.4614
514.8943, 367.4757
515.3765, 361.1904
515.8586, 358.3588
516.3407, 356.6486
516.8228, 354.1495
517.3049, 350.3379
517.7870, 347.3210
518.2692, 346.3109
518.7513, 346.2344
519.2334, 346.0702
519.7155, 345.8096
520.1976, 345.2674
520.6797, 344.0731
521.1619, 342.6008
521.6440, 341.9784
522.1261, 342.6049
522.6082, 343.3892
523.0903, 343.9767
523.5724, 344.3662
524.0546, 344.6482
524.5367, 344.6870
525.0188, 345.0481
525.5009, 346.4693
525.9830, 348.8492
526.4651, 350.7949
526.9473, 351.9746
527.4294, 353.0783
527.9115, 355.1544
528.3936, 357.9892
528.8757, 360.9306
529.3578, 363.2834
529.8400, 365.8090
530.3221, 369.2966
530.8042, 373.6623
531.2863, 378.5880
531.7684, 384.3471
532.2505, 390.2552
532.7327, 395.7170
533.2148, 400.5109
533.6969, 405.2584
534.1790, 409.7876
534.6611, 414.4632
535.1432, 419.6090
535.6254, 424.7847
536.1075, 431.1947
536.5896, 439.2740
537.0717, 448.6718
537.5538, 457.7798
538.0359, 466.6042
538.5181, 475.3180
539.0002, 484.0890
539.4823, 492.8835
539.9644, 501.4146
540.4465, 509.4821
540.9286, 518.2988
541.4108, 529.2007
541.8929, 541.9338
542.3750, 555.1166
542.8571, 568.7198
543.3392, 582.0472
543.8214, 593.8725
544.3035, 604.7951
544.7856, 616.6848
545.2677, 630.4760
545.7498, 645.4420
546.2319, 660.9280
546.7141, 676.9799
547.1962, 693.9241
547.6783, 712.8809
548.1604, 731.9141
548.6425, 750.1072
549.1246, 766.6222
549.6068, 784.1855
550.0889, 804.1171
550.5710, 824.5457
551.0531, 843.7158
551.5352, 860.8926
552.0173, 878.5641
552.4995, 897.3696
552.9816, 916.4327
553.4637, 933.2880
553.9458, 947.7594
554.4279, 961.2811
554.9100, 974.4999
555.3922, 987.2568
555.8743, 998.8416
556.3564, 1009.164
556.8385, 1018.842
557.3206, 1027.885
557.8027, 1036.682
558.2849, 1046.097
558.7670, 1056.317
559.2491, 1066.896
559.7312, 1077.625
560.2133, 1088.371
560.6954, 1098.932
561.1776, 1108.463
561.6597, 1118.449
562.1418, 1130.309
562.6239, 1143.249
563.1060, 1154.149
563.5881, 1162.268
564.0703, 1168.675
564.5524, 1174.010
565.0345, 1178.386
565.5166, 1179.874
565.9987, 1178.710
566.4808, 1174.254
566.9630, 1165.767
567.4451, 1153.174
567.9272, 1137.997
568.4093, 1120.222
568.8914, 1099.953
569.3735, 1076.818
569.8557, 1051.114
570.3378, 1023.053
570.8199, 992.6335
571.3020, 960.3321
571.7841, 926.3349
572.2662, 891.1465
572.7484, 856.7803
573.2305, 823.3896
573.7126, 791.5960
574.1947, 761.5158
574.6768, 733.4588
575.1589, 706.2376
575.6411, 679.7849
576.1232, 654.3508
576.6053, 630.4696
577.0874, 607.9750
577.5695, 587.3881
578.0516, 569.3843
578.5338, 553.0582
579.0159, 536.8646
579.4980, 520.9766
579.9801, 505.4036
580.4622, 490.0486
580.9443, 475.0732
581.4265, 461.4115
581.9086, 449.0644
582.3907, 437.8041
582.8728, 427.4556
