##NAMES=Leucosphenite
##RRUFFID=R060201
##IDEAL CHEMISTRY=Na_4_BaTi^4+^_2_B_2_Si_10_O_30_
##LOCALITY=Poudrette Quarry, Mont Saint-Hilaire, Rouville County, Quebec, Canada
##OWNER=RRUFF
##SOURCE=Royal Ontario Museum
##DESCRIPTION=Bluish-green prismatic crystal associated with small colorless albite crystals
##STATUS=The identification of this mineral has been confirmed by X-ray diffraction and chemical analysis
##URL=rruff.info/R060201
##MEASURED CHEMISTRY=(Ba_0.91_[box]_0.09_)_Σ=1_(Na_3.84_K_0.16_)_Σ=4_(Ti_1.77_Nb^5+^_0.18_Zr_0.05_)_Σ=2_B_2.00_Si_10.00_O_30_ ; B not measured but estimated by difference and charge balance
91.82715, 410.6245
92.30927, 407.2418
92.79138, 408.0677
93.27350, 409.4720
93.75562, 409.8431
94.23773, 410.0049
94.71985, 410.4578
95.20197, 409.6019
95.68408, 407.0548
96.16620, 403.2316
96.64832, 398.5471
97.13043, 392.9212
97.61255, 387.3905
98.09467, 383.7411
98.57678, 383.2778
99.05890, 380.1501
99.54102, 373.0107
100.0231, 364.4791
100.5052, 356.8087
100.9874, 351.0543
101.4695, 346.7659
101.9516, 342.0721
102.4337, 334.2330
102.9158, 328.6738
103.3979, 327.2145
103.8801, 328.6459
104.3622, 330.8360
104.8443, 332.2274
105.3264, 332.8104
105.8085, 332.1979
106.2906, 329.4709
106.7728, 326.4606
107.2549, 323.6490
107.7370, 321.2425
108.2191, 320.0802
108.7012, 321.6213
109.1833, 326.0777
109.6655, 329.8293
110.1476, 331.5816
110.6297, 332.5580
111.1118, 334.9124
111.5939, 339.6642
112.0760, 344.5403
112.5582, 347.4133
113.0403, 348.4362
113.5224, 347.9932
114.0045, 345.7939
114.4866, 341.9132
114.9688, 338.1224
115.4509, 334.7866
115.9330, 331.6374
116.4151, 328.3181
116.8972, 324.8228
117.3793, 321.6432
117.8615, 319.5399
118.3436, 319.0551
118.8257, 318.3764
119.3078, 317.2290
119.7899, 315.8652
120.2720, 314.4707
120.7542, 313.1192
121.2363, 311.7630
121.7184, 310.2526
122.2005, 308.3267
122.6826, 306.5232
123.1647, 304.9202
123.6468, 303.4496
124.1290, 301.9860
124.6111, 300.4177
125.0932, 298.8055
125.5753, 297.6805
126.0574, 296.9777
126.5395, 296.6657
127.0217, 296.9552
127.5038, 297.7299
127.9859, 298.4354
128.4680, 298.6162
128.9501, 298.3697
129.4323, 298.3646
129.9144, 299.0257
130.3965, 299.7303
130.8786, 299.5367
131.3607, 298.1317
131.8428, 297.1707
132.3250, 298.4044
132.8071, 300.9665
133.2892, 303.4197
133.7713, 305.1084
134.2534, 306.2060
134.7355, 307.3046
135.2177, 308.2944
135.6998, 309.4588
136.1819, 310.9361
136.6640, 312.6732
137.1461, 314.5309
137.6282, 316.5172
138.1104, 318.6823
138.5925, 320.4051
139.0746, 320.7876
139.5567, 321.4637
140.0388, 323.2775
140.5209, 326.1168
141.0031, 329.2290
141.4852, 331.7198
141.9673, 333.3161
142.4494, 334.9653
142.9315, 336.8200
143.4136, 338.6127
143.8958, 340.0786
144.3779, 341.1799
144.8600, 342.2366
145.3421, 343.7916
145.8242, 346.3113
146.3063, 348.4685
146.7885, 349.6574
147.2706, 350.6412
147.7527, 352.6754
148.2348, 356.4105
148.7169, 360.5645
149.1990, 362.4851
149.6812, 362.3057
150.1633, 360.8054
150.6454, 357.5411
151.1275, 353.0201
151.6096, 348.9473
152.0917, 346.1628
152.5739, 343.9201
153.0560, 340.9014
153.5381, 336.8401
154.0202, 332.8787
154.5023, 329.9117
154.9844, 327.9648
155.4665, 326.5455
155.9487, 325.5162
156.4308, 324.9929
156.9129, 325.1302
157.3950, 325.9825
157.8771, 327.4287
158.3592, 329.3259
158.8414, 331.7030
159.3235, 334.5005
159.8056, 338.8183
160.2877, 342.9897
160.7698, 345.4962
161.2519, 345.6392
161.7341, 343.9479
162.2162, 342.0074
162.6983, 340.4562
163.1804, 337.6230
163.6625, 332.5140
164.1446, 326.2896
164.6268, 320.2067
165.1089, 314.8973
165.5910, 310.4278
166.0731, 307.1677
166.5552, 306.3215
167.0373, 305.3607
167.5195, 303.8330
168.0016, 301.8173
168.4837, 299.4460
168.9658, 296.7231
169.4479, 293.7136
169.9300, 291.5949
170.4122, 290.9854
170.8943, 290.4726
171.3764, 289.8208
171.8585, 288.8598
172.3406, 286.8528
172.8227, 282.7135
173.3049, 276.9167
173.7870, 273.2664
174.2691, 272.8510
174.7512, 273.7776
175.2333, 274.7891
175.7154, 275.8466
176.1976, 276.8014
176.6797, 277.5523
177.1618, 278.1089
177.6439, 278.4536
178.1260, 278.1768
178.6081, 277.8341
179.0903, 278.2362
179.5724, 279.4516
180.0545, 281.2413
180.5366, 284.1125
181.0187, 287.3691
181.5008, 289.7930
181.9830, 290.4304
182.4651, 289.8847
182.9472, 290.1242
183.4293, 291.8379
183.9114, 293.2705
184.3935, 293.6751
184.8757, 293.3316
185.3578, 292.7327
185.8399, 292.2370
186.3220, 291.7890
186.8041, 290.8067
187.2862, 288.9652
187.7684, 286.8577
188.2505, 284.6518
188.7326, 282.3203
189.2147, 279.7373
189.6968, 276.7478
190.1789, 273.3079
190.6611, 270.3574
191.1432, 268.0994
191.6253, 266.1034
192.1074, 264.4128
192.5895, 262.9088
193.0716, 261.2831
193.5538, 259.1778
194.0359, 256.3795
194.5180, 254.9349
195.0001, 255.8363
195.4822, 256.8533
195.9643, 256.8087
196.4465, 255.8114
196.9286, 254.7633
197.4107, 254.4938
197.8928, 255.1256
198.3749, 255.8128
198.8570, 257.1819
199.3392, 258.1389
199.8213, 257.5024
200.3034, 255.3408
200.7855, 253.2928
201.2676, 252.8207
201.7497, 254.0871
202.2319, 255.8430
202.7140, 259.0262
203.1961, 262.1219
203.6782, 263.2994
204.1603, 262.2853
204.6424, 261.2501
205.1246, 262.6283
205.6067, 265.8316
206.0888, 268.0613
206.5709, 267.9162
207.0530, 266.8268
207.5351, 266.8694
208.0173, 268.4441
208.4994, 270.1537
208.9815, 271.1732
209.4636, 271.5466
209.9457, 271.1328
210.4278, 269.8569
210.9100, 267.7594
211.3921, 264.6728
211.8742, 259.9986
212.3563, 255.6441
212.8384, 252.7204
213.3205, 250.8523
213.8027, 249.4565
214.2848, 248.3963
214.7669, 247.5781
215.2490, 246.6202
215.7311, 245.1487
216.2132, 244.1617
216.6954, 244.4632
217.1775, 245.4239
217.6596, 245.9263
218.1417, 245.1338
218.6238, 243.3270
219.1059, 242.1221
219.5881, 241.2279
220.0702, 241.4802
220.5523, 244.0602
221.0344, 247.7530
221.5165, 250.6352
221.9986, 251.3316
222.4808, 250.0904
222.9629, 249.2374
223.4450, 249.0180
223.9271, 248.9863
224.4092, 249.1745
224.8913, 249.4748
225.3735, 249.6923
225.8556, 249.6658
226.3377, 249.4491
226.8198, 249.6865
227.3019, 251.4722
227.7840, 252.5634
228.2662, 251.6438
228.7483, 249.7410
229.2304, 248.8350
229.7125, 250.3377
230.1946, 253.8944
230.6767, 255.5526
231.1589, 253.8415
231.6410, 252.0191
232.1231, 250.6258
232.6052, 249.7032
233.0873, 249.2056
233.5694, 249.1157
234.0516, 249.4185
234.5337, 250.0506
235.0158, 251.3292
235.4979, 252.5272
235.9800, 253.5416
236.4621, 254.3186
236.9443, 254.7421
237.4264, 254.7100
237.9085, 254.3111
238.3906, 253.9476
238.8727, 252.6236
239.3548, 252.3855
239.8370, 254.8512
240.3191, 259.0139
240.8012, 262.3336
241.2833, 263.4277
241.7654, 262.9995
242.2475, 263.1628
242.7297, 263.9426
243.2118, 265.1245
243.6939, 266.7710
244.1760, 268.7721
244.6581, 270.8440
245.1402, 272.9633
245.6224, 274.9595
246.1045, 276.3919
246.5866, 276.8623
247.0687, 277.8634
247.5508, 280.7346
248.0329, 284.8900
248.5151, 288.1151
248.9972, 289.1642
249.4793, 289.5974
249.9614, 291.8884
250.4435, 296.3470
250.9256, 300.5463
251.4078, 303.1275
251.8899, 304.3115
252.3720, 305.1164
252.8541, 305.6939
253.3362, 306.0582
253.8183, 306.3541
254.3005, 306.5875
254.7826, 306.4326
255.2647, 305.5382
255.7468, 304.0283
256.2289, 302.4691
256.7110, 300.7039
257.1931, 299.2809
257.6753, 298.8118
258.1574, 299.1445
258.6395, 299.3044
259.1216, 298.4177
259.6037, 296.7291
260.0858, 295.7067
260.5680, 296.1852
261.0501, 296.3682
261.5322, 294.6844
262.0143, 291.7341
262.4964, 289.3419
262.9785, 288.9178
263.4607, 290.1474
263.9428, 291.1052
264.4249, 291.2516
264.9070, 291.9437
265.3891, 294.0640
265.8712, 297.1176
266.3534, 300.0821
266.8355, 302.2408
267.3176, 303.8421
267.7997, 306.1442
268.2818, 310.2863
268.7639, 313.3051
269.2461, 313.9016
269.7282, 312.9318
270.2103, 311.6806
270.6924, 310.9021
271.1745, 310.2133
271.6566, 308.2374
272.1388, 304.0491
272.6209, 300.1224
273.1030, 297.1944
273.5851, 294.8083
274.0672, 292.5371
274.5493, 290.1995
275.0315, 287.7595
275.5136, 285.0568
275.9957, 281.5873
276.4778, 278.8420
276.9599, 277.0847
277.4420, 276.0177
277.9242, 275.3478
278.4063, 274.9691
278.8884, 275.0280
279.3705, 275.8136
279.8526, 277.4534
280.3347, 279.6241
280.8169, 282.3683
281.2990, 285.4703
281.7811, 288.8303
282.2632, 292.4011
282.7453, 296.0946
283.2274, 299.6827
283.7096, 302.7854
284.1917, 306.7943
284.6738, 311.8340
285.1559, 317.5672
285.6380, 324.0282
286.1201, 331.0770
286.6023, 338.3634
287.0844, 345.6202
287.5665, 352.9497
288.0486, 359.6017
288.5307, 366.4051
289.0128, 371.8606
289.4950, 375.3019
289.9771, 376.7223
290.4592, 376.3960
290.9413, 374.4991
291.4234, 370.9876
291.9055, 366.5302
292.3877, 361.2841
292.8698, 354.9477
293.3519, 346.6037
293.8340, 337.0523
294.3161, 327.8640
294.7982, 320.1787
295.2804, 313.8670
295.7625, 307.6494
296.2446, 300.7850
296.7267, 294.8340
297.2088, 289.9487
297.6909, 286.2119
298.1731, 284.0272
298.6552, 283.6986
299.1373, 284.6111
299.6194, 284.4154
300.1015, 281.5320
300.5836, 279.4120
301.0658, 278.6247
301.5479, 278.6198
302.0300, 279.0275
302.5121, 279.6696
302.9942, 280.1553
303.4763, 279.6458
303.9585, 277.5031
304.4406, 275.2194
304.9227, 273.1203
305.4048, 270.7262
305.8869, 267.3360
306.3690, 262.9297
306.8512, 258.4120
307.3333, 255.0866
307.8154, 253.5367
308.2975, 251.7046
308.7796, 249.2707
309.2617, 246.8485
309.7439, 244.9194
310.2260, 243.4311
310.7081, 241.9190
311.1902, 239.8866
311.6723, 237.1753
312.1544, 235.0131
312.6366, 233.2677
313.1187, 232.0886
313.6008, 231.6869
314.0829, 231.9121
314.5650, 232.4255
315.0471, 232.9812
315.5293, 233.5975
316.0114, 234.5271
316.4935, 236.3496
316.9756, 237.8451
317.4577, 238.7814
317.9398, 239.2206
318.4220, 239.1825
318.9041, 238.6577
319.3862, 237.8529
319.8683, 237.4315
320.3504, 238.0835
320.8326, 238.2486
321.3147, 237.4772
321.7968, 236.3759
322.2789, 235.5812
322.7610, 235.2913
323.2431, 235.1585
323.7253, 234.5285
324.2074, 232.6844
324.6895, 231.8029
325.1716, 232.2526
325.6537, 233.2348
326.1358, 234.4628
326.6180, 235.7563
327.1001, 236.7961
327.5822, 237.1979
328.0643, 236.8102
328.5464, 236.5471
329.0285, 236.9653
329.5107, 236.9690
329.9928, 235.9891
330.4749, 234.1849
330.9570, 231.9779
331.4391, 229.5933
331.9212, 227.0907
332.4034, 225.3714
332.8855, 225.6146
333.3676, 225.3744
333.8497, 223.6196
334.3318, 221.2431
334.8139, 219.6677
335.2961, 219.6389
335.7782, 220.4578
336.2603, 220.0141
336.7424, 216.7372
337.2245, 214.5411
337.7066, 214.0010
338.1888, 214.3855
338.6709, 215.1482
339.1530, 216.1053
339.6351, 217.2731
340.1172, 218.8407
340.5993, 221.4427
341.0815, 222.7565
341.5636, 221.7018
342.0457, 220.4343
342.5278, 219.9734
343.0099, 220.4268
343.4920, 221.4626
343.9742, 222.8050
344.4563, 224.4556
344.9384, 226.3740
345.4205, 229.6002
345.9026, 232.0504
346.3847, 232.4088
346.8669, 231.6631
347.3490, 231.7033
347.8311, 233.8154
348.3132, 237.2920
348.7953, 239.1802
349.2774, 238.1818
349.7596, 237.5852
350.2417, 238.0022
350.7238, 239.0613
351.2059, 240.5375
351.6880, 242.3422
352.1701, 244.1684
352.6523, 245.5541
353.1344, 246.5377
353.6165, 246.9340
354.0986, 246.3403
354.5807, 245.4692
355.0628, 244.7712
355.5450, 244.2431
356.0271, 243.5274
356.5092, 242.3392
356.9913, 240.6903
357.4734, 238.4361
357.9555, 234.4502
358.4377, 231.1592
358.9198, 230.0237
359.4019, 230.2759
359.8840, 230.2872
360.3661, 228.9497
360.8482, 226.8353
361.3304, 225.8088
361.8125, 226.5359
362.2946, 226.8875
362.7767, 225.9568
363.2588, 224.3872
363.7409, 222.6056
364.2231, 220.6278
364.7052, 219.0984
365.1873, 219.1439
365.6694, 220.9803
366.1515, 222.3885
366.6336, 222.7050
367.1158, 222.5197
367.5979, 222.2143
368.0800, 221.8149
368.5621, 221.2816
369.0442, 220.3068
369.5263, 219.0911
370.0085, 218.6672
370.4906, 219.3538
370.9727, 220.4261
371.4548, 221.6585
371.9369, 222.8854
372.4190, 223.6778
372.9012, 223.2806
373.3833, 222.7387
373.8654, 224.0149
374.3475, 227.3858
374.8296, 230.1440
375.3117, 230.4940
375.7939, 229.6195
376.2760, 229.2413
376.7581, 229.5212
377.2402, 230.2771
377.7223, 231.6763
378.2044, 233.5287
378.6866, 234.9375
379.1687, 235.4836
379.6508, 235.8015
380.1329, 236.8595
380.6150, 238.6352
381.0971, 239.9868
381.5793, 239.7986
382.0614, 239.2860
382.5435, 240.4206
383.0256, 243.4965
383.5077, 246.7459
383.9898, 248.7799
384.4720, 249.7230
384.9541, 250.9293
385.4362, 252.6164
385.9183, 254.4057
386.4004, 255.9706
386.8825, 257.4193
387.3647, 259.1769
387.8468, 261.4751
388.3289, 264.1390
388.8110, 266.7923
389.2931, 269.7414
389.7752, 272.1008
390.2574, 273.0680
390.7395, 273.6232
391.2216, 275.1003
391.7037, 277.7578
392.1858, 280.6581
392.6679, 282.7508
393.1501, 283.9230
393.6322, 284.6027
394.1143, 285.2610
394.5964, 285.0621
395.0785, 283.3033
395.5606, 280.2443
396.0428, 276.6184
396.5249, 272.8045
397.0070, 268.9192
397.4891, 265.4632
397.9712, 262.4756
398.4533, 259.9285
398.9355, 257.7962
399.4176, 256.1101
399.8997, 255.0418
400.3818, 254.6006
400.8639, 254.3635
401.3460, 253.6333
401.8282, 252.0267
402.3103, 251.0128
402.7924, 250.3646
403.2745, 250.4074
403.7566, 251.5318
404.2387, 253.5312
404.7209, 255.8829
405.2030, 258.2645
405.6851, 260.6292
406.1672, 262.5087
406.6493, 263.8127
407.1314, 264.6850
407.6136, 264.9119
408.0957, 264.8841
408.5778, 265.0174
409.0599, 265.4592
409.5420, 266.0685
410.0241, 266.8224
410.5063, 267.8946
410.9884, 268.1481
411.4705, 266.4809
411.9526, 264.7143
412.4347, 263.4496
412.9168, 262.8997
413.3990, 263.5683
413.8811, 266.4275
414.3632, 270.8431
414.8453, 274.5422
415.3274, 277.5702
415.8095, 279.7513
416.2917, 280.4788
416.7738, 280.4615
417.2559, 280.6299
417.7380, 281.3643
418.2201, 282.0059
418.7022, 281.6101
419.1844, 280.3353
419.6665, 279.7657
420.1486, 280.6170
420.6307, 282.0468
421.1128, 282.8596
421.5949, 283.0547
422.0771, 283.7009
422.5592, 285.4244
423.0413, 287.7089
423.5234, 289.9641
424.0055, 292.1216
424.4876, 294.0974
424.9698, 295.8584
425.4519, 297.3510
425.9340, 298.4627
426.4161, 299.5268
426.8982, 299.8801
427.3803, 299.1557
427.8625, 297.5048
428.3446, 295.1075
428.8267, 291.9718
429.3088, 288.5106
429.7909, 285.4294
430.2730, 282.9208
430.7552, 280.3888
431.2373, 278.0015
431.7194, 275.4747
432.2015, 272.5597
432.6836, 269.2936
433.1657, 265.7130
433.6479, 261.6646
434.1300, 257.3340
434.6121, 255.2017
435.0942, 258.2536
435.5763, 260.0838
436.0584, 258.9005
436.5406, 256.3032
437.0227, 254.0825
437.5048, 252.8781
437.9869, 252.2281
438.4690, 251.4660
438.9511, 250.5989
439.4333, 249.5947
439.9154, 249.2449
440.3975, 248.0220
440.8796, 244.5511
441.3617, 239.5433
441.8438, 234.9112
442.3260, 231.9598
442.8081, 230.2826
443.2902, 228.7572
443.7723, 227.6259
444.2544, 226.0100
444.7365, 223.1221
445.2187, 219.8662
445.7008, 216.9931
446.1829, 214.6445
446.6650, 212.7578
447.1471, 211.4971
447.6292, 210.7393
448.1114, 209.8005
448.5935, 208.5955
449.0756, 207.1679
449.5577, 205.3375
450.0398, 203.2810
450.5219, 201.5473
451.0041, 200.2850
451.4862, 199.4110
451.9683, 198.9098
452.4504, 198.7566
452.9325, 198.7592
453.4146, 198.7441
453.8968, 198.9465
454.3789, 200.1681
454.8610, 203.0407
455.3431, 204.7796
455.8252, 204.0674
456.3073, 202.2843
456.7895, 200.7183
457.2716, 199.6158
457.7537, 198.9500
458.2358, 198.7901
458.7179, 199.1368
459.2000, 198.9663
459.6822, 197.6551
460.1643, 196.6328
460.6464, 196.4008
461.1285, 196.6624
461.6106, 196.9996
462.0927, 197.2528
462.5748, 197.5288
463.0569, 198.0515
463.5391, 199.0277
464.0212, 199.6729
464.5033, 199.7608
464.9854, 199.7497
465.4675, 199.6764
465.9496, 199.6779
466.4318, 200.0261
466.9139, 200.9468
467.3960, 202.2756
467.8781, 203.5171
468.3602, 204.6763
468.8423, 205.7463
469.3245, 206.0256
469.8066, 206.6611
470.2887, 208.8385
470.7708, 212.6935
471.2529, 216.8139
471.7350, 219.6353
472.2172, 221.7641
472.6993, 225.4231
473.1814, 230.8505
473.6635, 237.6814
474.1456, 246.5586
474.6277, 256.6271
475.1099, 265.8622
475.5920, 273.2088
476.0741, 280.5408
476.5562, 289.8793
477.0383, 300.2735
477.5204, 309.3706
478.0026, 316.5125
478.4847, 321.4014
478.9668, 323.5548
479.4489, 322.8746
479.9310, 319.3391
480.4131, 311.4145
480.8953, 301.9093
481.3774, 292.1103
481.8595, 282.3629
482.3416, 273.0222
482.8237, 264.2129
483.3058, 256.0670
483.7880, 248.9785
484.2701, 243.2923
484.7522, 238.3046
485.2343, 233.6291
485.7164, 229.8313
486.1985, 227.4284
486.6807, 226.3994
487.1628, 226.2953
487.6449, 226.7419
488.1270, 227.7462
488.6091, 229.4199
489.0912, 232.2324
489.5734, 234.9903
490.0555, 237.4107
490.5376, 239.5609
491.0197, 241.1459
491.5018, 241.9978
491.9839, 243.6342
492.4661, 248.1600
492.9482, 255.2247
493.4303, 261.5878
493.9124, 266.8119
494.3945, 271.2608
494.8766, 274.8700
495.3588, 277.9114
495.8409, 281.0252
496.3230, 284.2257
496.8051, 287.6891
497.2872, 291.7885
497.7693, 296.3115
498.2515, 300.4183
498.7336, 303.7102
499.2157, 306.6736
499.6978, 310.1460
500.1799, 314.3430
500.6620, 318.2318
501.1442, 321.2591
501.6263, 324.3680
502.1084, 327.9638
502.5905, 332.2070
503.0726, 337.4669
503.5547, 344.0377
504.0369, 351.5920
504.5190, 359.0467
505.0011, 366.6011
505.4832, 373.7538
505.9653, 382.3624
506.4474, 389.2392
506.9296, 392.2729
507.4117, 391.2555
507.8938, 387.0123
508.3759, 380.1435
508.8580, 370.5990
509.3401, 358.1293
509.8223, 341.6573
510.3044, 324.5217
510.7865, 306.2033
511.2686, 288.7216
511.7507, 274.4492
512.2328, 263.9198
512.7150, 254.6508
513.1971, 244.4865
513.6792, 234.1051
514.1613, 225.3343
514.6434, 218.4173
515.1255, 212.9929
515.6077, 209.3233
516.0898, 207.0124
516.5719, 204.1608
517.0540, 199.5193
517.5361, 195.7851
518.0182, 195.1021
518.5004, 195.8887
518.9825, 195.4096
519.4646, 192.9212
519.9467, 189.5949
520.4288, 186.7070
520.9109, 184.2011
521.3931, 182.5617
521.8752, 182.2433
522.3573, 182.1257
522.8394, 182.0309
523.3215, 181.8229
523.8036, 181.3886
524.2858, 180.6827
524.7679, 179.6469
525.2500, 178.0038
525.7321, 175.4834
526.2142, 173.7315
526.6964, 173.1917
527.1785, 173.1153
527.6606, 173.3340
528.1427, 173.7225
528.6248, 174.0376
529.1069, 174.1318
529.5891, 174.1849
530.0712, 174.5671
530.5533, 175.2386
531.0354, 175.4369
531.5175, 174.7117
531.9996, 173.8141
532.4818, 173.8997
532.9639, 174.8732
533.4460, 175.1778
533.9281, 173.1889
534.4102, 171.5107
534.8923, 172.8853
535.3745, 176.4355
535.8566, 179.0107
536.3387, 179.0611
536.8208, 177.7185
537.3029, 177.2941
537.7850, 178.3560
538.2672, 179.1994
538.7493, 179.4371
539.2314, 179.8203
539.7135, 180.9599
540.1956, 182.6181
540.6777, 184.0987
541.1599, 184.9586
541.6420, 185.4837
542.1241, 186.5209
542.6062, 188.4364
543.0883, 189.6811
543.5704, 188.6700
544.0526, 187.9831
544.5347, 189.7850
545.0168, 193.6017
545.4989, 196.7933
545.9810, 197.4782
546.4631, 197.0152
546.9453, 197.3620
547.4274, 198.5109
547.9095, 200.3372
548.3916, 203.0869
548.8737, 206.1188
549.3558, 208.2104
549.8380, 209.2694
550.3201, 210.3156
550.8022, 211.7451
551.2843, 213.0575
551.7664, 213.6875
552.2485, 213.7942
552.7307, 213.9211
553.2128, 214.3343
553.6949, 215.1672
554.1770, 216.8953
554.6591, 220.6850
555.1412, 223.2478
555.6234, 223.9695
556.1055, 224.1003
556.5876, 224.3097
557.0697, 224.6083
557.5518, 224.6908
558.0339, 224.2603
558.5161, 223.6745
558.9982, 223.8097
559.4803, 224.7663
559.9624, 225.8420
560.4445, 226.8621
560.9266, 227.9282
561.4088, 229.1486
561.8909, 230.5103
562.3730, 231.8771
562.8551, 233.5467
563.3372, 234.9562
563.8193, 235.3510
564.3015, 234.8702
564.7836, 234.3113
565.2657, 234.0495
565.7478, 233.8094
566.2299, 233.0415
566.7120, 231.3891
567.1942, 230.0752
567.6763, 229.5548
568.1584, 228.9559
568.6405, 227.8593
569.1226, 226.2695
569.6047, 224.3053
570.0869, 222.0390
570.5690, 219.4215
571.0511, 216.2787
571.5332, 212.3706
572.0153, 208.7571
572.4974, 205.5725
572.9796, 202.7001
573.4617, 200.1955
573.9438, 197.9376
574.4259, 195.6491
574.9080, 193.2144
575.3901, 190.7063
575.8723, 188.2257
576.3544, 185.7587
576.8365, 183.1214
577.3186, 180.1812
577.8007, 177.3352
578.2828, 175.1313
578.7650, 173.6125
579.2471, 171.8319
579.7292, 168.6476
580.2113, 166.3800
580.6934, 167.0666
581.1755, 169.1304
581.6577, 170.0208
582.1398, 168.8771
582.6219, 166.5213
