##NAMES=Leucophosphite
##RRUFFID=R080126
##IDEAL CHEMISTRY=KFe^3+^_2_(PO_4_)_2_(OH)&#183;2H_2_O
##LOCALITY=Tip Top mine, Custer County, South Dakota, USA
##OWNER=RRUFF
##SOURCE=Thomas A. Loomis
##DESCRIPTION=Violet subhedral crystals on a matrix of rockbridgeite and associated with pale yellow acicular segelerite (R080127).
##STATUS=The identification of this mineral has been confirmed by single-crystal X-ray diffraction.
##URL=rruff.info/R080126
91.00781, 64.06279
91.48993, 61.02284
91.97205, 59.80925
92.45416, 61.96085
92.93628, 65.86945
93.41840, 67.16265
93.90051, 63.48204
94.38263, 59.78629
94.86475, 65.98204
95.34686, 81.97372
95.82898, 98.63548
96.31110, 108.5849
96.79321, 112.3407
97.27533, 114.3290
97.75745, 113.7388
98.23956, 112.2811
98.72168, 118.0190
99.20380, 132.0122
99.68591, 149.6781
100.1680, 166.2965
100.6501, 181.3922
101.1323, 197.0255
101.6144, 213.3794
102.0965, 230.3377
102.5786, 249.2587
103.0607, 270.0894
103.5428, 293.0591
104.0250, 319.0813
104.5071, 348.1006
104.9892, 379.9142
105.4713, 414.6312
105.9534, 454.1487
106.4355, 492.1729
106.9177, 527.5682
107.3998, 561.4017
107.8819, 598.4466
108.3640, 643.0711
108.8461, 686.9772
109.3282, 726.8724
109.8104, 755.4244
110.2925, 787.4608
110.7746, 826.0464
111.2567, 869.8480
111.7388, 910.0013
112.2209, 939.3970
112.7031, 967.7207
113.1852, 1002.027
113.6673, 1049.077
114.1494, 1096.726
114.6315, 1141.331
115.1136, 1183.026
115.5958, 1226.329
116.0779, 1275.446
116.5600, 1326.140
117.0421, 1373.464
117.5242, 1410.647
118.0063, 1448.316
118.4885, 1493.735
118.9706, 1548.897
119.4527, 1604.212
119.9348, 1654.577
120.4169, 1701.227
120.8990, 1747.231
121.3812, 1793.255
121.8633, 1839.437
122.3454, 1886.294
122.8275, 1935.841
123.3096, 1982.021
123.7917, 2016.213
124.2739, 2041.353
124.7560, 2068.224
125.2381, 2104.674
125.7202, 2147.467
126.2023, 2190.775
126.6844, 2234.253
127.1666, 2277.067
127.6487, 2317.177
128.1308, 2354.950
128.6129, 2393.145
129.0950, 2435.432
129.5771, 2480.664
130.0593, 2524.319
130.5414, 2561.066
131.0235, 2607.208
131.5056, 2643.661
131.9877, 2693.005
132.4698, 2736.044
132.9520, 2776.876
133.4341, 2815.870
133.9162, 2860.537
134.3983, 2916.095
134.8804, 2980.352
135.3625, 3036.885
135.8447, 3084.020
136.3268, 3128.719
136.8089, 3183.279
137.2910, 3250.177
137.7731, 3313.716
138.2552, 3370.630
138.7374, 3421.730
139.2195, 3458.995
139.7016, 3483.113
140.1837, 3493.803
140.6658, 3487.069
141.1479, 3455.355
141.6301, 3423.564
142.1122, 3403.711
142.5943, 3400.954
143.0764, 3395.204
143.5585, 3384.927
144.0406, 3371.308
144.5228, 3358.275
145.0049, 3347.018
145.4870, 3334.984
145.9691, 3320.728
146.4512, 3301.329
146.9333, 3284.395
147.4155, 3272.261
147.8976, 3263.972
148.3797, 3251.100
148.8618, 3227.000
149.3439, 3202.971
149.8260, 3186.251
150.3082, 3181.807
150.7903, 3178.848
151.2724, 3176.842
151.7545, 3175.798
152.2366, 3174.086
152.7188, 3171.177
153.2009, 3167.693
153.6830, 3164.158
154.1651, 3157.108
154.6472, 3153.273
155.1293, 3153.861
155.6115, 3158.812
156.0936, 3168.428
156.5757, 3185.547
157.0578, 3206.433
157.5399, 3226.790
158.0220, 3239.060
158.5042, 3256.468
158.9863, 3283.637
159.4684, 3321.366
159.9505, 3366.540
160.4326, 3430.158
160.9147, 3498.533
161.3969, 3551.235
161.8790, 3587.575
162.3611, 3602.210
162.8432, 3590.686
163.3253, 3549.523
163.8074, 3492.015
164.2896, 3418.486
164.7717, 3332.843
165.2538, 3242.917
165.7359, 3146.528
166.2180, 3050.321
166.7001, 2957.925
167.1823, 2868.968
167.6644, 2788.382
168.1465, 2720.681
168.6286, 2664.207
169.1107, 2614.392
169.5928, 2568.613
170.0750, 2528.363
170.5571, 2494.786
171.0392, 2469.813
171.5213, 2449.534
172.0034, 2429.791
172.4855, 2411.493
172.9677, 2399.070
173.4498, 2398.678
173.9319, 2404.938
174.4140, 2410.120
174.8961, 2411.303
175.3782, 2411.667
175.8604, 2413.215
176.3425, 2416.292
176.8246, 2423.614
177.3067, 2439.256
177.7888, 2460.623
178.2709, 2482.307
178.7531, 2503.852
179.2352, 2524.305
179.7173, 2540.811
180.1994, 2553.638
180.6815, 2567.978
181.1636, 2588.625
181.6458, 2614.518
182.1279, 2641.903
182.6100, 2670.780
183.0921, 2700.019
183.5742, 2728.043
184.0563, 2754.333
184.5385, 2780.147
185.0206, 2807.821
185.5027, 2836.482
185.9848, 2860.452
186.4669, 2875.288
186.9490, 2884.310
187.4312, 2898.367
187.9133, 2917.630
188.3954, 2938.964
188.8775, 2958.313
189.3596, 2975.865
189.8417, 2994.510
190.3239, 3016.969
190.8060, 3041.899
191.2881, 3059.985
191.7702, 3069.655
192.2523, 3078.002
192.7344, 3095.461
193.2166, 3121.974
193.6987, 3147.542
194.1808, 3168.616
194.6629, 3185.343
195.1450, 3199.605
195.6271, 3210.590
196.1093, 3221.198
196.5914, 3235.748
197.0735, 3254.420
197.5556, 3274.542
198.0377, 3294.637
198.5198, 3314.843
199.0020, 3338.243
199.4841, 3366.577
199.9662, 3395.025
200.4483, 3416.024
200.9304, 3428.890
201.4125, 3438.391
201.8947, 3446.389
202.3768, 3452.920
202.8589, 3457.548
203.3410, 3460.349
203.8231, 3461.190
204.3052, 3459.533
204.7874, 3455.063
205.2695, 3449.560
205.7516, 3442.403
206.2337, 3432.448
206.7158, 3428.734
207.1979, 3431.801
207.6801, 3440.728
208.1622, 3454.112
208.6443, 3472.865
209.1264, 3493.442
209.6085, 3513.994
210.0906, 3533.932
210.5728, 3557.289
211.0549, 3585.950
211.5370, 3616.615
212.0191, 3640.512
212.5012, 3655.745
212.9833, 3669.480
213.4655, 3686.072
213.9476, 3708.470
214.4297, 3723.174
214.9118, 3728.918
215.3939, 3727.381
215.8760, 3721.893
216.3581, 3710.538
216.8403, 3699.236
217.3224, 3690.532
217.8045, 3684.010
218.2866, 3681.413
218.7687, 3684.575
219.2508, 3690.923
219.7330, 3693.432
220.2151, 3690.883
220.6972, 3686.546
221.1793, 3681.967
221.6614, 3677.363
222.1435, 3671.702
222.6257, 3665.385
223.1078, 3657.839
223.5899, 3646.843
224.0720, 3630.138
224.5541, 3613.614
225.0362, 3600.538
225.5184, 3594.884
226.0005, 3582.810
226.4826, 3560.921
226.9647, 3533.391
227.4468, 3511.799
227.9289, 3500.937
228.4111, 3489.049
228.8932, 3469.855
229.3753, 3438.034
229.8574, 3411.500
230.3395, 3389.498
230.8216, 3373.381
231.3038, 3367.992
231.7859, 3380.456
232.2680, 3393.191
232.7501, 3397.085
233.2322, 3383.872
233.7143, 3380.752
234.1965, 3391.797
234.6786, 3412.154
235.1607, 3428.020
235.6428, 3435.253
236.1249, 3443.907
236.6070, 3458.388
237.0892, 3480.164
237.5713, 3504.724
238.0534, 3533.995
238.5355, 3565.497
239.0176, 3592.067
239.4997, 3608.787
239.9819, 3628.178
240.4640, 3656.202
240.9461, 3698.392
241.4282, 3736.052
241.9103, 3765.559
242.3924, 3791.706
242.8746, 3826.620
243.3567, 3875.760
243.8388, 3925.447
244.3209, 3970.269
244.8030, 4007.737
245.2851, 4045.977
245.7673, 4085.519
246.2494, 4125.690
246.7315, 4165.147
247.2136, 4204.432
247.6957, 4242.246
248.1778, 4278.907
248.6600, 4316.062
249.1421, 4346.166
249.6242, 4368.070
250.1063, 4383.767
250.5884, 4397.454
251.0705, 4411.259
251.5527, 4419.351
252.0348, 4419.250
252.5169, 4409.743
252.9990, 4396.277
253.4811, 4378.803
253.9632, 4357.181
254.4454, 4331.474
254.9275, 4301.218
255.4096, 4267.419
255.8917, 4229.919
256.3738, 4188.393
256.8560, 4145.205
257.3381, 4098.000
257.8202, 4050.819
258.3023, 4009.791
258.7844, 3979.041
259.2665, 3946.389
259.7487, 3907.243
260.2308, 3860.523
260.7129, 3815.635
261.1950, 3771.527
261.6771, 3730.514
262.1592, 3696.584
262.6414, 3672.339
263.1235, 3649.409
263.6056, 3626.348
264.0877, 3603.092
264.5698, 3575.921
265.0519, 3539.852
265.5341, 3506.748
266.0162, 3491.883
266.4983, 3500.590
266.9804, 3511.546
267.4625, 3519.644
267.9446, 3524.891
268.4268, 3532.154
268.9089, 3541.358
269.3910, 3552.444
269.8731, 3565.585
270.3552, 3580.886
270.8373, 3597.461
271.3195, 3615.322
271.8016, 3634.362
272.2837, 3653.602
272.7658, 3671.998
273.2479, 3693.494
273.7300, 3723.699
274.2122, 3764.248
274.6943, 3802.614
275.1764, 3835.828
275.6585, 3864.743
276.1406, 3893.800
276.6227, 3923.312
277.1049, 3952.069
277.5870, 3978.778
278.0691, 4003.268
278.5512, 4028.186
279.0333, 4054.704
279.5154, 4081.576
279.9976, 4104.126
280.4797, 4121.844
280.9618, 4138.118
281.4439, 4157.439
281.9260, 4179.784
282.4081, 4194.037
282.8903, 4196.001
283.3724, 4192.096
283.8545, 4198.278
284.3366, 4215.251
284.8187, 4234.823
285.3008, 4251.870
285.7830, 4266.747
286.2651, 4280.675
286.7472, 4292.148
287.2293, 4305.955
287.7114, 4331.397
288.1935, 4368.407
288.6757, 4411.072
289.1578, 4457.835
289.6399, 4508.041
290.1220, 4554.078
290.6041, 4593.682
291.0862, 4635.874
291.5684, 4697.235
292.0505, 4776.063
292.5326, 4853.281
293.0147, 4915.861
293.4968, 4969.700
293.9789, 5034.813
294.4611, 5111.644
294.9432, 5196.491
295.4253, 5287.935
295.9074, 5384.967
296.3895, 5480.688
296.8716, 5576.553
297.3538, 5669.090
297.8359, 5750.835
298.3180, 5822.289
298.8001, 5887.829
299.2822, 5956.745
299.7643, 6024.425
300.2465, 6078.014
300.7286, 6113.801
301.2107, 6132.646
301.6928, 6133.360
302.1749, 6116.451
302.6570, 6089.462
303.1392, 6056.961
303.6213, 6018.701
304.1034, 5974.912
304.5855, 5924.294
305.0676, 5869.238
305.5497, 5811.179
306.0319, 5750.184
306.5140, 5683.561
306.9961, 5603.855
307.4782, 5520.545
307.9603, 5444.408
308.4424, 5380.872
308.9246, 5320.566
309.4067, 5254.218
309.8888, 5185.044
310.3709, 5121.037
310.8530, 5070.073
311.3351, 5024.886
311.8173, 4978.989
312.2994, 4929.565
312.7815, 4883.283
313.2636, 4845.999
313.7457, 4814.853
314.2278, 4784.459
314.7100, 4748.385
315.1921, 4715.853
315.6742, 4693.354
316.1563, 4682.711
316.6384, 4675.161
317.1205, 4671.187
317.6027, 4667.230
318.0848, 4658.773
318.5669, 4641.688
319.0490, 4622.241
319.5311, 4601.493
320.0132, 4579.369
320.4954, 4560.227
320.9775, 4546.981
321.4596, 4536.501
321.9417, 4526.352
322.4238, 4515.684
322.9059, 4505.612
323.3881, 4494.819
323.8702, 4483.870
324.3523, 4478.030
324.8344, 4480.029
325.3165, 4486.118
325.7986, 4494.087
326.2808, 4506.441
326.7629, 4517.601
327.2450, 4526.416
327.7271, 4533.587
328.2092, 4541.899
328.6913, 4554.313
329.1735, 4565.286
329.6556, 4573.196
330.1377, 4580.237
330.6198, 4579.939
331.1019, 4571.021
331.5840, 4555.088
332.0662, 4535.201
332.5483, 4513.423
333.0304, 4484.271
333.5125, 4446.346
333.9946, 4398.675
334.4767, 4344.581
334.9589, 4281.297
335.4410, 4214.965
335.9231, 4154.862
336.4052, 4106.659
336.8873, 4050.887
337.3694, 3981.070
337.8516, 3898.543
338.3336, 3820.282
338.8158, 3746.403
339.2979, 3676.364
339.7800, 3608.591
340.2621, 3543.641
340.7442, 3481.141
341.2263, 3422.401
341.7085, 3366.373
342.1906, 3311.241
342.6727, 3255.686
343.1548, 3206.326
343.6369, 3169.483
344.1190, 3144.620
344.6012, 3117.435
345.0833, 3085.453
345.5654, 3052.744
346.0475, 3026.658
346.5296, 3007.015
347.0117, 2989.774
347.4939, 2973.791
347.9760, 2958.763
348.4581, 2942.626
348.9402, 2924.781
349.4223, 2908.947
349.9044, 2898.309
350.3866, 2892.759
350.8687, 2891.726
351.3508, 2897.937
351.8329, 2907.221
352.3150, 2912.813
352.7971, 2914.832
353.2793, 2916.561
353.7614, 2918.927
354.2435, 2923.096
354.7256, 2931.205
355.2077, 2945.711
355.6898, 2961.973
356.1720, 2976.124
356.6541, 2988.640
357.1362, 3001.479
357.6183, 3016.950
358.1004, 3032.759
358.5826, 3046.369
359.0647, 3055.994
359.5468, 3066.763
360.0289, 3081.040
360.5110, 3098.414
360.9931, 3118.193
361.4753, 3145.220
361.9574, 3170.261
362.4395, 3187.586
362.9216, 3195.512
363.4037, 3203.369
363.8858, 3212.047
364.3680, 3222.819
364.8501, 3237.090
365.3322, 3256.237
365.8143, 3277.680
366.2964, 3301.780
366.7785, 3328.565
367.2607, 3354.404
367.7428, 3383.374
368.2249, 3408.667
368.7070, 3426.034
369.1891, 3426.894
369.6712, 3431.114
370.1534, 3440.346
370.6355, 3453.342
371.1176, 3466.703
371.5997, 3483.951
372.0818, 3496.837
372.5639, 3501.439
373.0461, 3494.934
373.5282, 3488.895
374.0103, 3483.200
374.4924, 3477.836
374.9745, 3473.323
375.4566, 3470.510
375.9388, 3465.635
376.4209, 3456.630
376.9030, 3443.877
377.3851, 3436.065
377.8672, 3434.869
378.3493, 3433.320
378.8315, 3423.314
379.3136, 3404.625
379.7957, 3389.177
380.2778, 3379.585
380.7599, 3374.060
381.2420, 3368.076
381.7242, 3361.729
382.2063, 3356.075
382.6884, 3351.799
383.1705, 3348.743
383.6526, 3346.303
384.1347, 3344.089
384.6169, 3343.490
385.0990, 3346.569
385.5811, 3352.780
386.0632, 3360.373
386.5453, 3367.865
387.0274, 3376.568
387.5096, 3388.351
387.9917, 3403.171
388.4738, 3419.797
388.9559, 3437.872
389.4380, 3456.678
389.9201, 3475.229
390.4023, 3490.927
390.8844, 3508.819
391.3665, 3532.560
391.8486, 3561.553
392.3307, 3592.745
392.8128, 3624.928
393.2950, 3658.601
393.7771, 3695.279
394.2592, 3737.321
394.7413, 3776.147
395.2234, 3803.703
395.7055, 3827.006
396.1877, 3856.939
396.6698, 3906.856
397.1519, 3953.232
397.6340, 3987.251
398.1161, 4006.902
398.5982, 4030.044
399.0804, 4063.267
399.5625, 4097.200
400.0446, 4124.906
400.5267, 4140.469
401.0088, 4159.029
401.4909, 4185.134
401.9731, 4215.531
402.4552, 4236.357
402.9373, 4245.899
403.4194, 4248.774
403.9015, 4246.149
404.3836, 4236.432
404.8658, 4227.353
405.3479, 4219.000
405.8300, 4211.166
406.3121, 4205.322
406.7942, 4202.693
407.2763, 4192.735
407.7585, 4170.175
408.2406, 4137.041
408.7227, 4105.013
409.2048, 4074.169
409.6869, 4044.429
410.1690, 4016.257
410.6512, 3989.528
411.1333, 3962.144
411.6154, 3933.057
412.0975, 3904.379
412.5796, 3878.990
413.0617, 3856.606
413.5439, 3835.241
414.0260, 3814.667
414.5081, 3793.861
414.9902, 3771.684
415.4723, 3747.956
415.9544, 3723.014
416.4366, 3696.404
416.9187, 3669.124
417.4008, 3642.760
417.8829, 3620.438
418.3650, 3596.791
418.8471, 3567.065
419.3293, 3532.474
419.8114, 3498.624
420.2935, 3471.724
420.7756, 3444.077
421.2577, 3410.656
421.7398, 3365.982
422.2220, 3323.596
422.7041, 3285.809
423.1862, 3251.989
423.6683, 3220.794
424.1504, 3191.084
424.6325, 3164.480
425.1147, 3141.354
425.5968, 3121.257
426.0789, 3105.955
426.5610, 3098.512
427.0431, 3093.071
427.5252, 3084.680
428.0074, 3071.028
428.4895, 3059.698
428.9716, 3051.437
429.4537, 3046.159
429.9358, 3044.796
430.4179, 3048.754
430.9001, 3051.591
431.3822, 3049.664
431.8643, 3042.903
432.3464, 3036.453
432.8285, 3030.868
433.3106, 3023.856
433.7928, 3013.677
434.2749, 3000.055
434.7570, 2980.401
435.2391, 2952.844
435.7212, 2919.648
436.2033, 2885.292
436.6855, 2849.847
437.1676, 2810.844
437.6497, 2763.860
438.1318, 2713.088
438.6139, 2664.172
439.0960, 2617.319
439.5782, 2574.957
440.0603, 2540.515
440.5424, 2511.732
441.0245, 2484.893
441.5066, 2456.292
441.9887, 2430.526
442.4709, 2412.030
442.9530, 2400.556
443.4351, 2387.616
443.9172, 2366.557
444.3993, 2344.896
444.8814, 2328.490
445.3636, 2323.117
445.8457, 2316.313
446.3278, 2304.209
446.8099, 2289.528
447.2920, 2278.721
447.7741, 2273.508
448.2563, 2270.437
448.7384, 2269.282
449.2205, 2270.533
449.7026, 2269.622
450.1847, 2265.119
450.6668, 2260.326
451.1490, 2258.100
451.6311, 2258.514
452.1132, 2261.728
452.5953, 2269.124
453.0774, 2278.365
453.5595, 2281.753
454.0417, 2278.327
454.5238, 2278.150
455.0059, 2289.029
455.4880, 2308.531
455.9701, 2324.251
456.4522, 2335.361
456.9344, 2345.199
457.4165, 2356.016
457.8986, 2368.373
458.3807, 2383.733
458.8628, 2404.419
459.3449, 2426.392
459.8271, 2444.322
460.3092, 2459.319
460.7913, 2476.450
461.2734, 2500.046
461.7555, 2526.151
462.2376, 2551.647
462.7198, 2575.588
463.2019, 2600.258
463.6840, 2626.262
464.1661, 2653.496
464.6482, 2681.833
465.1303, 2710.198
465.6125, 2740.674
466.0946, 2774.602
466.5767, 2811.821
467.0588, 2848.230
467.5409, 2882.659
468.0230, 2917.059
468.5052, 2952.441
468.9873, 2989.750
469.4694, 3025.469
469.9515, 3057.915
470.4336, 3090.123
470.9157, 3127.687
471.3979, 3172.513
471.8800, 3215.830
472.3621, 3256.412
472.8442, 3293.535
473.3263, 3323.969
473.8084, 3346.933
474.2906, 3369.284
474.7727, 3398.639
475.2548, 3432.417
475.7369, 3457.986
476.2190, 3473.664
476.7011, 3482.719
477.1833, 3489.275
477.6654, 3492.616
478.1475, 3490.792
478.6296, 3483.176
479.1117, 3469.902
479.5938, 3450.353
480.0760, 3424.776
480.5581, 3395.651
481.0402, 3363.781
481.5223, 3329.086
482.0044, 3290.855
482.4865, 3248.048
482.9687, 3205.353
483.4508, 3162.545
483.9329, 3121.154
484.4150, 3083.930
484.8971, 3057.403
485.3792, 3028.277
485.8614, 2990.452
486.3435, 2944.876
486.8256, 2906.429
487.3077, 2877.520
487.7898, 2853.383
488.2719, 2832.090
488.7541, 2815.375
489.2362, 2796.852
489.7183, 2775.167
490.2004, 2753.393
490.6825, 2736.832
491.1646, 2726.105
491.6468, 2713.448
492.1289, 2695.628
492.6110, 2674.691
493.0931, 2656.732
493.5752, 2641.588
494.0573, 2623.814
494.5395, 2598.918
495.0216, 2568.573
495.5037, 2534.922
495.9858, 2498.497
496.4679, 2460.709
496.9500, 2423.709
497.4322, 2386.467
497.9143, 2347.924
498.3964, 2306.079
498.8785, 2264.183
499.3606, 2224.618
499.8427, 2186.627
500.3249, 2149.386
500.8070, 2111.709
501.2891, 2074.920
501.7712, 2039.877
502.2533, 2006.536
502.7354, 1975.537
503.2176, 1948.052
503.6997, 1922.528
504.1818, 1897.323
504.6639, 1871.405
505.1460, 1847.738
505.6281, 1827.297
506.1103, 1809.231
506.5924, 1790.617
507.0745, 1770.698
507.5566, 1752.839
508.0387, 1739.483
508.5208, 1730.383
509.0030, 1720.850
509.4851, 1710.926
509.9672, 1700.334
510.4493, 1688.470
510.9314, 1675.666
511.4135, 1662.720
511.8957, 1649.282
512.3778, 1637.087
512.8599, 1629.037
513.3420, 1624.116
513.8242, 1619.332
514.3063, 1612.010
514.7884, 1604.958
515.2705, 1601.563
515.7526, 1602.091
516.2347, 1600.054
516.7169, 1589.503
517.1990, 1577.332
517.6811, 1568.784
518.1632, 1566.807
518.6453, 1565.592
519.1274, 1566.171
519.6096, 1566.813
520.0917, 1563.927
520.5738, 1553.589
521.0559, 1546.292
521.5380, 1545.613
522.0201, 1551.089
522.5023, 1554.979
522.9844, 1557.626
523.4665, 1557.725
523.9486, 1552.380
524.4307, 1542.042
524.9128, 1536.791
525.3950, 1537.767
525.8771, 1542.842
526.3592, 1552.078
526.8413, 1563.646
527.3234, 1571.044
527.8055, 1569.583
528.2877, 1564.883
528.7698, 1562.777
529.2519, 1562.957
529.7340, 1564.043
530.2161, 1565.465
530.6982, 1567.370
531.1804, 1569.668
531.6625, 1572.128
532.1446, 1576.196
532.6267, 1583.718
533.1088, 1592.408
533.5909, 1600.038
534.0731, 1606.595
534.5552, 1611.824
535.0373, 1615.015
535.5194, 1617.004
536.0015, 1619.791
536.4836, 1622.510
536.9658, 1627.727
537.4479, 1636.284
537.9300, 1648.078
538.4121, 1663.588
538.8942, 1683.887
539.3763, 1702.936
539.8585, 1714.218
540.3406, 1719.184
540.8227, 1726.022
541.3048, 1735.796
541.7869, 1747.775
542.2690, 1762.177
542.7512, 1778.144
543.2333, 1793.528
543.7154, 1806.740
544.1975, 1819.589
544.6796, 1833.821
545.1617, 1849.161
545.6439, 1863.806
546.1260, 1877.732
546.6081, 1890.144
547.0902, 1900.397
547.5723, 1907.954
548.0544, 1914.944
548.5366, 1922.834
549.0187, 1929.664
549.5008, 1933.894
549.9829, 1936.031
550.4650, 1934.461
550.9471, 1927.780
551.4293, 1918.021
551.9114, 1910.641
552.3935, 1906.900
552.8756, 1899.455
553.3577, 1884.862
553.8398, 1864.314
554.3220, 1841.723
554.8041, 1816.849
555.2862, 1794.686
555.7683, 1781.349
556.2504, 1772.915
556.7325, 1760.259
557.2147, 1741.235
557.6968, 1723.245
558.1789, 1713.074
558.6610, 1707.756
559.1431, 1703.010
559.6252, 1697.756
560.1074, 1692.292
560.5895, 1685.857
561.0716, 1679.118
561.5537, 1674.436
562.0358, 1672.788
562.5179, 1672.747
563.0001, 1674.377
563.4822, 1677.960
563.9643, 1679.909
564.4464, 1679.436
564.9285, 1678.452
565.4106, 1678.385
565.8928, 1679.383
566.3749, 1680.564
566.8570, 1682.153
567.3391, 1683.305
567.8212, 1681.784
568.3033, 1678.121
568.7855, 1676.375
569.2676, 1678.233
569.7497, 1682.399
570.2318, 1687.589
570.7139, 1693.539
571.1960, 1699.549
571.6782, 1705.166
572.1603, 1710.619
572.6424, 1716.094
573.1245, 1721.684
573.6066, 1726.834
574.0887, 1730.869
574.5709, 1734.717
575.0530, 1739.157
575.5351, 1745.159
576.0172, 1750.499
576.4993, 1753.473
576.9814, 1756.545
577.4636, 1764.286
577.9457, 1779.259
578.4278, 1791.931
578.9099, 1799.064
579.3920, 1802.323
579.8741, 1807.900
580.3563, 1815.862
580.8384, 1824.968
581.3205, 1834.272
581.8026, 1844.231
582.2847, 1855.521
582.7668, 1868.191
583.2490, 1882.619
583.7311, 1900.728
584.2132, 1920.108
584.6953, 1937.743
585.1774, 1952.208
585.6595, 1966.245
586.1416, 1978.946
