##NAMES=Leucite
##RRUFFID=R040107
##IDEAL CHEMISTRY=K(Si_2_Al)O_6_
##LOCALITY=Roccamonfina, Italy
##OWNER=RRUFF
##SOURCE=University of Arizona Mineral Museum
##DESCRIPTION=Rounded colorless crystals embedded in an ash matrix
##STATUS=The identification of this mineral has been confirmed by X-ray diffraction and chemical analysis
##URL=rruff.info/R040107
##MEASURED CHEMISTRY=(K_0.95_Na_0.03_)Al_0.99_Si_2.01_O_6_
120.1184, 1689.219
120.6006, 1786.314
121.0827, 1899.236
121.5648, 2023.969
122.0469, 2146.955
122.5290, 2257.698
123.0111, 2362.828
123.4933, 2470.079
123.9754, 2578.229
124.4575, 2692.457
124.9396, 2816.601
125.4217, 2949.866
125.9038, 3097.420
126.3860, 3250.207
126.8681, 3374.606
127.3502, 3471.153
127.8323, 3559.710
128.3144, 3642.899
128.7965, 3727.558
129.2787, 3815.247
129.7608, 3896.695
130.2429, 3962.798
130.7250, 4014.192
131.2071, 4052.711
131.6892, 4070.594
132.1714, 4072.228
132.6535, 4086.282
133.1356, 4115.814
133.6177, 4155.669
134.0998, 4196.101
134.5819, 4236.462
135.0640, 4275.997
135.5462, 4310.713
136.0283, 4339.389
136.5104, 4378.722
136.9925, 4436.536
137.4746, 4508.667
137.9567, 4561.404
138.4389, 4591.924
138.9210, 4612.797
139.4031, 4632.936
139.8852, 4647.371
140.3673, 4679.367
140.8494, 4743.739
141.3316, 4850.614
141.8137, 4920.873
142.2958, 4939.321
142.7779, 4936.677
143.2600, 4969.815
143.7421, 5062.012
144.2243, 5151.250
144.7064, 5213.009
145.1885, 5235.981
145.6706, 5256.698
146.1527, 5274.747
146.6348, 5290.559
147.1170, 5306.229
147.5991, 5323.054
148.0812, 5338.202
148.5633, 5349.919
149.0454, 5359.929
149.5275, 5363.876
150.0097, 5364.351
150.4918, 5361.442
150.9739, 5340.877
151.4560, 5283.776
151.9381, 5218.014
152.4202, 5165.411
152.9024, 5115.735
153.3845, 5089.565
153.8666, 5054.164
154.3487, 5010.025
154.8308, 4930.982
155.3129, 4897.010
155.7950, 4844.976
156.2772, 4792.190
156.7593, 4764.563
157.2414, 4690.597
157.7235, 4662.570
158.2056, 4616.205
158.6877, 4547.471
159.1699, 4480.082
159.6520, 4413.020
160.1341, 4354.213
160.6162, 4313.248
161.0983, 4277.335
161.5804, 4238.125
162.0626, 4191.957
162.5447, 4145.179
163.0268, 4098.505
163.5089, 4052.593
163.9910, 4011.106
164.4731, 3973.361
164.9553, 3941.635
165.4374, 3918.122
165.9195, 3910.709
166.4016, 3906.093
166.8837, 3891.481
167.3658, 3866.616
167.8480, 3852.753
168.3301, 3869.052
168.8122, 3903.719
169.2943, 3939.037
169.7764, 3963.190
170.2585, 3986.848
170.7407, 4018.593
171.2228, 4058.991
171.7049, 4107.907
172.1870, 4171.367
172.6691, 4244.339
173.1512, 4313.097
173.6334, 4367.277
174.1155, 4414.959
174.5976, 4466.629
175.0797, 4525.019
175.5618, 4584.056
176.0439, 4641.065
176.5260, 4694.938
177.0082, 4738.855
177.4903, 4765.939
177.9724, 4780.985
178.4545, 4793.356
178.9366, 4808.338
179.4187, 4818.480
179.9009, 4813.052
180.3830, 4792.465
180.8651, 4761.372
181.3472, 4723.706
181.8293, 4678.398
182.3114, 4622.271
182.7936, 4547.003
183.2757, 4463.301
183.7578, 4391.760
184.2399, 4333.735
184.7220, 4276.840
185.2041, 4204.000
185.6863, 4118.296
186.1684, 4042.504
186.6505, 3992.373
187.1326, 3959.839
187.6147, 3911.778
188.0968, 3845.450
188.5790, 3772.196
189.0611, 3703.203
189.5432, 3638.830
190.0253, 3580.681
190.5074, 3532.127
190.9895, 3492.073
191.4717, 3447.966
191.9538, 3398.744
192.4359, 3345.841
192.9180, 3289.344
193.4001, 3228.438
193.8822, 3171.305
194.3644, 3124.121
194.8465, 3086.608
195.3286, 3048.330
195.8107, 3006.410
196.2928, 2964.969
196.7749, 2936.490
197.2570, 2922.823
197.7392, 2911.437
198.2213, 2892.833
198.7034, 2866.324
199.1855, 2840.670
199.6676, 2815.433
200.1497, 2792.147
200.6319, 2778.308
201.1140, 2775.400
201.5961, 2776.885
202.0782, 2779.591
202.5603, 2785.037
203.0424, 2780.676
203.5246, 2758.076
204.0067, 2720.648
204.4888, 2707.014
204.9709, 2725.088
205.4530, 2750.815
205.9352, 2756.561
206.4173, 2737.737
206.8994, 2717.165
207.3815, 2699.088
207.8636, 2683.143
208.3457, 2679.987
208.8279, 2694.974
209.3100, 2715.363
209.7921, 2722.855
210.2742, 2714.127
210.7563, 2702.219
211.2384, 2690.669
211.7206, 2678.851
212.2027, 2671.529
212.6848, 2671.373
213.1669, 2673.303
213.6490, 2668.162
214.1311, 2654.631
214.6133, 2637.065
215.0954, 2616.025
215.5775, 2590.127
216.0596, 2566.606
216.5417, 2544.452
217.0238, 2525.209
217.5059, 2514.329
217.9881, 2519.479
218.4702, 2518.798
218.9523, 2499.195
219.4344, 2450.925
219.9165, 2412.057
220.3986, 2387.814
220.8808, 2373.338
221.3629, 2349.141
221.8450, 2305.720
222.3271, 2267.257
222.8092, 2249.409
223.2913, 2264.317
223.7735, 2271.315
224.2556, 2266.641
224.7377, 2251.335
225.2198, 2231.165
225.7019, 2203.122
226.1840, 2173.758
226.6662, 2146.892
227.1483, 2122.482
227.6304, 2101.115
228.1125, 2084.087
228.5946, 2070.845
229.0767, 2052.769
229.5589, 2025.934
230.0410, 1999.032
230.5231, 1979.371
231.0052, 1972.210
231.4873, 1962.325
231.9694, 1945.952
232.4516, 1923.217
232.9337, 1905.169
233.4158, 1894.364
233.8979, 1885.761
234.3800, 1874.781
234.8621, 1860.640
235.3443, 1845.590
235.8264, 1829.393
236.3085, 1811.808
236.7906, 1796.472
237.2727, 1781.575
237.7548, 1770.529
238.2369, 1768.407
238.7191, 1784.299
239.2012, 1793.153
239.6833, 1786.164
240.1654, 1759.988
240.6475, 1745.179
241.1296, 1746.962
241.6118, 1756.025
242.0939, 1760.834
242.5760, 1760.166
243.0581, 1757.255
243.5402, 1752.158
244.0223, 1744.086
244.5045, 1738.504
244.9866, 1735.513
245.4687, 1734.976
245.9508, 1737.292
246.4329, 1745.426
246.9150, 1751.377
247.3972, 1751.661
247.8793, 1743.858
248.3614, 1741.378
248.8435, 1748.692
249.3256, 1758.660
249.8077, 1757.569
250.2899, 1736.165
250.7720, 1719.759
251.2541, 1718.330
251.7362, 1737.020
252.2183, 1751.872
252.7004, 1761.530
253.1826, 1767.932
253.6647, 1774.078
254.1468, 1778.253
254.6289, 1785.199
255.1110, 1798.727
255.5931, 1824.669
256.0753, 1837.412
256.5574, 1831.116
257.0395, 1815.043
257.5216, 1809.540
258.0037, 1819.582
258.4858, 1830.613
258.9680, 1836.210
259.4501, 1833.969
259.9322, 1834.269
260.4143, 1838.414
260.8964, 1844.410
261.3785, 1846.895
261.8607, 1843.106
262.3428, 1841.739
262.8249, 1848.778
263.3070, 1869.618
263.7891, 1879.234
264.2712, 1873.106
264.7534, 1858.150
265.2355, 1850.954
265.7176, 1854.027
266.1997, 1858.824
266.6818, 1862.073
267.1639, 1864.299
267.6461, 1862.158
268.1282, 1853.894
268.6103, 1842.327
269.0924, 1832.950
269.5745, 1824.378
270.0566, 1821.926
270.5387, 1832.395
271.0208, 1860.790
271.5030, 1873.373
271.9851, 1863.964
272.4672, 1841.743
272.9493, 1828.534
273.4314, 1825.766
273.9135, 1826.888
274.3957, 1828.055
274.8778, 1828.733
275.3599, 1835.444
275.8420, 1851.746
276.3241, 1871.242
276.8062, 1877.457
277.2884, 1868.080
277.7705, 1856.689
278.2526, 1850.168
278.7347, 1848.631
279.2168, 1849.479
279.6989, 1852.062
280.1811, 1857.539
280.6632, 1870.981
281.1453, 1893.804
281.6274, 1913.711
282.1095, 1921.521
282.5916, 1917.513
283.0738, 1916.647
283.5559, 1920.398
284.0380, 1927.175
284.5201, 1933.063
285.0022, 1937.867
285.4843, 1945.511
285.9665, 1957.874
286.4486, 1974.948
286.9307, 1998.743
287.4128, 2032.165
287.8949, 2066.611
288.3770, 2082.772
288.8592, 2081.307
289.3413, 2081.804
289.8234, 2100.386
290.3055, 2132.405
290.7876, 2151.646
291.2697, 2151.918
291.7519, 2149.159
292.2340, 2172.867
292.7161, 2220.537
293.1982, 2265.792
293.6803, 2292.236
294.1624, 2304.721
294.6446, 2317.362
295.1267, 2331.597
295.6088, 2345.465
296.0909, 2353.399
296.5730, 2357.059
297.0551, 2366.145
297.5373, 2395.047
298.0194, 2431.762
298.5015, 2449.611
298.9836, 2443.313
299.4657, 2429.098
299.9478, 2426.374
300.4300, 2431.692
300.9121, 2434.077
301.3942, 2424.207
301.8763, 2408.920
302.3584, 2399.200
302.8405, 2396.735
303.3227, 2395.341
303.8048, 2391.489
304.2869, 2384.363
304.7690, 2371.688
305.2511, 2343.352
305.7332, 2313.446
306.2154, 2300.050
306.6975, 2306.882
307.1796, 2313.644
307.6617, 2300.844
308.1438, 2276.898
308.6259, 2256.716
309.1081, 2251.293
309.5901, 2249.954
310.0723, 2243.881
310.5544, 2232.106
311.0365, 2219.849
311.5186, 2211.928
312.0007, 2205.164
312.4828, 2194.920
312.9650, 2170.906
313.4471, 2149.215
313.9292, 2143.412
314.4113, 2155.228
314.8934, 2162.641
315.3755, 2150.795
315.8577, 2130.156
316.3398, 2113.221
316.8219, 2102.862
317.3040, 2097.900
317.7861, 2102.337
318.2682, 2116.361
318.7504, 2121.706
319.2325, 2101.469
319.7146, 2074.406
320.1967, 2058.362
320.6788, 2064.287
321.1609, 2074.833
321.6431, 2089.033
322.1252, 2106.383
322.6073, 2115.677
323.0894, 2109.369
323.5715, 2097.076
324.0536, 2085.853
324.5358, 2074.878
325.0179, 2067.095
325.5000, 2062.160
325.9821, 2060.332
326.4642, 2063.951
326.9464, 2087.803
327.4285, 2107.373
327.9106, 2108.045
328.3927, 2058.963
328.8748, 2030.685
329.3569, 2038.450
329.8391, 2073.520
330.3212, 2091.779
330.8033, 2081.428
331.2854, 2066.368
331.7675, 2059.298
332.2496, 2067.391
332.7318, 2069.862
333.2139, 2063.910
333.6960, 2052.402
334.1781, 2043.894
334.6602, 2039.886
335.1423, 2036.418
335.6245, 2030.011
336.1066, 2016.113
336.5887, 2015.796
337.0708, 2036.922
337.5529, 2065.763
338.0350, 2070.000
338.5172, 2041.839
338.9993, 2013.934
339.4814, 2000.957
339.9635, 2004.586
340.4456, 2006.835
340.9277, 2007.491
341.4099, 2007.101
341.8920, 2006.950
342.3741, 2007.206
342.8562, 2005.417
343.3383, 1999.125
343.8204, 1989.246
344.3026, 1979.538
344.7847, 1949.538
345.2668, 1967.208
345.7489, 1975.644
346.2310, 1975.345
346.7131, 1940.141
347.1953, 1950.007
347.6774, 1941.812
348.1595, 1932.876
348.6416, 1949.087
349.1237, 1918.960
349.6058, 1934.772
350.0880, 1932.245
350.5700, 1938.113
351.0522, 1925.805
351.5343, 1919.111
352.0164, 1930.597
352.4985, 1932.017
352.9806, 1917.617
353.4627, 1924.018
353.9449, 1904.041
354.4270, 1906.006
354.9091, 1913.450
355.3912, 1921.488
355.8733, 1925.518
356.3554, 1926.188
356.8376, 1926.330
357.3197, 1927.260
357.8018, 1928.430
358.2839, 1929.271
358.7660, 1929.393
359.2481, 1929.746
359.7303, 1930.644
360.2124, 1932.168
360.6945, 1934.523
361.1766, 1939.521
361.6587, 1944.226
362.1408, 1946.059
362.6230, 1942.909
363.1051, 1943.377
363.5872, 1955.947
364.0693, 1972.462
364.5514, 1980.868
365.0335, 1972.365
365.5157, 1961.393
365.9978, 1951.347
366.4799, 1941.934
366.9620, 1935.989
367.4441, 1933.688
367.9262, 1934.948
368.4084, 1939.879
368.8905, 1957.034
369.3726, 1967.413
369.8547, 1964.494
370.3368, 1948.359
370.8189, 1940.689
371.3011, 1946.632
371.7832, 1956.030
372.2653, 1961.850
372.7474, 1963.840
373.2295, 1962.332
373.7116, 1954.919
374.1938, 1944.118
374.6759, 1943.123
375.1580, 1957.284
375.6401, 1969.398
376.1222, 1966.084
376.6043, 1943.927
377.0865, 1931.797
377.5686, 1934.194
378.0507, 1944.650
378.5328, 1949.918
379.0149, 1949.702
379.4970, 1947.793
379.9792, 1943.800
380.4613, 1938.542
380.9434, 1941.030
381.4255, 1952.688
381.9076, 1967.381
382.3897, 1978.528
382.8719, 1986.157
383.3540, 1990.015
383.8361, 1988.474
384.3182, 1983.460
384.8003, 1977.262
385.2824, 1969.746
385.7646, 1966.082
386.2467, 1977.051
386.7288, 1994.711
387.2109, 2002.720
387.6930, 1988.506
388.1751, 1969.717
388.6573, 1963.414
389.1394, 1968.113
389.6215, 1975.607
390.1036, 1983.550
390.5857, 1990.520
391.0678, 1995.367
391.5499, 1998.249
392.0320, 1998.129
392.5142, 1990.137
392.9963, 1978.502
393.4784, 1973.261
393.9605, 1987.345
394.4426, 2002.004
394.9247, 2007.075
395.4069, 1999.170
395.8890, 1988.466
396.3711, 1973.145
396.8532, 1957.439
397.3353, 1947.279
397.8174, 1947.396
398.2996, 1949.188
398.7817, 1952.797
399.2638, 1959.546
399.7459, 1957.285
400.2280, 1934.972
400.7101, 1911.469
401.1923, 1903.031
401.6744, 1919.233
402.1565, 1933.169
402.6386, 1941.458
403.1207, 1944.659
403.6028, 1945.100
404.0850, 1939.981
404.5671, 1937.681
405.0492, 1946.094
405.5313, 1968.471
406.0134, 1980.992
406.4955, 1979.767
406.9777, 1970.438
407.4598, 1962.301
407.9419, 1954.953
408.4240, 1953.631
408.9061, 1963.854
409.3882, 1983.324
409.8704, 1999.055
410.3525, 2010.591
410.8346, 2019.672
411.3167, 2028.788
411.7988, 2037.486
412.2809, 2043.501
412.7631, 2044.354
413.2452, 2043.147
413.7273, 2043.998
414.2094, 2046.899
414.6915, 2051.972
415.1736, 2059.024
415.6558, 2068.427
416.1379, 2080.812
416.6200, 2098.629
417.1021, 2116.196
417.5842, 2127.637
418.0663, 2135.480
418.5485, 2146.963
419.0306, 2171.135
419.5127, 2196.199
419.9948, 2213.990
420.4769, 2220.167
420.9590, 2228.052
421.4412, 2243.961
421.9233, 2263.238
422.4054, 2279.687
422.8875, 2285.542
423.3696, 2294.697
423.8517, 2313.860
424.3339, 2344.968
424.8160, 2367.168
425.2981, 2374.538
425.7802, 2377.054
426.2623, 2382.119
426.7444, 2391.267
427.2266, 2400.243
427.7087, 2408.915
428.1908, 2417.151
428.6729, 2425.947
429.1550, 2438.013
429.6371, 2444.341
430.1193, 2436.263
430.6014, 2410.917
431.0835, 2398.940
431.5656, 2405.866
432.0477, 2417.665
432.5298, 2409.609
433.0119, 2381.794
433.4940, 2354.905
433.9762, 2336.806
434.4583, 2325.998
434.9404, 2319.644
435.4225, 2317.993
435.9046, 2315.310
436.3867, 2306.406
436.8689, 2292.462
437.3510, 2275.917
437.8331, 2256.394
438.3152, 2235.963
438.7973, 2215.321
439.2794, 2195.194
439.7616, 2178.324
440.2437, 2167.407
440.7258, 2160.017
441.2079, 2153.976
441.6900, 2148.489
442.1721, 2146.021
442.6543, 2149.184
443.1364, 2155.778
443.6185, 2162.590
444.1006, 2174.155
444.5827, 2180.538
445.0648, 2175.182
445.5470, 2156.990
446.0291, 2145.103
446.5112, 2143.578
446.9933, 2148.007
447.4754, 2155.205
447.9576, 2165.071
448.4397, 2178.118
448.9218, 2197.345
449.4039, 2219.481
449.8860, 2232.460
450.3681, 2231.281
450.8503, 2230.632
451.3324, 2236.530
451.8145, 2249.059
452.2966, 2268.470
452.7787, 2296.957
453.2608, 2328.020
453.7430, 2352.557
454.2251, 2370.422
454.7072, 2389.904
455.1893, 2413.503
455.6714, 2440.732
456.1535, 2472.126
456.6357, 2507.481
457.1178, 2541.602
457.5999, 2568.336
458.0820, 2590.917
458.5641, 2614.542
459.0462, 2639.484
459.5284, 2668.322
460.0105, 2706.627
460.4926, 2750.993
460.9747, 2791.816
461.4568, 2819.939
461.9389, 2846.378
462.4211, 2877.339
462.9032, 2913.305
463.3853, 2956.594
463.8674, 3014.159
464.3495, 3076.677
464.8316, 3135.291
465.3138, 3173.942
465.7959, 3223.995
466.2780, 3296.914
466.7601, 3388.668
467.2422, 3474.169
467.7243, 3540.558
468.2065, 3613.931
468.6886, 3706.191
469.1707, 3821.425
469.6528, 3944.317
470.1349, 4077.744
470.6170, 4215.487
471.0992, 4344.450
471.5813, 4459.163
472.0634, 4591.352
472.5455, 4757.793
473.0276, 4949.955
473.5097, 5117.507
473.9918, 5258.119
474.4739, 5404.075
474.9561, 5584.365
475.4382, 5794.756
475.9203, 6013.637
476.4024, 6241.238
476.8845, 6470.723
477.3666, 6697.639
477.8488, 6919.962
478.3309, 7131.111
478.8130, 7321.067
479.2951, 7502.431
479.7772, 7679.828
480.2593, 7854.009
480.7415, 8051.026
481.2236, 8320.161
481.7057, 8604.358
482.1878, 8846.953
482.6699, 9004.245
483.1520, 9149.309
483.6342, 9295.673
484.1163, 9444.676
484.5984, 9599.084
485.0805, 9772.566
485.5626, 9939.244
486.0447, 10090.96
486.5269, 10225.00
487.0090, 10352.32
487.4911, 10466.41
487.9732, 10578.06
488.4553, 10701.11
488.9374, 10836.61
489.4196, 10977.44
489.9017, 11125.38
490.3838, 11276.53
490.8659, 11423.14
491.3480, 11565.67
491.8301, 11695.28
492.3123, 11806.86
492.7944, 11900.71
493.2765, 11987.52
493.7586, 12070.80
494.2407, 12132.05
494.7228, 12147.51
495.2050, 12121.98
495.6871, 12068.72
496.1692, 11993.08
496.6513, 11892.32
497.1334, 11755.16
497.6155, 11586.01
498.0977, 11408.22
498.5798, 11223.71
499.0619, 11043.48
499.5440, 10881.38
500.0261, 10744.32
500.5082, 10613.62
500.9904, 10479.04
501.4725, 10349.87
501.9546, 10239.58
502.4367, 10162.39
502.9188, 10092.49
503.4009, 10020.44
503.8831, 9945.514
504.3652, 9895.936
504.8473, 9894.421
505.3294, 9887.091
505.8115, 9833.633
506.2936, 9725.269
506.7758, 9609.731
507.2579, 9493.194
507.7400, 9367.753
508.2221, 9214.483
508.7042, 9033.388
509.1863, 8847.363
509.6685, 8657.775
510.1506, 8472.424
510.6327, 8320.101
511.1148, 8200.952
511.5969, 8081.768
512.0790, 7916.473
512.5612, 7737.535
513.0433, 7598.521
513.5254, 7520.044
514.0075, 7466.487
514.4896, 7418.475
514.9717, 7376.083
515.4539, 7338.472
515.9360, 7301.895
516.4181, 7272.631
516.9002, 7247.406
517.3823, 7224.298
517.8644, 7232.060
518.3466, 7289.993
518.8287, 7371.531
519.3108, 7457.240
519.7929, 7549.972
520.2750, 7642.545
520.7571, 7735.488
521.2393, 7827.553
521.7214, 7918.919
522.2035, 8011.272
522.6856, 8097.856
523.1677, 8170.505
523.6498, 8232.144
524.1320, 8321.953
524.6141, 8446.531
525.0962, 8558.808
525.5783, 8612.744
526.0604, 8618.805
526.5425, 8616.581
527.0247, 8619.339
527.5068, 8602.717
527.9889, 8540.566
528.4710, 8436.813
528.9531, 8299.790
529.4352, 8126.013
529.9174, 7928.112
530.3995, 7709.297
530.8816, 7473.779
531.3637, 7231.596
531.8458, 6991.946
532.3279, 6746.288
532.8101, 6491.280
533.2922, 6208.282
533.7743, 5937.938
534.2564, 5678.352
534.7385, 5434.271
535.2206, 5203.894
535.7027, 4987.493
536.1848, 4787.502
536.6669, 4601.604
537.1490, 4431.593
537.6312, 4287.152
538.1133, 4175.553
538.5954, 4068.011
539.0775, 3935.046
539.5596, 3781.012
540.0417, 3650.192
540.5239, 3549.147
541.0060, 3464.052
541.4881, 3377.236
541.9702, 3290.400
542.4523, 3208.842
542.9344, 3131.422
543.4166, 3062.792
543.8987, 3012.230
544.3808, 2977.021
544.8629, 2940.582
545.3450, 2889.706
545.8271, 2837.028
546.3093, 2792.541
546.7914, 2763.388
547.2735, 2730.122
547.7556, 2684.170
548.2377, 2633.671
548.7198, 2589.562
549.2020, 2552.083
549.6841, 2520.995
550.1662, 2497.366
550.6483, 2480.408
551.1304, 2466.462
551.6125, 2458.855
552.0947, 2444.671
552.5768, 2412.563
553.0589, 2363.108
553.5410, 2322.077
554.0231, 2290.265
554.5052, 2265.800
554.9874, 2251.499
555.4695, 2243.629
555.9516, 2229.652
556.4337, 2201.488
556.9158, 2171.753
557.3979, 2156.221
557.8801, 2150.772
558.3622, 2142.439
558.8443, 2122.830
559.3264, 2099.508
559.8085, 2076.028
560.2906, 2052.175
560.7728, 2033.236
561.2549, 2025.472
561.7370, 2020.439
562.2191, 2011.277
562.7012, 1996.056
563.1833, 1978.835
563.6655, 1957.448
564.1476, 1935.237
564.6297, 1919.795
565.1118, 1912.641
565.5939, 1907.954
566.0760, 1905.459
566.5582, 1904.037
567.0403, 1895.456
567.5224, 1879.274
568.0045, 1862.421
568.4866, 1851.949
568.9688, 1845.147
569.4509, 1834.478
569.9330, 1818.233
570.4151, 1801.873
570.8972, 1788.161
571.3793, 1778.379
571.8615, 1774.983
572.3436, 1788.803
572.8257, 1799.767
573.3078, 1794.251
573.7899, 1775.955
574.2720, 1763.639
574.7542, 1758.047
575.2363, 1762.326
575.7184, 1782.483
576.2005, 1827.774
576.6826, 1849.785
577.1647, 1839.616
577.6469, 1816.463
578.1290, 1798.072
578.6111, 1784.781
579.0932, 1773.468
579.5753, 1762.659
580.0574, 1755.304
580.5396, 1760.906
581.0217, 1778.152
581.5038, 1791.762
581.9859, 1790.548
582.4680, 1782.514
582.9501, 1781.367
583.4323, 1786.494
583.9144, 1790.281
584.3965, 1782.272
584.8786, 1773.359
585.3607, 1775.375
585.8428, 1795.329
586.3250, 1811.916
586.8071, 1818.162
587.2892, 1817.076
587.7713, 1812.479
588.2534, 1797.129
588.7355, 1788.017
589.2177, 1790.470
589.6998, 1800.948
590.1819, 1804.925
590.6640, 1800.949
591.1461, 1794.370
591.6282, 1785.888
592.1104, 1775.900
592.5925, 1772.505
593.0746, 1776.300
593.5567, 1782.165
594.0388, 1785.349
594.5209, 1786.654
595.0031, 1788.921
595.4852, 1794.099
595.9673, 1796.354
596.4494, 1786.282
596.9315, 1769.749
597.4136, 1758.151
597.8958, 1764.931
598.3779, 1769.180
598.8600, 1755.662
599.3421, 1727.729
599.8242, 1714.438
600.3063, 1735.290
600.7885, 1758.377
601.2706, 1770.000
601.7527, 1767.454
602.2348, 1767.089
602.7169, 1770.380
603.1990, 1773.443
603.6812, 1771.668
604.1633, 1764.836
604.6454, 1757.794
605.1275, 1750.204
605.6096, 1744.936
606.0917, 1750.010
606.5739, 1762.550
607.0560, 1770.838
607.5381, 1766.254
608.0202, 1756.470
608.5023, 1747.429
608.9844, 1739.601
609.4666, 1735.592
609.9487, 1739.238
610.4308, 1745.313
610.9129, 1751.183
611.3950, 1757.820
611.8771, 1760.469
612.3593, 1753.482
612.8414, 1745.543
613.3235, 1744.876
613.8056, 1755.952
614.2877, 1763.173
614.7698, 1763.543
615.2520, 1760.434
615.7341, 1762.794
616.2162, 1770.974
