##NAMES=Leucophosphite
##RRUFFID=R060338
##IDEAL CHEMISTRY=KFe^3+^_2_(PO_4_)_2_(OH)&#183;2H_2_O
##LOCALITY=Gunheath pit, St. Austell, Cornwall, England
##OWNER=RRUFF
##SOURCE=Michael Scott
##DESCRIPTION=White to pale pink spherical aggregates associated with green chalcosiderite, R060339, and orange cyrilovite, R060504
##STATUS=The identification of this mineral is confirmed by single-crystal X-ray diffraction and chemical analysis.
##URL=rruff.info/R060338
##MEASURED CHEMISTRY=K_1.00_(Fe^3+^_1.90_Al_0.10_)_Σ=2_(P_1.00_O_4_)_2_(OH)·2.75H_2_O; H_2_O estimated by difference; (OH) by charge balance
90.49219, 28.43363
90.97430, 28.18227
91.45642, 28.09383
91.93854, 28.25346
92.42065, 28.55202
92.90277, 28.81373
93.38489, 29.01172
93.86700, 29.25218
94.34912, 29.97972
94.83124, 31.03882
95.31335, 31.50079
95.79547, 30.19923
96.27759, 27.66151
96.75970, 26.11649
97.24182, 26.13705
97.72394, 26.97808
98.20605, 26.95601
98.68817, 25.97498
99.17029, 24.90063
99.65240, 24.43958
100.1345, 24.63218
100.6166, 24.82885
101.0988, 24.88458
101.5809, 24.82827
102.0630, 24.92392
102.5451, 25.22386
103.0272, 25.58404
103.5093, 25.91260
103.9915, 26.32655
104.4736, 26.37849
104.9557, 25.76534
105.4378, 24.23743
105.9199, 23.49169
106.4020, 23.91571
106.8842, 24.92725
107.3663, 25.52959
107.8484, 25.55520
108.3305, 25.35709
108.8126, 25.02411
109.2947, 24.33719
109.7769, 23.87909
110.2590, 23.64860
110.7411, 23.64658
111.2232, 23.88126
111.7053, 25.01014
112.1874, 25.91485
112.6696, 26.08317
113.1517, 24.23694
113.6338, 22.97608
114.1159, 22.97116
114.5980, 24.03962
115.0801, 24.86566
115.5623, 24.90437
116.0444, 24.69473
116.5265, 24.65354
117.0086, 25.31092
117.4907, 25.78526
117.9728, 25.60623
118.4550, 24.74178
118.9371, 23.97255
119.4192, 23.55459
119.9013, 23.45020
120.3834, 23.61944
120.8655, 24.46523
121.3477, 25.31446
121.8298, 25.59270
122.3119, 25.16389
122.7940, 24.69132
123.2761, 24.63391
123.7582, 24.88424
124.2404, 25.20302
124.7225, 25.37032
125.2046, 25.56881
125.6867, 26.01324
126.1688, 26.73898
126.6509, 27.70915
127.1331, 28.93448
127.6152, 30.39304
128.0973, 31.97569
128.5794, 33.59198
129.0615, 35.27647
129.5436, 37.04543
130.0258, 38.71770
130.5079, 40.68103
130.9900, 43.95984
131.4721, 48.52485
131.9542, 53.20984
132.4363, 56.52008
132.9185, 58.76870
133.4006, 62.15908
133.8827, 67.61949
134.3648, 74.57912
134.8469, 81.11993
135.3290, 86.99667
135.8112, 93.56527
136.2933, 102.4263
136.7754, 113.7092
137.2575, 125.7452
137.7396, 137.6917
138.2217, 149.4092
138.7039, 163.9481
139.1860, 182.0150
139.6681, 201.8389
140.1502, 221.1148
140.6323, 239.3988
141.1144, 257.9902
141.5966, 277.8544
142.0787, 299.6184
142.5608, 319.3381
143.0429, 336.7142
143.5250, 352.1883
144.0071, 366.5070
144.4893, 379.1661
144.9714, 391.2859
145.4535, 403.0078
145.9356, 413.4921
146.4177, 425.5624
146.8998, 439.9298
147.3820, 456.0220
147.8641, 472.0760
148.3462, 487.2220
148.8283, 502.9430
149.3104, 520.2369
149.7925, 540.0613
150.2747, 560.1086
150.7568, 580.0630
151.2389, 599.9229
151.7210, 619.6778
152.2031, 638.7510
152.6852, 657.8624
153.1674, 677.6763
153.6495, 699.8504
154.1316, 720.8394
154.6137, 739.9296
155.0958, 757.0875
155.5779, 773.7587
156.0601, 790.4012
156.5422, 806.5387
157.0243, 821.5636
157.5064, 835.1575
157.9885, 847.8376
158.4706, 859.2670
158.9528, 869.2145
159.4349, 879.9894
159.9170, 890.5352
160.3991, 902.7069
160.8812, 918.6491
161.3633, 942.8671
161.8455, 967.8730
162.3276, 990.8167
162.8097, 1011.086
163.2918, 1029.462
163.7739, 1048.059
164.2560, 1063.396
164.7382, 1065.232
165.2203, 1057.445
165.7024, 1044.218
166.1845, 1026.208
166.6666, 1002.840
167.1487, 977.1614
167.6309, 948.3705
168.1130, 918.1190
168.5951, 890.4372
169.0772, 866.2460
169.5593, 845.4835
170.0414, 828.3536
170.5236, 815.3621
171.0057, 804.5472
171.4878, 794.8517
171.9699, 786.0750
172.4520, 777.8488
172.9341, 769.1295
173.4163, 761.0092
173.8984, 754.7933
174.3805, 750.8568
174.8626, 748.6235
175.3447, 747.7826
175.8268, 748.1850
176.3090, 749.2145
176.7911, 750.4339
177.2732, 751.9814
177.7553, 754.0854
178.2374, 756.8273
178.7195, 760.1103
179.2017, 763.8516
179.6838, 768.0670
180.1659, 772.6346
180.6480, 776.7117
181.1301, 781.0487
181.6122, 787.7726
182.0944, 799.1519
182.5765, 811.9938
183.0586, 820.3613
183.5407, 824.1757
184.0228, 827.8932
184.5049, 835.6735
184.9871, 846.7086
185.4692, 857.8654
185.9513, 868.6744
186.4334, 878.8348
186.9155, 888.0295
187.3976, 896.2406
187.8798, 903.2695
188.3619, 908.6175
188.8440, 912.4911
189.3261, 915.8480
189.8082, 919.2086
190.2903, 922.3303
190.7725, 924.0358
191.2546, 924.1061
191.7367, 924.0294
192.2188, 925.9672
192.7009, 929.7971
193.1830, 932.8846
193.6652, 933.7754
194.1473, 932.9258
194.6294, 933.1322
195.1115, 934.4594
195.5936, 936.5979
196.0757, 939.1396
196.5579, 942.0739
197.0400, 945.6315
197.5221, 949.8063
198.0042, 954.5964
198.4863, 960.4557
198.9684, 967.4365
199.4506, 975.3417
199.9327, 983.9875
200.4148, 993.4994
200.8969, 1002.938
201.3790, 1011.935
201.8611, 1020.421
202.3433, 1029.302
202.8254, 1038.827
203.3075, 1048.355
203.7896, 1056.955
204.2717, 1064.835
204.7538, 1070.946
205.2360, 1074.380
205.7181, 1074.805
206.2002, 1075.456
206.6823, 1076.229
207.1644, 1077.335
207.6465, 1079.035
208.1287, 1081.144
208.6108, 1084.423
209.0929, 1089.277
209.5750, 1095.873
210.0571, 1103.449
210.5392, 1112.321
211.0214, 1121.980
211.5035, 1131.109
211.9856, 1138.984
212.4677, 1148.126
212.9498, 1160.419
213.4319, 1177.102
213.9140, 1191.230
214.3962, 1202.406
214.8783, 1211.255
215.3604, 1219.252
215.8425, 1227.097
216.3246, 1232.647
216.8067, 1235.012
217.2889, 1234.039
217.7710, 1230.122
218.2531, 1222.464
218.7352, 1212.257
219.2173, 1202.078
219.6994, 1191.791
220.1816, 1181.682
220.6637, 1171.701
221.1458, 1161.772
221.6279, 1152.130
222.1100, 1142.727
222.5921, 1133.625
223.0743, 1124.521
223.5564, 1114.920
224.0385, 1106.350
224.5206, 1100.005
225.0027, 1097.036
225.4848, 1092.873
225.9670, 1086.609
226.4491, 1079.445
226.9312, 1074.690
227.4133, 1073.921
227.8954, 1073.044
228.3775, 1070.111
228.8597, 1064.148
229.3418, 1058.337
229.8239, 1052.782
230.3060, 1047.312
230.7881, 1041.710
231.2702, 1036.060
231.7524, 1029.951
232.2345, 1022.870
232.7166, 1012.853
233.1987, 1006.307
233.6808, 1004.698
234.1629, 1006.200
234.6451, 1005.740
235.1272, 1001.655
235.6093, 998.1352
236.0914, 997.2045
236.5735, 1000.294
237.0556, 1002.724
237.5378, 1003.961
238.0199, 1004.737
238.5020, 1006.841
238.9841, 1010.475
239.4662, 1015.213
239.9483, 1020.989
240.4305, 1028.066
240.9126, 1035.399
241.3947, 1042.870
241.8768, 1050.613
242.3589, 1058.923
242.8410, 1067.552
243.3232, 1077.051
243.8053, 1087.588
244.2874, 1099.327
244.7695, 1111.770
245.2516, 1125.136
245.7337, 1139.183
246.2159, 1153.387
246.6980, 1167.796
247.1801, 1182.338
247.6622, 1197.019
248.1443, 1211.661
248.6264, 1227.142
249.1086, 1243.786
249.5907, 1261.224
250.0728, 1278.809
250.5549, 1296.983
251.0370, 1314.564
251.5191, 1331.116
252.0013, 1346.246
252.4834, 1361.260
252.9655, 1376.679
253.4476, 1391.504
253.9297, 1403.865
254.4118, 1413.547
254.8940, 1420.881
255.3761, 1425.641
255.8582, 1427.223
256.3403, 1428.815
256.8224, 1431.142
257.3046, 1432.952
257.7867, 1432.033
258.2688, 1427.729
258.7509, 1422.118
259.2330, 1415.776
259.7151, 1408.580
260.1973, 1401.414
260.6794, 1394.943
261.1615, 1388.047
261.6436, 1378.875
262.1257, 1366.081
262.6078, 1354.150
263.0900, 1344.910
263.5721, 1338.665
264.0542, 1331.096
264.5363, 1321.420
265.0184, 1311.231
265.5005, 1302.168
265.9827, 1294.353
266.4648, 1287.446
266.9469, 1281.224
267.4290, 1275.669
267.9111, 1272.090
268.3932, 1270.957
268.8754, 1271.108
269.3575, 1270.996
269.8396, 1270.097
270.3217, 1270.954
270.8038, 1274.602
271.2859, 1280.915
271.7681, 1286.309
272.2502, 1289.988
272.7323, 1294.412
273.2144, 1302.431
273.6965, 1314.787
274.1786, 1326.833
274.6608, 1337.515
275.1429, 1347.059
275.6250, 1357.527
276.1071, 1369.096
276.5892, 1381.055
277.0714, 1393.087
277.5535, 1405.535
278.0356, 1415.406
278.5177, 1421.515
278.9998, 1424.803
279.4819, 1429.477
279.9641, 1436.114
280.4462, 1441.983
280.9283, 1445.203
281.4104, 1445.755
281.8925, 1443.699
282.3746, 1438.420
282.8568, 1431.015
283.3389, 1424.862
283.8210, 1420.202
284.3031, 1414.844
284.7852, 1407.000
285.2673, 1396.826
285.7495, 1386.050
286.2316, 1374.548
286.7137, 1362.964
287.1958, 1352.508
287.6779, 1343.165
288.1600, 1334.929
288.6422, 1328.421
289.1243, 1323.258
289.6064, 1316.806
290.0885, 1308.200
290.5706, 1299.654
291.0527, 1294.642
291.5349, 1293.076
292.0170, 1293.526
292.4991, 1295.368
292.9812, 1298.649
293.4633, 1303.427
293.9454, 1309.734
294.4276, 1317.568
294.9097, 1326.945
295.3918, 1337.831
295.8739, 1349.904
296.3560, 1363.002
296.8381, 1377.141
297.3203, 1392.160
297.8024, 1408.009
298.2845, 1424.405
298.7666, 1441.372
299.2487, 1458.569
299.7308, 1475.483
300.2130, 1491.959
300.6951, 1507.993
301.1772, 1524.092
301.6593, 1540.200
302.1414, 1555.122
302.6235, 1568.447
303.1057, 1579.723
303.5878, 1587.641
304.0699, 1591.003
304.5520, 1591.564
305.0341, 1591.103
305.5162, 1589.629
305.9984, 1587.090
306.4805, 1582.807
306.9626, 1577.597
307.4447, 1572.792
307.9268, 1569.389
308.4089, 1565.512
308.8911, 1559.055
309.3732, 1550.502
309.8553, 1541.880
310.3374, 1534.988
310.8195, 1528.306
311.3016, 1520.349
311.7838, 1510.528
312.2659, 1500.032
312.7480, 1489.570
313.2301, 1479.160
313.7122, 1468.607
314.1943, 1457.322
314.6765, 1446.111
315.1586, 1435.580
315.6407, 1426.018
316.1228, 1416.561
316.6049, 1406.343
317.0870, 1396.057
317.5692, 1386.993
318.0513, 1380.885
318.5334, 1374.929
319.0155, 1367.586
319.4976, 1358.415
319.9797, 1349.505
320.4619, 1342.302
320.9440, 1335.377
321.4261, 1327.236
321.9082, 1315.626
322.3903, 1304.473
322.8724, 1295.576
323.3546, 1289.042
323.8367, 1281.260
324.3188, 1270.244
324.8009, 1258.430
325.2830, 1247.814
325.7651, 1237.500
326.2473, 1229.588
326.7294, 1225.221
327.2115, 1224.011
327.6936, 1222.791
328.1757, 1220.494
328.6578, 1218.841
329.1400, 1218.698
329.6221, 1221.368
330.1042, 1223.776
330.5863, 1225.721
331.0684, 1227.377
331.5505, 1229.213
332.0327, 1230.969
332.5148, 1233.192
332.9969, 1236.434
333.4790, 1241.822
333.9611, 1244.953
334.4432, 1245.841
334.9254, 1244.435
335.4075, 1240.723
335.8896, 1234.799
336.3717, 1226.292
336.8538, 1214.686
337.3359, 1199.561
337.8180, 1185.009
338.3001, 1171.673
338.7823, 1157.991
339.2644, 1142.372
339.7465, 1124.488
340.2286, 1105.621
340.7107, 1085.775
341.1928, 1065.026
341.6750, 1046.016
342.1571, 1028.646
342.6392, 1012.333
343.1213, 996.2381
343.6034, 980.4745
344.0855, 965.7062
344.5677, 952.1378
345.0498, 939.6796
345.5319, 928.5064
346.0140, 918.6260
346.4961, 909.8251
346.9782, 902.4084
347.4604, 896.0579
347.9425, 889.3143
348.4246, 881.6826
348.9067, 874.5479
349.3888, 870.4867
349.8709, 868.9947
350.3531, 867.2281
350.8352, 862.7094
351.3173, 857.1954
351.7994, 854.2802
352.2815, 854.2363
352.7636, 855.1682
353.2458, 855.3270
353.7279, 855.0936
354.2100, 855.2997
354.6921, 856.5859
355.1742, 858.2225
355.6563, 859.1744
356.1385, 859.5491
356.6206, 860.5481
357.1027, 863.7831
357.5848, 867.8035
358.0669, 870.9130
358.5490, 872.3100
359.0312, 873.1956
359.5133, 873.8371
359.9954, 874.4871
360.4775, 875.9372
360.9596, 879.3043
361.4417, 883.1094
361.9239, 886.4025
362.4060, 888.9776
362.8881, 891.1911
363.3702, 892.9557
363.8523, 894.4814
364.3344, 896.0922
364.8166, 898.0092
365.2987, 899.9302
365.7808, 901.6327
366.2629, 903.0744
366.7450, 904.7803
367.2271, 907.9329
367.7093, 910.8642
368.1914, 912.1080
368.6735, 909.1066
369.1556, 907.1269
369.6377, 907.2678
370.1198, 909.2812
370.6020, 911.0963
371.0841, 912.8417
371.5662, 914.2759
372.0483, 915.1784
372.5304, 914.8851
373.0125, 915.3723
373.4947, 917.1455
373.9768, 919.5450
374.4589, 921.0072
374.9410, 921.2141
375.4231, 921.1320
375.9052, 921.1088
376.3874, 921.1639
376.8695, 920.9905
377.3516, 920.2634
377.8337, 919.8602
378.3158, 921.5573
378.7979, 925.8862
379.2801, 928.2072
379.7622, 926.5107
380.2443, 921.9083
380.7264, 919.2203
381.2085, 918.5456
381.6906, 919.1956
382.1728, 920.8635
382.6549, 923.4619
383.1370, 926.3489
383.6191, 929.4355
384.1012, 932.7649
384.5833, 936.3107
385.0655, 940.1419
385.5476, 944.6765
386.0297, 950.9091
386.5118, 957.8868
386.9939, 963.6844
387.4760, 967.9026
387.9582, 972.4418
388.4403, 979.2699
388.9224, 987.8143
389.4045, 996.7977
389.8866, 1005.719
390.3687, 1014.929
390.8509, 1024.613
391.3330, 1034.720
391.8151, 1045.249
392.2972, 1055.810
392.7793, 1066.856
393.2614, 1078.964
393.7436, 1093.016
394.2257, 1106.861
394.7078, 1118.984
395.1899, 1130.056
395.6720, 1141.840
396.1541, 1154.531
396.6363, 1168.364
397.1184, 1183.760
397.6005, 1201.458
398.0826, 1218.549
398.5647, 1234.426
399.0468, 1249.536
399.5290, 1264.415
400.0111, 1278.671
400.4932, 1293.167
400.9753, 1307.983
401.4574, 1323.181
401.9395, 1338.940
402.4217, 1356.919
402.9038, 1373.838
403.3859, 1387.307
403.8680, 1395.905
404.3501, 1404.544
404.8322, 1414.064
405.3144, 1423.524
405.7965, 1430.156
406.2786, 1433.740
406.7607, 1435.373
407.2428, 1435.293
407.7249, 1433.459
408.2071, 1430.827
408.6892, 1427.273
409.1713, 1423.238
409.6534, 1419.426
410.1355, 1415.803
410.6176, 1411.386
411.0998, 1405.648
411.5819, 1399.055
412.0640, 1393.077
412.5461, 1387.700
413.0282, 1381.237
413.5103, 1371.024
413.9925, 1359.056
414.4746, 1349.715
414.9567, 1344.371
415.4388, 1339.800
415.9209, 1332.458
416.4030, 1323.205
416.8852, 1313.953
417.3673, 1306.141
417.8494, 1298.556
418.3315, 1290.109
418.8136, 1280.807
419.2957, 1271.017
419.7779, 1261.264
420.2600, 1251.065
420.7421, 1240.100
421.2242, 1227.597
421.7063, 1214.924
422.1884, 1202.435
422.6706, 1190.079
423.1527, 1177.135
423.6348, 1162.051
424.1169, 1147.650
424.5990, 1135.094
425.0811, 1124.975
425.5633, 1115.810
426.0454, 1107.179
426.5275, 1099.625
427.0096, 1093.802
427.4917, 1090.469
427.9738, 1087.787
428.4560, 1085.304
428.9381, 1083.035
429.4202, 1081.811
429.9023, 1081.544
430.3844, 1082.472
430.8665, 1084.975
431.3487, 1089.267
431.8308, 1093.740
432.3129, 1098.140
432.7950, 1102.773
433.2771, 1108.810
433.7592, 1116.301
434.2414, 1122.432
434.7235, 1126.336
435.2056, 1127.856
435.6877, 1126.460
436.1698, 1122.181
436.6519, 1114.779
437.1341, 1103.482
437.6162, 1088.934
438.0983, 1072.381
438.5804, 1053.643
439.0625, 1033.832
439.5446, 1013.589
440.0268, 993.1936
440.5089, 973.6505
440.9910, 955.6495
441.4731, 938.7472
441.9552, 921.8959
442.4373, 904.7996
442.9195, 889.7903
443.4016, 879.1691
443.8837, 870.9756
444.3658, 862.8260
444.8479, 853.5903
445.3300, 844.7240
445.8122, 836.3482
446.2943, 828.6019
446.7764, 821.9443
447.2585, 817.0457
447.7406, 812.7896
448.2227, 808.6264
448.7049, 804.5779
449.1870, 800.5992
449.6691, 796.4973
450.1512, 792.5782
450.6333, 789.4777
451.1154, 787.5607
451.5976, 785.5837
452.0797, 783.0009
452.5618, 779.9167
453.0439, 778.1069
453.5260, 777.7172
454.0081, 778.2327
454.4903, 779.5986
454.9724, 781.7858
455.4545, 783.3264
455.9366, 783.7277
456.4187, 784.0483
456.9008, 786.5753
457.3830, 791.0169
457.8651, 794.8229
458.3472, 795.9151
458.8293, 795.8971
459.3114, 797.8396
459.7935, 801.7409
460.2757, 806.2271
460.7578, 809.9869
461.2399, 813.6738
461.7220, 818.2226
462.2041, 824.2128
462.6862, 830.6288
463.1684, 836.7280
463.6505, 842.7784
464.1326, 849.2637
464.6147, 855.8604
465.0968, 863.3995
465.5789, 872.7542
466.0611, 884.3725
466.5432, 894.6352
467.0253, 901.4919
467.5074, 907.3124
467.9895, 914.0364
468.4716, 921.7621
468.9538, 930.5790
469.4359, 940.7243
469.9180, 951.8768
470.4001, 963.1530
470.8822, 974.5552
471.3643, 985.9784
471.8465, 997.4130
472.3286, 1008.883
472.8107, 1020.215
473.2928, 1031.147
473.7749, 1042.283
474.2570, 1054.534
474.7392, 1067.893
475.2213, 1079.931
475.7034, 1089.699
476.1855, 1098.375
476.6676, 1108.659
477.1497, 1120.393
477.6319, 1131.617
478.1140, 1141.499
478.5961, 1150.103
479.0782, 1157.320
479.5603, 1163.078
480.0424, 1168.256
480.5246, 1174.531
481.0067, 1180.404
481.4888, 1183.745
481.9709, 1182.754
482.4530, 1180.403
482.9352, 1178.422
483.4173, 1176.353
483.8994, 1172.742
484.3815, 1166.594
484.8636, 1159.180
485.3457, 1150.902
485.8279, 1141.459
486.3100, 1132.310
486.7921, 1123.426
487.2742, 1114.993
487.7563, 1107.076
488.2384, 1099.451
488.7206, 1092.691
489.2027, 1086.888
489.6848, 1081.990
490.1669, 1078.077
490.6490, 1075.542
491.1311, 1072.930
491.6133, 1069.505
492.0954, 1065.279
492.5775, 1061.149
493.0596, 1057.065
493.5417, 1053.424
494.0238, 1051.185
494.5060, 1049.937
494.9881, 1047.911
495.4702, 1045.023
495.9523, 1040.617
496.4344, 1033.949
496.9165, 1025.031
497.3987, 1013.962
497.8808, 999.4681
498.3629, 983.5097
498.8450, 968.1799
499.3271, 953.5616
499.8092, 937.9902
500.2914, 918.9637
500.7735, 899.2380
501.2556, 880.9223
501.7377, 866.3401
502.2198, 851.3428
502.7019, 834.0226
503.1841, 815.5066
503.6662, 798.7546
504.1483, 784.4444
504.6304, 771.1582
505.1125, 758.5667
505.5946, 746.6104
506.0768, 736.0580
506.5589, 727.5306
507.0410, 719.6197
507.5231, 710.9095
508.0052, 701.0829
508.4873, 692.8563
508.9695, 686.9307
509.4516, 682.3543
509.9337, 677.4403
510.4158, 672.2220
510.8979, 667.3824
511.3800, 663.5792
511.8622, 660.1979
512.3443, 655.3693
512.8264, 649.2319
513.3085, 643.6833
513.7906, 640.4504
514.2728, 638.5736
514.7549, 636.9603
515.2370, 635.6163
515.7191, 633.8575
516.2012, 630.7216
516.6833, 627.0202
517.1655, 623.9468
517.6476, 622.6496
518.1297, 621.2989
518.6118, 619.0813
519.0939, 616.0925
519.5760, 613.5368
520.0582, 611.7368
520.5403, 610.2753
521.0224, 609.0763
521.5045, 608.3574
521.9866, 607.2023
522.4688, 605.3936
522.9509, 603.3776
523.4330, 601.5885
523.9151, 599.9720
524.3972, 598.9063
524.8793, 598.6304
525.3615, 598.8307
525.8436, 598.6536
526.3257, 598.1036
526.8078, 597.6017
527.2899, 597.4168
527.7720, 597.4518
528.2542, 597.6176
528.7363, 597.9281
529.2184, 597.9352
529.7005, 596.4810
530.1826, 594.7408
530.6647, 594.4423
531.1469, 596.9014
531.6290, 599.5035
532.1111, 600.5215
532.5932, 600.6455
533.0753, 601.2789
533.5574, 603.3820
534.0396, 605.5297
534.5217, 607.1689
535.0038, 608.2215
535.4859, 609.5477
535.9680, 611.4037
536.4501, 613.2803
536.9323, 614.8156
537.4144, 615.7130
537.8965, 617.1264
538.3786, 619.0840
538.8607, 621.5494
539.3428, 624.6954
539.8250, 628.6472
540.3071, 631.9266
540.7892, 633.7556
541.2713, 634.9098
541.7534, 637.1843
542.2355, 640.5266
542.7177, 644.3333
543.1998, 648.4373
543.6819, 652.7394
544.1640, 657.1536
544.6461, 661.6934
545.1282, 666.0066
545.6104, 669.6600
546.0925, 672.9717
546.5746, 676.3094
547.0567, 679.9713
547.5388, 683.3828
548.0209, 686.1115
548.5031, 688.4258
548.9852, 690.9819
549.4673, 694.9400
549.9494, 698.0080
550.4315, 699.5118
550.9136, 699.4578
551.3958, 699.0667
551.8779, 698.4211
552.3600, 697.3007
552.8421, 695.6430
553.3242, 693.4935
553.8063, 690.2694
554.2885, 685.7776
554.7706, 680.6791
555.2527, 675.6161
555.7348, 670.6434
556.2169, 666.1174
556.6990, 662.3307
557.1812, 658.8759
557.6633, 654.8157
558.1454, 650.4932
558.6275, 647.1906
559.1096, 646.4501
559.5917, 646.5068
560.0739, 646.1180
560.5560, 645.1939
561.0381, 643.7626
561.5202, 641.3619
562.0023, 638.7654
562.4844, 636.5286
562.9666, 634.5021
563.4487, 633.2009
563.9308, 632.9643
564.4129, 633.2980
564.8950, 633.5065
565.3771, 633.6672
565.8593, 633.4630
566.3414, 632.5817
566.8235, 631.3040
567.3056, 630.9988
567.7877, 631.7751
568.2698, 632.7208
568.7520, 633.2950
569.2341, 633.5919
569.7162, 633.9757
570.1983, 634.4555
570.6804, 635.0408
571.1625, 635.8318
571.6447, 636.7122
572.1268, 637.4343
572.6089, 637.7645
573.0910, 638.3359
573.5731, 639.8215
574.0552, 641.7928
574.5374, 643.5307
575.0195, 644.1518
575.5016, 645.1561
575.9837, 647.4894
576.4658, 650.9729
576.9479, 653.3586
577.4301, 653.7571
577.9122, 654.0294
578.3943, 654.8698
578.8764, 656.2398
579.3585, 658.5184
579.8406, 661.9567
580.3228, 665.7415
580.8049, 668.8082
581.2870, 671.2195
581.7691, 674.5833
