##NAMES=Leucite
##RRUFFID=R060300
##IDEAL CHEMISTRY=K(Si_2_Al)O_6_
##LOCALITY=Alban Hills, Rome Province, Latium, Italy
##OWNER=RRUFF
##SOURCE=Herb Obodda
##DESCRIPTION=Colorless complete pseudocubic crystal showing trapezohedral faces
##STATUS=The identification of this mineral has been confirmed by X-ray diffraction and chemical analysis
##URL=rruff.info/R060300
##MEASURED CHEMISTRY=(K_0.98_Na_0.02_)_Î£=1_Al_1.00_Si_2.00_O_6_
91.53320, 313.7232
92.01532, 310.3528
92.49744, 308.3417
92.97955, 313.1640
93.46167, 319.5550
93.94379, 322.1210
94.42590, 322.5865
94.90802, 321.6840
95.39014, 319.2278
95.87225, 314.9419
96.35437, 310.5256
96.83649, 307.0591
97.31860, 304.0074
97.80072, 300.7875
98.28284, 296.8124
98.76495, 291.9398
99.24707, 286.8177
99.72919, 280.8963
100.2113, 275.4266
100.6934, 270.6392
101.1755, 266.4410
101.6577, 262.6691
102.1398, 259.0767
102.6219, 255.4879
103.1040, 253.0080
103.5861, 252.3046
104.0682, 251.7875
104.5504, 250.4082
105.0325, 248.0771
105.5146, 245.5998
105.9967, 244.1109
106.4788, 244.0238
106.9609, 243.8552
107.4431, 243.3106
107.9252, 242.6776
108.4073, 242.3573
108.8894, 242.4966
109.3715, 242.9476
109.8536, 243.4083
110.3358, 243.8026
110.8179, 244.4311
111.3000, 245.3629
111.7821, 246.6138
112.2642, 248.3992
112.7463, 251.2938
113.2285, 254.4944
113.7106, 257.2159
114.1927, 259.2808
114.6748, 260.9468
115.1569, 262.6195
115.6390, 264.5475
116.1212, 265.8167
116.6033, 266.3473
117.0854, 266.1469
117.5675, 265.1337
118.0496, 263.2244
118.5317, 260.5260
119.0139, 257.5851
119.4960, 254.4311
119.9781, 250.9446
120.4602, 246.8281
120.9423, 242.3568
121.4244, 238.0222
121.9066, 234.2203
122.3887, 230.9983
122.8708, 227.5377
123.3529, 223.3325
123.8350, 219.3628
124.3171, 216.0110
124.7993, 213.3252
125.2814, 211.2363
125.7635, 209.6470
126.2456, 208.6281
126.7277, 208.3329
127.2098, 209.2918
127.6920, 210.7399
128.1741, 211.7623
128.6562, 212.0765
129.1383, 212.4406
129.6204, 213.8575
130.1025, 216.1841
130.5847, 218.9233
131.0668, 222.2783
131.5489, 225.9781
132.0310, 228.9366
132.5131, 230.2177
132.9952, 231.5363
133.4774, 234.3755
133.9595, 238.7550
134.4416, 243.7035
134.9237, 248.5238
135.4058, 253.2703
135.8879, 257.6626
136.3701, 261.2718
136.8522, 264.7341
137.3343, 268.4586
137.8164, 272.5612
138.2985, 276.7120
138.7806, 280.2886
139.2628, 282.5608
139.7449, 285.6534
140.2270, 290.2841
140.7091, 295.4453
141.1912, 300.1836
141.6733, 304.0482
142.1555, 307.3963
142.6376, 311.3952
143.1197, 317.0674
143.6018, 322.2793
144.0839, 326.4837
144.5660, 330.1133
145.0482, 334.0279
145.5303, 338.8522
146.0124, 344.2679
146.4945, 347.9570
146.9766, 348.7117
147.4587, 349.3354
147.9409, 351.1640
148.4230, 353.9764
148.9051, 356.6598
149.3872, 358.5879
149.8693, 359.6518
150.3514, 360.1077
150.8336, 359.6266
151.3157, 358.7415
151.7978, 357.9560
152.2799, 357.3135
152.7620, 356.4947
153.2441, 355.3350
153.7263, 353.8309
154.2084, 351.8179
154.6905, 349.0165
155.1726, 345.7150
155.6547, 342.5400
156.1368, 339.6201
156.6190, 336.6107
157.1011, 333.5669
157.5832, 330.3272
158.0653, 326.4802
158.5474, 321.4166
159.0295, 315.2843
159.5117, 310.0980
159.9938, 306.7518
160.4759, 303.5157
160.9580, 299.8795
161.4401, 295.8475
161.9222, 291.5866
162.4044, 287.1974
162.8865, 282.5880
163.3686, 278.2512
163.8507, 274.1339
164.3328, 270.2747
164.8149, 266.7101
165.2971, 263.4215
165.7792, 260.4516
166.2613, 257.8369
166.7434, 255.7144
167.2255, 253.6326
167.7076, 251.1719
168.1898, 249.0072
168.6719, 247.5726
169.1540, 246.9625
169.6361, 247.0809
170.1182, 247.8530
170.6003, 249.5358
171.0825, 251.3208
171.5646, 252.8195
172.0467, 254.5390
172.5288, 257.1024
173.0109, 260.7155
173.4930, 265.0121
173.9752, 269.5132
174.4573, 274.1537
174.9394, 279.1294
175.4215, 284.8090
175.9036, 290.8877
176.3857, 296.6440
176.8679, 301.9228
177.3500, 306.7985
177.8321, 311.5803
178.3142, 316.3830
178.7963, 320.4490
179.2784, 323.1861
179.7606, 324.7127
180.2427, 325.8319
180.7248, 326.9564
181.2069, 327.4697
181.6890, 327.0222
182.1711, 325.5848
182.6533, 323.1089
183.1354, 319.2508
183.6175, 313.8307
184.0996, 308.4584
184.5817, 303.8587
185.0638, 299.1761
185.5460, 293.8972
186.0281, 287.9135
186.5102, 281.5103
186.9923, 274.9665
187.4744, 268.0482
187.9565, 261.6490
188.4387, 256.0598
188.9208, 250.8201
189.4029, 245.7051
189.8850, 240.6038
190.3671, 235.5195
190.8492, 230.3217
191.3314, 224.7166
191.8135, 219.5874
192.2956, 215.2831
192.7777, 211.2878
193.2598, 207.1192
193.7419, 202.6049
194.2241, 197.9444
194.7062, 193.6271
195.1883, 190.0445
195.6704, 186.3574
196.1525, 182.1321
196.6346, 177.9400
197.1168, 174.5064
197.5989, 172.1610
198.0810, 170.5943
198.5631, 168.9499
199.0452, 167.4944
199.5273, 165.6283
200.0095, 162.7251
200.4916, 159.4212
200.9737, 156.8123
201.4558, 155.4583
201.9379, 154.9290
202.4200, 153.9523
202.9022, 152.3497
203.3843, 150.7375
203.8664, 149.1320
204.3485, 147.6520
204.8306, 146.6905
205.3127, 146.5469
205.7949, 146.9006
206.2770, 147.0676
206.7591, 147.1632
207.2412, 146.8816
207.7233, 145.6902
208.2054, 143.7789
208.6876, 142.4018
209.1697, 142.3477
209.6518, 142.9079
210.1339, 142.9501
210.6160, 142.2862
211.0981, 141.5309
211.5803, 141.3533
212.0624, 141.7576
212.5445, 141.7061
213.0266, 140.4563
213.5087, 138.7939
213.9908, 137.4464
214.4730, 136.5520
214.9551, 135.8211
215.4372, 135.0187
215.9193, 134.1630
216.4014, 133.1031
216.8836, 131.6067
217.3657, 129.9829
217.8478, 128.4153
218.3299, 126.9554
218.8120, 125.5240
219.2941, 124.0369
219.7763, 122.5006
220.2584, 120.8828
220.7405, 119.1683
221.2226, 117.3728
221.7047, 115.5046
222.1868, 113.5647
222.6690, 111.5380
223.1511, 109.3487
223.6332, 106.7746
224.1153, 104.5408
224.5974, 102.6790
225.0795, 101.1423
225.5617, 100.0762
226.0438, 99.46764
226.5259, 98.93640
227.0080, 97.77505
227.4901, 95.49854
227.9722, 93.46491
228.4544, 91.81505
228.9365, 90.33331
229.4186, 88.92710
229.9007, 87.55193
230.3828, 86.13881
230.8649, 84.55180
231.3471, 82.35703
231.8292, 80.71851
232.3113, 79.97371
232.7934, 79.53628
233.2755, 78.97828
233.7576, 78.16920
234.2398, 77.16074
234.7219, 76.02778
235.2040, 74.47789
235.6861, 73.36546
236.1682, 72.99590
236.6503, 72.88583
237.1325, 72.64780
237.6146, 72.17313
238.0967, 71.51221
238.5788, 70.69685
239.0609, 69.51334
239.5430, 68.72731
240.0252, 68.77277
240.5073, 69.03148
240.9894, 68.87065
241.4715, 68.13947
241.9536, 67.14272
242.4357, 66.20635
242.9179, 65.27073
243.4000, 64.72513
243.8821, 65.01181
244.3642, 65.52364
244.8463, 65.53222
245.3284, 64.87432
245.8106, 64.05181
246.2927, 63.66742
246.7748, 63.73585
247.2569, 63.77845
247.7390, 63.58018
248.2211, 63.38291
248.7033, 63.60039
249.1854, 64.35420
249.6675, 65.04777
250.1496, 64.91287
250.6317, 64.08776
251.1138, 63.50619
251.5960, 63.47007
252.0781, 63.73181
252.5602, 63.99633
253.0423, 64.23771
253.5244, 64.47578
254.0065, 64.78773
254.4887, 65.11881
254.9708, 65.28662
255.4529, 65.01133
255.9350, 64.64072
256.4171, 64.71866
256.8992, 65.34216
257.3813, 66.03957
257.8635, 66.54713
258.3456, 66.89484
258.8277, 67.08994
259.3098, 67.01303
259.7919, 66.85293
260.2740, 66.93326
260.7562, 67.32935
261.2383, 67.63846
261.7204, 67.46207
262.2025, 67.10033
262.6846, 66.92148
263.1667, 67.06522
263.6489, 67.39375
264.1310, 67.79017
264.6131, 68.31851
265.0952, 68.63380
265.5773, 68.35572
266.0594, 67.87176
266.5416, 67.52052
267.0237, 67.38835
267.5058, 67.42777
267.9879, 67.64246
268.4700, 68.09877
268.9521, 68.42181
269.4343, 68.29996
269.9164, 68.08801
270.3985, 68.06802
270.8806, 68.31730
271.3627, 68.66444
271.8448, 68.95029
272.3270, 69.20551
272.8091, 69.24242
273.2912, 68.71839
273.7733, 68.14265
274.2554, 67.84441
274.7375, 67.87466
275.2197, 68.02904
275.7018, 68.13868
276.1839, 68.22961
276.6660, 68.10123
277.1481, 67.25656
277.6302, 66.52716
278.1124, 66.42117
278.5945, 66.92857
279.0766, 67.61489
279.5587, 68.05147
280.0408, 68.20545
280.5229, 68.41821
281.0051, 68.55617
281.4872, 68.89893
281.9693, 69.77481
282.4514, 71.02237
282.9335, 72.11935
283.4156, 72.51418
283.8978, 72.18533
284.3799, 72.18222
284.8620, 72.85350
285.3441, 73.52098
285.8262, 73.79248
286.3083, 73.87056
286.7905, 74.22859
287.2726, 75.26711
287.7547, 76.90146
288.2368, 78.28734
288.7189, 79.06977
289.2010, 80.02676
289.6832, 81.54082
290.1653, 83.31885
290.6474, 84.89876
291.1295, 85.97457
291.6116, 86.70591
292.0938, 87.72640
292.5759, 89.09776
293.0580, 90.71230
293.5401, 92.67649
294.0222, 94.79640
294.5043, 96.91402
294.9865, 98.97086
295.4686, 100.8579
295.9507, 102.2322
296.4328, 102.5374
296.9149, 103.3363
297.3970, 105.1935
297.8792, 107.3364
298.3613, 109.1488
298.8434, 110.4349
299.3255, 111.3141
299.8076, 111.9562
300.2897, 112.2901
300.7719, 112.5290
301.2540, 112.7184
301.7361, 112.8104
302.2182, 112.8196
302.7003, 112.7234
303.1824, 112.4319
303.6646, 111.8248
304.1467, 110.8620
304.6288, 109.7170
305.1109, 108.1263
305.5930, 106.5853
306.0751, 105.4088
306.5573, 104.5299
307.0394, 103.6366
307.5215, 102.4368
308.0036, 100.8988
308.4857, 99.41065
308.9678, 97.77779
309.4500, 96.38980
309.9321, 95.60022
310.4142, 95.13869
310.8963, 94.44956
311.3784, 93.11404
311.8605, 91.23730
312.3427, 89.67094
312.8248, 88.44700
313.3069, 87.53244
313.7890, 87.22908
314.2711, 87.13064
314.7532, 86.65703
315.2354, 85.50630
315.7175, 83.97609
316.1996, 82.96680
316.6817, 82.96506
317.1638, 82.72050
317.6459, 82.01891
318.1281, 81.08549
318.6102, 80.01038
319.0923, 78.85325
319.5744, 77.83042
320.0565, 77.35472
320.5386, 77.73479
321.0208, 77.96054
321.5029, 77.79707
321.9850, 77.63745
322.4671, 77.89195
322.9492, 78.50891
323.4313, 78.95448
323.9135, 78.51554
324.3956, 76.90179
324.8777, 75.88685
325.3598, 76.06467
325.8419, 76.28889
326.3240, 76.05946
326.8062, 75.48589
327.2883, 74.98788
327.7704, 74.92235
328.2525, 75.25554
328.7346, 75.36269
329.2167, 74.77308
329.6989, 74.50253
330.1810, 75.10526
330.6631, 76.10994
331.1452, 76.74294
331.6273, 76.53541
332.1094, 75.86911
332.5916, 76.02400
333.0737, 77.84335
333.5558, 79.02762
334.0379, 78.85660
334.5200, 78.14530
335.0021, 77.64291
335.4843, 77.59206
335.9664, 77.72202
336.4485, 77.59010
336.9306, 77.09749
337.4127, 76.63287
337.8948, 76.16504
338.3770, 75.78374
338.8591, 75.57217
339.3412, 75.52100
339.8233, 75.53365
340.3055, 75.52140
340.7876, 75.48237
341.2697, 75.45403
341.7518, 75.94369
342.2339, 75.90229
342.7160, 74.53912
343.1982, 72.29822
343.6803, 70.23550
344.1624, 69.07268
344.6445, 68.66103
345.1266, 68.26643
345.6087, 67.86817
346.0909, 67.52733
346.5730, 67.33469
347.0551, 67.17744
347.5372, 66.90522
348.0193, 66.44130
348.5014, 65.88015
348.9836, 65.35749
349.4657, 64.84201
349.9478, 64.48112
350.4299, 64.67136
350.9120, 64.81043
351.3941, 64.28915
351.8763, 63.01655
352.3584, 61.74238
352.8405, 61.32073
353.3226, 61.77531
353.8047, 62.16310
354.2868, 62.37232
354.7690, 62.46980
355.2511, 62.36338
355.7332, 62.14254
356.2153, 62.15472
356.6974, 62.90870
357.1795, 64.12407
357.6617, 64.60767
358.1438, 63.99426
358.6259, 63.37519
359.1080, 63.40178
359.5901, 63.82090
360.0722, 64.26936
360.5544, 64.69417
361.0365, 65.00388
361.5186, 65.00663
362.0007, 64.65660
362.4828, 64.35290
362.9649, 64.19096
363.4471, 64.20844
363.9292, 64.47672
364.4113, 65.04488
364.8934, 65.68111
365.3755, 66.31150
365.8576, 66.89555
366.3398, 67.19726
366.8219, 67.11657
367.3040, 66.79256
367.7861, 66.23028
368.2682, 65.46712
368.7503, 65.01568
369.2325, 65.28050
369.7146, 65.92753
370.1967, 66.44663
370.6788, 66.81416
371.1609, 66.92287
371.6430, 66.50955
372.1252, 65.74962
372.6073, 65.24290
373.0894, 65.22547
373.5715, 65.36179
374.0536, 65.34220
374.5357, 65.21372
375.0179, 65.31559
375.5000, 65.95259
375.9821, 66.78655
376.4642, 67.01321
376.9463, 66.47206
377.4284, 65.80053
377.9106, 64.92059
378.3927, 64.13024
378.8748, 64.10887
379.3569, 65.10799
379.8390, 66.33832
380.3211, 66.73360
380.8033, 66.10122
381.2854, 65.73809
381.7675, 66.06750
382.2496, 66.46011
382.7317, 66.23866
383.2138, 65.47293
383.6960, 64.95361
384.1781, 65.32634
384.6602, 66.51820
385.1423, 67.43489
385.6244, 68.15545
386.1065, 68.57670
386.5887, 68.32644
387.0708, 67.81090
387.5529, 67.83240
388.0350, 68.77180
388.5171, 70.07877
388.9992, 70.53568
389.4814, 69.34167
389.9635, 68.47640
390.4456, 68.02531
390.9277, 67.83885
391.4098, 67.93387
391.8919, 68.23442
392.3741, 68.44753
392.8562, 68.23981
393.3383, 67.53555
393.8204, 66.98469
394.3025, 66.50282
394.7846, 66.24683
395.2668, 66.51287
395.7489, 67.01954
396.2310, 67.22831
396.7131, 66.79774
397.1952, 65.94908
397.6773, 65.47996
398.1595, 65.78645
398.6416, 65.81202
399.1237, 65.28688
399.6058, 64.54320
400.0879, 63.79069
400.5700, 63.10522
401.0522, 62.56201
401.5343, 62.32209
402.0164, 62.47223
402.4985, 62.40356
402.9806, 61.62376
403.4627, 61.07925
403.9449, 61.48501
404.4270, 62.48244
404.9091, 63.11336
405.3912, 62.64933
405.8733, 61.45665
406.3554, 60.67585
406.8376, 60.39101
407.3197, 60.30196
407.8018, 60.37661
408.2839, 60.54107
408.7660, 60.73992
409.2481, 60.96992
409.7303, 61.18976
410.2124, 61.29253
410.6945, 61.29757
411.1766, 61.54529
411.6587, 62.30971
412.1408, 63.07656
412.6230, 63.23485
413.1051, 62.88403
413.5872, 62.77674
414.0693, 63.45409
414.5514, 64.48594
415.0335, 65.09840
415.5157, 65.19965
415.9978, 65.43135
416.4799, 66.24796
416.9620, 67.52090
417.4441, 68.76981
417.9262, 69.90907
418.4084, 71.11598
418.8905, 72.73335
419.3726, 74.50313
419.8547, 75.64514
420.3368, 75.79345
420.8189, 75.54919
421.3011, 75.87997
421.7832, 76.90409
422.2653, 77.95675
422.7474, 79.08862
423.2295, 80.14039
423.7116, 80.83642
424.1938, 81.23827
424.6759, 81.83950
425.1580, 83.07539
425.6401, 84.89771
426.1222, 86.44714
426.6043, 87.60273
427.0865, 88.67119
427.5686, 89.77548
428.0507, 90.82640
428.5328, 91.67563
429.0149, 92.27060
429.4970, 92.72031
429.9792, 93.26746
430.4613, 94.26488
430.9434, 94.54676
431.4255, 93.64966
431.9076, 92.57898
432.3897, 91.79279
432.8719, 91.34132
433.3540, 91.18998
433.8361, 91.45858
434.3182, 91.97667
434.8003, 91.41245
435.2824, 88.93739
435.7646, 86.62202
436.2467, 84.98550
436.7288, 83.75113
437.2109, 82.69851
437.6930, 81.76074
438.1751, 80.82096
438.6573, 79.68932
439.1394, 78.34563
439.6215, 77.08568
440.1036, 75.86600
440.5857, 74.84409
441.0678, 74.14265
441.5500, 73.71203
442.0321, 73.36203
442.5142, 72.93588
442.9963, 72.55132
443.4784, 72.50787
443.9605, 72.86543
444.4427, 73.08426
444.9248, 72.74749
445.4069, 72.17883
445.8890, 71.96692
446.3711, 72.25307
446.8532, 72.56547
447.3354, 72.63913
447.8175, 72.55213
448.2996, 72.39224
448.7817, 72.13611
449.2638, 72.09087
449.7459, 72.69308
450.2281, 73.99374
450.7102, 75.01541
451.1923, 75.40511
451.6744, 75.78857
452.1565, 76.60929
452.6386, 77.76235
453.1208, 78.83974
453.6029, 79.60741
454.0850, 80.24947
454.5671, 81.27708
455.0492, 82.89073
455.5313, 84.65665
456.0135, 86.86935
456.4956, 89.03259
456.9777, 90.61903
457.4598, 91.65588
457.9419, 92.73373
458.4240, 94.45794
458.9062, 96.83774
459.3883, 99.00970
459.8704, 100.7177
460.3525, 102.5137
460.8346, 104.6774
461.3167, 106.9373
461.7989, 108.7966
462.2810, 110.0615
462.7631, 111.3691
463.2452, 113.8649
463.7273, 117.7960
464.2094, 121.4311
464.6916, 124.1482
465.1737, 126.9056
465.6558, 130.2339
466.1379, 134.0690
466.6200, 138.1223
467.1021, 141.9599
467.5843, 146.0427
468.0664, 151.4124
468.5485, 158.2319
469.0306, 165.2898
469.5127, 171.7580
469.9948, 178.3810
470.4770, 186.1686
470.9591, 195.3415
471.4412, 204.9825
471.9233, 214.4487
472.4054, 224.1329
472.8875, 234.6913
473.3697, 246.2551
473.8518, 258.5008
474.3339, 271.0823
474.8160, 284.0432
475.2981, 298.0479
475.7802, 313.4424
476.2624, 329.4153
476.7445, 345.8433
477.2266, 362.6382
477.7087, 379.5194
478.1908, 396.5069
478.6729, 413.6426
479.1551, 430.9507
479.6372, 448.6077
480.1193, 466.1620
480.6014, 483.7371
481.0835, 501.1883
481.5656, 518.5104
482.0478, 535.5958
482.5299, 552.3385
483.0120, 568.7209
483.4941, 584.5592
483.9762, 598.4445
484.4583, 609.2880
484.9405, 620.3781
485.4226, 632.6187
485.9047, 645.2040
486.3868, 657.2772
486.8689, 668.8159
487.3510, 680.5741
487.8332, 693.0565
488.3153, 706.2120
488.7974, 720.3428
489.2795, 735.7447
489.7616, 751.3664
490.2437, 766.9838
490.7259, 782.3268
491.2080, 797.0618
491.6901, 810.6926
492.1722, 824.3312
492.6543, 839.6448
493.1364, 855.5947
493.6186, 869.2270
494.1007, 879.9290
494.5828, 888.0742
495.0649, 894.2786
495.5470, 898.4791
496.0291, 899.1713
496.5113, 895.6779
496.9934, 889.2532
497.4755, 880.0366
497.9576, 868.4925
498.4397, 855.2592
498.9218, 840.6646
499.4040, 825.1970
499.8861, 810.0521
500.3682, 794.8637
500.8503, 780.9460
501.3324, 767.6516
501.8145, 755.9481
502.2967, 746.6066
502.7788, 739.3714
503.2609, 733.3451
503.7430, 727.9687
504.2251, 723.1877
504.7072, 718.8678
505.1894, 715.0530
505.6715, 711.5681
506.1536, 710.0270
506.6357, 707.7012
507.1178, 702.1467
507.5999, 693.1477
508.0821, 682.8171
508.5642, 672.9715
509.0463, 663.0179
509.5284, 650.9471
510.0105, 636.4481
510.4926, 620.7414
510.9748, 603.7939
511.4569, 586.4457
511.9390, 570.5173
512.4211, 556.3155
512.9032, 543.3643
513.3853, 531.5620
513.8674, 520.8599
514.3495, 511.3884
514.8317, 503.0902
515.3138, 495.6996
515.7959, 488.8664
516.2780, 482.5320
516.7601, 477.6420
517.2422, 474.1431
517.7244, 471.8638
518.2065, 470.8009
518.6886, 470.9002
519.1707, 472.0223
519.6528, 474.1299
520.1349, 477.4708
520.6171, 482.5670
521.0992, 489.7946
521.5813, 497.2483
522.0634, 504.2665
522.5455, 512.2428
523.0276, 522.0876
523.5098, 533.2209
523.9919, 544.5424
524.4740, 555.7027
524.9561, 566.6133
525.4382, 577.5777
525.9203, 588.5536
526.4025, 598.4824
526.8846, 607.8014
527.3667, 614.8964
527.8488, 618.3394
528.3309, 618.3911
528.8130, 616.1586
529.2952, 612.5850
529.7773, 606.4039
530.2594, 596.2641
530.7415, 582.3875
531.2236, 565.5533
531.7057, 545.8266
532.1879, 524.1246
532.6700, 502.1807
533.1521, 479.8174
533.6342, 457.2665
534.1163, 433.8864
534.5984, 410.9829
535.0806, 389.4008
535.5627, 369.0739
536.0448, 349.5197
536.5269, 330.5361
537.0090, 312.1351
537.4911, 294.6094
537.9733, 277.6044
538.4554, 261.9770
538.9375, 248.0675
539.4196, 235.2867
539.9017, 223.1583
540.3839, 211.7480
540.8660, 201.5998
541.3481, 193.3930
541.8302, 186.4816
542.3123, 179.4413
542.7944, 172.2390
543.2766, 165.2903
543.7587, 158.7092
544.2408, 152.5637
544.7229, 146.8469
545.2050, 141.5200
545.6871, 136.8458
546.1693, 133.2491
546.6514, 130.1703
547.1335, 127.0255
547.6156, 123.7879
548.0977, 120.5770
548.5798, 117.4615
549.0620, 114.4326
549.5441, 111.4880
550.0262, 108.4974
550.5083, 105.7864
550.9904, 103.4620
551.4725, 101.3337
551.9547, 99.30025
552.4368, 97.33128
552.9189, 95.40884
553.4010, 93.55810
553.8831, 91.71883
554.3652, 89.65480
554.8474, 87.28452
555.3295, 84.92119
555.8116, 82.41771
556.2937, 80.11042
556.7758, 78.37239
557.2579, 77.18607
557.7401, 76.01820
558.2222, 74.37464
558.7043, 72.62670
559.1864, 71.54972
559.6685, 71.17257
560.1506, 70.56093
560.6328, 69.17137
561.1149, 67.36637
561.5970, 65.90977
562.0791, 64.85770
562.5612, 63.90139
563.0433, 63.15017
563.5255, 62.35274
564.0076, 61.22168
564.4897, 59.81710
564.9718, 58.43257
565.4539, 57.25827
565.9360, 56.23031
566.4182, 55.11805
566.9003, 53.65168
567.3824, 52.61368
567.8645, 52.57827
568.3466, 52.49391
568.8287, 51.48320
569.3109, 49.76832
569.7930, 48.35242
570.2751, 47.98595
570.7572, 48.16247
571.2393, 47.77235
571.7214, 46.76439
572.2036, 45.82964
572.6857, 45.17900
573.1678, 44.71302
573.6499, 44.30101
574.1320, 43.94220
574.6141, 43.69749
575.0963, 43.77834
575.5784, 43.82631
576.0605, 43.53924
576.5426, 42.94896
577.0247, 42.09864
577.5068, 40.96207
577.9890, 39.88995
578.4711, 39.57806
578.9532, 40.41908
579.4353, 41.04103
579.9174, 41.47914
580.3995, 41.69641
580.8817, 41.47145
581.3638, 41.04648
581.8459, 40.92878
582.3280, 41.39301
582.8101, 41.97076
583.2922, 41.76076
583.7744, 40.68147
584.2565, 40.05804
584.7386, 40.34688
585.2207, 40.71376
585.7029, 40.48186
586.1850, 39.86878
586.6671, 39.42344
587.1492, 39.28445
