##NAMES=Leucophoenicite
##RRUFFID=R060308
##IDEAL CHEMISTRY=Mn^2+^_7_(SiO_4_)_3_(OH)_2_
##LOCALITY=Parker Shaft, Franklin, Sussex County, New Jersey, USA
##OWNER=RRUFF
##SOURCE=Michael Scott
##DESCRIPTION=Pink-tan colored massive, associated with white willemite and pinkish ribbeite (R150125). X-ray shows sample is twinned 180 deg around a.
##STATUS=The identification of this mineral has been confirmed by single-crystal X-ray diffraction.
##URL=rruff.info/R060308
91.53320, 368.2666
92.01532, 370.1613
92.49744, 369.9225
92.97955, 372.0435
93.46167, 372.7101
93.94379, 370.3698
94.42590, 367.9183
94.90802, 364.4994
95.39014, 357.7213
95.87225, 346.7162
96.35437, 336.3223
96.83649, 328.4550
97.31860, 322.3293
97.80072, 317.3092
98.28284, 312.8166
98.76495, 308.5389
99.24707, 304.7259
99.72919, 303.3774
100.2113, 300.3017
100.6934, 293.7809
101.1755, 284.6915
101.6577, 274.8266
102.1398, 265.3409
102.6219, 255.7238
103.1040, 249.3035
103.5861, 246.6063
104.0682, 245.5558
104.5504, 245.6389
105.0325, 246.5201
105.5146, 247.4082
105.9967, 247.1736
106.4788, 245.5012
106.9609, 243.2867
107.4431, 240.4751
107.9252, 237.1541
108.4073, 233.1209
108.8894, 227.9357
109.3715, 222.8890
109.8536, 220.3569
110.3358, 220.5229
110.8179, 221.3309
111.3000, 221.8870
111.7821, 222.2035
112.2642, 222.3687
112.7463, 222.0749
113.2285, 221.8688
113.7106, 222.4447
114.1927, 224.1337
114.6748, 226.0180
115.1569, 226.6502
115.6390, 225.3936
116.1212, 224.5235
116.6033, 225.1794
117.0854, 226.3251
117.5675, 226.7713
118.0496, 225.7795
118.5317, 223.8761
119.0139, 223.6131
119.4960, 226.7261
119.9781, 229.8066
120.4602, 232.3609
120.9423, 234.4450
121.4244, 236.2206
121.9066, 237.7757
122.3887, 239.0766
122.8708, 240.6947
123.3529, 242.7397
123.8350, 244.9233
124.3171, 247.1486
124.7993, 249.3965
125.2814, 251.6457
125.7635, 253.9037
126.2456, 256.1849
126.7277, 258.3299
127.2098, 260.0688
127.6920, 261.7851
128.1741, 263.8523
128.6562, 266.3187
129.1383, 269.1955
129.6204, 272.9339
130.1025, 277.4505
130.5847, 281.2702
131.0668, 283.7627
131.5489, 285.0827
132.0310, 285.6722
132.5131, 285.1562
132.9952, 284.4102
133.4774, 284.2556
133.9595, 284.7033
134.4416, 285.2303
134.9237, 285.4252
135.4058, 285.2805
135.8879, 284.8697
136.3701, 284.3093
136.8522, 283.4215
137.3343, 281.6800
137.8164, 279.0144
138.2985, 276.4481
138.7806, 275.9814
139.2628, 279.7043
139.7449, 281.6840
140.2270, 280.3099
140.7091, 277.7396
141.1912, 275.9039
141.6733, 275.6792
142.1555, 276.5631
142.6376, 276.8452
143.1197, 277.0723
143.6018, 275.9933
144.0839, 272.7650
144.5660, 268.1991
145.0482, 263.4748
145.5303, 259.2325
146.0124, 255.4611
146.4945, 251.9907
146.9766, 248.7682
147.4587, 245.8237
147.9409, 243.3045
148.4230, 241.1328
148.9051, 239.0005
149.3872, 236.7704
149.8693, 234.3726
150.3514, 231.6130
150.8336, 228.1623
151.3157, 224.5512
151.7978, 221.4698
152.2799, 219.0468
152.7620, 216.1736
153.2441, 211.5142
153.7263, 205.8278
154.2084, 200.2114
154.6905, 194.9833
155.1726, 190.1159
155.6547, 185.4488
156.1368, 180.7929
156.6190, 176.7987
157.1011, 173.7047
157.5832, 171.3923
158.0653, 169.6622
158.5474, 168.7398
159.0295, 168.5106
159.5117, 167.4091
159.9938, 164.2767
160.4759, 161.3585
160.9580, 159.3867
161.4401, 158.3008
161.9222, 157.7966
162.4044, 157.7055
162.8865, 158.1446
163.3686, 158.2957
163.8507, 157.7811
164.3328, 157.3220
164.8149, 157.3862
165.2971, 157.9034
165.7792, 158.3696
166.2613, 158.1296
166.7434, 156.6865
167.2255, 156.0297
167.7076, 156.9582
168.1898, 158.0143
168.6719, 158.0128
169.1540, 156.7695
169.6361, 155.1584
170.1182, 154.4227
170.6003, 155.0051
171.0825, 155.4185
171.5646, 155.6348
172.0467, 155.6395
172.5288, 155.2939
173.0109, 154.5068
173.4930, 153.6726
173.9752, 153.6604
174.4573, 154.6587
174.9394, 155.1051
175.4215, 154.3123
175.9036, 152.6403
176.3857, 150.7775
176.8679, 148.6479
177.3500, 146.8152
177.8321, 146.0171
178.3142, 146.2795
178.7963, 146.8618
179.2784, 147.5314
179.7606, 148.2459
180.2427, 148.5833
180.7248, 148.1479
181.2069, 147.5225
181.6890, 147.2151
182.1711, 147.2680
182.6533, 147.4770
183.1354, 147.6934
183.6175, 147.9292
184.0996, 148.0807
184.5817, 148.3485
185.0638, 148.3724
185.5460, 147.8436
186.0281, 146.7070
186.5102, 145.2593
186.9923, 143.8343
187.4744, 142.3028
187.9565, 141.1706
188.4387, 141.5105
188.9208, 141.6194
189.4029, 139.8073
189.8850, 135.6599
190.3671, 130.7293
190.8492, 128.0455
191.3314, 129.6583
191.8135, 130.3165
192.2956, 129.2925
192.7777, 127.5043
193.2598, 125.5820
193.7419, 123.8017
194.2241, 122.2904
194.7062, 121.3594
195.1883, 122.1874
195.6704, 122.2242
196.1525, 120.7058
196.6346, 118.5983
197.1168, 117.0660
197.5989, 116.6271
198.0810, 116.9013
198.5631, 116.7987
199.0452, 115.9949
199.5273, 115.2716
200.0095, 114.7752
200.4916, 114.4351
200.9737, 114.1350
201.4558, 113.8215
201.9379, 113.5175
202.4200, 113.2726
202.9022, 112.9987
203.3843, 112.9000
203.8664, 113.1181
204.3485, 113.5781
204.8306, 114.0916
205.3127, 114.6193
205.7949, 115.1055
206.2770, 115.4432
206.7591, 115.6145
207.2412, 115.7024
207.7233, 115.6698
208.2054, 115.5528
208.6876, 115.5566
209.1697, 115.6714
209.6518, 116.0593
210.1339, 116.9727
210.6160, 118.6101
211.0981, 120.2170
211.5803, 121.1469
212.0624, 121.3979
212.5445, 121.5020
213.0266, 121.4323
213.5087, 121.4320
213.9908, 121.7450
214.4730, 122.4291
214.9551, 123.2992
215.4372, 124.1626
215.9193, 125.0168
216.4014, 125.9023
216.8836, 126.9623
217.3657, 127.9862
217.8478, 128.7348
218.3299, 129.1383
218.8120, 129.5699
219.2941, 130.5982
219.7763, 132.4262
220.2584, 134.1832
220.7405, 135.8111
221.2226, 137.2677
221.7047, 138.2569
222.1868, 138.7477
222.6690, 139.4238
223.1511, 141.5320
223.6332, 145.9515
224.1153, 149.8493
224.5974, 152.8391
225.0795, 155.3674
225.5617, 157.6785
226.0438, 159.8615
226.5259, 161.9413
227.0080, 163.9570
227.4901, 165.8613
227.9722, 167.7702
228.4544, 170.2040
228.9365, 172.3451
229.4186, 173.3664
229.9007, 173.1017
230.3828, 172.1973
230.8649, 171.7808
231.3471, 172.3231
231.8292, 172.6171
232.3113, 172.9828
232.7934, 172.9499
233.2755, 171.8703
233.7576, 169.6475
234.2398, 167.0366
234.7219, 165.3311
235.2040, 165.2689
235.6861, 164.8517
236.1682, 163.6637
236.6503, 162.3510
237.1325, 161.6466
237.6146, 161.7167
238.0967, 161.9322
238.5788, 161.2890
239.0609, 159.1189
239.5430, 157.6611
240.0252, 157.5282
240.5073, 157.8794
240.9894, 157.8394
241.4715, 157.2007
241.9536, 156.4342
242.4357, 156.1695
242.9179, 156.5041
243.4000, 156.9526
243.8821, 157.8110
244.3642, 158.6065
244.8463, 158.6850
245.3284, 157.8875
245.8106, 156.8945
246.2927, 156.5547
246.7748, 156.8957
247.2569, 157.0906
247.7390, 156.5813
248.2211, 156.0523
248.7033, 156.6558
249.1854, 158.7250
249.6675, 160.6463
250.1496, 160.3703
250.6317, 158.2588
251.1138, 156.7295
251.5960, 156.8682
252.0781, 157.6035
252.5602, 157.5376
253.0423, 156.4819
253.5244, 155.0083
254.0065, 153.1648
254.4887, 151.2234
254.9708, 150.0842
255.4529, 150.4742
255.9350, 151.5968
256.4171, 152.5571
256.8992, 153.4405
257.3813, 153.6494
257.8635, 152.0464
258.3456, 149.5110
258.8277, 147.4805
259.3098, 146.5462
259.7919, 146.2375
260.2740, 146.1022
260.7562, 146.3001
261.2383, 145.9771
261.7204, 144.1900
262.2025, 141.6853
262.6846, 139.2509
263.1667, 136.9701
263.6489, 135.0268
264.1310, 133.8242
264.6131, 133.5584
265.0952, 133.1776
265.5773, 132.2550
266.0594, 130.9611
266.5416, 129.3044
267.0237, 127.1570
267.5058, 124.9971
267.9879, 123.5139
268.4700, 122.8465
268.9521, 122.2371
269.4343, 121.3108
269.9164, 120.4063
270.3985, 119.8634
270.8806, 119.7899
271.3627, 119.8172
271.8448, 119.4760
272.3270, 118.7006
272.8091, 117.8894
273.2912, 116.6887
273.7733, 115.7736
274.2554, 115.8164
274.7375, 116.8883
275.2197, 118.0835
275.7018, 118.1865
276.1839, 116.9288
276.6660, 116.3247
277.1481, 117.4949
277.6302, 118.7979
278.1124, 119.3256
278.5945, 119.0747
279.0766, 118.7317
279.5587, 119.0464
280.0408, 120.1171
280.5229, 120.9639
281.0051, 121.4317
281.4872, 121.7466
281.9693, 121.9620
282.4514, 122.0962
282.9335, 122.1800
283.4156, 122.3045
283.8978, 122.4789
284.3799, 122.2477
284.8620, 121.0818
285.3441, 120.0241
285.8262, 119.4139
286.3083, 119.1908
286.7905, 119.2130
287.2726, 119.4991
287.7547, 119.9668
288.2368, 119.7612
288.7189, 117.9011
289.2010, 116.5334
289.6832, 116.5568
290.1653, 117.3671
290.6474, 118.0542
291.1295, 118.0969
291.6116, 117.6279
292.0938, 117.1649
292.5759, 116.6550
293.0580, 116.2412
293.5401, 115.9890
294.0222, 115.8228
294.5043, 115.6315
294.9865, 115.3601
295.4686, 115.1097
295.9507, 115.1581
296.4328, 115.7738
296.9149, 116.2106
297.3970, 116.2189
297.8792, 116.1245
298.3613, 116.2418
298.8434, 116.6568
299.3255, 117.1699
299.8076, 117.4310
300.2897, 117.2847
300.7719, 117.2339
301.2540, 117.1770
301.7361, 117.2926
302.2182, 117.7377
302.7003, 118.5148
303.1824, 119.4747
303.6646, 120.4933
304.1467, 121.6528
304.6288, 122.5471
305.1109, 122.7600
305.5930, 123.0900
306.0751, 124.2802
306.5573, 126.0468
307.0394, 127.3180
307.5215, 126.9267
308.0036, 124.6863
308.4857, 123.5044
308.9678, 124.2237
309.4500, 125.2244
309.9321, 126.2596
310.4142, 127.2262
310.8963, 128.0498
311.3784, 128.6963
311.8605, 129.1546
312.3427, 129.3298
312.8248, 129.0663
313.3069, 128.6670
313.7890, 128.2147
314.2711, 127.6563
314.7532, 126.9109
315.2354, 125.9411
315.7175, 124.7744
316.1996, 123.4824
316.6817, 121.8740
317.1638, 120.4421
317.6459, 119.3163
318.1281, 118.3269
318.6102, 117.3817
319.0923, 116.4366
319.5744, 115.4135
320.0565, 114.1550
320.5386, 112.5160
321.0208, 110.9772
321.5029, 109.7601
321.9850, 108.4859
322.4671, 106.8528
322.9492, 104.8595
323.4313, 102.7812
323.9135, 100.8849
324.3956, 99.19166
324.8777, 97.58768
325.3598, 95.95132
325.8419, 94.51208
326.3240, 93.42131
326.8062, 92.61166
327.2883, 91.88573
327.7704, 91.09292
328.2525, 90.23988
328.7346, 89.42982
329.2167, 89.03654
329.6989, 88.22603
330.1810, 86.34396
330.6631, 84.02383
331.1452, 82.25368
331.6273, 81.60738
332.1094, 81.70164
332.5916, 81.31779
333.0737, 80.05647
333.5558, 78.99351
334.0379, 78.20314
334.5200, 77.71450
335.0021, 77.76548
335.4843, 78.40105
335.9664, 79.03271
336.4485, 78.56666
336.9306, 76.46652
337.4127, 74.86773
337.8948, 74.61568
338.3770, 74.41037
338.8591, 73.17879
339.3412, 71.00232
339.8233, 69.07447
340.3055, 68.85776
340.7876, 70.59229
341.2697, 71.61107
341.7518, 71.40541
342.2339, 70.91236
342.7160, 70.29726
343.1982, 69.67859
343.6803, 69.26775
344.1624, 69.29160
344.6445, 69.62495
345.1266, 69.59087
345.6087, 68.83111
346.0909, 68.29426
346.5730, 68.40379
347.0551, 68.83891
347.5372, 69.20230
348.0193, 69.33172
348.5014, 69.33269
348.9836, 69.39217
349.4657, 69.52040
349.9478, 69.67265
350.4299, 70.03413
350.9120, 70.29422
351.3941, 70.04565
351.8763, 69.23528
352.3584, 68.53772
352.8405, 68.78141
353.3226, 69.99833
353.8047, 71.01685
354.2868, 71.53920
354.7690, 71.97409
355.2511, 72.64063
355.7332, 73.47639
356.2153, 74.17905
356.6974, 74.55238
357.1795, 74.63577
357.6617, 74.48792
358.1438, 73.85403
358.6259, 73.53532
359.1080, 74.39290
359.5901, 75.77124
360.0722, 76.56463
360.5544, 76.06934
361.0365, 75.17929
361.5186, 75.29321
362.0007, 76.56223
362.4828, 77.62962
362.9649, 77.66750
363.4471, 77.37682
363.9292, 77.52283
364.4113, 78.20179
364.8934, 79.23935
365.3755, 80.79770
365.8576, 82.71591
366.3398, 84.03305
366.8219, 84.28133
367.3040, 84.23244
367.7861, 84.57778
368.2682, 85.29741
368.7503, 86.44913
369.2325, 88.42672
369.7146, 90.75077
370.1967, 92.49567
370.6788, 93.49515
371.1609, 94.49355
371.6430, 96.13509
372.1252, 98.24610
372.6073, 100.2019
373.0894, 101.4615
373.5715, 102.9024
374.0536, 105.4384
374.5357, 108.8791
375.0179, 112.1685
375.5000, 114.7704
375.9821, 116.8761
376.4642, 118.9824
376.9463, 121.1042
377.4284, 123.1765
377.9106, 124.7881
378.3927, 126.4103
378.8748, 129.0365
379.3569, 133.0112
379.8390, 137.3848
380.3211, 140.9177
380.8033, 143.4050
381.2854, 146.2183
381.7675, 149.7031
382.2496, 153.3481
382.7317, 156.8633
383.2138, 160.1902
383.6960, 163.2545
384.1781, 166.0176
384.6602, 168.4691
385.1423, 170.6668
385.6244, 172.2456
386.1065, 174.0253
386.5887, 176.4582
387.0708, 179.2292
387.5529, 181.9647
388.0350, 184.5315
388.5171, 186.6341
388.9992, 187.5963
389.4814, 186.0694
389.9635, 185.4478
390.4456, 186.3238
390.9277, 187.6966
391.4098, 188.9473
391.8919, 189.8884
392.3741, 190.4364
392.8562, 190.4302
393.3383, 189.7476
393.8204, 189.4598
394.3025, 190.1900
394.7846, 190.6444
395.2668, 190.1278
395.7489, 189.0380
396.2310, 188.1924
396.7131, 188.0973
397.1952, 188.4650
397.6773, 188.2815
398.1595, 187.2369
398.6416, 186.1147
399.1237, 185.0006
399.6058, 183.8731
400.0879, 182.7806
400.5700, 181.7072
401.0522, 180.4745
401.5343, 178.7912
402.0164, 176.5815
402.4985, 174.4133
402.9806, 172.4562
403.4627, 170.3916
403.9449, 167.9984
404.4270, 165.3798
404.9091, 162.8178
405.3912, 160.5345
405.8733, 158.4053
406.3554, 156.0466
406.8376, 153.3507
407.3197, 150.6457
407.8018, 147.8285
408.2839, 145.1758
408.7660, 143.1646
409.2481, 142.0074
409.7303, 140.8454
410.2124, 138.5987
410.6945, 135.3605
411.1766, 132.5482
411.6587, 130.6292
412.1408, 129.0063
412.6230, 127.2148
413.1051, 125.2526
413.5872, 123.0464
414.0693, 120.2725
414.5514, 117.3418
415.0335, 114.9873
415.5157, 113.2879
415.9978, 111.7256
416.4799, 109.9160
416.9620, 108.0118
417.4441, 106.4641
417.9262, 105.4696
418.4084, 104.5906
418.8905, 103.7446
419.3726, 102.8322
419.8547, 101.4885
420.3368, 99.48870
420.8189, 97.35073
421.3011, 96.02403
421.7832, 95.79189
422.2653, 95.12308
422.7474, 93.25016
423.2295, 91.28491
423.7116, 90.45427
424.1938, 90.67343
424.6759, 90.62488
425.1580, 89.17441
425.6401, 86.43668
426.1222, 84.51636
426.6043, 83.51095
427.0865, 83.06571
427.5686, 83.86411
428.0507, 84.92874
428.5328, 84.73968
429.0149, 82.73998
429.4970, 79.93908
429.9792, 78.13130
430.4613, 77.93484
430.9434, 77.38764
431.4255, 76.09496
431.9076, 74.85727
432.3897, 74.16530
432.8719, 73.95423
433.3540, 73.85008
433.8361, 73.56031
434.3182, 73.12415
434.8003, 72.82274
435.2824, 72.71070
435.7646, 72.66364
436.2467, 72.74707
436.7288, 72.82613
437.2109, 72.75466
437.6930, 72.48646
438.1751, 72.09854
438.6573, 71.64511
439.1394, 71.11560
439.6215, 70.68379
440.1036, 70.49619
440.5857, 70.27028
441.0678, 69.71188
441.5500, 68.93217
442.0321, 68.35696
442.5142, 68.49035
442.9963, 68.84827
443.4784, 68.33935
443.9605, 66.80583
444.4427, 65.63126
444.9248, 65.55433
445.4069, 66.27884
445.8890, 67.33979
446.3711, 68.99428
446.8532, 70.22247
447.3354, 70.16633
447.8175, 69.30876
448.2996, 68.71159
448.7817, 68.63205
449.2638, 68.69679
449.7459, 68.54369
450.2281, 68.15609
450.7102, 67.62468
451.1923, 66.48737
451.6744, 65.61935
452.1565, 65.93336
452.6386, 67.03057
453.1208, 67.64142
453.6029, 67.06322
454.0850, 65.72238
454.5671, 64.79904
455.0492, 64.61070
455.5313, 64.43594
456.0135, 64.53580
456.4956, 64.46618
456.9777, 63.55273
457.4598, 61.91869
457.9419, 60.60471
458.4240, 60.74898
458.9062, 62.38558
459.3883, 63.00734
459.8704, 61.44442
460.3525, 60.14124
460.8346, 59.90700
461.3167, 60.12721
461.7989, 59.97463
462.2810, 59.12867
462.7631, 57.97650
463.2452, 57.03210
463.7273, 56.26637
464.2094, 55.90287
464.6916, 56.45638
465.1737, 56.96154
465.6558, 56.72520
466.1379, 55.92342
466.6200, 55.25497
467.1021, 55.10838
467.5843, 55.33789
468.0664, 55.78106
468.5485, 56.51005
469.0306, 56.91858
469.5127, 56.50689
469.9948, 55.73940
470.4770, 55.38006
470.9591, 55.55843
471.4412, 55.75140
471.9233, 55.82706
472.4054, 55.71015
472.8875, 55.12252
473.3697, 53.98167
473.8518, 52.89069
474.3339, 52.37324
474.8160, 52.45755
475.2981, 52.75394
475.7802, 53.48851
476.2624, 54.18964
476.7445, 54.52522
477.2266, 54.69844
477.7087, 55.19835
478.1908, 56.23160
478.6729, 57.34771
479.1551, 57.66512
479.6372, 56.47544
480.1193, 56.17551
480.6014, 57.53241
481.0835, 58.96593
481.5656, 59.62366
482.0478, 59.58762
482.5299, 59.31810
483.0120, 59.09693
483.4941, 58.91275
483.9762, 58.69490
484.4583, 58.27210
484.9405, 58.18229
485.4226, 58.67216
485.9047, 59.40815
486.3868, 60.21143
486.8689, 61.03081
487.3510, 61.76265
487.8332, 62.25680
488.3153, 62.57008
488.7974, 63.04914
489.2795, 63.83489
489.7616, 64.46496
490.2437, 64.55692
490.7259, 64.33055
491.2080, 64.03625
491.6901, 63.52702
492.1722, 63.33785
492.6543, 64.20859
493.1364, 65.72667
493.6186, 66.67445
494.1007, 66.71236
494.5828, 66.25827
495.0649, 65.67455
495.5470, 64.93458
496.0291, 64.48689
496.5113, 64.76659
496.9934, 64.94894
497.4755, 64.44962
497.9576, 63.46586
498.4397, 62.56207
498.9218, 62.02772
499.4040, 61.59343
499.8861, 60.58492
500.3682, 57.96845
500.8503, 56.75824
501.3324, 58.09477
501.8145, 59.68884
502.2967, 60.16870
502.7788, 59.61639
503.2609, 58.81691
503.7430, 58.28473
504.2251, 57.95820
504.7072, 57.59609
505.1894, 57.14544
505.6715, 56.77897
506.1536, 56.48283
506.6357, 56.32264
507.1178, 56.42832
507.5999, 56.79634
508.0821, 57.15015
508.5642, 57.08801
509.0463, 56.85758
509.5284, 57.37000
510.0105, 58.89154
510.4926, 60.19880
510.9748, 60.50277
511.4569, 60.03947
511.9390, 59.36032
512.4211, 58.14934
512.9032, 57.36329
513.3853, 57.83213
513.8674, 58.94450
514.3495, 59.63828
514.8317, 59.68114
515.3138, 59.47395
515.7959, 59.42398
516.2780, 59.55132
516.7601, 59.50698
517.2422, 59.13662
517.7244, 58.79622
518.2065, 58.61456
518.6886, 58.53454
519.1707, 58.53932
519.6528, 58.60577
520.1349, 58.54811
520.6171, 58.08520
521.0992, 57.18020
521.5813, 56.01674
522.0634, 53.95188
522.5455, 52.28015
523.0276, 51.60598
523.5098, 51.64674
523.9919, 51.85281
524.4740, 51.98695
524.9561, 52.16802
525.4382, 52.74612
525.9203, 53.73358
526.4025, 54.10588
526.8846, 53.20891
527.3667, 52.17568
527.8488, 52.30865
528.3309, 53.39709
528.8130, 54.06573
529.2952, 53.50603
529.7773, 52.66810
530.2594, 52.43218
530.7415, 52.71169
531.2236, 52.99321
531.7057, 53.02553
532.1879, 53.01124
532.6700, 53.33654
533.1521, 54.09588
533.6342, 55.03196
534.1163, 56.58981
534.5984, 57.93747
535.0806, 58.43356
535.5627, 58.22950
536.0448, 57.78667
536.5269, 57.34236
537.0090, 57.05568
537.4911, 57.48102
537.9733, 59.03468
538.4554, 60.39815
538.9375, 61.38351
539.4196, 62.17100
539.9017, 62.80739
540.3839, 63.33358
540.8660, 63.84207
541.3481, 64.34885
541.8302, 64.90282
542.3123, 65.64025
542.7944, 66.57919
543.2766, 67.52451
543.7587, 68.33565
544.2408, 69.17171
544.7229, 70.25100
545.2050, 71.58836
545.6871, 73.00729
546.1693, 74.91377
546.6514, 76.57760
547.1335, 76.95857
547.6156, 76.17625
548.0977, 75.34061
548.5798, 75.07349
549.0620, 75.32401
549.5441, 75.91982
550.0262, 77.54163
550.5083, 78.58732
550.9904, 78.74160
551.4725, 78.55041
551.9547, 78.36539
552.4368, 78.22852
552.9189, 78.02072
553.4010, 77.61272
553.8831, 77.11376
554.3652, 77.03940
554.8474, 77.65838
555.3295, 78.02425
555.8116, 77.91906
556.2937, 77.44933
556.7758, 76.45256
557.2579, 75.00697
557.7401, 73.81680
558.2222, 73.56372
558.7043, 73.72799
559.1864, 73.21922
559.6685, 72.00893
560.1506, 71.26412
560.6328, 71.70998
561.1149, 72.81837
561.5970, 73.39492
562.0791, 73.20126
562.5612, 73.33074
563.0433, 73.93374
563.5255, 74.96914
564.0076, 76.64278
564.4897, 78.77562
564.9718, 80.76360
565.4539, 82.20097
565.9360, 83.28069
566.4182, 84.67143
566.9003, 86.78295
567.3824, 88.44090
567.8645, 89.08345
568.3466, 89.71558
568.8287, 91.12582
569.3109, 93.14439
569.7930, 94.97166
570.2751, 96.16851
570.7572, 96.82178
571.2393, 97.11937
571.7214, 97.07336
572.2036, 96.52900
572.6857, 95.31490
573.1678, 93.70061
573.6499, 92.03421
574.1320, 90.32504
574.6141, 88.30665
575.0963, 85.54346
575.5784, 82.73804
576.0605, 80.63387
576.5426, 79.04475
577.0247, 77.22806
577.5068, 74.83633
577.9890, 72.16496
578.4711, 69.76495
578.9532, 67.74102
579.4353, 65.73757
579.9174, 63.57594
580.3995, 61.60530
580.8817, 60.15118
581.3638, 58.99228
581.8459, 57.69148
582.3280, 56.02831
582.8101, 54.23718
583.2922, 52.63061
583.7744, 51.20583
584.2565, 50.09956
584.7386, 49.53048
585.2207, 48.98621
585.7029, 48.03225
586.1850, 46.82027
586.6671, 45.75129
