##NAMES=Leucite
##RRUFFID=R040107
##IDEAL CHEMISTRY=K(Si_2_Al)O_6_
##LOCALITY=Roccamonfina, Italy
##OWNER=RRUFF
##SOURCE=University of Arizona Mineral Museum
##DESCRIPTION=Rounded colorless crystals embedded in an ash matrix
##STATUS=The identification of this mineral has been confirmed by X-ray diffraction and chemical analysis
##URL=rruff.info/R040107
##MEASURED CHEMISTRY=(K_0.95_Na_0.03_)Al_0.99_Si_2.01_O_6_
104.2732, 571.6317
104.7553, 569.5974
105.2374, 556.5214
105.7195, 533.2683
106.2017, 514.2307
106.6838, 508.9092
107.1659, 514.1193
107.6480, 516.7822
108.1301, 512.5079
108.6122, 506.6938
109.0943, 505.0421
109.5765, 507.8015
110.0586, 510.7325
110.5407, 509.6253
111.0228, 504.3897
111.5049, 501.2236
111.9870, 501.6461
112.4692, 504.9648
112.9513, 511.7819
113.4334, 522.4700
113.9155, 533.5425
114.3976, 541.6920
114.8797, 547.3825
115.3619, 547.9399
115.8440, 536.4164
116.3261, 523.1036
116.8082, 516.3009
117.2903, 519.1111
117.7724, 526.4294
118.2546, 528.0349
118.7367, 518.8397
119.2188, 514.0165
119.7009, 523.1779
120.1830, 534.6199
120.6651, 534.5984
121.1473, 515.7169
121.6294, 486.1697
122.1115, 472.1824
122.5936, 482.5322
123.0757, 499.4648
123.5578, 521.9694
124.0400, 548.1609
124.5221, 576.0370
125.0042, 604.0624
125.4863, 632.7308
125.9684, 665.3337
126.4505, 702.1965
126.9327, 742.9716
127.4148, 785.5392
127.8969, 832.2174
128.3790, 887.1223
128.8611, 953.5198
129.3432, 1031.560
129.8254, 1110.664
130.3075, 1193.381
130.7896, 1275.092
131.2717, 1359.721
131.7538, 1442.866
132.2359, 1514.234
132.7181, 1565.155
133.2002, 1594.413
133.6823, 1614.292
134.1644, 1627.007
134.6465, 1630.753
135.1286, 1621.752
135.6107, 1601.656
136.0929, 1576.172
136.5750, 1548.220
137.0571, 1515.856
137.5392, 1502.828
138.0213, 1513.684
138.5034, 1538.543
138.9856, 1573.147
139.4677, 1616.429
139.9498, 1664.412
140.4319, 1711.148
140.9140, 1754.780
141.3961, 1817.564
141.8783, 1903.445
142.3604, 2006.913
142.8425, 2123.703
143.3246, 2253.120
143.8067, 2394.886
144.2888, 2551.002
144.7710, 2722.342
145.2531, 2902.776
145.7352, 3085.607
146.2173, 3235.006
146.6994, 3345.726
147.1815, 3454.253
147.6637, 3557.592
148.1458, 3654.814
148.6279, 3748.689
149.1100, 3827.034
149.5921, 3887.494
150.0742, 3931.846
150.5564, 3961.539
151.0385, 3976.474
151.5206, 3977.950
152.0027, 3966.069
152.4848, 3941.872
152.9669, 3905.857
153.4491, 3852.019
153.9312, 3785.391
154.4133, 3720.341
154.8954, 3661.736
155.3775, 3599.574
155.8596, 3519.912
156.3418, 3423.066
156.8239, 3328.500
157.3060, 3242.793
157.7881, 3166.125
158.2702, 3099.265
158.7523, 3043.443
159.2345, 2996.999
159.7166, 2957.943
160.1987, 2926.256
160.6808, 2897.031
161.1629, 2871.071
161.6451, 2846.942
162.1272, 2813.735
162.6093, 2761.974
163.0914, 2709.815
163.5735, 2671.691
164.0556, 2647.634
164.5378, 2633.258
165.0199, 2632.542
165.5020, 2643.608
165.9841, 2640.086
166.4662, 2600.131
166.9483, 2561.108
167.4305, 2552.651
167.9126, 2575.652
168.3947, 2607.218
168.8768, 2631.677
169.3589, 2649.108
169.8410, 2660.649
170.3232, 2659.383
170.8053, 2658.102
171.2874, 2665.648
171.7695, 2682.568
172.2516, 2703.211
172.7337, 2723.429
173.2158, 2743.182
173.6980, 2761.141
174.1801, 2770.844
174.6622, 2783.359
175.1443, 2806.826
175.6264, 2841.702
176.1085, 2880.204
176.5907, 2914.285
177.0728, 2943.523
177.5549, 2974.486
178.0370, 3025.663
178.5191, 3065.163
179.0012, 3066.894
179.4834, 3030.048
179.9655, 2984.854
180.4476, 2964.880
180.9297, 2974.913
181.4118, 2976.230
181.8939, 2960.631
182.3761, 2936.307
182.8582, 2905.296
183.3403, 2868.417
183.8224, 2828.116
184.3045, 2786.094
184.7866, 2742.225
185.2688, 2699.309
185.7509, 2659.301
186.2330, 2619.315
186.7151, 2579.153
187.1972, 2538.228
187.6793, 2494.908
188.1615, 2446.202
188.6436, 2391.150
189.1257, 2336.365
189.6078, 2273.156
190.0899, 2217.569
190.5720, 2182.079
191.0542, 2165.886
191.5363, 2153.727
192.0184, 2128.077
192.5005, 2085.619
192.9826, 2049.458
193.4647, 2025.001
193.9469, 2004.236
194.4290, 1987.097
194.9111, 1971.811
195.3932, 1952.067
195.8753, 1916.388
196.3574, 1859.244
196.8396, 1819.384
197.3217, 1818.403
197.8038, 1819.754
198.2859, 1804.319
198.7680, 1773.787
199.2501, 1745.156
199.7323, 1738.675
200.2144, 1758.738
200.6965, 1769.311
201.1786, 1763.202
201.6607, 1752.370
202.1428, 1739.646
202.6250, 1725.860
203.1071, 1711.652
203.5892, 1696.531
204.0713, 1679.942
204.5534, 1667.843
205.0355, 1661.254
205.5177, 1658.809
205.9998, 1663.520
206.4819, 1672.854
206.9640, 1679.638
207.4461, 1675.651
207.9282, 1660.374
208.4103, 1652.731
208.8925, 1657.736
209.3746, 1666.240
209.8567, 1680.432
210.3388, 1696.025
210.8209, 1703.352
211.3030, 1691.463
211.7852, 1661.691
212.2673, 1642.630
212.7494, 1646.150
213.2315, 1648.023
213.7136, 1639.222
214.1957, 1622.370
214.6779, 1603.467
215.1600, 1585.857
215.6421, 1569.645
216.1242, 1556.513
216.6063, 1550.184
217.0884, 1542.240
217.5706, 1530.730
218.0527, 1515.750
218.5348, 1497.018
219.0169, 1472.634
219.4990, 1445.106
219.9811, 1425.706
220.4633, 1418.696
220.9454, 1413.940
221.4275, 1413.391
221.9096, 1411.610
222.3917, 1399.337
222.8738, 1368.548
223.3560, 1328.210
223.8381, 1306.529
224.3202, 1317.349
224.8023, 1320.796
225.2844, 1296.365
225.7665, 1261.805
226.2487, 1238.695
226.7308, 1237.789
227.2129, 1248.303
227.6950, 1248.067
228.1771, 1233.149
228.6592, 1217.262
229.1414, 1203.178
229.6235, 1190.731
230.1056, 1181.009
230.5877, 1175.074
231.0698, 1168.482
231.5519, 1151.854
232.0341, 1120.556
232.5162, 1097.100
232.9983, 1093.760
233.4804, 1097.334
233.9625, 1099.573
234.4446, 1098.704
234.9268, 1094.869
235.4089, 1087.113
235.8910, 1074.794
236.3731, 1064.000
236.8552, 1056.275
237.3373, 1050.595
237.8195, 1047.333
238.3016, 1046.498
238.7837, 1044.897
239.2658, 1037.434
239.7479, 1024.312
240.2300, 1017.439
240.7122, 1021.076
241.1943, 1030.036
241.6764, 1043.598
242.1585, 1060.856
242.6406, 1072.157
243.1227, 1066.079
243.6048, 1046.329
244.0870, 1035.115
244.5691, 1040.684
245.0512, 1047.137
245.5333, 1039.404
246.0154, 1020.610
246.4975, 1006.151
246.9797, 1006.997
247.4618, 1017.893
247.9439, 1024.615
248.4260, 1024.761
248.9081, 1024.057
249.3902, 1029.120
249.8724, 1037.117
250.3545, 1040.077
250.8366, 1028.165
251.3187, 1011.988
251.8008, 1010.962
252.2829, 1028.487
252.7651, 1045.262
253.2472, 1045.652
253.7293, 1035.718
254.2114, 1028.542
254.6935, 1026.853
255.1756, 1028.726
255.6578, 1033.906
256.1399, 1042.360
256.6220, 1048.725
257.1041, 1048.541
257.5862, 1044.623
258.0684, 1044.423
258.5505, 1049.614
259.0326, 1056.728
259.5147, 1066.986
259.9968, 1078.540
260.4789, 1080.837
260.9610, 1064.658
261.4431, 1041.329
261.9253, 1037.212
262.4074, 1061.655
262.8895, 1082.943
263.3716, 1084.832
263.8537, 1074.900
264.3358, 1069.496
264.8180, 1074.710
265.3001, 1084.288
265.7822, 1086.938
266.2643, 1080.735
266.7464, 1075.656
267.2285, 1073.564
267.7107, 1073.590
268.1928, 1075.572
268.6749, 1079.466
269.1570, 1082.836
269.6391, 1082.334
270.1212, 1076.173
270.6034, 1072.310
271.0855, 1072.831
271.5676, 1074.207
272.0497, 1073.637
272.5318, 1070.986
273.0139, 1067.932
273.4961, 1066.008
273.9782, 1065.383
274.4603, 1063.972
274.9424, 1061.549
275.4245, 1058.713
275.9066, 1054.177
276.3888, 1049.277
276.8709, 1047.515
277.3530, 1051.596
277.8351, 1060.721
278.3172, 1067.577
278.7993, 1071.434
279.2815, 1073.970
279.7636, 1074.494
280.2457, 1074.147
280.7278, 1074.499
281.2099, 1076.309
281.6920, 1079.132
282.1742, 1081.608
282.6563, 1081.768
283.1384, 1084.719
283.6205, 1095.016
284.1026, 1105.698
284.5847, 1110.522
285.0669, 1107.807
285.5490, 1100.547
286.0311, 1091.347
286.5132, 1075.081
286.9953, 1071.310
287.4774, 1089.909
287.9596, 1112.854
288.4417, 1129.587
288.9238, 1140.017
289.4059, 1151.488
289.8880, 1173.041
290.3701, 1205.522
290.8523, 1231.138
291.3344, 1243.181
291.8165, 1254.926
292.2986, 1273.410
292.7807, 1295.893
293.2628, 1315.830
293.7450, 1328.375
294.2271, 1335.394
294.7092, 1343.118
295.1913, 1351.228
295.6734, 1360.785
296.1555, 1374.144
296.6377, 1388.521
297.1198, 1399.356
297.6019, 1403.090
298.0840, 1406.321
298.5661, 1421.573
299.0482, 1450.893
299.5304, 1471.475
300.0125, 1469.767
300.4946, 1457.824
300.9767, 1449.978
301.4588, 1448.376
301.9409, 1446.879
302.4231, 1438.960
302.9052, 1426.914
303.3873, 1421.886
303.8694, 1430.569
304.3515, 1440.466
304.8336, 1434.278
305.3158, 1412.279
305.7979, 1391.328
306.2800, 1377.414
306.7621, 1367.494
307.2442, 1357.318
307.7263, 1346.295
308.2085, 1335.873
308.6906, 1327.443
309.1727, 1321.120
309.6548, 1315.245
310.1369, 1309.762
310.6190, 1304.744
311.1012, 1301.001
311.5833, 1298.014
312.0654, 1293.744
312.5475, 1286.972
313.0296, 1277.840
313.5117, 1267.287
313.9939, 1255.401
314.4760, 1242.256
314.9581, 1222.789
315.4402, 1203.414
315.9223, 1195.447
316.4044, 1203.494
316.8866, 1219.112
317.3687, 1225.043
317.8508, 1212.703
318.3329, 1203.655
318.8150, 1199.763
319.2971, 1197.615
319.7793, 1196.177
320.2614, 1194.465
320.7435, 1189.529
321.2256, 1175.774
321.7077, 1149.278
322.1898, 1138.400
322.6720, 1157.601
323.1541, 1178.914
323.6362, 1195.148
324.1183, 1205.754
324.6004, 1211.414
325.0826, 1211.284
325.5647, 1207.336
326.0468, 1207.859
326.5289, 1213.895
327.0110, 1222.831
327.4931, 1238.638
327.9753, 1254.623
328.4574, 1262.179
328.9395, 1257.451
329.4216, 1248.530
329.9037, 1245.482
330.3858, 1248.618
330.8679, 1253.353
331.3500, 1258.962
331.8322, 1265.560
332.3143, 1274.144
332.7964, 1284.793
333.2785, 1293.255
333.7606, 1298.160
334.2427, 1298.932
334.7249, 1291.990
335.2070, 1274.049
335.6891, 1257.226
336.1712, 1255.802
336.6533, 1266.285
337.1354, 1271.240
337.6176, 1261.382
338.0997, 1249.240
338.5818, 1248.651
339.0639, 1258.016
339.5460, 1261.829
340.0281, 1248.885
340.5103, 1224.395
340.9924, 1211.461
341.4745, 1221.672
341.9566, 1227.728
342.4387, 1217.865
342.9208, 1200.552
343.4030, 1189.007
343.8851, 1187.657
344.3672, 1190.710
344.8493, 1188.446
345.3314, 1177.363
345.8135, 1168.376
346.2957, 1163.366
346.7778, 1158.804
347.2599, 1152.184
347.7420, 1143.626
348.2241, 1134.955
348.7062, 1127.785
349.1884, 1122.107
349.6705, 1116.467
350.1526, 1111.883
350.6347, 1106.193
351.1168, 1095.552
351.5989, 1084.373
352.0811, 1079.909
352.5632, 1086.329
353.0453, 1097.595
353.5274, 1100.823
354.0095, 1093.014
354.4916, 1087.606
354.9738, 1089.488
355.4559, 1094.052
355.9380, 1100.055
356.4201, 1107.082
356.9022, 1110.497
357.3843, 1103.109
357.8665, 1087.986
358.3486, 1079.048
358.8307, 1078.145
359.3128, 1083.223
359.7949, 1098.516
360.2770, 1119.760
360.7592, 1131.903
361.2413, 1124.457
361.7234, 1110.558
362.2055, 1101.313
362.6876, 1096.961
363.1697, 1098.160
363.6519, 1107.340
364.1340, 1121.032
364.6161, 1127.593
365.0982, 1124.120
365.5803, 1119.499
366.0624, 1117.387
366.5446, 1115.152
367.0267, 1106.360
367.5088, 1089.695
367.9909, 1075.082
368.4730, 1077.224
368.9551, 1104.047
369.4373, 1121.592
369.9194, 1124.251
370.4015, 1124.157
370.8836, 1128.462
371.3657, 1135.584
371.8478, 1139.215
372.3300, 1134.404
372.8121, 1123.126
373.2942, 1116.294
373.7763, 1116.944
374.2584, 1117.659
374.7405, 1115.238
375.2227, 1113.016
375.7048, 1114.607
376.1869, 1121.091
376.6690, 1129.858
377.1511, 1139.650
377.6332, 1150.722
378.1154, 1154.782
378.5975, 1145.278
379.0796, 1134.470
379.5617, 1132.540
380.0438, 1137.663
380.5259, 1140.724
381.0081, 1132.637
381.4902, 1121.933
381.9723, 1124.486
382.4544, 1141.559
382.9365, 1157.420
383.4186, 1163.422
383.9008, 1161.045
384.3829, 1156.710
384.8650, 1148.119
385.3471, 1140.954
385.8292, 1138.501
386.3113, 1138.882
386.7935, 1138.658
387.2756, 1136.773
387.7577, 1134.512
388.2398, 1133.564
388.7219, 1134.028
389.2040, 1135.885
389.6862, 1145.438
390.1683, 1150.827
390.6504, 1140.119
391.1325, 1118.552
391.6146, 1102.786
392.0967, 1105.338
392.5789, 1121.539
393.0610, 1125.911
393.5431, 1106.167
394.0252, 1093.683
394.5073, 1099.113
394.9894, 1110.490
395.4716, 1117.774
395.9537, 1118.200
396.4358, 1113.392
396.9179, 1102.549
397.4000, 1085.753
397.8821, 1074.688
398.3643, 1073.781
398.8464, 1074.377
399.3285, 1070.691
399.8106, 1063.623
400.2927, 1055.864
400.7748, 1046.481
401.2569, 1038.079
401.7390, 1034.171
402.2212, 1034.563
402.7033, 1036.608
403.1854, 1040.293
403.6675, 1043.769
404.1496, 1042.257
404.6317, 1034.165
405.1139, 1025.615
405.5960, 1016.794
406.0781, 1009.039
406.5602, 1004.139
407.0423, 1002.331
407.5244, 1002.208
408.0066, 1002.492
408.4887, 1003.233
408.9708, 1003.847
409.4529, 1004.057
409.9350, 1004.455
410.4171, 1005.637
410.8993, 1007.039
411.3814, 1007.820
411.8635, 1007.608
412.3456, 1006.566
412.8277, 1005.185
413.3098, 1003.878
413.7920, 1000.828
414.2741, 987.9783
414.7562, 979.5524
415.2383, 987.4498
415.7204, 1009.684
416.2025, 1030.708
416.6847, 1040.166
417.1668, 1041.414
417.6489, 1041.399
418.1310, 1039.758
418.6131, 1039.580
419.0952, 1042.238
419.5774, 1047.898
420.0595, 1056.379
420.5416, 1068.715
421.0237, 1082.189
421.5058, 1098.709
421.9879, 1114.806
422.4701, 1122.111
422.9522, 1118.249
423.4343, 1113.088
423.9164, 1119.295
424.3985, 1140.733
424.8806, 1155.056
425.3628, 1160.840
425.8449, 1161.939
426.3270, 1153.654
426.8091, 1142.658
427.2912, 1143.288
427.7733, 1164.275
428.2555, 1194.992
428.7376, 1208.159
429.2197, 1195.135
429.7018, 1185.123
430.1839, 1185.350
430.6660, 1187.402
431.1482, 1186.741
431.6303, 1182.821
432.1124, 1176.652
432.5945, 1168.895
433.0766, 1159.488
433.5587, 1146.687
434.0409, 1128.859
434.5230, 1115.099
435.0051, 1114.039
435.4872, 1119.749
435.9693, 1118.681
436.4514, 1106.383
436.9336, 1093.835
437.4157, 1088.589
437.8978, 1086.208
438.3799, 1077.279
438.8620, 1059.363
439.3441, 1040.606
439.8263, 1030.377
440.3084, 1030.317
440.7905, 1029.522
441.2726, 1027.299
441.7547, 1025.187
442.2368, 1022.838
442.7190, 1021.235
443.2011, 1022.825
443.6832, 1028.961
444.1653, 1036.194
444.6474, 1036.722
445.1295, 1028.063
445.6117, 1021.118
446.0938, 1016.363
446.5759, 1014.569
447.0580, 1017.193
447.5401, 1023.613
448.0222, 1031.050
448.5044, 1040.203
448.9865, 1048.501
449.4686, 1048.665
449.9507, 1039.923
450.4328, 1035.927
450.9149, 1044.418
451.3971, 1061.068
451.8792, 1076.307
452.3613, 1090.498
452.8434, 1102.433
453.3255, 1107.765
453.8076, 1112.763
454.2898, 1127.256
454.7719, 1151.299
455.2540, 1173.569
455.7361, 1183.252
456.2182, 1180.828
456.7003, 1184.619
457.1825, 1198.245
457.6646, 1214.353
458.1467, 1235.016
458.6288, 1256.025
459.1109, 1272.111
459.5930, 1282.024
460.0752, 1290.496
460.5573, 1302.333
461.0394, 1317.526
461.5215, 1337.855
462.0036, 1366.652
462.4857, 1395.640
462.9679, 1417.956
463.4500, 1436.747
463.9321, 1459.189
464.4142, 1487.875
464.8963, 1519.950
465.3784, 1550.410
465.8606, 1581.817
466.3427, 1624.895
466.8248, 1684.783
467.3069, 1749.413
467.7890, 1801.092
468.2711, 1832.351
468.7533, 1878.349
469.2354, 1946.172
469.7175, 2021.523
470.1996, 2096.917
470.6817, 2174.225
471.1638, 2258.935
471.6459, 2354.610
472.1281, 2458.315
472.6102, 2563.854
473.0923, 2669.693
473.5744, 2782.064
474.0565, 2899.482
474.5386, 3026.530
475.0208, 3156.372
475.5029, 3295.933
475.9850, 3472.977
476.4671, 3761.269
476.9492, 4070.296
477.4313, 4222.330
477.9135, 4217.110
478.3956, 4221.140
478.8777, 4306.954
479.3598, 4446.942
479.8419, 4586.658
480.3240, 4727.599
480.8062, 4866.428
481.2883, 4999.551
481.7704, 5132.295
482.2525, 5275.521
482.7346, 5425.070
483.2167, 5564.518
483.6989, 5678.877
484.1810, 5774.298
484.6631, 5880.212
485.1452, 6000.864
485.6273, 6126.544
486.1094, 6258.915
486.5916, 6392.392
487.0737, 6522.382
487.5558, 6648.305
488.0379, 6775.712
488.5200, 6908.044
489.0021, 7044.778
489.4843, 7187.020
489.9664, 7337.204
490.4485, 7479.077
490.9306, 7601.513
491.4127, 7710.750
491.8948, 7826.835
492.3770, 7959.829
492.8591, 8077.016
493.3412, 8170.924
493.8233, 8241.261
494.3054, 8286.088
494.7875, 8305.936
495.2697, 8304.709
495.7518, 8286.248
496.2339, 8249.778
496.7160, 8187.356
497.1981, 8086.823
497.6802, 7973.899
498.1624, 7844.329
498.6445, 7709.793
499.1266, 7576.447
499.6087, 7447.394
500.0908, 7331.649
500.5729, 7241.838
501.0551, 7173.100
501.5372, 7103.021
502.0193, 7029.988
502.5014, 6960.830
502.9835, 6900.101
503.4656, 6846.163
503.9478, 6794.210
504.4299, 6743.926
504.9120, 6696.030
505.3941, 6662.826
505.8762, 6626.696
506.3583, 6561.349
506.8405, 6464.848
507.3226, 6361.035
507.8047, 6273.270
508.2868, 6198.138
508.7689, 6089.775
509.2510, 5919.537
509.7332, 5752.701
510.2153, 5590.621
510.6974, 5442.437
511.1795, 5321.219
511.6616, 5227.019
512.1437, 5140.073
512.6259, 5036.877
513.1080, 4926.144
513.5901, 4844.328
514.0722, 4796.950
514.5543, 4754.620
515.0364, 4697.586
515.5186, 4636.476
516.0007, 4595.394
516.4828, 4575.966
516.9649, 4572.223
517.4470, 4589.916
517.9291, 4618.019
518.4113, 4643.792
518.8934, 4666.532
519.3755, 4693.598
519.8576, 4729.902
520.3397, 4776.306
520.8218, 4839.540
521.3040, 4927.212
521.7861, 5019.449
522.2682, 5118.530
522.7503, 5216.189
523.2324, 5302.981
523.7145, 5379.205
524.1967, 5458.099
524.6788, 5562.854
525.1609, 5672.392
525.6430, 5740.584
526.1251, 5765.644
526.6072, 5769.194
527.0894, 5759.117
527.5715, 5736.022
528.0536, 5702.130
528.5357, 5666.305
529.0178, 5600.155
529.4999, 5496.290
529.9821, 5363.128
530.4642, 5196.393
530.9463, 5005.799
531.4284, 4815.658
531.9105, 4643.530
532.3926, 4478.499
532.8748, 4286.300
533.3569, 4050.005
533.8390, 3839.365
534.3211, 3679.139
534.8032, 3537.457
535.2853, 3402.050
535.7675, 3269.611
536.2496, 3129.619
536.7317, 2963.072
537.2138, 2796.803
537.6959, 2663.606
538.1780, 2558.585
538.6602, 2462.542
539.1423, 2369.659
539.6244, 2279.604
540.1065, 2190.835
540.5886, 2098.961
541.0707, 2025.550
541.5529, 1985.332
542.0350, 1946.371
542.5171, 1893.915
542.9992, 1833.634
543.4813, 1776.009
543.9634, 1724.986
544.4456, 1678.141
544.9277, 1629.361
545.4098, 1578.802
545.8919, 1544.741
546.3740, 1536.801
546.8561, 1529.649
547.3383, 1500.084
547.8204, 1457.665
548.3025, 1428.923
548.7846, 1431.108
549.2667, 1427.221
549.7488, 1395.447
550.2310, 1349.027
550.7131, 1303.778
551.1952, 1264.020
551.6773, 1234.008
552.1594, 1219.055
552.6415, 1217.872
553.1237, 1212.125
553.6058, 1199.097
554.0879, 1185.717
554.5700, 1175.432
555.0521, 1164.224
555.5342, 1147.202
556.0164, 1124.271
556.4985, 1102.149
556.9806, 1085.737
557.4627, 1072.775
557.9448, 1059.280
558.4269, 1045.149
558.9091, 1032.441
559.3912, 1022.813
559.8733, 1013.982
560.3554, 1000.902
560.8375, 979.8146
561.3196, 962.6038
561.8018, 949.2884
562.2839, 939.9316
562.7660, 941.2892
563.2481, 945.9031
563.7302, 935.7064
564.2123, 900.1021
564.6945, 856.7280
565.1766, 836.6865
565.6587, 840.8484
566.1408, 843.3046
566.6229, 841.5030
567.1050, 835.7670
567.5872, 822.5025
568.0693, 805.0245
568.5514, 794.0406
569.0335, 794.9082
569.5156, 797.8531
569.9977, 799.3636
570.4799, 799.6613
570.9620, 798.0408
571.4441, 794.8206
571.9262, 793.6523
572.4083, 799.4407
572.8904, 810.7215
573.3726, 809.5847
573.8547, 788.1152
574.3368, 768.2235
574.8189, 752.7847
575.3010, 742.6232
575.7831, 740.9240
576.2653, 747.3021
576.7473, 752.3041
577.2294, 747.1000
577.7115, 739.8992
578.1937, 743.5093
578.6758, 756.3342
579.1579, 767.6714
579.6400, 773.5343
580.1221, 773.0618
580.6042, 763.3034
581.0864, 736.9736
581.5685, 723.5093
582.0506, 734.0108
582.5327, 743.8433
583.0148, 739.1483
583.4969, 727.9697
583.9791, 725.0646
584.4612, 736.2527
584.9433, 750.7662
585.4254, 757.8899
585.9075, 758.3304
586.3896, 754.5707
586.8718, 746.1554
587.3539, 737.1964
587.8360, 729.4354
588.3181, 723.4954
588.8002, 721.9655
589.2823, 729.8065
589.7645, 733.8328
590.2466, 729.1966
590.7287, 722.0007
591.2108, 716.0114
591.6929, 712.2259
592.1750, 711.9803
592.6572, 717.4372
593.1393, 723.8032
593.6214, 716.9648
594.1035, 694.4081
594.5856, 681.4451
595.0677, 687.8546
595.5499, 698.6313
596.0320, 697.9235
596.5141, 688.9332
596.9962, 687.0912
597.4783, 704.7767
597.9604, 719.0477
598.4426, 715.0569
598.9247, 701.9615
599.4068, 692.4086
599.8889, 689.4977
600.3710, 690.5630
