##NAMES=Leucophosphite
##RRUFFID=R080126
##IDEAL CHEMISTRY=KFe^3+^_2_(PO_4_)_2_(OH)&#183;2H_2_O
##LOCALITY=Tip Top mine, Custer County, South Dakota, USA
##OWNER=RRUFF
##SOURCE=Thomas A. Loomis
##DESCRIPTION=Violet subhedral crystals on a matrix of rockbridgeite and associated with pale yellow acicular segelerite (R080127).
##STATUS=The identification of this mineral has been confirmed by single-crystal X-ray diffraction.
##URL=rruff.info/R080126
113.0679, 545.0251
113.5500, 545.5795
114.0321, 545.8785
114.5142, 544.8812
114.9964, 542.4283
115.4785, 540.1263
115.9606, 540.4489
116.4427, 543.2277
116.9248, 544.9401
117.4069, 543.7452
117.8891, 540.9898
118.3712, 539.5767
118.8533, 540.5964
119.3354, 542.2897
119.8175, 542.6898
120.2996, 541.9348
120.7818, 541.5558
121.2639, 542.6503
121.7460, 545.2448
122.2281, 548.5392
122.7102, 554.5029
123.1923, 559.6859
123.6745, 561.1252
124.1566, 558.6081
124.6387, 555.5697
125.1208, 557.6553
125.6029, 569.1069
126.0850, 576.6293
126.5672, 576.9906
127.0493, 574.9873
127.5314, 574.0967
128.0135, 575.7522
128.4956, 579.5101
128.9777, 584.2284
129.4599, 593.0840
129.9420, 599.2582
130.4241, 599.8148
130.9062, 597.7700
131.3883, 597.9457
131.8704, 603.3563
132.3526, 612.6372
132.8347, 618.0053
133.3168, 616.1000
133.7989, 614.6024
134.2810, 617.3562
134.7632, 623.7026
135.2453, 629.8889
135.7274, 633.0739
136.2095, 634.2980
136.6916, 637.4105
137.1737, 644.3203
137.6559, 652.1694
138.1380, 658.1830
138.6201, 662.2106
139.1022, 665.1020
139.5843, 667.0795
140.0664, 668.3741
140.5486, 669.1126
141.0307, 669.0087
141.5128, 668.4335
141.9949, 668.8170
142.4770, 672.0270
142.9591, 673.1921
143.4413, 669.4285
143.9234, 662.4814
144.4055, 655.4215
144.8876, 650.2078
145.3697, 646.8449
145.8518, 645.0435
146.3340, 648.1769
146.8161, 649.9418
147.2982, 647.6861
147.7803, 642.0956
148.2624, 635.6682
148.7445, 630.8824
149.2267, 628.3937
149.7088, 624.9576
150.1909, 619.4070
150.6730, 614.0371
151.1551, 609.9510
151.6372, 607.3643
152.1194, 606.0795
152.6015, 606.0182
153.0836, 608.0480
153.5657, 608.8758
154.0478, 608.1924
154.5299, 606.4642
155.0121, 603.9521
155.4942, 600.6838
155.9763, 597.0781
156.4584, 593.2941
156.9405, 588.9763
157.4226, 586.6146
157.9048, 588.0294
158.3869, 591.8292
158.8690, 595.1153
159.3511, 597.1219
159.8332, 598.3844
160.3153, 599.9279
160.7975, 601.8362
161.2796, 602.7378
161.7617, 601.3195
162.2438, 597.7480
162.7259, 594.4280
163.2081, 592.9449
163.6902, 590.9517
164.1723, 587.6249
164.6544, 582.7960
165.1365, 574.8781
165.6186, 560.2766
166.1008, 536.6202
166.5829, 517.3572
167.0650, 507.5836
167.5471, 500.9401
168.0292, 493.9465
168.5113, 485.6860
168.9935, 477.5069
169.4756, 471.7602
169.9577, 469.6358
170.4398, 467.8521
170.9219, 466.8725
171.4040, 465.6886
171.8862, 462.9288
172.3683, 458.1872
172.8504, 452.8609
173.3325, 450.2700
173.8146, 453.4824
174.2967, 456.0685
174.7789, 457.3589
175.2610, 458.0966
175.7431, 459.1046
176.2252, 460.7594
176.7073, 462.9525
177.1894, 465.3568
177.6716, 468.9257
178.1537, 471.5580
178.6358, 471.9654
179.1179, 471.1976
179.6000, 471.3526
180.0821, 473.5849
180.5643, 477.2663
181.0464, 480.4139
181.5285, 483.0881
182.0106, 485.3275
182.4927, 486.4586
182.9748, 486.8952
183.4570, 488.7655
183.9391, 494.1877
184.4212, 500.9820
184.9033, 504.4275
185.3854, 502.8388
185.8675, 500.5711
186.3497, 501.3253
186.8318, 505.1815
187.3139, 509.2594
187.7960, 512.5718
188.2781, 515.2782
188.7602, 517.4359
189.2424, 518.9478
189.7245, 520.1702
190.2066, 521.5197
190.6887, 522.9987
191.1708, 524.6105
191.6530, 526.2062
192.1351, 527.9920
192.6172, 530.4175
193.0993, 533.7881
193.5814, 537.2416
194.0635, 538.7274
194.5457, 536.6843
195.0278, 535.8053
195.5099, 537.6667
195.9920, 540.7059
196.4741, 543.6797
196.9562, 546.0836
197.4384, 547.6901
197.9205, 547.6661
198.4026, 543.5668
198.8847, 541.2191
199.3668, 542.1132
199.8489, 544.7623
200.3311, 547.5292
200.8132, 549.5877
201.2953, 551.1958
201.7774, 553.3486
202.2595, 557.4508
202.7416, 560.5389
203.2238, 561.3118
203.7059, 561.1129
204.1880, 562.1029
204.6701, 565.5443
205.1522, 570.5846
205.6343, 573.3181
206.1165, 571.9749
206.5986, 570.6688
207.0807, 570.3345
207.5628, 570.6306
208.0449, 570.8356
208.5270, 570.5238
209.0092, 569.9231
209.4913, 569.9867
209.9734, 570.8033
210.4555, 571.9934
210.9376, 573.5064
211.4197, 575.2987
211.9019, 577.3392
212.3840, 579.7384
212.8661, 582.2280
213.3482, 584.1251
213.8303, 585.3739
214.3124, 586.1968
214.7946, 586.9991
215.2767, 587.6132
215.7588, 587.0002
216.2409, 584.1786
216.7230, 580.1422
217.2052, 576.9562
217.6873, 575.1549
218.1694, 573.1418
218.6515, 569.0322
219.1336, 562.9350
219.6157, 558.2477
220.0979, 557.1702
220.5800, 557.6282
221.0621, 557.6426
221.5442, 557.1927
222.0263, 555.5231
222.5084, 551.1121
222.9906, 543.5802
223.4727, 537.2641
223.9548, 534.3827
224.4369, 532.8126
224.9190, 531.0936
225.4011, 528.9320
225.8833, 526.9377
226.3654, 526.0795
226.8475, 526.7387
227.3296, 526.6932
227.8117, 524.3843
228.2938, 521.9202
228.7760, 520.5765
229.2581, 520.6167
229.7402, 521.5404
230.2223, 522.8578
230.7044, 524.8309
231.1865, 526.3589
231.6687, 526.8544
232.1508, 527.2355
232.6329, 527.4238
233.1150, 527.6736
233.5971, 529.2023
234.0792, 534.6447
234.5614, 547.7166
235.0435, 555.2422
235.5256, 552.0016
236.0077, 547.6163
236.4898, 548.7282
236.9719, 556.0802
237.4541, 565.1467
237.9362, 569.5463
238.4183, 566.4500
238.9004, 565.4142
239.3825, 566.3209
239.8646, 568.9158
240.3468, 574.0032
240.8289, 581.2010
241.3110, 588.3362
241.7931, 592.5966
242.2752, 592.2936
242.7573, 593.8925
243.2395, 598.7172
243.7216, 604.1347
244.2037, 608.3665
244.6858, 611.2622
245.1679, 614.0629
245.6501, 618.4000
246.1322, 625.2701
246.6143, 629.0989
247.0964, 627.9048
247.5785, 625.5297
248.0606, 623.8634
248.5428, 623.3458
249.0249, 624.3978
249.5070, 627.9123
249.9891, 634.5412
250.4712, 638.1868
250.9533, 637.4592
251.4355, 635.0670
251.9176, 631.6747
252.3997, 627.7672
252.8818, 625.6613
253.3639, 628.1230
253.8460, 635.1598
254.3282, 638.3476
254.8103, 635.8523
255.2924, 631.1030
255.7745, 625.2212
256.2566, 618.6171
256.7387, 613.6172
257.2209, 612.3834
257.7030, 614.4323
258.1851, 615.2535
258.6672, 613.8876
259.1493, 612.0688
259.6314, 610.9649
260.1136, 610.5197
260.5957, 610.1483
261.0778, 609.6903
261.5599, 608.9471
262.0420, 607.4951
262.5241, 604.5925
263.0063, 601.8494
263.4884, 599.9294
263.9705, 598.9159
264.4526, 599.8012
264.9347, 604.2733
265.4168, 610.1930
265.8990, 613.5413
266.3811, 613.8236
266.8632, 612.5756
267.3453, 609.8204
267.8274, 605.9213
268.3095, 603.8450
268.7917, 605.4069
269.2738, 608.7853
269.7559, 611.4052
270.2380, 613.1426
270.7201, 614.6150
271.2022, 615.9938
271.6844, 617.3573
272.1665, 619.4446
272.6486, 623.3989
273.1307, 627.0242
273.6128, 627.9812
274.0949, 626.2997
274.5771, 624.4781
275.0592, 623.8073
275.5413, 624.2773
276.0234, 626.0297
276.5055, 630.0892
276.9876, 634.1216
277.4698, 636.3011
277.9519, 636.8724
278.4340, 637.1119
278.9161, 638.1396
279.3982, 639.5682
279.8803, 639.4874
280.3625, 636.8799
280.8446, 634.1395
281.3267, 632.7311
281.8088, 632.3073
282.2909, 632.0869
282.7730, 631.9824
283.2552, 631.7472
283.7373, 630.6282
284.2194, 628.7436
284.7015, 625.6199
285.1836, 619.3502
285.6658, 612.1502
286.1479, 607.5901
286.6300, 608.1166
287.1121, 611.4684
287.5942, 612.3524
288.0764, 609.5906
288.5585, 607.1087
289.0406, 605.7792
289.5227, 605.6563
290.0048, 607.2343
290.4869, 610.9918
290.9691, 615.4799
291.4512, 618.0714
291.9333, 618.1032
292.4154, 618.3472
292.8975, 618.7502
293.3796, 620.0881
293.8618, 623.6685
294.3439, 629.8132
294.8260, 636.1904
295.3081, 639.3209
295.7902, 638.2816
296.2723, 638.3726
296.7545, 641.8381
297.2366, 645.7083
297.7187, 648.3351
298.2008, 649.5681
298.6829, 650.2760
299.1650, 651.0552
299.6472, 651.8112
300.1293, 653.5502
300.6114, 658.9025
301.0935, 662.8762
301.5756, 662.1245
302.0577, 657.7089
302.5399, 651.9064
303.0220, 650.8391
303.5041, 648.6269
303.9862, 645.3311
304.4683, 637.7067
304.9504, 635.6718
305.4326, 631.3962
305.9147, 627.0294
306.3968, 625.7814
306.8789, 618.7864
307.3610, 617.4890
307.8431, 613.9171
308.3253, 611.3856
308.8074, 606.6006
309.2895, 602.5721
309.7716, 599.3315
310.2537, 596.1573
310.7358, 593.1524
311.2180, 590.0778
311.7001, 586.1312
312.1822, 580.0436
312.6643, 575.9270
313.1464, 576.3406
313.6285, 577.7167
314.1107, 576.5987
314.5928, 572.1568
315.0749, 567.3184
315.5570, 567.2215
316.0391, 574.2049
316.5212, 577.3148
317.0034, 570.6589
317.4855, 563.5214
317.9676, 561.5057
318.4497, 564.6854
318.9318, 568.9180
319.4139, 570.0499
319.8961, 567.7643
320.3782, 565.5219
320.8603, 562.2548
321.3424, 560.1546
321.8245, 560.9626
322.3066, 563.7037
322.7888, 565.9774
323.2709, 565.9108
323.7530, 563.8353
324.2351, 562.3433
324.7172, 562.8882
325.1993, 555.2011
325.6815, 561.6037
326.1636, 564.3623
326.6457, 563.6614
327.1278, 549.7651
327.6099, 552.4288
328.0920, 548.1631
328.5742, 543.4124
329.0563, 547.8088
329.5384, 534.7561
330.0205, 538.5861
330.5026, 535.3844
330.9847, 535.0961
331.4669, 527.8364
331.9490, 522.4565
332.4311, 523.6318
332.9132, 520.8526
333.3953, 511.9790
333.8774, 510.6346
334.3596, 495.2540
334.8417, 491.7979
335.3238, 493.3679
335.8059, 480.9880
336.2880, 474.1414
336.7701, 466.6388
337.2523, 456.7609
337.7344, 448.2506
338.2165, 443.4095
338.6986, 441.1788
339.1807, 438.9954
339.6628, 435.3477
340.1450, 430.5384
340.6271, 425.6397
341.1092, 420.6066
341.5913, 415.5862
342.0735, 410.5429
342.5556, 405.5673
343.0377, 400.6150
343.5198, 395.5161
344.0019, 390.8946
344.4840, 387.9076
344.9662, 386.7983
345.4483, 386.1550
345.9304, 385.7874
346.4125, 385.6226
346.8946, 385.7620
347.3767, 386.2143
347.8589, 386.5351
348.3410, 386.2497
348.8231, 385.3702
349.3052, 384.4517
349.7873, 383.6830
350.2694, 382.7327
350.7516, 381.1988
351.2337, 379.2394
351.7158, 377.5484
352.1979, 375.8279
352.6800, 374.6365
353.1621, 376.5185
353.6443, 383.3298
354.1264, 389.0285
354.6085, 388.5532
355.0906, 384.9683
355.5727, 382.9912
356.0548, 384.5099
356.5370, 387.8847
357.0191, 391.4555
357.5012, 395.3190
357.9833, 398.0501
358.4654, 397.7870
358.9475, 396.8165
359.4297, 398.0940
359.9118, 402.3040
360.3939, 406.7238
360.8760, 409.4230
361.3581, 410.6092
361.8402, 411.2707
362.3224, 411.2724
362.8045, 411.3613
363.2866, 412.7591
363.7687, 415.2736
364.2508, 416.8095
364.7329, 415.5638
365.2151, 413.1231
365.6972, 412.3354
366.1793, 413.6558
366.6614, 415.2551
367.1435, 415.3943
367.6256, 414.7215
368.1078, 415.2538
368.5899, 418.1199
369.0720, 421.5682
369.5541, 424.5764
370.0362, 427.0784
370.5183, 428.4766
371.0005, 428.2221
371.4826, 426.8980
371.9647, 425.8257
372.4468, 424.9789
372.9289, 424.4072
373.4110, 424.7464
373.8932, 425.2645
374.3753, 424.3705
374.8574, 421.5096
375.3395, 418.0756
375.8216, 415.9018
376.3037, 415.1570
376.7859, 414.1497
377.2680, 411.8200
377.7501, 409.7791
378.2322, 409.6400
378.7143, 411.3475
379.1964, 413.5787
379.6786, 415.5682
380.1607, 417.2260
380.6428, 417.8569
381.1249, 415.4815
381.6070, 414.3867
382.0891, 417.1620
382.5713, 422.1671
383.0534, 426.4405
383.5355, 428.7702
384.0176, 429.4300
384.4997, 428.9331
384.9818, 425.7845
385.4640, 423.9386
385.9461, 423.1587
386.4282, 423.9194
386.9103, 427.3837
387.3924, 433.3055
387.8745, 439.6285
388.3567, 444.1078
388.8388, 446.5094
389.3209, 448.6818
389.8030, 450.5854
390.2851, 452.3570
390.7672, 453.7139
391.2494, 455.0027
391.7315, 457.0768
392.2136, 460.5353
392.6957, 464.7349
393.1778, 467.0436
393.6599, 465.0027
394.1421, 464.5481
394.6242, 465.9885
395.1063, 469.2418
395.5884, 475.4213
396.0706, 484.3138
396.5527, 492.6899
397.0348, 495.5687
397.5169, 490.8456
397.9990, 488.9617
398.4811, 492.7668
398.9633, 496.9097
399.4454, 499.1891
399.9275, 500.0245
400.4096, 501.0891
400.8917, 503.8114
401.3738, 507.4977
401.8560, 508.8349
402.3381, 505.9898
402.8202, 504.3026
403.3023, 506.5565
403.7844, 510.0832
404.2665, 512.5562
404.7487, 513.3732
405.2308, 512.1149
405.7129, 506.9731
406.1950, 497.5514
406.6771, 491.2443
407.1592, 491.6648
407.6414, 493.3184
408.1235, 492.6842
408.6056, 489.8065
409.0877, 485.5479
409.5698, 479.0731
410.0519, 471.7694
410.5341, 467.1849
411.0162, 465.9779
411.4983, 465.3270
411.9804, 463.5909
412.4625, 461.2825
412.9446, 459.3073
413.4268, 458.0982
413.9089, 456.7545
414.3910, 454.5456
414.8731, 451.5748
415.3552, 448.1906
415.8373, 444.1959
416.3195, 440.3547
416.8016, 438.2432
417.2837, 438.0109
417.7658, 436.7718
418.2479, 433.1423
418.7300, 428.4410
419.2122, 424.2003
419.6943, 420.5648
420.1764, 416.6720
420.6585, 411.6676
421.1406, 405.7242
421.6227, 400.9452
422.1049, 397.7165
422.5870, 395.0351
423.0691, 393.1400
423.5512, 391.4170
424.0333, 388.5320
424.5154, 383.9172
424.9976, 378.6178
425.4797, 374.6064
425.9618, 372.4234
426.4439, 370.6308
426.9260, 369.3368
427.4081, 368.3282
427.8903, 367.5116
428.3724, 366.8472
428.8545, 366.3372
429.3366, 366.0471
429.8187, 365.9388
430.3008, 365.1948
430.7830, 363.0290
431.2651, 361.0623
431.7472, 359.2457
432.2293, 357.8858
432.7114, 357.6195
433.1935, 358.6367
433.6757, 359.9796
434.1578, 360.3076
434.6399, 359.8710
435.1220, 357.5239
435.6041, 350.7805
436.0862, 344.1077
436.5684, 340.0692
437.0505, 338.1067
437.5326, 335.7977
438.0147, 331.1566
438.4968, 325.0137
438.9789, 320.5752
439.4611, 318.7556
439.9432, 316.3353
440.4253, 310.9859
440.9074, 304.7757
441.3895, 299.6743
441.8716, 296.0149
442.3538, 293.7935
442.8359, 293.6974
443.3180, 295.3270
443.8001, 296.3638
444.2822, 296.4805
444.7643, 295.6915
445.2465, 293.1565
445.7286, 289.3975
446.2107, 287.1338
446.6928, 288.9201
447.1749, 291.3122
447.6570, 289.9390
448.1392, 285.2387
448.6213, 281.9670
449.1034, 282.9654
449.5855, 286.7776
450.0677, 289.4243
450.5498, 290.9197
451.0319, 291.5364
451.5140, 290.7249
451.9961, 289.3419
452.4782, 288.2959
452.9604, 287.7951
453.4425, 287.8232
453.9246, 288.3737
454.4067, 289.4583
454.8888, 291.0243
455.3709, 292.8894
455.8531, 295.3178
456.3352, 299.2937
456.8173, 303.7098
457.2994, 306.6650
457.7815, 307.2587
458.2636, 306.4862
458.7458, 306.2534
459.2279, 305.8976
459.7100, 307.6245
460.1921, 313.9398
460.6742, 320.0201
461.1563, 322.4476
461.6385, 321.8210
462.1206, 321.2678
462.6027, 323.2319
463.0848, 327.2567
463.5669, 331.0465
464.0490, 334.6252
464.5312, 337.8498
465.0133, 340.5899
465.4954, 343.0033
465.9775, 345.1691
466.4596, 347.0963
466.9417, 349.0414
467.4239, 351.1280
467.9060, 353.4025
468.3881, 356.2874
468.8702, 360.1070
469.3523, 364.0582
469.8344, 367.5346
470.3166, 370.6181
470.7987, 373.4077
471.2808, 376.3391
471.7629, 378.6783
472.2450, 379.5260
472.7271, 379.0938
473.2093, 378.3918
473.6914, 377.7560
474.1735, 377.2231
474.6556, 376.7563
475.1377, 376.0566
475.6198, 376.3543
476.1020, 379.3775
476.5841, 382.4248
477.0662, 383.0051
477.5483, 381.0685
478.0304, 378.0106
478.5125, 374.7400
478.9947, 371.3418
479.4768, 368.7101
479.9589, 367.5609
480.4410, 366.2755
480.9231, 364.8943
481.4052, 363.1460
481.8874, 360.6264
482.3695, 357.2996
482.8516, 353.7367
483.3337, 350.8642
483.8158, 348.9542
484.2979, 345.3207
484.7801, 337.2894
485.2622, 330.5880
485.7443, 328.2369
486.2264, 328.2526
486.7085, 327.4530
487.1906, 324.4913
487.6728, 320.2795
488.1549, 315.5891
488.6370, 310.3128
489.1191, 306.5403
489.6012, 305.5994
490.0833, 305.3581
490.5655, 303.9003
491.0476, 301.3686
491.5297, 298.7516
492.0118, 296.3396
492.4939, 294.1142
492.9760, 291.9173
493.4582, 289.7736
493.9403, 288.4473
494.4224, 288.8165
494.9045, 289.8101
495.3866, 288.6076
495.8687, 284.7487
496.3509, 280.3690
496.8330, 275.5621
497.3151, 270.6903
497.7972, 265.9447
498.2793, 261.4534
498.7614, 257.7571
499.2436, 255.5271
499.7257, 254.6305
500.2078, 252.4666
500.6899, 247.5255
501.1720, 243.1350
501.6541, 239.7623
502.1363, 237.2373
502.6184, 235.4882
503.1005, 234.4277
503.5826, 233.6812
504.0647, 233.0441
504.5468, 232.6571
505.0290, 230.8596
505.5111, 225.7625
505.9932, 221.6150
506.4753, 220.5844
506.9575, 221.3945
507.4396, 222.0787
507.9217, 221.9784
508.4038, 221.3358
508.8859, 220.4336
509.3680, 219.2618
509.8502, 217.6064
510.3323, 215.0871
510.8144, 212.5973
511.2965, 211.1587
511.7786, 210.5881
512.2607, 209.9028
512.7429, 208.5688
513.2250, 207.2564
513.7071, 206.5491
514.1892, 206.3759
514.6713, 206.3231
515.1534, 206.1656
515.6356, 206.1731
516.1177, 207.0222
516.5998, 209.8750
517.0819, 210.8690
517.5640, 208.2617
518.0461, 205.1149
518.5283, 203.3144
519.0104, 202.8790
519.4925, 203.2747
519.9746, 204.2794
520.4567, 205.4774
520.9388, 205.1451
521.4210, 201.7928
521.9031, 199.7154
522.3852, 199.4615
522.8673, 200.4283
523.3494, 203.1315
523.8315, 206.9938
524.3137, 209.6842
524.7958, 208.8256
525.2779, 205.4436
525.7600, 202.7905
526.2421, 200.5597
526.7242, 200.2988
527.2064, 204.9115
527.6885, 210.6866
528.1706, 212.4561
528.6527, 209.0773
529.1348, 206.0931
529.6169, 207.1587
530.0991, 210.1412
530.5812, 211.3284
531.0633, 210.2935
531.5454, 209.1770
532.0275, 209.5105
532.5096, 211.1211
532.9918, 212.8088
533.4739, 215.4599
533.9560, 217.0511
534.4381, 216.6630
534.9202, 215.2785
535.4023, 213.7416
535.8845, 212.3273
536.3666, 211.1270
536.8487, 210.1647
537.3308, 209.4386
537.8129, 209.6742
538.2950, 210.7402
538.7772, 213.0808
539.2593, 218.3127
539.7414, 224.0080
540.2235, 227.4458
540.7056, 227.9480
541.1877, 227.3081
541.6699, 227.0782
542.1520, 227.2272
542.6341, 227.5537
543.1162, 228.0611
543.5983, 228.7010
544.0804, 229.2663
544.5626, 229.9805
545.0447, 231.3929
545.5268, 234.0491
546.0089, 236.5011
546.4910, 238.4345
546.9731, 239.4751
547.4553, 238.3501
547.9374, 234.7649
548.4195, 231.0927
548.9016, 229.7118
549.3837, 230.6797
549.8658, 231.0040
550.3480, 231.0201
550.8301, 230.1307
551.3122, 227.1294
551.7943, 223.5988
552.2764, 221.5895
552.7585, 221.5760
553.2407, 222.3239
553.7228, 222.4591
554.2049, 221.9664
554.6870, 221.0871
555.1691, 219.3664
555.6512, 217.9108
556.1334, 217.5900
556.6155, 217.5495
557.0976, 216.5686
557.5797, 214.2342
558.0618, 211.6510
558.5439, 209.2188
559.0261, 207.2906
559.5082, 207.8015
559.9903, 211.7012
560.4724, 214.8837
560.9545, 213.4103
561.4366, 208.4021
561.9188, 205.9170
562.4009, 207.2395
562.8830, 209.5492
563.3651, 212.9989
563.8472, 216.3306
564.3293, 217.4582
564.8115, 216.1010
565.2936, 214.0662
565.7757, 213.1319
566.2578, 213.2990
566.7399, 213.4400
567.2220, 213.9938
567.7042, 213.9569
568.1863, 212.1364
568.6684, 210.2161
569.1505, 210.1081
569.6326, 212.1238
570.1147, 214.7693
570.5969, 216.7980
571.0790, 218.2404
571.5611, 219.1870
572.0432, 219.4999
572.5253, 219.7282
573.0074, 220.3851
573.4896, 221.0099
573.9717, 220.8354
574.4538, 219.5859
574.9359, 218.3187
575.4180, 217.4932
575.9001, 216.9667
576.3823, 216.0207
576.8644, 214.7784
577.3465, 215.3864
577.8286, 219.8676
578.3107, 227.0664
578.7928, 231.2757
579.2750, 229.4466
579.7571, 228.5500
580.2392, 229.8476
580.7213, 231.5186
581.2034, 231.8256
581.6855, 230.9602
582.1677, 230.5725
582.6498, 231.9884
583.1319, 234.7273
583.6140, 237.2349
584.0961, 239.6315
584.5782, 241.4133
585.0604, 242.4172
585.5425, 242.7318
586.0246, 241.7264
586.5067, 239.6419
586.9889, 239.1555
587.4710, 242.2050
587.9531, 246.9449
588.4352, 251.6923
588.9174, 256.2927
589.3995, 260.1588
589.8816, 262.8713
590.3637, 265.1724
590.8458, 268.3535
591.3279, 272.6426
591.8101, 277.2896
592.2922, 281.8584
592.7743, 287.2006
593.2564, 295.0447
593.7385, 303.7528
594.2206, 309.8506
594.7028, 311.7000
595.1849, 311.9933
595.6670, 315.4470
596.1491, 322.5928
596.6312, 328.8961
597.1133, 333.6328
597.5955, 338.1145
598.0776, 343.2997
598.5597, 348.7311
599.0418, 353.3239
599.5239, 356.1667
600.0060, 359.6120
600.4882, 366.2512
600.9703, 374.8392
601.4524, 382.2563
601.9345, 387.8529
602.4166, 393.1941
602.8987, 399.6242
603.3809, 407.0619
603.8630, 413.9343
604.3451, 421.1299
604.8272, 426.7458
605.3093, 428.8131
605.7914, 430.1280
606.2736, 434.1140
606.7557, 440.6994
607.2378, 446.4791
607.7199, 448.2681
608.2020, 446.9865
