##NAMES=Leucophanite
##RRUFFID=R060207
##IDEAL CHEMISTRY=NaCaBeSi_2_O_6_F
##LOCALITY=Mont Saint-Hilaire, Rouville County, Quebec, Canada
##OWNER=RRUFF
##SOURCE=Royal Ontario Museum
##DESCRIPTION=Pale yellow tabular crystal
##STATUS=The identification of this mineral is confirmed by single-crystal X-ray diffraction and chemical analysis.
##URL=rruff.info/R060207
##MEASURED CHEMISTRY=Na_1.00_Ca_1.00_Be_1.00_Si_2.00_O_6_(F_0.80_(OH)_0.20_)_Î£=1_; (OH)  estimated by charge balance; Be estimated by difference
92.07813, 1037.100
92.56024, 1029.782
93.04236, 1034.436
93.52448, 1048.327
94.00659, 1061.338
94.48871, 1069.191
94.97083, 1071.910
95.45294, 1068.120
95.93506, 1055.348
96.41718, 1040.630
96.89929, 1037.555
97.38141, 1046.287
97.86353, 1056.817
98.34564, 1061.098
98.82776, 1059.444
99.30988, 1061.133
99.79199, 1069.046
100.2741, 1080.868
100.7562, 1086.966
101.2383, 1085.415
101.7205, 1083.528
102.2026, 1090.159
102.6847, 1109.354
103.1668, 1120.814
103.6489, 1117.517
104.1310, 1099.001
104.6132, 1088.585
105.0953, 1089.589
105.5774, 1095.666
106.0595, 1098.817
106.5416, 1096.103
107.0237, 1094.973
107.5059, 1096.942
107.9880, 1101.532
108.4701, 1111.106
108.9522, 1134.693
109.4343, 1161.583
109.9164, 1172.696
110.3986, 1146.522
110.8807, 1122.440
111.3628, 1112.396
111.8449, 1125.310
112.3270, 1138.304
112.8091, 1146.086
113.2913, 1152.436
113.7734, 1167.909
114.2555, 1206.615
114.7376, 1247.009
115.2197, 1276.808
115.7018, 1272.656
116.1840, 1282.096
116.6661, 1325.339
117.1482, 1396.334
117.6303, 1463.337
118.1124, 1508.831
118.5945, 1548.663
119.0767, 1596.046
119.5588, 1651.259
120.0409, 1718.551
120.5230, 1798.607
121.0051, 1891.198
121.4872, 2000.729
121.9694, 2132.214
122.4515, 2281.024
122.9336, 2441.447
123.4157, 2609.712
123.8978, 2787.591
124.3799, 2976.100
124.8621, 3175.309
125.3442, 3384.784
125.8263, 3608.362
126.3084, 3842.462
126.7905, 4079.344
127.2726, 4316.745
127.7548, 4552.171
128.2369, 4780.529
128.7190, 5001.765
129.2011, 5214.622
129.6832, 5420.911
130.1653, 5617.848
130.6474, 5800.295
131.1296, 5954.603
131.6117, 6088.679
132.0938, 6233.643
132.5759, 6390.208
133.0580, 6564.490
133.5401, 6764.466
134.0223, 6990.927
134.5044, 7241.288
134.9865, 7513.971
135.4686, 7811.670
135.9507, 8131.505
136.4328, 8480.908
136.9150, 8854.222
137.3971, 9227.402
137.8792, 9603.522
138.3613, 9975.578
138.8434, 10344.82
139.3255, 10713.74
139.8077, 11050.81
140.2898, 11347.34
140.7719, 11605.14
141.2540, 11871.59
141.7361, 12158.63
142.2182, 12429.88
142.7004, 12643.07
143.1825, 12770.67
143.6646, 12904.21
144.1467, 13063.74
144.6288, 13254.04
145.1109, 13427.52
145.5931, 13582.71
146.0752, 13723.55
146.5573, 13855.50
147.0394, 13964.05
147.5215, 14083.53
148.0036, 14218.99
148.4858, 14372.91
148.9679, 14540.48
149.4500, 14712.98
149.9321, 14902.45
150.4142, 15122.76
150.8963, 15392.67
151.3785, 15680.22
151.8606, 15975.79
152.3427, 16291.33
152.8248, 16598.75
153.3069, 16892.34
153.7890, 17179.18
154.2712, 17419.47
154.7533, 17552.62
155.2354, 17670.54
155.7175, 17777.01
156.1996, 17875.49
156.6817, 17952.18
157.1639, 17995.90
157.6460, 18017.25
158.1281, 18037.66
158.6102, 18070.17
159.0923, 18096.85
159.5744, 18108.25
160.0566, 18095.13
160.5387, 18079.63
161.0208, 18066.71
161.5029, 18056.18
161.9850, 18047.08
162.4671, 18046.06
162.9493, 18042.79
163.4314, 18029.51
163.9135, 17992.99
164.3956, 17961.15
164.8777, 17946.43
165.3598, 17946.23
165.8420, 17950.45
166.3241, 17950.65
166.8062, 17954.08
167.2883, 17967.23
167.7704, 17994.77
168.2525, 18028.58
168.7346, 18061.53
169.2168, 18094.71
169.6989, 18136.98
170.1810, 18194.90
170.6631, 18264.15
171.1452, 18340.08
171.6273, 18420.04
172.1095, 18505.77
172.5916, 18609.06
173.0737, 18727.48
173.5558, 18830.92
174.0379, 18905.55
174.5201, 18949.85
175.0022, 18962.43
175.4843, 18932.59
175.9664, 18876.18
176.4485, 18802.61
176.9306, 18711.65
177.4128, 18629.80
177.8949, 18583.05
178.3770, 18562.52
178.8591, 18547.68
179.3412, 18527.55
179.8233, 18508.92
180.3055, 18505.52
180.7876, 18518.03
181.2697, 18532.74
181.7518, 18533.13
182.2339, 18523.96
182.7160, 18520.47
183.1982, 18536.09
183.6803, 18561.30
184.1624, 18571.34
184.6445, 18564.01
185.1266, 18556.97
185.6087, 18576.18
186.0909, 18616.53
186.5730, 18649.49
187.0551, 18657.82
187.5372, 18648.61
188.0193, 18642.21
188.5014, 18636.67
188.9836, 18642.56
189.4657, 18681.17
189.9478, 18749.06
190.4299, 18813.96
190.9120, 18861.86
191.3941, 18893.70
191.8763, 18913.99
192.3584, 18920.40
192.8405, 18921.61
193.3226, 18928.42
193.8047, 18940.84
194.2868, 18959.11
194.7690, 18989.80
195.2511, 19031.02
195.7332, 19053.83
196.2153, 19053.14
196.6974, 19044.89
197.1795, 19055.14
197.6617, 19084.87
198.1438, 19122.50
198.6259, 19165.20
199.1080, 19212.89
199.5901, 19258.54
200.0722, 19301.62
200.5544, 19342.93
201.0365, 19386.02
201.5186, 19432.91
202.0007, 19469.33
202.4828, 19482.22
202.9649, 19468.65
203.4471, 19472.32
203.9292, 19500.02
204.4113, 19537.43
204.8934, 19554.85
205.3755, 19547.37
205.8576, 19538.04
206.3398, 19539.57
206.8219, 19554.88
207.3040, 19558.32
207.7861, 19542.75
208.2682, 19521.88
208.7503, 19528.28
209.2325, 19570.72
209.7146, 19612.95
210.1967, 19636.32
210.6788, 19635.60
211.1609, 19642.87
211.6430, 19660.88
212.1252, 19685.64
212.6073, 19706.57
213.0894, 19720.11
213.5715, 19739.07
214.0536, 19772.35
214.5357, 19827.36
215.0179, 19868.48
215.5000, 19890.52
215.9821, 19902.03
216.4642, 19922.39
216.9463, 19953.92
217.4284, 19988.58
217.9105, 20023.13
218.3927, 20056.32
218.8748, 20092.67
219.3569, 20134.91
219.8390, 20178.57
220.3211, 20213.43
220.8032, 20233.48
221.2854, 20256.11
221.7675, 20290.04
222.2496, 20339.55
222.7317, 20386.05
223.2138, 20430.18
223.6959, 20470.74
224.1781, 20504.79
224.6602, 20525.62
225.1423, 20551.18
225.6244, 20588.96
226.1065, 20644.06
226.5886, 20698.42
227.0708, 20757.22
227.5529, 20813.09
228.0350, 20849.61
228.5171, 20857.15
228.9992, 20862.11
229.4813, 20873.97
229.9635, 20893.54
230.4456, 20918.80
230.9277, 20957.36
231.4098, 20997.69
231.8919, 21014.96
232.3740, 20989.41
232.8562, 20972.97
233.3383, 20987.84
233.8204, 21048.62
234.3025, 21092.16
234.7846, 21107.45
235.2667, 21111.77
235.7489, 21136.51
236.2310, 21190.11
236.7131, 21250.61
237.1952, 21314.87
237.6773, 21387.89
238.1594, 21441.70
238.6416, 21463.15
239.1237, 21473.65
239.6058, 21510.00
240.0879, 21593.19
240.5700, 21668.85
241.0521, 21716.65
241.5343, 21726.36
242.0164, 21752.71
242.4985, 21808.52
242.9806, 21871.76
243.4627, 21908.33
243.9448, 21900.89
244.4270, 21895.33
244.9091, 21904.65
245.3912, 21931.57
245.8733, 21957.39
246.3554, 21983.43
246.8375, 22006.85
247.3197, 22022.35
247.8018, 22020.70
248.2839, 22028.05
248.7660, 22057.37
249.2481, 22115.08
249.7302, 22143.29
250.2124, 22125.07
250.6945, 22093.91
251.1766, 22088.77
251.6587, 22121.07
252.1408, 22157.89
252.6229, 22191.22
253.1051, 22220.75
253.5872, 22260.46
254.0693, 22315.27
254.5514, 22375.72
255.0335, 22433.50
255.5156, 22490.56
255.9978, 22538.98
256.4799, 22575.95
256.9620, 22601.46
257.4441, 22621.28
257.9262, 22626.93
258.4083, 22637.18
258.8904, 22673.69
259.3726, 22756.03
259.8547, 22814.88
260.3368, 22828.66
260.8189, 22803.17
261.3010, 22805.61
261.7831, 22848.01
262.2653, 22899.25
262.7474, 22933.83
263.2295, 22946.01
263.7116, 22958.67
264.1937, 22971.67
264.6758, 22987.39
265.1580, 23023.29
265.6401, 23090.38
266.1222, 23157.12
266.6043, 23198.87
267.0864, 23206.87
267.5685, 23223.75
268.0507, 23257.15
268.5328, 23301.95
269.0149, 23338.73
269.4970, 23366.33
269.9791, 23390.05
270.4612, 23411.92
270.9434, 23430.09
271.4255, 23455.20
271.9076, 23489.62
272.3897, 23530.25
272.8718, 23567.39
273.3539, 23596.93
273.8361, 23635.07
274.3182, 23697.97
274.8003, 23791.77
275.2824, 23855.08
275.7645, 23875.85
276.2466, 23875.64
276.7288, 23897.79
277.2109, 23945.78
277.6930, 23997.59
278.1751, 24044.77
278.6572, 24087.86
279.1393, 24121.15
279.6215, 24142.87
280.1036, 24159.14
280.5857, 24177.67
281.0678, 24198.32
281.5499, 24225.31
282.0320, 24265.23
282.5142, 24316.49
282.9963, 24350.23
283.4784, 24363.46
283.9605, 24368.77
284.4426, 24379.86
284.9247, 24396.72
285.4069, 24418.65
285.8890, 24445.46
286.3711, 24476.89
286.8532, 24513.20
287.3353, 24554.19
287.8174, 24600.64
288.2996, 24656.23
288.7817, 24720.05
289.2638, 24779.48
289.7459, 24832.01
290.2280, 24877.49
290.7101, 24914.09
291.1923, 24941.45
291.6744, 24969.06
292.1565, 25004.24
292.6386, 25046.58
293.1207, 25095.00
293.6028, 25151.87
294.0850, 25211.18
294.5671, 25261.84
295.0492, 25304.22
295.5313, 25348.58
296.0134, 25404.84
296.4955, 25468.52
296.9777, 25524.98
297.4598, 25568.32
297.9419, 25610.18
298.4240, 25672.21
298.9061, 25749.84
299.3882, 25820.15
299.8704, 25863.81
300.3525, 25891.82
300.8346, 25925.65
301.3167, 25967.90
301.7988, 26015.59
302.2809, 26065.10
302.7631, 26117.68
303.2452, 26178.07
303.7273, 26248.38
304.2094, 26327.98
304.6915, 26417.77
305.1736, 26519.54
305.6558, 26620.43
306.1379, 26715.93
306.6200, 26802.15
307.1021, 26871.61
307.5842, 26895.88
308.0663, 26917.37
308.5485, 26983.02
309.0306, 27091.29
309.5127, 27202.49
309.9948, 27287.80
310.4769, 27359.85
310.9590, 27434.50
311.4412, 27518.54
311.9233, 27605.85
312.4054, 27694.80
312.8875, 27785.03
313.3696, 27870.93
313.8517, 27945.54
314.3339, 28015.72
314.8160, 28089.85
315.2981, 28180.16
315.7802, 28258.62
316.2623, 28316.48
316.7444, 28353.08
317.2266, 28366.29
317.7087, 28332.58
318.1908, 28290.86
318.6729, 28268.00
319.1550, 28278.63
319.6371, 28279.66
320.1193, 28235.01
320.6014, 28174.29
321.0835, 28145.51
321.5656, 28189.97
322.0477, 28245.41
322.5298, 28285.30
323.0120, 28303.33
323.4941, 28325.95
323.9762, 28350.70
324.4583, 28385.19
324.9404, 28437.75
325.4225, 28534.55
325.9047, 28625.37
326.3868, 28690.98
326.8689, 28731.05
327.3510, 28784.83
327.8331, 28863.91
328.3152, 28953.21
328.7974, 29042.36
329.2795, 29130.90
329.7616, 29220.71
330.2437, 29313.53
330.7258, 29407.74
331.2079, 29496.84
331.6901, 29578.29
332.1722, 29656.70
332.6543, 29732.70
333.1364, 29791.15
333.6185, 29873.42
334.1006, 29987.14
334.5828, 30121.84
335.0649, 30249.29
335.5470, 30362.61
336.0291, 30482.17
336.5112, 30617.67
336.9933, 30775.84
337.4755, 30918.30
337.9576, 31038.76
338.4397, 31149.40
338.9218, 31269.93
339.4039, 31403.91
339.8860, 31531.73
340.3681, 31645.61
340.8503, 31747.54
341.3324, 31851.08
341.8145, 31961.16
342.2966, 32062.83
342.7787, 32145.92
343.2608, 32209.70
343.7430, 32256.48
344.2251, 32281.29
344.7072, 32292.71
345.1893, 32315.53
345.6714, 32350.67
346.1535, 32387.36
346.6357, 32414.53
347.1178, 32435.01
347.5999, 32467.75
348.0820, 32517.68
348.5641, 32574.15
349.0462, 32618.48
349.5284, 32652.64
350.0105, 32693.61
350.4926, 32762.93
350.9747, 32843.54
351.4568, 32892.92
351.9389, 32906.67
352.4211, 32913.39
352.9032, 32941.06
353.3853, 32984.27
353.8674, 33029.81
354.3495, 33071.84
354.8316, 33114.35
355.3138, 33161.60
355.7959, 33213.71
356.2780, 33269.98
356.7601, 33336.76
357.2422, 33406.04
357.7243, 33466.13
358.2065, 33502.30
358.6886, 33545.48
359.1707, 33622.17
359.6528, 33724.10
360.1349, 33826.36
360.6170, 33910.01
361.0992, 33993.51
361.5813, 34094.93
362.0634, 34225.18
362.5455, 34340.91
363.0276, 34418.56
363.5097, 34471.43
363.9919, 34519.46
364.4740, 34590.33
364.9561, 34637.20
365.4382, 34639.03
365.9203, 34592.39
366.4024, 34528.09
366.8846, 34429.62
367.3667, 34327.59
367.8488, 34246.86
368.3309, 34201.29
368.8130, 34165.22
369.2951, 34134.88
369.7773, 34111.24
370.2594, 34099.18
370.7415, 34096.81
371.2236, 34108.44
371.7057, 34138.12
372.1878, 34202.82
372.6700, 34252.23
373.1521, 34269.66
373.6342, 34278.71
374.1163, 34330.38
374.5984, 34452.90
375.0805, 34561.32
375.5627, 34625.04
376.0448, 34639.77
376.5269, 34661.86
377.0090, 34695.11
377.4911, 34728.48
377.9732, 34751.45
378.4554, 34763.65
378.9375, 34764.74
379.4196, 34751.81
379.9017, 34728.82
380.3838, 34706.19
380.8659, 34682.94
381.3481, 34670.56
381.8302, 34689.85
382.3123, 34734.16
382.7944, 34750.73
383.2765, 34730.45
383.7586, 34691.23
384.2408, 34657.02
384.7229, 34627.57
385.2050, 34598.26
385.6871, 34562.60
386.1692, 34527.24
386.6513, 34498.36
387.1335, 34475.71
387.6156, 34474.85
388.0977, 34522.97
388.5798, 34601.07
389.0619, 34675.68
389.5440, 34737.27
390.0262, 34787.13
390.5083, 34813.70
390.9904, 34824.52
391.4725, 34855.20
391.9546, 34940.70
392.4367, 35046.47
392.9189, 35146.04
393.4010, 35236.13
393.8831, 35312.89
394.3652, 35353.23
394.8473, 35381.39
395.3294, 35438.07
395.8116, 35555.66
396.2937, 35687.80
396.7758, 35820.38
397.2579, 35953.44
397.7400, 36076.71
398.2221, 36172.94
398.7043, 36265.52
399.1864, 36373.09
399.6685, 36512.62
400.1506, 36649.14
400.6327, 36776.53
401.1148, 36897.16
401.5970, 37024.30
402.0791, 37165.63
402.5612, 37302.69
403.0433, 37424.78
403.5254, 37521.01
404.0075, 37635.30
404.4897, 37776.26
404.9718, 37929.18
405.4539, 38070.12
405.9360, 38194.79
406.4181, 38326.16
406.9002, 38482.58
407.3824, 38656.33
407.8645, 38779.91
408.3466, 38846.35
408.8287, 38888.65
409.3108, 38933.05
409.7929, 38978.59
410.2751, 39017.86
410.7572, 39050.59
411.2393, 39073.89
411.7214, 39081.18
412.2035, 39072.80
412.6856, 39054.77
413.1678, 39022.06
413.6499, 38983.35
414.1320, 38960.91
414.6141, 38957.30
415.0962, 38954.70
415.5783, 38927.13
416.0605, 38890.29
416.5426, 38872.79
417.0247, 38891.55
417.5068, 38928.97
417.9889, 38975.52
418.4710, 39029.36
418.9532, 39082.72
419.4353, 39108.45
419.9174, 39144.45
420.3995, 39225.27
420.8816, 39374.02
421.3637, 39522.93
421.8459, 39648.49
422.3280, 39755.55
422.8101, 39853.63
423.2922, 39922.20
423.7743, 40001.54
424.2564, 40106.81
424.7386, 40239.57
425.2207, 40373.42
425.7028, 40523.92
426.1849, 40662.80
426.6670, 40770.79
427.1491, 40823.82
427.6313, 40884.96
428.1134, 40949.89
428.5955, 41027.15
429.0776, 41144.68
429.5597, 41330.99
430.0418, 41505.20
430.5240, 41631.43
431.0061, 41704.32
431.4882, 41801.58
431.9703, 41931.46
432.4524, 42065.74
432.9345, 42172.15
433.4167, 42249.50
433.8988, 42318.29
434.3809, 42380.98
434.8630, 42437.53
435.3451, 42492.65
435.8272, 42545.65
436.3094, 42579.18
436.7915, 42572.76
437.2736, 42538.88
437.7557, 42510.71
438.2378, 42493.49
438.7199, 42467.89
439.2020, 42404.38
439.6841, 42318.60
440.1663, 42242.46
440.6484, 42185.60
441.1305, 42146.41
441.6126, 42127.21
442.0947, 42126.27
442.5768, 42134.43
443.0590, 42159.72
443.5411, 42184.12
444.0232, 42192.13
444.5053, 42173.51
444.9874, 42153.47
445.4695, 42123.59
445.9517, 42100.34
446.4338, 42110.20
446.9159, 42193.99
447.3980, 42276.00
447.8801, 42334.25
448.3622, 42367.38
448.8444, 42397.84
449.3265, 42420.56
449.8086, 42445.63
450.2907, 42479.73
450.7728, 42525.68
451.2549, 42576.30
451.7371, 42630.67
452.2192, 42690.23
452.7013, 42759.44
453.1834, 42840.76
453.6655, 42921.70
454.1476, 42998.37
454.6298, 43070.12
455.1119, 43132.50
455.5940, 43183.89
456.0761, 43230.43
456.5582, 43270.03
457.0403, 43306.40
457.5225, 43364.45
458.0046, 43457.05
458.4867, 43555.30
458.9688, 43608.48
459.4509, 43625.78
459.9330, 43644.05
460.4152, 43697.74
460.8973, 43756.96
461.3794, 43780.98
461.8615, 43767.51
462.3436, 43750.52
462.8257, 43737.25
463.3079, 43738.85
463.7900, 43768.57
464.2721, 43854.44
464.7542, 43940.34
465.2363, 43995.04
465.7184, 44031.72
466.2006, 44087.51
466.6827, 44193.43
467.1648, 44301.55
467.6469, 44388.77
468.1290, 44444.43
468.6111, 44517.14
469.0933, 44616.79
469.5754, 44728.61
470.0575, 44842.60
470.5396, 44965.07
471.0217, 45078.04
471.5038, 45186.03
471.9860, 45282.41
472.4681, 45340.25
472.9502, 45348.64
473.4323, 45355.04
473.9144, 45383.10
474.3965, 45431.91
474.8787, 45484.98
475.3608, 45547.88
475.8429, 45586.71
476.3250, 45542.03
476.8071, 45431.34
477.2892, 45343.62
477.7714, 45303.88
478.2535, 45295.57
478.7356, 45295.19
479.2177, 45305.53
479.6998, 45338.04
480.1819, 45420.39
480.6641, 45517.41
481.1462, 45593.37
481.6283, 45645.77
482.1104, 45685.03
482.5925, 45694.47
483.0746, 45704.35
483.5568, 45746.09
484.0389, 45864.43
484.5210, 45976.99
485.0031, 46046.73
485.4852, 46090.90
485.9673, 46165.50
486.4495, 46307.43
486.9316, 46452.54
487.4137, 46578.42
487.8958, 46680.33
488.3779, 46782.55
488.8600, 46873.42
489.3422, 46975.77
489.8243, 47120.07
490.3064, 47325.39
490.7885, 47496.79
491.2706, 47613.59
491.7527, 47695.58
492.2349, 47791.57
492.7170, 47900.76
493.1991, 48025.04
493.6812, 48181.04
494.1633, 48354.33
494.6454, 48481.84
495.1276, 48561.25
495.6097, 48629.65
496.0918, 48718.42
496.5739, 48821.59
497.0560, 48922.37
497.5381, 49018.11
498.0203, 49112.75
498.5024, 49216.59
498.9845, 49322.74
499.4666, 49418.49
499.9487, 49493.05
500.4308, 49558.52
500.9130, 49624.79
501.3951, 49691.92
501.8772, 49743.68
502.3593, 49754.41
502.8414, 49761.00
503.3235, 49788.78
503.8057, 49874.31
504.2878, 49931.75
504.7699, 49958.03
505.2520, 49955.26
505.7341, 49920.76
506.2162, 49824.11
506.6984, 49755.36
507.1805, 49744.95
507.6626, 49785.65
508.1447, 49812.16
508.6268, 49820.93
509.1089, 49826.59
509.5911, 49836.33
510.0732, 49850.62
510.5553, 49877.50
511.0374, 49919.86
511.5195, 49966.76
512.0016, 50005.23
512.4838, 50037.18
512.9659, 50066.86
513.4480, 50090.06
513.9301, 50118.95
514.4122, 50172.73
514.8943, 50246.62
515.3765, 50319.48
515.8586, 50372.42
516.3407, 50424.55
516.8228, 50494.25
517.3049, 50589.01
517.7870, 50671.60
518.2692, 50709.17
518.7513, 50736.80
519.2334, 50788.10
519.7155, 50882.62
520.1976, 50984.28
520.6797, 51097.29
521.1619, 51214.31
521.6440, 51310.68
522.1261, 51368.09
522.6082, 51437.02
523.0903, 51541.87
523.5724, 51684.05
524.0546, 51800.15
524.5367, 51884.08
525.0188, 51960.21
525.5009, 52054.44
525.9830, 52164.80
526.4651, 52258.10
526.9473, 52325.07
527.4294, 52388.02
527.9115, 52486.18
528.3936, 52607.83
528.8757, 52716.82
529.3578, 52789.54
529.8400, 52843.69
530.3221, 52890.44
530.8042, 52930.85
531.2863, 52977.43
531.7684, 53042.70
532.2505, 53111.79
532.7327, 53171.57
533.2148, 53215.79
533.6969, 53263.77
534.1790, 53326.54
534.6611, 53393.41
535.1432, 53451.28
535.6254, 53493.55
536.1075, 53536.98
536.5896, 53587.66
537.0717, 53641.78
537.5538, 53681.70
538.0359, 53705.20
538.5181, 53722.30
539.0002, 53734.80
539.4823, 53743.16
539.9644, 53764.05
540.4465, 53800.27
540.9286, 53835.45
541.4108, 53842.07
541.8929, 53831.05
542.3750, 53856.48
542.8571, 53936.92
543.3392, 54026.64
543.8214, 54059.93
544.3035, 54059.13
544.7856, 54080.49
545.2677, 54174.46
545.7498, 54279.21
546.2319, 54343.32
546.7141, 54373.65
547.1962, 54414.16
547.6783, 54489.98
548.1604, 54575.01
548.6425, 54654.60
549.1246, 54720.98
549.6068, 54799.42
550.0889, 54905.63
550.5710, 55016.63
551.0531, 55111.67
551.5352, 55186.71
552.0173, 55253.20
552.4995, 55305.45
552.9816, 55353.89
553.4637, 55424.84
553.9458, 55520.34
554.4279, 55625.96
554.9100, 55742.30
555.3922, 55864.19
555.8743, 55970.01
556.3564, 56059.18
556.8385, 56139.20
557.3206, 56206.18
557.8027, 56270.21
558.2849, 56350.02
558.7670, 56449.32
559.2491, 56560.21
559.7312, 56689.24
560.2133, 56821.56
560.6954, 56936.61
561.1776, 57006.59
561.6597, 57077.79
562.1418, 57176.03
562.6239, 57290.02
563.1060, 57377.18
563.5881, 57414.61
564.0703, 57441.76
564.5524, 57474.24
565.0345, 57514.32
565.5166, 57526.65
565.9987, 57506.79
566.4808, 57467.08
566.9630, 57414.64
567.4451, 57349.33
567.9272, 57274.43
568.4093, 57185.81
568.8914, 57098.81
569.3735, 57031.66
569.8557, 56984.23
570.3378, 56952.34
570.8199, 56938.38
571.3020, 56936.04
571.7841, 56938.61
572.2662, 56946.14
572.7484, 56958.91
573.2305, 56966.48
573.7126, 56986.89
574.1947, 57039.02
574.6768, 57125.27
575.1589, 57208.61
575.6411, 57271.71
576.1232, 57329.35
576.6053, 57390.51
577.0874, 57453.52
577.5695, 57524.22
578.0516, 57615.29
578.5338, 57704.35
579.0159, 57751.24
579.4980, 57734.61
579.9801, 57752.26
580.4622, 57836.65
580.9443, 57963.80
581.4265, 58060.71
581.9086, 58127.66
582.3907, 58175.93
582.8728, 58199.52
583.3549, 58212.55
583.8370, 58246.81
584.3192, 58302.82
584.8013, 58366.77
585.2834, 58420.25
585.7655, 58480.76
