##NAMES=Leucophanite
##RRUFFID=R050004
##IDEAL CHEMISTRY=NaCaBeSi_2_O_6_F
##LOCALITY=Langesundfjord, Norway
##OWNER=RRUFF
##SOURCE=University of Arizona Mineral Museum
##DESCRIPTION=Pale green massive
##STATUS=The identification of this mineral has been confirmed by X-ray diffraction and chemical analysis
##URL=rruff.info/R050004
##MEASURED CHEMISTRY=Ca_1.00_Ca_1.00_Na_2.00_Be_2.00_Si_4.00_O_12_(F_0.96_(OH)_0.04_)_2_
141.9480, 3320.488
142.4301, 3364.140
142.9122, 3407.858
143.3943, 3450.410
143.8764, 3492.509
144.3585, 3533.752
144.8407, 3571.984
145.3228, 3605.708
145.8049, 3637.297
146.2870, 3668.201
146.7691, 3692.695
147.2512, 3723.480
147.7334, 3763.991
148.2155, 3817.214
148.6976, 3868.488
149.1797, 3913.044
149.6618, 3957.169
150.1439, 4008.676
150.6261, 4083.970
151.1082, 4151.332
151.5903, 4199.838
152.0724, 4217.507
152.5545, 4242.565
153.0366, 4282.001
153.5188, 4330.345
154.0009, 4376.647
154.4830, 4420.951
154.9651, 4462.187
155.4472, 4500.235
155.9293, 4533.955
156.4115, 4565.979
156.8936, 4600.904
157.3757, 4635.666
157.8578, 4660.355
158.3399, 4657.129
158.8221, 4651.495
159.3042, 4660.132
159.7863, 4706.802
160.2684, 4748.952
160.7505, 4767.937
161.2326, 4767.009
161.7148, 4769.882
162.1969, 4788.103
162.6790, 4814.442
163.1611, 4841.642
163.6432, 4876.858
164.1253, 4905.029
164.6075, 4910.410
165.0896, 4892.163
165.5717, 4884.389
166.0538, 4914.829
166.5359, 4966.291
167.0180, 5014.111
167.5002, 5051.260
167.9823, 5079.371
168.4644, 5097.177
168.9465, 5103.263
169.4286, 5108.256
169.9107, 5118.227
170.3929, 5132.714
170.8750, 5151.028
171.3571, 5172.490
171.8392, 5197.542
172.3213, 5228.962
172.8034, 5269.531
173.2856, 5307.370
173.7677, 5329.833
174.2498, 5339.760
174.7319, 5346.569
175.2140, 5350.821
175.6961, 5356.729
176.1783, 5373.931
176.6604, 5411.317
177.1425, 5447.250
177.6246, 5447.719
178.1067, 5417.776
178.5888, 5390.231
179.0710, 5391.881
179.5531, 5413.617
180.0352, 5436.463
180.5173, 5457.781
180.9994, 5475.928
181.4815, 5483.543
181.9637, 5481.150
182.4458, 5483.048
182.9279, 5508.807
183.4100, 5551.126
183.8921, 5582.336
184.3742, 5589.417
184.8564, 5582.630
185.3385, 5585.560
185.8206, 5598.740
186.3027, 5615.479
186.7848, 5627.739
187.2669, 5636.618
187.7491, 5650.959
188.2312, 5677.309
188.7133, 5711.553
189.1954, 5739.834
189.6775, 5762.008
190.1596, 5777.942
190.6418, 5783.840
191.1239, 5780.023
191.6060, 5780.442
192.0881, 5793.320
192.5702, 5816.938
193.0524, 5835.845
193.5345, 5849.096
194.0166, 5859.990
194.4987, 5873.536
194.9808, 5889.944
195.4629, 5905.877
195.9451, 5919.219
196.4272, 5930.200
196.9093, 5941.046
197.3914, 5950.799
197.8735, 5962.042
198.3556, 5982.555
198.8378, 6014.405
199.3199, 6042.023
199.8020, 6053.446
200.2841, 6046.989
200.7662, 6049.224
201.2483, 6064.764
201.7305, 6086.984
202.2126, 6099.339
202.6947, 6100.303
203.1768, 6097.088
203.6589, 6091.143
204.1410, 6080.734
204.6232, 6081.569
205.1053, 6099.256
205.5874, 6127.239
206.0695, 6142.065
206.5516, 6139.296
207.0337, 6135.026
207.5159, 6139.999
207.9980, 6155.188
208.4801, 6175.308
208.9622, 6202.890
209.4443, 6234.854
209.9264, 6254.512
210.4086, 6257.246
210.8907, 6256.966
211.3728, 6265.051
211.8549, 6284.695
212.3370, 6301.923
212.8191, 6314.210
213.3013, 6322.124
213.7834, 6330.999
214.2655, 6340.241
214.7476, 6351.466
215.2297, 6367.076
215.7118, 6390.337
216.1940, 6409.061
216.6761, 6419.405
217.1582, 6421.956
217.6403, 6428.889
218.1224, 6441.053
218.6045, 6456.335
219.0867, 6473.837
219.5688, 6496.328
220.0509, 6513.627
220.5330, 6519.631
221.0151, 6513.867
221.4972, 6524.422
221.9794, 6560.362
222.4615, 6602.583
222.9436, 6629.672
223.4257, 6632.214
223.9078, 6639.560
224.3899, 6661.053
224.8721, 6698.950
225.3542, 6724.067
225.8363, 6729.932
226.3184, 6729.372
226.8005, 6737.714
227.2827, 6757.808
227.7648, 6781.687
228.2469, 6810.407
228.7290, 6846.288
229.2111, 6867.360
229.6932, 6866.099
230.1754, 6855.891
230.6575, 6854.367
231.1396, 6865.775
231.6217, 6878.280
232.1038, 6887.046
232.5859, 6889.345
233.0681, 6903.942
233.5502, 6939.242
234.0323, 6980.708
234.5144, 7006.898
234.9965, 7009.511
235.4786, 7010.223
235.9608, 7012.633
236.4429, 7013.233
236.9250, 7033.098
237.4071, 7084.493
237.8892, 7147.419
238.3713, 7188.954
238.8535, 7196.584
239.3356, 7203.802
239.8177, 7222.537
240.2998, 7258.017
240.7819, 7284.458
241.2640, 7297.430
241.7462, 7304.363
242.2283, 7319.695
242.7104, 7353.521
243.1925, 7379.013
243.6746, 7384.912
244.1567, 7363.082
244.6389, 7348.941
245.1210, 7341.882
245.6031, 7342.798
246.0852, 7355.005
246.5673, 7386.132
247.0494, 7415.499
247.5316, 7434.614
248.0137, 7438.660
248.4958, 7449.117
248.9779, 7468.448
249.4600, 7492.780
249.9421, 7514.984
250.4243, 7536.103
250.9064, 7553.520
251.3885, 7566.017
251.8706, 7572.731
252.3527, 7576.886
252.8348, 7575.991
253.3170, 7574.064
253.7991, 7580.282
254.2812, 7601.081
254.7633, 7617.533
255.2454, 7621.041
255.7275, 7606.841
256.2097, 7596.959
256.6918, 7591.190
257.1739, 7589.980
257.6560, 7595.521
258.1381, 7612.214
258.6202, 7626.521
259.1024, 7631.101
259.5845, 7620.709
260.0666, 7623.978
260.5487, 7649.312
261.0308, 7681.903
261.5129, 7691.771
261.9951, 7666.449
262.4772, 7648.150
262.9593, 7658.712
263.4414, 7709.026
263.9235, 7733.001
264.4056, 7716.702
264.8878, 7687.334
265.3699, 7697.124
265.8520, 7760.949
266.3341, 7821.635
266.8162, 7853.937
267.2983, 7851.037
267.7805, 7863.548
268.2626, 7897.909
268.7447, 7940.437
269.2268, 7966.329
269.7089, 7971.382
270.1910, 7974.798
270.6732, 7983.862
271.1553, 7999.077
271.6374, 8014.622
272.1195, 8030.014
272.6016, 8046.488
273.0837, 8065.719
273.5659, 8088.123
274.0480, 8111.570
274.5301, 8137.079
275.0122, 8164.810
275.4943, 8184.363
275.9764, 8192.460
276.4586, 8198.545
276.9407, 8222.253
277.4228, 8266.836
277.9049, 8298.385
278.3870, 8295.379
278.8691, 8260.120
279.3513, 8247.236
279.8334, 8260.330
280.3155, 8286.539
280.7976, 8313.504
281.2798, 8341.483
281.7619, 8358.847
282.2440, 8356.733
282.7261, 8338.221
283.2082, 8326.316
283.6903, 8321.348
284.1725, 8321.783
284.6546, 8325.835
285.1367, 8333.497
285.6188, 8345.945
286.1009, 8368.405
286.5830, 8396.450
287.0652, 8409.257
287.5473, 8405.181
288.0294, 8395.020
288.5115, 8384.061
288.9936, 8374.128
289.4757, 8381.101
289.9579, 8422.582
290.4400, 8481.740
290.9221, 8510.755
291.4042, 8508.111
291.8863, 8494.185
292.3684, 8483.207
292.8506, 8476.537
293.3327, 8480.278
293.8148, 8501.849
294.2969, 8531.842
294.7790, 8551.390
295.2611, 8560.539
295.7433, 8568.151
296.2254, 8581.553
296.7075, 8599.737
297.1896, 8619.990
297.6717, 8646.485
298.1538, 8670.865
298.6360, 8672.650
299.1181, 8654.278
299.6002, 8644.326
300.0823, 8675.029
300.5644, 8728.526
301.0465, 8771.263
301.5287, 8792.636
302.0108, 8801.980
302.4929, 8799.939
302.9750, 8790.204
303.4571, 8794.020
303.9392, 8843.195
304.4214, 8909.311
304.9035, 8951.926
305.3856, 8946.355
305.8677, 8937.704
306.3498, 8969.161
306.8319, 9031.729
307.3141, 9094.560
307.7962, 9139.563
308.2783, 9175.174
308.7604, 9209.423
309.2425, 9241.688
309.7246, 9276.091
310.2068, 9319.661
310.6889, 9368.101
311.1710, 9410.770
311.6531, 9429.331
312.1352, 9448.266
312.6173, 9490.752
313.0995, 9572.105
313.5816, 9641.473
314.0637, 9671.465
314.5458, 9673.341
315.0279, 9668.757
315.5100, 9661.363
315.9922, 9653.187
316.4743, 9643.681
316.9564, 9630.798
317.4385, 9624.860
317.9206, 9641.014
318.4027, 9663.490
318.8849, 9670.250
319.3670, 9626.837
319.8491, 9591.802
320.3312, 9593.393
320.8133, 9641.563
321.2954, 9677.882
321.7776, 9672.005
322.2597, 9656.233
322.7418, 9664.991
323.2239, 9740.155
323.7060, 9803.432
324.1881, 9833.093
324.6703, 9825.881
325.1524, 9818.438
325.6345, 9811.533
326.1166, 9806.286
326.5987, 9803.535
327.0808, 9803.790
327.5630, 9805.898
328.0451, 9808.501
328.5272, 9811.854
329.0093, 9821.956
329.4914, 9843.848
329.9735, 9867.656
330.4557, 9886.831
330.9378, 9898.656
331.4199, 9910.582
331.9020, 9923.204
332.3841, 9936.422
332.8662, 9949.075
333.3484, 9957.696
333.8305, 9970.822
334.3126, 9995.609
334.7947, 10038.75
335.2768, 10070.64
335.7589, 10083.32
336.2411, 10087.48
336.7232, 10115.62
337.2053, 10178.96
337.6874, 10232.87
338.1695, 10248.14
338.6516, 10217.11
339.1338, 10215.39
339.6159, 10250.41
340.0980, 10305.31
340.5801, 10355.97
341.0622, 10403.98
341.5443, 10437.67
342.0265, 10445.19
342.5086, 10430.49
342.9907, 10434.16
343.4728, 10459.45
343.9549, 10490.19
344.4370, 10506.31
344.9192, 10508.92
345.4013, 10508.99
345.8834, 10511.67
346.3655, 10514.17
346.8476, 10506.57
347.3297, 10488.57
347.8119, 10470.43
348.2940, 10461.77
348.7761, 10460.79
349.2582, 10461.92
349.7403, 10462.00
350.2225, 10465.07
350.7046, 10479.35
351.1867, 10503.66
351.6688, 10527.83
352.1509, 10540.08
352.6331, 10548.69
353.1152, 10567.34
353.5973, 10603.53
354.0794, 10642.07
354.5615, 10667.12
355.0436, 10682.87
355.5258, 10702.11
356.0079, 10748.61
356.4900, 10792.41
356.9721, 10800.77
357.4542, 10756.32
357.9363, 10718.38
358.4185, 10727.71
358.9006, 10765.24
359.3827, 10797.98
359.8648, 10803.36
360.3469, 10808.33
360.8290, 10830.81
361.3112, 10875.94
361.7933, 10912.05
362.2754, 10920.43
362.7575, 10918.13
363.2396, 10923.71
363.7217, 10963.01
364.2039, 10988.85
364.6860, 10977.59
365.1681, 10928.49
365.6502, 10902.78
366.1323, 10930.07
366.6144, 10968.95
367.0966, 10990.82
367.5787, 10967.43
368.0608, 10960.52
368.5429, 10983.24
369.0250, 11028.52
369.5071, 11059.79
369.9893, 11072.90
370.4714, 11076.83
370.9535, 11073.11
371.4356, 11049.86
371.9177, 11046.98
372.3998, 11071.32
372.8820, 11113.21
373.3641, 11153.63
373.8462, 11196.63
374.3283, 11227.35
374.8104, 11235.71
375.2925, 11219.23
375.7747, 11211.85
376.2568, 11217.06
376.7389, 11224.35
377.2210, 11214.00
377.7031, 11183.80
378.1852, 11168.88
378.6674, 11184.88
379.1495, 11224.44
379.6316, 11260.49
380.1137, 11293.54
380.5958, 11315.89
381.0779, 11311.68
381.5601, 11287.15
382.0422, 11274.33
382.5243, 11283.72
383.0064, 11303.62
383.4885, 11317.74
383.9706, 11326.05
384.4528, 11327.38
384.9349, 11315.06
385.4170, 11296.75
385.8991, 11284.94
386.3812, 11282.01
386.8633, 11283.69
387.3455, 11287.04
387.8276, 11291.94
388.3097, 11298.20
388.7918, 11303.19
389.2739, 11311.10
389.7560, 11327.56
390.2382, 11353.88
390.7203, 11377.86
391.2024, 11389.50
391.6845, 11396.29
392.1666, 11407.01
392.6487, 11433.92
393.1309, 11456.47
393.6130, 11458.27
394.0951, 11442.36
394.5772, 11443.88
395.0593, 11490.05
395.5414, 11544.90
396.0236, 11585.50
396.5057, 11586.39
396.9878, 11599.57
397.4699, 11639.19
397.9520, 11695.75
398.4341, 11738.75
398.9163, 11755.87
399.3984, 11772.13
399.8805, 11795.81
400.3626, 11827.36
400.8447, 11866.13
401.3268, 11919.24
401.8090, 11974.24
402.2911, 12012.20
402.7732, 12024.24
403.2553, 12041.32
403.7374, 12071.39
404.2195, 12114.05
404.7017, 12166.33
405.1838, 12234.39
405.6659, 12295.84
406.1480, 12326.40
406.6301, 12325.77
407.1122, 12325.56
407.5944, 12330.34
408.0765, 12339.97
408.5586, 12354.38
409.0407, 12373.60
409.5228, 12396.32
410.0049, 12430.23
410.4871, 12466.98
410.9692, 12479.42
411.4513, 12460.46
411.9334, 12434.81
412.4155, 12434.20
412.8976, 12450.38
413.3798, 12459.53
413.8619, 12440.28
414.3440, 12414.76
414.8261, 12408.63
415.3082, 12422.34
415.7903, 12435.52
416.2725, 12426.85
416.7546, 12413.29
417.2367, 12414.10
417.7188, 12444.69
418.2009, 12480.58
418.6830, 12513.39
419.1652, 12543.11
419.6473, 12568.46
420.1294, 12585.57
420.6115, 12601.01
421.0937, 12618.57
421.5758, 12638.94
422.0579, 12660.26
422.5400, 12682.63
423.0221, 12705.76
423.5042, 12729.64
423.9864, 12749.11
424.4685, 12774.90
424.9506, 12813.34
425.4327, 12865.73
425.9148, 12906.76
426.3969, 12930.67
426.8791, 12949.78
427.3612, 12970.49
427.8433, 12985.05
428.3254, 13029.80
428.8075, 13127.58
429.2896, 13252.06
429.7718, 13300.08
430.2539, 13257.12
430.7360, 13215.83
431.2181, 13236.85
431.7002, 13315.57
432.1823, 13386.55
432.6645, 13447.38
433.1466, 13497.96
433.6287, 13535.92
434.1108, 13562.35
434.5929, 13582.27
435.0750, 13591.62
435.5572, 13598.14
436.0393, 13618.57
436.5214, 13652.19
437.0035, 13683.69
437.4856, 13700.01
437.9677, 13706.85
438.4499, 13711.40
438.9320, 13713.46
439.4141, 13717.11
439.8962, 13724.82
440.3783, 13736.31
440.8604, 13751.06
441.3426, 13784.91
441.8247, 13809.60
442.3068, 13802.53
442.7889, 13752.08
443.2710, 13714.24
443.7531, 13707.55
444.2353, 13719.72
444.7174, 13737.03
445.1995, 13774.16
445.6816, 13797.99
446.1637, 13795.72
446.6458, 13770.59
447.1280, 13755.92
447.6101, 13745.40
448.0922, 13752.40
448.5743, 13790.68
449.0564, 13886.97
449.5385, 13939.80
450.0207, 13928.04
450.5028, 13888.56
450.9849, 13898.71
451.4670, 13971.28
451.9491, 14027.09
452.4312, 14021.00
452.9134, 13965.85
453.3955, 13969.69
453.8776, 14038.65
454.3597, 14122.07
454.8418, 14173.16
455.3239, 14196.94
455.8061, 14210.21
456.2882, 14211.47
456.7703, 14212.57
457.2524, 14234.44
457.7345, 14272.35
458.2166, 14307.56
458.6988, 14325.22
459.1809, 14335.91
459.6630, 14352.59
460.1451, 14378.31
460.6272, 14398.43
461.1093, 14399.84
461.5915, 14391.43
462.0736, 14384.14
462.5557, 14357.52
463.0378, 14356.19
463.5199, 14420.98
464.0020, 14539.04
464.4842, 14616.76
464.9663, 14589.66
465.4484, 14549.84
465.9305, 14546.60
466.4126, 14607.57
466.8947, 14660.33
467.3769, 14707.14
467.8590, 14744.66
468.3411, 14766.21
468.8232, 14763.46
469.3053, 14760.76
469.7874, 14763.30
470.2696, 14771.14
470.7517, 14786.67
471.2338, 14811.71
471.7159, 14838.69
472.1980, 14858.03
472.6801, 14870.21
473.1623, 14897.39
473.6444, 14951.38
474.1265, 15005.01
474.6086, 15001.14
475.0907, 14948.22
475.5728, 14900.80
476.0550, 14893.72
476.5371, 14908.42
477.0192, 14916.52
477.5013, 14917.06
477.9834, 14914.29
478.4655, 14907.18
478.9477, 14900.06
479.4298, 14898.18
479.9119, 14898.12
480.3940, 14909.88
480.8761, 14951.76
481.3582, 15011.40
481.8404, 15052.70
482.3225, 15047.99
482.8046, 15035.34
483.2867, 15028.17
483.7688, 15022.75
484.2509, 15039.91
484.7331, 15110.05
485.2152, 15188.66
485.6973, 15232.90
486.1794, 15208.59
486.6615, 15209.39
487.1436, 15256.72
487.6258, 15339.56
488.1079, 15406.97
488.5900, 15456.90
489.0721, 15495.79
489.5542, 15517.92
490.0363, 15522.98
490.5185, 15562.63
491.0006, 15644.68
491.4827, 15738.66
491.9648, 15804.45
492.4470, 15846.06
492.9291, 15883.00
493.4112, 15915.70
493.8933, 15951.83
494.3754, 16006.71
494.8575, 16077.90
495.3397, 16146.67
495.8218, 16197.95
496.3039, 16242.79
496.7860, 16294.60
497.2681, 16359.62
497.7502, 16417.94
498.2324, 16456.50
498.7145, 16483.09
499.1966, 16508.99
499.6787, 16526.48
500.1608, 16554.58
500.6429, 16610.96
501.1251, 16692.29
501.6072, 16745.75
502.0893, 16748.56
502.5714, 16740.42
503.0535, 16738.55
503.5356, 16742.13
504.0178, 16754.66
504.4999, 16780.14
504.9820, 16810.86
505.4641, 16838.48
505.9462, 16865.28
506.4283, 16876.10
506.9105, 16861.37
507.3926, 16828.39
507.8747, 16807.49
508.3568, 16799.25
508.8389, 16790.83
509.3210, 16751.10
509.8032, 16703.64
510.2853, 16727.26
510.7674, 16847.26
511.2495, 16971.82
511.7316, 17001.90
512.2137, 16967.20
512.6959, 16928.07
513.1780, 16899.17
513.6601, 16882.92
514.1422, 16890.81
514.6243, 16917.95
515.1064, 16931.58
515.5886, 16889.76
516.0707, 16850.85
516.5528, 16854.33
517.0349, 16932.97
517.5170, 16995.74
517.9991, 17031.24
518.4813, 17046.98
518.9634, 17049.57
519.4455, 17025.61
519.9276, 17011.54
520.4097, 17015.53
520.8918, 17035.69
521.3740, 17060.32
521.8561, 17089.15
522.3382, 17123.43
522.8203, 17170.94
523.3024, 17229.48
523.7845, 17261.83
524.2667, 17259.85
524.7488, 17255.66
525.2309, 17295.41
525.7130, 17367.95
526.1951, 17433.13
526.6772, 17470.67
527.1594, 17501.05
527.6415, 17550.31
528.1236, 17614.01
528.6057, 17673.76
529.0878, 17719.19
529.5699, 17756.00
530.0521, 17785.75
530.5342, 17806.71
531.0163, 17830.80
531.4984, 17870.30
531.9805, 17911.47
532.4626, 17939.87
532.9448, 17926.54
533.4269, 17933.24
533.9090, 17975.85
534.3911, 18044.47
534.8732, 18100.13
535.3553, 18144.27
535.8375, 18173.41
536.3196, 18179.58
536.8017, 18160.87
537.2838, 18167.98
537.7659, 18210.07
538.2480, 18247.91
538.7302, 18228.02
539.2123, 18159.81
539.6944, 18110.10
540.1765, 18096.29
540.6586, 18101.84
541.1407, 18112.82
541.6229, 18125.29
542.1050, 18125.50
542.5871, 18096.18
543.0692, 18057.74
543.5513, 18021.16
544.0334, 17987.73
544.5156, 17977.56
544.9977, 18034.66
545.4798, 18099.02
545.9619, 18120.27
546.4440, 18038.89
546.9261, 17988.74
547.4083, 18010.15
547.8904, 18069.98
548.3725, 18108.18
548.8546, 18114.33
549.3367, 18115.66
549.8188, 18113.58
550.3010, 18110.00
550.7831, 18131.01
551.2652, 18182.96
551.7473, 18238.56
552.2294, 18278.52
552.7115, 18304.14
553.1937, 18322.68
553.6758, 18331.55
554.1579, 18346.52
554.6400, 18396.45
555.1221, 18469.52
555.6042, 18530.77
556.0864, 18563.37
556.5685, 18584.11
557.0506, 18605.32
557.5327, 18627.25
558.0148, 18650.50
558.4969, 18688.71
558.9791, 18718.36
559.4612, 18714.30
559.9433, 18660.89
560.4254, 18642.84
560.9075, 18710.63
561.3896, 18800.81
561.8718, 18857.27
562.3539, 18853.85
562.8360, 18862.47
563.3181, 18898.16
563.8002, 18944.28
564.2823, 18957.38
564.7645, 18930.27
565.2466, 18902.53
565.7287, 18895.29
566.2108, 18900.76
566.6929, 18871.43
567.1750, 18805.71
567.6572, 18746.82
568.1393, 18735.78
568.6214, 18757.57
569.1035, 18786.90
569.5856, 18823.85
570.0677, 18852.30
570.5499, 18850.61
571.0320, 18833.59
571.5141, 18824.72
571.9962, 18830.70
572.4783, 18848.31
572.9604, 18887.85
573.4426, 18942.15
573.9247, 18975.96
574.4068, 18970.02
574.8889, 18954.10
575.3710, 18935.11
575.8531, 18908.67
576.3353, 18904.90
576.8174, 18932.79
577.2995, 18970.09
577.7816, 18992.83
578.2637, 18998.21
578.7458, 19021.97
579.2280, 19076.93
579.7101, 19138.45
580.1922, 19159.32
580.6743, 19145.10
581.1564, 19127.23
581.6385, 19108.34
582.1207, 19100.38
582.6028, 19122.64
583.0849, 19172.77
583.5670, 19233.55
584.0491, 19323.74
584.5313, 19401.97
585.0134, 19425.83
585.4955, 19363.91
585.9776, 19330.13
586.4597, 19386.62
586.9418, 19472.26
587.4240, 19516.21
587.9061, 19480.29
588.3882, 19459.47
588.8703, 19466.21
589.3524, 19493.86
589.8345, 19524.43
590.3167, 19558.73
590.7988, 19592.94
591.2809, 19623.28
591.7630, 19651.58
592.2451, 19683.65
592.7272, 19719.20
593.2094, 19765.98
593.6915, 19851.17
594.1736, 19948.02
594.6557, 20001.03
595.1378, 19993.20
595.6199, 19971.60
596.1021, 19954.53
596.5842, 19950.18
597.0663, 19970.36
597.5485, 20040.63
598.0306, 20112.94
598.5127, 20174.55
598.9948, 20226.18
599.4769, 20272.39
599.9590, 20310.90
600.4412, 20348.32
600.9233, 20388.00
601.4054, 20430.94
601.8875, 20460.68
602.3696, 20470.69
602.8517, 20483.13
603.3339, 20519.10
603.8160, 20576.94
604.2981, 20633.09
604.7802, 20685.55
605.2623, 20731.96
605.7444, 20765.40
606.2266, 20789.76
606.7087, 20813.71
607.1908, 20836.94
607.6729, 20865.29
608.1550, 20912.70
608.6371, 20970.81
609.1193, 21014.11
609.6014, 21011.91
610.0835, 21009.71
610.5656, 21029.17
611.0477, 21073.81
611.5298, 21124.46
612.0120, 21192.14
612.4941, 21253.39
612.9762, 21289.33
613.4583, 21290.22
613.9404, 21301.04
614.4225, 21325.44
614.9047, 21356.70
615.3868, 21386.34
615.8689, 21414.69
616.3510, 21442.31
616.8331, 21468.06
617.3152, 21494.79
617.7974, 21532.57
618.2795, 21576.77
618.7616, 21611.44
619.2437, 21617.13
619.7258, 21617.72
620.2079, 21633.63
620.6901, 21665.68
621.1722, 21692.71
621.6543, 21698.43
622.1364, 21703.07
622.6185, 21720.18
623.1006, 21756.47
623.5828, 21792.48
624.0649, 21830.51
624.5470, 21866.15
625.0291, 21892.12
625.5112, 21905.58
625.9933, 21924.59
626.4755, 21952.26
626.9576, 21987.05
627.4397, 22033.04
627.9218, 22087.20
628.4039, 22126.42
628.8860, 22127.12
629.3682, 22112.77
629.8503, 22116.00
630.3324, 22134.78
630.8145, 22152.63
631.2966, 22146.12
631.7787, 22144.73
632.2609, 22175.54
632.7430, 22254.52
633.2251, 22315.90
633.7072, 22330.44
634.1893, 22331.80
634.6714, 22348.29
635.1536, 22388.88
635.6357, 22424.42
636.1178, 22449.80
636.5999, 22471.96
637.0820, 22503.64
637.5641, 22545.00
638.0463, 22588.99
