##NAMES=Leucophoenicite
##RRUFFID=R060308
##IDEAL CHEMISTRY=Mn^2+^_7_(SiO_4_)_3_(OH)_2_
##LOCALITY=Parker Shaft, Franklin, Sussex County, New Jersey, USA
##OWNER=RRUFF
##SOURCE=Michael Scott
##DESCRIPTION=Pink-tan colored massive, associated with white willemite and pinkish ribbeite (R150125). X-ray shows sample is twinned 180 deg around a.
##STATUS=The identification of this mineral has been confirmed by single-crystal X-ray diffraction.
##URL=rruff.info/R060308
90.49219, 37.38512
90.97430, 36.97865
91.45642, 36.83534
91.93854, 37.31126
92.42065, 37.94560
92.90277, 38.00753
93.38489, 37.38550
93.86700, 36.50092
94.34912, 35.72895
94.83124, 35.08447
95.31335, 34.68024
95.79547, 34.77288
96.27759, 35.21736
96.75970, 35.38679
97.24182, 35.11852
97.72394, 34.62974
98.20605, 34.45278
98.68817, 34.63286
99.17029, 34.74967
99.65240, 34.34620
100.1345, 33.36787
100.6166, 32.66588
101.0988, 32.43351
101.5809, 32.63028
102.0630, 32.93797
102.5451, 33.43108
103.0272, 33.90759
103.5093, 34.16512
103.9915, 34.19899
104.4736, 34.00284
104.9557, 33.42395
105.4378, 32.27275
105.9199, 31.86663
106.4020, 32.68789
106.8842, 34.01571
107.3663, 34.58541
107.8484, 33.84569
108.3305, 32.97863
108.8126, 32.38779
109.2947, 32.27535
109.7769, 32.10300
110.2590, 31.80527
110.7411, 31.43509
111.2232, 31.16506
111.7053, 31.12612
112.1874, 31.09753
112.6696, 30.98072
113.1517, 30.52536
113.6338, 30.24070
114.1159, 30.23802
114.5980, 30.48998
115.0801, 30.80246
115.5623, 31.51696
116.0444, 32.08759
116.5265, 32.09273
117.0086, 30.44434
117.4907, 29.06823
117.9728, 28.99054
118.4550, 30.28118
118.9371, 31.23616
119.4192, 30.84541
119.9013, 29.73800
120.3834, 28.72048
120.8655, 27.88932
121.3477, 27.41018
121.8298, 27.56597
122.3119, 28.49603
122.7940, 29.38052
123.2761, 29.54607
123.7582, 29.22210
124.2404, 28.91953
124.7225, 29.02456
125.2046, 29.26305
125.6867, 29.22358
126.1688, 28.71135
126.6509, 28.24359
127.1331, 28.44559
127.6152, 29.22632
128.0973, 30.13311
128.5794, 31.13399
129.0615, 32.03904
129.5436, 32.32896
130.0258, 31.67217
130.5079, 30.58797
130.9900, 29.89877
131.4721, 29.61031
131.9542, 29.64536
132.4363, 29.94024
132.9185, 30.50090
133.4006, 31.36625
133.8827, 32.54968
134.3648, 34.03804
134.8469, 36.02797
135.3290, 38.63493
135.8112, 41.24635
136.2933, 42.85373
136.7754, 43.36229
137.2575, 44.47543
137.7396, 47.06187
138.2217, 51.02319
138.7039, 54.17971
139.1860, 56.16900
139.6681, 57.93268
140.1502, 61.16838
140.6323, 66.32116
141.1144, 71.35886
141.5966, 75.56931
142.0787, 78.87237
142.5608, 81.52395
143.0429, 83.29790
143.5250, 84.54517
144.0071, 86.04348
144.4893, 87.86624
144.9714, 89.80050
145.4535, 91.66344
145.9356, 93.08720
146.4177, 95.25762
146.8998, 98.59935
147.3820, 102.7559
147.8641, 106.3756
148.3462, 108.9758
148.8283, 111.4479
149.3104, 114.2647
149.7925, 116.9498
150.2747, 120.6048
150.7568, 125.8785
151.2389, 132.5701
151.7210, 138.2012
152.2031, 142.4614
152.6852, 145.8055
153.1674, 148.5585
153.6495, 149.9248
154.1316, 151.5110
154.6137, 153.9207
155.0958, 157.1871
155.5779, 159.4454
156.0601, 159.7491
156.5422, 159.2854
157.0243, 159.0631
157.5064, 159.4103
157.9885, 159.8776
158.4706, 160.4254
158.9528, 161.0820
159.4349, 161.5160
159.9170, 160.9858
160.3991, 160.3817
160.8812, 160.7331
161.3633, 162.6845
161.8455, 165.3747
162.3276, 168.5394
162.8097, 172.1628
163.2918, 175.9907
163.7739, 179.7590
164.2560, 183.4608
164.7382, 186.2327
165.2203, 189.2269
165.7024, 192.5921
166.1845, 196.3328
166.6666, 200.7043
167.1487, 204.6519
167.6309, 206.9769
168.1130, 208.4882
168.5951, 210.8535
169.0772, 215.6628
169.5593, 221.2318
170.0414, 226.2184
170.5236, 230.4857
171.0057, 233.9841
171.4878, 236.3652
171.9699, 237.9256
172.4520, 239.5089
172.9341, 242.4362
173.4163, 245.3749
173.8984, 246.6559
174.3805, 245.4785
174.8626, 243.3142
175.3447, 241.2357
175.8268, 239.2600
176.3090, 237.4808
176.7911, 235.6992
177.2732, 234.2026
177.7553, 233.5854
178.2374, 234.4998
178.7195, 235.7761
179.2017, 235.6583
179.6838, 234.2937
180.1659, 233.1006
180.6480, 233.4732
181.1301, 234.8435
181.6122, 235.8623
182.0944, 235.8961
182.5765, 235.5536
183.0586, 236.0295
183.5407, 237.3044
184.0228, 238.5321
184.5049, 238.9435
184.9871, 238.6691
185.4692, 238.1493
185.9513, 237.4853
186.4334, 236.6834
186.9155, 235.9660
187.3976, 235.4010
187.8798, 234.1933
188.3619, 231.0361
188.8440, 226.2248
189.3261, 221.8738
189.8082, 218.9667
190.2903, 217.0346
190.7725, 214.3614
191.2546, 210.8604
191.7367, 206.8954
192.2188, 202.4758
192.7009, 197.6187
193.1830, 193.4483
193.6652, 190.4842
194.1473, 188.5722
194.6294, 187.0864
195.1115, 186.1374
195.5936, 185.2446
196.0757, 183.5018
196.5579, 180.8586
197.0400, 178.8015
197.5221, 178.1283
198.0042, 178.7398
198.4863, 179.1814
198.9684, 179.4809
199.4506, 179.5454
199.9327, 179.0341
200.4148, 177.8420
200.8969, 177.0023
201.3790, 177.1248
201.8611, 178.2559
202.3433, 178.8394
202.8254, 178.6508
203.3075, 178.2677
203.7896, 178.6925
204.2717, 180.0202
204.7538, 181.6432
205.2360, 183.4093
205.7181, 185.3606
206.2002, 187.0029
206.6823, 188.2129
207.1644, 189.2601
207.6465, 190.6313
208.1287, 192.3350
208.6108, 194.2816
209.0929, 196.4770
209.5750, 198.9823
210.0571, 201.4913
210.5392, 204.0757
211.0214, 206.6278
211.5035, 208.8276
211.9856, 210.4458
212.4677, 212.2961
212.9498, 214.8660
213.4319, 218.3820
213.9140, 221.5749
214.3962, 224.4263
214.8783, 226.9644
215.3604, 229.0965
215.8425, 230.5623
216.3246, 232.2392
216.8067, 234.5831
217.2889, 237.7277
217.7710, 240.9673
218.2531, 244.2418
218.7352, 247.6159
219.2173, 251.2718
219.6994, 255.0778
220.1816, 259.4433
220.6637, 264.6880
221.1458, 271.0998
221.6279, 277.6353
222.1100, 284.4380
222.5921, 291.3205
223.0743, 297.8477
223.5564, 303.3825
224.0385, 309.6305
224.5206, 317.3967
225.0027, 327.5184
225.4848, 337.1801
225.9670, 346.1375
226.4491, 354.5950
226.9312, 363.3383
227.4133, 372.7447
227.8954, 381.7455
228.3775, 389.8573
228.8597, 397.8376
229.3418, 403.2956
229.8239, 405.5551
230.3060, 405.4480
230.7881, 405.3698
231.2702, 406.2801
231.7524, 405.7164
232.2345, 402.4051
232.7166, 395.0612
233.1987, 387.8333
233.6808, 380.8826
234.1629, 374.0600
234.6451, 366.7542
235.1272, 358.5924
235.6093, 350.6038
236.0914, 343.2736
236.5735, 336.8904
237.0556, 330.4815
237.5378, 323.6872
238.0199, 316.9816
238.5020, 311.6514
238.9841, 308.2388
239.4662, 305.3167
239.9483, 302.2569
240.4305, 298.8836
240.9126, 295.8384
241.3947, 293.0774
241.8768, 290.6486
242.3589, 288.7609
242.8410, 287.8675
243.3232, 286.8086
243.8053, 284.9601
244.2874, 281.5407
244.7695, 279.2431
245.2516, 278.4139
245.7337, 278.5498
246.2159, 278.5445
246.6980, 278.3005
247.1801, 278.0747
247.6622, 278.0081
248.1443, 278.2655
248.6264, 278.2036
249.1086, 277.6657
249.5907, 276.8898
250.0728, 276.4295
250.5549, 276.6615
251.0370, 276.5716
251.5191, 275.6909
252.0013, 273.7339
252.4834, 271.9178
252.9655, 270.1315
253.4476, 268.5600
253.9297, 267.6810
254.4118, 268.0191
254.8940, 268.0777
255.3761, 267.2624
255.8582, 265.3285
256.3403, 263.4974
256.8224, 261.9129
257.3046, 260.3235
257.7867, 258.2816
258.2688, 255.4947
258.7509, 252.8618
259.2330, 250.8870
259.7151, 249.8367
260.1973, 247.7683
260.6794, 244.4288
261.1615, 240.3716
261.6436, 236.4374
262.1257, 232.5959
262.6078, 228.8677
263.0900, 225.2415
263.5721, 221.6501
264.0542, 218.5785
264.5363, 216.2662
265.0184, 214.1461
265.5005, 211.2993
265.9827, 207.4192
266.4648, 203.7673
266.9469, 200.7547
267.4290, 198.4033
267.9111, 196.0275
268.3932, 193.5097
268.8754, 191.1754
269.3575, 189.5662
269.8396, 188.9797
270.3217, 187.9270
270.8038, 185.7796
271.2859, 182.6236
271.7681, 180.5558
272.2502, 179.7760
272.7323, 179.6693
273.2144, 179.8592
273.6965, 180.5244
274.1786, 180.4469
274.6608, 178.9124
275.1429, 176.3058
275.6250, 175.6344
276.1071, 177.3932
276.5892, 179.6647
277.0714, 180.5791
277.5535, 179.9767
278.0356, 179.5521
278.5177, 179.5921
278.9998, 180.0537
279.4819, 180.9290
279.9641, 182.3813
280.4462, 183.6103
280.9283, 183.8678
281.4104, 183.1231
281.8925, 182.3767
282.3746, 181.7715
282.8568, 181.2689
283.3389, 180.7673
283.8210, 180.2659
284.3031, 179.7627
284.7852, 179.1764
285.2673, 178.5274
285.7495, 178.2254
286.2316, 178.5050
286.7137, 178.8828
287.1958, 178.0854
287.6779, 176.0658
288.1600, 174.2602
288.6422, 173.7871
289.1243, 174.4394
289.6064, 174.8370
290.0885, 174.9532
290.5706, 174.5864
291.0527, 173.0554
291.5349, 170.4532
292.0170, 168.1145
292.4991, 166.9057
292.9812, 166.5801
293.4633, 166.3128
293.9454, 166.0585
294.4276, 165.8672
294.9097, 165.8355
295.3918, 165.9404
295.8739, 166.0627
296.3560, 166.0916
296.8381, 166.1003
297.3203, 166.2835
297.8024, 166.6542
298.2845, 167.0862
298.7666, 167.6070
299.2487, 168.1073
299.7308, 168.2612
300.2130, 167.3055
300.6951, 166.1566
301.1772, 166.5446
301.6593, 168.4609
302.1414, 170.6037
302.6235, 171.9795
303.1057, 172.7467
303.5878, 173.1574
304.0699, 172.9377
304.5520, 172.7024
305.0341, 173.4469
305.5162, 175.0329
305.9984, 176.3094
306.4805, 175.8887
306.9626, 174.7803
307.4447, 174.4178
307.9268, 175.4158
308.4089, 176.9659
308.8911, 178.5487
309.3732, 180.1351
309.8553, 181.6094
310.3374, 183.0406
310.8195, 184.2649
311.3016, 185.0276
311.7838, 185.0531
312.2659, 185.0901
312.7480, 185.8649
313.2301, 187.0473
313.7122, 187.8322
314.1943, 187.4986
314.6765, 186.8641
315.1586, 186.5638
315.6407, 186.8296
316.1228, 186.9356
316.6049, 186.3301
317.0870, 185.3624
317.5692, 184.6157
318.0513, 184.8665
318.5334, 184.9146
319.0155, 184.0479
319.4976, 182.0697
319.9797, 180.1251
320.4619, 178.6982
320.9440, 177.4519
321.4261, 176.0285
321.9082, 174.1311
322.3903, 172.2309
322.8724, 170.5058
323.3546, 168.9665
323.8367, 167.3460
324.3188, 165.4994
324.8009, 163.6017
325.2830, 161.8085
325.7651, 160.3077
326.2473, 158.7143
326.7294, 156.8330
327.2115, 154.7350
327.6936, 152.9615
328.1757, 152.0959
328.6578, 151.1797
329.1400, 149.7206
329.6221, 146.8687
330.1042, 144.6561
330.5863, 143.4975
331.0684, 142.9903
331.5505, 141.9543
332.0327, 139.8512
332.5148, 137.8393
332.9969, 136.4090
333.4790, 135.8972
333.9611, 135.1122
334.4432, 134.0195
334.9254, 132.6660
335.4075, 131.1113
335.8896, 129.1976
336.3717, 127.3769
336.8538, 125.8213
337.3359, 124.5409
337.8180, 123.2540
338.3001, 121.8855
338.7823, 120.6292
339.2644, 119.7897
339.7465, 119.4712
340.2286, 119.0840
340.7107, 118.4579
341.1928, 117.6340
341.6750, 116.9388
342.1571, 116.3454
342.6392, 115.9352
343.1213, 115.9601
343.6034, 116.4329
344.0855, 116.3294
344.5677, 115.2812
345.0498, 113.7659
345.5319, 113.0145
346.0140, 113.0476
346.4961, 113.2625
346.9782, 113.2140
347.4604, 112.9952
347.9425, 113.1265
348.4246, 113.7453
348.9067, 114.4626
349.3888, 114.7458
349.8709, 114.6353
350.3531, 114.3474
350.8352, 113.4925
351.3173, 112.6443
351.7994, 113.2156
352.2815, 115.3598
352.7636, 117.6125
353.2458, 118.4140
353.7279, 118.2703
354.2100, 118.2759
354.6921, 118.9841
355.1742, 119.9434
355.6563, 120.7873
356.1385, 121.4998
356.6206, 121.9710
357.1027, 121.6641
357.5848, 121.2408
358.0669, 121.5400
358.5490, 123.2315
359.0312, 125.0196
359.5133, 126.0689
359.9954, 126.5458
360.4775, 126.9879
360.9596, 127.7454
361.4417, 128.4937
361.9239, 128.9742
362.4060, 129.0273
362.8881, 129.1632
363.3702, 129.3185
363.8523, 129.7234
364.3344, 130.7308
364.8166, 133.2670
365.2987, 135.7001
365.7808, 137.1938
366.2629, 137.5746
366.7450, 138.3580
367.2271, 140.0999
367.7093, 142.1912
368.1914, 144.0966
368.6735, 145.5298
369.1556, 147.0569
369.6377, 148.7136
370.1198, 150.5090
370.6020, 152.4242
371.0841, 154.4457
371.5662, 156.6092
372.0483, 158.8882
372.5304, 161.1241
373.0125, 163.8525
373.4947, 167.3937
373.9768, 171.2953
374.4589, 174.4443
374.9410, 176.3874
375.4231, 178.5300
375.9052, 181.5846
376.3874, 185.7631
376.8695, 189.1536
377.3516, 191.4739
377.8337, 193.5400
378.3158, 196.4500
378.7979, 200.2889
379.2801, 204.4511
379.7622, 208.8740
380.2443, 213.4891
380.7264, 218.2891
381.2085, 223.2981
381.6906, 228.1465
382.1728, 232.4452
382.6549, 236.2930
383.1370, 240.0259
383.6191, 243.6827
384.1012, 247.3492
384.5833, 251.3911
385.0655, 255.7393
385.5476, 259.8349
386.0297, 263.3780
386.5118, 266.5034
386.9939, 269.6292
387.4760, 272.8284
387.9582, 275.6090
388.4403, 277.0522
388.9224, 277.7713
389.4045, 279.0254
389.8866, 282.3840
390.3687, 285.7931
390.8509, 287.2202
391.3330, 286.8016
391.8151, 286.2455
392.2972, 286.7352
392.7793, 287.4901
393.2614, 287.6999
393.7436, 286.4879
394.2257, 285.6498
394.7078, 286.0783
395.1899, 287.4761
395.6720, 289.0619
396.1541, 291.4031
396.6363, 293.2326
397.1184, 293.8224
397.6005, 292.7112
398.0826, 291.5935
398.5647, 290.6297
399.0468, 289.8271
399.5290, 289.1947
400.0111, 289.6182
400.4932, 289.2433
400.9753, 287.4178
401.4574, 284.1391
401.9395, 281.4979
402.4217, 280.0771
402.9038, 278.6518
403.3859, 276.3869
403.8680, 272.9946
404.3501, 269.3904
404.8322, 265.5399
405.3144, 261.5714
405.7965, 258.0846
406.2786, 255.3319
406.7607, 252.1542
407.2428, 247.6644
407.7249, 241.7691
408.2071, 237.3792
408.6892, 234.8439
409.1713, 232.7060
409.6534, 228.8560
410.1355, 223.4138
410.6176, 218.5215
411.0998, 214.9461
411.5819, 212.1973
412.0640, 209.1178
412.5461, 205.7452
413.0282, 202.3424
413.5103, 199.1523
413.9925, 196.1186
414.4746, 193.0541
414.9567, 189.8700
415.4388, 186.8068
415.9209, 184.0371
416.4030, 181.5596
416.8852, 179.2922
417.3673, 177.4972
417.8494, 175.7324
418.3315, 173.5382
418.8136, 170.9025
419.2957, 168.2710
419.7779, 165.8700
420.2600, 163.6261
420.7421, 161.5058
421.2242, 159.5399
421.7063, 157.6291
422.1884, 155.5188
422.6706, 153.3728
423.1527, 151.7236
423.6348, 151.5064
424.1169, 151.1869
424.5990, 149.9419
425.0811, 147.0202
425.5633, 144.7835
426.0454, 143.6202
426.5275, 143.0507
427.0096, 142.4870
427.4917, 142.0564
427.9738, 141.4414
428.4560, 140.5551
428.9381, 139.3987
429.4202, 138.1387
429.9023, 136.6630
430.3844, 135.3141
430.8665, 134.4476
431.3487, 134.1787
431.8308, 133.6643
432.3129, 132.7889
432.7950, 131.6880
433.2771, 130.5498
433.7592, 129.3701
434.2414, 128.4730
434.7235, 128.1878
435.2056, 128.3316
435.6877, 128.0900
436.1698, 127.4302
436.6519, 126.7953
437.1341, 126.7154
437.6162, 127.0175
438.0983, 127.2380
438.5804, 127.1963
439.0625, 127.1014
439.5446, 127.3202
440.0268, 127.7307
440.5089, 127.8853
440.9910, 127.2712
441.4731, 126.4356
441.9552, 125.8882
442.4373, 125.7494
442.9195, 125.5911
443.4016, 125.0375
443.8837, 124.3950
444.3658, 124.0361
444.8479, 124.1230
445.3300, 124.4583
445.8122, 125.1703
446.2943, 126.1794
446.7764, 126.8699
447.2585, 126.7051
447.7406, 126.5422
448.2227, 126.8487
448.7049, 128.0605
449.1870, 128.9148
449.6691, 129.4537
450.1512, 129.6088
450.6333, 129.1458
451.1154, 127.5572
451.5976, 126.4678
452.0797, 126.5732
452.5618, 127.7373
453.0439, 127.8879
453.5260, 126.8556
454.0081, 125.3396
454.4903, 123.6876
454.9724, 121.9206
455.4545, 120.6751
455.9366, 120.1887
456.4187, 119.9434
456.9008, 118.9180
457.3830, 117.2187
457.8651, 115.7841
458.3472, 115.2971
458.8293, 115.2744
459.3114, 114.8445
459.7935, 114.0048
460.2757, 112.9709
460.7578, 111.7684
461.2399, 110.5315
461.7220, 109.4709
462.2041, 108.7368
462.6862, 108.0038
463.1684, 106.8620
463.6505, 105.5464
464.1326, 104.6297
464.6147, 105.0069
465.0968, 105.2876
465.5789, 104.5951
466.0611, 102.7054
466.5432, 101.1464
467.0253, 100.2563
467.5074, 99.81309
467.9895, 99.64040
468.4716, 100.3640
468.9538, 100.5220
469.4359, 99.74730
469.9180, 98.35519
470.4001, 97.38267
470.8822, 97.14672
471.3643, 96.77572
471.8465, 95.80378
472.3286, 94.12800
472.8107, 92.99754
473.2928, 92.54721
473.7749, 92.34391
474.2570, 91.88018
474.7392, 91.15992
475.2213, 90.64444
475.7034, 90.47433
476.1855, 90.51641
476.6676, 90.49160
477.1497, 90.41293
477.6319, 90.40523
478.1140, 90.60343
478.5961, 90.90059
479.0782, 91.10528
479.5603, 91.19752
480.0424, 91.29094
480.5246, 91.55270
481.0067, 91.85259
481.4888, 92.00042
481.9709, 91.76636
482.4530, 91.56141
482.9352, 91.60636
483.4173, 91.85291
483.8994, 92.14878
484.3815, 92.61364
484.8636, 92.97661
485.3457, 93.00658
485.8279, 92.49233
486.3100, 92.40011
486.7921, 93.04225
487.2742, 94.01657
487.7563, 95.02299
488.2384, 96.34486
488.7206, 97.18743
489.2027, 97.26694
489.6848, 96.83699
490.1669, 96.84468
490.6490, 97.44446
491.1311, 98.01432
491.6133, 98.21397
492.0954, 98.05260
492.5775, 97.97957
493.0596, 97.99461
493.5417, 98.10559
494.0238, 98.40369
494.5060, 98.83250
494.9881, 99.11492
495.4702, 99.14977
495.9523, 99.05370
496.4344, 99.03371
496.9165, 99.03841
497.3987, 98.87610
497.8808, 98.22576
498.3629, 97.48265
498.8450, 97.14503
499.3271, 97.27251
499.8092, 97.14718
500.2914, 95.79041
500.7735, 94.28431
501.2556, 93.63399
501.7377, 95.08381
502.2198, 96.22091
502.7019, 96.44256
503.1841, 95.97021
503.6662, 95.41622
504.1483, 94.53409
504.6304, 93.88348
505.1125, 93.70069
505.5946, 94.03444
506.0768, 94.18145
506.5589, 94.03733
507.0410, 93.86227
507.5231, 93.89725
508.0052, 94.18845
508.4873, 94.35081
508.9695, 94.25729
509.4516, 94.14745
509.9337, 94.52841
510.4158, 95.37737
510.8979, 96.27065
511.3800, 97.17719
511.8622, 97.95855
512.3443, 98.13162
512.8264, 97.73283
513.3085, 97.48067
513.7906, 98.22541
514.2728, 99.32799
514.7549, 99.86714
515.2370, 99.45891
515.7191, 99.11661
516.2012, 99.72707
516.6833, 100.7599
517.1655, 101.4098
517.6476, 101.2859
518.1297, 100.8683
518.6118, 100.1476
519.0939, 99.17822
519.5760, 98.48292
520.0582, 98.33607
520.5403, 98.30465
521.0224, 98.27480
521.5045, 98.42912
521.9866, 97.96501
522.4688, 96.42917
522.9509, 94.77316
523.4330, 94.35474
523.9151, 95.49097
524.3972, 96.06979
524.8793, 95.47476
525.3615, 94.17848
525.8436, 93.31293
526.3257, 92.87544
526.8078, 92.79122
527.2899, 93.12663
527.7720, 93.76380
528.2542, 94.53640
528.7363, 95.44588
529.2184, 96.15635
529.7005, 96.22734
530.1826, 95.96724
530.6647, 95.75125
531.1469, 95.49954
531.6290, 95.62530
532.1111, 96.51942
532.5932, 97.94685
533.0753, 99.42263
533.5574, 100.9308
534.0396, 102.3544
534.5217, 103.6872
535.0038, 104.9166
535.4859, 105.9895
535.9680, 106.9205
536.4501, 107.6704
536.9323, 108.1583
537.4144, 108.1739
537.8965, 108.5731
538.3786, 109.5241
538.8607, 110.6547
539.3428, 111.3848
539.8250, 111.6997
540.3071, 111.8952
540.7892, 111.9949
541.2713, 112.0774
541.7534, 112.3047
542.2355, 112.6786
542.7177, 113.2106
543.1998, 114.0820
543.6819, 115.0607
544.1640, 115.6834
544.6461, 115.8933
545.1282, 116.2589
545.6104, 117.2506
546.0925, 118.5840
546.5746, 119.9637
547.0567, 121.5730
547.5388, 122.8460
548.0209, 123.2207
548.5031, 123.1283
548.9852, 123.5276
549.4673, 124.9141
549.9494, 126.4413
550.4315, 127.9382
550.9136, 129.4049
551.3958, 130.8012
551.8779, 132.0512
552.3600, 133.3635
552.8421, 134.9574
553.3242, 136.8914
553.8063, 138.4507
554.2885, 139.4587
554.7706, 140.4961
555.2527, 142.3869
555.7348, 145.0384
556.2169, 147.8999
556.6990, 150.8245
557.1812, 153.8069
557.6633, 156.7106
558.1454, 159.6183
558.6275, 162.8553
559.1096, 166.7516
559.5917, 170.9301
560.0739, 174.8884
560.5560, 178.6001
561.0381, 182.8875
561.5202, 188.3731
562.0023, 194.3411
562.4844, 200.2200
562.9666, 205.2423
563.4487, 211.2711
563.9308, 218.5892
564.4129, 226.8456
564.8950, 235.6293
565.3771, 245.2573
565.8593, 254.4622
566.3414, 262.8074
566.8235, 270.4891
567.3056, 278.8253
567.7877, 287.8456
568.2698, 296.9738
568.7520, 306.3577
569.2341, 315.6308
569.7162, 323.9171
570.1983, 331.1475
570.6804, 336.9736
571.1625, 341.3089
571.6447, 343.8784
572.1268, 344.1708
572.6089, 341.8276
573.0910, 337.7433
573.5731, 332.4673
574.0552, 325.8574
574.5374, 317.5388
575.0195, 306.4100
575.5016, 294.6219
575.9837, 282.5683
576.4658, 270.3828
576.9479, 258.6215
577.4301, 247.6062
577.9122, 236.7981
578.3943, 225.6695
578.8764, 213.9691
579.3585, 203.7318
579.8406, 195.1573
580.3228, 187.5917
580.8049, 180.3840
581.2870, 173.5740
581.7691, 167.4454
582.2512, 162.1758
582.7333, 157.4117
583.2155, 152.6397
583.6975, 147.9723
584.1796, 143.5299
584.6617, 139.5026
585.1439, 135.6892
585.6260, 131.7910
