##NAMES=Levyne-Ca
##RRUFFID=R070270
##IDEAL CHEMISTRY=Ca_3_(Si_12_Al_6_)O_36_&#183;18H_2_O
##LOCALITY=Beech Creek Quarry, Mount Vernon, Grant County, Oregon, USA
##OWNER=RRUFF
##SOURCE=Michael Scott
##DESCRIPTION=Clear, colorless hexagonal tabular
##STATUS=The identification of this mineral has been confirmed only by single crystal X-ray diffraction.
##URL=rruff.info/R070270
148.6976, 4102.011
149.1797, 4176.312
149.6618, 4249.930
150.1439, 4311.842
150.6261, 4349.382
151.1082, 4385.874
151.5903, 4426.529
152.0724, 4472.089
152.5545, 4520.308
153.0366, 4572.923
153.5188, 4627.813
154.0009, 4680.585
154.4830, 4743.809
154.9651, 4795.523
155.4472, 4824.974
155.9293, 4811.022
156.4115, 4803.982
156.8936, 4817.401
157.3757, 4846.414
157.8578, 4874.197
158.3399, 4900.177
158.8221, 4920.883
159.3042, 4934.273
159.7863, 4930.572
160.2684, 4928.545
160.7505, 4937.569
161.2326, 4955.880
161.7148, 4969.174
162.1969, 4965.356
162.6790, 4955.966
163.1611, 4952.192
163.6432, 4958.214
164.1253, 4970.310
164.6075, 4990.920
165.0896, 5020.289
165.5717, 5043.111
166.0538, 5042.754
166.5359, 5031.868
167.0180, 5028.546
167.5002, 5048.002
167.9823, 5072.974
168.4644, 5090.587
168.9465, 5099.375
169.4286, 5104.478
169.9107, 5111.321
170.3929, 5117.293
170.8750, 5117.047
171.3571, 5099.961
171.8392, 5078.673
172.3213, 5068.080
172.8034, 5072.499
173.2856, 5079.859
173.7677, 5077.750
174.2498, 5068.777
174.7319, 5061.927
175.2140, 5068.557
175.6961, 5079.402
176.1783, 5079.469
176.6604, 5063.645
177.1425, 5040.614
177.6246, 5020.018
178.1067, 5001.606
178.5888, 4982.345
179.0710, 4958.558
179.5531, 4932.607
180.0352, 4910.160
180.5173, 4893.225
180.9994, 4879.995
181.4815, 4868.466
181.9637, 4858.516
182.4458, 4849.530
182.9279, 4839.859
183.4100, 4830.346
183.8921, 4824.447
184.3742, 4826.429
184.8564, 4831.205
185.3385, 4824.575
185.8206, 4805.599
186.3027, 4785.954
186.7848, 4779.037
187.2669, 4783.221
187.7491, 4786.000
188.2312, 4784.949
188.7133, 4779.232
189.1954, 4762.822
189.6775, 4733.811
190.1596, 4703.086
190.6418, 4683.281
191.1239, 4674.358
191.6060, 4669.871
192.0881, 4671.909
192.5702, 4678.599
193.0524, 4670.307
193.5345, 4643.000
194.0166, 4611.265
194.4987, 4601.203
194.9808, 4614.425
195.4629, 4625.027
195.9451, 4618.098
196.4272, 4593.995
196.9093, 4576.126
197.3914, 4565.920
197.8735, 4560.857
198.3556, 4557.584
198.8378, 4556.722
199.3199, 4553.851
199.8020, 4544.527
200.2841, 4528.012
200.7662, 4518.078
201.2483, 4517.555
201.7305, 4522.175
202.2126, 4521.353
202.6947, 4514.202
203.1768, 4504.917
203.6589, 4495.375
204.1410, 4485.434
204.6232, 4476.719
205.1053, 4469.056
205.5874, 4462.853
206.0695, 4459.830
206.5516, 4460.701
207.0337, 4462.880
207.5159, 4465.302
207.9980, 4468.532
208.4801, 4469.101
208.9622, 4466.335
209.4443, 4460.588
209.9264, 4453.278
210.4086, 4443.867
210.8907, 4433.939
211.3728, 4423.393
211.8549, 4409.677
212.3370, 4404.367
212.8191, 4412.078
213.3013, 4430.664
213.7834, 4442.523
214.2655, 4446.293
214.7476, 4445.519
215.2297, 4442.188
215.7118, 4434.180
216.1940, 4429.780
216.6761, 4432.437
217.1582, 4441.575
217.6403, 4442.948
218.1224, 4432.551
218.6045, 4419.728
219.0867, 4413.944
219.5688, 4418.531
220.0509, 4422.452
220.5330, 4423.572
221.0151, 4421.880
221.4972, 4418.574
221.9794, 4412.651
222.4615, 4406.201
222.9436, 4401.494
223.4257, 4399.385
223.9078, 4397.011
224.3899, 4392.157
224.8721, 4383.902
225.3542, 4385.390
225.8363, 4402.636
226.3184, 4423.933
226.8005, 4435.492
227.2827, 4433.822
227.7648, 4428.555
228.2469, 4419.564
228.7290, 4404.955
229.2111, 4402.785
229.6932, 4421.836
230.1754, 4446.234
230.6575, 4453.846
231.1396, 4433.191
231.6217, 4415.978
232.1038, 4411.762
232.5859, 4423.309
233.0681, 4433.755
233.5502, 4446.172
234.0323, 4455.292
234.5144, 4452.345
234.9965, 4430.037
235.4786, 4407.834
235.9608, 4390.156
236.4429, 4376.152
236.9250, 4371.962
237.4071, 4381.745
237.8892, 4398.827
238.3713, 4413.536
238.8535, 4428.283
239.3356, 4436.445
239.8177, 4433.452
240.2998, 4413.711
240.7819, 4405.008
241.2640, 4412.752
241.7462, 4428.240
242.2283, 4436.559
242.7104, 4435.186
243.1925, 4430.714
243.6746, 4424.138
244.1567, 4413.119
244.6389, 4408.340
245.1210, 4412.249
245.6031, 4420.910
246.0852, 4427.757
246.5673, 4433.309
247.0494, 4436.119
247.5316, 4434.947
248.0137, 4427.864
248.4958, 4422.751
248.9779, 4417.118
249.4600, 4414.923
249.9421, 4425.909
250.4243, 4461.126
250.9064, 4489.879
251.3885, 4499.896
251.8706, 4485.746
252.3527, 4469.104
252.8348, 4443.173
253.3170, 4418.920
253.7991, 4420.613
254.2812, 4462.562
254.7633, 4502.990
255.2454, 4525.760
255.7275, 4526.024
256.2097, 4525.964
256.6918, 4526.769
257.1739, 4526.446
257.6560, 4520.423
258.1381, 4505.480
258.6202, 4491.300
259.1024, 4478.251
259.5845, 4461.442
260.0666, 4469.807
260.5487, 4517.835
261.0308, 4580.001
261.5129, 4608.578
261.9951, 4591.102
262.4772, 4569.127
262.9593, 4558.037
263.4414, 4559.188
263.9235, 4565.074
264.4056, 4577.899
264.8878, 4593.485
265.3699, 4605.160
265.8520, 4612.958
266.3341, 4617.054
266.8162, 4618.084
267.2983, 4616.586
267.7805, 4605.566
268.2626, 4577.090
268.7447, 4548.087
269.2268, 4553.626
269.7089, 4605.094
270.1910, 4650.107
270.6732, 4665.182
271.1553, 4646.243
271.6374, 4636.896
272.1195, 4639.748
272.6016, 4648.363
273.0837, 4652.699
273.5659, 4652.368
274.0480, 4649.827
274.5301, 4643.422
275.0122, 4632.737
275.4943, 4633.809
275.9764, 4650.326
276.4586, 4671.661
276.9407, 4682.025
277.4228, 4680.513
277.9049, 4674.930
278.3870, 4663.889
278.8691, 4648.230
279.3513, 4650.411
279.8334, 4674.883
280.3155, 4705.745
280.7976, 4721.395
281.2798, 4721.189
281.7619, 4717.739
282.2440, 4714.261
282.7261, 4711.060
283.2082, 4711.445
283.6903, 4716.374
284.1725, 4721.373
284.6546, 4719.496
285.1367, 4711.082
285.6188, 4704.524
286.1009, 4702.789
286.5830, 4705.316
287.0652, 4711.161
287.5473, 4721.004
288.0294, 4729.777
288.5115, 4728.332
288.9936, 4718.489
289.4757, 4715.400
289.9579, 4726.925
290.4400, 4748.104
290.9221, 4767.110
291.4042, 4784.106
291.8863, 4796.916
292.3684, 4802.675
292.8506, 4802.094
293.3327, 4797.690
293.8148, 4784.280
294.2969, 4770.926
294.7790, 4780.993
295.2611, 4814.585
295.7433, 4846.097
296.2254, 4847.729
296.7075, 4829.157
297.1896, 4817.687
297.6717, 4823.214
298.1538, 4837.864
298.6360, 4852.085
299.1181, 4865.794
299.6002, 4876.454
300.0823, 4880.224
300.5644, 4879.888
301.0465, 4880.882
301.5287, 4885.500
302.0108, 4890.921
302.4929, 4892.535
302.9750, 4891.296
303.4571, 4892.584
303.9392, 4901.732
304.4214, 4915.081
304.9035, 4928.059
305.3856, 4939.479
305.8677, 4949.952
306.3498, 4961.165
306.8319, 4972.085
307.3141, 4979.258
307.7962, 4970.961
308.2783, 4962.317
308.7604, 4970.743
309.2425, 5007.581
309.7246, 5044.287
310.2068, 5062.662
310.6889, 5066.718
311.1710, 5067.223
311.6531, 5068.499
312.1352, 5068.753
312.6173, 5062.222
313.0995, 5018.746
313.5816, 5050.170
314.0637, 5070.684
314.5458, 5080.874
315.0279, 5049.819
315.5100, 5072.023
315.9922, 5072.885
316.4743, 5072.871
316.9564, 5102.570
317.4385, 5077.515
317.9206, 5106.744
318.4027, 5114.303
318.8849, 5131.781
319.3670, 5127.783
319.8491, 5130.417
320.3312, 5154.534
320.8133, 5166.756
321.2954, 5160.285
321.7776, 5178.394
322.2597, 5152.588
322.7418, 5165.316
323.2239, 5174.871
323.7060, 5177.792
324.1881, 5181.498
324.6703, 5186.097
325.1524, 5191.616
325.6345, 5198.907
326.1166, 5206.611
326.5987, 5213.746
327.0808, 5223.656
327.5630, 5228.982
328.0451, 5226.022
328.5272, 5215.396
329.0093, 5210.869
329.4914, 5217.305
329.9735, 5225.509
330.4557, 5229.027
330.9378, 5221.783
331.4199, 5220.865
331.9020, 5231.338
332.3841, 5249.781
332.8662, 5258.834
333.3484, 5253.719
333.8305, 5246.327
334.3126, 5243.449
334.7947, 5247.311
335.2768, 5249.018
335.7589, 5248.351
336.2411, 5245.162
336.7232, 5237.342
337.2053, 5221.938
337.6874, 5210.713
338.1695, 5211.501
338.6516, 5226.335
339.1338, 5235.778
339.6159, 5239.768
340.0980, 5237.745
340.5801, 5227.422
341.0622, 5207.957
341.5443, 5186.444
342.0265, 5161.252
342.5086, 5134.276
342.9907, 5124.631
343.4728, 5135.635
343.9549, 5151.281
344.4370, 5149.479
344.9192, 5132.239
345.4013, 5118.616
345.8834, 5116.659
346.3655, 5122.860
346.8476, 5130.688
347.3297, 5140.349
347.8119, 5145.473
348.2940, 5133.936
348.7761, 5112.124
349.2582, 5100.665
349.7403, 5113.193
350.2225, 5130.454
350.7046, 5120.300
351.1867, 5086.015
351.6688, 5053.618
352.1509, 5045.754
352.6331, 5050.697
353.1152, 5050.282
353.5973, 5037.803
354.0794, 5024.084
354.5615, 5021.792
355.0436, 5026.854
355.5258, 5026.884
356.0079, 5007.151
356.4900, 4983.800
356.9721, 4971.776
357.4542, 4975.911
357.9363, 4982.773
358.4185, 4985.724
358.9006, 4986.216
359.3827, 4986.766
359.8648, 4992.024
360.3469, 4994.682
360.8290, 4990.336
361.3112, 4977.900
361.7933, 4963.483
362.2754, 4942.802
362.7575, 4923.362
363.2396, 4913.285
363.7217, 4927.301
364.2039, 4938.106
364.6860, 4933.700
365.1681, 4913.717
365.6502, 4906.212
366.1323, 4934.060
366.6144, 4963.418
367.0966, 4970.786
367.5787, 4926.282
368.0608, 4895.504
368.5429, 4886.384
369.0250, 4895.438
369.5071, 4905.152
369.9893, 4916.451
370.4714, 4927.292
370.9535, 4937.520
371.4356, 4950.737
371.9177, 4954.501
372.3998, 4945.919
372.8820, 4929.136
373.3641, 4911.749
373.8462, 4890.756
374.3283, 4877.137
374.8104, 4878.468
375.2925, 4896.764
375.7747, 4905.762
376.2568, 4903.667
376.7389, 4896.002
377.2210, 4889.476
377.7031, 4884.114
378.1852, 4879.284
378.6674, 4872.848
379.1495, 4866.858
379.6316, 4873.543
380.1137, 4894.440
380.5958, 4913.574
381.0779, 4909.395
381.5601, 4887.947
382.0422, 4880.968
382.5243, 4901.521
383.0064, 4932.032
383.4885, 4945.069
383.9706, 4941.753
384.4528, 4929.515
384.9349, 4905.034
385.4170, 4877.004
385.8991, 4859.880
386.3812, 4857.094
386.8633, 4860.670
387.3455, 4867.941
387.8276, 4876.077
388.3097, 4878.649
388.7918, 4862.871
389.2739, 4846.296
389.7560, 4846.114
390.2382, 4865.194
390.7203, 4881.748
391.2024, 4883.881
391.6845, 4877.085
392.1666, 4867.653
392.6487, 4853.309
393.1309, 4840.763
393.6130, 4830.358
394.0951, 4822.679
394.5772, 4824.338
395.0593, 4847.328
395.5414, 4873.666
396.0236, 4891.897
396.5057, 4895.799
396.9878, 4897.093
397.4699, 4892.771
397.9520, 4886.020
398.4341, 4887.058
398.9163, 4905.956
399.3984, 4922.210
399.8805, 4928.226
400.3626, 4921.146
400.8447, 4912.147
401.3268, 4900.786
401.8090, 4887.844
402.2911, 4871.983
402.7732, 4847.560
403.2553, 4836.028
403.7374, 4847.982
404.2195, 4881.511
404.7017, 4900.605
405.1838, 4902.199
405.6659, 4897.661
406.1480, 4898.072
406.6301, 4903.583
407.1122, 4903.257
407.5944, 4892.217
408.0765, 4877.210
408.5586, 4873.688
409.0407, 4881.521
409.5228, 4897.038
410.0049, 4925.037
410.4871, 4958.858
410.9692, 4978.556
411.4513, 4980.221
411.9334, 4975.481
412.4155, 4976.690
412.8976, 4982.244
413.3798, 4987.427
413.8619, 4984.986
414.3440, 4984.083
414.8261, 4997.848
415.3082, 5026.472
415.7903, 5052.342
416.2725, 5065.111
416.7546, 5068.518
417.2367, 5066.698
417.7188, 5054.835
418.2009, 5044.719
418.6830, 5039.729
419.1652, 5040.404
419.6473, 5048.928
420.1294, 5076.851
420.6115, 5104.860
421.0937, 5122.588
421.5758, 5124.912
422.0579, 5124.220
422.5400, 5114.688
423.0221, 5104.605
423.5042, 5107.518
423.9864, 5131.128
424.4685, 5159.562
424.9506, 5192.546
425.4327, 5230.684
425.9148, 5259.536
426.3969, 5275.408
426.8791, 5286.210
427.3612, 5297.305
427.8433, 5306.730
428.3254, 5323.081
428.8075, 5349.977
429.2896, 5383.674
429.7718, 5412.333
430.2539, 5436.611
430.7360, 5453.106
431.2181, 5455.243
431.7002, 5444.436
432.1823, 5440.657
432.6645, 5444.485
433.1466, 5456.777
433.6287, 5480.032
434.1108, 5513.144
434.5929, 5551.298
435.0750, 5593.568
435.5572, 5638.887
436.0393, 5689.199
436.5214, 5743.938
437.0035, 5791.267
437.4856, 5817.082
437.9677, 5830.750
438.4499, 5843.381
438.9320, 5851.452
439.4141, 5869.963
439.8962, 5917.697
440.3783, 5984.817
440.8604, 6047.385
441.3426, 6092.880
441.8247, 6131.470
442.3068, 6167.879
442.7889, 6202.232
443.2710, 6236.368
443.7531, 6264.947
444.2353, 6295.750
444.7174, 6337.888
445.1995, 6405.817
445.6816, 6470.175
446.1637, 6526.607
446.6458, 6575.005
447.1280, 6619.092
447.6101, 6658.847
448.0922, 6694.444
448.5743, 6723.886
449.0564, 6740.971
449.5385, 6769.800
450.0207, 6813.558
450.5028, 6866.786
450.9849, 6922.771
451.4670, 6983.921
451.9491, 7032.664
452.4312, 7056.602
452.9134, 7059.951
453.3955, 7077.419
453.8776, 7110.058
454.3597, 7148.584
454.8418, 7186.892
455.3239, 7224.099
455.8061, 7254.558
456.2882, 7276.006
456.7703, 7292.333
457.2524, 7303.529
457.7345, 7312.563
458.2166, 7332.095
458.6988, 7383.978
459.1809, 7442.988
459.6630, 7480.119
460.1451, 7491.028
460.6272, 7493.161
461.1093, 7493.546
461.5915, 7492.836
462.0736, 7491.825
462.5557, 7479.570
463.0378, 7478.021
463.5199, 7505.183
464.0020, 7555.702
464.4842, 7590.475
464.9663, 7578.120
465.4484, 7564.850
465.9305, 7576.250
466.4126, 7635.239
466.8947, 7680.339
467.3769, 7705.449
467.8590, 7719.250
468.3411, 7735.362
468.8232, 7752.415
469.3053, 7774.545
469.7874, 7803.460
470.2696, 7838.937
470.7517, 7875.463
471.2338, 7910.828
471.7159, 7953.613
472.1980, 8015.118
472.6801, 8095.043
473.1623, 8167.536
473.6444, 8227.939
474.1265, 8282.451
474.6086, 8339.575
475.0907, 8399.528
475.5728, 8463.700
476.0550, 8536.978
476.5371, 8613.794
477.0192, 8683.663
477.5013, 8746.503
477.9834, 8807.204
478.4655, 8872.910
478.9477, 8937.935
479.4298, 8993.673
479.9119, 9032.714
480.3940, 9069.024
480.8761, 9112.842
481.3582, 9159.916
481.8404, 9197.423
482.3225, 9228.387
482.8046, 9242.830
483.2867, 9230.426
483.7688, 9177.451
484.2509, 9142.429
484.7331, 9158.943
485.2152, 9180.776
485.6973, 9163.136
486.1794, 9079.354
486.6615, 9002.832
487.1436, 8953.756
487.6258, 8919.973
488.1079, 8837.888
488.5900, 8693.002
489.0721, 8540.962
489.5542, 8410.209
490.0363, 8300.204
490.5185, 8203.823
491.0006, 8124.872
491.4827, 8048.965
491.9648, 7957.021
492.4470, 7851.668
492.9291, 7748.660
493.4112, 7657.246
493.8933, 7569.971
494.3754, 7474.704
494.8575, 7372.843
495.3397, 7278.924
495.8218, 7207.098
496.3039, 7144.438
496.7860, 7078.330
497.2681, 7005.813
497.7502, 6930.024
498.2324, 6845.407
498.7145, 6760.102
499.1966, 6683.543
499.6787, 6630.548
500.1608, 6575.485
500.6429, 6503.058
501.1251, 6415.486
501.6072, 6350.175
502.0893, 6331.840
502.5714, 6315.792
503.0535, 6279.235
503.5356, 6206.299
504.0178, 6152.349
504.4999, 6126.306
504.9820, 6111.619
505.4641, 6080.851
505.9462, 6030.177
506.4283, 5984.505
506.9105, 5954.591
507.3926, 5934.611
507.8747, 5896.399
508.3568, 5838.458
508.8389, 5787.735
509.3210, 5771.696
509.8032, 5777.657
510.2853, 5768.716
510.7674, 5737.818
511.2495, 5702.494
511.7316, 5683.241
512.2137, 5672.632
512.6959, 5655.906
513.1780, 5612.125
513.6601, 5572.247
514.1422, 5563.085
514.6243, 5579.853
515.1064, 5588.802
515.5886, 5569.237
516.0707, 5542.971
516.5528, 5523.863
517.0349, 5518.760
517.5170, 5509.793
517.9991, 5488.820
518.4813, 5465.671
518.9634, 5453.529
519.4455, 5460.310
519.9276, 5464.493
520.4097, 5461.197
520.8918, 5451.599
521.3740, 5441.089
521.8561, 5427.240
522.3382, 5420.518
522.8203, 5434.822
523.3024, 5467.882
523.7845, 5479.884
524.2667, 5465.484
524.7488, 5442.026
525.2309, 5429.476
525.7130, 5425.350
526.1951, 5420.967
526.6772, 5410.210
527.1594, 5400.591
527.6415, 5403.166
528.1236, 5415.521
528.6057, 5427.155
529.0878, 5433.143
529.5699, 5435.320
530.0521, 5433.251
530.5342, 5424.850
531.0163, 5421.514
531.4984, 5429.962
531.9805, 5443.975
532.4626, 5456.950
532.9448, 5472.570
533.4269, 5481.384
533.9090, 5478.244
534.3911, 5467.083
534.8732, 5463.424
535.3553, 5469.448
535.8375, 5478.947
536.3196, 5489.904
536.8017, 5502.590
537.2838, 5514.736
537.7659, 5527.377
538.2480, 5536.414
538.7302, 5534.660
539.2123, 5523.958
539.6944, 5516.535
540.1765, 5513.881
540.6586, 5517.769
541.1407, 5537.454
541.6229, 5567.581
542.1050, 5589.253
542.5871, 5580.958
543.0692, 5567.126
543.5513, 5570.252
544.0334, 5591.433
544.5156, 5616.665
544.9977, 5646.144
545.4798, 5673.106
545.9619, 5691.359
546.4440, 5690.340
546.9261, 5694.623
547.4083, 5709.952
547.8904, 5732.315
548.3725, 5754.565
548.8546, 5779.112
549.3367, 5799.748
549.8188, 5814.111
550.3010, 5822.744
550.7831, 5832.978
551.2652, 5846.421
551.7473, 5856.102
552.2294, 5850.500
552.7115, 5832.637
553.1937, 5837.339
553.6758, 5871.442
554.1579, 5911.157
554.6400, 5925.911
555.1221, 5922.267
555.6042, 5918.563
556.0864, 5919.296
556.5685, 5924.886
557.0506, 5937.746
557.5327, 5956.344
558.0148, 5974.828
558.4969, 6002.739
558.9791, 6020.326
559.4612, 6012.313
559.9433, 5972.597
560.4254, 5931.696
560.9075, 5881.878
561.3896, 5841.064
561.8718, 5825.376
562.3539, 5860.547
562.8360, 5876.336
563.3181, 5860.669
563.8002, 5825.771
564.2823, 5801.327
564.7645, 5790.269
565.2466, 5777.116
565.7287, 5753.162
566.2108, 5722.003
566.6929, 5704.328
567.1750, 5700.871
567.6572, 5697.428
568.1393, 5679.279
568.6214, 5653.189
569.1035, 5631.719
569.5856, 5615.391
570.0677, 5608.950
570.5499, 5629.009
571.0320, 5658.828
571.5141, 5672.094
571.9962, 5645.207
572.4783, 5613.865
572.9604, 5589.507
573.4426, 5572.188
573.9247, 5560.308
574.4068, 5559.193
574.8889, 5558.625
575.3710, 5555.187
575.8531, 5548.969
576.3353, 5538.709
576.8174, 5520.436
577.2995, 5504.158
577.7816, 5502.053
578.2637, 5516.059
578.7458, 5523.162
579.2280, 5518.903
579.7101, 5508.410
580.1922, 5498.639
580.6743, 5490.004
581.1564, 5484.843
581.6385, 5491.692
582.1207, 5498.643
582.6028, 5484.299
583.0849, 5451.977
583.5670, 5426.614
584.0491, 5424.907
584.5313, 5434.820
585.0134, 5449.627
585.4955, 5472.513
585.9776, 5486.224
586.4597, 5482.322
586.9418, 5468.488
587.4240, 5453.116
587.9061, 5432.791
588.3882, 5416.695
588.8703, 5405.806
589.3524, 5399.773
589.8345, 5398.305
590.3167, 5402.408
590.7988, 5407.315
591.2809, 5411.699
591.7630, 5415.255
592.2451, 5416.060
592.7272, 5414.083
593.2094, 5410.076
593.6915, 5401.125
594.1736, 5391.305
594.6557, 5390.377
595.1378, 5402.396
595.6199, 5412.733
596.1021, 5408.419
596.5842, 5396.016
597.0663, 5384.835
597.5485, 5371.505
598.0306, 5366.902
598.5127, 5383.956
598.9948, 5415.215
599.4769, 5428.260
599.9590, 5406.838
600.4412, 5384.769
600.9233, 5373.777
601.4054, 5374.766
601.8875, 5372.152
602.3696, 5366.422
602.8517, 5355.872
603.3339, 5332.725
603.8160, 5298.991
604.2981, 5289.154
604.7802, 5312.360
605.2623, 5341.570
605.7444, 5334.114
606.2266, 5303.950
606.7087, 5289.249
607.1908, 5316.915
607.6729, 5351.704
608.1550, 5369.176
608.6371, 5371.237
609.1193, 5364.693
609.6014, 5340.003
610.0835, 5317.795
610.5656, 5308.793
611.0477, 5314.996
611.5298, 5324.383
612.0120, 5343.350
612.4941, 5358.447
612.9762, 5358.952
613.4583, 5339.216
613.9404, 5324.566
614.4225, 5314.853
614.9047, 5312.660
615.3868, 5330.159
615.8689, 5364.737
616.3510, 5377.555
616.8331, 5346.894
617.3152, 5302.384
617.7974, 5292.334
618.2795, 5309.200
618.7616, 5322.968
619.2437, 5310.772
619.7258, 5293.927
620.2079, 5288.133
620.6901, 5294.284
621.1722, 5303.413
621.6543, 5323.087
622.1364, 5337.267
622.6185, 5333.469
623.1006, 5297.936
623.5828, 5273.759
624.0649, 5262.344
624.5470, 5260.999
625.0291, 5269.947
625.5112, 5292.933
625.9933, 5304.800
626.4755, 5297.321
626.9576, 5281.187
627.4397, 5279.367
627.9218, 5290.225
628.4039, 5301.273
628.8860, 5307.367
629.3682, 5309.592
629.8503, 5308.267
630.3324, 5303.809
630.8145, 5299.198
631.2966, 5293.654
631.7787, 5290.379
632.2609, 5293.290
632.7430, 5305.801
633.2251, 5312.848
633.7072, 5305.393
634.1893, 5294.996
634.6714, 5291.412
635.1536, 5298.453
635.6357, 5303.997
636.1178, 5307.088
636.5999, 5308.336
637.0820, 5309.971
637.5641, 5312.204
638.0463, 5307.916
638.5284, 5289.323
639.0105, 5267.536
639.4926, 5268.668
639.9747, 5288.962
640.4568, 5306.520
640.9390, 5300.235
641.4211, 5290.362
641.9032, 5301.459
642.3853, 5335.123
642.8674, 5356.047
643.3495, 5342.742
643.8317, 5316.645
644.3138, 5290.835
644.7959, 5257.142
645.2780, 5244.271
645.7601, 5264.357
