##NAMES=Levyne-Ca
##RRUFFID=R080128
##IDEAL CHEMISTRY=Ca_3_(Si_12_Al_6_)O_36_&#183;18H_2_O
##LOCALITY=Dallas, Oregon, USA
##OWNER=RRUFF
##SOURCE=Michael Scott
##DESCRIPTION=Thin clear colorless tabular hexagonal crystals coated by chatoyant erionite or offretite on volcanic matrix
##STATUS=The identification of this mineral has been confirmed only by single crystal X-ray diffraction.
##URL=rruff.info/R080128
147.5358, 2551.721
148.0179, 2617.965
148.5001, 2648.151
148.9822, 2667.467
149.4643, 2697.009
149.9464, 2737.276
150.4285, 2769.495
150.9106, 2775.744
151.3928, 2757.437
151.8749, 2742.632
152.3570, 2741.599
152.8391, 2739.389
153.3212, 2719.578
153.8033, 2680.601
154.2855, 2638.607
154.7676, 2606.637
155.2497, 2582.323
155.7318, 2555.844
156.2139, 2519.065
156.6960, 2482.645
157.1782, 2460.101
157.6603, 2453.356
158.1424, 2451.759
158.6245, 2446.790
159.1066, 2440.723
159.5887, 2439.840
160.0709, 2450.710
160.5530, 2465.815
161.0351, 2473.545
161.5172, 2472.021
161.9993, 2469.077
162.4814, 2470.097
162.9636, 2473.675
163.4457, 2477.609
163.9278, 2482.162
164.4099, 2486.318
164.8920, 2487.193
165.3741, 2482.957
165.8563, 2480.641
166.3384, 2487.803
166.8205, 2499.560
167.3026, 2507.368
167.7847, 2503.988
168.2668, 2495.693
168.7490, 2498.691
169.2311, 2520.582
169.7132, 2536.221
170.1953, 2527.500
170.6774, 2505.118
171.1595, 2485.673
171.6417, 2479.855
172.1238, 2480.535
172.6059, 2467.273
173.0880, 2429.871
173.5701, 2399.266
174.0522, 2394.844
174.5344, 2403.876
175.0165, 2408.271
175.4986, 2398.026
175.9807, 2378.221
176.4628, 2362.610
176.9449, 2352.616
177.4271, 2344.509
177.9092, 2339.263
178.3913, 2334.195
178.8734, 2324.419
179.3555, 2304.656
179.8376, 2281.190
180.3197, 2274.604
180.8019, 2298.493
181.2840, 2315.206
181.7661, 2310.302
182.2482, 2293.442
182.7303, 2275.528
183.2124, 2260.910
183.6946, 2250.044
184.1767, 2245.383
184.6588, 2253.080
185.1409, 2256.118
185.6230, 2246.367
186.1051, 2231.569
186.5873, 2221.073
187.0694, 2219.800
187.5515, 2223.661
188.0336, 2221.608
188.5157, 2210.732
188.9978, 2198.494
189.4800, 2185.253
189.9621, 2172.343
190.4442, 2160.574
190.9263, 2150.271
191.4084, 2142.178
191.8905, 2138.354
192.3727, 2140.703
192.8548, 2144.292
193.3369, 2153.845
193.8190, 2161.524
194.3011, 2157.054
194.7832, 2136.122
195.2654, 2108.673
195.7475, 2097.957
196.2296, 2118.332
196.7117, 2128.354
197.1938, 2115.699
197.6759, 2096.021
198.1581, 2082.808
198.6402, 2080.571
199.1223, 2084.433
199.6044, 2085.173
200.0865, 2079.787
200.5686, 2077.382
201.0508, 2081.236
201.5329, 2086.280
202.0150, 2088.243
202.4971, 2086.078
202.9792, 2082.331
203.4613, 2081.042
203.9435, 2082.957
204.4256, 2085.842
204.9077, 2091.873
205.3898, 2097.140
205.8719, 2099.409
206.3540, 2098.063
206.8362, 2093.418
207.3183, 2084.424
207.8004, 2066.376
208.2825, 2056.576
208.7646, 2063.496
209.2467, 2071.169
209.7289, 2068.230
210.2110, 2054.679
210.6931, 2040.366
211.1752, 2038.095
211.6573, 2053.138
212.1395, 2060.790
212.6216, 2053.290
213.1037, 2045.527
213.5858, 2046.707
214.0679, 2055.507
214.5500, 2063.074
215.0322, 2058.939
215.5143, 2039.747
215.9964, 2031.532
216.4785, 2045.584
216.9606, 2059.949
217.4427, 2067.991
217.9249, 2069.297
218.4070, 2065.170
218.8891, 2054.930
219.3712, 2038.118
219.8533, 2031.947
220.3354, 2045.881
220.8176, 2061.927
221.2997, 2079.418
221.7818, 2095.310
222.2639, 2104.381
222.7460, 2101.900
223.2281, 2089.272
223.7103, 2081.853
224.1924, 2082.945
224.6745, 2086.232
225.1566, 2093.469
225.6387, 2101.475
226.1208, 2105.725
226.6030, 2103.413
227.0851, 2095.802
227.5672, 2087.739
228.0493, 2073.986
228.5314, 2067.471
229.0135, 2077.117
229.4957, 2092.197
229.9778, 2099.687
230.4599, 2093.513
230.9420, 2079.545
231.4241, 2073.073
231.9062, 2083.142
232.3884, 2084.831
232.8705, 2066.577
233.3526, 2044.432
233.8347, 2033.139
234.3168, 2037.418
234.7989, 2049.505
235.2811, 2056.648
235.7632, 2058.293
236.2453, 2055.919
236.7274, 2045.187
237.2095, 2034.084
237.6916, 2028.543
238.1738, 2029.401
238.6559, 2032.402
239.1380, 2032.323
239.6201, 2028.369
240.1022, 2024.206
240.5843, 2019.533
241.0665, 2015.029
241.5486, 2009.726
242.0307, 2004.379
242.5128, 2001.957
242.9949, 2008.586
243.4770, 2026.123
243.9592, 2029.905
244.4413, 2001.004
244.9234, 1975.752
245.4055, 1971.174
245.8876, 1981.883
246.3697, 1992.286
246.8519, 1991.704
247.3340, 1980.932
247.8161, 1966.400
248.2982, 1939.915
248.7803, 1921.127
249.2624, 1921.418
249.7446, 1932.279
250.2267, 1939.950
250.7088, 1936.694
251.1909, 1925.916
251.6730, 1917.024
252.1551, 1909.739
252.6373, 1905.091
253.1194, 1904.453
253.6015, 1905.841
254.0836, 1907.625
254.5657, 1909.531
255.0478, 1910.424
255.5300, 1908.083
256.0121, 1901.700
256.4942, 1895.146
256.9763, 1888.398
257.4584, 1882.564
257.9406, 1878.578
258.4227, 1876.669
258.9048, 1876.102
259.3869, 1877.423
259.8690, 1880.872
260.3511, 1880.385
260.8333, 1872.184
261.3154, 1861.761
261.7975, 1852.799
262.2796, 1845.458
262.7617, 1838.582
263.2438, 1830.916
263.7260, 1822.800
264.2081, 1816.647
264.6902, 1814.206
265.1723, 1811.421
265.6544, 1802.779
266.1365, 1790.708
266.6187, 1783.759
267.1008, 1791.706
267.5829, 1806.466
268.0650, 1809.863
268.5471, 1798.894
269.0292, 1785.029
269.5114, 1775.352
269.9935, 1768.251
270.4756, 1760.979
270.9577, 1750.245
271.4398, 1741.178
271.9219, 1741.194
272.4041, 1750.573
272.8862, 1759.558
273.3683, 1762.718
273.8504, 1762.693
274.3325, 1765.672
274.8146, 1776.167
275.2968, 1781.934
275.7789, 1769.569
276.2610, 1744.011
276.7431, 1725.411
277.2252, 1721.051
277.7073, 1726.891
278.1895, 1738.644
278.6716, 1759.143
279.1537, 1772.143
279.6358, 1766.019
280.1179, 1749.834
280.6000, 1738.724
281.0822, 1736.021
281.5643, 1738.406
282.0464, 1743.600
282.5285, 1752.052
283.0106, 1757.234
283.4927, 1757.222
283.9749, 1754.375
284.4570, 1750.986
284.9391, 1747.162
285.4212, 1740.985
285.9033, 1729.805
286.3854, 1713.928
286.8676, 1703.927
287.3497, 1699.803
287.8318, 1700.878
288.3139, 1710.308
288.7960, 1725.028
289.2781, 1737.358
289.7603, 1742.983
290.2424, 1743.131
290.7245, 1742.687
291.2066, 1738.425
291.6887, 1737.545
292.1708, 1747.138
292.6530, 1758.575
293.1351, 1759.490
293.6172, 1745.728
294.0993, 1725.316
294.5814, 1712.586
295.0635, 1712.657
295.5457, 1711.189
296.0278, 1703.909
296.5099, 1698.255
296.9920, 1700.815
297.4741, 1711.448
297.9562, 1724.399
298.4384, 1734.119
298.9205, 1740.544
299.4026, 1744.043
299.8847, 1744.968
300.3668, 1742.744
300.8489, 1732.372
301.3310, 1718.695
301.8131, 1712.141
302.2953, 1720.809
302.7774, 1740.771
303.2595, 1751.736
303.7416, 1748.527
304.2237, 1743.240
304.7058, 1736.219
305.1880, 1729.601
305.6701, 1725.664
306.1522, 1725.278
306.6343, 1727.330
307.1164, 1730.370
307.5985, 1734.753
308.0807, 1738.753
308.5628, 1740.668
309.0449, 1743.100
309.5270, 1748.914
310.0091, 1757.873
310.4912, 1765.230
310.9734, 1764.952
311.4555, 1758.042
311.9376, 1756.116
312.4197, 1763.275
312.9018, 1770.784
313.3839, 1772.251
313.8661, 1769.706
314.3482, 1768.443
314.8303, 1772.163
315.3124, 1778.043
315.7945, 1780.109
316.2766, 1777.314
316.7588, 1776.869
317.2409, 1784.100
317.7230, 1795.789
318.2051, 1807.245
318.6872, 1820.112
319.1693, 1828.722
319.6515, 1825.925
320.1336, 1814.226
320.6157, 1803.952
321.0978, 1796.996
321.5799, 1795.594
322.0620, 1806.355
322.5442, 1831.620
323.0263, 1851.599
323.5084, 1857.528
323.9905, 1856.483
324.4726, 1857.362
324.9547, 1861.670
325.4369, 1866.524
325.9190, 1868.487
326.4011, 1867.124
326.8832, 1871.016
327.3653, 1885.733
327.8474, 1900.410
328.3296, 1908.194
328.8117, 1910.676
329.2938, 1913.927
329.7759, 1921.972
330.2580, 1932.791
330.7401, 1936.947
331.2223, 1924.672
331.7044, 1917.853
332.1865, 1926.150
332.6686, 1937.614
333.1507, 1936.657
333.6328, 1919.423
334.1150, 1898.271
334.5971, 1892.475
335.0792, 1909.819
335.5613, 1921.687
336.0434, 1925.046
336.5255, 1926.310
337.0077, 1929.032
337.4898, 1932.688
337.9719, 1934.661
338.4540, 1933.141
338.9361, 1928.109
339.4182, 1918.829
339.9004, 1900.657
340.3825, 1885.247
340.8646, 1878.161
341.3467, 1874.629
341.8288, 1867.165
342.3109, 1851.750
342.7931, 1837.124
343.2752, 1839.304
343.7573, 1861.445
344.2394, 1878.022
344.7215, 1881.745
345.2036, 1878.272
345.6858, 1870.561
346.1679, 1858.995
346.6500, 1848.004
347.1321, 1842.207
347.6142, 1839.103
348.0963, 1830.454
348.5785, 1813.402
349.0606, 1797.142
349.5427, 1789.384
350.0248, 1788.288
350.5069, 1789.133
350.9890, 1793.863
351.4712, 1798.059
351.9533, 1796.902
352.4354, 1791.469
352.9175, 1788.091
353.3996, 1791.025
353.8817, 1796.377
354.3639, 1792.792
354.8460, 1775.508
355.3281, 1761.399
355.8102, 1758.385
356.2923, 1758.631
356.7744, 1751.562
357.2566, 1735.304
357.7387, 1717.800
358.2208, 1707.937
358.7029, 1707.014
359.1850, 1707.036
359.6671, 1710.445
360.1493, 1712.267
360.6314, 1708.253
361.1135, 1700.975
361.5956, 1697.502
362.0777, 1702.856
362.5598, 1712.068
363.0420, 1705.243
363.5241, 1661.043
364.0062, 1635.751
364.4883, 1651.146
364.9704, 1676.468
365.4525, 1684.907
365.9347, 1671.320
366.4168, 1651.205
366.8989, 1643.035
367.3810, 1647.816
367.8631, 1646.165
368.3452, 1631.027
368.8274, 1616.888
369.3095, 1610.358
369.7916, 1610.316
370.2737, 1613.857
370.7558, 1620.006
371.2379, 1628.632
371.7201, 1641.954
372.2022, 1661.122
372.6843, 1673.314
373.1664, 1668.335
373.6485, 1655.905
374.1306, 1652.397
374.6128, 1661.803
375.0949, 1667.439
375.5770, 1655.263
376.0591, 1634.105
376.5412, 1622.936
377.0233, 1626.461
377.5055, 1633.196
377.9876, 1630.118
378.4697, 1615.825
378.9518, 1610.846
379.4339, 1623.312
379.9160, 1638.069
380.3982, 1649.127
380.8803, 1655.202
381.3624, 1653.387
381.8445, 1641.407
382.3266, 1623.036
382.8087, 1609.402
383.2909, 1598.426
383.7730, 1596.113
384.2551, 1610.189
384.7372, 1627.869
385.2193, 1639.332
385.7014, 1642.788
386.1836, 1641.799
386.6657, 1639.157
387.1478, 1634.630
387.6299, 1633.302
388.1120, 1639.954
388.5941, 1644.234
389.0763, 1641.797
389.5584, 1635.115
390.0405, 1628.187
390.5226, 1622.704
391.0047, 1617.554
391.4868, 1610.767
391.9690, 1602.203
392.4511, 1593.269
392.9332, 1581.545
393.4153, 1572.396
393.8974, 1571.526
394.3795, 1578.886
394.8617, 1587.277
395.3438, 1595.343
395.8259, 1601.463
396.3080, 1601.499
396.7901, 1594.731
397.2722, 1588.313
397.7544, 1587.447
398.2365, 1591.222
398.7186, 1593.811
399.2007, 1594.574
399.6828, 1594.884
400.1649, 1596.749
400.6471, 1598.166
401.1292, 1593.992
401.6113, 1582.463
402.0934, 1570.710
402.5755, 1569.890
403.0576, 1585.639
403.5398, 1595.288
404.0219, 1599.500
404.5040, 1598.054
404.9861, 1583.371
405.4682, 1562.765
405.9503, 1554.191
406.4325, 1570.748
406.9146, 1603.700
407.3967, 1621.847
407.8788, 1620.558
408.3609, 1613.380
408.8430, 1594.198
409.3252, 1576.340
409.8073, 1572.683
410.2894, 1584.396
410.7715, 1598.129
411.2536, 1601.966
411.7357, 1597.794
412.2179, 1594.250
412.7000, 1590.309
413.1821, 1590.819
413.6642, 1601.431
414.1463, 1618.815
414.6284, 1637.363
415.1106, 1661.647
415.5927, 1680.093
416.0748, 1679.164
416.5569, 1664.891
417.0390, 1656.222
417.5211, 1660.005
418.0033, 1670.333
418.4854, 1679.465
418.9675, 1688.526
419.4496, 1691.543
419.9317, 1681.418
420.4138, 1670.789
420.8960, 1667.998
421.3781, 1672.398
421.8602, 1679.272
422.3423, 1685.570
422.8244, 1692.084
423.3065, 1702.641
423.7887, 1724.341
424.2708, 1738.755
424.7529, 1738.084
425.2350, 1734.054
425.7171, 1736.198
426.1992, 1745.798
426.6814, 1757.694
427.1635, 1768.145
427.6456, 1777.088
428.1277, 1780.849
428.6098, 1772.262
429.0919, 1772.480
429.5741, 1801.485
430.0562, 1843.612
430.5383, 1875.577
431.0204, 1890.019
431.5025, 1897.411
431.9846, 1904.906
432.4668, 1912.296
432.9489, 1917.423
433.4310, 1918.214
433.9131, 1921.929
434.3952, 1938.856
434.8773, 1970.552
435.3595, 1998.845
435.8416, 2020.661
436.3237, 2040.648
436.8058, 2059.435
437.2879, 2078.754
437.7701, 2103.384
438.2522, 2136.147
438.7343, 2173.097
439.2164, 2203.644
439.6985, 2221.484
440.1806, 2244.051
440.6628, 2272.104
441.1449, 2304.197
441.6270, 2341.573
442.1091, 2382.569
442.5912, 2422.546
443.0733, 2457.239
443.5555, 2488.273
444.0376, 2520.550
444.5197, 2551.469
445.0018, 2591.060
445.4839, 2652.314
445.9660, 2720.012
446.4482, 2779.235
446.9303, 2827.129
447.4124, 2872.914
447.8945, 2921.822
448.3766, 2972.720
448.8587, 3025.263
449.3409, 3080.262
449.8230, 3127.232
450.3051, 3154.147
450.7872, 3164.228
451.2693, 3189.832
451.7514, 3243.273
452.2336, 3296.570
452.7157, 3335.958
453.1978, 3371.263
453.6799, 3420.926
454.1620, 3488.749
454.6441, 3554.420
455.1263, 3589.525
455.6084, 3587.075
456.0905, 3593.488
456.5726, 3619.876
457.0547, 3643.957
457.5368, 3656.064
458.0190, 3662.106
458.5011, 3673.188
458.9832, 3695.104
459.4653, 3718.279
459.9474, 3726.659
460.4295, 3719.918
460.9117, 3719.049
461.3938, 3731.006
461.8759, 3745.935
462.3580, 3755.955
462.8401, 3761.544
463.3222, 3764.579
463.8044, 3762.166
464.2865, 3760.100
464.7686, 3764.388
465.2507, 3773.773
465.7328, 3783.985
466.2149, 3793.928
466.6971, 3800.948
467.1792, 3799.011
467.6613, 3779.219
468.1434, 3769.501
468.6255, 3774.753
469.1076, 3785.572
469.5898, 3798.458
470.0719, 3811.884
470.5540, 3824.394
471.0361, 3835.534
471.5182, 3844.101
472.0003, 3843.342
472.4825, 3823.269
472.9646, 3821.267
473.4467, 3865.482
473.9288, 3916.116
474.4109, 3947.424
474.8930, 3958.982
475.3752, 3966.988
475.8573, 3973.777
476.3394, 3985.599
476.8215, 4018.185
477.3036, 4071.987
477.7857, 4122.397
478.2679, 4157.988
478.7500, 4181.649
479.2321, 4199.041
479.7142, 4206.189
480.1963, 4217.598
480.6784, 4247.643
481.1606, 4275.321
481.6427, 4275.791
482.1248, 4251.952
482.6069, 4229.078
483.0890, 4226.324
483.5711, 4239.977
484.0533, 4250.693
484.5354, 4268.937
485.0175, 4265.545
485.4996, 4227.361
485.9817, 4175.324
486.4638, 4124.646
486.9460, 4077.406
487.4281, 4029.372
487.9102, 3977.758
488.3923, 3922.732
488.8744, 3864.549
489.3565, 3803.134
489.8387, 3739.704
490.3208, 3676.070
490.8029, 3610.127
491.2850, 3537.768
491.7671, 3455.912
492.2492, 3376.343
492.7314, 3304.164
493.2135, 3236.385
493.6956, 3169.958
494.1777, 3104.740
494.6598, 3042.314
495.1419, 2985.224
495.6241, 2931.232
496.1062, 2863.531
496.5883, 2763.816
497.0704, 2676.595
497.5525, 2607.374
498.0346, 2550.514
498.5168, 2503.437
498.9989, 2464.724
499.4810, 2431.591
499.9631, 2406.033
500.4452, 2384.011
500.9273, 2348.397
501.4095, 2295.401
501.8916, 2244.660
502.3737, 2206.093
502.8558, 2173.776
503.3379, 2137.103
503.8200, 2093.569
504.3022, 2056.199
504.7843, 2036.955
505.2664, 2022.490
505.7485, 1996.505
506.2306, 1958.823
506.7127, 1919.672
507.1949, 1884.867
507.6770, 1855.076
508.1591, 1833.708
508.6412, 1827.796
509.1233, 1820.236
509.6054, 1808.714
510.0876, 1796.371
510.5697, 1785.553
511.0518, 1776.287
511.5339, 1767.329
512.0161, 1758.331
512.4982, 1748.672
512.9803, 1735.699
513.4624, 1718.668
513.9445, 1703.533
514.4266, 1694.134
514.9088, 1686.117
515.3909, 1673.094
515.8730, 1654.529
516.3551, 1637.860
516.8372, 1624.172
517.3193, 1614.160
517.8015, 1610.473
518.2836, 1611.473
518.7657, 1610.984
519.2478, 1605.735
519.7299, 1597.061
520.2120, 1587.753
520.6942, 1574.718
521.1763, 1567.124
521.6584, 1572.115
522.1405, 1575.248
522.6226, 1564.863
523.1047, 1546.171
523.5869, 1533.595
524.0690, 1535.623
524.5511, 1545.297
525.0332, 1551.190
525.5153, 1553.344
525.9974, 1559.049
526.4796, 1573.016
526.9617, 1586.199
527.4438, 1586.680
527.9259, 1576.161
528.4080, 1568.537
528.8901, 1568.015
529.3723, 1568.638
529.8544, 1567.081
530.3365, 1564.080
530.8186, 1560.765
531.3007, 1557.585
531.7828, 1555.837
532.2650, 1558.239
532.7471, 1566.514
533.2292, 1568.009
533.7113, 1551.090
534.1934, 1540.885
534.6755, 1552.240
535.1577, 1571.924
535.6398, 1580.156
536.1219, 1570.197
536.6040, 1559.115
537.0861, 1563.718
537.5682, 1579.996
538.0504, 1595.692
538.5325, 1609.468
539.0146, 1621.536
539.4967, 1631.826
539.9788, 1640.401
540.4609, 1647.498
540.9431, 1651.563
541.4252, 1656.535
541.9073, 1661.542
542.3894, 1668.866
542.8715, 1683.527
543.3536, 1703.957
543.8358, 1720.647
544.3179, 1724.671
544.8000, 1720.208
545.2821, 1726.889
545.7642, 1750.060
546.2463, 1769.629
546.7285, 1775.201
547.2106, 1779.237
547.6926, 1793.343
548.1747, 1816.728
548.6569, 1836.352
549.1390, 1841.197
549.6211, 1843.082
550.1032, 1856.927
550.5853, 1880.010
551.0674, 1899.761
551.5496, 1911.511
552.0317, 1916.494
552.5138, 1915.385
552.9959, 1902.687
553.4780, 1902.950
553.9601, 1927.310
554.4423, 1950.779
554.9244, 1964.888
555.4065, 1971.018
555.8886, 1971.448
556.3707, 1966.891
556.8528, 1960.495
557.3350, 1956.384
557.8171, 1954.087
558.2992, 1949.891
558.7813, 1943.577
559.2634, 1935.161
559.7455, 1926.461
560.2277, 1915.073
560.7098, 1894.376
561.1919, 1857.216
561.6740, 1823.121
562.1561, 1797.462
562.6382, 1778.336
563.1204, 1768.760
563.6025, 1765.331
564.0846, 1752.896
564.5667, 1718.198
565.0488, 1669.398
565.5309, 1640.053
566.0131, 1640.558
566.4952, 1634.256
566.9773, 1606.885
567.4594, 1577.109
567.9415, 1557.156
568.4236, 1545.615
568.9058, 1533.342
569.3879, 1515.427
569.8700, 1495.967
570.3521, 1478.158
570.8342, 1462.107
571.3163, 1449.144
571.7985, 1440.031
572.2806, 1430.390
572.7627, 1414.402
573.2448, 1390.872
573.7269, 1371.827
574.2090, 1361.336
574.6912, 1349.988
575.1733, 1332.359
575.6554, 1314.281
576.1375, 1302.717
576.6196, 1298.963
577.1017, 1298.174
577.5839, 1297.658
578.0660, 1296.565
578.5481, 1291.780
579.0302, 1283.064
579.5123, 1272.215
579.9944, 1258.836
580.4766, 1244.884
580.9587, 1234.226
581.4408, 1226.839
581.9229, 1221.633
582.4050, 1222.979
582.8871, 1222.450
583.3693, 1212.109
583.8514, 1195.742
584.3335, 1181.373
584.8156, 1172.744
585.2977, 1168.849
585.7798, 1169.383
586.2620, 1174.956
586.7441, 1177.535
587.2262, 1175.007
587.7083, 1172.334
588.1904, 1173.645
588.6725, 1176.326
589.1547, 1176.261
589.6368, 1173.163
590.1189, 1166.601
590.6010, 1152.472
591.0831, 1136.852
591.5652, 1127.626
592.0474, 1125.103
592.5295, 1125.861
593.0116, 1128.083
593.4937, 1130.762
593.9758, 1130.597
594.4579, 1126.210
594.9401, 1122.259
595.4222, 1119.580
595.9043, 1117.021
596.3864, 1113.375
596.8685, 1109.422
597.3506, 1107.476
597.8328, 1109.772
598.3149, 1111.643
598.7970, 1106.514
599.2791, 1097.862
599.7612, 1096.023
600.2433, 1103.007
600.7255, 1110.084
601.2076, 1109.722
601.6897, 1102.869
602.1718, 1097.245
602.6539, 1092.489
603.1360, 1089.606
603.6182, 1091.794
604.1003, 1093.398
604.5824, 1088.037
605.0645, 1077.573
605.5466, 1070.987
606.0287, 1075.799
606.5109, 1084.012
606.9930, 1082.199
607.4751, 1071.784
607.9572, 1064.840
608.4393, 1065.207
608.9214, 1066.157
609.4036, 1060.232
609.8857, 1047.389
610.3678, 1038.991
610.8499, 1033.903
611.3320, 1034.212
611.8141, 1046.855
612.2963, 1061.096
612.7784, 1065.447
613.2605, 1059.372
613.7426, 1050.547
614.2247, 1043.428
614.7068, 1038.764
615.1890, 1040.307
615.6711, 1048.521
616.1532, 1052.136
616.6353, 1046.731
617.1174, 1037.655
617.5995, 1029.807
618.0817, 1023.205
618.5638, 1019.894
619.0459, 1022.254
619.5280, 1025.260
620.0101, 1026.331
620.4922, 1027.286
620.9744, 1031.357
621.4565, 1038.590
621.9386, 1045.036
622.4207, 1046.715
622.9028, 1044.956
623.3849, 1045.653
623.8671, 1049.764
624.3492, 1050.375
624.8313, 1043.371
625.3134, 1034.293
625.7955, 1029.006
626.2776, 1027.279
626.7598, 1029.309
627.2419, 1039.682
627.7240, 1048.902
628.2061, 1051.958
628.6882, 1050.875
629.1703, 1048.045
629.6525, 1044.411
630.1346, 1040.896
630.6167, 1038.071
631.0988, 1036.203
631.5809, 1038.003
632.0630, 1045.721
632.5452, 1048.005
633.0273, 1038.192
633.5094, 1024.536
633.9915, 1015.245
634.4736, 1010.200
634.9557, 1008.754
635.4379, 1015.886
635.9200, 1021.271
636.4021, 1013.192
636.8842, 1001.749
637.3663, 1006.013
637.8484, 1028.704
638.3306, 1052.125
638.8127, 1058.062
639.2948, 1049.456
639.7769, 1044.539
640.2590, 1045.073
640.7411, 1042.808
641.2233, 1033.265
641.7054, 1022.022
642.1875, 1013.734
642.6696, 1008.428
643.1517, 1007.439
643.6339, 1015.336
