##NAMES=Levyne-Ca
##RRUFFID=R070270
##IDEAL CHEMISTRY=Ca_3_(Si_12_Al_6_)O_36_&#183;18H_2_O
##LOCALITY=Beech Creek Quarry, Mount Vernon, Grant County, Oregon, USA
##OWNER=RRUFF
##SOURCE=Michael Scott
##DESCRIPTION=Clear, colorless hexagonal tabular
##STATUS=The identification of this mineral has been confirmed only by single crystal X-ray diffraction.
##URL=rruff.info/R070270
148.0179, 3504.263
148.5001, 3612.798
148.9822, 3712.468
149.4643, 3798.070
149.9464, 3870.154
150.4285, 3934.908
150.9106, 3998.069
151.3928, 4058.286
151.8749, 4109.820
152.3570, 4158.479
152.8391, 4194.486
153.3212, 4208.341
153.8033, 4199.104
154.2855, 4173.597
154.7676, 4130.047
155.2497, 4072.393
155.7318, 4018.389
156.2139, 3965.339
156.6960, 3919.929
157.1782, 3891.435
157.6603, 3881.529
158.1424, 3880.249
158.6245, 3882.222
159.1066, 3887.289
159.5887, 3895.946
160.0709, 3904.950
160.5530, 3918.858
161.0351, 3946.124
161.5172, 3989.321
161.9993, 4036.482
162.4814, 4084.109
162.9636, 4129.494
163.4457, 4166.848
163.9278, 4188.529
164.4099, 4202.228
164.8920, 4221.730
165.3741, 4248.449
165.8563, 4276.972
166.3384, 4309.862
166.8205, 4341.897
167.3026, 4362.553
167.7847, 4359.609
168.2668, 4345.172
168.7490, 4349.319
169.2311, 4383.801
169.7132, 4409.842
170.1953, 4399.421
170.6774, 4368.996
171.1595, 4343.555
171.6417, 4335.083
172.1238, 4338.653
172.6059, 4343.799
173.0880, 4354.792
173.5701, 4358.131
174.0522, 4344.753
174.5344, 4321.561
175.0165, 4298.299
175.4986, 4279.823
175.9807, 4264.154
176.4628, 4245.479
176.9449, 4222.545
177.4271, 4198.688
177.9092, 4171.091
178.3913, 4144.426
178.8734, 4126.362
179.3555, 4123.223
179.8376, 4128.467
180.3197, 4121.907
180.8019, 4096.761
181.2840, 4071.271
181.7661, 4050.495
182.2482, 4032.975
182.7303, 4016.318
183.2124, 3998.329
183.6946, 3982.078
184.1767, 3977.897
184.6588, 3995.262
185.1409, 4008.333
185.6230, 4010.745
186.1051, 4005.708
186.5873, 3996.101
187.0694, 3982.650
187.5515, 3967.082
188.0336, 3953.324
188.5157, 3940.430
188.9978, 3931.719
189.4800, 3933.801
189.9621, 3937.367
190.4442, 3931.482
190.9263, 3910.749
191.4084, 3881.761
191.8905, 3860.816
192.3727, 3853.071
192.8548, 3844.446
193.3369, 3827.853
193.8190, 3811.417
194.3011, 3804.931
194.7832, 3812.458
195.2654, 3825.997
195.7475, 3827.127
196.2296, 3805.402
196.7117, 3790.825
197.1938, 3791.966
197.6759, 3798.086
198.1581, 3799.399
198.6402, 3792.687
199.1223, 3782.742
199.6044, 3778.956
200.0865, 3785.942
200.5686, 3789.947
201.0508, 3787.630
201.5329, 3783.753
202.0150, 3783.099
202.4971, 3786.635
202.9792, 3790.022
203.4613, 3785.302
203.9435, 3766.629
204.4256, 3753.056
204.9077, 3750.333
205.3898, 3748.803
205.8719, 3741.146
206.3540, 3726.283
206.8362, 3709.212
207.3183, 3696.517
207.8004, 3689.386
208.2825, 3684.173
208.7646, 3683.311
209.2467, 3682.219
209.7289, 3678.197
210.2110, 3671.002
210.6931, 3662.103
211.1752, 3652.770
211.6573, 3642.354
212.1395, 3634.188
212.6216, 3630.006
213.1037, 3626.458
213.5858, 3619.733
214.0679, 3611.292
214.5500, 3607.239
215.0322, 3615.663
215.5143, 3640.019
215.9964, 3653.455
216.4785, 3646.441
216.9606, 3637.580
217.4427, 3633.303
217.9249, 3633.253
218.4070, 3633.713
218.8891, 3630.869
219.3712, 3624.451
219.8533, 3624.724
220.3354, 3643.345
220.8176, 3657.522
221.2997, 3658.649
221.7818, 3650.506
222.2639, 3641.293
222.7460, 3636.711
223.2281, 3636.263
223.7103, 3635.089
224.1924, 3635.807
224.6745, 3632.545
225.1566, 3616.810
225.6387, 3597.721
226.1208, 3589.841
226.6030, 3602.720
227.0851, 3630.493
227.5672, 3649.000
228.0493, 3659.102
228.5314, 3656.936
229.0135, 3629.268
229.4957, 3594.510
229.9778, 3574.671
230.4599, 3579.990
230.9420, 3600.853
231.4241, 3614.387
231.9062, 3620.521
232.3884, 3618.011
232.8705, 3595.962
233.3526, 3572.404
233.8347, 3565.693
234.3168, 3581.395
234.7989, 3605.946
235.2811, 3615.057
235.7632, 3600.383
236.2453, 3589.882
236.7274, 3582.613
237.2095, 3581.811
237.6916, 3593.818
238.1738, 3618.068
238.6559, 3643.226
239.1380, 3654.314
239.6201, 3647.164
240.1022, 3641.244
240.5843, 3640.802
241.0665, 3638.804
241.5486, 3627.059
242.0307, 3608.250
242.5128, 3595.529
242.9949, 3606.395
243.4770, 3644.208
243.9592, 3665.123
244.4413, 3654.550
244.9234, 3639.688
245.4055, 3606.979
245.8876, 3633.292
246.3697, 3648.605
246.8519, 3653.510
247.3340, 3616.832
247.8161, 3633.849
248.2982, 3629.348
248.7803, 3623.964
249.2624, 3648.540
249.7446, 3617.909
250.2267, 3642.010
250.7088, 3644.262
251.1909, 3656.514
251.6730, 3647.114
252.1551, 3644.401
252.6373, 3663.347
253.1194, 3670.301
253.6015, 3658.408
254.0836, 3671.295
254.5657, 3639.908
255.0478, 3647.373
255.5300, 3671.600
256.0121, 3660.796
256.4942, 3674.079
256.9763, 3678.188
257.4584, 3640.607
257.9406, 3660.568
258.4227, 3668.515
258.9048, 3677.197
259.3869, 3682.466
259.8690, 3684.171
260.3511, 3685.939
260.8333, 3686.113
261.3154, 3688.916
261.7975, 3700.463
262.2796, 3719.919
262.7617, 3735.067
263.2438, 3735.299
263.7260, 3722.884
264.2081, 3709.751
264.6902, 3692.334
265.1723, 3682.278
265.6544, 3692.130
266.1365, 3716.472
266.6187, 3737.350
267.1008, 3746.577
267.5829, 3746.587
268.0650, 3740.408
268.5471, 3725.627
269.0292, 3712.832
269.5114, 3710.906
269.9935, 3715.898
270.4756, 3722.223
270.9577, 3732.485
271.4398, 3740.187
271.9219, 3733.131
272.4041, 3710.647
272.8862, 3697.216
273.3683, 3711.112
273.8504, 3739.249
274.3325, 3755.623
274.8146, 3755.302
275.2968, 3750.018
275.7789, 3746.615
276.2610, 3744.594
276.7431, 3741.569
277.2252, 3735.981
277.7073, 3730.026
278.1895, 3726.917
278.6716, 3726.253
279.1537, 3728.845
279.6358, 3736.267
280.1179, 3746.875
280.6000, 3759.181
281.0822, 3773.563
281.5643, 3785.401
282.0464, 3787.256
282.5285, 3777.990
283.0106, 3773.252
283.4927, 3780.505
283.9749, 3789.398
284.4570, 3790.073
284.9391, 3782.025
285.4212, 3770.938
285.9033, 3759.958
286.3854, 3749.558
286.8676, 3746.857
287.3497, 3758.790
287.8318, 3770.941
288.3139, 3775.845
288.7960, 3775.246
289.2781, 3773.605
289.7603, 3772.688
290.2424, 3773.744
290.7245, 3782.418
291.2066, 3813.617
291.6887, 3833.617
292.1708, 3830.224
292.6530, 3815.404
293.1351, 3802.563
293.6172, 3796.550
294.0993, 3796.459
294.5814, 3800.960
295.0635, 3812.790
295.5457, 3824.454
296.0278, 3842.016
296.5099, 3855.090
296.9920, 3851.355
297.4741, 3832.537
297.9562, 3814.523
298.4384, 3814.858
298.9205, 3837.191
299.4026, 3852.646
299.8847, 3852.858
300.3668, 3854.747
300.8489, 3864.127
301.3311, 3879.827
301.8131, 3898.747
302.2953, 3919.506
302.7774, 3941.157
303.2595, 3959.247
303.7416, 3976.538
304.2237, 3985.184
304.7058, 3972.994
305.1880, 3956.915
305.6701, 3957.642
306.1522, 3983.301
306.6343, 4018.456
307.1164, 4037.354
307.5985, 4035.821
308.0807, 4033.275
308.5628, 4032.219
309.0449, 4031.712
309.5270, 4030.277
310.0091, 4028.156
310.4912, 4028.528
310.9734, 4036.505
311.4555, 4051.028
311.9376, 4059.370
312.4197, 4055.617
312.9018, 4052.887
313.3839, 4061.037
313.8661, 4076.602
314.3482, 4090.573
314.8303, 4099.518
315.3124, 4104.130
315.7945, 4104.149
316.2766, 4098.525
316.7588, 4094.573
317.2409, 4098.544
317.7230, 4105.949
318.2051, 4108.365
318.6872, 4100.078
319.1693, 4095.010
319.6515, 4108.445
320.1336, 4135.629
320.6157, 4154.737
321.0978, 4156.517
321.5799, 4149.848
322.0620, 4149.104
322.5442, 4155.287
323.0263, 4159.663
323.5084, 4155.029
323.9905, 4149.233
324.4726, 4152.973
324.9547, 4168.042
325.4369, 4188.625
325.9190, 4210.108
326.4011, 4232.623
326.8832, 4253.302
327.3653, 4277.622
327.8474, 4295.363
328.3296, 4296.463
328.8117, 4285.514
329.2938, 4276.034
329.7759, 4275.901
330.2580, 4283.349
330.7401, 4290.417
331.2223, 4296.820
331.7044, 4303.233
332.1865, 4312.371
332.6686, 4320.368
333.1507, 4321.863
333.6328, 4315.612
334.1150, 4306.572
334.5971, 4302.686
335.0792, 4308.002
335.5613, 4307.356
336.0434, 4296.792
336.5255, 4284.540
337.0077, 4272.080
337.4898, 4261.319
337.9719, 4256.228
338.4540, 4261.759
338.9361, 4276.087
339.4182, 4282.889
339.9004, 4280.996
340.3825, 4272.377
340.8646, 4251.679
341.3467, 4227.575
341.8288, 4211.309
342.3109, 4207.523
342.7931, 4210.522
343.2752, 4210.338
343.7573, 4186.117
344.2394, 4205.284
344.7215, 4213.453
345.2036, 4211.212
345.6858, 4167.388
346.1679, 4177.260
346.6500, 4165.614
347.1321, 4153.085
347.6142, 4170.516
348.0963, 4132.740
348.5785, 4149.694
349.0606, 4144.801
349.5427, 4149.908
350.0248, 4133.362
350.5069, 4123.505
350.9890, 4135.306
351.4712, 4135.114
351.9533, 4116.076
352.4354, 4121.818
352.9175, 4109.486
353.3996, 4106.667
353.8817, 4093.982
354.3639, 4081.988
354.8460, 4070.208
355.3281, 4059.920
355.8102, 4051.778
356.2923, 4045.131
356.7744, 4039.226
357.2566, 4033.904
357.7387, 4030.251
358.2208, 4030.813
358.7029, 4038.558
359.1850, 4032.585
359.6671, 3999.644
360.1493, 3968.303
360.6314, 3952.951
361.1135, 3949.193
361.5956, 3944.534
362.0777, 3930.905
362.5598, 3913.270
363.0420, 3910.651
363.5241, 3936.603
364.0062, 3956.093
364.4883, 3965.251
364.9704, 3966.926
365.4525, 3962.754
365.9347, 3953.400
366.4168, 3939.936
366.8989, 3921.896
367.3810, 3898.615
367.8631, 3879.129
368.3452, 3860.197
368.8274, 3850.173
369.3095, 3858.727
369.7916, 3878.651
370.2737, 3892.843
370.7558, 3892.428
371.2379, 3882.463
371.7201, 3869.140
372.2022, 3851.742
372.6843, 3837.906
373.1664, 3829.895
373.6485, 3828.475
374.1306, 3836.068
374.6128, 3856.784
375.0949, 3871.962
375.5770, 3867.725
376.0591, 3851.745
376.5412, 3839.113
377.0233, 3833.033
377.5055, 3829.187
377.9876, 3822.986
378.4697, 3814.105
378.9518, 3807.848
379.4339, 3807.778
379.9160, 3807.217
380.3982, 3801.455
380.8803, 3791.829
381.3624, 3781.993
381.8445, 3773.614
382.3266, 3767.451
382.8087, 3765.916
383.2909, 3779.619
383.7730, 3783.689
384.2551, 3768.920
384.7372, 3750.118
385.2193, 3739.791
385.7014, 3739.537
386.1836, 3742.179
386.6657, 3740.100
387.1478, 3732.971
387.6299, 3727.760
388.1120, 3727.981
388.5941, 3725.922
389.0763, 3715.881
389.5584, 3702.754
390.0405, 3694.547
390.5226, 3695.147
391.0047, 3700.458
391.4868, 3703.558
391.9690, 3703.876
392.4511, 3708.185
392.9332, 3726.825
393.4153, 3741.908
393.8974, 3733.924
394.3795, 3702.973
394.8617, 3672.886
395.3438, 3650.848
395.8259, 3638.599
396.3080, 3644.396
396.7901, 3670.187
397.2722, 3691.948
397.7544, 3691.560
398.2365, 3672.561
398.7186, 3657.758
399.2007, 3649.495
399.6828, 3642.820
400.1649, 3635.362
400.6471, 3628.363
401.1292, 3624.077
401.6113, 3623.241
402.0934, 3624.531
402.5755, 3626.378
403.0576, 3630.174
403.5398, 3629.900
404.0219, 3622.344
404.5040, 3614.287
404.9861, 3608.182
405.4682, 3604.485
405.9503, 3603.312
406.4325, 3604.769
406.9146, 3608.698
407.3967, 3615.200
407.8788, 3627.406
408.3609, 3635.605
408.8430, 3633.975
409.3252, 3630.583
409.8073, 3634.304
410.2894, 3645.650
410.7715, 3652.788
411.2536, 3639.928
411.7357, 3612.352
412.2179, 3598.198
412.7000, 3601.778
413.1821, 3612.872
413.6642, 3627.583
414.1463, 3644.657
414.6284, 3661.802
415.1106, 3682.311
415.5927, 3698.365
416.0748, 3698.428
416.5569, 3688.664
417.0390, 3691.310
417.5211, 3716.736
418.0033, 3746.664
418.4854, 3752.205
418.9675, 3723.366
419.4496, 3703.371
419.9317, 3696.491
420.4138, 3696.641
420.8960, 3703.097
421.3781, 3713.323
421.8602, 3720.565
422.3423, 3719.626
422.8244, 3714.253
423.3065, 3721.680
423.7887, 3759.997
424.2708, 3782.463
424.7529, 3771.973
425.2350, 3753.520
425.7171, 3746.640
426.1992, 3754.349
426.6814, 3768.054
427.1635, 3781.468
427.6456, 3794.475
428.1277, 3804.178
428.6098, 3809.411
429.0919, 3813.517
429.5741, 3814.181
430.0562, 3815.905
430.5383, 3826.043
431.0204, 3847.370
431.5025, 3875.160
431.9846, 3912.097
432.4668, 3953.385
432.9489, 3979.232
433.4310, 3981.497
433.9131, 3977.542
434.3952, 3987.524
434.8773, 4012.791
435.3595, 4039.492
435.8416, 4068.707
436.3237, 4097.502
436.8058, 4124.748
437.2879, 4150.152
437.7701, 4172.842
438.2522, 4192.045
438.7343, 4210.257
439.2164, 4233.644
439.6985, 4263.696
440.1806, 4296.579
440.6628, 4336.133
441.1449, 4375.166
441.6270, 4407.781
442.1091, 4435.093
442.5912, 4463.234
443.0733, 4496.524
443.5555, 4534.166
444.0376, 4573.731
444.5197, 4616.554
445.0018, 4657.645
445.4839, 4697.188
445.9660, 4733.155
446.4482, 4760.407
446.9303, 4776.403
447.4124, 4798.052
447.8945, 4844.639
448.3766, 4902.508
448.8587, 4939.958
449.3409, 4951.741
449.8230, 4960.423
450.3051, 4984.242
450.7872, 5021.453
451.2693, 5052.125
451.7514, 5070.734
452.2336, 5089.749
452.7157, 5113.006
453.1978, 5139.144
453.6799, 5166.361
454.1620, 5194.044
454.6441, 5222.123
455.1263, 5251.414
455.6084, 5283.520
456.0905, 5307.564
456.5726, 5313.813
457.0547, 5321.497
457.5368, 5338.080
458.0190, 5359.529
458.5011, 5379.192
458.9832, 5394.367
459.4653, 5406.427
459.9474, 5418.009
460.4295, 5429.131
460.9117, 5435.460
461.3938, 5433.975
461.8759, 5430.356
462.3580, 5425.588
462.8401, 5421.393
463.3222, 5428.899
463.8044, 5459.756
464.2865, 5496.848
464.7686, 5526.171
465.2507, 5548.558
465.7328, 5568.332
466.2149, 5587.072
466.6971, 5605.044
467.1792, 5621.790
467.6613, 5631.574
468.1434, 5653.455
468.6255, 5703.583
469.1076, 5751.645
469.5898, 5769.357
470.0719, 5767.430
470.5540, 5780.223
471.0361, 5831.706
471.5182, 5906.591
472.0003, 5959.563
472.4825, 5980.272
472.9646, 6006.368
473.4467, 6051.154
473.9288, 6099.954
474.4109, 6141.471
474.8930, 6176.338
475.3752, 6216.827
475.8573, 6279.824
476.3394, 6348.933
476.8215, 6390.939
477.3036, 6404.787
477.7857, 6426.397
478.2679, 6479.270
478.7500, 6546.562
479.2321, 6584.129
479.7142, 6574.429
480.1963, 6582.697
480.6784, 6640.475
481.1606, 6708.631
481.6427, 6755.624
482.1248, 6777.532
482.6069, 6780.480
483.0890, 6767.666
483.5711, 6741.450
484.0533, 6713.775
484.5354, 6677.684
485.0175, 6652.113
485.4996, 6662.053
485.9817, 6666.753
486.4638, 6630.475
486.9460, 6551.465
487.4281, 6458.281
487.9102, 6370.103
488.3923, 6284.969
488.8744, 6195.972
489.3565, 6102.210
489.8387, 6010.021
490.3208, 5920.763
490.8029, 5836.756
491.2850, 5765.239
491.7671, 5716.270
492.2492, 5650.566
492.7314, 5539.586
493.2135, 5414.134
493.6956, 5308.808
494.1777, 5226.893
494.6598, 5152.603
495.1419, 5074.015
495.6241, 4992.951
496.1062, 4919.251
496.5883, 4859.200
497.0704, 4798.515
497.5525, 4735.227
498.0346, 4670.875
498.5168, 4605.390
498.9989, 4539.700
499.4810, 4477.718
499.9631, 4425.395
500.4452, 4379.162
500.9273, 4323.944
501.4095, 4255.858
501.8916, 4195.301
502.3737, 4155.881
502.8558, 4126.296
503.3379, 4088.004
503.8200, 4038.353
504.3022, 3990.525
504.7843, 3947.415
505.2664, 3910.005
505.7485, 3884.443
506.2306, 3868.493
506.7127, 3847.510
507.1949, 3810.761
507.6770, 3762.217
508.1591, 3719.351
508.6412, 3678.089
509.1233, 3649.262
509.6054, 3642.460
510.0876, 3640.646
510.5697, 3632.015
511.0518, 3616.075
511.5339, 3599.018
512.0161, 3586.834
512.4982, 3575.774
512.9803, 3552.230
513.4624, 3513.034
513.9445, 3482.135
514.4266, 3473.577
514.9088, 3472.568
515.3909, 3457.908
515.8730, 3428.141
516.3551, 3403.744
516.8372, 3395.141
517.3193, 3391.421
517.8015, 3381.614
518.2836, 3366.963
518.7657, 3355.000
519.2478, 3349.884
519.7299, 3349.318
520.2120, 3347.999
520.6942, 3346.197
521.1763, 3343.024
521.6584, 3338.632
522.1405, 3332.937
522.6226, 3328.185
523.1047, 3322.036
523.5869, 3307.349
524.0690, 3276.476
524.5511, 3243.746
525.0332, 3238.433
525.5153, 3260.280
525.9974, 3266.640
526.4796, 3239.838
526.9617, 3206.846
527.4438, 3198.331
527.9259, 3211.200
528.4080, 3221.928
528.8901, 3225.773
529.3723, 3228.105
529.8544, 3234.021
530.3365, 3240.374
530.8186, 3238.696
531.3007, 3226.428
531.7828, 3213.422
532.2650, 3214.103
532.7471, 3231.262
533.2292, 3244.807
533.7113, 3253.356
534.1934, 3259.679
534.6755, 3263.329
535.1577, 3265.786
535.6398, 3268.911
536.1219, 3273.249
536.6040, 3278.293
537.0861, 3284.980
537.5682, 3292.039
538.0504, 3294.010
538.5325, 3289.431
539.0146, 3286.152
539.4967, 3290.427
539.9788, 3300.576
540.4609, 3308.001
540.9431, 3313.012
541.4252, 3315.341
541.9073, 3313.018
542.3894, 3309.231
542.8715, 3304.047
543.3536, 3299.559
543.8358, 3303.373
544.3179, 3323.592
544.8000, 3354.989
545.2821, 3373.301
545.7642, 3372.602
546.2463, 3375.057
546.7285, 3390.547
547.2106, 3407.995
547.6927, 3416.507
548.1748, 3416.986
548.6569, 3423.520
549.1390, 3450.915
549.6211, 3481.239
550.1032, 3492.723
550.5853, 3488.794
551.0674, 3486.392
551.5496, 3492.842
552.0317, 3500.592
552.5138, 3495.701
552.9959, 3468.759
553.4780, 3461.572
553.9601, 3490.820
554.4423, 3518.986
554.9244, 3528.284
555.4065, 3527.417
555.8886, 3534.922
556.3707, 3558.158
556.8528, 3575.742
557.3350, 3552.035
557.8171, 3494.136
558.2992, 3463.508
558.7813, 3473.116
559.2634, 3486.615
559.7455, 3479.311
560.2277, 3457.648
560.7098, 3443.509
561.1919, 3440.048
561.6740, 3438.795
562.1561, 3443.938
562.6382, 3445.838
563.1204, 3429.271
563.6025, 3396.709
564.0846, 3367.733
564.5667, 3357.144
565.0488, 3359.853
565.5309, 3355.156
566.0131, 3339.362
566.4952, 3325.530
566.9773, 3321.706
567.4594, 3315.623
567.9415, 3295.113
568.4236, 3263.941
568.9058, 3240.362
569.3879, 3236.400
569.8700, 3239.370
570.3521, 3239.284
570.8342, 3235.556
571.3163, 3224.696
571.7985, 3205.072
572.2806, 3183.592
572.7627, 3168.637
573.2448, 3160.804
573.7269, 3153.509
574.2090, 3151.315
574.6912, 3144.093
575.1733, 3119.098
575.6554, 3093.113
576.1375, 3090.004
576.6196, 3112.780
577.1017, 3133.793
577.5839, 3123.079
578.0660, 3090.604
578.5481, 3070.212
579.0302, 3063.407
579.5123, 3060.093
579.9944, 3057.172
580.4766, 3053.842
580.9587, 3048.720
581.4408, 3042.198
581.9229, 3032.988
582.4050, 3016.896
582.8871, 3001.761
583.3693, 2991.665
583.8514, 2986.861
584.3335, 2988.012
584.8156, 2995.524
585.2977, 3004.676
585.7798, 3009.482
586.2620, 3010.330
586.7441, 3000.030
587.2262, 2967.757
587.7083, 2941.490
588.1904, 2942.695
588.6725, 2958.828
589.1547, 2970.452
589.6368, 2974.783
590.1189, 2975.167
590.6010, 2970.600
591.0831, 2964.405
591.5652, 2962.667
592.0474, 2964.522
592.5295, 2961.024
593.0116, 2945.042
593.4937, 2923.086
593.9758, 2917.494
594.4579, 2942.250
594.9401, 2950.145
595.4222, 2918.116
595.9043, 2885.731
596.3864, 2872.885
596.8685, 2875.494
597.3506, 2881.223
597.8328, 2886.504
598.3149, 2891.588
598.7970, 2899.451
599.2791, 2907.080
599.7612, 2905.133
600.2433, 2891.769
600.7255, 2875.991
601.2076, 2864.702
601.6897, 2857.834
602.1718, 2854.948
602.6539, 2862.892
603.1360, 2865.371
603.6182, 2853.996
604.1003, 2842.460
604.5824, 2843.104
605.0645, 2853.905
605.5466, 2862.542
606.0287, 2860.490
606.5109, 2854.471
606.9930, 2857.243
607.4751, 2866.880
607.9572, 2866.425
608.4393, 2849.606
608.9214, 2829.745
609.4036, 2820.131
609.8857, 2820.826
610.3678, 2820.909
610.8499, 2826.847
611.3320, 2824.140
611.8141, 2795.393
612.2963, 2765.185
612.7784, 2763.949
613.2605, 2790.530
613.7426, 2814.674
614.2247, 2811.828
614.7068, 2791.796
615.1890, 2777.636
615.6711, 2769.493
616.1532, 2764.391
616.6353, 2762.651
617.1174, 2761.574
617.5995, 2757.181
618.0817, 2749.383
618.5638, 2746.079
619.0459, 2751.205
619.5280, 2756.668
620.0101, 2761.000
620.4922, 2763.089
620.9744, 2761.791
621.4565, 2756.887
621.9386, 2748.298
622.4207, 2733.173
622.9028, 2715.476
623.3849, 2714.384
623.8671, 2734.092
624.3492, 2745.067
624.8313, 2733.109
625.3134, 2714.712
625.7955, 2711.370
626.2776, 2722.054
626.7598, 2727.502
627.2419, 2719.823
627.7240, 2712.004
628.2061, 2710.524
628.6882, 2713.083
629.1703, 2718.054
629.6525, 2723.993
630.1346, 2725.634
630.6167, 2715.593
631.0988, 2697.158
631.5809, 2689.621
632.0630, 2695.621
632.5452, 2702.106
633.0273, 2704.712
633.5094, 2706.633
633.9915, 2714.929
634.4736, 2728.878
634.9557, 2730.493
635.4379, 2705.508
635.9200, 2678.545
636.4021, 2660.947
636.8842, 2651.348
637.3663, 2648.144
637.8484, 2650.318
638.3306, 2655.242
638.8127, 2661.244
639.2948, 2667.551
639.7769, 2668.530
640.2590, 2662.325
640.7411, 2657.508
641.2233, 2658.097
641.7054, 2659.545
642.1875, 2656.202
642.6696, 2648.595
643.1517, 2643.568
643.6339, 2640.782
644.1160, 2642.785
644.5981, 2655.497
645.0802, 2672.124
