##NAMES=Levyne-Na
##RRUFFID=R060021
##IDEAL CHEMISTRY=Na_6_(Si_12_Al_6_)O_36_&#183;18H_2_O
##LOCALITY=Dallas, Oregon, USA
##OWNER=RRUFF
##SOURCE=Bob Downs
##DESCRIPTION=White tabular hexagonal-shaped crystals associated with analcime, R060023
##STATUS=The identification of this mineral has been confirmed by X-ray diffraction and chemical analysis
##URL=rruff.info/R060021
##MEASURED CHEMISTRY=(Na_0.70_Ca_0.26_K_0.04_)_6_(Si_0.58_Al_0.42_)_18_O_36_Â·18H_2_O
118.0759, 28.38190
118.5580, 28.14860
119.0401, 27.89144
119.5222, 27.60653
120.0043, 27.33925
120.4864, 27.15573
120.9686, 27.04400
121.4507, 26.93831
121.9328, 26.85784
122.4149, 26.77057
122.8970, 26.58250
123.3791, 26.21723
123.8613, 25.82905
124.3434, 25.55271
124.8255, 25.38235
125.3076, 25.25413
125.7897, 25.12291
126.2718, 24.98770
126.7540, 24.86180
127.2361, 24.75651
127.7182, 24.65552
128.2003, 24.55603
128.6824, 24.45570
129.1645, 24.34773
129.6467, 24.21893
130.1288, 24.06268
130.6109, 23.89740
131.0930, 23.70084
131.5751, 23.51003
132.0572, 23.36221
132.5394, 23.27265
133.0215, 23.21996
133.5036, 23.13594
133.9857, 22.96785
134.4678, 22.82603
134.9499, 22.74510
135.4321, 22.69400
135.9142, 22.61528
136.3963, 22.46837
136.8784, 22.27392
137.3605, 22.16869
137.8426, 22.24896
138.3248, 22.30581
138.8069, 22.22374
139.2890, 22.02211
139.7711, 21.81744
140.2532, 21.68343
140.7353, 21.61390
141.2175, 21.55892
141.6996, 21.52327
142.1817, 21.49693
142.6638, 21.47690
143.1459, 21.46846
143.6280, 21.44121
144.1102, 21.35727
144.5923, 21.24050
145.0744, 21.12724
145.5565, 21.03029
146.0386, 20.94763
146.5207, 20.87666
147.0029, 20.83633
147.4850, 20.77766
147.9671, 20.65381
148.4492, 20.49437
148.9313, 20.36448
149.4134, 20.33130
149.8955, 20.39928
150.3777, 20.40350
150.8598, 20.25603
151.3419, 20.11405
151.8240, 20.02343
152.3061, 19.98550
152.7882, 19.98268
153.2704, 20.00716
153.7525, 20.09032
154.2346, 20.08405
154.7167, 19.93834
155.1988, 19.76302
155.6809, 19.60810
156.1631, 19.48677
156.6452, 19.39746
157.1273, 19.34001
157.6094, 19.33697
158.0915, 19.32029
158.5736, 19.27977
159.0558, 19.23093
159.5379, 19.19191
160.0200, 19.16855
160.5021, 19.14633
160.9842, 19.09789
161.4663, 19.01926
161.9485, 18.93471
162.4306, 18.83190
162.9127, 18.72791
163.3948, 18.65668
163.8769, 18.63501
164.3590, 18.64292
164.8412, 18.65047
165.3233, 18.65982
165.8054, 18.66103
166.2875, 18.65354
166.7696, 18.63571
167.2517, 18.59259
167.7339, 18.49729
168.2160, 18.39132
168.6981, 18.31471
169.1802, 18.27152
169.6623, 18.25355
170.1444, 18.26927
170.6266, 18.33007
171.1087, 18.35240
171.5908, 18.25895
172.0729, 18.14679
172.5550, 18.08383
173.0371, 18.09080
173.5193, 18.13319
174.0014, 18.15737
174.4835, 18.16202
174.9656, 18.14815
175.4477, 18.10328
175.9298, 18.05014
176.4120, 18.00714
176.8941, 17.98197
177.3762, 17.97134
177.8583, 17.96700
178.3404, 17.98000
178.8225, 17.98476
179.3047, 17.97521
179.7868, 17.95793
180.2689, 17.94051
180.7510, 17.92701
181.2331, 17.91589
181.7152, 17.90033
182.1974, 17.86901
182.6795, 17.84590
183.1616, 17.82829
183.6437, 17.82199
184.1258, 17.84203
184.6079, 17.90155
185.0900, 17.98977
185.5722, 18.03449
186.0543, 18.04507
186.5364, 18.01556
187.0185, 17.91498
187.5006, 17.76577
187.9827, 17.63189
188.4649, 17.54885
188.9470, 17.51744
189.4291, 17.51542
189.9112, 17.57997
190.3933, 17.64004
190.8754, 17.65338
191.3576, 17.62129
191.8397, 17.55708
192.3218, 17.44392
192.8039, 17.30992
193.2860, 17.21745
193.7681, 17.19038
194.2503, 17.19194
194.7324, 17.18530
195.2145, 17.16885
195.6966, 17.15515
196.1787, 17.16468
196.6608, 17.17779
197.1430, 17.16789
197.6251, 17.11786
198.1072, 17.05020
198.5893, 17.00319
199.0714, 16.98313
199.5535, 16.96728
200.0357, 16.96398
200.5178, 16.95394
200.9999, 16.90789
201.4820, 16.80204
201.9641, 16.66411
202.4462, 16.57807
202.9284, 16.59186
203.4105, 16.57679
203.8926, 16.46516
204.3747, 16.31660
204.8568, 16.20432
205.3389, 16.16983
205.8211, 16.20015
206.3032, 16.24144
206.7853, 16.35155
207.2674, 16.39639
207.7495, 16.30488
208.2316, 16.14472
208.7138, 16.00693
209.1959, 15.94615
209.6780, 15.95403
210.1601, 15.97246
210.6422, 16.04766
211.1243, 16.08388
211.6065, 16.04190
212.0886, 15.95161
212.5707, 15.86026
213.0528, 15.79740
213.5349, 15.76092
214.0170, 15.73354
214.4992, 15.72408
214.9813, 15.71328
215.4634, 15.69416
215.9455, 15.66991
216.4276, 15.64770
216.9097, 15.63250
217.3919, 15.62333
217.8740, 15.61111
218.3561, 15.59631
218.8382, 15.57889
219.3203, 15.54979
219.8024, 15.51636
220.2845, 15.50278
220.7667, 15.53095
221.2488, 15.58827
221.7309, 15.60545
222.2130, 15.54755
222.6951, 15.48845
223.1772, 15.47130
223.6594, 15.48771
224.1415, 15.49307
224.6236, 15.44950
225.1057, 15.38294
225.5878, 15.37609
226.0699, 15.47408
226.5521, 15.57937
227.0342, 15.61877
227.5163, 15.59869
227.9984, 15.58671
228.4805, 15.62302
228.9626, 15.68694
229.4448, 15.73524
229.9269, 15.75868
230.4090, 15.77614
230.8911, 15.80545
231.3732, 15.84659
231.8553, 15.88270
232.3375, 15.90117
232.8196, 15.91302
233.3017, 15.93082
233.7838, 15.95614
234.2659, 15.98800
234.7480, 16.02822
235.2302, 16.07811
235.7123, 16.12424
236.1944, 16.15868
236.6765, 16.18871
237.1586, 16.21749
237.6407, 16.24439
238.1229, 16.27763
238.6050, 16.33745
239.0871, 16.43431
239.5692, 16.50023
240.0513, 16.46665
240.5334, 16.42440
241.0156, 16.44558
241.4977, 16.54658
241.9798, 16.66634
242.4619, 16.71557
242.9440, 16.66772
243.4261, 16.65161
243.9083, 16.71419
244.3904, 16.79758
244.8725, 16.87009
245.3546, 16.92461
245.8367, 16.96875
246.3188, 17.01436
246.8010, 17.06737
247.2831, 17.10234
247.7652, 17.10907
248.2473, 17.10486
248.7294, 17.10140
249.2115, 17.09956
249.6937, 17.08996
250.1758, 17.04897
250.6579, 16.93833
251.1400, 16.90352
251.6221, 17.00129
252.1042, 17.12116
252.5864, 17.22367
253.0685, 17.29277
253.5506, 17.30864
254.0327, 17.23252
254.5148, 17.00713
254.9969, 16.87700
255.4790, 16.88925
255.9612, 16.93857
256.4433, 16.99320
256.9254, 17.03684
257.4075, 17.04785
257.8896, 16.99754
258.3718, 16.86686
258.8539, 16.75920
259.3360, 16.64481
259.8181, 16.57277
260.3002, 16.59950
260.7823, 16.70388
261.2645, 16.80290
261.7466, 16.81617
262.2287, 16.72974
262.7108, 16.65820
263.1929, 16.58215
263.6750, 16.53451
264.1572, 16.54413
264.6393, 16.59967
265.1214, 16.66149
265.6035, 16.69817
266.0856, 16.70862
266.5677, 16.72444
267.0499, 16.75327
267.5320, 16.77889
268.0141, 16.79626
268.4962, 16.80494
268.9783, 16.80363
269.4604, 16.78902
269.9426, 16.76334
270.4247, 16.75599
270.9068, 16.78462
271.3889, 16.80872
271.8710, 16.81192
272.3531, 16.79875
272.8352, 16.77688
273.3174, 16.74559
273.7995, 16.71376
274.2816, 16.72788
274.7637, 16.81161
275.2458, 16.90260
275.7279, 17.00058
276.2101, 17.09233
276.6922, 17.14464
277.1743, 17.13700
277.6564, 17.09175
278.1385, 17.07250
278.6206, 17.08784
279.1028, 17.10597
279.5849, 17.10805
280.0670, 17.10841
280.5491, 17.14044
281.0312, 17.22314
281.5133, 17.32121
281.9955, 17.35490
282.4776, 17.30008
282.9597, 17.27970
283.4418, 17.36430
283.9239, 17.49127
284.4060, 17.55119
284.8882, 17.50743
285.3703, 17.43424
285.8524, 17.43914
286.3345, 17.52520
286.8166, 17.61552
287.2987, 17.70700
287.7809, 17.78905
288.2630, 17.84958
288.7451, 17.88662
289.2272, 17.89903
289.7093, 17.87762
290.1914, 17.82430
290.6736, 17.76788
291.1557, 17.70868
291.6378, 17.65051
292.1199, 17.60683
292.6020, 17.58019
293.0841, 17.53391
293.5663, 17.43327
294.0484, 17.28429
294.5305, 17.12801
295.0126, 16.94419
295.4947, 16.77143
295.9768, 16.65200
296.4590, 16.58494
296.9411, 16.52274
297.4232, 16.43297
297.9053, 16.32763
298.3874, 16.24383
298.8695, 16.20384
299.3517, 16.16171
299.8338, 16.07335
300.3159, 15.94686
300.7980, 15.83948
301.2801, 15.78064
301.7622, 15.75668
302.2444, 15.73570
302.7265, 15.72086
303.2086, 15.70165
303.6907, 15.66599
304.1728, 15.61960
304.6549, 15.58617
305.1371, 15.57971
305.6192, 15.58000
306.1013, 15.55324
306.5834, 15.49581
307.0655, 15.44726
307.5476, 15.42187
308.0298, 15.41774
308.5119, 15.42946
308.9940, 15.45469
309.4761, 15.49905
309.9582, 15.58806
310.4403, 15.71440
310.9225, 15.80934
311.4046, 15.83748
311.8867, 15.82589
312.3688, 15.80571
312.8509, 15.77435
313.3330, 15.76545
313.8152, 15.83470
314.2973, 15.95523
314.7794, 16.03663
315.2615, 16.02040
315.7436, 15.98107
316.2257, 16.00931
316.7079, 16.10944
317.1900, 16.20295
317.6721, 16.23702
318.1542, 16.23049
318.6363, 16.23374
319.1184, 16.25822
319.6006, 16.28349
320.0827, 16.29066
320.5648, 16.28242
321.0469, 16.27984
321.5290, 16.29518
322.0111, 16.31849
322.4933, 16.33188
322.9754, 16.33478
323.4575, 16.33022
323.9396, 16.30559
324.4217, 16.27282
324.9038, 16.27514
325.3860, 16.33784
325.8681, 16.41452
326.3502, 16.43980
326.8323, 16.41564
327.3144, 16.38502
327.7965, 16.35060
328.2787, 16.32262
328.7608, 16.31870
329.2429, 16.34211
329.7250, 16.38646
330.2071, 16.45289
330.6892, 16.53807
331.1714, 16.62557
331.6535, 16.71968
332.1356, 16.81062
332.6177, 16.89023
333.0998, 16.95808
333.5819, 17.00753
334.0641, 17.01948
334.5462, 17.01030
335.0283, 17.04228
335.5104, 17.15641
335.9925, 17.27359
336.4746, 17.33825
336.9568, 17.35946
337.4389, 17.37311
337.9210, 17.38590
338.4031, 17.41184
338.8852, 17.48675
339.3673, 17.63410
339.8495, 17.76643
340.3316, 17.85418
340.8137, 17.90138
341.2958, 17.90658
341.7779, 17.86116
342.2600, 17.80272
342.7421, 17.79638
343.2242, 17.85152
343.7064, 17.87066
344.1885, 17.78301
344.6706, 17.67677
345.1527, 17.66273
345.6348, 17.75613
346.1169, 17.87474
346.5991, 17.95223
347.0812, 17.98339
347.5633, 17.98307
348.0454, 17.92789
348.5275, 17.86070
349.0096, 17.80829
349.4918, 17.76945
349.9739, 17.73509
350.4560, 17.70353
350.9381, 17.66965
351.4202, 17.60862
351.9023, 17.48069
352.3845, 17.37604
352.8666, 17.34010
353.3487, 17.34324
353.8308, 17.32703
354.3129, 17.26589
354.7950, 17.19182
355.2772, 17.17171
355.7593, 17.24480
356.2414, 17.28544
356.7235, 17.25561
357.2056, 17.20307
357.6877, 17.17614
358.1699, 17.18293
358.6520, 17.19883
359.1341, 17.19509
359.6162, 17.16432
360.0983, 17.15771
360.5804, 17.19051
361.0626, 17.23087
361.5447, 17.26138
362.0268, 17.28402
362.5089, 17.31016
362.9910, 17.34774
363.4731, 17.39589
363.9553, 17.44527
364.4374, 17.49449
364.9195, 17.54698
365.4016, 17.60591
365.8837, 17.66777
366.3658, 17.72747
366.8480, 17.78303
367.3301, 17.83657
367.8122, 17.89240
368.2943, 17.95368
368.7764, 18.01226
369.2585, 18.05173
369.7407, 18.09968
370.2228, 18.18236
370.7049, 18.30012
371.1870, 18.43061
371.6691, 18.55338
372.1512, 18.67231
372.6334, 18.75492
373.1155, 18.78257
373.5976, 18.79424
374.0797, 18.80264
374.5618, 18.80589
375.0439, 18.79854
375.5261, 18.77810
376.0082, 18.74233
376.4903, 18.67896
376.9724, 18.56993
377.4545, 18.45618
377.9366, 18.33899
378.4188, 18.22302
378.9009, 18.11875
379.3830, 18.02892
379.8651, 17.93326
380.3472, 17.80330
380.8293, 17.63762
381.3115, 17.43816
381.7936, 17.13648
382.2757, 16.85698
382.7578, 16.68198
383.2399, 16.60114
383.7220, 16.53353
384.2042, 16.41133
384.6863, 16.23776
385.1684, 16.06251
385.6505, 15.85929
386.1326, 15.69288
386.6147, 15.60936
387.0969, 15.56984
387.5790, 15.50982
388.0611, 15.39411
388.5432, 15.25556
389.0253, 15.15699
389.5074, 15.10820
389.9896, 15.05389
390.4717, 14.95388
390.9538, 14.85396
391.4359, 14.80288
391.9180, 14.80935
392.4001, 14.81352
392.8823, 14.75883
393.3644, 14.65535
393.8465, 14.56306
394.3286, 14.49023
394.8107, 14.43361
395.2928, 14.40447
395.7750, 14.39232
396.2571, 14.35636
396.7392, 14.26259
397.2213, 14.14475
397.7034, 14.04336
398.1855, 13.95879
398.6677, 13.90428
399.1498, 13.90758
399.6319, 13.94034
400.1140, 13.93232
400.5961, 13.84747
401.0782, 13.77920
401.5604, 13.83408
402.0425, 13.95339
402.5246, 13.93683
403.0067, 13.68408
403.4888, 13.37515
403.9709, 13.30897
404.4531, 13.51264
404.9352, 13.65803
405.4173, 13.65453
405.8994, 13.58643
406.3815, 13.53061
406.8636, 13.49518
407.3458, 13.45800
407.8279, 13.39643
408.3100, 13.31465
408.7921, 13.27747
409.2742, 13.33294
409.7563, 13.37401
410.2385, 13.34934
410.7206, 13.28531
411.2027, 13.22945
411.6848, 13.20176
412.1669, 13.19241
412.6490, 13.18232
413.1311, 13.18012
413.6133, 13.16050
414.0954, 13.09470
414.5775, 13.03302
415.0596, 13.01809
415.5417, 13.04917
416.0238, 13.09405
416.5060, 13.12632
416.9881, 13.14633
417.4702, 13.13671
417.9523, 13.06299
418.4344, 12.99583
418.9165, 12.94557
419.3987, 12.91372
419.8808, 12.89983
420.3629, 12.90377
420.8450, 12.92548
421.3271, 12.97557
421.8092, 13.08932
422.2914, 13.13965
422.7735, 13.04678
423.2556, 12.94087
423.7377, 12.89888
424.2198, 12.92606
424.7019, 12.98305
425.1841, 13.04694
425.6662, 13.11557
426.1483, 13.16348
426.6304, 13.18443
427.1125, 13.19322
427.5946, 13.18318
428.0768, 13.17029
428.5589, 13.18143
429.0410, 13.23245
429.5231, 13.29639
430.0052, 13.33240
430.4873, 13.33946
430.9695, 13.37063
431.4516, 13.46802
431.9337, 13.56976
432.4158, 13.59459
432.8979, 13.54153
433.3800, 13.51428
433.8622, 13.57581
434.3443, 13.69139
434.8264, 13.80609
435.3085, 13.91545
435.7906, 14.01203
436.2727, 14.08476
436.7549, 14.13914
437.2370, 14.20313
437.7191, 14.29041
438.2012, 14.37413
438.6833, 14.44938
439.1654, 14.51033
439.6476, 14.53004
440.1297, 14.48990
440.6118, 14.44273
441.0939, 14.48230
441.5760, 14.64114
442.0581, 14.80194
442.5403, 14.98439
443.0224, 15.14897
443.5045, 15.25492
443.9866, 15.30857
444.4687, 15.34854
444.9508, 15.40226
445.4330, 15.46975
445.9151, 15.55412
446.3972, 15.65360
446.8793, 15.77250
447.3614, 15.94961
447.8435, 16.13000
448.3257, 16.23995
448.8078, 16.26067
449.2899, 16.25170
449.7720, 16.30252
450.2541, 16.43371
450.7362, 16.55320
451.2184, 16.64695
451.7005, 16.74185
452.1826, 16.86890
452.6647, 17.00613
453.1468, 17.09843
453.6289, 17.09649
454.1111, 17.04684
454.5932, 17.08150
455.0753, 17.22656
455.5574, 17.37816
456.0395, 17.51831
456.5216, 17.64093
457.0038, 17.73291
457.4859, 17.79310
457.9680, 17.84647
458.4501, 17.90893
458.9322, 17.97995
459.4143, 18.05953
459.8965, 18.15209
460.3786, 18.24024
460.8607, 18.29834
461.3428, 18.34064
461.8249, 18.40607
462.3070, 18.52184
462.7892, 18.64299
463.2713, 18.74151
463.7534, 18.81783
464.2355, 18.86913
464.7176, 18.89043
465.1997, 18.89697
465.6819, 18.91376
466.1640, 18.94137
466.6461, 18.97584
467.1282, 19.00882
467.6103, 19.05419
468.0924, 19.14374
468.5746, 19.26466
469.0567, 19.35486
469.5388, 19.36472
470.0209, 19.30689
470.5030, 19.26856
470.9851, 19.24233
471.4673, 19.24647
471.9494, 19.31343
472.4315, 19.39575
472.9136, 19.43891
473.3957, 19.43312
473.8778, 19.41973
474.3600, 19.45073
474.8421, 19.53250
475.3242, 19.61168
475.8063, 19.69955
476.2884, 19.77206
476.7705, 19.80590
477.2527, 19.82253
477.7348, 19.85338
478.2169, 19.90954
478.6990, 19.99632
479.1811, 20.14082
479.6632, 20.35588
480.1454, 20.52035
480.6275, 20.56439
481.1096, 20.58871
481.5917, 20.67406
482.0738, 20.81808
482.5559, 20.98305
483.0380, 21.17454
483.5201, 21.36733
484.0023, 21.50473
484.4844, 21.58257
484.9665, 21.68440
485.4486, 21.86558
485.9307, 22.09854
486.4128, 22.30608
486.8950, 22.47066
487.3771, 22.64724
487.8592, 22.87994
488.3413, 23.12509
488.8234, 23.32515
489.3055, 23.46996
489.7877, 23.57786
490.2698, 23.65545
490.7519, 23.69783
491.2340, 23.81759
491.7161, 24.11268
492.1982, 24.36127
492.6804, 24.46141
493.1625, 24.48367
493.6446, 24.53769
494.1267, 24.66353
494.6088, 24.81103
495.0909, 24.89670
495.5731, 24.90440
496.0552, 24.90112
496.5373, 24.87362
497.0194, 24.84741
497.5015, 24.84052
497.9836, 24.84268
498.4658, 24.83189
498.9479, 24.79777
499.4300, 24.74167
499.9121, 24.66706
500.3942, 24.57578
500.8763, 24.45678
501.3585, 24.29980
501.8406, 24.11805
502.3227, 23.92250
502.8048, 23.71348
503.2869, 23.49227
503.7690, 23.26414
504.2512, 23.02176
504.7333, 22.75580
505.2154, 22.46363
505.6975, 22.15438
506.1796, 21.83429
506.6617, 21.49910
507.1439, 21.13293
507.6260, 20.69897
508.1081, 20.30056
508.5902, 20.00157
509.0723, 19.73420
509.5544, 19.41025
510.0366, 19.02160
510.5187, 18.62491
511.0008, 18.27177
511.4829, 17.96212
511.9650, 17.67102
512.4471, 17.42685
512.9293, 17.16736
513.4114, 16.85052
513.8935, 16.52658
514.3756, 16.25885
514.8577, 16.06284
515.3398, 15.89033
515.8220, 15.67029
516.3041, 15.39353
516.7862, 15.17506
517.2683, 15.05830
517.7504, 14.94757
518.2325, 14.80262
518.7147, 14.63367
519.1968, 14.45640
519.6789, 14.27047
520.1610, 14.09265
520.6431, 13.94200
521.1252, 13.81745
521.6074, 13.71367
522.0895, 13.63758
522.5716, 13.56698
523.0537, 13.47637
523.5358, 13.36835
524.0179, 13.25998
524.5001, 13.13266
524.9822, 13.02429
525.4643, 12.98168
525.9464, 12.98227
526.4285, 12.95862
526.9106, 12.88047
527.3928, 12.76970
527.8749, 12.66536
528.3570, 12.56205
528.8391, 12.47789
529.3212, 12.41647
529.8033, 12.36936
530.2855, 12.33883
530.7676, 12.31832
531.2497, 12.29456
531.7318, 12.25930
532.2139, 12.21761
532.6960, 12.18438
533.1782, 12.16551
533.6603, 12.13830
534.1424, 12.09881
534.6245, 12.04970
535.1066, 11.97598
535.5887, 11.88877
536.0709, 11.83228
536.5530, 11.85690
537.0351, 11.91677
537.5172, 11.92367
537.9993, 11.87539
538.4814, 11.81955
538.9636, 11.77069
539.4457, 11.72939
539.9278, 11.69270
540.4099, 11.65746
540.8920, 11.64259
541.3741, 11.67536
541.8563, 11.71624
542.3384, 11.71873
542.8205, 11.68694
543.3026, 11.66807
543.7847, 11.69832
544.2668, 11.75147
544.7490, 11.73014
545.2311, 11.51611
545.7132, 11.39151
546.1953, 11.43282
546.6774, 11.50923
547.1595, 11.52215
547.6417, 11.47235
548.1238, 11.42053
548.6059, 11.41187
549.0880, 11.43797
549.5701, 11.47057
550.0522, 11.52161
550.5344, 11.54746
551.0165, 11.50772
551.4986, 11.45437
551.9807, 11.42063
552.4628, 11.41030
552.9449, 11.42483
553.4271, 11.49658
553.9092, 11.58195
554.3913, 11.59735
554.8734, 11.53859
555.3555, 11.46478
555.8376, 11.39855
556.3198, 11.34502
556.8019, 11.31735
557.2840, 11.31331
557.7661, 11.33425
558.2482, 11.41502
558.7303, 11.49681
559.2125, 11.52167
559.6946, 11.49265
560.1767, 11.45108
560.6588, 11.42380
561.1409, 11.41087
561.6230, 11.41450
562.1052, 11.45736
562.5873, 11.47707
563.0694, 11.44011
563.5515, 11.40235
564.0336, 11.41756
564.5157, 11.47582
564.9979, 11.51298
565.4800, 11.46828
565.9621, 11.37995
566.4442, 11.35191
566.9263, 11.39320
567.4084, 11.43494
567.8906, 11.46426
568.3727, 11.46999
568.8548, 11.42929
569.3369, 11.33803
569.8190, 11.27041
570.3011, 11.27773
570.7833, 11.30286
571.2654, 11.28071
571.7475, 11.21830
572.2296, 11.16818
572.7117, 11.15926
573.1938, 11.17473
573.6760, 11.17456
574.1581, 11.15938
574.6402, 11.12491
575.1223, 11.05074
575.6044, 10.97685
576.0865, 10.92404
576.5687, 10.89144
577.0508, 10.86911
577.5329, 10.85079
578.0150, 10.84179
578.4971, 10.86439
578.9792, 10.93091
579.4614, 10.95757
579.9435, 10.91168
580.4256, 10.83925
580.9077, 10.76939
581.3898, 10.70280
581.8719, 10.63900
582.3541, 10.57144
582.8362, 10.51285
583.3183, 10.47771
583.8004, 10.46295
584.2825, 10.46221
584.7646, 10.47651
585.2468, 10.48782
585.7289, 10.46978
586.2110, 10.41427
586.6931, 10.37767
587.1752, 10.36228
587.6573, 10.36213
588.1394, 10.39266
588.6215, 10.43109
589.1036, 10.43834
589.5858, 10.40255
590.0679, 10.35593
590.5500, 10.35199
591.0321, 10.39928
591.5142, 10.39321
591.9963, 10.28910
592.4785, 10.19732
592.9606, 10.17899
593.4427, 10.19517
593.9248, 10.18887
594.4069, 10.14203
594.8890, 10.09683
595.3712, 10.08631
595.8533, 10.10004
596.3354, 10.11791
596.8175, 10.13784
597.2996, 10.14681
597.7817, 10.13033
598.2639, 10.09582
598.7460, 10.08448
599.2281, 10.12767
599.7102, 10.14826
600.1923, 10.11629
600.6744, 10.06996
601.1566, 10.03822
601.6387, 10.02638
602.1208, 10.03343
602.6029, 10.06345
603.0850, 10.10499
603.5671, 10.10893
604.0493, 10.05920
604.5314, 10.01476
605.0135, 9.994943
605.4956, 9.979418
605.9777, 9.947026
606.4598, 9.902822
606.9420, 9.878783
607.4241, 9.912872
607.9062, 9.959595
608.3883, 9.957191
608.8704, 9.914698
609.3525, 9.881533
609.8347, 9.875060
610.3168, 9.885194
610.7989, 9.901892
611.2810, 9.930276
611.7631, 9.936466
612.2452, 9.898170
612.7274, 9.862924
613.2095, 9.854571
