##NAMES=Libethenite
##RRUFFID=R050613
##IDEAL CHEMISTRY=Cu^2+^_2_PO_4_(OH)
##LOCALITY=Libethen, Banskobystricky, Slovakia
##OWNER=RRUFF
##SOURCE=University of Arizona Mineral Museum
##DESCRIPTION=Dark green wedge-shaped prismatic crystals
##STATUS=The identification of this mineral has been confirmed by X-ray diffraction and chemical analysis
##URL=rruff.info/R050613
##MEASURED CHEMISTRY=(Cu_0.98_Zn_0.02_)_2_(P_1.00_O_4_)((OH)_0.94_F_0.06_)
91.11523, 15.00305
91.59735, 14.45473
92.07947, 14.87553
92.56158, 15.99433
93.04370, 16.95947
93.52582, 17.10886
94.00793, 16.77380
94.49006, 16.69204
94.97218, 16.99891
95.45429, 17.43850
95.93641, 17.61555
96.41853, 17.53447
96.90064, 17.37665
97.38276, 17.22786
97.86488, 17.09372
98.34699, 17.05130
98.82911, 17.16091
99.31123, 17.34625
99.79334, 17.29351
100.2755, 16.92828
100.7576, 16.58466
101.2397, 16.62036
101.7218, 17.13585
102.2039, 17.55146
102.6861, 17.73140
103.1682, 17.67922
103.6503, 17.62489
104.1324, 17.58893
104.6145, 17.52783
105.0966, 17.32514
105.5788, 16.67609
106.0609, 16.43045
106.5430, 16.95778
107.0251, 18.65515
107.5072, 19.70020
107.9893, 19.63684
108.4715, 19.03905
108.9536, 18.93777
109.4357, 19.66047
109.9178, 20.58901
110.3999, 21.52647
110.8820, 22.26452
111.3642, 23.33918
111.8463, 25.06347
112.3284, 27.17872
112.8105, 28.98089
113.2926, 29.78804
113.7747, 30.68717
114.2569, 32.21773
114.7390, 34.77781
115.2211, 37.62322
115.7032, 40.48326
116.1853, 43.43408
116.6674, 46.84697
117.1496, 50.62977
117.6317, 55.07943
118.1138, 60.39599
118.5959, 66.44714
119.0780, 73.58231
119.5602, 81.96873
120.0423, 91.66601
120.5244, 102.4072
121.0065, 114.2603
121.4886, 127.0369
121.9707, 140.5467
122.4529, 155.2725
122.9350, 170.2157
123.4171, 184.2844
123.8992, 197.3524
124.3813, 210.5885
124.8634, 225.4898
125.3456, 241.3338
125.8277, 256.5439
126.3098, 269.7236
126.7919, 281.8394
127.2740, 293.9808
127.7561, 306.0898
128.2383, 318.8191
128.7204, 332.7555
129.2025, 347.9164
129.6846, 364.3931
130.1667, 382.6706
130.6488, 402.1907
131.1310, 422.2970
131.6131, 442.7901
132.0952, 464.0228
132.5773, 486.6864
133.0594, 510.8946
133.5415, 535.9573
134.0237, 562.3276
134.5058, 589.9619
134.9879, 616.1301
135.4700, 640.3635
135.9521, 663.0618
136.4343, 686.3174
136.9164, 710.4121
137.3985, 734.2167
137.8806, 757.1727
138.3627, 779.4761
138.8448, 800.6716
139.3270, 821.0046
139.8091, 840.5153
140.2912, 858.4355
140.7733, 874.2998
141.2554, 889.6852
141.7375, 906.0314
142.2197, 923.8300
142.7018, 941.6843
143.1839, 958.9876
143.6660, 975.5068
144.1481, 993.8902
144.6302, 1014.214
145.1124, 1036.214
145.5945, 1059.262
146.0766, 1084.147
146.5587, 1109.328
147.0408, 1134.981
147.5230, 1161.987
148.0051, 1185.450
148.4872, 1198.924
148.9693, 1202.104
149.4514, 1204.517
149.9335, 1206.242
150.4157, 1207.308
150.8978, 1207.636
151.3799, 1206.709
151.8620, 1206.303
152.3441, 1207.899
152.8262, 1209.935
153.3084, 1209.381
153.7905, 1204.497
154.2726, 1198.456
154.7547, 1192.483
155.2368, 1188.412
155.7189, 1181.654
156.2011, 1170.919
156.6832, 1157.060
157.1653, 1142.419
157.6474, 1127.002
158.1295, 1111.186
158.6116, 1095.075
159.0938, 1077.894
159.5759, 1061.455
160.0580, 1046.543
160.5401, 1032.778
161.0222, 1018.916
161.5044, 1003.731
161.9865, 988.7447
162.4686, 975.0143
162.9507, 963.5851
163.4328, 952.5186
163.9149, 940.8305
164.3971, 928.6198
164.8792, 916.9427
165.3613, 907.0814
165.8434, 897.6157
166.3255, 887.2014
166.8076, 874.9286
167.2898, 862.1901
167.7719, 849.3148
168.2540, 836.3826
168.7361, 824.1124
169.2182, 812.7800
169.7003, 802.3759
170.1825, 792.8903
170.6646, 784.4019
171.1467, 776.7631
171.6288, 769.3028
172.1109, 762.1224
172.5931, 756.6265
173.0752, 754.1710
173.5573, 754.0170
174.0394, 754.9880
174.5215, 756.6517
175.0036, 759.1582
175.4858, 762.5028
175.9679, 766.6937
176.4500, 772.0949
176.9321, 779.2394
177.4142, 787.9073
177.8963, 797.4514
178.3785, 808.1729
178.8606, 819.5836
179.3427, 830.3451
179.8248, 840.4341
180.3069, 851.0816
180.7890, 863.6048
181.2712, 877.6925
181.7533, 892.2628
182.2354, 906.7783
182.7175, 921.3904
183.1996, 935.8254
183.6818, 950.1465
184.1639, 964.8711
184.6460, 981.7756
185.1281, 1000.261
185.6102, 1018.078
186.0923, 1033.612
186.5745, 1047.528
187.0566, 1061.511
187.5387, 1075.983
188.0208, 1089.897
188.5029, 1102.103
188.9850, 1112.667
189.4672, 1122.864
189.9493, 1133.761
190.4314, 1144.991
190.9135, 1155.096
191.3956, 1163.904
191.8777, 1171.733
192.3599, 1179.794
192.8420, 1188.062
193.3241, 1194.568
193.8062, 1198.263
194.2883, 1199.245
194.7704, 1198.296
195.2526, 1195.434
195.7347, 1190.650
196.2168, 1183.941
196.6989, 1175.294
197.1810, 1164.681
197.6632, 1152.054
198.1453, 1137.296
198.6274, 1120.598
199.1095, 1101.457
199.5916, 1081.018
200.0737, 1061.836
200.5559, 1043.885
201.0380, 1026.795
201.5201, 1010.519
202.0022, 994.9496
202.4843, 979.8553
202.9664, 965.0879
203.4486, 950.9567
203.9307, 938.3512
204.4128, 927.6964
204.8949, 917.3616
205.3770, 906.1633
205.8591, 893.7592
206.3413, 882.9221
206.8234, 873.8740
207.3055, 866.3808
207.7876, 859.9745
208.2697, 854.8307
208.7519, 850.3138
209.2340, 846.1310
209.7161, 842.3259
210.1982, 838.4440
210.6803, 834.0705
211.1624, 829.8195
211.6446, 827.6320
212.1267, 828.2037
212.6088, 829.1984
213.0909, 829.1348
213.5730, 827.3430
214.0551, 827.2039
214.5373, 829.2303
215.0194, 832.8842
215.5015, 836.5085
215.9836, 839.5594
216.4657, 843.7673
216.9478, 850.2653
217.4300, 859.6758
217.9121, 869.3854
218.3942, 879.0987
218.8763, 889.0117
219.3584, 899.6092
219.8405, 910.7590
220.3227, 922.6570
220.8048, 935.5211
221.2869, 949.9422
221.7690, 963.9984
222.2511, 978.1458
222.7333, 991.6923
223.2154, 1002.202
223.6975, 1009.514
224.1796, 1014.284
224.6617, 1017.145
225.1438, 1019.155
225.6260, 1016.493
226.1081, 1008.463
226.5902, 995.9005
227.0723, 981.3500
227.5544, 964.5557
228.0365, 945.9372
228.5187, 925.4772
229.0008, 902.4974
229.4829, 879.2777
229.9650, 855.0510
230.4471, 830.6364
230.9292, 808.0775
231.4114, 787.6211
231.8935, 768.1221
232.3756, 749.2101
232.8577, 730.0494
233.3398, 712.6844
233.8220, 697.3412
234.3041, 683.6646
234.7862, 671.2541
235.2683, 660.4721
235.7504, 650.4543
236.2325, 640.6692
236.7147, 630.9957
237.1968, 622.3717
237.6789, 615.1254
238.1610, 608.8285
238.6431, 602.4749
239.1252, 595.4623
239.6074, 589.2499
240.0895, 584.4758
240.5716, 581.6686
241.0537, 578.9103
241.5358, 576.0735
242.0179, 573.3417
242.5001, 571.0912
242.9822, 569.4525
243.4643, 568.0516
243.9464, 566.7285
244.4285, 565.3825
244.9106, 564.3974
245.3928, 563.8917
245.8749, 563.6400
246.3570, 563.3334
246.8391, 563.2552
247.3212, 562.6133
247.8034, 561.1444
248.2855, 558.7741
248.7676, 555.7869
249.2497, 551.8187
249.7318, 547.4942
250.2139, 543.8513
250.6961, 541.4837
251.1782, 538.7162
251.6603, 534.8938
252.1424, 529.7366
252.6245, 525.1762
253.1066, 521.3603
253.5888, 517.9817
254.0709, 514.5536
254.5530, 510.9001
255.0351, 507.5314
255.5172, 504.5524
255.9993, 501.9220
256.4815, 499.9305
256.9636, 498.7222
257.4457, 498.0149
257.9278, 497.4708
258.4099, 497.0041
258.8921, 496.9026
259.3742, 497.3180
259.8563, 498.2555
260.3384, 499.0332
260.8205, 499.3779
261.3026, 499.9175
261.7848, 501.3701
262.2669, 504.0289
262.7490, 506.7720
263.2311, 509.4111
263.7132, 511.9521
264.1953, 514.2198
264.6775, 515.9696
265.1596, 517.8146
265.6417, 520.4540
266.1238, 524.2621
266.6059, 527.5303
267.0880, 529.8918
267.5702, 531.4531
268.0523, 532.8016
268.5344, 534.0056
269.0165, 534.8882
269.4986, 535.2501
269.9807, 534.9662
270.4629, 534.7292
270.9450, 534.6383
271.4271, 534.6566
271.9092, 534.5694
272.3913, 534.2542
272.8734, 534.1758
273.3556, 534.5504
273.8377, 535.3297
274.3198, 536.9619
274.8019, 539.7714
275.2840, 543.2698
275.7661, 545.9934
276.2483, 547.6868
276.7304, 549.6356
277.2125, 552.8215
277.6946, 557.3938
278.1768, 561.1073
278.6589, 563.5676
279.1410, 565.4611
279.6231, 568.3204
280.1052, 572.3431
280.5873, 576.2135
281.0695, 578.9648
281.5516, 580.6349
282.0337, 582.9932
282.5158, 586.0094
282.9979, 589.8835
283.4800, 595.2448
283.9622, 602.1550
284.4443, 609.1345
284.9264, 615.2617
285.4085, 620.6767
285.8906, 627.2322
286.3727, 635.0250
286.8549, 643.5738
287.3370, 652.2796
287.8191, 661.1506
288.3012, 670.4884
288.7833, 680.2317
289.2654, 690.4330
289.7476, 701.3930
290.2297, 713.0765
290.7118, 725.8048
291.1939, 740.0726
291.6760, 755.6819
292.1581, 772.2319
292.6403, 789.8177
293.1224, 808.1097
293.6045, 827.0087
294.0866, 846.3649
294.5687, 865.7980
295.0508, 884.8656
295.5330, 903.7563
296.0151, 922.9307
296.4972, 943.4472
296.9793, 963.5644
297.4614, 980.4681
297.9435, 994.2626
298.4257, 1004.245
298.9078, 1009.759
299.3899, 1011.045
299.8720, 1008.513
300.3541, 1002.261
300.8362, 992.1097
301.3184, 977.0428
301.8005, 957.5055
302.2826, 935.9908
302.7647, 912.3271
303.2469, 888.0052
303.7290, 864.5590
304.2111, 842.3159
304.6932, 821.2142
305.1753, 801.8777
305.6574, 783.9396
306.1396, 767.3011
306.6217, 751.7825
307.1038, 737.3781
307.5859, 724.1723
308.0680, 712.0886
308.5501, 700.7415
309.0323, 690.2397
309.5144, 680.1882
309.9965, 670.0035
310.4786, 659.0652
310.9607, 648.0556
311.4428, 637.3797
311.9250, 627.0949
312.4071, 617.0674
312.8892, 607.3192
313.3713, 597.9958
313.8534, 589.1769
314.3355, 581.0944
314.8177, 573.4434
315.2998, 566.2166
315.7819, 559.3806
316.2640, 552.5426
316.7461, 545.0152
317.2282, 537.7855
317.7104, 531.5553
318.1925, 526.9039
318.6746, 522.6387
319.1567, 518.4929
319.6388, 514.4189
320.1209, 510.4058
320.6031, 506.1895
321.0852, 502.2259
321.5673, 498.7727
322.0494, 496.1157
322.5315, 493.3913
323.0136, 490.1466
323.4958, 486.7774
323.9779, 483.9243
324.4600, 482.2604
324.9421, 480.6200
325.4242, 478.5743
325.9064, 475.9433
326.3885, 473.6005
326.8706, 471.7445
327.3527, 470.1667
327.8348, 468.6199
328.3170, 466.9034
328.7991, 465.4173
329.2812, 464.2773
329.7633, 463.4806
330.2454, 462.7279
330.7275, 462.0585
331.2097, 461.3906
331.6918, 460.6606
332.1739, 459.7816
332.6560, 458.9374
333.1381, 458.0540
333.6202, 457.1953
334.1024, 456.8334
334.5845, 457.5083
335.0666, 457.8749
335.5487, 457.0108
336.0308, 454.1198
336.5129, 452.4410
336.9951, 452.5320
337.4772, 453.5590
337.9593, 453.7608
338.4414, 452.8976
338.9235, 451.9463
339.4056, 451.2943
339.8878, 450.9775
340.3699, 450.6493
340.8520, 450.2868
341.3341, 449.9687
341.8162, 449.8546
342.2983, 449.9792
342.7805, 449.8921
343.2626, 449.2549
343.7447, 448.2653
344.2268, 448.1573
344.7089, 449.0396
345.1910, 450.0842
345.6732, 450.4271
346.1553, 450.1611
346.6374, 450.0501
347.1195, 450.2634
347.6016, 450.6942
348.0837, 451.2029
348.5659, 451.7874
349.0480, 452.2858
349.5301, 452.4479
350.0122, 452.4514
350.4944, 452.8237
350.9765, 453.7446
351.4586, 454.6839
351.9407, 454.8282
352.4228, 454.3998
352.9049, 454.1225
353.3871, 454.0968
353.8692, 454.5516
354.3513, 456.0111
354.8334, 458.5403
355.3155, 461.1331
355.7976, 463.0374
356.2798, 464.4718
356.7619, 465.8108
357.2440, 466.9519
357.7261, 468.2101
358.2082, 469.9645
358.6903, 472.1231
359.1725, 474.0860
359.6546, 475.2777
360.1367, 476.2481
360.6188, 477.4949
361.1009, 479.3554
361.5830, 481.1435
362.0652, 482.2529
362.5473, 483.0483
363.0294, 484.4264
363.5115, 487.4173
363.9936, 490.5228
364.4757, 492.8992
364.9579, 494.2257
365.4400, 495.6690
365.9221, 497.7332
366.4042, 499.9828
366.8863, 501.8643
367.3684, 502.5448
367.8506, 503.6289
368.3327, 505.7840
368.8148, 509.1492
369.2969, 511.8104
369.7790, 513.3575
370.2611, 514.4968
370.7433, 515.7230
371.2254, 517.2416
371.7075, 518.4765
372.1896, 519.1549
372.6717, 519.4901
373.1538, 520.4070
373.6360, 522.2173
374.1181, 524.0841
374.6002, 525.5621
375.0823, 526.5122
375.5645, 527.5532
376.0466, 528.5785
376.5287, 529.7955
377.0108, 531.6682
377.4929, 534.3110
377.9750, 536.8998
378.4572, 538.9901
378.9393, 540.7005
379.4214, 542.9962
379.9035, 545.8360
380.3856, 549.3713
380.8677, 554.0904
381.3499, 559.8762
381.8320, 565.0496
382.3141, 568.9238
382.7962, 572.3992
383.2783, 577.7430
383.7604, 584.8303
384.2426, 591.9731
384.7247, 598.5447
385.2068, 604.2914
385.6889, 608.7751
386.1710, 611.7405
386.6531, 614.1471
387.1353, 617.7736
387.6174, 621.7567
388.0995, 623.9024
388.5816, 622.9944
389.0637, 619.8870
389.5458, 615.4037
390.0280, 609.5356
390.5101, 602.2065
390.9922, 592.4447
391.4743, 581.5910
391.9564, 571.0068
392.4385, 561.4714
392.9207, 551.9262
393.4028, 541.5804
393.8849, 530.8193
394.3670, 520.7331
394.8491, 511.7105
395.3312, 503.5983
395.8134, 496.3187
396.2955, 489.8683
396.7776, 484.1961
397.2597, 479.9001
397.7418, 476.2579
398.2239, 472.2927
398.7061, 467.3113
399.1882, 462.6214
399.6703, 458.3273
400.1524, 454.3972
400.6346, 451.5753
401.1167, 450.4670
401.5988, 449.9717
402.0809, 449.4683
402.5630, 449.4478
403.0451, 448.3459
403.5273, 445.4510
404.0094, 441.5889
404.4915, 439.2440
404.9736, 438.8933
405.4557, 438.8835
405.9378, 438.5437
406.4200, 437.8502
406.9021, 437.1055
407.3842, 436.3667
407.8663, 435.4695
408.3484, 433.9961
408.8305, 431.9267
409.3127, 430.4005
409.7948, 429.9318
410.2769, 430.1186
410.7590, 429.8927
411.2411, 429.2579
411.7232, 428.4376
412.2054, 427.3445
412.6875, 426.1820
413.1696, 425.6050
413.6517, 425.7904
414.1338, 426.2547
414.6159, 426.6227
415.0981, 426.8340
415.5802, 426.7205
416.0623, 425.8487
416.5444, 424.7954
417.0265, 424.1027
417.5086, 423.7759
417.9908, 423.7625
418.4729, 424.2418
418.9550, 424.9271
419.4371, 425.5168
419.9192, 426.0409
420.4013, 426.3183
420.8835, 426.1621
421.3656, 425.6874
421.8477, 425.2313
422.3298, 424.7584
422.8119, 424.4510
423.2940, 424.3946
423.7762, 424.6246
424.2583, 425.0415
424.7404, 425.8235
425.2225, 426.7129
425.7047, 427.4382
426.1868, 427.9757
426.6689, 428.3631
427.1510, 428.4596
427.6331, 428.3263
428.1152, 428.7129
428.5974, 429.9456
429.0795, 431.2184
429.5616, 432.0650
430.0437, 432.4141
430.5258, 432.5317
431.0079, 432.1960
431.4901, 431.9167
431.9722, 432.8920
432.4543, 435.2814
432.9364, 437.2122
433.4185, 437.5662
433.9006, 436.8273
434.3828, 437.3403
434.8649, 439.1837
435.3470, 441.3181
435.8291, 442.9192
436.3112, 444.0661
436.7933, 444.9557
437.2755, 445.5957
437.7576, 446.0984
438.2397, 446.3737
438.7218, 446.5729
439.2039, 447.1900
439.6860, 448.4388
440.1682, 450.2905
440.6503, 452.9276
441.1324, 456.4104
441.6145, 459.6546
442.0966, 461.9811
442.5787, 463.7235
443.0609, 465.2374
443.5430, 466.4185
444.0251, 467.5919
444.5072, 468.8769
444.9893, 470.2377
445.4714, 471.5734
445.9536, 472.8134
446.4357, 474.0776
446.9178, 475.4528
447.3999, 477.0630
447.8820, 478.4955
448.3641, 479.7933
448.8463, 480.9123
449.3284, 481.8288
449.8105, 482.5706
450.2926, 483.0826
450.7747, 483.4229
451.2569, 483.5409
451.7390, 483.0069
452.2211, 481.5304
452.7032, 480.0995
453.1853, 479.4059
453.6674, 479.4954
454.1496, 479.1668
454.6317, 478.2436
455.1138, 477.1876
455.5959, 476.9451
456.0780, 477.3927
456.5602, 477.1806
457.0423, 475.5867
457.5244, 473.2081
458.0065, 471.0782
458.4886, 469.2196
458.9707, 467.6109
459.4529, 466.6565
459.9350, 465.8388
460.4171, 464.3763
460.8992, 462.0440
461.3813, 459.3864
461.8634, 456.4444
462.3456, 453.5041
462.8277, 451.1104
463.3098, 449.7221
463.7919, 448.6835
464.2740, 447.8529
464.7561, 447.1755
465.2383, 446.1307
465.7204, 444.0133
466.2025, 441.8370
466.6846, 440.2413
467.1667, 439.4745
467.6488, 438.9991
468.1310, 439.0925
468.6131, 439.3624
469.0952, 439.1611
469.5773, 438.1770
470.0594, 437.2250
470.5415, 436.5433
471.0237, 436.1201
471.5058, 435.4102
471.9879, 434.2449
472.4700, 433.1761
472.9521, 432.6330
473.4342, 432.6290
473.9164, 432.9141
474.3985, 433.5877
474.8806, 434.2978
475.3627, 434.4780
475.8448, 434.1502
476.3270, 433.5303
476.8091, 432.6683
477.2912, 431.5995
477.7733, 430.2133
478.2554, 428.5480
478.7375, 427.1867
479.2197, 426.8488
479.7018, 426.9872
480.1839, 426.8409
480.6660, 426.1859
481.1481, 425.4372
481.6302, 424.7252
482.1124, 424.1241
482.5945, 423.7598
483.0766, 423.8124
483.5587, 423.9886
484.0408, 424.3201
484.5229, 424.7819
485.0051, 424.8235
485.4872, 423.8553
485.9693, 422.7826
486.4514, 422.1450
486.9335, 422.1178
487.4156, 422.2458
487.8978, 422.7723
488.3799, 423.3279
488.8620, 423.2376
489.3441, 422.0973
489.8262, 421.3588
490.3083, 421.5905
490.7905, 422.5938
491.2726, 422.7413
491.7547, 421.8589
492.2368, 420.9896
492.7189, 421.1081
493.2010, 422.0323
493.6832, 422.3938
494.1653, 421.9423
494.6474, 421.4050
495.1295, 421.9610
495.6116, 423.2284
496.0938, 424.0165
496.5759, 423.3322
497.0580, 422.3724
497.5401, 422.6754
498.0222, 423.9818
498.5044, 424.9556
498.9865, 424.4483
499.4686, 423.5540
499.9507, 423.1968
500.4328, 423.6736
500.9149, 424.0649
501.3971, 423.7119
501.8792, 423.2459
502.3613, 423.3929
502.8434, 425.4289
503.3255, 426.7681
503.8076, 426.4224
504.2898, 424.8827
504.7719, 424.5299
505.2540, 426.3243
505.7361, 427.8769
506.2182, 428.0654
506.7003, 426.6144
507.1825, 425.5483
507.6646, 424.9030
508.1467, 424.5682
508.6288, 424.4711
509.1109, 424.6149
509.5930, 424.8788
510.0752, 425.3119
510.5573, 425.7585
511.0394, 425.7007
511.5215, 425.2697
512.0037, 425.2757
512.4858, 426.9593
512.9679, 429.0075
513.4500, 429.0850
513.9321, 427.1527
514.4142, 425.6816
514.8964, 427.2665
515.3785, 429.8282
515.8606, 431.0258
516.3427, 429.4300
516.8248, 427.9688
517.3069, 427.8834
517.7891, 428.6891
518.2712, 429.4933
518.7533, 430.2076
519.2354, 430.7878
519.7175, 431.1524
520.1996, 431.3107
520.6818, 431.5630
521.1639, 431.8824
521.6460, 432.3336
522.1281, 433.0382
522.6102, 434.1924
523.0923, 434.8287
523.5745, 434.8365
524.0566, 434.4694
524.5387, 433.8721
525.0208, 433.0404
525.5029, 432.8497
525.9850, 433.7722
526.4672, 435.3003
526.9493, 436.3747
527.4314, 437.0420
527.9135, 437.6410
528.3956, 438.6595
528.8777, 439.6410
529.3599, 439.7160
529.8420, 438.7409
530.3241, 438.0433
530.8062, 438.7980
531.2883, 440.1992
531.7704, 441.3042
532.2526, 441.3127
532.7347, 441.7384
533.2168, 443.5370
533.6989, 446.0807
534.1810, 447.9432
534.6631, 448.3804
535.1453, 448.6342
535.6274, 448.8194
536.1095, 448.9163
536.5916, 449.8992
537.0737, 452.1408
537.5558, 454.7137
538.0380, 456.8986
538.5201, 458.5728
539.0022, 460.8502
539.4843, 463.7973
539.9664, 467.2711
540.4485, 471.2702
540.9307, 475.6772
541.4128, 479.6386
541.8949, 482.5309
542.3770, 485.0845
542.8591, 488.3961
543.3412, 492.4080
543.8234, 497.0460
544.3055, 502.6539
544.7876, 508.6226
545.2697, 514.1492
545.7518, 519.0906
546.2339, 524.5074
546.7161, 530.8340
547.1982, 537.8754
547.6803, 545.6180
548.1624, 554.5209
548.6445, 563.4674
549.1266, 571.7822
549.6088, 580.1484
550.0909, 589.9797
550.5730, 602.2942
551.0551, 614.5351
551.5372, 625.9343
552.0193, 636.6272
552.5015, 647.3226
552.9836, 657.9688
553.4657, 668.8232
553.9478, 680.8666
554.4299, 693.7507
554.9120, 703.9216
555.3942, 711.0536
555.8763, 715.6321
556.3584, 718.7072
556.8405, 719.6244
557.3226, 716.6763
557.8047, 708.9645
558.2869, 697.6869
558.7690, 682.6684
559.2511, 664.8871
559.7332, 646.9547
560.2154, 628.8915
560.6975, 612.0047
561.1796, 596.8024
561.6617, 583.3298
562.1439, 571.2395
562.6260, 560.1937
563.1081, 550.8091
563.5902, 543.2173
564.0723, 537.9901
564.5544, 533.3562
565.0366, 529.3101
565.5187, 525.8000
566.0008, 522.8058
566.4829, 520.3004
566.9650, 518.2933
567.4471, 516.8085
567.9293, 515.7819
568.4114, 515.0844
568.8935, 514.7126
569.3756, 514.7582
569.8577, 515.4400
570.3398, 516.5169
570.8220, 517.4993
571.3041, 518.4012
571.7862, 519.5125
572.2683, 521.2244
572.7504, 523.1644
573.2325, 524.9236
573.7147, 526.2090
574.1968, 527.8698
574.6789, 530.3967
575.1610, 533.4153
575.6431, 536.4775
576.1252, 539.5432
576.6074, 542.5944
577.0895, 545.7453
577.5716, 548.9045
578.0537, 551.6448
578.5358, 553.5700
579.0179, 556.0354
579.5001, 559.9221
579.9822, 565.1031
580.4643, 568.8406
580.9464, 570.9897
581.4285, 572.6671
581.9106, 574.8779
582.3928, 577.4171
582.8749, 579.7148
583.3570, 581.7982
583.8391, 583.1932
584.3212, 582.8666
584.8033, 581.6404
585.2855, 580.9252
585.7676, 581.7175
586.2497, 582.6243
586.7318, 583.1483
