##NAMES=Libethenite
##RRUFFID=R050613
##IDEAL CHEMISTRY=Cu^2+^_2_PO_4_(OH)
##LOCALITY=Libethen, Banskobystricky, Slovakia
##OWNER=RRUFF
##SOURCE=University of Arizona Mineral Museum
##DESCRIPTION=Dark green wedge-shaped prismatic crystals
##STATUS=The identification of this mineral has been confirmed by X-ray diffraction and chemical analysis
##URL=rruff.info/R050613
##MEASURED CHEMISTRY=(Cu_0.98_Zn_0.02_)_2_(P_1.00_O_4_)((OH)_0.94_F_0.06_)
92.06543, 62.26687
92.54755, 62.01180
93.02966, 62.24970
93.51178, 63.02388
93.99390, 63.08500
94.47601, 62.16457
94.95813, 60.58845
95.44025, 58.87561
95.92236, 57.39914
96.40448, 56.14216
96.88660, 55.23276
97.36871, 54.89063
97.85082, 54.69356
98.33294, 54.48629
98.81506, 54.21763
99.29717, 53.56871
99.77929, 52.25788
100.2614, 50.37754
100.7435, 48.56336
101.2256, 46.82565
101.7078, 45.24078
102.1899, 44.02251
102.6720, 43.21888
103.1541, 42.80754
103.6362, 42.79782
104.1183, 43.17657
104.6005, 43.49651
105.0826, 43.35057
105.5647, 42.68581
106.0468, 41.97981
106.5289, 41.37679
107.0110, 40.71658
107.4931, 39.84027
107.9753, 38.70376
108.4574, 37.48528
108.9395, 36.51095
109.4216, 35.72698
109.9037, 35.33638
110.3858, 35.52957
110.8680, 36.01014
111.3501, 36.51889
111.8322, 36.92490
112.3143, 37.20825
112.7964, 37.22546
113.2785, 36.98055
113.7607, 36.50219
114.2428, 35.56002
114.7249, 34.34375
115.2070, 33.32401
115.6891, 32.88762
116.1712, 33.03358
116.6534, 33.02729
117.1355, 32.86019
117.6176, 32.55997
118.0997, 32.02943
118.5818, 31.23874
119.0639, 30.57911
119.5461, 30.50648
120.0282, 30.87731
120.5103, 31.34520
120.9924, 31.86411
121.4745, 32.40740
121.9566, 32.95219
122.4388, 33.61393
122.9209, 34.06297
123.4030, 34.09705
123.8851, 33.77346
124.3672, 33.28526
124.8493, 32.64343
125.3315, 31.80952
125.8136, 31.35833
126.2957, 31.72089
126.7778, 32.20855
127.2599, 32.60690
127.7420, 32.86337
128.2242, 33.00385
128.7063, 33.04479
129.1884, 32.91697
129.6705, 32.82811
130.1526, 32.97084
130.6347, 33.03860
131.1169, 32.74960
131.5990, 32.02385
132.0811, 31.05164
132.5632, 30.25137
133.0453, 29.76744
133.5274, 29.28636
134.0096, 28.68744
134.4917, 28.10394
134.9738, 27.77710
135.4559, 27.85814
135.9380, 28.18185
136.4201, 28.16998
136.9023, 27.60458
137.3844, 27.06910
137.8665, 26.83681
138.3486, 26.85849
138.8307, 26.92149
139.3128, 26.95074
139.7950, 26.92139
140.2771, 26.79644
140.7592, 26.51258
141.2413, 26.19454
141.7234, 25.95278
142.2055, 25.78762
142.6877, 25.70370
143.1698, 25.81039
143.6519, 25.97334
144.1340, 26.02911
144.6161, 25.88138
145.0982, 25.60529
145.5803, 25.40045
146.0625, 25.31657
146.5446, 25.22792
147.0267, 25.05554
147.5088, 24.85236
147.9909, 24.69312
148.4730, 24.61789
148.9552, 24.62809
149.4373, 24.74829
149.9194, 25.22237
150.4015, 25.58653
150.8836, 25.70113
151.3657, 25.60039
151.8479, 25.38104
152.3300, 25.10759
152.8121, 24.73828
153.2942, 24.58125
153.7763, 24.81604
154.2584, 25.05852
154.7406, 25.11830
155.2227, 24.98319
155.7048, 24.75293
156.1869, 24.52433
156.6690, 24.28866
157.1511, 24.11023
157.6333, 24.03111
158.1154, 23.98412
158.5975, 23.87418
159.0796, 23.67695
159.5617, 23.52988
160.0438, 23.69538
160.5260, 24.19992
161.0081, 24.53199
161.4902, 24.49105
161.9723, 24.21401
162.4544, 23.92256
162.9365, 23.63213
163.4187, 23.41488
163.9008, 23.38710
164.3829, 23.53902
164.8650, 23.67225
165.3471, 23.61555
165.8292, 23.41094
166.3113, 23.35358
166.7935, 23.64734
167.2756, 23.97406
167.7577, 24.06192
168.2398, 23.90702
168.7219, 23.72536
169.2040, 23.72340
169.6862, 23.92170
170.1683, 24.15812
170.6504, 24.57942
171.1325, 24.91373
171.6146, 24.98333
172.0967, 24.76013
172.5789, 24.37329
173.0610, 23.95587
173.5431, 23.35751
174.0252, 23.10348
174.5073, 23.45815
174.9894, 23.95874
175.4716, 24.25208
175.9537, 24.23022
176.4358, 24.05610
176.9179, 24.06936
177.4000, 24.57499
177.8821, 24.84396
178.3643, 24.66362
178.8464, 24.33312
179.3285, 24.18215
179.8106, 24.34553
180.2927, 24.67454
180.7748, 24.75932
181.2570, 24.32765
181.7391, 23.99093
182.2212, 23.93056
182.7033, 23.98523
183.1854, 23.87801
183.6675, 23.45291
184.1497, 22.85281
184.6318, 22.55155
185.1139, 22.67979
185.5960, 22.82158
186.0781, 22.84355
186.5602, 22.76902
187.0423, 22.64856
187.5245, 22.46872
188.0066, 22.29575
188.4887, 22.28428
188.9708, 22.54075
189.4529, 22.77033
189.9350, 22.77649
190.4172, 22.57318
190.8993, 22.30081
191.3814, 21.92642
191.8635, 21.57630
192.3456, 21.45971
192.8277, 21.71766
193.3099, 21.97070
193.7920, 21.76066
194.2741, 21.01266
194.7562, 20.35732
195.2383, 20.06488
195.7204, 19.99247
196.2026, 20.09869
196.6847, 20.41941
197.1668, 20.77202
197.6489, 20.85244
198.1310, 20.55834
198.6131, 20.28019
199.0953, 20.10226
199.5774, 20.00061
200.0595, 20.00073
200.5416, 20.12679
201.0237, 20.26867
201.5058, 20.13715
201.9880, 19.43264
202.4701, 19.00487
202.9522, 19.19628
203.4343, 19.61319
203.9164, 19.84979
204.3985, 19.71840
204.8807, 19.35787
205.3628, 19.18686
205.8449, 19.36388
206.3270, 19.54388
206.8091, 19.72305
207.2912, 19.87262
207.7733, 19.95127
208.2555, 19.93600
208.7376, 19.85889
209.2197, 19.83936
209.7018, 20.00476
210.1839, 20.08466
210.6660, 20.02526
211.1482, 19.86914
211.6303, 19.64243
212.1124, 19.34567
212.5945, 19.03646
213.0766, 18.96001
213.5587, 19.34922
214.0409, 19.67543
214.5230, 19.78926
215.0051, 19.77350
215.4872, 19.79973
215.9693, 19.97358
216.4514, 20.21687
216.9336, 20.21298
217.4157, 19.80025
217.8978, 19.41284
218.3799, 19.22368
218.8620, 19.17035
219.3441, 19.08203
219.8263, 18.85439
220.3084, 18.56873
220.7905, 18.45053
221.2726, 18.59444
221.7547, 18.72058
222.2368, 18.67051
222.7190, 18.47948
223.2011, 18.27541
223.6832, 18.06285
224.1653, 17.92153
224.6474, 17.99292
225.1295, 18.36891
225.6117, 18.73464
226.0938, 18.85544
226.5759, 18.75781
227.0580, 18.66633
227.5401, 18.69462
228.0222, 18.74107
228.5043, 18.64908
228.9865, 18.36701
229.4686, 18.12643
229.9507, 18.20647
230.4328, 18.60341
230.9149, 18.82821
231.3970, 18.52023
231.8792, 18.13195
232.3613, 18.10246
232.8434, 18.50553
233.3255, 18.94818
233.8076, 18.99022
234.2897, 18.58724
234.7719, 18.30676
235.2540, 18.42689
235.7361, 18.61278
236.2182, 18.65285
236.7003, 18.51898
237.1824, 18.32977
237.6646, 18.17483
238.1467, 18.03244
238.6288, 18.04722
239.1109, 18.49325
239.5930, 18.92495
240.0751, 19.05506
240.5573, 18.87318
241.0394, 18.63230
241.5215, 18.68063
242.0036, 19.15136
242.4857, 19.36308
242.9678, 18.99367
243.4500, 18.58642
243.9321, 18.40278
244.4142, 18.46836
244.8963, 18.65378
245.3784, 18.84240
245.8605, 19.07137
246.3427, 19.15936
246.8248, 18.97457
247.3069, 18.76988
247.7890, 18.66972
248.2711, 18.67664
248.7532, 18.71526
249.2354, 18.70208
249.7175, 18.61469
250.1996, 18.57378
250.6817, 18.62199
251.1638, 18.67297
251.6459, 18.68265
252.1281, 18.65416
252.6102, 18.61427
253.0923, 18.57866
253.5744, 18.52934
254.0565, 18.60670
254.5386, 18.96264
255.0208, 19.28268
255.5029, 19.42386
255.9850, 19.39611
256.4671, 19.28432
256.9492, 19.15184
257.4313, 18.99365
257.9135, 18.87993
258.3956, 18.89139
258.8777, 18.86066
259.3598, 18.63953
259.8419, 18.29777
260.3240, 18.04804
260.8062, 18.05971
261.2883, 18.33188
261.7704, 18.58473
262.2525, 18.95679
262.7346, 19.18317
263.2167, 19.05705
263.6989, 18.68344
264.1810, 18.35398
264.6631, 18.26779
265.1452, 18.38638
265.6273, 18.36075
266.1094, 17.93303
266.5916, 17.66366
267.0737, 17.89254
267.5558, 18.44259
268.0379, 18.90167
268.5200, 19.05037
269.0021, 18.93438
269.4843, 18.73643
269.9664, 18.32228
270.4485, 18.00388
270.9306, 17.92857
271.4127, 18.01979
271.8948, 18.13173
272.3770, 18.21573
272.8591, 18.25426
273.3412, 18.17957
273.8233, 17.92401
274.3054, 17.72017
274.7875, 17.59231
275.2697, 17.56928
275.7518, 17.76145
276.2339, 18.26103
276.7160, 18.85109
277.1981, 19.06821
277.6802, 18.85819
278.1623, 18.68723
278.6444, 18.75510
279.1266, 18.93144
279.6087, 18.97220
280.0908, 18.79100
280.5729, 18.55563
281.0550, 18.51801
281.5371, 18.67444
282.0193, 18.81157
282.5014, 18.90918
282.9835, 18.94531
283.4656, 18.81923
283.9477, 18.47256
284.4298, 18.20077
284.9120, 18.46572
285.3941, 19.17763
285.8762, 19.62916
286.3583, 19.43771
286.8404, 19.01966
287.3225, 18.92953
287.8047, 19.24956
288.2868, 19.57689
288.7689, 19.54511
289.2510, 19.24604
289.7331, 19.00763
290.2152, 18.92282
290.6974, 18.89729
291.1795, 18.84221
291.6616, 18.75545
292.1437, 18.65439
292.6258, 18.51711
293.1079, 18.38157
293.5901, 18.32941
294.0722, 18.37745
294.5543, 18.50164
295.0364, 18.77744
295.5185, 19.18780
296.0006, 19.38794
296.4828, 19.11156
296.9649, 18.57922
297.4470, 18.19983
297.9291, 18.01671
298.4112, 17.91339
298.8933, 17.81524
299.3755, 17.72782
299.8576, 17.69856
300.3397, 17.80582
300.8218, 17.90704
301.3039, 17.79745
301.7860, 17.44987
302.2682, 17.10520
302.7503, 16.88836
303.2324, 16.77937
303.7145, 16.71491
304.1966, 16.70603
304.6787, 16.69658
305.1609, 16.61020
305.6430, 16.45704
306.1251, 16.33290
306.6072, 16.35454
307.0893, 16.42512
307.5714, 16.27843
308.0536, 15.79124
308.5357, 15.35203
309.0178, 15.39094
309.4999, 15.75430
309.9820, 16.05073
310.4641, 16.08692
310.9463, 16.00978
311.4284, 16.08698
311.9105, 16.37369
312.3926, 16.32611
312.8747, 16.66950
313.3568, 16.87338
313.8390, 16.94526
314.3211, 16.48973
314.8032, 16.71523
315.2853, 16.66780
315.7674, 16.47781
316.2495, 16.21436
316.7317, 16.02238
317.2138, 15.89549
317.6959, 15.82130
318.1780, 15.81032
318.6601, 15.82290
319.1422, 15.85659
319.6243, 15.90127
320.1064, 15.87722
320.5886, 15.72228
321.0707, 15.52876
321.5528, 15.43774
322.0349, 15.46119
322.5170, 15.42099
322.9991, 15.13083
323.4813, 14.69931
323.9634, 14.44806
324.4455, 14.47759
324.9276, 14.60857
325.4097, 14.69486
325.8918, 14.73953
326.3740, 14.72814
326.8561, 14.59457
327.3382, 14.42237
327.8203, 14.37186
328.3024, 14.48235
328.7845, 14.56914
329.2667, 14.41712
329.7488, 14.13397
330.2309, 13.99254
330.7130, 14.15018
331.1951, 14.39558
331.6772, 14.53105
332.1594, 14.55758
332.6415, 14.53373
333.1236, 14.45876
333.6057, 14.36638
334.0878, 14.33177
334.5699, 14.39534
335.0521, 14.44685
335.5342, 14.37438
336.0163, 14.21667
336.4984, 14.16269
336.9805, 14.33992
337.4626, 14.56080
337.9448, 14.48531
338.4269, 14.06089
338.9090, 13.75004
339.3911, 13.85953
339.8732, 14.18473
340.3553, 14.31892
340.8375, 14.15551
341.3196, 13.90286
341.8017, 13.76771
342.2838, 13.74067
342.7659, 13.78533
343.2480, 14.00870
343.7302, 14.23663
344.2123, 14.23134
344.6944, 13.97938
345.1765, 13.74597
345.6586, 13.72614
346.1407, 13.90392
346.6229, 14.07752
347.1050, 14.33446
347.5871, 14.50620
348.0692, 14.39296
348.5513, 14.07906
349.0334, 13.92120
349.5156, 14.16690
349.9977, 14.59957
350.4798, 14.58698
350.9619, 13.86951
351.4440, 13.31381
351.9261, 13.28983
352.4083, 13.58534
352.8904, 13.89125
353.3725, 14.12656
353.8546, 14.26302
354.3367, 14.23045
354.8188, 13.97566
355.3010, 13.78022
355.7831, 13.67025
356.2652, 13.62923
356.7473, 13.65379
357.2294, 13.73983
357.7115, 13.86829
358.1937, 14.04366
358.6758, 14.26762
359.1579, 14.35840
359.6400, 14.22437
360.1221, 14.06118
360.6042, 13.91272
361.0863, 13.80829
361.5685, 13.81780
362.0506, 13.99111
362.5327, 14.28816
363.0148, 14.54634
363.4969, 14.78396
363.9790, 14.96317
364.4612, 15.06772
364.9433, 15.11534
365.4254, 15.09316
365.9075, 15.00183
366.3896, 14.92697
366.8717, 15.01871
367.3539, 15.41853
367.8360, 15.66031
368.3181, 15.60542
368.8002, 15.51038
369.2823, 15.57848
369.7644, 15.79753
370.2466, 16.00035
370.7287, 16.03506
371.2108, 15.89360
371.6929, 15.70788
372.1750, 15.32394
372.6571, 15.06173
373.1393, 15.09512
373.6214, 15.30371
374.1035, 15.48431
374.5856, 15.52577
375.0677, 15.45696
375.5498, 15.36451
376.0320, 15.17813
376.5141, 15.07860
376.9962, 15.17090
377.4783, 15.29675
377.9604, 15.32079
378.4425, 15.20933
378.9247, 15.01769
379.4068, 14.78844
379.8889, 14.46314
380.3710, 14.30934
380.8531, 14.59517
381.3352, 14.81183
381.8174, 14.66819
382.2995, 14.24627
382.7816, 13.83150
383.2637, 13.64485
383.7458, 13.65184
384.2279, 13.61518
384.7101, 13.48264
385.1922, 13.38750
385.6743, 13.43592
386.1564, 13.51496
386.6385, 13.44896
387.1206, 13.14399
387.6028, 12.80905
388.0849, 12.85978
388.5670, 13.42885
389.0491, 13.74423
389.5312, 13.33321
390.0133, 12.81507
390.4955, 12.61341
390.9776, 12.74796
391.4597, 12.92489
391.9418, 12.87730
392.4239, 12.65760
392.9060, 12.59734
393.3882, 12.81013
393.8703, 13.02295
394.3524, 13.01173
394.8345, 12.87043
395.3166, 12.80511
395.7987, 12.95349
396.2809, 13.16665
396.7630, 13.23671
397.2451, 13.15737
397.7272, 13.03468
398.2093, 12.87170
398.6914, 12.71928
399.1736, 12.67441
399.6557, 12.78929
400.1378, 12.84843
400.6199, 12.63077
401.1020, 12.25696
401.5841, 12.07478
402.0662, 12.19710
402.5483, 12.42637
403.0305, 12.54444
403.5126, 12.55951
403.9947, 12.55455
404.4768, 12.57568
404.9589, 12.56199
405.4410, 12.41546
405.9232, 12.15020
406.4053, 11.91407
406.8874, 11.78906
407.3695, 11.77930
407.8516, 11.88696
408.3337, 12.33760
408.8159, 12.62897
409.2980, 12.43111
409.7801, 12.01557
410.2622, 11.85557
410.7443, 12.11795
411.2264, 12.54647
411.7086, 12.73088
412.1907, 12.54916
412.6728, 12.40257
413.1549, 12.26177
413.6370, 12.17721
414.1191, 12.17953
414.6013, 12.27038
415.0834, 12.45513
415.5655, 12.75840
416.0476, 13.16543
416.5297, 13.39691
417.0118, 13.33962
417.4940, 13.22715
417.9761, 13.03527
418.4582, 12.83136
418.9403, 12.71135
419.4224, 12.70846
419.9045, 12.74778
420.3867, 12.69663
420.8688, 12.52702
421.3509, 12.34033
421.8330, 12.02582
422.3151, 11.79385
422.7972, 11.83539
423.2794, 12.08731
423.7615, 12.29286
424.2436, 12.19853
424.7257, 11.87610
425.2078, 11.84169
425.6899, 12.31312
426.1721, 12.69156
426.6542, 12.67245
427.1363, 12.48947
427.6184, 12.44578
428.1005, 12.66265
428.5826, 12.90229
429.0648, 12.80842
429.5469, 12.37384
430.0290, 12.12182
430.5111, 12.29975
430.9932, 12.54897
431.4753, 12.51089
431.9575, 12.22407
432.4396, 12.00657
432.9217, 12.07056
433.4038, 12.27926
433.8859, 12.39141
434.3680, 12.38484
434.8502, 12.38302
435.3323, 12.46054
435.8144, 12.60269
436.2965, 12.76688
436.7786, 13.03219
437.2607, 13.19783
437.7429, 13.14053
438.2250, 12.90361
438.7071, 12.51672
439.1892, 11.94906
439.6713, 11.45043
440.1534, 11.42851
440.6356, 12.03319
441.1177, 12.43784
441.5998, 12.46237
442.0819, 12.38152
442.5640, 12.40094
443.0461, 12.50422
443.5282, 12.53778
444.0103, 12.38117
444.4925, 12.08841
444.9746, 11.96672
445.4567, 12.26552
445.9388, 12.42764
446.4209, 12.27777
446.9030, 12.02406
447.3852, 11.88201
447.8673, 11.90425
448.3494, 11.98357
448.8315, 11.97893
449.3136, 11.86446
449.7957, 11.79605
450.2779, 11.71628
450.7600, 11.74253
451.2421, 12.05832
451.7242, 12.49552
452.2063, 12.72178
452.6884, 12.52288
453.1706, 12.09679
453.6527, 11.91671
454.1348, 12.05067
454.6169, 12.21793
455.0990, 12.39474
455.5811, 12.55085
456.0633, 12.67069
456.5454, 12.75046
457.0275, 12.78039
457.5096, 12.72343
457.9917, 12.60785
458.4738, 12.52277
458.9560, 12.45856
459.4381, 12.46953
459.9202, 12.72320
460.4023, 13.05917
460.8844, 13.14447
461.3665, 12.73693
461.8487, 12.33187
462.3308, 12.39357
462.8129, 12.78392
463.2950, 12.99910
463.7771, 12.84894
464.2592, 12.54507
464.7414, 12.37345
465.2235, 12.34101
465.7056, 12.36947
466.1877, 12.53166
466.6698, 12.69021
467.1519, 12.72562
467.6341, 12.64936
468.1162, 12.54429
468.5983, 12.45995
469.0804, 12.39402
469.5625, 12.33904
470.0446, 12.39299
470.5268, 12.33083
471.0089, 11.99902
471.4910, 11.62263
471.9731, 11.41555
472.4552, 11.41514
472.9373, 11.51778
473.4195, 11.61655
473.9016, 11.70932
474.3837, 11.82601
474.8658, 12.06038
475.3479, 12.20935
475.8300, 12.15473
476.3122, 11.99918
476.7943, 11.89960
477.2764, 11.92796
477.7585, 11.98557
478.2406, 11.87685
478.7227, 11.56695
479.2049, 11.42253
479.6870, 11.67411
480.1691, 11.94093
480.6512, 11.91091
481.1333, 11.63812
481.6154, 11.39864
482.0976, 11.32967
482.5797, 11.37017
483.0618, 11.41203
483.5439, 11.45221
484.0260, 11.60175
484.5081, 12.01728
484.9902, 12.50305
485.4724, 12.62485
485.9545, 12.25011
486.4366, 11.93064
486.9187, 11.90866
487.4008, 12.02554
487.8829, 12.08518
488.3651, 12.05409
488.8472, 11.96271
489.3293, 11.82007
489.8114, 11.62647
490.2935, 11.54570
490.7756, 11.70785
491.2578, 11.80974
491.7399, 11.70436
492.2220, 11.51214
492.7041, 11.41282
493.1862, 11.46176
493.6683, 11.54555
494.1505, 11.48438
494.6326, 11.22005
495.1147, 11.04268
495.5968, 11.01924
496.0789, 11.02100
496.5610, 10.96769
497.0432, 10.91004
497.5253, 10.97344
498.0074, 11.25391
498.4895, 11.59318
498.9716, 11.66115
499.4537, 11.40573
499.9359, 11.21097
500.4180, 11.21377
500.9001, 11.26556
501.3822, 11.22172
501.8643, 11.09404
502.3464, 11.02122
502.8286, 11.15811
503.3107, 11.34831
503.7928, 11.28257
504.2749, 10.95273
504.7570, 10.77328
505.2391, 11.03401
505.7213, 11.54283
506.2034, 11.77235
506.6855, 11.59868
507.1676, 11.47479
507.6497, 11.64884
508.1318, 11.86603
508.6140, 11.77638
509.0961, 11.36571
509.5782, 10.95723
510.0603, 10.84400
510.5424, 11.00748
511.0245, 11.07097
511.5067, 10.88507
511.9888, 10.77992
512.4709, 10.86542
512.9530, 11.03112
513.4351, 11.16430
513.9172, 11.23266
514.3994, 11.26522
514.8815, 11.30697
515.3636, 11.36466
515.8457, 11.33976
516.3278, 11.18458
516.8099, 11.00609
517.2921, 10.79792
517.7742, 10.61135
518.2563, 10.54277
518.7384, 10.65204
519.2205, 10.79039
519.7026, 10.81223
520.1848, 10.46578
520.6669, 10.79044
521.1490, 10.97559
521.6311, 11.02873
522.1132, 10.55448
522.5953, 10.76125
523.0775, 10.69509
523.5596, 10.61775
524.0417, 10.92036
524.5238, 10.52282
525.0059, 10.81941
525.4880, 10.83891
525.9702, 10.98524
526.4523, 10.85695
526.9344, 10.81348
527.4165, 11.04471
527.8986, 11.12383
528.3807, 10.96393
528.8629, 11.11832
529.3450, 10.71118
529.8271, 10.79678
530.3092, 11.09498
530.7913, 10.94889
531.2734, 11.10829
531.7556, 11.06342
532.2377, 11.21995
532.7198, 11.27730
533.2019, 11.06376
533.6840, 10.88220
534.1661, 10.95120
534.6483, 11.22248
535.1304, 11.45430
535.6125, 11.51029
536.0946, 11.44216
536.5767, 11.31498
537.0588, 11.12410
537.5410, 10.97200
538.0231, 10.90326
538.5052, 10.89177
538.9873, 10.90286
539.4694, 10.94037
539.9515, 10.96832
540.4337, 10.98989
540.9158, 10.98862
541.3979, 10.93206
541.8800, 10.83051
542.3621, 10.73408
542.8442, 10.66962
543.3264, 10.64096
543.8085, 10.66227
544.2906, 10.79649
544.7726, 10.89386
545.2548, 10.91108
545.7369, 10.92305
546.2190, 11.00763
546.7011, 11.14630
547.1832, 11.24906
547.6653, 11.24200
548.1475, 11.15002
548.6296, 11.05185
549.1117, 10.89900
549.5938, 10.86762
550.0759, 11.11866
550.5580, 11.44193
551.0402, 11.75660
551.5223, 12.03610
552.0044, 12.10034
552.4865, 11.51869
552.9686, 10.77365
553.4507, 10.91703
553.9329, 11.49543
554.4150, 11.67706
554.8971, 11.71918
555.3792, 11.62929
555.8613, 11.01201
556.3434, 11.32292
556.8256, 11.31279
557.3077, 11.46441
557.7898, 11.65631
558.2719, 11.79852
558.7540, 11.87520
559.2361, 11.88234
559.7183, 11.81244
560.2004, 11.68138
560.6825, 11.55292
561.1646, 11.43230
561.6467, 11.30671
562.1288, 11.11179
562.6110, 10.96041
563.0931, 10.95655
563.5752, 11.08367
564.0573, 11.22802
564.5394, 11.32192
565.0215, 11.37058
565.5037, 11.37022
565.9858, 11.30774
566.4679, 11.27991
566.9500, 11.30890
567.4321, 11.40558
567.9142, 11.64530
568.3964, 12.05441
568.8785, 12.23986
569.3606, 11.85056
569.8427, 11.32462
570.3248, 11.11550
570.8069, 11.20358
571.2891, 11.35239
571.7712, 11.44363
572.2533, 11.48532
572.7354, 11.49463
573.2175, 11.44457
573.6996, 11.40865
574.1818, 11.35520
574.6639, 11.34250
575.1460, 11.44590
575.6281, 11.62087
576.1102, 11.75768
576.5923, 11.79465
577.0745, 11.74734
577.5566, 11.60582
578.0387, 11.32272
578.5208, 11.21762
579.0029, 11.52679
579.4850, 11.85002
579.9672, 11.86569
580.4493, 11.62964
580.9314, 11.39171
581.4135, 11.22724
581.8956, 11.11269
582.3777, 11.02496
582.8599, 10.96687
583.3420, 10.94999
583.8241, 10.98015
584.3062, 11.04827
584.7883, 11.16045
585.2704, 11.35068
585.7526, 11.39790
586.2347, 11.15063
586.7168, 10.93223
587.1989, 10.92239
587.6810, 11.02172
