##NAMES=Libethenite
##RRUFFID=R050147
##IDEAL CHEMISTRY=Cu^2+^_2_PO_4_(OH)
##LOCALITY=Los Azules mine, Copiapo, Chile
##OWNER=RRUFF
##SOURCE=Jim McGlasson
##DESCRIPTION=Dark green prismatic crystals, associated with smaller lighter green pseudomalachite
##STATUS=The identification of this mineral is confirmed by single-crystal X-ray diffraction and chemical analysis.
##URL=rruff.info/R050147
##MEASURED CHEMISTRY=Cu_2.00_(P_1.00_O_4_)((OH)_0.89_F_0.11_)_Î£=1_
93.74609, 37.66109
94.22821, 36.01083
94.71033, 36.89043
95.19244, 39.85320
95.67456, 43.29163
96.15668, 46.70263
96.63879, 50.12321
97.12091, 53.63935
97.60303, 57.21926
98.08514, 61.10038
98.56726, 65.49734
99.04938, 70.42448
99.53149, 75.96096
100.0136, 81.99767
100.4957, 88.49501
100.9778, 96.17036
101.4600, 105.2598
101.9421, 115.2785
102.4242, 124.8688
102.9063, 134.0508
103.3884, 142.9478
103.8705, 151.3894
104.3527, 159.1661
104.8348, 167.4619
105.3169, 176.7114
105.7990, 186.6768
106.2811, 196.3015
106.7632, 205.3826
107.2454, 214.2462
107.7275, 222.9118
108.2096, 230.5687
108.6917, 239.3379
109.1738, 249.5555
109.6559, 261.3779
110.1381, 274.0512
110.6202, 287.8710
111.1023, 302.5290
111.5844, 317.7350
112.0665, 333.8126
112.5486, 350.3159
113.0308, 367.2780
113.5129, 384.9782
113.9950, 402.7020
114.4771, 420.4814
114.9592, 438.1369
115.4413, 455.6711
115.9235, 473.3956
116.4056, 490.6703
116.8877, 506.7997
117.3698, 521.4235
117.8519, 536.2204
118.3340, 552.1234
118.8162, 568.6833
119.2983, 584.7577
119.7804, 599.7677
120.2625, 614.3906
120.7446, 628.9466
121.2267, 643.2076
121.7089, 658.0420
122.1910, 674.3046
122.6731, 691.7518
123.1552, 709.2462
123.6373, 726.0834
124.1194, 742.4962
124.6016, 759.0012
125.0837, 774.3702
125.5658, 790.5792
126.0479, 809.8923
126.5300, 832.2322
127.0121, 855.8544
127.4943, 879.2833
127.9764, 902.7725
128.4585, 927.5934
128.9406, 954.3877
129.4227, 982.5757
129.9048, 1011.515
130.3869, 1041.410
130.8691, 1070.421
131.3512, 1095.451
131.8333, 1113.490
132.3154, 1126.404
132.7975, 1141.104
133.2796, 1158.246
133.7618, 1173.488
134.2439, 1186.746
134.7260, 1198.731
135.2081, 1210.195
135.6902, 1221.237
136.1723, 1231.958
136.6545, 1242.419
137.1366, 1252.603
137.6187, 1262.841
138.1008, 1273.564
138.5829, 1284.021
139.0650, 1292.469
139.5472, 1298.541
140.0293, 1303.939
140.5114, 1309.663
140.9935, 1315.792
141.4756, 1321.689
141.9577, 1327.071
142.4399, 1332.189
142.9220, 1338.227
143.4041, 1345.358
143.8862, 1353.100
144.3683, 1361.059
144.8504, 1368.489
145.3326, 1377.820
145.8147, 1390.051
146.2968, 1405.123
146.7789, 1417.969
147.2610, 1428.573
147.7431, 1437.240
148.2253, 1444.440
148.7074, 1451.041
149.1895, 1455.001
149.6716, 1455.261
150.1537, 1451.383
150.6358, 1448.116
151.1180, 1446.276
151.6001, 1444.659
152.0822, 1442.036
152.5643, 1437.172
153.0464, 1432.465
153.5285, 1429.018
154.0107, 1427.912
154.4928, 1423.817
154.9749, 1414.411
155.4570, 1402.411
155.9391, 1391.281
156.4212, 1385.114
156.9034, 1376.572
157.3855, 1362.495
157.8676, 1340.728
158.3497, 1319.748
158.8318, 1301.387
159.3139, 1284.690
159.7961, 1267.866
160.2782, 1250.197
160.7603, 1232.518
161.2424, 1215.022
161.7245, 1197.181
162.2066, 1180.774
162.6888, 1166.893
163.1709, 1154.866
163.6530, 1143.228
164.1351, 1131.908
164.6172, 1120.439
165.0993, 1108.454
165.5815, 1095.548
166.0636, 1082.588
166.5457, 1069.833
167.0278, 1057.225
167.5099, 1044.622
167.9921, 1032.231
168.4742, 1019.672
168.9563, 1006.508
169.4384, 991.9018
169.9205, 977.5779
170.4026, 964.3939
170.8848, 952.3481
171.3669, 941.7015
171.8490, 932.7134
172.3311, 925.1937
172.8132, 918.7682
173.2953, 912.0774
173.7775, 907.7496
174.2596, 909.4452
174.7417, 916.4949
175.2238, 924.1218
175.7059, 927.9181
176.1880, 930.1028
176.6702, 934.2234
177.1523, 942.0883
177.6344, 952.0040
178.1165, 961.7768
178.5986, 971.5400
179.0807, 982.3235
179.5629, 995.5867
180.0450, 1010.685
180.5271, 1025.869
181.0092, 1040.591
181.4913, 1055.177
181.9734, 1069.709
182.4556, 1084.145
182.9377, 1099.278
183.4198, 1116.508
183.9019, 1135.386
184.3840, 1153.927
184.8661, 1171.263
185.3483, 1187.822
185.8304, 1205.712
186.3125, 1225.107
186.7946, 1243.600
187.2767, 1258.300
187.7588, 1269.704
188.2409, 1279.807
188.7231, 1289.346
189.2052, 1298.304
189.6873, 1306.641
190.1694, 1314.409
190.6515, 1321.817
191.1336, 1329.747
191.6158, 1338.069
192.0979, 1344.642
192.5800, 1348.481
193.0621, 1349.767
193.5442, 1350.032
194.0263, 1349.533
194.5085, 1347.214
194.9906, 1341.910
195.4727, 1333.661
195.9548, 1322.082
196.4369, 1306.794
196.9190, 1287.869
197.4012, 1265.998
197.8833, 1240.586
198.3654, 1213.568
198.8475, 1188.976
199.3296, 1166.883
199.8117, 1144.995
200.2939, 1121.651
200.7760, 1096.886
201.2581, 1074.784
201.7402, 1055.869
202.2223, 1039.101
202.7044, 1022.652
203.1866, 1006.578
203.6687, 991.3820
204.1508, 977.4385
204.6329, 964.8271
205.1150, 952.5637
205.5971, 940.4375
206.0793, 928.9149
206.5614, 918.9647
207.0435, 910.8847
207.5256, 903.5833
208.0077, 896.4037
208.4898, 889.1116
208.9720, 883.4302
209.4541, 879.5127
209.9362, 877.0653
210.4183, 875.6965
210.9004, 875.7189
211.3825, 875.8943
211.8647, 875.5400
212.3468, 874.3786
212.8289, 873.7122
213.3110, 872.9859
213.7931, 873.1595
214.2752, 876.7207
214.7574, 884.7339
215.2395, 893.6237
215.7216, 901.7368
216.2037, 908.4108
216.6858, 916.4669
217.1679, 925.9349
217.6501, 936.7725
218.1322, 949.0522
218.6143, 962.6522
219.0964, 977.6578
219.5785, 994.1196
220.0606, 1013.083
220.5428, 1030.798
221.0249, 1046.746
221.5070, 1061.601
221.9891, 1076.524
222.4712, 1091.805
222.9533, 1106.918
223.4355, 1122.109
223.9176, 1139.880
224.3997, 1151.213
224.8818, 1155.646
225.3639, 1153.956
225.8460, 1147.811
226.3282, 1136.918
226.8103, 1122.107
227.2924, 1103.845
227.7745, 1081.223
228.2566, 1056.819
228.7387, 1030.548
229.2209, 1002.488
229.7030, 973.3087
230.1851, 941.6451
230.6672, 910.5575
231.1493, 881.1832
231.6314, 853.6512
232.1136, 827.4173
232.5957, 802.2232
233.0778, 778.3653
233.5599, 757.2491
234.0420, 740.0469
234.5241, 723.7054
235.0063, 706.8766
235.4884, 688.7029
235.9705, 673.0892
236.4526, 660.5231
236.9347, 650.1705
237.4168, 640.2592
237.8990, 630.8890
238.3811, 621.7896
238.8632, 612.7128
239.3453, 602.9746
239.8274, 595.3869
240.3095, 590.8342
240.7917, 587.9197
241.2738, 583.9449
241.7559, 578.1268
242.2380, 572.5446
242.7201, 567.8435
243.2022, 563.8792
243.6844, 561.4362
244.1665, 561.4392
244.6486, 562.4124
245.1307, 561.6915
245.6128, 558.2689
246.0949, 554.8383
246.5771, 552.1922
247.0592, 550.3792
247.5413, 549.3215
248.0234, 550.0237
248.5055, 550.7912
248.9876, 548.8532
249.4697, 542.9800
249.9519, 536.6265
250.4340, 530.8525
250.9161, 525.8951
251.3982, 520.1574
251.8803, 513.1331
252.3624, 505.7875
252.8446, 499.6937
253.3267, 495.5189
253.8088, 491.1777
254.2909, 485.8434
254.7730, 479.1992
255.2551, 474.0228
255.7373, 470.8131
256.2194, 468.5626
256.7015, 466.1024
257.1836, 463.1820
257.6657, 460.5033
258.1479, 457.8635
258.6300, 455.1494
259.1121, 454.8598
259.5942, 458.1229
260.0763, 462.4985
260.5584, 465.3393
261.0406, 465.8656
261.5227, 466.7690
262.0048, 468.7051
262.4869, 471.6386
262.9690, 474.6747
263.4511, 477.9791
263.9333, 481.1241
264.4154, 483.5224
264.8975, 484.7412
265.3796, 486.6653
265.8617, 489.9431
266.3438, 494.3755
266.8260, 498.0569
267.3081, 500.7466
267.7902, 503.0983
268.2723, 505.6086
268.7544, 508.4081
269.2365, 511.0103
269.7187, 513.2753
270.2008, 515.2931
270.6829, 517.4398
271.1650, 519.7247
271.6471, 522.1055
272.1292, 524.2177
272.6114, 525.7548
273.0935, 528.7075
273.5756, 533.4682
274.0577, 539.7020
274.5398, 546.3839
275.0219, 553.3885
275.5041, 561.0883
275.9862, 569.8748
276.4683, 579.8565
276.9504, 589.9844
277.4325, 600.3275
277.9146, 610.6058
278.3968, 619.9124
278.8788, 627.9998
279.3610, 636.2475
279.8431, 645.7953
280.3252, 656.6579
280.8073, 666.0817
281.2894, 673.3451
281.7715, 680.0258
282.2537, 689.1612
282.7358, 700.8943
283.2179, 713.7590
283.7000, 727.5632
284.1821, 742.2880
284.6642, 755.6599
285.1464, 767.2231
285.6285, 778.6185
286.1106, 791.8440
286.5927, 806.8832
287.0748, 824.4257
287.5569, 845.5598
288.0391, 869.8730
288.5212, 893.6885
289.0033, 916.9130
289.4854, 940.5042
289.9675, 965.2036
290.4496, 991.2007
290.9318, 1019.169
291.4139, 1049.724
291.8960, 1082.743
292.3781, 1117.323
292.8602, 1153.829
293.3423, 1191.238
293.8245, 1229.085
294.3066, 1267.393
294.7887, 1306.647
295.2708, 1348.054
295.7529, 1389.457
296.2350, 1426.863
296.7172, 1460.076
297.1993, 1488.217
297.6814, 1512.135
298.1635, 1530.827
298.6456, 1541.189
299.1277, 1542.691
299.6099, 1535.457
300.0920, 1518.742
300.5741, 1492.873
301.0562, 1461.376
301.5383, 1425.271
302.0204, 1385.085
302.5026, 1341.953
302.9847, 1294.693
303.4668, 1246.601
303.9489, 1199.529
304.4310, 1154.378
304.9131, 1110.991
305.3953, 1069.742
305.8774, 1030.482
306.3595, 993.5450
306.8416, 958.9758
307.3237, 926.9686
307.8058, 899.5115
308.2880, 875.1636
308.7701, 850.8004
309.2522, 823.5735
309.7343, 796.1071
310.2164, 771.0043
310.6985, 748.4162
311.1807, 726.5952
311.6628, 704.4857
312.1449, 682.1388
312.6270, 660.3316
313.1091, 638.6467
313.5912, 617.9705
314.0734, 598.7675
314.5555, 581.1404
315.0376, 564.2943
315.5197, 547.6497
316.0018, 531.5186
316.4839, 516.6503
316.9661, 503.3179
317.4482, 491.0361
317.9303, 479.8415
318.4124, 469.6713
318.8945, 459.8072
319.3766, 449.5216
319.8588, 439.7527
320.3409, 431.3656
320.8230, 425.8952
321.3051, 419.9243
321.7872, 411.7595
322.2693, 402.2570
322.7515, 394.0346
323.2336, 388.9940
323.7157, 384.4222
324.1978, 378.8272
324.6799, 370.9161
325.1620, 364.3236
325.6442, 360.3997
326.1263, 357.9910
326.6084, 355.0526
327.0905, 350.5502
327.5726, 346.2530
328.0547, 342.7716
328.5369, 340.4912
329.0190, 337.9301
329.5011, 334.8005
329.9832, 331.5223
330.4653, 328.5765
330.9474, 326.0796
331.4296, 323.7818
331.9117, 321.7383
332.3938, 319.9856
332.8759, 317.9251
333.3580, 315.1409
333.8401, 312.4193
334.3223, 310.4716
334.8044, 309.7658
335.2865, 308.8539
335.7686, 307.5308
336.2507, 305.8481
336.7328, 304.1331
337.2150, 302.2509
337.6971, 300.5370
338.1792, 299.2541
338.6613, 298.5901
339.1434, 297.5833
339.6255, 295.9956
340.1077, 294.1790
340.5898, 292.9507
341.0719, 292.4522
341.5540, 292.0411
342.0361, 291.4056
342.5182, 290.5318
343.0004, 289.8228
343.4825, 289.3193
343.9646, 288.9145
344.4467, 288.5117
344.9288, 288.1212
345.4109, 287.5883
345.8931, 286.6500
346.3752, 285.5287
346.8573, 285.2787
347.3394, 285.9622
347.8215, 286.9659
348.3036, 287.8457
348.7858, 288.5702
349.2679, 288.9232
349.7500, 288.5843
350.2321, 288.1172
350.7142, 288.9225
351.1964, 290.8373
351.6785, 292.3213
352.1606, 291.4235
352.6427, 289.4099
353.1248, 288.8998
353.6069, 290.6364
354.0891, 293.0345
354.5712, 294.4960
355.0533, 295.2310
355.5354, 295.8542
356.0175, 296.4985
356.4996, 297.2988
356.9818, 298.6122
357.4639, 300.5593
357.9460, 302.1453
358.4281, 302.1039
358.9102, 301.3691
359.3923, 301.3004
359.8745, 302.8411
360.3566, 304.8913
360.8387, 306.8398
361.3208, 308.6888
361.8029, 310.5663
362.2850, 312.2345
362.7672, 314.1073
363.2493, 316.5642
363.7314, 320.6638
364.2135, 324.2055
364.6956, 326.0580
365.1777, 326.7271
365.6599, 327.7476
366.1420, 329.3541
366.6241, 331.5192
367.1062, 334.3015
367.5883, 338.0908
368.0704, 341.6647
368.5526, 344.9052
369.0347, 347.8394
369.5168, 350.5643
369.9989, 352.7993
370.4810, 355.1195
370.9631, 357.8633
371.4453, 361.1964
371.9274, 363.5982
372.4095, 364.5760
372.8916, 365.0064
373.3737, 365.6071
373.8558, 366.3639
374.3380, 367.3299
374.8201, 368.5758
375.3022, 370.0569
375.7843, 371.4995
376.2664, 372.9552
376.7485, 374.3058
377.2307, 375.3147
377.7128, 375.8115
378.1949, 377.1696
378.6770, 379.6817
379.1591, 382.7862
379.6412, 385.1656
380.1234, 386.7076
380.6055, 388.8653
381.0876, 392.5939
381.5697, 397.6003
382.0518, 401.9672
382.5339, 405.5790
383.0161, 409.0067
383.4982, 412.7507
383.9803, 416.8096
384.4624, 421.0521
384.9445, 425.6487
385.4266, 430.1907
385.9088, 434.2878
386.3909, 437.8589
386.8730, 440.3537
387.3551, 441.3464
387.8372, 441.0149
388.3193, 439.9018
388.8015, 438.4203
389.2836, 435.1879
389.7657, 428.6786
390.2478, 419.3929
390.7299, 408.6353
391.2120, 396.1483
391.6942, 383.0354
392.1763, 370.1326
392.6584, 357.6051
393.1405, 345.4917
393.6226, 333.7282
394.1047, 322.4176
394.5869, 311.8277
395.0690, 302.3526
395.5511, 293.2850
396.0332, 284.1387
396.5153, 275.0792
396.9974, 267.0034
397.4796, 260.6470
397.9617, 254.9682
398.4438, 249.3900
398.9259, 243.5613
399.4080, 238.3401
399.8901, 233.8294
400.3723, 229.9630
400.8544, 226.6754
401.3365, 224.6113
401.8186, 222.3315
402.3007, 219.3397
402.7828, 215.4976
403.2649, 212.1548
403.7470, 209.3485
404.2292, 206.9900
404.7113, 205.1029
405.1934, 203.8699
405.6755, 202.4963
406.1576, 200.7543
406.6397, 198.8376
407.1219, 197.5258
407.6040, 196.9292
408.0861, 196.5002
408.5682, 196.1776
409.0503, 195.9504
409.5324, 194.5593
410.0146, 191.6713
410.4967, 188.4133
410.9788, 186.4639
411.4609, 185.7234
411.9430, 185.0620
412.4251, 183.9634
412.9073, 182.6922
413.3894, 181.7736
413.8715, 181.2033
414.3536, 180.8566
414.8357, 180.8626
415.3178, 180.9805
415.8000, 180.7358
416.2821, 179.9300
416.7642, 178.9103
417.2463, 177.9211
417.7284, 176.9677
418.2105, 176.0932
418.6927, 175.1858
419.1748, 174.4463
419.6569, 174.0812
420.1390, 174.1458
420.6211, 174.2379
421.1032, 174.1460
421.5854, 173.9925
422.0675, 173.9095
422.5496, 173.7209
423.0317, 173.8269
423.5138, 174.7597
423.9959, 176.2808
424.4781, 176.9538
424.9602, 175.2861
425.4423, 173.6736
425.9244, 173.3202
426.4065, 175.1011
426.8886, 176.5069
427.3708, 177.0946
427.8529, 177.5016
428.3350, 178.8648
428.8171, 182.1249
429.2992, 184.5708
429.7813, 185.1398
430.2635, 183.9163
430.7456, 184.0213
431.2277, 185.9224
431.7098, 188.1355
432.1919, 189.3246
432.6740, 189.3763
433.1562, 189.8845
433.6383, 191.1704
434.1204, 192.8243
434.6025, 193.8845
435.0846, 194.3707
435.5667, 195.1409
436.0489, 196.8804
436.5310, 199.2666
437.0131, 201.2563
437.4952, 202.8208
437.9773, 204.2778
438.4594, 205.8388
438.9416, 207.5276
439.4237, 209.4353
439.9058, 211.8781
440.3879, 214.1997
440.8700, 215.5008
441.3521, 216.0905
441.8343, 217.0540
442.3164, 219.2475
442.7985, 221.8811
443.2806, 224.3004
443.7627, 226.2856
444.2448, 228.5648
444.7270, 231.8699
445.2091, 235.4619
445.6912, 238.4491
446.1733, 240.2312
446.6554, 241.7831
447.1375, 243.4059
447.6197, 245.0701
448.1018, 246.3031
448.5839, 246.2486
449.0660, 246.4392
449.5481, 247.6861
450.0302, 250.9895
450.5124, 253.2747
450.9945, 254.1733
451.4766, 254.2917
451.9587, 254.6840
452.4408, 255.6850
452.9229, 256.0116
453.4051, 255.1463
453.8872, 253.2516
454.3693, 251.4876
454.8514, 249.8011
455.3335, 248.4643
455.8156, 248.1007
456.2978, 248.5201
456.7799, 247.8226
457.2620, 245.5683
457.7441, 242.5824
458.2262, 239.8819
458.7083, 237.4595
459.1905, 235.1697
459.6726, 233.2055
460.1547, 231.2336
460.6368, 228.6922
461.1189, 225.5750
461.6010, 222.4489
462.0832, 219.9774
462.5653, 217.6047
463.0474, 214.6747
463.5295, 210.5891
464.0116, 206.6146
464.4937, 203.4151
464.9759, 200.8089
465.4580, 198.5263
465.9401, 196.8542
466.4222, 195.1567
466.9043, 193.1436
467.3864, 190.7425
467.8686, 188.4458
468.3507, 186.0879
468.8328, 183.9936
469.3149, 182.4102
469.7970, 181.6138
470.2791, 180.8877
470.7613, 180.3154
471.2434, 179.7522
471.7255, 178.7844
472.2076, 177.2983
472.6897, 175.6651
473.1718, 173.7877
473.6540, 171.6750
474.1361, 170.7434
474.6182, 171.2581
475.1003, 171.9944
475.5824, 171.6109
476.0645, 170.2256
476.5467, 168.9060
477.0288, 167.8397
477.5109, 166.9688
477.9930, 166.3084
478.4751, 165.8034
478.9572, 165.1882
479.4394, 164.2598
479.9215, 163.1552
480.4036, 162.0625
480.8857, 160.9865
481.3678, 159.8514
481.8499, 158.3430
482.3321, 156.8434
482.8142, 155.8122
483.2963, 155.6749
483.7784, 155.6131
484.2605, 155.3301
484.7426, 154.8860
485.2248, 154.4304
485.7069, 153.9040
486.1890, 153.4654
486.6711, 153.2613
487.1532, 153.4197
487.6353, 153.1884
488.1175, 152.3325
488.5996, 151.3002
489.0817, 150.4286
489.5638, 149.7248
490.0459, 149.2017
490.5280, 148.9298
491.0102, 148.7971
491.4923, 148.4830
491.9744, 147.9362
492.4565, 147.4595
492.9386, 147.3038
493.4207, 147.3660
493.9029, 146.7881
494.3850, 145.4851
494.8671, 144.3392
495.3492, 144.3931
495.8313, 145.2679
496.3134, 145.9001
496.7956, 146.0699
497.2777, 145.9262
497.7598, 145.5263
498.2419, 144.9307
498.7240, 144.3010
499.2061, 143.5133
499.6883, 142.8659
500.1704, 142.7144
500.6525, 143.0527
501.1346, 143.1839
501.6167, 142.4832
502.0988, 141.6801
502.5810, 141.3215
503.0631, 141.8330
503.5452, 142.2622
504.0273, 142.4378
504.5094, 142.4668
504.9915, 142.5414
505.4737, 142.8423
505.9558, 142.9137
506.4379, 142.6089
506.9200, 141.9438
507.4021, 141.1782
507.8842, 140.1909
508.3664, 139.3633
508.8485, 139.0154
509.3306, 139.1577
509.8127, 139.2350
510.2948, 139.1847
510.7769, 139.1321
511.2591, 139.3565
511.7412, 139.7855
512.2233, 139.9850
512.7054, 139.5638
513.1875, 139.0254
513.6696, 139.4000
514.1517, 140.4758
514.6339, 141.0801
515.1160, 139.7178
515.5981, 137.9664
516.0802, 137.4785
516.5623, 138.7327
517.0444, 139.8324
517.5266, 139.8448
518.0087, 139.2628
518.4908, 138.6238
518.9729, 137.5369
519.4550, 136.9763
519.9371, 137.5087
520.4193, 138.8316
520.9014, 139.5999
521.3835, 139.3816
521.8656, 139.1810
522.3477, 139.4668
522.8298, 140.3758
523.3120, 140.5871
523.7941, 139.8802
524.2762, 138.9211
524.7583, 138.1633
525.2404, 137.5882
525.7225, 137.9201
526.2047, 139.5881
526.6868, 141.5996
527.1689, 141.9506
527.6510, 140.8895
528.1331, 140.0125
528.6152, 140.3364
529.0974, 141.1798
529.5795, 141.5089
530.0616, 141.3676
530.5437, 141.3295
531.0258, 141.7097
531.5079, 142.4109
531.9901, 143.4154
532.4722, 144.8815
532.9543, 146.2083
533.4364, 146.9730
533.9185, 147.5282
534.4006, 148.3670
534.8828, 149.7216
535.3649, 151.2173
535.8470, 152.8885
536.3291, 154.6801
536.8112, 156.0730
537.2933, 156.4678
537.7755, 157.3969
538.2576, 159.6791
538.7397, 163.5275
539.2218, 167.1534
539.7039, 170.4210
540.1860, 173.7107
540.6682, 177.3596
541.1503, 181.3377
541.6324, 185.5532
542.1145, 190.0006
542.5966, 194.5904
543.0787, 199.2860
543.5609, 204.0324
544.0430, 208.6214
544.5251, 212.4820
545.0072, 216.4366
545.4893, 221.2592
545.9714, 226.9413
546.4536, 233.0952
546.9357, 239.5359
547.4178, 246.3508
547.8999, 253.5240
548.3820, 260.7520
548.8641, 269.0359
549.3463, 279.0458
549.8284, 290.0523
550.3105, 301.1063
550.7926, 312.0035
551.2747, 323.1970
551.7568, 335.1523
552.2390, 347.5566
552.7211, 359.2739
553.2032, 370.1967
553.6853, 380.7847
554.1674, 391.6261
554.6495, 402.5961
555.1317, 412.1042
555.6138, 420.1550
556.0959, 425.5610
556.5780, 427.1883
557.0601, 425.2207
557.5422, 419.9276
558.0244, 411.0078
558.5065, 399.7317
558.9886, 386.7492
559.4707, 372.4179
559.9528, 357.7770
560.4349, 341.9012
560.9171, 326.8929
561.3992, 314.0011
561.8813, 303.0232
562.3634, 292.8465
562.8455, 282.6405
563.3276, 273.4953
563.8098, 265.9211
564.2919, 260.1798
564.7740, 255.2185
565.2561, 250.9649
565.7382, 247.5631
566.2203, 245.1636
566.7025, 243.8763
567.1846, 243.1350
567.6667, 242.8962
568.1488, 243.0971
568.6309, 243.7008
569.1130, 244.6991
569.5952, 245.7578
570.0773, 246.6288
570.5594, 247.5257
571.0415, 248.8086
571.5236, 250.4982
572.0057, 252.6817
572.4879, 255.5155
572.9700, 258.8538
573.4521, 262.6859
573.9342, 267.1693
574.4163, 271.4543
574.8984, 274.6216
575.3806, 277.6283
575.8627, 281.4891
576.3448, 287.2555
576.8269, 292.7963
577.3090, 297.9423
577.7911, 302.7012
578.2733, 307.2681
578.7554, 311.7320
579.2375, 315.6386
579.7196, 318.6440
580.2017, 320.9054
580.6838, 323.7442
581.1660, 327.2526
581.6481, 330.7085
582.1302, 333.9121
582.6123, 336.6684
583.0944, 338.0243
583.5765, 337.8815
584.0587, 336.7933
584.5408, 334.9915
585.0229, 332.6916
585.5050, 330.2372
585.9871, 327.6108
586.4692, 325.0446
586.9514, 322.7643
587.4335, 320.6117
587.9156, 318.3063
588.3977, 315.8936
588.8798, 313.1798
