##NAMES=Libethenite
##RRUFFID=R050147
##IDEAL CHEMISTRY=Cu^2+^_2_PO_4_(OH)
##LOCALITY=Los Azules mine, Copiapo, Chile
##OWNER=RRUFF
##SOURCE=Jim McGlasson
##DESCRIPTION=Dark green prismatic crystals, associated with smaller lighter green pseudomalachite
##STATUS=The identification of this mineral is confirmed by single-crystal X-ray diffraction and chemical analysis.
##URL=rruff.info/R050147
##MEASURED CHEMISTRY=Cu_2.00_(P_1.00_O_4_)((OH)_0.89_F_0.11_)_Î£=1_
93.46680, 76.39665
93.94891, 75.67204
94.43103, 75.92706
94.91315, 76.75745
95.39526, 76.99400
95.87738, 76.09532
96.35950, 74.35887
96.84161, 72.76704
97.32373, 71.94109
97.80585, 71.30960
98.28796, 70.28441
98.77008, 68.68225
99.25220, 66.98683
99.73431, 65.85743
100.2164, 65.41460
100.6985, 65.02903
101.1807, 64.69509
101.6628, 64.47295
102.1449, 64.46478
102.6270, 64.77779
103.1091, 65.28981
103.5912, 65.24526
104.0734, 63.68959
104.5555, 62.47270
105.0376, 62.15288
105.5197, 62.45108
106.0018, 62.76898
106.4839, 62.60746
106.9661, 61.89908
107.4482, 61.06745
107.9303, 59.76263
108.4124, 58.60126
108.8945, 58.08374
109.3766, 58.22923
109.8588, 58.49638
110.3409, 58.17120
110.8230, 57.14037
111.3051, 56.35295
111.7872, 56.11687
112.2693, 56.15210
112.7515, 55.99006
113.2336, 55.43302
113.7157, 54.83353
114.1978, 54.63899
114.6799, 54.83899
115.1620, 55.09680
115.6442, 55.29619
116.1263, 55.42996
116.6084, 55.29606
117.0905, 54.46679
117.5726, 53.60733
118.0547, 53.19205
118.5369, 53.31081
119.0190, 53.65809
119.5011, 53.80243
119.9832, 53.61327
120.4653, 53.52889
120.9474, 53.57905
121.4296, 53.75637
121.9117, 54.18889
122.3938, 54.93433
122.8759, 55.74504
123.3580, 55.80931
123.8401, 54.07772
124.3223, 52.64279
124.8044, 51.56735
125.2865, 50.92307
125.7686, 50.90387
126.2507, 51.71568
126.7328, 53.24934
127.2150, 53.91000
127.6971, 53.19180
128.1792, 52.32940
128.6613, 51.70889
129.1434, 51.36946
129.6255, 51.36446
130.1077, 51.89728
130.5898, 52.88006
131.0719, 53.41761
131.5540, 53.29926
132.0361, 52.81467
132.5182, 52.15987
133.0004, 51.28226
133.4825, 50.53551
133.9646, 50.32050
134.4467, 50.46073
134.9288, 50.62720
135.4109, 50.72669
135.8931, 50.75123
136.3752, 50.66086
136.8573, 50.37689
137.3394, 50.07224
137.8215, 49.85078
138.3036, 49.69361
138.7858, 49.53930
139.2679, 49.24671
139.7500, 48.75179
140.2321, 48.64254
140.7142, 49.41934
141.1963, 50.19468
141.6785, 50.63787
142.1606, 50.71077
142.6427, 50.55246
143.1248, 50.31304
143.6069, 49.92334
144.0890, 49.61148
144.5712, 49.26912
145.0533, 49.05393
145.5354, 49.13407
146.0175, 49.53847
146.4996, 50.09201
146.9817, 50.48905
147.4639, 50.69918
147.9460, 50.77242
148.4281, 50.56809
148.9102, 50.26823
149.3923, 50.14748
149.8744, 50.34255
150.3566, 50.65478
150.8387, 50.55379
151.3208, 49.84321
151.8029, 49.29865
152.2850, 49.33569
152.7671, 49.79824
153.2493, 50.17574
153.7314, 50.22907
154.2135, 50.10575
154.6956, 50.09118
155.1777, 50.20889
155.6598, 50.38006
156.1420, 50.61157
156.6241, 50.91499
157.1062, 51.03712
157.5883, 50.63979
158.0704, 50.10843
158.5525, 49.76035
159.0347, 49.67057
159.5168, 49.79250
159.9989, 50.11375
160.4810, 50.76789
160.9631, 51.28418
161.4452, 51.53334
161.9274, 51.60321
162.4095, 51.54676
162.8916, 51.37672
163.3737, 51.13067
163.8558, 50.93249
164.3379, 50.81604
164.8201, 50.70839
165.3022, 50.60569
165.7843, 50.50179
166.2664, 50.38039
166.7485, 50.22602
167.2306, 50.05264
167.7128, 49.97791
168.1949, 50.09642
168.6770, 50.21220
169.1591, 50.26321
169.6412, 50.27796
170.1233, 50.33384
170.6055, 50.49807
171.0876, 50.76423
171.5697, 50.86633
172.0518, 50.77930
172.5339, 50.59263
173.0160, 50.22463
173.4982, 49.74156
173.9803, 49.42701
174.4624, 49.55384
174.9445, 50.10980
175.4266, 50.49583
175.9087, 50.61321
176.3909, 50.63128
176.8730, 50.63865
177.3551, 50.63762
177.8372, 50.74364
178.3193, 51.26831
178.8014, 51.99677
179.2836, 52.25371
179.7657, 51.42574
180.2478, 50.20492
180.7299, 49.72932
181.2120, 50.29094
181.6941, 50.84887
182.1763, 50.54424
182.6584, 49.73707
183.1405, 49.06634
183.6226, 48.91372
184.1047, 49.12325
184.5868, 49.17574
185.0690, 48.99615
185.5511, 48.75655
186.0332, 48.59703
186.5153, 48.44920
186.9974, 48.16276
187.4795, 47.54029
187.9617, 46.62664
188.4438, 46.10411
188.9259, 46.54211
189.4080, 46.79782
189.8901, 46.34200
190.3722, 45.40243
190.8544, 44.50452
191.3365, 44.07988
191.8186, 44.15292
192.3007, 44.33445
192.7828, 44.90072
193.2649, 45.31921
193.7471, 45.36898
194.2292, 45.09473
194.7113, 44.65345
195.1934, 44.15865
195.6755, 43.55516
196.1576, 43.26651
196.6398, 43.47911
197.1219, 43.76226
197.6040, 43.95687
198.0861, 44.03275
198.5682, 43.99717
199.0503, 43.84646
199.5325, 43.55604
200.0146, 43.26528
200.4967, 42.95690
200.9788, 42.66003
201.4609, 42.40300
201.9430, 42.18499
202.4252, 41.97462
202.9073, 41.74772
203.3894, 41.50196
203.8715, 41.20954
204.3536, 40.56216
204.8357, 40.03900
205.3179, 40.25069
205.8000, 41.30716
206.2821, 42.45737
206.7642, 43.01205
207.2463, 43.03370
207.7284, 42.81007
208.2106, 42.15535
208.6927, 41.37209
209.1748, 40.87182
209.6569, 40.70860
210.1390, 40.75963
210.6211, 41.10413
211.1033, 41.60823
211.5854, 41.91079
212.0675, 41.75007
212.5496, 41.31086
213.0317, 40.99823
213.5138, 40.84082
213.9960, 40.79190
214.4781, 40.89223
214.9602, 41.06947
215.4423, 41.17391
215.9244, 41.15394
216.4065, 41.00221
216.8886, 40.62329
217.3708, 39.66605
217.8529, 39.04124
218.3350, 39.39162
218.8171, 40.30978
219.2992, 41.02446
219.7813, 40.99432
220.2635, 40.33848
220.7456, 39.85002
221.2277, 39.48895
221.7098, 39.38828
222.1919, 39.83848
222.6740, 40.54190
223.1562, 40.98192
223.6383, 40.74673
224.1204, 39.90694
224.6025, 39.33752
225.0846, 39.30755
225.5667, 39.29952
226.0489, 39.16608
226.5310, 38.97087
227.0131, 38.83305
227.4952, 38.82761
227.9773, 38.95421
228.4594, 39.22570
228.9416, 40.03093
229.4237, 40.57845
229.9058, 40.56173
230.3879, 40.15475
230.8700, 39.65289
231.3521, 39.22889
231.8343, 38.89579
232.3164, 38.88903
232.7985, 39.56136
233.2806, 40.15264
233.7627, 40.51221
234.2448, 40.64079
234.7270, 40.52966
235.2091, 40.13359
235.6912, 39.51198
236.1733, 39.25523
236.6554, 39.52496
237.1375, 39.90119
237.6197, 40.32652
238.1018, 40.76245
238.5839, 41.17231
239.0660, 41.56105
239.5481, 41.88246
240.0302, 41.87434
240.5124, 41.24780
240.9945, 40.67672
241.4766, 40.48537
241.9587, 40.54228
242.4408, 40.46351
242.9229, 39.96774
243.4051, 39.28442
243.8872, 39.18701
244.3693, 40.04087
244.8514, 40.85823
245.3335, 41.16091
245.8156, 41.07768
246.2978, 40.97744
246.7799, 40.97328
247.2620, 41.10648
247.7441, 41.51925
248.2262, 42.47570
248.7083, 43.10742
249.1905, 42.71525
249.6726, 41.57031
250.1547, 40.65898
250.6368, 40.36335
251.1189, 40.45200
251.6010, 40.49309
252.0832, 40.44112
252.5653, 40.53959
253.0474, 41.12280
253.5295, 42.03722
254.0116, 42.57201
254.4937, 42.35287
254.9759, 41.88135
255.4580, 41.81736
255.9401, 42.17922
256.4222, 42.42588
256.9043, 42.09983
257.3864, 41.32359
257.8686, 40.69478
258.3507, 40.19492
258.8328, 40.08323
259.3149, 40.76812
259.7970, 42.13484
260.2791, 43.20353
260.7613, 43.09212
261.2434, 42.03970
261.7255, 41.42645
262.2076, 41.62774
262.6897, 42.01546
263.1718, 42.23059
263.6540, 42.27763
264.1361, 42.18267
264.6182, 41.80580
265.1003, 41.23806
265.5824, 41.04428
266.0645, 41.40811
266.5467, 41.93235
267.0288, 42.58668
267.5109, 43.23337
267.9930, 43.55512
268.4751, 43.18798
268.9572, 42.33749
269.4394, 41.98118
269.9215, 42.47646
270.4036, 42.95087
270.8857, 42.99957
271.3678, 42.81818
271.8499, 42.72462
272.3321, 42.92183
272.8142, 43.30143
273.2963, 43.47913
273.7784, 43.35231
274.2605, 43.17880
274.7426, 42.88733
275.2248, 42.64531
275.7069, 42.66586
276.1890, 43.05748
276.6711, 43.72771
277.1532, 44.49870
277.6353, 45.66180
278.1175, 46.34914
278.5996, 46.23086
279.0817, 45.73439
279.5638, 45.21276
280.0459, 44.79467
280.5280, 44.48827
281.0102, 44.29808
281.4923, 44.19654
281.9744, 44.29421
282.4565, 44.70895
282.9386, 45.22341
283.4207, 45.72076
283.9029, 46.15486
284.3850, 46.47822
284.8671, 46.63866
285.3492, 46.69077
285.8313, 46.41430
286.3134, 45.33708
286.7956, 44.32218
287.2777, 44.04032
287.7598, 44.49011
288.2419, 45.05366
288.7240, 44.92340
289.2061, 43.76095
289.6883, 43.16051
290.1704, 43.83583
290.6525, 44.40309
291.1346, 44.00775
291.6167, 42.81413
292.0988, 41.66426
292.5810, 41.39062
293.0631, 42.10120
293.5452, 42.53245
294.0273, 42.52777
294.5094, 42.40516
294.9915, 42.22165
295.4737, 42.00116
295.9558, 41.76888
296.4379, 41.54930
296.9200, 41.33564
297.4021, 41.03193
297.8842, 40.32400
298.3664, 39.86354
298.8485, 40.04266
299.3306, 40.50945
299.8127, 40.68402
300.2948, 40.21969
300.7769, 39.32444
301.2591, 38.85254
301.7412, 39.41619
302.2233, 39.68626
302.7054, 39.39004
303.1875, 38.80396
303.6696, 38.20246
304.1518, 37.70200
304.6339, 37.28988
305.1160, 36.92778
305.5981, 36.54714
306.0802, 36.34620
306.5623, 36.45306
307.0445, 36.64976
307.5266, 36.78724
308.0087, 36.81787
308.4908, 36.75304
308.9729, 36.61471
309.4550, 36.43578
309.9372, 36.07663
310.4193, 35.23748
310.9014, 34.48147
311.3835, 34.18868
311.8656, 34.35458
312.3477, 34.72869
312.8299, 35.08369
313.3120, 35.44587
313.7941, 35.61671
314.2762, 35.66982
314.7583, 35.49733
315.2404, 34.78755
315.7226, 33.78833
316.2047, 33.09231
316.6868, 33.17627
317.1689, 33.97959
317.6510, 34.54718
318.1331, 34.84000
318.6153, 34.94216
319.0974, 34.75761
319.5795, 34.41162
320.0616, 34.08919
320.5437, 33.88883
321.0258, 33.75957
321.5080, 33.52568
321.9901, 32.98421
322.4722, 32.59875
322.9543, 32.47699
323.4364, 32.48069
323.9185, 32.48620
324.4007, 32.44882
324.8828, 32.38177
325.3649, 32.29803
325.8470, 32.11753
326.3291, 32.08622
326.8112, 32.40380
327.2934, 32.70480
327.7755, 32.66951
328.2576, 32.30173
328.7397, 31.89558
329.2218, 31.77087
329.7039, 31.96906
330.1861, 32.26568
330.6682, 32.89440
331.1503, 33.38964
331.6324, 33.49691
332.1145, 33.29212
332.5966, 32.99469
333.0788, 32.75508
333.5609, 32.57630
334.0430, 32.51406
334.5251, 32.99700
335.0072, 33.12630
335.4893, 32.32149
335.9715, 31.14944
336.4536, 30.49738
336.9357, 30.83734
337.4178, 31.76247
337.8999, 32.02052
338.3820, 31.00471
338.8642, 30.19059
339.3463, 29.66744
339.8284, 29.38998
340.3105, 29.33764
340.7926, 29.49588
341.2747, 29.82736
341.7568, 30.31734
342.2390, 31.11681
342.7211, 31.68709
343.2032, 32.07038
343.6853, 32.22437
344.1674, 32.00471
344.6495, 31.48883
345.1317, 30.94833
345.6138, 30.62350
346.0959, 30.51905
346.5780, 30.54976
347.0601, 30.96219
347.5422, 31.27250
348.0244, 31.21968
348.5065, 30.98319
348.9886, 30.91356
349.4707, 31.25097
349.9528, 31.86629
350.4349, 32.23947
350.9171, 32.34080
351.3992, 32.21474
351.8813, 31.67043
352.3634, 31.03049
352.8455, 30.61665
353.3276, 30.53886
353.8098, 30.67955
354.2919, 30.87511
354.7740, 31.16947
355.2561, 31.38216
355.7382, 31.58983
356.2203, 31.64104
356.7025, 31.31880
357.1846, 30.67545
357.6667, 30.06586
358.1488, 29.91357
358.6309, 30.24560
359.1130, 30.29327
359.5952, 29.59415
360.0773, 29.13444
360.5594, 29.53203
361.0415, 30.45343
361.5236, 31.19853
362.0057, 31.31527
362.4879, 31.00303
362.9700, 30.90935
363.4521, 31.21812
363.9342, 31.33292
364.4163, 30.75518
364.8984, 30.02221
365.3806, 29.70293
365.8627, 29.98612
366.3448, 30.58484
366.8269, 31.33653
367.3090, 32.33192
367.7911, 32.62794
368.2733, 31.30224
368.7554, 29.76210
369.2375, 28.93003
369.7196, 28.85410
370.2017, 29.28238
370.6838, 30.43954
371.1660, 32.06451
371.6481, 32.81226
372.1302, 32.24056
372.6123, 31.38787
373.0944, 30.87374
373.5765, 30.61869
374.0587, 30.45998
374.5408, 30.30645
375.0229, 30.23782
375.5050, 30.49417
375.9871, 31.14110
376.4692, 31.52334
376.9514, 31.06405
377.4335, 30.26688
377.9156, 29.90878
378.3977, 30.20200
378.8798, 30.54837
379.3619, 30.38764
379.8441, 29.87437
380.3262, 29.76927
380.8083, 30.50635
381.2904, 31.33379
381.7725, 31.14468
382.2546, 29.98299
382.7368, 29.07485
383.2189, 28.97906
383.7010, 29.29168
384.1831, 29.45099
384.6652, 29.38969
385.1473, 29.33354
385.6295, 29.56931
386.1116, 29.98556
386.5937, 29.93280
387.0758, 28.79850
387.5579, 27.73142
388.0400, 27.54704
388.5222, 28.03948
389.0043, 28.51801
389.4864, 28.69490
389.9685, 28.60879
390.4506, 28.31110
390.9327, 27.72474
391.4149, 27.14527
391.8970, 26.45951
392.3791, 25.88823
392.8612, 25.76889
393.3433, 26.16012
393.8254, 26.74022
394.3076, 27.16739
394.7897, 27.42898
395.2718, 27.53460
395.7539, 27.31743
396.2360, 27.11041
396.7181, 27.11255
397.2003, 27.28579
397.6824, 27.52569
398.1645, 27.79913
398.6466, 28.03434
399.1287, 27.85843
399.6108, 26.44281
400.0930, 25.62712
400.5751, 26.11836
401.0572, 27.05842
401.5393, 27.51307
402.0214, 27.20563
402.5035, 26.53285
402.9857, 26.06149
403.4678, 25.82985
403.9499, 25.70332
404.4320, 25.68618
404.9141, 25.75286
405.3962, 25.93520
405.8784, 26.19638
406.3605, 26.45584
406.8426, 26.65902
407.3247, 26.80562
407.8068, 26.89330
408.2889, 27.01644
408.7711, 26.92151
409.2532, 26.25953
409.7353, 25.50552
410.2174, 25.23587
410.6995, 25.65328
411.1816, 26.32775
411.6638, 26.64497
412.1459, 26.54763
412.6280, 26.39503
413.1101, 26.14694
413.5922, 25.92846
414.0743, 25.79731
414.5565, 25.75680
415.0386, 25.79721
415.5207, 25.97637
416.0028, 26.23422
416.4849, 26.33450
416.9670, 26.21946
417.4492, 26.09076
417.9313, 26.12712
418.4134, 26.19022
418.8955, 26.06151
419.3776, 25.60038
419.8597, 25.14440
420.3419, 25.03947
420.8240, 25.25522
421.3061, 25.52704
421.7882, 25.83719
422.2703, 26.09698
422.7524, 26.21591
423.2346, 26.20323
423.7167, 26.06333
424.1988, 25.65726
424.6809, 25.18890
425.1630, 24.94544
425.6451, 24.95561
426.1273, 25.05052
426.6094, 25.08677
427.0915, 25.11238
427.5736, 25.34287
428.0557, 26.32131
428.5378, 26.92128
429.0200, 26.21587
429.5021, 24.81445
429.9842, 24.01831
430.4663, 24.32171
430.9484, 25.18818
431.4305, 25.75167
431.9127, 25.85958
432.3948, 26.00797
432.8769, 26.38978
433.3590, 26.66714
433.8411, 26.46213
434.3232, 25.87117
434.8054, 25.38543
435.2875, 25.41417
435.7696, 25.88869
436.2517, 26.08372
436.7338, 25.76864
437.2159, 25.43213
437.6981, 25.01816
438.1802, 24.67405
438.6623, 24.64803
439.1444, 24.99382
439.6265, 25.38942
440.1086, 25.24536
440.5908, 24.21988
441.0729, 23.78532
441.5550, 24.66835
442.0371, 25.47979
442.5192, 25.50363
443.0013, 24.95102
443.4835, 24.44867
443.9656, 24.39083
444.4477, 24.67460
444.9298, 25.00947
445.4119, 25.44981
445.8940, 25.80485
446.3762, 26.10760
446.8583, 26.24619
447.3404, 25.97700
447.8225, 25.24225
448.3046, 24.62036
448.7867, 24.74133
449.2689, 25.45874
449.7510, 25.99605
450.2331, 26.27307
450.7152, 26.31181
451.1973, 25.90576
451.6794, 25.25725
452.1616, 24.92252
452.6437, 25.38268
453.1258, 25.95246
453.6079, 25.86182
454.0900, 25.22148
454.5721, 24.78039
455.0543, 24.91976
455.5364, 25.35049
456.0185, 25.44790
456.5006, 25.09873
456.9827, 24.92381
457.4648, 25.22698
457.9470, 25.68124
458.4291, 25.91476
458.9112, 25.89716
459.3933, 25.86865
459.8754, 26.03574
460.3575, 26.39175
460.8397, 26.67180
461.3218, 26.94705
461.8039, 27.07940
462.2860, 26.97936
462.7681, 26.73380
463.2502, 26.40964
463.7324, 26.04143
464.2145, 25.73117
464.6966, 25.67377
465.1787, 26.02295
465.6608, 26.15802
466.1429, 25.95563
466.6251, 25.67217
467.1072, 25.33201
467.5893, 25.00315
468.0714, 24.81395
468.5535, 24.86614
469.0356, 25.07063
469.5178, 25.17572
469.9999, 25.17224
470.4820, 25.09209
470.9641, 24.82050
471.4462, 24.55539
471.9283, 24.44144
472.4105, 24.49669
472.8926, 24.65835
473.3747, 24.95761
473.8568, 25.33504
474.3389, 25.58054
474.8210, 25.69702
475.3032, 25.63156
475.7853, 25.19828
476.2674, 24.57688
476.7495, 24.12023
477.2316, 23.92519
477.7137, 23.84232
478.1959, 23.79842
478.6780, 23.78725
479.1601, 23.78261
479.6422, 23.77024
480.1243, 23.78852
480.6064, 23.88654
481.0886, 24.07067
481.5707, 24.31429
482.0528, 24.70886
482.5349, 25.08220
483.0170, 25.39877
483.4991, 25.60287
483.9813, 25.50122
484.4634, 24.94587
484.9455, 24.16924
485.4276, 23.86769
485.9097, 24.47828
486.3918, 24.94941
486.8740, 25.36775
487.3561, 25.57580
487.8382, 25.32345
488.3203, 24.69384
488.8024, 24.09554
489.2845, 23.88967
489.7667, 24.03226
490.2488, 24.07077
490.7309, 23.94678
491.2130, 23.81042
491.6951, 23.75358
492.1772, 23.68157
492.6594, 23.43154
493.1415, 22.96244
493.6236, 22.57153
494.1057, 22.61836
494.5878, 23.05101
495.0699, 23.43475
495.5521, 23.73573
496.0342, 23.95799
496.5163, 24.14739
496.9984, 24.26298
497.4805, 24.16284
497.9626, 23.56606
498.4448, 23.02654
498.9269, 23.15179
499.4090, 23.74838
499.8911, 24.09697
500.3732, 23.91730
500.8553, 23.51085
501.3375, 23.30139
501.8196, 23.33051
502.3017, 23.34684
502.7838, 23.25402
503.2659, 23.21376
503.7480, 23.38905
504.2302, 23.71655
504.7123, 24.04972
505.1944, 24.32777
505.6765, 24.45356
506.1586, 24.09475
506.6407, 22.44923
507.1228, 21.64344
507.6049, 22.39677
508.0871, 23.39732
508.5692, 23.70954
509.0513, 23.36413
509.5334, 22.98135
510.0155, 23.04931
510.4977, 23.47323
510.9798, 23.80626
511.4619, 24.07207
511.9440, 24.19214
512.4261, 24.09551
512.9083, 23.87208
513.3904, 23.49418
513.8725, 22.95706
514.3546, 22.63675
514.8367, 23.03820
515.3188, 23.86032
515.8010, 24.22294
516.2831, 23.99405
516.7652, 23.55315
517.2473, 22.96092
517.7294, 22.38594
518.2115, 22.35368
518.6937, 23.38251
519.1758, 24.21408
519.6579, 23.99403
520.1400, 23.29572
520.6221, 23.17675
521.1042, 23.87287
521.5864, 24.58552
522.0685, 24.39017
522.5506, 23.15512
523.0327, 22.40851
523.5148, 22.22295
523.9969, 22.34797
524.4791, 23.13608
524.9612, 24.03590
525.4433, 24.15789
525.9254, 23.22471
526.4075, 21.99280
526.8896, 21.65760
527.3718, 22.42657
527.8539, 23.01456
528.3360, 23.47205
528.8181, 23.64394
529.3002, 23.20918
529.7823, 22.49683
530.2645, 22.13604
530.7466, 22.45603
531.2287, 23.01646
531.7108, 23.27505
532.1929, 23.24786
532.6750, 23.14860
533.1572, 22.93862
533.6393, 22.82009
534.1214, 23.20047
534.6035, 23.96817
535.0856, 24.32697
535.5677, 23.68407
536.0499, 22.95215
536.5320, 22.88950
537.0141, 23.31945
537.4962, 23.65426
537.9783, 23.64668
538.4604, 23.43282
538.9426, 23.23632
539.4247, 23.01567
539.9068, 22.93118
540.3889, 22.95243
540.8710, 23.12555
541.3531, 23.68793
541.8353, 24.40864
542.3174, 24.73668
542.7995, 24.33798
543.2816, 23.62006
543.7637, 23.58307
544.2458, 24.53135
544.7280, 25.14250
545.2101, 25.02300
545.6922, 24.69582
546.1743, 24.25094
546.6564, 23.80921
547.1385, 23.73399
547.6207, 24.51399
548.1028, 25.48273
548.5849, 25.43851
549.0670, 24.42963
549.5491, 23.82127
550.0313, 24.25085
550.5134, 25.07373
550.9955, 25.32204
551.4776, 24.99575
551.9597, 24.63763
552.4418, 24.22226
552.9240, 23.91416
553.4061, 23.94020
553.8882, 24.19884
554.3703, 24.37504
554.8524, 24.31150
555.3345, 24.05519
555.8167, 23.67264
556.2988, 22.79104
556.7809, 22.54694
557.2630, 23.54713
557.7451, 24.53518
558.2272, 24.69351
558.7094, 24.26400
559.1915, 24.01007
559.6736, 24.40842
560.1557, 25.09303
560.6378, 25.29867
561.1199, 24.97039
561.6021, 24.48339
562.0842, 23.67957
562.5663, 22.99955
563.0484, 22.75690
563.5305, 22.92927
564.0126, 23.37683
564.4948, 24.36220
564.9769, 25.36677
565.4590, 25.80659
565.9411, 25.77195
566.4232, 25.70708
566.9053, 25.79770
567.3875, 25.86379
567.8696, 25.56691
568.3517, 24.66739
568.8338, 24.26217
569.3159, 24.96514
569.7980, 25.56095
570.2802, 25.18473
570.7623, 24.25165
571.2444, 23.68279
571.7265, 23.90592
572.2086, 24.50063
572.6907, 24.64378
573.1729, 24.12398
573.6550, 24.02625
574.1371, 24.96138
574.6192, 25.72715
575.1013, 25.65876
575.5834, 25.04693
576.0656, 24.48297
576.5477, 24.15841
577.0298, 24.02814
577.5119, 24.12097
577.9940, 24.39029
578.4761, 24.58994
578.9583, 24.65901
579.4404, 24.66891
579.9225, 24.67315
580.4046, 24.67375
580.8867, 24.69586
581.3688, 24.87316
581.8510, 24.92575
582.3331, 24.61677
582.8152, 24.14791
583.2973, 23.84090
583.7794, 23.77752
584.2615, 23.75857
584.7437, 23.52880
585.2258, 23.06514
585.7079, 22.80368
586.1900, 22.86348
586.6721, 22.98553
587.1542, 23.19095
587.6363, 23.38032
588.1184, 23.35947
588.6005, 23.09966
