##NAMES=Libyan Desert glass
##RRUFFID=R060357
##IDEAL CHEMISTRY=SiO_2_
##LOCALITY=Libyan Desert, Sahara Desert, Egypt
##OWNER=RRUFF
##SOURCE=Herb Obodda
##DESCRIPTION=Pale tan amorphous fragment
##STATUS=The identification of this mineral has been confirmed by X-ray diffraction and chemical analysis
##URL=rruff.info/R060357
##MEASURED CHEMISTRY=Si_1.00_O_2_
130.5079, 12.71372
130.9900, 12.53390
131.4721, 12.02202
131.9542, 11.74668
132.4363, 12.35597
132.9185, 13.73270
133.4006, 15.09328
133.8827, 16.35285
134.3648, 17.40934
134.8469, 17.76749
135.3290, 17.26214
135.8112, 16.78372
136.2933, 17.46730
136.7754, 19.38384
137.2575, 21.36529
137.7396, 23.00826
138.2217, 24.29883
138.7039, 25.90106
139.1860, 28.04952
139.6681, 30.14211
140.1502, 31.05107
140.6323, 30.30226
141.1144, 29.91679
141.5966, 30.67814
142.0787, 32.73550
142.5608, 35.39957
143.0429, 39.07438
143.5250, 43.12261
144.0071, 46.00371
144.4893, 47.22618
144.9714, 48.03752
145.4535, 48.87010
145.9356, 49.30711
146.4177, 50.68240
146.8998, 53.60716
147.3820, 57.56220
147.8641, 60.45023
148.3462, 61.11764
148.8283, 61.76683
149.3104, 63.60005
149.7925, 67.62643
150.2747, 71.51877
150.7568, 75.04041
151.2389, 78.22372
151.7210, 81.45422
152.2031, 84.25426
152.6852, 87.35311
153.1674, 91.23863
153.6495, 97.61108
154.1316, 102.9804
154.6137, 106.6073
155.0958, 108.4562
155.5779, 110.1092
156.0601, 111.3701
156.5422, 112.6853
157.0243, 114.4226
157.5064, 117.9329
157.9885, 120.6796
158.4706, 121.6584
158.9528, 120.6189
159.4349, 119.6465
159.9170, 119.1572
160.3991, 119.0516
160.8812, 119.2147
161.3633, 119.9576
161.8455, 120.6869
162.3276, 120.8946
162.8097, 120.2698
163.2918, 120.4458
163.7739, 122.5761
164.2560, 125.7266
164.7382, 127.8482
165.2203, 128.9826
165.7024, 129.9494
166.1845, 131.0315
166.6666, 132.2262
167.1487, 133.6732
167.6309, 135.6422
168.1130, 137.9381
168.5951, 140.1132
169.0772, 142.1563
169.5593, 143.9147
170.0414, 145.2079
170.5236, 145.8878
171.0057, 146.4014
171.4878, 147.2581
171.9699, 148.2708
172.4520, 148.8493
172.9341, 148.5507
173.4163, 147.6937
173.8984, 146.5039
174.3805, 144.5734
174.8626, 143.0648
175.3447, 143.6639
175.8268, 145.9042
176.3090, 147.6248
176.7911, 146.9113
177.2732, 144.7945
177.7553, 142.9086
178.2374, 141.6401
178.7195, 140.7939
179.2017, 140.2491
179.6838, 139.9702
180.1659, 139.6771
180.6480, 138.6807
181.1301, 137.4871
181.6122, 137.3596
182.0944, 139.3059
182.5765, 142.0294
183.0586, 143.2305
183.5407, 142.9090
184.0228, 142.2910
184.5049, 142.4981
184.9871, 143.3290
185.4692, 144.0596
185.9513, 144.4962
186.4334, 144.6775
186.9155, 144.5716
187.3976, 144.1443
187.8798, 143.8302
188.3619, 144.1535
188.8440, 145.0353
189.3261, 145.9676
189.8082, 146.9507
190.2903, 147.8565
190.7725, 148.1286
191.2546, 147.6896
191.7367, 147.0455
192.2188, 146.8497
192.7009, 147.0685
193.1830, 147.0974
193.6652, 146.6199
194.1473, 145.7255
194.6294, 144.9483
195.1115, 144.2537
195.5936, 143.7822
196.0757, 143.8127
196.5579, 144.3604
197.0400, 144.9374
197.5221, 145.3915
198.0042, 145.7220
198.4863, 145.8905
198.9684, 145.8607
199.4506, 145.7495
199.9327, 145.7511
200.4148, 145.8842
200.8969, 145.9596
201.3790, 145.8578
201.8611, 145.5687
202.3433, 145.3653
202.8254, 145.2063
203.3075, 145.1925
203.7896, 145.6553
204.2717, 146.7534
204.7538, 147.5270
205.2360, 147.3314
205.7181, 145.9817
206.2002, 145.3961
206.6823, 145.7246
207.1644, 146.6297
207.6465, 147.5633
208.1287, 148.5564
208.6108, 149.4438
209.0929, 150.1523
209.5750, 150.6750
210.0571, 151.1110
210.5392, 151.5470
211.0214, 151.8332
211.5035, 151.5599
211.9856, 150.5258
212.4677, 149.5091
212.9498, 148.8388
213.4319, 148.5506
213.9140, 148.4997
214.3962, 148.7510
214.8783, 149.1950
215.3604, 149.5965
215.8425, 149.9868
216.3246, 150.2671
216.8067, 150.3969
217.2889, 150.3697
217.7710, 150.1717
218.2531, 149.6762
218.7352, 149.0702
219.2173, 148.8056
219.6994, 148.9720
220.1816, 149.3049
220.6637, 149.6960
221.1458, 150.1448
221.6279, 150.6848
222.1100, 151.4449
222.5921, 152.2523
223.0743, 152.6714
223.5564, 152.6434
224.0385, 152.3333
224.5206, 151.6630
225.0027, 150.1030
225.4848, 149.6681
225.9670, 150.9306
226.4491, 153.1596
226.9312, 154.4210
227.4133, 154.2773
227.8954, 153.8598
228.3775, 153.7063
228.8597, 154.0144
229.3418, 154.0392
229.8239, 153.4907
230.3060, 152.7203
230.7881, 152.8045
231.2702, 154.3080
231.7524, 155.8039
232.2345, 156.5865
232.7166, 156.2508
233.1987, 156.1895
233.6808, 156.5807
234.1629, 157.2045
234.6451, 157.4198
235.1272, 156.8304
235.6093, 156.4278
236.0914, 156.8339
236.5735, 159.0520
237.0556, 159.6778
237.5378, 157.7743
238.0199, 154.5597
238.5020, 153.2047
238.9841, 154.6600
239.4662, 156.5498
239.9483, 157.9203
240.4305, 158.6607
240.9126, 159.0904
241.3947, 159.0599
241.8768, 158.7625
242.3589, 158.7181
242.8410, 159.2140
243.3232, 159.5148
243.8053, 159.1932
244.2874, 157.6555
244.7695, 156.9592
245.2516, 157.3931
245.7337, 158.5461
246.2159, 159.5327
246.6980, 160.3670
247.1801, 161.0157
247.6622, 161.4268
248.1443, 161.4493
248.6264, 161.6869
249.1086, 162.2752
249.5907, 163.0164
250.0728, 163.5083
250.5549, 163.7166
251.0370, 163.7296
251.5191, 163.4919
252.0013, 162.7932
252.4834, 162.6004
252.9655, 163.2396
253.4476, 164.1861
253.9297, 164.3620
254.4118, 163.2001
254.8940, 162.3183
255.3761, 162.3333
255.8582, 163.4560
256.3403, 164.7106
256.8224, 166.3445
257.3046, 167.9258
257.7867, 168.6266
258.2688, 168.0756
258.7509, 167.4426
259.2330, 167.0715
259.7151, 166.9633
260.1973, 167.1514
260.6794, 167.7975
261.1615, 168.5831
261.6436, 169.0125
262.1257, 168.9757
262.6078, 168.8520
263.0900, 168.6805
263.5721, 168.4178
264.0542, 168.5810
264.5363, 169.4249
265.0184, 170.3866
265.5005, 170.6572
265.9827, 169.9076
266.4648, 169.4245
266.9469, 169.6928
267.4290, 170.7342
267.9111, 171.3447
268.3932, 171.4331
268.8754, 171.2204
269.3575, 170.8296
269.8396, 170.0850
270.3217, 169.8212
270.8038, 170.3829
271.2859, 171.7209
271.7681, 172.7944
272.2502, 173.6354
272.7323, 174.1502
273.2144, 174.0313
273.6965, 173.0707
274.1786, 172.6392
274.6608, 173.2356
275.1429, 174.6598
275.6250, 175.3902
276.1071, 175.2438
276.5892, 174.9304
277.0714, 175.1481
277.5535, 175.9688
278.0356, 176.6626
278.5177, 177.0787
278.9998, 177.2720
279.4819, 177.4225
279.9641, 177.5042
280.4462, 177.6658
280.9283, 178.1954
281.4104, 179.1174
281.8925, 179.4774
282.3746, 178.9400
282.8568, 177.8929
283.3389, 177.3781
283.8210, 177.4083
284.3031, 177.8617
284.7852, 178.9310
285.2673, 180.5456
285.7495, 181.5163
286.2316, 181.4612
286.7137, 181.0244
287.1958, 181.7621
287.6779, 183.7147
288.1600, 185.5183
288.6422, 186.3197
289.1243, 186.2046
289.6064, 185.6900
290.0885, 184.6966
290.5706, 183.6172
291.0527, 183.1262
291.5349, 183.1947
292.0170, 183.3771
292.4991, 183.3265
292.9812, 183.1790
293.4633, 183.5293
293.9454, 184.5054
294.4276, 185.5822
294.9097, 185.8448
295.3918, 185.4810
295.8739, 185.4784
296.3560, 186.8960
296.8381, 188.9574
297.3203, 189.5882
297.8024, 188.6241
298.2845, 187.3577
298.7666, 187.2096
299.2487, 187.8882
299.7308, 188.4954
300.2130, 188.4865
300.6951, 188.2476
301.1772, 188.4998
301.6593, 189.2409
302.1414, 189.9643
302.6235, 190.1163
303.1057, 189.9333
303.5878, 189.8994
304.0699, 190.4039
304.5520, 190.9582
305.0341, 190.8174
305.5162, 190.0749
305.9984, 189.5139
306.4805, 189.9207
306.9626, 190.8029
307.4447, 191.4476
307.9268, 191.5036
308.4089, 191.4798
308.8911, 191.9604
309.3732, 192.7979
309.8553, 193.3905
310.3374, 193.0638
310.8195, 192.4633
311.3016, 192.2449
311.7838, 192.6307
312.2659, 193.2346
312.7480, 194.0041
313.2301, 194.8160
313.7122, 195.3797
314.1943, 195.3625
314.6765, 195.1837
315.1586, 195.1677
315.6407, 195.4302
316.1228, 195.6154
316.6049, 195.3199
317.0870, 194.8655
317.5692, 194.7832
318.0513, 195.6601
318.5334, 196.6235
319.0155, 197.2503
319.4976, 197.4780
319.9797, 197.5849
320.4619, 197.3158
320.9440, 197.0895
321.4261, 197.3757
321.9082, 198.8927
322.3903, 200.3485
322.8724, 201.5573
323.3546, 202.5130
323.8367, 202.6347
324.3188, 200.4260
324.8009, 198.0950
325.2830, 197.3484
325.7651, 200.5241
326.2473, 202.9205
326.7294, 203.5640
327.2115, 202.6685
327.6936, 201.9548
328.1757, 201.3535
328.6578, 201.0874
329.1400, 201.2871
329.6221, 202.9201
330.1042, 203.6949
330.5863, 203.1167
331.0684, 201.6513
331.5505, 200.6604
332.0327, 200.1230
332.5148, 200.0663
332.9969, 200.5803
333.4790, 201.9173
333.9611, 203.0896
334.4432, 204.0429
334.9254, 204.8634
335.4075, 205.7682
335.8896, 207.1033
336.3717, 207.8139
336.8538, 207.2819
337.3359, 205.2919
337.8180, 204.4655
338.3001, 205.1651
338.7823, 206.4755
339.2644, 207.4010
339.7465, 207.9068
340.2286, 208.1955
340.7107, 208.2279
341.1928, 208.0636
341.6750, 208.1134
342.1571, 208.3908
342.6392, 208.8231
343.1213, 209.5249
343.6034, 210.4998
344.0855, 210.9077
344.5677, 210.4092
345.0498, 209.4631
345.5319, 209.1965
346.0140, 209.6230
346.4961, 210.3394
346.9782, 211.4748
347.4604, 212.8058
347.9425, 212.9522
348.4246, 211.5020
348.9067, 209.7205
349.3888, 209.5908
349.8709, 210.8577
350.3531, 212.0967
350.8352, 212.5746
351.3173, 212.5425
351.7994, 212.3567
352.2815, 212.0015
352.7636, 211.8445
353.2458, 212.5056
353.7279, 213.6279
354.2100, 214.4338
354.6921, 214.3197
355.1742, 213.9529
355.6563, 214.0582
356.1385, 214.5990
356.6206, 215.2021
357.1027, 215.6418
357.5848, 215.9864
358.0669, 216.3028
358.5490, 216.4962
359.0312, 216.8270
359.5133, 217.8365
359.9954, 219.1945
360.4775, 219.8984
360.9596, 218.7940
361.4417, 217.3080
361.9239, 216.3625
362.4060, 216.1264
362.8881, 216.3592
363.3702, 217.2917
363.8523, 218.5760
364.3344, 219.6792
364.8166, 220.6944
365.2987, 221.2924
365.7808, 221.1741
366.2629, 220.2313
366.7450, 219.4837
367.2271, 218.9161
367.7093, 218.7006
368.1914, 218.9889
368.6735, 220.5935
369.1556, 221.8244
369.6377, 222.2604
370.1198, 222.0123
370.6020, 221.9835
371.0841, 222.2978
371.5662, 222.7175
372.0483, 223.1046
372.5304, 223.3615
373.0125, 223.8083
373.4947, 224.6980
373.9768, 225.6890
374.4589, 225.8739
374.9410, 224.7678
375.4231, 223.8553
375.9052, 223.8015
376.3874, 224.7604
376.8695, 225.3297
377.3516, 225.3822
377.8337, 225.2704
378.3158, 225.5456
378.7979, 226.3073
379.2801, 226.6576
379.7622, 226.0665
380.2443, 224.9032
380.7264, 225.0641
381.2085, 226.7280
381.6906, 228.4438
382.1728, 228.9064
382.6549, 228.2847
383.1370, 227.5712
383.6191, 226.8293
384.1012, 226.2446
384.5833, 226.1511
385.0655, 226.5188
385.5476, 227.0981
386.0297, 228.1640
386.5118, 229.2499
386.9939, 229.2373
387.4760, 227.8601
387.9582, 226.6234
388.4403, 227.3641
388.9224, 229.2825
389.4045, 230.7075
389.8866, 230.5730
390.3687, 229.9248
390.8509, 229.6353
391.3330, 229.6778
391.8151, 229.6526
392.2972, 229.1514
392.7793, 228.5474
393.2614, 228.1763
393.7436, 227.9902
394.2257, 228.2480
394.7078, 229.5185
395.1899, 231.3646
395.6720, 232.6383
396.1541, 232.7058
396.6363, 232.3381
397.1184, 231.7820
397.6005, 230.8708
398.0826, 230.3914
398.5647, 230.6857
399.0468, 231.3991
399.5290, 232.1016
400.0111, 232.9095
400.4932, 233.5489
400.9753, 233.9951
401.4574, 234.2476
401.9395, 234.2041
402.4217, 233.4510
402.9038, 232.8319
403.3859, 233.0020
403.8680, 234.4988
404.3501, 235.4713
404.8322, 235.6022
405.3144, 235.2175
405.7965, 235.2179
406.2786, 235.7379
406.7607, 236.1919
407.2428, 236.1858
407.7249, 235.6909
408.2071, 235.8494
408.6892, 236.8508
409.1713, 237.9474
409.6534, 238.1384
410.1355, 237.4607
410.6176, 236.6674
411.0998, 235.7851
411.5819, 235.0499
412.0640, 235.2117
412.5461, 236.2378
413.0282, 237.3318
413.5103, 237.7278
413.9925, 237.7607
414.4746, 238.2418
414.9567, 239.4889
415.4388, 240.6568
415.9209, 240.8139
416.4030, 240.2051
416.8852, 239.4413
417.3673, 238.4912
417.8494, 237.7444
418.3315, 237.6825
418.8136, 238.3415
419.2957, 238.8937
419.7779, 238.8029
420.2600, 238.4040
420.7421, 238.0344
421.2242, 237.7923
421.7063, 237.5942
422.1884, 237.3854
422.6706, 237.1920
423.1527, 237.1000
423.6348, 236.9744
424.1169, 237.0840
424.5990, 237.6691
425.0811, 239.2705
425.5633, 240.1269
426.0454, 239.5463
426.5275, 238.4648
427.0096, 238.0783
427.4917, 238.8657
427.9738, 239.6335
428.4560, 240.1482
428.9381, 240.4218
429.4202, 240.6627
429.9023, 240.9190
430.3844, 241.0455
430.8665, 240.8299
431.3487, 240.1557
431.8308, 239.9258
432.3129, 240.4145
432.7950, 241.1205
433.2771, 240.7385
433.7592, 239.2095
434.2414, 238.1224
434.7235, 238.6536
435.2056, 240.2825
435.6877, 240.7278
436.1698, 239.9053
436.6519, 238.9236
437.1341, 239.0148
437.6162, 239.8251
438.0983, 240.4212
438.5804, 240.4684
439.0625, 240.3168
439.5446, 240.5566
440.0268, 241.0011
440.5089, 240.9617
440.9910, 239.1948
441.4731, 237.2655
441.9552, 236.7770
442.4373, 238.1956
442.9195, 239.4886
443.4016, 239.3599
443.8837, 238.6096
444.3658, 238.2099
444.8479, 239.2446
445.3300, 239.8718
445.8122, 239.0606
446.2943, 237.0434
446.7764, 235.8825
447.2585, 236.8076
447.7406, 237.9451
448.2227, 238.3265
448.7049, 237.3470
449.1870, 236.7744
449.6691, 237.0000
450.1512, 237.4399
450.6333, 237.1121
451.1154, 235.6213
451.5976, 234.1796
452.0797, 232.9703
452.5618, 232.0211
453.0439, 232.0985
453.5260, 233.5512
454.0081, 234.9386
454.4903, 234.9533
454.9724, 233.6172
455.4545, 232.4844
455.9366, 231.7991
456.4187, 231.2900
456.9008, 230.2965
457.3830, 228.9267
457.8651, 228.1093
458.3472, 228.9978
458.8293, 230.4931
459.3114, 230.3085
459.7935, 228.4486
460.2757, 226.6218
460.7578, 226.4713
461.2399, 227.1359
461.7220, 227.3997
462.2041, 226.7640
462.6862, 225.9684
463.1684, 225.4837
463.6505, 225.2006
464.1326, 224.8787
464.6147, 224.6132
465.0968, 224.1214
465.5789, 223.1287
466.0611, 221.5196
466.5432, 220.1922
467.0253, 219.5053
467.5074, 219.0846
467.9895, 218.6225
468.4716, 218.1933
468.9538, 217.5772
469.4359, 216.5588
469.9180, 215.3544
470.4001, 214.6625
470.8822, 214.6077
471.3643, 214.8723
471.8465, 215.4748
472.3286, 216.5019
472.8107, 216.9123
473.2928, 216.5550
473.7749, 215.9564
474.2570, 215.7106
474.7392, 215.8164
475.2213, 215.8946
475.7034, 215.8520
476.1855, 215.7500
476.6676, 215.7653
477.1497, 215.8741
477.6319, 215.8606
478.1140, 215.2283
478.5961, 214.5001
479.0782, 214.6548
479.5603, 215.7984
480.0424, 217.2007
480.5246, 218.5361
481.0067, 219.6846
481.4888, 220.4599
481.9709, 220.3170
482.4530, 220.3543
482.9352, 221.4614
483.4173, 223.2647
483.8994, 224.5839
484.3815, 224.8978
484.8636, 224.7367
485.3457, 224.2828
485.8279, 223.4626
486.3100, 222.6969
486.7921, 221.9780
487.2742, 221.3549
487.7563, 220.8792
488.2384, 220.6814
488.7206, 220.4263
489.2027, 220.1895
489.6848, 219.8550
490.1669, 218.9823
490.6490, 217.5147
491.1311, 215.7030
491.6133, 213.4169
492.0954, 210.6673
492.5775, 209.0366
493.0596, 208.7489
493.5417, 208.6758
494.0238, 207.7249
494.5060, 205.9562
494.9881, 203.5511
495.4702, 200.3435
495.9523, 196.8890
496.4344, 193.7497
496.9165, 191.0125
497.3987, 189.0135
497.8808, 188.7036
498.3629, 188.7388
498.8450, 187.8256
499.3271, 185.8349
499.8092, 183.4451
500.2914, 180.6524
500.7735, 177.7996
501.2556, 175.1385
501.7377, 173.0002
502.2198, 170.7775
502.7019, 168.0382
503.1841, 165.0904
503.6662, 162.7597
504.1483, 161.9882
504.6304, 160.8567
505.1125, 158.6039
505.5946, 155.0714
506.0768, 152.5417
506.5589, 151.5045
507.0410, 150.7756
507.5231, 149.3084
508.0052, 146.9478
508.4873, 144.9500
508.9695, 143.5708
509.4516, 142.4860
509.9337, 141.2736
510.4158, 139.9141
510.8979, 138.0234
511.3800, 134.8682
511.8622, 131.2252
512.3443, 128.8704
512.8264, 127.7810
513.3085, 127.1763
513.7906, 126.8414
514.2728, 126.5014
514.7549, 125.7784
515.2370, 124.5431
515.7191, 123.0967
516.2012, 121.3689
516.6833, 119.6134
517.1655, 118.1899
517.6476, 117.4679
518.1297, 116.8492
518.6118, 116.2643
519.0939, 115.6754
519.5760, 114.7348
520.0582, 113.0674
520.5403, 111.3282
521.0224, 109.7847
521.5045, 108.4093
521.9866, 107.2790
522.4688, 106.3950
522.9509, 105.7529
523.4330, 105.4890
523.9151, 105.7658
524.3972, 105.4385
524.8793, 103.9975
525.3615, 102.0295
525.8436, 101.1417
526.3257, 101.3193
526.8078, 101.6869
527.2899, 101.9922
527.7720, 102.0762
528.2542, 101.3925
528.7363, 99.89838
529.2184, 98.41928
529.7005, 97.72256
530.1826, 97.46104
530.6647, 97.15700
531.1469, 96.57485
531.6290, 96.10338
532.1111, 96.15062
532.5932, 96.45451
533.0753, 96.48109
533.5574, 95.81747
534.0396, 95.09840
534.5217, 94.52695
535.0038, 94.12378
535.4859, 93.74562
535.9680, 93.46098
536.4501, 93.13131
536.9323, 92.69254
537.4144, 92.16865
537.8965, 91.42915
538.3786, 90.39808
538.8607, 89.25281
539.3428, 88.22184
539.8250, 87.28628
540.3071, 86.61897
540.7892, 86.30600
541.2713, 86.26833
541.7534, 86.53028
542.2355, 87.03548
542.7177, 87.17878
543.1998, 86.15269
543.6819, 84.67360
544.1640, 83.94155
544.6461, 84.07401
545.1282, 84.26811
545.6104, 83.74317
546.0925, 83.05981
546.5746, 82.87782
547.0567, 83.89635
547.5388, 84.71367
548.0209, 84.86803
548.5031, 84.48343
548.9852, 83.84055
549.4673, 82.28259
549.9494, 81.22039
550.4315, 81.27682
550.9136, 82.44419
551.3958, 82.74770
551.8779, 81.72460
552.3600, 80.61654
552.8421, 80.33924
553.3242, 81.03658
553.8063, 81.13853
554.2885, 80.47510
554.7706, 79.50188
555.2527, 78.60510
555.7348, 77.85311
556.2169, 77.76097
556.6990, 78.84986
557.1812, 80.19741
557.6633, 80.42384
558.1454, 79.74426
558.6275, 78.96502
559.1096, 78.57183
559.5917, 78.25587
560.0739, 77.69276
560.5560, 76.85178
561.0381, 76.22837
561.5202, 76.23937
562.0023, 76.42022
562.4844, 76.42085
562.9666, 75.93891
563.4487, 75.66093
563.9308, 75.74435
564.4129, 75.99511
564.8950, 76.13719
565.3771, 76.19518
565.8593, 76.06847
566.3414, 75.64914
566.8235, 75.03803
567.3056, 74.71510
567.7877, 74.71934
568.2698, 74.73804
568.7520, 74.40553
569.2341, 73.91280
569.7162, 74.17795
570.1983, 75.27888
570.6804, 76.28590
571.1625, 76.17574
571.6447, 75.42435
572.1268, 74.77134
572.6089, 74.34664
573.0910, 74.14925
573.5731, 74.44213
574.0552, 74.91746
574.5374, 75.04255
575.0195, 74.36366
575.5016, 73.59055
575.9837, 72.75963
576.4658, 71.93491
576.9479, 71.73891
577.4301, 72.79711
577.9122, 73.75794
578.3943, 74.05398
578.8764, 73.60689
579.3585, 72.75642
579.8406, 71.19629
580.3228, 69.91317
580.8049, 70.21281
581.2870, 71.98963
581.7691, 73.45653
582.2512, 74.35539
582.7333, 74.69146
583.2155, 74.12753
583.6975, 72.95046
584.1796, 72.03632
584.6617, 72.00798
585.1439, 72.27325
585.6260, 72.32354
586.1081, 72.19559
586.5902, 72.08485
587.0723, 71.85161
587.5544, 71.84196
588.0366, 72.38242
588.5187, 73.71711
589.0008, 74.66091
589.4829, 74.83476
589.9650, 74.72663
590.4471, 74.64107
590.9293, 74.39548
591.4114, 74.66209
591.8935, 75.71644
592.3756, 77.05366
592.8577, 77.77698
593.3398, 77.86214
593.8220, 77.64155
594.3041, 77.09980
594.7862, 76.41248
595.2683, 76.01649
595.7504, 75.88076
596.2325, 75.75281
596.7147, 75.21976
597.1968, 74.74682
597.6789, 74.97900
598.1610, 75.97243
598.6431, 76.98405
599.1252, 77.90038
599.6074, 78.47404
600.0895, 78.44509
600.5716, 77.19717
601.0537, 76.34448
601.5358, 76.59226
602.0179, 77.18471
602.5001, 77.09546
602.9822, 75.79580
603.4643, 74.89538
603.9464, 74.79015
604.4285, 75.21249
604.9106, 75.21061
605.3928, 74.71957
605.8749, 74.38840
606.3570, 74.72210
606.8391, 75.44919
607.3212, 75.68884
607.8033, 75.45086
608.2855, 74.96335
608.7676, 74.18082
609.2497, 73.34769
609.7318, 72.83249
610.2139, 72.74606
610.6960, 72.66908
611.1782, 72.45520
611.6603, 72.09528
612.1424, 71.57539
612.6245, 70.46726
613.1066, 69.72175
613.5887, 69.72023
614.0709, 70.10587
614.5530, 70.19058
615.0351, 69.97169
615.5172, 69.41700
615.9993, 68.29008
616.4814, 66.81761
616.9636, 66.38457
617.4457, 67.08619
617.9278, 67.75368
618.4099, 67.56111
618.8920, 66.77494
619.3741, 65.99033
619.8563, 65.21750
620.3384, 64.78319
620.8205, 65.36597
621.3026, 66.26135
621.7847, 66.57000
622.2668, 65.92141
622.7490, 65.18279
623.2311, 64.70535
623.7132, 64.36412
624.1953, 63.99944
624.6774, 63.37229
625.1595, 62.99651
625.6417, 63.11530
626.1238, 63.49434
626.6059, 63.43096
627.0880, 62.76266
627.5701, 62.14848
628.0522, 61.86112
