##NAMES=Liebigite
##RRUFFID=R050662
##IDEAL CHEMISTRY=Ca_2_(U^6+^O_2_)(CO_3_)_3_&#183;11H_2_O
##LOCALITY=Schwartzwaelder mine, Jefferson County, Colorado, USA
##OWNER=RRUFF
##SOURCE=University of Arizona Mineral Museum
##DESCRIPTION=Yellowish-green flaky aggregate
##STATUS=The identification of this mineral has been confirmed by X-ray diffraction and chemical analysis
##URL=rruff.info/R050662
##MEASURED CHEMISTRY=Ca_2.00_(U_1.00_O_2_)(CO_3_)_3_Â·11H_2_O ; C not measured but estimated by stoichiometry
92.02539, 204.9870
92.50751, 205.0514
92.98962, 206.5667
93.47174, 207.1253
93.95386, 207.7594
94.43597, 207.9965
94.91809, 208.1235
95.40021, 208.0934
95.88232, 206.7843
96.36444, 203.0810
96.84656, 199.6855
97.32867, 197.5474
97.81078, 196.3072
98.29290, 195.3185
98.77502, 193.9827
99.25713, 191.9991
99.73925, 189.8527
100.2214, 187.0661
100.7035, 184.6123
101.1856, 183.0147
101.6677, 182.2297
102.1498, 181.7764
102.6320, 181.0440
103.1141, 179.6513
103.5962, 178.9980
104.0783, 179.5972
104.5604, 180.6924
105.0425, 181.4987
105.5247, 181.7977
106.0068, 181.6847
106.4889, 181.1876
106.9710, 180.2596
107.4531, 179.3193
107.9352, 178.4901
108.4173, 177.7734
108.8995, 177.1918
109.3816, 176.7586
109.8637, 176.4702
110.3458, 176.2962
110.8279, 176.2250
111.3100, 176.2892
111.7922, 176.5646
112.2743, 177.1157
112.7564, 177.6663
113.2385, 178.2548
113.7206, 178.7592
114.2027, 179.0625
114.6849, 179.1068
115.1670, 178.9259
115.6491, 178.6242
116.1312, 177.9024
116.6133, 177.4134
117.0954, 177.4135
117.5776, 177.6905
118.0597, 177.9419
118.5418, 177.9681
119.0239, 177.7667
119.5060, 177.3552
119.9881, 176.4530
120.4703, 175.6395
120.9524, 175.3004
121.4345, 175.3446
121.9166, 175.2882
122.3987, 174.6423
122.8808, 173.2820
123.3630, 172.1436
123.8451, 171.4475
124.3272, 170.8571
124.8093, 170.0056
125.2914, 168.7973
125.7735, 167.5448
126.2557, 166.5755
126.7378, 165.8417
127.2199, 165.3223
127.7020, 165.1669
128.1841, 165.2493
128.6662, 165.1433
129.1483, 164.6251
129.6305, 164.0975
130.1126, 163.7903
130.5947, 163.7126
131.0768, 163.8897
131.5589, 164.5010
132.0410, 165.6430
132.5232, 166.4295
133.0053, 166.2576
133.4874, 166.0340
133.9695, 166.2251
134.4516, 166.9200
134.9337, 167.8892
135.4159, 168.7785
135.8980, 169.4520
136.3801, 170.3267
136.8622, 171.5314
137.3443, 172.8530
137.8264, 174.1147
138.3086, 175.2495
138.7907, 176.3045
139.2728, 177.3839
139.7549, 178.7612
140.2370, 179.8457
140.7191, 180.3862
141.2013, 180.6419
141.6834, 180.9923
142.1655, 181.6358
142.6476, 182.5172
143.1297, 183.3765
143.6118, 184.3720
144.0939, 185.1971
144.5761, 185.7123
145.0582, 185.9427
145.5403, 186.0017
146.0224, 185.9251
146.5045, 185.7156
146.9866, 185.4308
147.4688, 184.9850
147.9509, 184.5376
148.4330, 184.3382
148.9151, 184.4570
149.3972, 184.3779
149.8793, 183.6085
150.3615, 182.4778
150.8436, 181.3410
151.3257, 180.3169
151.8078, 179.3699
152.2899, 178.4301
152.7720, 177.4587
153.2542, 176.5548
153.7363, 175.7375
154.2184, 174.9984
154.7005, 174.3239
155.1826, 173.7279
155.6647, 173.1977
156.1469, 172.6147
156.6290, 171.9219
157.1111, 171.2289
157.5932, 170.5661
158.0753, 169.9250
158.5574, 169.2868
159.0396, 168.6299
159.5217, 167.9460
160.0038, 167.3216
160.4859, 166.7940
160.9680, 166.2818
161.4501, 165.7967
161.9323, 165.3127
162.4144, 164.7507
162.8965, 164.0175
163.3786, 163.0378
163.8607, 162.2010
164.3428, 161.8598
164.8250, 161.4163
165.3071, 160.3237
165.7892, 158.5217
166.2713, 156.5439
166.7534, 155.0281
167.2355, 154.0461
167.7177, 153.0560
168.1998, 152.0256
168.6819, 150.9444
169.1640, 149.7754
169.6461, 148.4894
170.1282, 147.2011
170.6104, 146.0662
171.0925, 145.0665
171.5746, 144.1113
172.0567, 143.0645
172.5388, 142.0261
173.0209, 141.3378
173.5031, 141.2535
173.9852, 141.2768
174.4673, 140.9512
174.9494, 140.3062
175.4315, 139.6032
175.9136, 139.0913
176.3958, 138.7566
176.8779, 138.1851
177.3600, 136.9728
177.8421, 135.7985
178.3242, 135.0769
178.8063, 134.8075
179.2885, 134.7189
179.7706, 134.5795
180.2527, 134.4148
180.7348, 134.0763
181.2169, 133.4469
181.6990, 132.7254
182.1812, 131.9930
182.6633, 131.2688
183.1454, 130.5513
183.6275, 129.8268
184.1096, 129.0520
184.5917, 128.3720
185.0738, 127.8418
185.5560, 127.3503
186.0381, 126.8844
186.5202, 126.4175
187.0023, 125.8471
187.4844, 124.9879
187.9665, 123.4895
188.4487, 122.2519
188.9308, 121.4352
189.4129, 120.7950
189.8950, 120.0896
190.3771, 119.2440
190.8592, 118.3796
191.3414, 117.7522
191.8235, 117.5429
192.3056, 117.2313
192.7877, 116.6770
193.2698, 116.0165
193.7519, 115.4449
194.2341, 115.0431
194.7162, 114.7085
195.1983, 114.2124
195.6804, 113.5228
196.1625, 112.8418
196.6446, 112.2452
197.1268, 111.6997
197.6089, 111.1212
198.0910, 110.4669
198.5731, 109.7915
199.0552, 109.1666
199.5373, 108.5780
200.0195, 108.0654
200.5016, 107.6321
200.9837, 107.2836
201.4658, 107.0890
201.9479, 107.2593
202.4300, 107.3880
202.9122, 106.9608
203.3943, 105.9084
203.8764, 104.8815
204.3585, 104.4577
204.8406, 104.6318
205.3227, 104.7552
205.8048, 104.5889
206.2870, 104.3848
206.7691, 104.3443
207.2512, 104.4877
207.7333, 104.6577
208.2154, 104.6724
208.6975, 104.4997
209.1797, 104.3623
209.6618, 104.2298
210.1439, 104.1914
210.6260, 104.3800
211.1081, 104.7916
211.5902, 105.2121
212.0724, 105.3145
212.5545, 104.9269
213.0366, 104.7455
213.5187, 104.8720
214.0008, 105.1582
214.4829, 105.5868
214.9651, 106.1240
215.4472, 106.6633
215.9293, 107.0242
216.4114, 107.0387
216.8935, 107.2281
217.3756, 107.6347
217.8578, 108.1521
218.3399, 108.7601
218.8220, 109.4303
219.3041, 110.0874
219.7862, 110.6030
220.2683, 110.8602
220.7505, 111.1974
221.2326, 111.6401
221.7147, 112.1380
222.1968, 112.6307
222.6789, 113.1116
223.1610, 113.6526
223.6432, 114.3707
224.1253, 115.4073
224.6074, 116.3363
225.0895, 117.1471
225.5716, 117.8604
226.0537, 118.4170
226.5358, 118.8166
227.0180, 119.2529
227.5001, 120.0344
227.9822, 121.3235
228.4643, 122.4358
228.9464, 123.1569
229.4285, 123.7611
229.9107, 124.5503
230.3928, 125.5948
230.8749, 126.7143
231.3570, 127.6616
231.8391, 128.4188
232.3212, 129.2110
232.8034, 130.1780
233.2855, 131.1559
233.7676, 131.9611
234.2497, 132.5675
234.7318, 132.9623
235.2139, 132.9969
235.6961, 132.7232
236.1782, 132.5703
236.6603, 132.7279
237.1424, 133.0460
237.6245, 133.3671
238.1066, 133.7370
238.5888, 133.8864
239.0709, 133.4858
239.5530, 132.6543
240.0351, 131.6399
240.5172, 130.2730
240.9993, 128.8237
241.4815, 127.9224
241.9636, 127.8243
242.4457, 127.6898
242.9278, 126.7678
243.4099, 125.3534
243.8920, 124.0351
244.3742, 123.1412
244.8563, 122.5015
245.3384, 121.7545
245.8205, 120.9298
246.3026, 119.9207
246.7847, 118.4572
247.2668, 116.8159
247.7490, 115.4785
248.2311, 114.8470
248.7132, 114.5730
249.1953, 113.7280
249.6774, 112.0255
250.1595, 110.3238
250.6417, 109.0116
251.1238, 107.9107
251.6059, 106.8127
252.0880, 105.6341
252.5701, 104.3877
253.0522, 103.1014
253.5344, 101.8298
254.0165, 100.4092
254.4986, 98.66302
254.9807, 96.81795
255.4628, 95.09417
255.9449, 93.59036
256.4271, 92.27621
256.9092, 91.09178
257.3913, 90.12589
257.8734, 89.13249
258.3555, 88.09521
258.8376, 86.99888
259.3198, 85.76070
259.8019, 84.34875
260.2840, 82.93315
260.7661, 81.89999
261.2482, 81.49471
261.7303, 81.01941
262.2125, 80.40597
262.6946, 79.68811
263.1767, 78.87074
263.6588, 77.95779
264.1409, 77.00578
264.6230, 76.10847
265.1052, 75.29862
265.5873, 74.48029
266.0694, 73.57136
266.5515, 72.70417
267.0336, 71.99841
267.5157, 71.47319
267.9979, 71.03914
268.4800, 70.56483
268.9621, 70.01522
269.4442, 69.50668
269.9263, 69.03024
270.4084, 68.59261
270.8906, 68.23011
271.3727, 67.93142
271.8548, 67.62550
272.3369, 67.21716
272.8190, 66.65936
273.3011, 66.16597
273.7833, 65.64361
274.2654, 65.24635
274.7475, 65.15288
275.2296, 65.30962
275.7117, 65.46517
276.1938, 65.35956
276.6760, 64.93529
277.1581, 64.59826
277.6402, 64.43000
278.1223, 64.25199
278.6044, 63.89117
279.0865, 63.42190
279.5686, 63.10683
280.0508, 63.18530
280.5329, 63.66919
281.0150, 63.94425
281.4971, 63.89491
281.9792, 63.80067
282.4613, 63.79515
282.9435, 63.82974
283.4256, 63.75881
283.9077, 63.47217
284.3898, 63.00450
284.8719, 62.68892
285.3540, 62.50319
285.8362, 62.46172
286.3183, 62.72694
286.8004, 63.12472
287.2825, 63.32285
287.7646, 63.13181
288.2467, 62.68126
288.7289, 62.42469
289.2110, 62.65282
289.6931, 62.70411
290.1752, 62.26468
290.6573, 61.64412
291.1394, 61.34968
291.6216, 61.59568
292.1037, 62.05564
292.5858, 62.03333
293.0679, 61.20538
293.5500, 60.52124
294.0321, 60.09337
294.5143, 59.84518
294.9964, 59.71454
295.4785, 59.68331
295.9606, 59.72318
296.4427, 59.82111
296.9248, 60.05680
297.4070, 60.07415
297.8891, 59.64101
298.3712, 59.11546
298.8533, 58.83357
299.3354, 58.83942
299.8175, 58.93015
300.2997, 58.90796
300.7818, 58.75057
301.2639, 58.59470
301.7460, 58.45725
302.2281, 58.30927
302.7102, 58.09361
303.1924, 57.82731
303.6745, 57.62201
304.1566, 57.57436
304.6387, 57.67894
305.1208, 57.74607
305.6029, 57.77845
306.0851, 57.77587
306.5672, 57.68242
307.0493, 57.54194
307.5314, 57.52362
308.0135, 57.77652
308.4956, 58.18019
308.9778, 58.19491
309.4599, 57.47346
309.9420, 56.86718
310.4241, 56.77511
310.9062, 56.97766
311.3883, 57.03313
311.8705, 56.74192
312.3526, 56.27187
312.8347, 55.99340
313.3168, 55.91797
313.7989, 55.95570
314.2810, 56.15330
314.7632, 56.43316
315.2453, 56.73613
315.7274, 57.05239
316.2095, 57.27907
316.6916, 57.24585
317.1737, 56.88223
317.6559, 56.56200
318.1380, 56.17898
318.6201, 55.93195
319.1022, 56.14893
319.5843, 56.83528
320.0664, 57.45941
320.5485, 57.47815
321.0306, 56.82732
321.5128, 56.43068
321.9949, 56.55350
322.4770, 56.69743
322.9591, 56.48516
323.4412, 55.97285
323.9233, 55.50060
324.4055, 55.29759
324.8876, 55.33180
325.3697, 55.35289
325.8518, 55.39170
326.3339, 55.38763
326.8160, 55.28237
327.2982, 55.11813
327.7803, 55.01221
328.2624, 55.04198
328.7445, 55.10430
329.2266, 54.89245
329.7087, 54.20305
330.1909, 53.64648
330.6730, 53.40775
331.1551, 53.33963
331.6372, 53.27805
332.1193, 53.17657
332.6014, 53.01830
333.0836, 52.76073
333.5657, 52.33923
334.0478, 52.01897
334.5299, 51.88023
335.0120, 51.80040
335.4941, 51.68571
335.9763, 51.52379
336.4584, 51.35084
336.9405, 51.22021
337.4226, 51.14214
337.9047, 50.87948
338.3868, 50.14011
338.8690, 49.50685
339.3511, 49.37107
339.8332, 49.61381
340.3153, 49.84655
340.7974, 49.82813
341.2795, 49.59169
341.7617, 49.33766
342.2438, 48.84710
342.7259, 48.59556
343.2080, 48.96011
343.6901, 49.56586
344.1722, 49.83411
344.6544, 49.52238
345.1365, 48.84599
345.6186, 48.24145
346.1007, 47.64437
346.5828, 47.24482
347.0649, 47.19634
347.5471, 47.26052
348.0292, 47.22355
348.5113, 47.04874
348.9934, 46.85043
349.4755, 46.78382
349.9576, 46.92596
350.4398, 46.86075
350.9219, 46.34704
351.4040, 45.87646
351.8861, 45.73188
352.3682, 45.86917
352.8503, 46.09528
353.3325, 46.28009
353.8146, 46.41857
354.2967, 46.42721
354.7788, 46.25850
355.2609, 46.01548
355.7430, 45.63289
356.2252, 45.21107
356.7073, 44.87679
357.1894, 44.69111
357.6715, 44.63121
358.1536, 44.64430
358.6357, 44.81183
359.1179, 44.93026
359.5999, 45.03922
360.0821, 45.07267
360.5642, 44.95013
361.0463, 44.66941
361.5284, 44.32066
362.0105, 43.98964
362.4926, 43.62880
362.9748, 43.48145
363.4569, 43.83889
363.9390, 44.12487
364.4211, 43.96173
364.9032, 43.49532
365.3853, 43.17688
365.8675, 43.39708
366.3496, 44.07042
366.8317, 44.36635
367.3138, 43.96805
367.7959, 43.56940
368.2780, 43.24686
368.7602, 43.03603
369.2423, 42.99336
369.7244, 43.14808
370.2065, 43.41450
370.6886, 43.61525
371.1707, 43.69186
371.6529, 43.85274
372.1350, 44.44216
372.6171, 44.89826
373.0992, 44.67140
373.5813, 43.77227
374.0634, 42.87435
374.5456, 42.82207
375.0277, 43.67559
375.5098, 44.03892
375.9919, 43.45320
376.4740, 42.81801
376.9561, 42.54751
377.4383, 42.55116
377.9204, 42.59362
378.4025, 42.54123
378.8846, 42.43438
379.3667, 42.39186
379.8488, 42.43988
380.3310, 42.48467
380.8131, 42.45941
381.2952, 42.42432
381.7773, 42.44598
382.2594, 42.54682
382.7415, 42.68061
383.2237, 42.82876
383.7058, 42.99101
384.1879, 43.05775
384.6700, 43.00708
385.1521, 42.83409
385.6342, 42.44821
386.1164, 41.88009
386.5985, 41.49912
387.0806, 41.66976
387.5627, 42.16210
388.0448, 42.40539
388.5269, 42.29981
389.0091, 42.12802
389.4912, 42.09574
389.9733, 42.15266
390.4554, 42.19475
390.9375, 42.22782
391.4196, 42.21422
391.9018, 42.06752
392.3839, 41.80870
392.8660, 41.64935
393.3481, 41.73023
393.8302, 41.91911
394.3123, 41.94911
394.7945, 41.78182
395.2766, 41.60194
395.7587, 41.47923
396.2408, 41.39137
396.7229, 41.27892
397.2050, 41.11901
397.6872, 41.02016
398.1693, 41.14716
398.6514, 41.52845
399.1335, 41.74093
399.6156, 41.69602
400.0977, 41.53511
400.5798, 41.26051
401.0620, 40.93159
401.5441, 40.77558
402.0262, 40.97042
402.5083, 41.42018
402.9904, 41.63174
403.4725, 41.43067
403.9547, 41.24689
404.4368, 41.13154
404.9189, 41.08828
405.4010, 41.15556
405.8831, 41.33820
406.3652, 41.53859
406.8474, 41.61284
407.3295, 41.52448
407.8116, 41.40125
408.2937, 41.20733
408.7758, 41.01509
409.2579, 40.82987
409.7401, 40.67748
410.2222, 40.61962
410.7043, 40.71328
411.1864, 40.93645
411.6685, 41.09734
412.1506, 41.17660
412.6328, 41.20946
413.1149, 41.15923
413.5970, 41.08512
414.0791, 41.06915
414.5612, 41.13548
415.0433, 41.20594
415.5255, 41.12452
416.0076, 40.79888
416.4897, 40.64166
416.9718, 40.93866
417.4539, 41.18731
417.9360, 41.07361
418.4182, 40.67774
418.9003, 40.32944
419.3824, 40.28753
419.8645, 40.48095
420.3466, 40.57416
420.8287, 40.47892
421.3109, 40.46869
421.7930, 40.82517
422.2751, 41.24918
422.7572, 41.35340
423.2393, 40.98188
423.7214, 40.51615
424.2036, 40.36991
424.6857, 40.53315
425.1678, 40.75514
425.6499, 41.10447
426.1320, 41.33270
426.6141, 41.13942
427.0963, 40.58282
427.5784, 40.11390
428.0605, 39.95815
428.5426, 39.98943
429.0247, 40.03199
429.5068, 40.07786
429.9890, 40.12432
430.4711, 40.15158
430.9532, 40.18540
431.4353, 40.30159
431.9174, 40.60460
432.3995, 40.83526
432.8817, 40.83440
433.3638, 40.66999
433.8459, 40.45500
434.3280, 40.21172
434.8101, 40.01031
435.2922, 39.95629
435.7744, 40.08442
436.2565, 40.24014
436.7386, 40.47614
437.2207, 40.69189
437.7028, 40.84344
438.1849, 40.91443
438.6671, 40.85256
439.1492, 40.59883
439.6313, 40.20845
440.1134, 40.01347
440.5955, 40.13360
441.0776, 40.30692
441.5598, 40.56889
442.0418, 40.83943
442.5240, 41.05890
443.0061, 41.20260
443.4882, 41.24596
443.9703, 41.13590
444.4524, 40.82603
444.9345, 40.58053
445.4167, 40.40148
445.8988, 40.28735
446.3809, 40.30090
446.8630, 40.37468
447.3451, 40.36718
447.8272, 40.17467
448.3094, 39.91010
448.7915, 39.89602
449.2736, 40.25863
449.7557, 40.50945
450.2378, 40.34370
450.7199, 40.14708
451.2021, 40.26471
451.6842, 40.71154
452.1663, 41.10499
452.6484, 41.04698
453.1305, 40.65948
453.6126, 40.51810
454.0948, 40.76145
454.5769, 41.00439
455.0590, 40.97633
455.5411, 40.76942
456.0232, 40.51298
456.5053, 40.17658
456.9875, 39.88136
457.4696, 39.73680
457.9517, 39.72455
458.4338, 39.75994
458.9159, 39.81858
459.3980, 39.90734
459.8802, 40.04740
460.3623, 40.24117
460.8444, 40.43538
461.3265, 40.68024
461.8086, 40.87983
462.2907, 40.91808
462.7729, 40.80984
463.2550, 40.68804
463.7371, 40.64861
464.2192, 40.66655
464.7013, 40.59370
465.1834, 40.20441
465.6656, 40.01666
466.1477, 40.30807
466.6298, 40.73407
467.1119, 40.90926
467.5940, 40.75260
468.0761, 40.46057
468.5583, 40.26160
469.0404, 40.16692
469.5225, 40.08459
470.0046, 39.98993
470.4867, 39.93439
470.9688, 39.94245
471.4510, 39.99927
471.9331, 40.08664
472.4152, 40.19874
472.8973, 40.31835
473.3794, 40.41956
473.8615, 40.50866
474.3437, 40.55108
474.8258, 40.50285
475.3079, 40.43373
475.7900, 40.38857
476.2721, 40.36460
476.7542, 40.33030
477.2364, 40.25603
477.7185, 40.16042
478.2006, 40.08738
478.6827, 40.04111
479.1648, 39.99162
479.6469, 39.88069
480.1291, 39.78084
480.6112, 39.85725
481.0933, 40.23699
481.5754, 40.45625
482.0575, 40.08612
482.5396, 39.44048
483.0217, 39.07328
483.5038, 39.09271
483.9860, 38.68713
484.4681, 39.55679
484.9502, 40.04947
485.4323, 40.18544
485.9144, 38.89626
486.3965, 39.44736
486.8787, 39.26096
487.3608, 39.04432
487.8429, 39.85442
488.3250, 38.77253
488.8071, 39.56635
489.2892, 39.61142
489.7714, 39.99917
490.2535, 39.64488
490.7356, 39.51978
491.2177, 40.13697
491.6998, 40.34314
492.1819, 39.90343
492.6641, 39.30666
493.1462, 38.94789
493.6283, 38.60349
494.1104, 38.60185
494.5925, 39.08433
495.0746, 39.52528
495.5568, 39.84024
496.0389, 40.04057
496.5210, 40.12147
497.0031, 40.08507
497.4852, 39.94898
497.9673, 39.67509
498.4495, 39.31462
498.9316, 38.96854
499.4137, 38.60355
499.8958, 38.43610
500.3779, 38.74664
500.8600, 39.29059
501.3422, 39.54376
501.8243, 39.35616
502.3064, 39.14927
502.7885, 39.16700
503.2706, 39.29863
503.7527, 39.32879
504.2349, 39.20970
504.7170, 39.07666
505.1991, 39.07714
505.6812, 39.22247
506.1633, 39.24797
506.6454, 39.04951
507.1276, 38.86129
507.6097, 38.75793
508.0918, 38.72357
508.5739, 38.74674
509.0560, 38.81968
509.5381, 38.89565
510.0203, 38.89206
510.5024, 38.77274
510.9845, 38.69812
511.4666, 38.65852
511.9487, 38.67388
512.4308, 38.79154
512.9130, 38.96610
513.3951, 39.12529
513.8772, 39.24549
514.3593, 39.29341
514.8414, 39.15160
515.3235, 38.77428
515.8057, 38.56481
516.2878, 38.76117
516.7699, 39.00857
517.2520, 38.99232
517.7341, 38.74153
518.2162, 38.48860
518.6984, 38.30452
519.1805, 38.18536
519.6626, 38.13935
520.1447, 38.16249
520.6268, 38.20598
521.1089, 38.24532
521.5911, 38.29294
522.0732, 38.39598
522.5553, 38.61385
523.0374, 38.71296
523.5195, 38.56048
524.0016, 38.33886
524.4838, 38.17669
524.9659, 38.09793
525.4480, 38.12116
525.9301, 38.28023
526.4122, 38.52490
526.8943, 38.25053
527.3765, 38.58818
527.8586, 38.76092
528.3407, 38.77759
528.8228, 38.17076
529.3049, 38.36906
529.7870, 38.24469
530.2692, 38.10709
530.7513, 38.41870
531.2334, 37.90256
531.7155, 38.20704
532.1976, 38.18396
532.6797, 38.31078
533.1619, 38.11296
533.6440, 38.18093
534.1261, 38.23138
534.6082, 38.18099
535.0903, 38.13721
535.5724, 38.21080
536.0546, 38.33270
536.5367, 38.31142
537.0188, 38.10849
537.5009, 37.98356
537.9830, 38.18158
538.4651, 38.62032
538.9473, 38.83065
539.4294, 38.67354
539.9115, 38.48659
540.3936, 38.33633
540.8757, 38.21980
541.3578, 38.12930
541.8400, 38.06508
542.3221, 38.04350
542.8042, 38.09126
543.2863, 38.21035
543.7684, 38.27350
544.2505, 38.17686
544.7326, 38.15033
545.2147, 38.34626
545.6968, 38.57932
546.1790, 38.63851
546.6611, 38.47450
547.1432, 38.20977
547.6253, 37.92196
548.1074, 37.62360
548.5895, 37.49548
549.0717, 37.62005
549.5538, 37.75244
550.0359, 37.69327
550.5180, 37.56227
551.0001, 37.56158
551.4822, 37.79755
551.9644, 37.98452
552.4465, 37.85815
552.9286, 37.57184
553.4107, 37.44136
553.8928, 37.52885
554.3749, 37.73643
554.8571, 38.02678
555.3392, 38.39016
555.8213, 38.47385
556.3034, 37.96914
556.7855, 37.60360
557.2676, 37.67035
557.7498, 37.92543
558.2319, 38.08064
558.7140, 38.06826
559.1961, 38.00209
559.6782, 38.00609
560.1603, 38.08113
560.6425, 38.15012
561.1246, 38.27549
561.6067, 38.29530
562.0888, 38.04263
562.5709, 37.72923
563.0530, 37.62859
563.5352, 37.81322
564.0173, 38.01274
564.4994, 37.93343
564.9815, 37.68096
565.4636, 37.66703
565.9457, 37.99642
566.4279, 38.19568
566.9100, 37.93339
567.3921, 38.40899
567.8742, 38.71966
568.3563, 38.87426
568.8384, 38.40534
569.3206, 38.17632
569.8027, 37.88982
570.2848, 37.77109
570.7669, 37.88192
571.2490, 38.02599
571.7311, 38.02068
572.2133, 37.89171
572.6954, 37.93115
573.1775, 38.46696
573.6596, 38.71123
574.1417, 38.30917
574.6238, 37.75940
575.1060, 37.48372
575.5881, 37.53252
576.0702, 37.70573
576.5523, 37.89126
577.0344, 38.06384
577.5165, 38.09964
577.9987, 37.95644
578.4808, 37.86496
578.9629, 37.96699
579.4450, 38.14525
579.9271, 38.23530
580.4092, 38.22620
580.8914, 38.18928
581.3735, 38.11828
581.8556, 38.05363
582.3377, 38.09182
582.8198, 38.20246
583.3019, 38.18003
583.7841, 37.87974
584.2662, 37.43153
584.7483, 37.18984
585.2304, 37.21337
585.7125, 37.36587
586.1946, 37.86563
