##NAMES=Liebigite
##RRUFFID=R050662
##IDEAL CHEMISTRY=Ca_2_(U^6+^O_2_)(CO_3_)_3_&#183;11H_2_O
##LOCALITY=Schwartzwaelder mine, Jefferson County, Colorado, USA
##OWNER=RRUFF
##SOURCE=University of Arizona Mineral Museum
##DESCRIPTION=Yellowish-green flaky aggregate
##STATUS=The identification of this mineral has been confirmed by X-ray diffraction and chemical analysis
##URL=rruff.info/R050662
##MEASURED CHEMISTRY=Ca_2.00_(U_1.00_O_2_)(CO_3_)_3_Â·11H_2_O ; C not measured but estimated by stoichiometry
89.78156, 0.0000000E+00
90.26367, 23.92183
90.74579, 23.90940
91.22791, 23.91298
91.71002, 23.93147
92.19214, 23.95566
92.67426, 24.03758
93.15638, 24.12739
93.63850, 24.08437
94.12061, 23.75873
94.60273, 23.29599
95.08485, 23.00621
95.56696, 22.88992
96.04908, 22.96035
96.53120, 23.42129
97.01331, 24.23406
97.49543, 24.77581
97.97755, 24.59698
98.45966, 23.75179
98.94178, 23.26893
99.42390, 23.24536
99.90602, 23.45504
100.3881, 23.41578
100.8703, 23.02677
101.3524, 22.74897
101.8345, 22.91271
102.3166, 23.69190
102.7987, 24.13965
103.2808, 24.08795
103.7630, 23.66049
104.2451, 23.38233
104.7272, 23.21771
105.2093, 23.24663
105.6914, 23.56813
106.1735, 24.49250
106.6557, 25.16182
107.1378, 25.31570
107.6199, 24.92880
108.1020, 24.95180
108.5841, 25.60901
109.0662, 26.56026
109.5484, 27.50800
110.0305, 28.15467
110.5126, 29.10304
110.9947, 30.53700
111.4768, 32.59088
111.9590, 34.57305
112.4411, 36.11041
112.9232, 37.63268
113.4053, 39.64630
113.8874, 42.23160
114.3695, 45.34458
114.8517, 48.92739
115.3338, 52.90877
115.8159, 57.50875
116.2980, 63.02822
116.7801, 69.27083
117.2622, 75.74596
117.7444, 81.75246
118.2265, 88.29236
118.7086, 96.02381
119.1907, 105.4207
119.6728, 115.6703
120.1549, 126.2491
120.6371, 137.2772
121.1192, 149.2938
121.6013, 162.6632
122.0834, 177.0566
122.5655, 192.1040
123.0476, 208.2920
123.5298, 224.5660
124.0119, 239.8702
124.4940, 254.2578
124.9761, 268.5402
125.4582, 283.3420
125.9404, 298.4017
126.4225, 313.0815
126.9046, 327.5263
127.3867, 341.3199
127.8688, 353.0818
128.3509, 362.5644
128.8331, 372.4298
129.3152, 385.7445
129.7973, 402.1540
130.2794, 419.4933
130.7615, 436.4294
131.2436, 453.4741
131.7258, 472.2521
132.2079, 492.9727
132.6900, 514.9913
133.1721, 537.5087
133.6542, 560.4294
134.1364, 583.8075
134.6185, 608.2722
135.1006, 633.8536
135.5827, 658.3912
136.0648, 681.8289
136.5469, 704.2873
137.0291, 726.1281
137.5112, 747.2537
137.9933, 767.5755
138.4754, 787.5192
138.9575, 807.1338
139.4396, 824.8884
139.9218, 840.0340
140.4039, 853.1154
140.8860, 866.6772
141.3681, 881.2185
141.8502, 895.1924
142.3323, 906.5441
142.8145, 913.6979
143.2966, 922.7347
143.7787, 934.9318
144.2608, 950.3380
144.7429, 965.2126
145.2250, 979.6884
145.7072, 993.6895
146.1893, 1007.120
146.6714, 1019.210
147.1535, 1031.863
147.6356, 1045.618
148.1178, 1060.695
148.5999, 1075.059
149.0820, 1088.592
149.5641, 1101.404
150.0462, 1113.477
150.5283, 1124.390
151.0105, 1134.833
151.4926, 1134.739
151.9747, 1133.105
152.4568, 1131.096
152.9389, 1129.097
153.4210, 1126.729
153.9032, 1123.398
154.3853, 1117.954
154.8674, 1112.595
155.3495, 1108.079
155.8316, 1104.727
156.3137, 1101.398
156.7959, 1098.324
157.2780, 1095.110
157.7601, 1091.032
158.2422, 1085.107
158.7243, 1078.828
159.2065, 1072.740
159.6886, 1066.456
160.1707, 1061.118
160.6528, 1057.790
161.1349, 1055.715
161.6170, 1052.921
162.0992, 1048.492
162.5813, 1043.237
163.0634, 1037.641
163.5455, 1031.501
164.0276, 1025.448
164.5097, 1019.823
164.9919, 1014.536
165.4740, 1009.248
165.9561, 1003.827
166.4382, 998.3351
166.9203, 992.7508
167.4024, 986.8821
167.8846, 981.1281
168.3667, 975.7031
168.8488, 970.5776
169.3309, 965.5618
169.8130, 960.5223
170.2952, 955.4973
170.7773, 950.6031
171.2594, 945.7747
171.7415, 941.0967
172.2236, 936.4882
172.7057, 931.9550
173.1879, 927.7554
173.6700, 924.2526
174.1521, 921.1754
174.6342, 918.0605
175.1163, 914.5842
175.5984, 910.9912
176.0806, 907.5792
176.5627, 904.3259
177.0448, 901.2448
177.5269, 898.7122
178.0090, 896.4080
178.4911, 893.4909
178.9733, 889.4780
179.4554, 884.7296
179.9375, 879.6260
180.4196, 874.1981
180.9017, 868.7091
181.3838, 863.4612
181.8660, 858.4446
182.3481, 853.3988
182.8302, 848.4198
183.3123, 843.3702
183.7944, 838.0300
184.2766, 832.4042
184.7587, 826.2755
185.2408, 818.7127
185.7229, 810.0676
186.2050, 802.0255
186.6871, 795.8707
187.1693, 791.0472
187.6514, 785.9052
188.1335, 780.2405
188.6156, 774.4138
189.0977, 768.9050
189.5798, 763.7018
190.0620, 758.3322
190.5441, 752.0540
191.0262, 745.1199
191.5083, 739.5001
191.9904, 735.4684
192.4725, 732.1302
192.9547, 727.9098
193.4368, 722.7457
193.9189, 717.5712
194.4010, 712.8557
194.8831, 708.5878
195.3652, 704.5374
195.8474, 700.7018
196.3295, 697.0698
196.8116, 693.6194
197.2937, 690.3650
197.7758, 687.2737
198.2579, 684.5855
198.7401, 682.3221
199.2222, 679.1602
199.7043, 674.6377
200.1864, 669.6279
200.6685, 666.2960
201.1507, 664.9411
201.6328, 663.9131
202.1149, 662.2989
202.5970, 660.0651
203.0791, 657.5049
203.5612, 654.5511
204.0434, 651.3862
204.5255, 648.4909
205.0076, 645.8488
205.4897, 643.5457
205.9718, 641.6920
206.4539, 640.3500
206.9361, 639.1251
207.4182, 638.0149
207.9003, 636.9949
208.3824, 635.8568
208.8645, 634.4363
209.3466, 633.3307
209.8288, 632.9499
210.3109, 633.4264
210.7930, 634.0572
211.2751, 634.8066
211.7572, 635.6583
212.2393, 636.6142
212.7215, 637.7313
213.2036, 638.7976
213.6857, 639.4998
214.1678, 639.4602
214.6499, 640.4056
215.1320, 642.8232
215.6142, 646.3175
216.0963, 649.0834
216.5784, 650.8308
217.0605, 652.3777
217.5426, 654.1680
218.0247, 656.0864
218.5069, 658.5546
218.9890, 661.7656
219.4711, 665.5652
219.9532, 669.2308
220.4353, 672.6295
220.9175, 676.1732
221.3996, 680.2551
221.8817, 685.1571
222.3638, 689.7607
222.8459, 693.7870
223.3280, 697.4362
223.8102, 701.3479
224.2923, 705.4788
224.7744, 710.0240
225.2565, 715.1270
225.7386, 720.9811
226.2207, 726.8683
226.7029, 732.6693
227.1850, 738.4431
227.6671, 744.2333
228.1492, 750.0579
228.6313, 755.8691
229.1134, 761.6462
229.5956, 767.5675
230.0777, 773.1436
230.5598, 778.1955
231.0419, 782.8807
231.5240, 788.1547
232.0062, 794.5900
232.4883, 800.8570
232.9704, 806.1320
233.4525, 810.0452
233.9346, 813.7854
234.4167, 817.4362
234.8989, 820.9659
235.3810, 824.2699
235.8631, 827.7151
236.3452, 830.4881
236.8273, 832.0947
237.3094, 832.1018
237.7916, 831.8836
238.2737, 831.7678
238.7558, 831.4844
239.2379, 829.8554
239.7200, 826.3093
240.2021, 822.1701
240.6843, 818.0339
241.1664, 813.7121
241.6485, 809.8700
242.1306, 806.9747
242.6127, 804.5754
243.0948, 800.9894
243.5770, 795.6716
244.0591, 789.9399
244.5412, 784.5574
245.0233, 779.8450
245.5054, 774.7236
245.9876, 769.0279
246.4697, 762.9521
246.9518, 756.9606
247.4339, 751.3142
247.9160, 745.3342
248.3981, 738.6402
248.8803, 730.6111
249.3624, 723.2924
249.8445, 717.1506
250.3266, 711.6125
250.8087, 705.1182
251.2908, 697.6135
251.7730, 689.2968
252.2551, 680.1984
252.7372, 669.7270
253.2193, 659.8209
253.7014, 650.7794
254.1835, 642.2447
254.6657, 633.5019
255.1478, 624.4506
255.6299, 615.3444
256.1120, 606.1392
256.5941, 596.7853
257.0763, 587.7087
257.5584, 578.8671
258.0405, 570.2382
258.5226, 561.8830
259.0047, 553.6592
259.4868, 545.8670
259.9690, 538.7499
260.4511, 532.4666
260.9332, 526.1464
261.4153, 519.6624
261.8974, 513.1738
262.3795, 507.0287
262.8617, 501.1685
263.3438, 495.6685
263.8259, 490.6131
264.3080, 486.1407
264.7901, 481.1570
265.2722, 475.2894
265.7544, 469.3488
266.2365, 464.7394
266.7186, 461.9037
267.2007, 459.0670
267.6828, 455.6691
268.1649, 451.6187
268.6471, 447.8634
269.1292, 444.3380
269.6113, 441.1033
270.0934, 438.1904
270.5755, 435.5316
271.0576, 433.3872
271.5398, 432.0479
272.0219, 431.4635
272.5040, 430.0738
272.9861, 427.5635
273.4682, 424.9681
273.9503, 423.4657
274.4325, 423.2608
274.9146, 423.0618
275.3967, 422.6056
275.8788, 421.8977
276.3610, 420.9308
276.8431, 419.6062
277.3252, 418.3511
277.8073, 417.5791
278.2894, 417.3187
278.7715, 417.2501
279.2537, 417.3447
279.7358, 417.5810
280.2179, 417.9360
280.7000, 418.4754
281.1821, 418.8594
281.6642, 418.6909
282.1464, 417.9669
282.6285, 417.4441
283.1106, 417.2306
283.5927, 417.3033
284.0748, 417.7601
284.5569, 418.6620
285.0391, 419.3632
285.5212, 419.2160
286.0033, 418.3073
286.4854, 417.7939
286.9675, 417.9686
287.4496, 418.3641
287.9318, 417.9797
288.4139, 416.7977
288.8960, 415.4858
289.3781, 414.3560
289.8602, 413.4041
290.3423, 412.6560
290.8245, 412.1834
291.3066, 411.7488
291.7887, 410.9554
292.2708, 409.8339
292.7529, 408.6641
293.2350, 407.6414
293.7172, 406.6964
294.1993, 405.6302
294.6814, 404.4120
295.1635, 403.1428
295.6456, 401.9026
296.1277, 400.7058
296.6099, 399.6394
297.0920, 398.8734
297.5741, 398.2501
298.0562, 397.4061
298.5383, 396.3199
299.0204, 395.3107
299.5026, 394.7494
299.9847, 394.5290
300.4668, 394.3474
300.9489, 394.0473
301.4311, 393.7489
301.9132, 393.7647
302.3953, 394.0771
302.8774, 394.1745
303.3595, 393.2943
303.8416, 391.9682
304.3238, 391.1407
304.8059, 391.4957
305.2880, 392.1225
305.7701, 391.9866
306.2522, 391.2081
306.7343, 390.5314
307.2165, 390.4910
307.6986, 390.8150
308.1807, 391.2641
308.6628, 392.1764
309.1449, 392.5438
309.6270, 390.8819
310.1092, 387.8515
310.5913, 385.6379
311.0734, 386.0733
311.5555, 387.4992
312.0376, 388.5626
312.5197, 389.0792
313.0019, 389.0517
313.4840, 388.0723
313.9661, 386.5612
314.4482, 385.3703
314.9303, 385.1428
315.4124, 385.1525
315.8946, 384.9469
316.3767, 384.4220
316.8588, 383.9580
317.3409, 383.7960
317.8230, 383.7667
318.3051, 383.6465
318.7873, 383.4058
319.2694, 383.0288
319.7515, 382.4479
320.2336, 381.6431
320.7157, 380.9078
321.1978, 380.1406
321.6800, 379.5668
322.1621, 379.3936
322.6442, 380.3384
323.1263, 380.9857
323.6084, 381.0722
324.0905, 380.5914
324.5727, 379.5796
325.0548, 377.3668
325.5369, 375.0690
326.0190, 373.3669
326.5012, 373.1813
326.9833, 372.5822
327.4654, 371.2256
327.9475, 369.2967
328.4296, 367.5526
328.9117, 366.0937
329.3939, 364.7323
329.8760, 363.3558
330.3581, 361.7198
330.8402, 360.5296
331.3223, 360.1739
331.8044, 360.1405
332.2866, 359.3515
332.7687, 357.3262
333.2508, 355.2391
333.7329, 353.4108
334.2150, 351.8417
334.6971, 350.5132
335.1793, 349.5342
335.6614, 348.6761
336.1435, 347.6468
336.6256, 346.3746
337.1077, 345.1168
337.5898, 343.9532
338.0720, 342.8755
338.5541, 341.8638
339.0362, 340.8427
339.5183, 340.0615
340.0004, 339.9750
340.4825, 340.7737
340.9647, 340.8970
341.4468, 339.8958
341.9289, 338.1443
342.4110, 336.8229
342.8931, 335.9784
343.3752, 335.3017
343.8574, 334.5834
344.3395, 333.8228
344.8216, 333.2172
345.3037, 332.8255
345.7858, 332.4960
346.2679, 332.0047
346.7501, 331.3437
347.2322, 330.5239
347.7143, 329.3619
348.1964, 328.0246
348.6785, 327.0941
349.1607, 326.6235
349.6428, 326.3041
350.1249, 325.6842
350.6070, 324.9029
351.0891, 324.4019
351.5713, 325.0015
352.0534, 325.6862
352.5355, 324.5029
353.0176, 321.5447
353.4997, 318.7936
353.9818, 318.1748
354.4640, 318.7031
354.9461, 318.8433
355.4282, 317.9605
355.9103, 316.7937
356.3924, 315.9066
356.8745, 315.2672
357.3567, 314.7632
357.8388, 314.4581
358.3209, 314.1861
358.8030, 313.7633
359.2851, 313.0718
359.7672, 312.4736
360.2494, 312.1634
360.7315, 312.0805
361.2136, 312.1161
361.6957, 312.4872
362.1778, 312.7534
362.6599, 312.5740
363.1421, 311.8365
363.6242, 311.3466
364.1063, 311.6607
364.5884, 312.2093
365.0705, 312.4071
365.5526, 311.6659
366.0348, 311.0502
366.5169, 310.9057
366.9990, 311.1980
367.4811, 311.2932
367.9632, 310.9860
368.4453, 310.5629
368.9275, 310.1839
369.4096, 309.7632
369.8917, 309.5164
370.3738, 309.6307
370.8559, 309.9152
371.3380, 309.8065
371.8202, 308.9259
372.3023, 308.1665
372.7844, 307.9284
373.2665, 308.3944
373.7487, 308.6362
374.2308, 308.5942
374.7129, 308.3910
375.1950, 308.1517
375.6771, 307.8192
376.1592, 307.6415
376.6414, 307.7075
377.1235, 307.9986
377.6056, 308.3658
378.0877, 308.8736
378.5698, 309.2652
379.0519, 309.1769
379.5341, 308.6055
380.0162, 308.4099
380.4983, 308.8402
380.9804, 309.6020
381.4625, 310.1055
381.9446, 310.3568
382.4268, 310.2774
382.9089, 309.5020
383.3910, 308.3309
383.8731, 307.8414
384.3552, 308.2261
384.8373, 308.7695
385.3195, 308.4185
385.8016, 307.5018
386.2837, 306.9886
386.7658, 307.5670
387.2479, 308.6618
387.7300, 309.6883
388.2122, 310.6304
388.6943, 311.3169
389.1764, 311.6093
389.6585, 311.5721
390.1406, 311.2368
390.6227, 310.3711
391.1049, 309.5598
391.5870, 309.2427
392.0691, 309.3068
392.5512, 309.4124
393.0333, 309.4227
393.5154, 309.4120
393.9976, 309.4106
394.4797, 309.4001
394.9618, 309.4796
395.4439, 309.7158
395.9260, 310.0508
396.4081, 310.4064
396.8903, 310.6595
397.3724, 311.0441
397.8545, 311.7705
398.3366, 312.8656
398.8188, 313.5864
399.3009, 313.6609
399.7830, 313.4912
400.2651, 313.3200
400.7472, 313.0714
401.2293, 312.9317
401.7115, 312.9073
402.1936, 312.9946
402.6757, 313.2119
403.1578, 313.6791
403.6399, 314.0665
404.1220, 314.2048
404.6042, 314.0390
405.0863, 313.9286
405.5684, 313.8539
406.0505, 313.8651
406.5326, 314.0319
407.0147, 314.3627
407.4969, 314.8355
407.9790, 315.5941
408.4611, 316.4642
408.9432, 316.6201
409.4253, 316.0040
409.9074, 315.2833
410.3896, 314.8852
410.8717, 314.8021
411.3538, 315.0558
411.8359, 315.7305
412.3180, 316.5305
412.8001, 317.0434
413.2823, 317.3114
413.7644, 317.5442
414.2465, 317.8566
414.7286, 318.1896
415.2107, 318.4265
415.6928, 318.5533
416.1750, 318.7684
416.6571, 319.4199
417.1392, 320.1910
417.6213, 320.6721
418.1034, 320.5775
418.5855, 320.3082
419.0677, 319.9169
419.5498, 319.4923
420.0319, 319.3820
420.5140, 320.0821
420.9961, 320.8872
421.4782, 321.3170
421.9604, 321.0855
422.4425, 321.0721
422.9246, 321.8023
423.4067, 322.7630
423.8889, 323.2588
424.3710, 322.6200
424.8531, 322.1170
425.3352, 322.0282
425.8173, 322.3515
426.2994, 322.8008
426.7816, 323.5512
427.2637, 324.2464
427.7458, 324.5965
428.2279, 324.3058
428.7100, 324.4099
429.1921, 325.0462
429.6743, 326.0628
430.1564, 327.2391
430.6385, 328.7563
431.1206, 329.7275
431.6027, 329.6007
432.0848, 328.4311
432.5670, 327.4878
433.0491, 326.7430
433.5312, 326.3360
434.0133, 326.5509
434.4954, 327.3025
434.9775, 328.0075
435.4597, 328.5089
435.9418, 328.9110
436.4239, 329.4186
436.9060, 330.0026
437.3881, 330.4983
437.8702, 330.7560
438.3524, 330.8734
438.8345, 330.9535
439.3166, 330.9872
439.7987, 331.1022
440.2808, 331.4593
440.7629, 331.9512
441.2451, 332.4087
441.7272, 332.6827
442.2093, 332.9737
442.6914, 333.5267
443.1735, 334.2645
443.6556, 334.6762
444.1378, 334.0540
444.6199, 333.4052
445.1020, 333.4190
445.5841, 334.6512
446.0662, 335.6631
446.5483, 336.2390
447.0305, 336.4937
447.5126, 336.6031
447.9947, 336.2659
448.4768, 336.1648
448.9590, 336.5576
449.4411, 337.4568
449.9232, 338.0247
450.4053, 338.0416
450.8874, 338.0417
451.3695, 338.4881
451.8517, 339.5474
452.3338, 340.2650
452.8159, 340.4258
453.2980, 340.3368
453.7801, 340.6765
454.2622, 341.4707
454.7444, 342.2469
455.2265, 342.7950
455.7086, 343.1506
456.1907, 343.4559
456.6728, 343.7221
457.1549, 343.8601
457.6371, 343.5832
458.1192, 343.1239
458.6013, 343.0941
459.0834, 343.8198
459.5655, 344.7004
460.0476, 345.0133
460.5298, 344.9319
461.0119, 344.9532
461.4940, 345.5441
461.9761, 346.2022
462.4582, 346.5214
462.9403, 346.4557
463.4225, 346.2880
463.9046, 345.9888
464.3867, 345.7235
464.8688, 345.6555
465.3509, 345.9521
465.8330, 346.3023
466.3152, 346.6934
466.7973, 347.1015
467.2794, 347.4360
467.7615, 347.4890
468.2436, 347.6768
468.7257, 348.2365
469.2079, 349.3463
469.6900, 349.9349
470.1721, 349.7131
470.6542, 349.2763
471.1363, 349.2166
471.6184, 349.5554
472.1006, 350.2320
472.5827, 351.4009
473.0648, 352.7994
473.5469, 353.5229
474.0291, 353.5156
474.5112, 353.5054
474.9933, 354.0316
475.4754, 354.9333
475.9575, 355.4671
476.4396, 355.5767
476.9218, 355.5629
477.4039, 355.7018
477.8860, 355.9612
478.3681, 356.2608
478.8502, 356.5343
479.3323, 356.8832
479.8145, 357.5599
480.2966, 358.4409
480.7787, 359.0553
481.2608, 358.9666
481.7429, 358.6700
482.2250, 358.5172
482.7072, 358.5800
483.1893, 358.5918
483.6714, 358.4058
484.1535, 358.1494
484.6356, 357.9525
485.1177, 357.7880
485.5999, 357.7458
486.0820, 357.9603
486.5641, 358.3382
487.0462, 358.5104
487.5283, 358.2575
488.0104, 358.1063
488.4926, 358.3078
488.9747, 358.9408
489.4568, 359.4172
489.9389, 359.6949
490.4210, 359.8860
490.9031, 360.1442
491.3853, 360.4842
491.8674, 360.5950
492.3495, 360.2801
492.8316, 359.8519
493.3137, 360.1194
493.7958, 361.0182
494.2780, 361.8483
494.7601, 361.8775
495.2422, 361.6343
495.7243, 362.3344
496.2064, 364.0807
496.6885, 365.6743
497.1707, 366.1438
497.6528, 365.8956
498.1349, 365.4337
498.6170, 364.5034
499.0992, 363.9724
499.5813, 364.7938
500.0634, 366.3904
500.5455, 367.3540
501.0276, 366.5225
501.5097, 365.5954
501.9919, 365.2642
502.4740, 365.6511
502.9561, 366.1225
503.4382, 366.9376
503.9203, 367.6083
504.4024, 367.7605
504.8846, 367.0214
505.3667, 366.5410
505.8488, 366.4615
506.3309, 366.6347
506.8130, 366.7115
507.2951, 366.6361
507.7773, 366.7304
508.2594, 367.2284
508.7415, 368.0128
509.2236, 368.3745
509.7057, 368.2869
510.1878, 368.1270
510.6700, 368.2137
511.1521, 368.4787
511.6342, 368.7171
512.1163, 368.8894
512.5984, 369.0525
513.0806, 369.2188
513.5627, 369.4203
514.0448, 369.7245
514.5269, 370.4116
515.0090, 371.0008
515.4911, 370.9059
515.9733, 370.2796
516.4554, 370.1534
516.9375, 371.8822
517.4196, 373.5252
517.9017, 373.7516
518.3839, 371.5023
518.8660, 370.0609
519.3481, 370.3657
519.8302, 371.3810
520.3123, 372.0261
520.7944, 372.1065
521.2766, 372.1946
521.7587, 372.4299
522.2408, 372.7365
522.7229, 372.7999
523.2050, 372.5880
523.6871, 372.2794
524.1693, 371.8069
524.6514, 371.2318
525.1335, 371.2870
525.6156, 372.0319
526.0977, 373.0449
526.5798, 374.2823
527.0620, 375.4816
527.5441, 375.7154
528.0262, 374.3961
528.5083, 372.7983
528.9904, 372.2515
529.4725, 372.4966
529.9547, 372.9215
530.4368, 373.1666
530.9189, 373.5290
531.4010, 374.3268
531.8831, 375.5586
532.3652, 376.5352
532.8474, 376.9579
533.3295, 377.1194
533.8116, 377.2009
534.2937, 377.1550
534.7758, 377.1486
535.2579, 377.3002
535.7401, 377.4438
536.2222, 377.3171
536.7043, 376.7894
537.1864, 376.2924
537.6685, 375.8410
538.1506, 375.5067
538.6328, 375.7606
539.1149, 376.7220
539.5970, 377.5711
540.0791, 377.6449
540.5612, 377.1436
541.0433, 377.0604
541.5255, 377.4682
542.0076, 377.9044
542.4897, 377.7564
542.9718, 377.3195
543.4539, 377.1911
543.9360, 377.5805
544.4182, 378.2314
544.9003, 379.1583
545.3824, 380.1870
545.8645, 380.9352
546.3466, 381.1213
546.8287, 381.1006
547.3109, 380.9083
547.7930, 380.5474
548.2751, 380.4549
548.7572, 381.1367
549.2393, 381.7608
549.7214, 381.8109
550.2036, 380.7052
550.6857, 380.4099
551.1678, 381.2950
551.6499, 382.6238
552.1320, 383.4016
552.6141, 383.5987
553.0963, 383.4740
553.5784, 382.9934
554.0605, 382.3165
554.5426, 381.8157
555.0247, 381.4913
555.5068, 381.3356
555.9890, 381.3875
556.4711, 381.5909
556.9532, 381.9679
557.4353, 382.5135
557.9174, 382.8033
558.3995, 382.0150
558.8817, 381.0170
559.3638, 380.8680
559.8459, 382.3650
560.3281, 383.6046
560.8102, 383.5630
561.2923, 382.8328
561.7744, 382.3429
562.2565, 382.3833
562.7386, 382.5555
563.2208, 382.8378
563.7029, 383.2046
564.1850, 383.5214
564.6671, 383.9313
565.1492, 384.0322
565.6313, 383.3958
566.1135, 381.9060
566.5956, 381.3896
567.0777, 381.9658
567.5598, 383.1086
568.0419, 384.8077
568.5240, 386.7643
569.0062, 387.3203
569.4883, 385.7485
569.9704, 383.6189
570.4525, 382.9995
570.9346, 383.4259
571.4167, 383.7245
571.8989, 382.9644
572.3810, 382.2128
572.8631, 382.3922
573.3452, 383.3537
573.8273, 384.0441
574.3094, 383.9819
574.7916, 383.6076
575.2737, 383.0712
575.7558, 382.2132
576.2379, 381.7674
576.7200, 381.9132
577.2021, 382.3379
577.6843, 382.8296
578.1664, 383.5124
578.6485, 383.8355
579.1306, 383.6283
579.6127, 383.1559
580.0948, 383.0337
580.5770, 383.2624
581.0591, 383.2246
581.5412, 382.4212
582.0233, 381.3342
582.5054, 381.1590
582.9875, 381.7896
583.4697, 382.4084
