##NAMES=Likasite
##RRUFFID=R090009
##IDEAL CHEMISTRY=Cu^2+^_3_N^5+^O_3_(OH)_5_&#183;2H_2_O
##LOCALITY=Likasi Mine, Jadotville, Katanga, Zaire
##OWNER=RRUFF
##SOURCE=William W. Pinch
##DESCRIPTION=Electric blue acicular crystals in a vug on cuprite matrix.
##STATUS=The identification of this mineral has been confirmed by single-crystal X-ray diffraction.
##URL=rruff.info/R090009
90.92609, 0.0000000E+00
91.40820, 14.25639
91.89032, 15.19965
92.37244, 14.67640
92.85455, 12.93217
93.33667, 11.43466
93.81879, 11.48264
94.30090, 12.64828
94.78302, 13.64712
95.26514, 14.17856
95.74725, 14.39285
96.22937, 14.59828
96.71149, 14.79745
97.19360, 14.93789
97.67572, 15.04530
98.15784, 15.11423
98.63995, 14.85994
99.12207, 14.05023
99.60419, 12.78570
100.0863, 11.72855
100.5684, 10.65084
101.0505, 10.24143
101.5327, 11.88532
102.0148, 16.45707
102.4969, 20.07714
102.9790, 21.10623
103.4611, 18.83757
103.9432, 17.86274
104.4253, 18.54646
104.9075, 20.33721
105.3896, 22.09070
105.8717, 23.49283
106.3538, 25.31062
106.8359, 27.98030
107.3180, 32.53714
107.8002, 36.07808
108.2823, 37.85971
108.7644, 38.48116
109.2465, 40.22592
109.7286, 42.54160
110.2107, 46.36928
110.6929, 52.16740
111.1750, 62.26678
111.6571, 71.69299
112.1392, 78.92783
112.6213, 84.50408
113.1034, 92.64921
113.5856, 106.2949
114.0677, 121.6698
114.5498, 135.9586
115.0319, 147.2641
115.5140, 158.8094
115.9961, 172.1109
116.4783, 187.1409
116.9604, 200.7238
117.4425, 211.7458
117.9246, 220.8414
118.4067, 228.6518
118.8888, 234.7196
119.3710, 240.1733
119.8531, 245.7281
120.3352, 251.4635
120.8173, 256.7490
121.2994, 259.4880
121.7815, 261.5504
122.2637, 266.2118
122.7458, 276.9488
123.2279, 290.0519
123.7100, 301.9400
124.1921, 312.1022
124.6742, 321.6093
125.1564, 330.8432
125.6385, 340.0770
126.1206, 350.2214
126.6027, 361.1857
127.0848, 373.4362
127.5669, 388.0992
128.0491, 405.9948
128.5312, 424.9987
129.0133, 442.3643
129.4954, 458.0409
129.9775, 473.0168
130.4596, 488.3409
130.9418, 503.5297
131.4239, 516.9860
131.9060, 527.6201
132.3881, 537.1180
132.8702, 549.8345
133.3523, 566.0738
133.8345, 582.2531
134.3166, 595.8649
134.7987, 606.9861
135.2808, 615.0795
135.7629, 619.3801
136.2450, 620.7217
136.7272, 623.5541
137.2093, 628.5561
137.6914, 633.0248
138.1735, 634.0057
138.6556, 631.0483
139.1377, 626.8854
139.6199, 622.2296
140.1020, 617.1183
140.5841, 610.1219
141.0662, 600.7039
141.5483, 590.2372
142.0304, 580.0354
142.5126, 569.3006
142.9947, 560.6647
143.4768, 554.3144
143.9589, 550.1848
144.4410, 542.9008
144.9231, 530.1914
145.4053, 515.8712
145.8874, 505.8364
146.3695, 503.5396
146.8516, 500.6134
147.3337, 494.2254
147.8158, 481.8415
148.2980, 472.3766
148.7801, 467.3543
149.2622, 464.8664
149.7443, 461.2016
150.2264, 453.7606
150.7085, 447.4042
151.1907, 443.9711
151.6728, 445.8380
152.1549, 446.3978
152.6370, 444.8994
153.1191, 441.9867
153.6012, 439.2740
154.0834, 436.1721
154.5655, 433.8118
155.0476, 432.7135
155.5297, 434.4945
156.0118, 435.4228
156.4939, 434.2204
156.9761, 431.5929
157.4582, 429.9384
157.9403, 430.7468
158.4224, 432.0474
158.9045, 432.6835
159.3866, 431.6924
159.8688, 430.8676
160.3509, 431.2343
160.8330, 432.4026
161.3151, 432.5271
161.7972, 430.8260
162.2793, 427.9216
162.7615, 424.3014
163.2436, 421.2149
163.7257, 416.4085
164.2078, 406.8831
164.6899, 393.5770
165.1720, 383.2210
165.6541, 381.4659
166.1363, 383.3026
166.6184, 383.7914
167.1005, 380.4120
167.5826, 375.8690
168.0647, 371.4525
168.5468, 367.1801
169.0290, 363.2468
169.5111, 360.0700
169.9932, 357.2322
170.4753, 354.1697
170.9574, 350.2614
171.4395, 346.3406
171.9217, 343.7150
172.4038, 342.3759
172.8859, 339.8543
173.3680, 332.9973
173.8501, 323.7873
174.3322, 315.5862
174.8144, 310.4610
175.2965, 306.7323
175.7786, 302.5629
176.2607, 297.8684
176.7428, 293.1409
177.2249, 288.9048
177.7071, 285.0048
178.1892, 280.9559
178.6713, 275.7159
179.1534, 270.4203
179.6355, 267.3651
180.1176, 266.7995
180.5998, 266.5327
181.0819, 263.9406
181.5640, 259.5977
182.0461, 255.4601
182.5282, 251.9382
183.0103, 249.3383
183.4925, 249.0419
183.9746, 251.5155
184.4567, 254.1937
184.9388, 253.7204
185.4209, 250.4796
185.9030, 246.8065
186.3852, 244.1547
186.8673, 242.0274
187.3494, 238.0453
187.8315, 231.6031
188.3136, 225.1523
188.7957, 222.3455
189.2779, 222.9719
189.7600, 223.8116
190.2421, 223.0031
190.7242, 220.9091
191.2063, 219.6093
191.6884, 219.2867
192.1706, 219.5473
192.6527, 220.1638
193.1348, 221.1489
193.6169, 221.3339
194.0990, 219.5290
194.5811, 215.9329
195.0633, 213.7012
195.5454, 213.3145
196.0275, 213.6488
196.5096, 212.4949
196.9917, 209.7104
197.4738, 207.0125
197.9560, 205.3773
198.4381, 204.8131
198.9202, 204.0427
199.4023, 202.8622
199.8844, 201.6842
200.3665, 201.7506
200.8487, 203.4108
201.3308, 204.2703
201.8129, 202.1853
202.2950, 196.7152
202.7771, 194.5039
203.2592, 196.7995
203.7414, 201.3391
204.2235, 203.0233
204.7056, 201.1712
205.1877, 199.0434
205.6698, 198.4050
206.1519, 199.5514
206.6341, 200.2081
207.1162, 200.1937
207.5983, 199.7354
208.0804, 199.3604
208.5625, 199.1524
209.0446, 198.7802
209.5268, 197.8574
210.0089, 196.0541
210.4910, 195.3201
210.9731, 195.9169
211.4552, 197.4686
211.9373, 199.4055
212.4195, 202.3378
212.9016, 204.1255
213.3837, 203.0054
213.8658, 197.3350
214.3479, 195.0464
214.8300, 197.4684
215.3121, 202.6565
215.7943, 205.8672
216.2764, 206.5299
216.7585, 206.3560
217.2406, 205.9612
217.7227, 205.1554
218.2048, 204.7570
218.6870, 204.8801
219.1691, 205.3537
219.6512, 205.6980
220.1333, 205.5654
220.6154, 205.9497
221.0975, 207.5880
221.5797, 211.4588
222.0618, 213.4886
222.5439, 212.5195
223.0260, 210.2582
223.5081, 211.0250
223.9902, 217.3360
224.4724, 222.2750
224.9545, 222.1841
225.4366, 213.9493
225.9187, 209.9328
226.4008, 211.9679
226.8829, 217.3313
227.3651, 220.1310
227.8472, 219.0781
228.3293, 217.6538
228.8114, 217.3284
229.2935, 218.7905
229.7757, 219.2042
230.2578, 218.2886
230.7399, 216.4559
231.2220, 214.4337
231.7041, 212.0804
232.1862, 209.7770
232.6684, 207.6545
233.1505, 205.7360
233.6326, 203.9405
234.1147, 202.4110
234.5968, 200.9231
235.0789, 199.0194
235.5611, 196.1973
236.0432, 193.8071
236.5253, 192.6314
237.0074, 193.5955
237.4895, 192.2475
237.9716, 187.0139
238.4538, 180.4312
238.9359, 176.7300
239.4180, 177.4400
239.9001, 178.4972
240.3822, 178.7340
240.8643, 178.0256
241.3465, 177.0465
241.8286, 175.6257
242.3107, 174.0537
242.7928, 172.7426
243.2749, 171.7724
243.7570, 170.9351
244.2392, 170.3099
244.7213, 170.0408
245.2034, 168.9834
245.6855, 166.5273
246.1676, 163.7840
246.6497, 162.2369
247.1319, 162.6309
247.6140, 162.8622
248.0961, 162.3272
248.5782, 160.9015
249.0603, 159.9107
249.5424, 159.6474
250.0246, 159.5348
250.5067, 158.9541
250.9888, 157.8601
251.4709, 156.3261
251.9530, 153.8897
252.4351, 150.4022
252.9173, 149.2815
253.3994, 151.9315
253.8815, 155.3022
254.3636, 156.3230
254.8457, 153.9248
255.3278, 151.4309
255.8100, 149.0219
256.2921, 146.7409
256.7742, 146.7366
257.2563, 150.5407
257.7384, 154.5600
258.2205, 155.3941
258.7026, 151.3842
259.1848, 148.4092
259.6669, 147.6299
260.1490, 148.7753
260.6311, 149.5755
261.1132, 149.9416
261.5953, 150.1141
262.0775, 150.2167
262.5596, 150.1590
263.0417, 150.3743
263.5238, 151.2430
264.0059, 152.4306
264.4880, 152.0849
264.9702, 149.4029
265.4523, 146.7474
265.9344, 145.7221
266.4165, 146.7661
266.8986, 147.8720
267.3807, 149.1194
267.8629, 150.2430
268.3450, 150.3028
268.8271, 149.0105
269.3092, 147.3678
269.7913, 145.8653
270.2734, 144.5441
270.7556, 143.1179
271.2377, 141.2702
271.7198, 139.5476
272.2019, 139.4451
272.6840, 141.4253
273.1661, 143.4475
273.6483, 144.6634
274.1304, 145.0694
274.6125, 144.4476
275.0946, 142.2221
275.5767, 139.7303
276.0588, 139.7476
276.5410, 142.8114
277.0231, 145.5580
277.5052, 146.1831
277.9873, 144.6358
278.4694, 144.4209
278.9515, 145.9331
279.4337, 147.9272
279.9158, 148.4983
280.3979, 147.4969
280.8800, 146.6279
281.3621, 146.6930
281.8442, 147.5379
282.3264, 147.4419
282.8085, 146.1069
283.2906, 144.8677
283.7727, 145.6826
284.2548, 148.5799
284.7369, 150.8275
285.2191, 151.4538
285.7012, 150.8392
286.1833, 150.5657
286.6654, 150.6835
287.1475, 150.8110
287.6296, 150.4373
288.1118, 149.6339
288.5939, 149.1961
289.0760, 149.4347
289.5581, 150.0551
290.0402, 150.2113
290.5223, 149.8821
291.0045, 149.7289
291.4866, 150.6600
291.9687, 152.3441
292.4508, 153.0650
292.9329, 152.1884
293.4150, 150.7363
293.8972, 150.4392
294.3793, 151.2375
294.8614, 152.4325
295.3435, 153.8076
295.8256, 155.2266
296.3077, 156.3495
296.7899, 157.1808
297.2720, 157.5463
297.7541, 156.6000
298.2362, 154.7287
298.7183, 153.6580
299.2004, 155.3109
299.6826, 158.2101
300.1647, 159.2635
300.6468, 157.9542
301.1289, 156.5957
301.6110, 157.8947
302.0931, 161.0719
302.5753, 164.1166
303.0574, 166.7971
303.5395, 168.4941
304.0216, 167.7369
304.5037, 164.4409
304.9858, 161.1631
305.4680, 159.6911
305.9501, 159.7387
306.4322, 160.8358
306.9143, 163.7007
307.3964, 166.8861
307.8785, 169.0372
308.3607, 170.2280
308.8428, 171.2588
309.3249, 172.9813
309.8070, 174.7276
310.2891, 175.5948
310.7712, 174.3774
311.2534, 173.4507
311.7355, 175.1747
312.2176, 178.8109
312.6997, 181.5619
313.1818, 180.7421
313.6639, 179.0591
314.1461, 178.9218
314.6282, 181.8068
315.1103, 184.1225
315.5924, 183.3241
316.0745, 180.6662
316.5566, 178.7494
317.0388, 178.8979
317.5209, 179.9091
318.0030, 181.4211
318.4851, 183.7335
318.9672, 185.1018
319.4493, 183.9637
319.9315, 181.7932
320.4136, 180.5300
320.8957, 181.8484
321.3778, 183.1556
321.8599, 183.6810
322.3420, 183.3806
322.8242, 182.2158
323.3063, 178.8313
323.7884, 175.2224
324.2705, 173.1295
324.7526, 173.5847
325.2347, 174.7683
325.7169, 177.2000
326.1990, 180.6509
326.6811, 182.0844
327.1632, 179.2727
327.6453, 175.7626
328.1274, 173.5205
328.6096, 173.8918
329.0917, 173.9037
329.5738, 173.1836
330.0559, 172.0278
330.5380, 171.3651
331.0201, 171.1379
331.5023, 171.4735
331.9844, 172.6395
332.4665, 175.5647
332.9486, 176.8949
333.4307, 175.5116
333.9128, 173.1079
334.3950, 172.7993
334.8771, 176.0526
335.3592, 178.6342
335.8413, 179.0684
336.3234, 177.1243
336.8055, 175.4012
337.2877, 173.9308
337.7698, 172.6603
338.2519, 171.4958
338.7340, 170.4084
339.2161, 169.6151
339.6982, 169.3383
340.1803, 169.4200
340.6624, 168.7430
341.1446, 167.0499
341.6267, 165.4267
342.1088, 164.6507
342.5909, 164.7404
343.0730, 165.3992
343.5551, 166.8414
344.0373, 168.5259
344.5194, 169.2313
345.0015, 168.9507
345.4836, 167.9562
345.9657, 165.7567
346.4478, 162.7540
346.9300, 161.4614
347.4121, 162.3511
347.8942, 163.7352
348.3763, 162.7318
348.8584, 159.8614
349.3405, 158.1559
349.8227, 159.7090
350.3048, 163.2130
350.7869, 166.0553
351.2690, 168.2231
351.7511, 169.9945
352.2332, 171.4749
352.7154, 172.7310
353.1975, 173.8526
353.6796, 174.4965
354.1617, 175.4009
354.6438, 177.5914
355.1259, 180.8899
355.6081, 184.3355
356.0902, 187.7925
356.5723, 190.8884
357.0544, 193.0319
357.5365, 193.5997
358.0186, 194.3467
358.5008, 196.5100
358.9829, 199.7371
359.4650, 203.2728
359.9471, 207.6667
360.4292, 211.6107
360.9113, 213.5793
361.3935, 212.9296
361.8756, 213.9647
362.3577, 220.6083
362.8398, 229.1175
363.3219, 235.2380
363.8040, 235.1747
364.2862, 235.1174
364.7683, 237.4494
365.2504, 242.0753
365.7325, 245.8913
366.2146, 247.2413
366.6967, 248.2911
367.1789, 250.3865
367.6610, 255.5067
368.1431, 259.4985
368.6252, 261.6570
369.1073, 262.4413
369.5894, 263.2918
370.0716, 263.8517
370.5537, 264.8544
371.0358, 266.7341
371.5179, 270.0696
372.0000, 272.5641
372.4821, 274.3665
372.9643, 275.2038
373.4464, 274.6171
373.9285, 272.2542
374.4106, 269.1651
374.8927, 265.3029
375.3748, 260.7000
375.8570, 257.0385
376.3391, 254.8542
376.8212, 252.4192
377.3033, 247.8229
377.7854, 240.6564
378.2675, 234.6465
378.7497, 230.5462
379.2318, 227.6067
379.7139, 223.8179
380.1960, 219.1632
380.6781, 214.2640
381.1602, 209.5776
381.6424, 205.0298
382.1245, 199.9022
382.6066, 193.9055
383.0887, 188.2351
383.5708, 184.6787
384.0529, 182.8798
384.5351, 180.9424
385.0172, 177.9594
385.4993, 174.4723
385.9814, 171.2144
386.4635, 168.2144
386.9456, 165.4990
387.4278, 163.1385
387.9099, 161.1066
388.3920, 159.3604
388.8741, 157.9939
389.3562, 156.7498
389.8383, 155.6775
390.3205, 154.5718
390.8026, 152.8837
391.2847, 148.7361
391.7668, 144.9200
392.2489, 144.2023
392.7310, 147.6485
393.2132, 150.2280
393.6953, 148.4640
394.1774, 144.7680
394.6595, 142.0352
395.1416, 141.7950
395.6237, 142.0705
396.1059, 142.5058
396.5880, 143.0316
397.0701, 142.9316
397.5522, 141.3475
398.0343, 139.5752
398.5164, 138.3822
398.9986, 138.2395
399.4807, 138.1555
399.9628, 138.1227
400.4449, 138.1271
400.9270, 138.1669
401.4091, 138.6104
401.8913, 138.5925
402.3734, 137.5120
402.8555, 134.8990
403.3376, 134.1065
403.8197, 136.2831
404.3018, 138.9362
404.7840, 139.1079
405.2661, 135.9010
405.7482, 133.3374
406.2303, 132.3180
406.7124, 132.4776
407.1945, 132.1615
407.6767, 131.2383
408.1588, 130.4803
408.6409, 130.6550
409.1230, 131.6664
409.6051, 132.0128
410.0872, 131.4678
410.5694, 130.5567
411.0515, 129.9978
411.5336, 129.7624
412.0157, 129.6952
412.4978, 130.0053
412.9799, 130.3595
413.4621, 129.9544
413.9442, 128.8039
414.4263, 127.6047
414.9084, 126.9406
415.3905, 126.5963
415.8727, 126.2318
416.3548, 125.8188
416.8369, 125.2583
417.3190, 124.4347
417.8011, 123.3970
418.2832, 122.2569
418.7654, 120.4556
419.2475, 119.0061
419.7296, 118.8422
420.2117, 120.2714
420.6938, 121.5845
421.1759, 121.7975
421.6581, 121.6680
422.1402, 122.0027
422.6223, 123.5580
423.1044, 124.9951
423.5865, 126.0860
424.0686, 126.8108
424.5508, 127.1015
425.0329, 126.4032
425.5150, 125.7058
425.9971, 125.4799
426.4792, 126.0715
426.9613, 126.3978
427.4435, 126.1832
427.9256, 125.8568
428.4077, 126.1655
428.8898, 127.4750
429.3719, 128.5823
429.8540, 128.9284
430.3362, 128.6305
430.8183, 129.6123
431.3004, 132.1584
431.7825, 135.1610
432.2646, 137.9890
432.7467, 140.6378
433.2289, 142.0761
433.7110, 141.6167
434.1931, 140.7956
434.6752, 142.8735
435.1573, 147.5930
435.6394, 152.1455
436.1216, 154.6083
436.6036, 155.9598
437.0858, 158.5772
437.5679, 162.5509
438.0500, 166.3679
438.5321, 168.5392
439.0142, 169.6786
439.4963, 170.8054
439.9785, 172.1793
440.4606, 173.7049
440.9427, 174.9914
441.4248, 176.3044
441.9069, 178.4231
442.3890, 182.9618
442.8712, 187.5499
443.3533, 190.4330
443.8354, 191.0442
444.3175, 191.8604
444.7996, 193.2327
445.2817, 195.4037
445.7639, 198.6399
446.2460, 204.8728
446.7281, 210.1267
447.2102, 213.0132
447.6923, 213.9402
448.1744, 215.8413
448.6566, 220.4313
449.1387, 224.1794
449.6208, 225.0738
450.1029, 221.2313
450.5850, 220.4851
451.0671, 224.3348
451.5493, 229.7410
452.0314, 232.2841
452.5135, 231.3885
452.9956, 230.0313
453.4777, 228.9499
453.9598, 228.0301
454.4420, 226.9162
454.9241, 225.6837
455.4062, 223.6722
455.8883, 220.0253
456.3704, 215.0943
456.8525, 210.3696
457.3347, 206.0103
457.8168, 202.2193
458.2989, 199.7349
458.7810, 198.1520
459.2631, 196.3570
459.7452, 193.4528
460.2274, 190.2990
460.7095, 188.1847
461.1916, 186.9033
461.6737, 185.0814
462.1558, 180.3656
462.6379, 175.5090
463.1201, 173.2075
463.6022, 174.8279
464.0843, 176.9641
464.5664, 178.8002
465.0485, 180.1569
465.5306, 180.7484
466.0128, 179.0575
466.4949, 178.0296
466.9770, 179.1788
467.4591, 182.6343
467.9412, 184.3918
468.4233, 182.8072
468.9055, 180.8841
469.3876, 180.3486
469.8697, 181.8067
470.3518, 183.3046
470.8339, 184.6450
471.3160, 186.1340
471.7982, 188.7238
472.2803, 192.9984
472.7624, 195.8920
473.2445, 195.3375
473.7266, 192.3744
474.2087, 193.9720
474.6909, 200.5909
475.1730, 207.7159
475.6551, 210.9602
476.1372, 211.2750
476.6193, 212.6629
477.1014, 215.8013
477.5836, 219.8198
478.0657, 223.9703
478.5478, 228.1787
479.0299, 232.1550
479.5120, 235.0336
479.9941, 238.1643
480.4763, 243.1301
480.9584, 249.7792
481.4405, 256.2955
481.9226, 262.1378
482.4047, 267.1732
482.8868, 271.0590
483.3690, 272.5948
483.8511, 275.2677
484.3332, 281.2864
484.8153, 288.7985
485.2974, 294.9122
485.7795, 297.0864
486.2617, 300.0111
486.7438, 304.9789
487.2259, 311.9698
487.7080, 318.5343
488.1901, 324.9443
488.6722, 330.6530
489.1544, 335.2767
489.6365, 338.4677
490.1186, 341.8301
490.6007, 345.6105
491.0828, 349.2911
491.5649, 351.9590
492.0471, 353.5417
492.5292, 355.2827
493.0113, 357.7797
493.4934, 360.5848
493.9755, 362.2233
494.4576, 362.7437
494.9398, 363.6098
495.4219, 365.9493
495.9040, 369.3624
496.3861, 373.1476
496.8682, 377.3387
497.3503, 381.4986
497.8325, 385.1442
498.3146, 388.5776
498.7967, 392.3460
499.2788, 396.0425
499.7609, 400.6724
500.2430, 407.2352
500.7252, 415.3026
501.2073, 423.1394
501.6894, 429.2372
502.1715, 435.7018
502.6536, 443.9816
503.1357, 455.4889
503.6179, 464.8857
504.1000, 470.1144
504.5821, 474.4614
505.0642, 481.2743
505.5463, 491.6702
506.0284, 502.0916
506.5106, 512.3004
506.9927, 522.0194
507.4748, 530.2628
507.9569, 536.8889
508.4390, 542.6780
508.9211, 547.7446
509.4033, 552.1871
509.8854, 557.1046
510.3675, 562.6156
510.8496, 567.5785
511.3317, 570.4730
511.8138, 571.9243
512.2960, 573.6659
512.7781, 576.4366
513.2602, 578.9773
513.7423, 580.2405
514.2244, 580.2676
514.7065, 579.1537
515.1887, 575.7770
515.6708, 572.1910
516.1529, 570.2687
516.6350, 569.9686
517.1171, 568.4546
517.5992, 563.4371
518.0814, 557.7610
518.5635, 553.2678
519.0456, 550.4921
519.5277, 548.4242
520.0098, 547.7676
520.4919, 547.4764
520.9741, 545.9923
521.4562, 542.9779
521.9383, 539.4163
522.4204, 535.1974
522.9025, 530.5532
523.3846, 527.4142
523.8668, 526.3511
524.3489, 524.4420
524.8310, 518.9332
525.3131, 510.3937
525.7952, 504.8348
526.2773, 503.0820
526.7595, 500.7753
527.2416, 492.4955
527.7237, 479.8004
528.2058, 466.3551
528.6879, 452.9712
529.1700, 439.9438
529.6522, 427.7330
530.1343, 416.2417
530.6164, 404.7887
531.0985, 393.7703
531.5806, 382.2423
532.0627, 369.4041
532.5449, 355.1599
533.0270, 341.3669
533.5091, 327.8963
533.9912, 315.5524
534.4733, 305.1332
534.9554, 299.0384
535.4376, 291.2643
535.9197, 280.8226
536.4018, 269.2275
536.8839, 259.4120
537.3660, 251.6778
537.8481, 244.7431
538.3303, 238.4638
538.8124, 232.6619
539.2945, 226.2031
539.7766, 219.0398
540.2587, 211.6364
540.7408, 203.8660
541.2230, 196.0266
541.7051, 189.5882
542.1872, 184.7194
542.6693, 180.7020
543.1514, 177.2617
543.6335, 174.0734
544.1157, 170.4248
544.5978, 165.9350
545.0799, 161.1690
545.5620, 156.0218
546.0441, 150.9107
546.5262, 146.8683
547.0084, 145.2134
547.4905, 143.8737
547.9726, 141.8839
548.4547, 139.1344
548.9368, 136.6215
549.4189, 134.6843
549.9011, 132.7963
550.3832, 130.6054
550.8653, 127.7381
551.3474, 125.4920
551.8295, 124.1715
552.3116, 123.1624
552.7938, 121.4351
553.2759, 118.8737
553.7580, 116.7621
554.2401, 115.6200
554.7222, 114.9921
555.2043, 113.5486
555.6865, 111.3956
556.1686, 109.5648
556.6507, 109.0501
557.1328, 109.1220
557.6149, 108.6914
558.0970, 107.6980
558.5792, 106.4557
559.0613, 105.0028
559.5434, 103.5144
560.0255, 102.1638
560.5076, 101.0050
560.9897, 99.99277
561.4719, 98.84318
561.9540, 97.88213
562.4361, 97.66380
562.9182, 99.60975
563.4003, 100.7542
563.8824, 100.4078
564.3646, 98.74872
564.8467, 96.91352
565.3288, 94.64046
565.8109, 92.71906
566.2930, 91.36623
566.7751, 90.56728
567.2573, 91.62855
567.7394, 95.09060
568.2215, 97.96698
568.7036, 96.01388
569.1857, 90.65859
569.6678, 87.30692
570.1500, 87.50920
570.6321, 89.07706
571.1142, 90.21419
571.5963, 90.80196
572.0784, 90.57372
572.5605, 88.44839
573.0427, 86.31712
573.5248, 85.44078
574.0069, 85.66502
574.4890, 85.77901
574.9711, 85.66362
575.4532, 85.14233
575.9354, 83.73778
576.4175, 80.55159
576.8996, 79.78902
577.3817, 83.26466
577.8638, 87.38997
578.3459, 88.82283
578.8281, 86.82870
579.3102, 85.02132
579.7923, 83.80340
580.2744, 82.92783
580.7565, 81.81046
581.2386, 80.49355
581.7208, 79.76019
582.2029, 80.15886
582.6850, 81.14455
583.1671, 81.74593
583.6492, 82.02433
584.1313, 82.34261
584.6134, 83.29626
585.0955, 84.18025
585.5776, 84.29658
586.0598, 83.53268
586.5419, 82.44419
587.0240, 80.76938
587.5061, 79.14816
587.9882, 78.11404
