##NAMES=Lileyite
##RRUFFID=R140773
##IDEAL CHEMISTRY=Ba_2_Ti^4+^_2_Na_2_Fe^2+^Mg(Si_2_O_7_)_2_O_2_F_2_
##LOCALITY=Graulay, Hillesheim, Eifel, Rhineland-Palatinate, Germany
##OWNER=RRUFF
##SOURCE=Ch. and H. Sch√§fer
##DESCRIPTION=Reddish brown prismatic crystals with fine striations, associated with pyroxene, schorlomite and leucite.
##STATUS=The identification of this mineral has been confirmed by single-crystal X-ray diffraction.
##URL=rruff.info/R140773
8.813672e+001, 3.609051e+002
8.861884e+001, 3.672720e+002
8.910095e+001, 3.725107e+002
8.958307e+001, 3.767785e+002
9.006519e+001, 3.813622e+002
9.054730e+001, 3.872473e+002
9.102942e+001, 3.958313e+002
9.151154e+001, 4.038997e+002
9.199365e+001, 4.076194e+002
9.247577e+001, 4.076125e+002
9.295789e+001, 4.065233e+002
9.344000e+001, 4.061400e+002
9.392212e+001, 4.058019e+002
9.440424e+001, 4.045760e+002
9.488635e+001, 4.030237e+002
9.536847e+001, 4.009540e+002
9.585059e+001, 3.975131e+002
9.633270e+001, 3.925790e+002
9.681482e+001, 3.873507e+002
9.729694e+001, 3.824114e+002
9.777905e+001, 3.777429e+002
9.826117e+001, 3.749857e+002
9.874329e+001, 3.752276e+002
9.922540e+001, 3.779367e+002
9.970752e+001, 3.792357e+002
1.001896e+002, 3.787974e+002
1.006718e+002, 3.775882e+002
1.011539e+002, 3.767057e+002
1.016360e+002, 3.760695e+002
1.021181e+002, 3.760231e+002
1.026002e+002, 3.767050e+002
1.030823e+002, 3.781627e+002
1.035645e+002, 3.799405e+002
1.040466e+002, 3.817252e+002
1.045287e+002, 3.840381e+002
1.050108e+002, 3.880217e+002
1.054929e+002, 3.944428e+002
1.059750e+002, 4.014012e+002
1.064572e+002, 4.083976e+002
1.069393e+002, 4.170614e+002
1.074214e+002, 4.228891e+002
1.079035e+002, 4.246948e+002
1.083856e+002, 4.235919e+002
1.088677e+002, 4.233573e+002
1.093499e+002, 4.242050e+002
1.098320e+002, 4.257826e+002
1.103141e+002, 4.279363e+002
1.107962e+002, 4.305939e+002
1.112783e+002, 4.339514e+002
1.117604e+002, 4.381324e+002
1.122426e+002, 4.431205e+002
1.127247e+002, 4.485270e+002
1.132068e+002, 4.541385e+002
1.136889e+002, 4.602485e+002
1.141710e+002, 4.670052e+002
1.146531e+002, 4.758921e+002
1.151353e+002, 4.840343e+002
1.156174e+002, 4.902438e+002
1.160995e+002, 4.944860e+002
1.165816e+002, 4.991621e+002
1.170637e+002, 5.061185e+002
1.175458e+002, 5.136397e+002
1.180280e+002, 5.199496e+002
1.185101e+002, 5.229809e+002
1.189922e+002, 5.255128e+002
1.194743e+002, 5.290240e+002
1.199564e+002, 5.336514e+002
1.204385e+002, 5.389995e+002
1.209207e+002, 5.444676e+002
1.214028e+002, 5.505062e+002
1.218849e+002, 5.578762e+002
1.223670e+002, 5.690162e+002
1.228491e+002, 5.808663e+002
1.233312e+002, 5.898146e+002
1.238134e+002, 5.949714e+002
1.242955e+002, 5.992565e+002
1.247776e+002, 6.050349e+002
1.252597e+002, 6.121418e+002
1.257418e+002, 6.199965e+002
1.262239e+002, 6.278812e+002
1.267061e+002, 6.364192e+002
1.271882e+002, 6.466038e+002
1.276703e+002, 6.589791e+002
1.281524e+002, 6.726066e+002
1.286345e+002, 6.863353e+002
1.291166e+002, 7.001755e+002
1.295988e+002, 7.142335e+002
1.300809e+002, 7.293980e+002
1.305630e+002, 7.450873e+002
1.310451e+002, 7.589479e+002
1.315272e+002, 7.702955e+002
1.320093e+002, 7.794303e+002
1.324915e+002, 7.874398e+002
1.329736e+002, 7.943632e+002
1.334557e+002, 7.991754e+002
1.339378e+002, 8.010139e+002
1.344199e+002, 7.998372e+002
1.349020e+002, 7.955731e+002
1.353842e+002, 7.874752e+002
1.358663e+002, 7.762037e+002
1.363484e+002, 7.642553e+002
1.368305e+002, 7.513810e+002
1.373126e+002, 7.384349e+002
1.377947e+002, 7.267646e+002
1.382769e+002, 7.166730e+002
1.387590e+002, 7.059174e+002
1.392411e+002, 6.936544e+002
1.397232e+002, 6.797015e+002
1.402053e+002, 6.671971e+002
1.406874e+002, 6.562000e+002
1.411696e+002, 6.463555e+002
1.416517e+002, 6.373329e+002
1.421338e+002, 6.290509e+002
1.426159e+002, 6.217308e+002
1.430980e+002, 6.155215e+002
1.435801e+002, 6.106992e+002
1.440623e+002, 6.059363e+002
1.445444e+002, 6.009933e+002
1.450265e+002, 5.962852e+002
1.455086e+002, 5.926638e+002
1.459907e+002, 5.907607e+002
1.464728e+002, 5.891039e+002
1.469550e+002, 5.871988e+002
1.474371e+002, 5.848708e+002
1.479192e+002, 5.827335e+002
1.484013e+002, 5.806597e+002
1.488834e+002, 5.787953e+002
1.493655e+002, 5.774406e+002
1.498477e+002, 5.769987e+002
1.503298e+002, 5.767252e+002
1.508119e+002, 5.763467e+002
1.512940e+002, 5.756048e+002
1.517761e+002, 5.751248e+002
1.522583e+002, 5.748685e+002
1.527404e+002, 5.748752e+002
1.532225e+002, 5.752743e+002
1.537046e+002, 5.763231e+002
1.541867e+002, 5.775882e+002
1.546688e+002, 5.788881e+002
1.551510e+002, 5.807604e+002
1.556331e+002, 5.820084e+002
1.561152e+002, 5.819796e+002
1.565973e+002, 5.810351e+002
1.570794e+002, 5.805914e+002
1.575615e+002, 5.803730e+002
1.580437e+002, 5.810983e+002
1.585258e+002, 5.832189e+002
1.590079e+002, 5.883108e+002
1.594900e+002, 5.932704e+002
1.599721e+002, 5.972187e+002
1.604542e+002, 6.002771e+002
1.609364e+002, 6.031417e+002
1.614185e+002, 6.056406e+002
1.619006e+002, 6.082518e+002
1.623827e+002, 6.113591e+002
1.628648e+002, 6.163411e+002
1.633469e+002, 6.207256e+002
1.638291e+002, 6.232863e+002
1.643112e+002, 6.241073e+002
1.647933e+002, 6.243637e+002
1.652754e+002, 6.248816e+002
1.657575e+002, 6.250383e+002
1.662396e+002, 6.241797e+002
1.667218e+002, 6.219551e+002
1.672039e+002, 6.187334e+002
1.676860e+002, 6.142796e+002
1.681681e+002, 6.086812e+002
1.686502e+002, 6.032977e+002
1.691323e+002, 5.994744e+002
1.696145e+002, 5.963484e+002
1.700966e+002, 5.927652e+002
1.705787e+002, 5.878710e+002
1.710608e+002, 5.825617e+002
1.715429e+002, 5.774455e+002
1.720250e+002, 5.724897e+002
1.725072e+002, 5.680637e+002
1.729893e+002, 5.643419e+002
1.734714e+002, 5.612617e+002
1.739535e+002, 5.587062e+002
1.744356e+002, 5.569638e+002
1.749177e+002, 5.555743e+002
1.753999e+002, 5.538835e+002
1.758820e+002, 5.518105e+002
1.763641e+002, 5.498846e+002
1.768462e+002, 5.485740e+002
1.773283e+002, 5.477500e+002
1.778104e+002, 5.470858e+002
1.782926e+002, 5.464438e+002
1.787747e+002, 5.458524e+002
1.792568e+002, 5.454328e+002
1.797389e+002, 5.452249e+002
1.802210e+002, 5.449433e+002
1.807031e+002, 5.441313e+002
1.811853e+002, 5.429288e+002
1.816674e+002, 5.418761e+002
1.821495e+002, 5.414989e+002
1.826316e+002, 5.414617e+002
1.831137e+002, 5.408526e+002
1.835958e+002, 5.394970e+002
1.840780e+002, 5.380975e+002
1.845601e+002, 5.377110e+002
1.850422e+002, 5.382111e+002
1.855243e+002, 5.386613e+002
1.860064e+002, 5.386494e+002
1.864885e+002, 5.382151e+002
1.869707e+002, 5.373707e+002
1.874528e+002, 5.360023e+002
1.879349e+002, 5.345574e+002
1.884170e+002, 5.336902e+002
1.888991e+002, 5.333845e+002
1.893812e+002, 5.333554e+002
1.898634e+002, 5.335945e+002
1.903455e+002, 5.340331e+002
1.908276e+002, 5.342230e+002
1.913097e+002, 5.340665e+002
1.917918e+002, 5.337847e+002
1.922739e+002, 5.333945e+002
1.927561e+002, 5.328444e+002
1.932382e+002, 5.333719e+002
1.937203e+002, 5.364134e+002
1.942024e+002, 5.416898e+002
1.946845e+002, 5.456075e+002
1.951666e+002, 5.477601e+002
1.956488e+002, 5.486406e+002
1.961309e+002, 5.491965e+002
1.966130e+002, 5.494686e+002
1.970951e+002, 5.491179e+002
1.975772e+002, 5.474149e+002
1.980593e+002, 5.443301e+002
1.985415e+002, 5.427579e+002
1.990236e+002, 5.432003e+002
1.995057e+002, 5.448863e+002
1.999878e+002, 5.461266e+002
2.004699e+002, 5.468560e+002
2.009520e+002, 5.474738e+002
2.014342e+002, 5.481290e+002
2.019163e+002, 5.488059e+002
2.023984e+002, 5.497908e+002
2.028805e+002, 5.512382e+002
2.033626e+002, 5.528826e+002
2.038447e+002, 5.539819e+002
2.043269e+002, 5.543867e+002
2.048090e+002, 5.547813e+002
2.052911e+002, 5.556290e+002
2.057732e+002, 5.570416e+002
2.062553e+002, 5.581390e+002
2.067374e+002, 5.587494e+002
2.072196e+002, 5.590918e+002
2.077017e+002, 5.597771e+002
2.081838e+002, 5.608806e+002
2.086659e+002, 5.621302e+002
2.091480e+002, 5.634261e+002
2.096301e+002, 5.648471e+002
2.101123e+002, 5.660043e+002
2.105944e+002, 5.668428e+002
2.110765e+002, 5.674342e+002
2.115586e+002, 5.679570e+002
2.120407e+002, 5.683775e+002
2.125228e+002, 5.688104e+002
2.130050e+002, 5.693255e+002
2.134871e+002, 5.699479e+002
2.139692e+002, 5.705472e+002
2.144513e+002, 5.711210e+002
2.149334e+002, 5.716573e+002
2.154155e+002, 5.721416e+002
2.158977e+002, 5.725632e+002
2.163798e+002, 5.729357e+002
2.168619e+002, 5.732617e+002
2.173440e+002, 5.735385e+002
2.178261e+002, 5.737740e+002
2.183082e+002, 5.740633e+002
2.187904e+002, 5.742747e+002
2.192725e+002, 5.738848e+002
2.197546e+002, 5.724443e+002
2.202367e+002, 5.712098e+002
2.207188e+002, 5.709866e+002
2.212009e+002, 5.724197e+002
2.216831e+002, 5.731280e+002
2.221652e+002, 5.729262e+002
2.226473e+002, 5.720045e+002
2.231294e+002, 5.708135e+002
2.236115e+002, 5.689952e+002
2.240936e+002, 5.675091e+002
2.245758e+002, 5.668964e+002
2.250579e+002, 5.676450e+002
2.255400e+002, 5.680830e+002
2.260221e+002, 5.680552e+002
2.265042e+002, 5.677402e+002
2.269863e+002, 5.676342e+002
2.274685e+002, 5.678549e+002
2.279506e+002, 5.681003e+002
2.284327e+002, 5.682675e+002
2.289148e+002, 5.684703e+002
2.293969e+002, 5.682552e+002
2.298790e+002, 5.672220e+002
2.303612e+002, 5.658766e+002
2.308433e+002, 5.655847e+002
2.313254e+002, 5.669174e+002
2.318075e+002, 5.684189e+002
2.322896e+002, 5.693883e+002
2.327717e+002, 5.693205e+002
2.332539e+002, 5.700104e+002
2.337360e+002, 5.719884e+002
2.342181e+002, 5.745143e+002
2.347002e+002, 5.758236e+002
2.351823e+002, 5.752002e+002
2.356644e+002, 5.744034e+002
2.361466e+002, 5.740543e+002
2.366287e+002, 5.741027e+002
2.371108e+002, 5.747840e+002
2.375929e+002, 5.765120e+002
2.380750e+002, 5.786893e+002
2.385571e+002, 5.800422e+002
2.390393e+002, 5.802024e+002
2.395214e+002, 5.801288e+002
2.400035e+002, 5.801541e+002
2.404856e+002, 5.803235e+002
2.409677e+002, 5.804668e+002
2.414498e+002, 5.804746e+002
2.419320e+002, 5.805305e+002
2.424141e+002, 5.810060e+002
2.428962e+002, 5.822297e+002
2.433783e+002, 5.833643e+002
2.438604e+002, 5.840828e+002
2.443425e+002, 5.842136e+002
2.448247e+002, 5.846063e+002
2.453068e+002, 5.853589e+002
2.457889e+002, 5.863186e+002
2.462710e+002, 5.872390e+002
2.467531e+002, 5.880042e+002
2.472352e+002, 5.889294e+002
2.477174e+002, 5.902249e+002
2.481995e+002, 5.920568e+002
2.486816e+002, 5.932874e+002
2.491637e+002, 5.936089e+002
2.496458e+002, 5.935497e+002
2.501279e+002, 5.938807e+002
2.506101e+002, 5.948637e+002
2.510922e+002, 5.957248e+002
2.515743e+002, 5.961262e+002
2.520564e+002, 5.959338e+002
2.525385e+002, 5.964162e+002
2.530206e+002, 5.981782e+002
2.535028e+002, 6.000637e+002
2.539849e+002, 6.004583e+002
2.544670e+002, 5.984120e+002
2.549491e+002, 5.969323e+002
2.554312e+002, 5.968812e+002
2.559133e+002, 5.983510e+002
2.563955e+002, 5.996205e+002
2.568776e+002, 6.007938e+002
2.573597e+002, 6.016513e+002
2.578418e+002, 6.018057e+002
2.583239e+002, 6.006933e+002
2.588061e+002, 6.002460e+002
2.592882e+002, 6.011242e+002
2.597703e+002, 6.032997e+002
2.602524e+002, 6.045529e+002
2.607345e+002, 6.045088e+002
2.612166e+002, 6.040867e+002
2.616988e+002, 6.040663e+002
2.621809e+002, 6.044688e+002
2.626630e+002, 6.052459e+002
2.631451e+002, 6.065357e+002
2.636272e+002, 6.082620e+002
2.641093e+002, 6.095812e+002
2.645915e+002, 6.104100e+002
2.650736e+002, 6.110138e+002
2.655557e+002, 6.114889e+002
2.660378e+002, 6.116269e+002
2.665199e+002, 6.123756e+002
2.670020e+002, 6.139396e+002
2.674842e+002, 6.162216e+002
2.679663e+002, 6.187184e+002
2.684484e+002, 6.215293e+002
2.689305e+002, 6.243064e+002
2.694126e+002, 6.267709e+002
2.698947e+002, 6.289109e+002
2.703769e+002, 6.308973e+002
2.708590e+002, 6.327410e+002
2.713411e+002, 6.344606e+002
2.718232e+002, 6.359232e+002
2.723053e+002, 6.369157e+002
2.727874e+002, 6.382820e+002
2.732696e+002, 6.407465e+002
2.737517e+002, 6.445447e+002
2.742338e+002, 6.478376e+002
2.747159e+002, 6.504089e+002
2.751980e+002, 6.525512e+002
2.756801e+002, 6.549781e+002
2.761623e+002, 6.578329e+002
2.766444e+002, 6.603553e+002
2.771265e+002, 6.619758e+002
2.776086e+002, 6.626263e+002
2.780907e+002, 6.637346e+002
2.785728e+002, 6.655234e+002
2.790550e+002, 6.675028e+002
2.795371e+002, 6.686901e+002
2.800192e+002, 6.689785e+002
2.805013e+002, 6.693425e+002
2.809834e+002, 6.703806e+002
2.814655e+002, 6.720599e+002
2.819477e+002, 6.731337e+002
2.824298e+002, 6.734933e+002
2.829119e+002, 6.734816e+002
2.833940e+002, 6.735970e+002
2.838761e+002, 6.738397e+002
2.843582e+002, 6.738271e+002
2.848404e+002, 6.733137e+002
2.853225e+002, 6.723806e+002
2.858046e+002, 6.715497e+002
2.862867e+002, 6.708359e+002
2.867688e+002, 6.701693e+002
2.872509e+002, 6.695959e+002
2.877331e+002, 6.690895e+002
2.882152e+002, 6.682338e+002
2.886973e+002, 6.667196e+002
2.891794e+002, 6.648140e+002
2.896615e+002, 6.635207e+002
2.901436e+002, 6.628886e+002
2.906258e+002, 6.622654e+002
2.911079e+002, 6.607602e+002
2.915900e+002, 6.586136e+002
2.920721e+002, 6.571693e+002
2.925542e+002, 6.571054e+002
2.930363e+002, 6.576619e+002
2.935185e+002, 6.570656e+002
2.940006e+002, 6.553347e+002
2.944827e+002, 6.537631e+002
2.949648e+002, 6.532790e+002
2.954469e+002, 6.537179e+002
2.959290e+002, 6.546697e+002
2.964112e+002, 6.562639e+002
2.968933e+002, 6.579794e+002
2.973754e+002, 6.588677e+002
2.978575e+002, 6.590408e+002
2.983396e+002, 6.592465e+002
2.988217e+002, 6.599072e+002
2.993039e+002, 6.609426e+002
2.997860e+002, 6.622706e+002
3.002681e+002, 6.639825e+002
3.007502e+002, 6.656677e+002
3.012323e+002, 6.666473e+002
3.017144e+002, 6.671359e+002
3.021966e+002, 6.678223e+002
3.026787e+002, 6.693343e+002
3.031608e+002, 6.711736e+002
3.036429e+002, 6.726954e+002
3.041250e+002, 6.738187e+002
3.046071e+002, 6.747528e+002
3.050893e+002, 6.755864e+002
3.055714e+002, 6.763660e+002
3.060535e+002, 6.771552e+002
3.065356e+002, 6.779133e+002
3.070177e+002, 6.787465e+002
3.074998e+002, 6.798351e+002
3.079820e+002, 6.811944e+002
3.084641e+002, 6.824470e+002
3.089462e+002, 6.831416e+002
3.094283e+002, 6.836230e+002
3.099104e+002, 6.843536e+002
3.103925e+002, 6.859852e+002
3.108747e+002, 6.875506e+002
3.113568e+002, 6.881428e+002
3.118389e+002, 6.879120e+002
3.123210e+002, 6.879418e+002
3.128031e+002, 6.893326e+002
3.132852e+002, 6.910478e+002
3.137674e+002, 6.920660e+002
3.142495e+002, 6.916046e+002
3.147316e+002, 6.910385e+002
3.152137e+002, 6.910798e+002
3.156958e+002, 6.915719e+002
3.161779e+002, 6.919935e+002
3.166601e+002, 6.920517e+002
3.171422e+002, 6.920031e+002
3.176243e+002, 6.919931e+002
3.181064e+002, 6.920063e+002
3.185885e+002, 6.921274e+002
3.190706e+002, 6.923569e+002
3.195528e+002, 6.927076e+002
3.200349e+002, 6.932097e+002
3.205170e+002, 6.937567e+002
3.209991e+002, 6.945450e+002
3.214812e+002, 6.958417e+002
3.219633e+002, 6.979739e+002
3.224455e+002, 6.994641e+002
3.229276e+002, 6.991868e+002
3.234097e+002, 6.983890e+002
3.238918e+002, 6.986029e+002
3.243739e+002, 7.010089e+002
3.248560e+002, 7.035292e+002
3.253382e+002, 7.055893e+002
3.258203e+002, 7.071102e+002
3.263024e+002, 7.088942e+002
3.267845e+002, 7.116818e+002
3.272666e+002, 7.144086e+002
3.277487e+002, 7.162253e+002
3.282309e+002, 7.158156e+002
3.287130e+002, 7.160204e+002
3.291951e+002, 7.171960e+002
3.296772e+002, 7.192782e+002
3.301593e+002, 7.216860e+002
3.306414e+002, 7.250541e+002
3.311236e+002, 7.281068e+002
3.316057e+002, 7.300481e+002
3.320878e+002, 7.295737e+002
3.325699e+002, 7.303751e+002
3.330520e+002, 7.332178e+002
3.335341e+002, 7.372690e+002
3.340163e+002, 7.401850e+002
3.344984e+002, 7.415056e+002
3.349805e+002, 7.424039e+002
3.354626e+002, 7.433565e+002
3.359447e+002, 7.444329e+002
3.364268e+002, 7.452731e+002
3.369090e+002, 7.457385e+002
3.373911e+002, 7.461318e+002
3.378732e+002, 7.470501e+002
3.383553e+002, 7.487549e+002
3.388374e+002, 7.500976e+002
3.393195e+002, 7.506844e+002
3.398017e+002, 7.505394e+002
3.402838e+002, 7.503242e+002
3.407659e+002, 7.500867e+002
3.412480e+002, 7.496760e+002
3.417301e+002, 7.487670e+002
3.422122e+002, 7.473080e+002
3.426944e+002, 7.462355e+002
3.431765e+002, 7.459200e+002
3.436586e+002, 7.460554e+002
3.441407e+002, 7.455320e+002
3.446228e+002, 7.442946e+002
3.451049e+002, 7.430351e+002
3.455871e+002, 7.422446e+002
3.460692e+002, 7.418854e+002
3.465513e+002, 7.418234e+002
3.470334e+002, 7.421019e+002
3.475155e+002, 7.425244e+002
3.479977e+002, 7.428223e+002
3.484798e+002, 7.429924e+002
3.489619e+002, 7.429955e+002
3.494440e+002, 7.427981e+002
3.499261e+002, 7.424198e+002
3.504082e+002, 7.417036e+002
3.508904e+002, 7.405342e+002
3.513725e+002, 7.397476e+002
3.518546e+002, 7.405046e+002
3.523367e+002, 7.423695e+002
3.528188e+002, 7.441957e+002
3.533009e+002, 7.455659e+002
3.537831e+002, 7.465900e+002
3.542652e+002, 7.470875e+002
3.547473e+002, 7.471063e+002
3.552294e+002, 7.476355e+002
3.557115e+002, 7.498547e+002
3.561936e+002, 7.528768e+002
3.566758e+002, 7.555377e+002
3.571579e+002, 7.574515e+002
3.576400e+002, 7.590129e+002
3.581221e+002, 7.601708e+002
3.586042e+002, 7.611213e+002
3.590863e+002, 7.626030e+002
3.595685e+002, 7.655163e+002
3.600506e+002, 7.687793e+002
3.605327e+002, 7.715101e+002
3.610148e+002, 7.732760e+002
3.614969e+002, 7.752848e+002
3.619790e+002, 7.779424e+002
3.624612e+002, 7.811758e+002
3.629433e+002, 7.849041e+002
3.634254e+002, 7.898264e+002
3.639075e+002, 7.945953e+002
3.643896e+002, 7.987460e+002
3.648717e+002, 8.022429e+002
3.653539e+002, 8.050640e+002
3.658360e+002, 8.067084e+002
3.663181e+002, 8.078860e+002
3.668002e+002, 8.092886e+002
3.672823e+002, 8.115774e+002
3.677644e+002, 8.134347e+002
3.682466e+002, 8.149142e+002
3.687287e+002, 8.159329e+002
3.692108e+002, 8.157243e+002
3.696929e+002, 8.138508e+002
3.701750e+002, 8.111302e+002
3.706571e+002, 8.080312e+002
3.711393e+002, 8.049291e+002
3.716214e+002, 8.007311e+002
3.721035e+002, 7.950788e+002
3.725856e+002, 7.884063e+002
3.730677e+002, 7.818565e+002
3.735498e+002, 7.757590e+002
3.740320e+002, 7.690501e+002
3.745141e+002, 7.611826e+002
3.749962e+002, 7.519973e+002
3.754783e+002, 7.433584e+002
3.759604e+002, 7.354183e+002
3.764425e+002, 7.279266e+002
3.769247e+002, 7.206013e+002
3.774068e+002, 7.134865e+002
3.778889e+002, 7.065957e+002
3.783710e+002, 6.998227e+002
3.788531e+002, 6.933673e+002
3.793352e+002, 6.881638e+002
3.798174e+002, 6.844072e+002
3.802995e+002, 6.808581e+002
3.807816e+002, 6.761597e+002
3.812637e+002, 6.705510e+002
3.817458e+002, 6.664992e+002
3.822279e+002, 6.645251e+002
3.827101e+002, 6.637542e+002
3.831922e+002, 6.628210e+002
3.836743e+002, 6.617665e+002
3.841564e+002, 6.609308e+002
3.846385e+002, 6.602708e+002
3.851206e+002, 6.599971e+002
3.856028e+002, 6.606559e+002
3.860849e+002, 6.623192e+002
3.865670e+002, 6.643340e+002
3.870491e+002, 6.663107e+002
3.875312e+002, 6.681956e+002
3.880133e+002, 6.698721e+002
3.884955e+002, 6.706786e+002
3.889776e+002, 6.717761e+002
3.894597e+002, 6.745706e+002
3.899418e+002, 6.788023e+002
3.904239e+002, 6.829171e+002
3.909060e+002, 6.859440e+002
3.913882e+002, 6.884515e+002
3.918703e+002, 6.909940e+002
3.923524e+002, 6.939228e+002
3.928345e+002, 6.964540e+002
3.933166e+002, 6.978181e+002
3.937987e+002, 6.985448e+002
3.942809e+002, 6.996729e+002
3.947630e+002, 7.024994e+002
3.952451e+002, 7.049846e+002
3.957272e+002, 7.062100e+002
3.962093e+002, 7.059557e+002
3.966914e+002, 7.052799e+002
3.971736e+002, 7.038449e+002
3.976557e+002, 7.023295e+002
3.981378e+002, 7.013534e+002
3.986199e+002, 7.015996e+002
3.991020e+002, 7.016865e+002
3.995841e+002, 7.012230e+002
4.000663e+002, 7.003489e+002
4.005484e+002, 7.000375e+002
4.010305e+002, 7.005777e+002
4.015126e+002, 7.013716e+002
4.019947e+002, 7.021970e+002
4.024768e+002, 7.032620e+002
4.029590e+002, 7.038355e+002
4.034411e+002, 7.037083e+002
4.039232e+002, 7.032650e+002
4.044053e+002, 7.032100e+002
4.048874e+002, 7.036895e+002
4.053695e+002, 7.041493e+002
4.058517e+002, 7.043718e+002
4.063338e+002, 7.043908e+002
4.068159e+002, 7.048359e+002
4.072980e+002, 7.059240e+002
4.077801e+002, 7.067025e+002
4.082622e+002, 7.060078e+002
4.087444e+002, 7.039080e+002
4.092265e+002, 7.020623e+002
4.097086e+002, 7.008712e+002
4.101907e+002, 6.999545e+002
4.106728e+002, 6.986228e+002
4.111549e+002, 6.968688e+002
4.116371e+002, 6.947223e+002
4.121192e+002, 6.920704e+002
