##NAMES=Lillianite
##RRUFFID=R110141
##IDEAL CHEMISTRY=Pb^2+^_3-2x_Ag^1+^_x_Bi^3+^_2+x_S^2-^_6_
##LOCALITY=Pedro claim, King County, Washington, USA
##OWNER=RRUFF
##SOURCE=Rob Lavinsky
##DESCRIPTION=Elongated prismatic silver gray metallic crystal, with severe exterior corrosion associated with aikinite, galena, neyite, and gustavite
##STATUS=The identification of this mineral is confirmed by single-crystal X-ray diffraction and chemical analysis.
##URL=rruff.info/R110141
##MEASURED CHEMISTRY=Pb_1.82_Ag_0.62_Cu_0.04_(Bi_2.66_Sb_0.01_)_âˆ‘=2.67_S_6_
154.1316, 31.01836
154.6137, 33.42262
155.0958, 36.16805
155.5779, 38.47193
156.0601, 39.95407
156.5422, 41.73728
157.0243, 44.23883
157.5064, 47.12646
157.9885, 49.75668
158.4706, 51.41661
158.9528, 53.20855
159.4349, 55.61212
159.9170, 58.66412
160.3991, 62.39796
160.8812, 66.87889
161.3633, 72.05630
161.8455, 77.79729
162.3276, 85.04004
162.8097, 92.19503
163.2918, 98.36229
163.7739, 102.7631
164.2560, 106.8399
164.7382, 111.1092
165.2203, 115.5383
165.7024, 120.0021
166.1845, 124.6718
166.6666, 129.2649
167.1487, 133.4764
167.6309, 137.2189
168.1130, 140.6301
168.5951, 143.8509
169.0772, 146.8468
169.5593, 149.3068
170.0414, 150.1202
170.5236, 150.5695
171.0057, 152.2003
171.4878, 156.5929
171.9699, 161.5584
172.4520, 165.1505
172.9341, 167.4751
173.4163, 169.6405
173.8984, 171.9164
174.3805, 174.6564
174.8626, 178.3500
175.3447, 183.3512
175.8268, 189.3556
176.3090, 196.3670
176.7911, 204.3338
177.2732, 212.3776
177.7553, 219.2924
178.2374, 224.6930
178.7195, 228.7404
179.2017, 230.6038
179.6838, 231.6004
180.1659, 233.6508
180.6480, 236.8096
181.1301, 240.5632
181.6122, 245.1509
182.0944, 250.1571
182.5765, 254.0694
183.0586, 255.7218
183.5407, 255.9541
184.0228, 256.4372
184.5049, 257.1483
184.9871, 258.3958
185.4692, 261.0953
185.9513, 264.9317
186.4334, 268.0541
186.9155, 269.3493
187.3976, 269.2445
187.8798, 269.0886
188.3619, 268.8924
188.8440, 268.7788
189.3261, 269.0090
189.8082, 269.5538
190.2903, 270.0319
190.7725, 269.8557
191.2546, 269.2845
191.7367, 270.1028
192.2188, 272.7137
192.7009, 275.8726
193.1830, 277.2948
193.6652, 276.9731
194.1473, 276.6475
194.6294, 277.4313
195.1115, 279.2104
195.5936, 280.4781
196.0757, 281.0263
196.5579, 281.2451
197.0400, 281.9762
197.5221, 283.2820
198.0042, 284.4298
198.4863, 284.6563
198.9684, 283.9370
199.4506, 284.5597
199.9327, 287.0884
200.4148, 290.4958
200.8969, 292.4642
201.3790, 292.8329
201.8611, 292.7704
202.3433, 292.9032
202.8254, 293.2501
203.3075, 293.5928
203.7896, 293.9404
204.2717, 294.2487
204.7538, 294.3824
205.2360, 294.3090
205.7181, 294.1645
206.2002, 293.8243
206.6823, 293.1142
207.1644, 293.4847
207.6465, 295.6529
208.1287, 298.6366
208.6108, 299.2569
209.0929, 296.7757
209.5750, 293.9662
210.0571, 292.7001
210.5392, 293.4056
211.0214, 293.5068
211.5035, 292.4619
211.9856, 290.7755
212.4677, 290.2897
212.9498, 291.4280
213.4319, 292.8315
213.9140, 293.7767
214.3962, 294.2996
214.8783, 294.2258
215.3604, 293.3615
215.8425, 291.9171
216.3246, 290.7726
216.8067, 290.0073
217.2889, 289.3612
217.7710, 288.6329
218.2531, 287.7000
218.7352, 287.0602
219.2173, 286.9118
219.6994, 287.0767
220.1816, 286.6501
220.6637, 285.2069
221.1458, 283.8780
221.6279, 283.5589
222.1100, 284.9635
222.5921, 285.4098
223.0743, 284.2801
223.5564, 282.0140
224.0385, 280.6326
224.5206, 280.4284
225.0027, 280.6928
225.4848, 281.1573
225.9670, 282.2770
226.4491, 282.4445
226.9312, 281.1222
227.4133, 278.7235
227.8954, 277.1811
228.3775, 276.7850
228.8597, 276.8624
229.3418, 277.1294
229.8239, 277.9401
230.3060, 278.0555
230.7881, 276.9751
231.2702, 275.0705
231.7524, 274.3455
232.2345, 275.8664
232.7166, 277.0564
233.1987, 276.1645
233.6808, 271.6873
234.1629, 268.4821
234.6451, 267.1978
235.1272, 267.4236
235.6093, 267.3297
236.0914, 266.6934
236.5735, 266.0443
237.0556, 265.7294
237.5378, 266.0837
238.0199, 266.0245
238.5020, 265.2785
238.9841, 264.0770
239.4662, 263.4337
239.9483, 263.8231
240.4305, 264.1378
240.9126, 263.7467
241.3947, 262.2418
241.8768, 260.9460
242.3589, 259.9666
242.8410, 259.2390
243.3232, 258.4951
243.8053, 257.6168
244.2874, 256.8870
244.7695, 256.4682
245.2516, 256.4719
245.7337, 256.5297
246.2159, 256.7267
246.6980, 256.9497
247.1801, 256.8562
247.6622, 256.4412
248.1443, 255.7074
248.6264, 254.5967
249.1086, 252.8209
249.5907, 251.3036
250.0728, 249.8892
250.5549, 248.7900
251.0370, 248.7496
251.5191, 250.6725
252.0013, 252.2301
252.4834, 252.2860
252.9655, 250.1088
253.4476, 248.3588
253.9297, 247.1298
254.4118, 246.2925
254.8940, 245.5557
255.3761, 244.9816
255.8582, 244.3934
256.3403, 243.7257
256.8224, 242.9774
257.3046, 242.1127
257.7867, 240.9800
258.2688, 239.8268
258.7509, 239.2657
259.2330, 239.7561
259.7151, 239.8946
260.1973, 238.9049
260.6794, 236.3173
261.1615, 234.9184
261.6436, 235.3595
262.1257, 236.4433
262.6078, 236.0069
263.0900, 233.4079
263.5721, 230.8489
264.0542, 229.1442
264.5363, 228.4159
265.0184, 227.6542
265.5005, 226.8874
265.9827, 226.0513
266.4648, 225.0483
266.9469, 223.8997
267.4290, 222.5287
267.9111, 220.7370
268.3932, 218.4669
268.8754, 216.8924
269.3575, 216.1813
269.8396, 215.8974
270.3217, 215.6025
270.8038, 215.3789
271.2859, 214.8003
271.7681, 213.6512
272.2502, 211.9585
272.7323, 210.3642
273.2144, 208.8253
273.6965, 207.5256
274.1786, 206.8192
274.6608, 206.8617
275.1429, 206.6134
275.6250, 205.7697
276.1071, 204.4096
276.5892, 203.0749
277.0714, 201.8122
277.5535, 200.5028
278.0356, 198.8946
278.5177, 196.9116
278.9998, 195.4853
279.4819, 195.1087
279.9641, 195.3703
280.4462, 194.4005
280.9283, 192.0154
281.4104, 189.1682
281.8925, 186.5385
282.3746, 184.1300
282.8568, 181.7340
283.3389, 179.2285
283.8210, 176.7895
284.3031, 175.0652
284.7852, 174.1411
285.2673, 173.1907
285.7495, 171.5424
286.2316, 169.2538
286.7137, 167.0437
287.1958, 165.0118
287.6779, 163.0905
288.1600, 161.1693
288.6422, 159.2478
289.1243, 157.2594
289.6064, 155.1138
290.0885, 152.8533
290.5706, 150.8519
291.0527, 149.2036
291.5349, 147.6632
292.0170, 145.7539
292.4991, 143.5288
292.9812, 141.4152
293.4633, 139.7567
293.9454, 138.4150
294.4276, 136.9159
294.9097, 135.1966
295.3918, 133.5542
295.8739, 132.4881
296.3560, 131.8940
296.8381, 131.2236
297.3203, 130.2032
297.8024, 128.9436
298.2845, 127.6528
298.7666, 126.3321
299.2487, 124.9577
299.7308, 123.3960
300.2130, 121.7256
300.6951, 120.1957
301.1772, 118.8857
301.6593, 117.7839
302.1414, 116.9937
302.6235, 116.5110
303.1057, 115.8930
303.5878, 114.5506
304.0699, 112.8364
304.5520, 111.4477
305.0341, 110.8804
305.5162, 110.4893
305.9984, 109.5873
306.4805, 108.2292
306.9626, 106.7280
307.4447, 104.8197
307.9268, 103.0518
308.4089, 102.3017
308.8911, 103.4684
309.3732, 104.6629
309.8553, 104.1431
310.3374, 102.3243
310.8195, 100.5906
311.3016, 99.69088
311.7838, 99.26466
312.2659, 99.06232
312.7480, 99.20265
313.2301, 99.16248
313.7122, 98.55411
314.1943, 97.53629
314.6765, 96.45523
315.1586, 95.09101
315.6407, 93.97710
316.1228, 93.54402
316.6049, 94.00594
317.0870, 94.47912
317.5692, 94.74914
318.0513, 94.75431
318.5334, 94.40320
319.0155, 93.56107
319.4976, 92.44895
319.9797, 91.03112
320.4619, 89.26460
320.9440, 87.73744
321.4261, 86.58621
321.9082, 85.78262
322.3903, 85.30696
322.8724, 85.32853
323.3546, 85.49975
323.8367, 85.95210
324.3188, 86.65116
324.8009, 86.79991
325.2830, 85.50555
325.7651, 84.09280
326.2473, 83.42245
326.7294, 84.58873
327.2115, 85.33139
327.6936, 85.40596
328.1757, 84.87834
328.6578, 84.07922
329.1400, 82.29884
329.6221, 80.84926
330.1042, 80.34362
330.5863, 81.89687
331.0684, 82.52852
331.5505, 81.66673
332.0327, 79.98567
332.5148, 78.99375
332.9969, 79.06144
333.4790, 79.32592
333.9611, 79.57935
334.4432, 79.92958
334.9254, 79.79091
335.4075, 78.97681
335.8896, 77.82975
336.3717, 76.71976
336.8538, 75.42828
337.3359, 74.76112
337.8180, 75.20882
338.3001, 76.74084
338.7823, 77.41148
339.2644, 77.02271
339.7465, 76.15886
340.2286, 75.23460
340.7107, 74.17399
341.1928, 73.59509
341.6750, 73.76723
342.1571, 74.47071
342.6392, 74.88095
343.1213, 74.99482
343.6034, 74.85913
344.0855, 74.35255
344.5677, 73.50497
345.0498, 72.92805
345.5319, 72.65532
346.0140, 72.75799
346.4961, 73.76039
346.9782, 75.60474
347.4604, 76.87948
347.9425, 76.28022
348.4246, 74.37696
348.9067, 73.41239
349.3888, 73.65652
349.8709, 74.07922
350.3531, 73.23260
350.8352, 71.44186
351.3173, 69.92046
351.7994, 69.09002
352.2815, 68.87785
352.7636, 69.45444
353.2458, 70.81633
353.7279, 71.95927
354.2100, 71.78054
354.6921, 70.83958
355.1742, 70.10013
355.6563, 69.87024
356.1385, 69.94199
356.6206, 70.27684
357.1027, 70.80605
357.5848, 71.18133
358.0669, 71.15954
358.5490, 70.90794
359.0312, 70.55437
359.5133, 70.04784
359.9954, 69.61309
360.4775, 69.50200
360.9596, 69.55684
361.4417, 69.44499
361.9239, 68.93202
362.4060, 68.29373
362.8881, 67.59525
363.3702, 66.77650
363.8523, 66.26767
364.3344, 66.51089
364.8166, 67.03234
365.2987, 67.29344
365.7808, 66.76498
366.2629, 66.36112
366.7450, 66.41486
367.2271, 66.92745
367.7093, 67.29323
368.1914, 67.51645
368.6735, 67.52414
369.1556, 67.25881
369.6377, 65.97428
370.1198, 65.37124
370.6020, 65.96692
371.0841, 67.35369
371.5662, 68.04584
372.0483, 67.68476
372.5304, 67.05296
373.0125, 66.36436
373.4947, 65.35838
373.9768, 65.14574
374.4589, 66.19779
374.9410, 67.66326
375.4231, 68.09449
375.9052, 67.14127
376.3874, 66.13697
376.8695, 65.40175
377.3516, 64.93298
377.8337, 65.00799
378.3158, 65.84207
378.7979, 66.63263
379.2801, 66.35702
379.7622, 64.94208
380.2443, 64.10617
380.7264, 64.40675
381.2085, 65.30176
381.6906, 65.23274
382.1728, 64.18327
382.6549, 63.06744
383.1370, 62.48131
383.6191, 62.34119
384.1012, 62.40746
384.5833, 62.71489
385.0655, 63.01619
385.5476, 62.70776
386.0297, 62.03022
386.5118, 61.88099
386.9939, 63.40275
387.4760, 65.42298
387.9582, 66.13777
388.4403, 65.50826
388.9224, 64.52261
389.4045, 63.97762
389.8866, 63.59327
390.3687, 62.93361
390.8509, 61.37381
391.3330, 60.03053
391.8151, 59.81959
392.2972, 60.54301
392.7793, 61.37956
393.2614, 62.43197
393.7436, 63.11982
394.2257, 62.84429
394.7078, 60.86721
395.1899, 59.49047
395.6720, 60.16008
396.1541, 61.83512
396.6363, 62.84258
397.1184, 61.96368
397.6005, 61.10952
398.0826, 61.09911
398.5647, 62.13252
399.0468, 62.60938
399.5290, 61.67363
400.0111, 60.51590
400.4932, 60.10017
400.9753, 61.19144
401.4574, 62.01269
401.9395, 62.45216
402.4217, 62.51234
402.9038, 62.12672
403.3859, 60.95181
403.8680, 59.83508
404.3501, 59.15857
404.8322, 58.95644
405.3144, 59.17086
405.7965, 60.01920
406.2786, 61.02237
406.7607, 61.32697
407.2428, 60.79666
407.7249, 60.31550
408.2071, 60.23006
408.6892, 60.45613
409.1713, 60.38252
409.6534, 59.94276
410.1355, 59.58968
410.6176, 60.07767
411.0998, 61.16715
411.5819, 61.29050
412.0640, 59.79019
412.5461, 57.78693
413.0282, 57.08158
413.5103, 57.53844
413.9925, 58.31958
414.4746, 59.47205
414.9567, 60.46858
415.4388, 60.13850
415.9209, 58.22209
416.4030, 56.51929
416.8852, 56.86901
417.3673, 58.37603
417.8494, 59.57550
418.3315, 59.76787
418.8136, 59.59161
419.2957, 59.34611
419.7779, 59.05345
420.2600, 58.82019
420.7421, 58.71018
421.2242, 58.67181
421.7063, 58.67846
422.1884, 58.76373
422.6706, 58.82062
423.1527, 58.86141
423.6348, 58.85271
424.1169, 58.73342
424.5990, 58.45135
425.0811, 58.09668
425.5633, 57.56424
426.0454, 56.74998
426.5275, 56.51450
427.0096, 57.40306
427.4917, 58.43554
427.9738, 58.77089
428.4560, 58.00422
428.9381, 57.38803
429.4202, 57.09858
429.9023, 57.05084
430.3844, 56.94676
430.8665, 56.77546
431.3487, 56.57997
431.8308, 56.24685
432.3129, 55.73973
432.7950, 56.02021
433.2771, 57.36835
433.7592, 58.77716
434.2414, 58.76338
434.7235, 57.44665
435.2056, 56.27549
435.6877, 55.80736
436.1698, 55.70461
436.6519, 55.06153
437.1341, 53.92794
437.6162, 53.15986
438.0983, 53.75507
438.5804, 55.04933
439.0625, 55.88169
439.5446, 55.99897
440.0268, 55.84765
440.5089, 55.61761
440.9910, 55.41810
441.4731, 55.47344
441.9552, 56.28584
442.4373, 57.06768
442.9195, 57.12958
443.4016, 56.48114
443.8837, 56.16458
444.3658, 57.18007
444.8479, 58.38230
445.3300, 58.85042
445.8122, 57.71862
446.2943, 56.74681
446.7764, 56.27809
447.2585, 56.17891
447.7406, 56.10935
448.2227, 56.19676
448.7049, 56.15770
449.1870, 55.82667
449.6691, 55.10018
450.1512, 54.72488
450.6333, 54.77461
451.1154, 55.09888
451.5976, 55.68260
452.0797, 56.76885
452.5618, 57.24811
453.0439, 56.77174
453.5260, 55.67290
454.0081, 54.89945
454.4903, 54.45800
454.9724, 54.29219
455.4545, 54.42849
455.9366, 54.83523
456.4187, 55.42355
456.9008, 56.26118
457.3830, 56.86283
457.8651, 56.26070
458.3472, 54.87226
458.8293, 54.11745
459.3114, 54.80750
459.7935, 55.98394
460.2757, 56.61184
460.7578, 56.70547
461.2399, 56.36816
461.7220, 55.17017
462.2041, 53.84136
462.6862, 53.14787
463.1684, 53.31474
463.6505, 53.59723
464.1326, 53.42014
464.6147, 53.19284
465.0968, 53.44752
465.5789, 55.53339
466.0611, 56.90873
466.5432, 56.17179
467.0253, 53.58762
467.5074, 52.21567
467.9895, 53.89827
468.4716, 55.66805
468.9538, 56.06025
469.4359, 54.24334
469.9180, 52.86003
470.4001, 51.95560
470.8822, 51.43983
471.3643, 51.21362
471.8465, 51.36428
472.3286, 51.55273
472.8107, 51.70989
473.2928, 51.83274
473.7749, 51.88409
474.2570, 51.83821
474.7392, 51.85422
475.2213, 52.21305
475.7034, 52.81404
476.1855, 52.85303
476.6676, 52.11396
477.1497, 51.25648
477.6319, 51.34746
478.1140, 52.10294
478.5961, 52.59734
479.0782, 52.34252
479.5603, 51.67050
480.0424, 50.66955
480.5246, 49.43100
481.0067, 48.72231
481.4888, 49.58852
481.9709, 50.88177
482.4530, 51.53978
482.9352, 51.11759
483.4173, 50.65390
483.8994, 50.56948
484.3815, 50.69718
484.8636, 50.78328
485.3457, 50.80479
485.8279, 50.74315
486.3100, 50.50414
486.7921, 50.09096
487.2742, 49.93315
487.7563, 50.21912
488.2384, 50.56947
488.7206, 50.78553
489.2027, 50.86334
489.6848, 50.76916
490.1669, 50.31931
490.6490, 49.89698
491.1311, 50.31011
491.6133, 51.74302
492.0954, 52.69167
492.5775, 52.54103
493.0596, 51.59095
493.5417, 50.96900
494.0238, 50.68182
494.5060, 50.39733
494.9881, 49.61887
495.4702, 48.66958
495.9523, 48.50642
496.4344, 49.42159
496.9165, 50.35022
497.3987, 49.97507
497.8808, 48.87522
498.3629, 48.15000
498.8450, 48.60368
499.3271, 49.28564
499.8092, 49.57258
500.2914, 49.53514
500.7735, 49.55748
501.2556, 49.86483
501.7377, 50.22558
502.2198, 50.55523
502.7019, 50.98346
503.1841, 51.02305
503.6662, 50.23100
504.1483, 49.17832
504.6304, 48.56608
505.1125, 48.93132
505.5946, 48.84697
506.0768, 47.81061
506.5589, 46.12425
507.0410, 45.35561
507.5231, 45.74022
508.0052, 46.37636
508.4873, 46.89415
508.9695, 47.28731
509.4516, 47.34132
509.9337, 46.98443
510.4158, 46.58185
510.8979, 46.64247
511.3800, 47.05133
511.8622, 47.24251
512.3443, 46.88221
512.8264, 46.50748
513.3085, 47.11558
513.7906, 48.40306
514.2728, 49.28093
514.7549, 48.88746
515.2370, 47.98263
515.7191, 47.07630
516.2012, 46.19323
516.6833, 45.63784
517.1655, 46.01604
517.6476, 46.52946
518.1297, 46.48478
518.6118, 44.84615
519.0939, 43.75496
519.5760, 44.05252
520.0582, 45.09706
520.5403, 45.30450
521.0224, 43.61764
521.5045, 42.60345
521.9866, 43.37333
522.4688, 45.92345
522.9509, 46.67844
523.4330, 45.03481
523.9151, 43.01444
524.3972, 42.19365
524.8793, 42.60208
525.3615, 43.05317
525.8436, 43.47181
526.3257, 43.82729
526.8078, 44.12898
527.2899, 44.34629
527.7720, 44.30359
528.2542, 43.67274
528.7363, 42.94827
529.2184, 42.87178
529.7005, 43.34587
530.1826, 43.83538
530.6647, 44.23785
531.1469, 44.37505
531.6290, 43.95321
532.1111, 42.76821
532.5932, 41.85513
533.0753, 41.84529
533.5574, 42.21481
534.0396, 42.42029
534.5217, 42.24617
535.0038, 42.04696
535.4859, 41.83780
535.9680, 41.63721
536.4501, 41.48193
536.9323, 41.26806
537.4144, 41.28334
537.8965, 41.73244
538.3786, 42.63073
538.8607, 43.21825
539.3428, 43.48673
539.8250, 43.45330
540.3071, 42.96981
540.7892, 42.10691
541.2713, 41.48870
541.7534, 41.22874
542.2355, 41.19794
542.7177, 41.39808
543.1998, 41.71119
543.6819, 41.75440
544.1640, 41.07724
544.6461, 40.24503
545.1282, 39.66756
545.6104, 39.36478
546.0925, 39.42277
546.5746, 40.31300
547.0567, 41.27757
547.5388, 41.77477
548.0209, 41.57922
548.5031, 41.41695
548.9852, 41.55315
549.4673, 41.74016
549.9494, 41.71734
550.4315, 41.41167
550.9136, 40.97863
551.3958, 40.23610
551.8779, 39.42340
552.3600, 39.39536
552.8421, 40.43303
553.3242, 41.26501
553.8063, 41.27326
554.2885, 40.57230
554.7706, 40.06035
555.2527, 39.74848
555.7348, 39.50910
556.2169, 39.03087
556.6990, 38.54663
557.1812, 38.83278
557.6633, 40.23752
558.1454, 41.54030
558.6275, 41.24200
559.1096, 40.06427
559.5917, 39.27229
560.0739, 39.89698
560.5560, 40.54661
561.0381, 40.53302
561.5202, 39.95222
562.0023, 39.25742
562.4844, 37.90844
562.9666, 37.03058
563.4487, 37.44966
563.9308, 39.65667
564.4129, 40.61753
564.8950, 39.52237
565.3771, 38.06561
565.8593, 37.77372
566.3414, 39.05619
566.8235, 39.69907
567.3056, 39.34417
567.7877, 38.48808
568.2698, 37.97746
568.7520, 37.79722
569.2341, 37.77913
569.7162, 37.99574
570.1983, 38.24177
570.6804, 38.05210
571.1625, 37.48938
571.6447, 36.98324
572.1268, 36.85917
572.6089, 36.90125
573.0910, 36.91572
573.5731, 36.87921
574.0552, 36.82508
574.5374, 36.62612
575.0195, 36.48728
575.5016, 36.59851
575.9837, 37.57712
576.4658, 38.08020
576.9479, 37.65369
577.4301, 36.75552
577.9122, 36.28132
578.3943, 36.37592
578.8764, 36.62386
579.3585, 37.06459
579.8406, 37.59424
580.3228, 37.37235
580.8049, 36.30117
581.2870, 35.11413
581.7691, 34.08636
582.2512, 33.31615
582.7333, 33.26220
583.2155, 33.99210
583.6975, 35.04144
584.1796, 36.53994
584.6617, 37.94548
585.1439, 38.27006
585.6260, 36.70881
586.1081, 34.98521
586.5902, 33.95692
587.0723, 33.52954
587.5544, 33.53056
588.0366, 34.22272
588.5187, 35.00883
589.0008, 35.97075
589.4829, 37.03522
589.9650, 37.11649
590.4471, 35.18929
590.9293, 33.61633
591.4114, 33.82357
591.8935, 36.25318
592.3756, 37.08008
592.8577, 35.85444
593.3398, 34.23945
593.8220, 34.12027
594.3041, 35.28870
594.7862, 36.10942
595.2683, 36.25139
595.7504, 36.04632
596.2325, 35.84776
596.7147, 35.64605
597.1968, 35.41941
597.6789, 35.17900
598.1610, 34.89149
598.6431, 34.43892
599.1252, 33.88658
599.6074, 33.52452
600.0895, 33.58359
600.5716, 33.74434
601.0537, 33.84685
601.5358, 33.84841
602.0179, 33.94670
602.5001, 34.20003
602.9822, 34.49507
603.4643, 34.77381
603.9464, 35.07803
604.4285, 35.21976
604.9106, 35.20296
605.3928, 34.99645
605.8749, 34.39953
606.3570, 33.45781
606.8391, 32.80914
607.3212, 32.71557
607.8033, 32.92683
608.2855, 33.09765
608.7676, 33.24868
609.2497, 33.46325
609.7318, 33.85190
610.2139, 34.27238
610.6960, 34.68153
611.1782, 35.06593
611.6603, 35.20371
612.1424, 34.75327
612.6245, 34.22532
613.1066, 33.95418
613.5887, 34.13298
614.0709, 34.15554
614.5530, 33.81371
615.0351, 33.50450
615.5172, 33.75413
615.9993, 34.78773
616.4814, 35.32324
616.9636, 35.05238
617.4457, 34.38850
617.9278, 34.25326
618.4099, 34.56359
618.8920, 34.45688
619.3741, 33.08895
619.8563, 31.45005
620.3384, 31.17323
620.8205, 32.03623
621.3026, 32.92841
621.7847, 33.31831
622.2668, 33.41528
622.7490, 33.24539
623.2311, 32.77222
623.7132, 32.55505
624.1953, 33.12308
624.6774, 33.73872
625.1595, 33.85995
625.6417, 33.03401
626.1238, 32.60454
626.6059, 32.70285
627.0880, 33.05838
627.5701, 33.37638
628.0522, 33.67472
628.5344, 33.73748
629.0165, 33.44411
629.4986, 33.00360
629.9807, 32.86248
630.4628, 32.96273
630.9449, 32.99617
631.4271, 32.59468
631.9092, 32.18670
632.3913, 32.40814
632.8734, 33.13925
633.3555, 33.61495
633.8376, 33.06548
634.3198, 32.44991
634.8019, 32.50037
635.2840, 33.53118
635.7661, 33.90599
636.2482, 32.73763
636.7303, 31.46539
637.2125, 31.10173
637.6946, 31.98886
638.1767, 32.84969
638.6588, 33.72643
639.1409, 34.41135
639.6230, 34.51242
640.1052, 34.06527
640.5873, 33.53263
641.0694, 32.91509
641.5515, 32.47777
642.0336, 32.89587
642.5157, 33.86843
642.9979, 34.52226
643.4800, 34.11738
643.9621, 33.49108
644.4442, 33.30378
644.9263, 33.46133
645.4084, 33.35727
645.8906, 32.05848
646.3727, 31.10159
646.8548, 31.50275
