##NAMES=Linarite
##RRUFFID=R120094
##IDEAL CHEMISTRY=Pb^2+^Cu^2+^S^6+^O_4_(OH)_2_
##LOCALITY=Daoping mine, Guangxi, China
##OWNER=RRUFF
##SOURCE=Michael Scott 
##DESCRIPTION=Massive crystalline blebs associated with cerussite, dundasite R060760, and anglesite
##STATUS=The identification of this mineral has been confirmed by single-crystal X-ray diffraction.
##URL=rruff.info/R120094
91.12140, 0.0000000E+00
91.60352, 402.2744
92.08563, 399.4480
92.56775, 399.0403
93.04987, 401.9486
93.53198, 406.2906
94.01410, 407.0283
94.49622, 404.0468
94.97833, 398.7255
95.46045, 392.1249
95.94257, 384.1950
96.42468, 376.9704
96.90680, 369.7019
97.38892, 364.0160
97.87103, 361.3385
98.35315, 360.6205
98.83527, 359.5273
99.31738, 356.5787
99.79950, 351.1132
100.2816, 346.4931
100.7637, 342.5727
101.2458, 339.2875
101.7280, 336.6240
102.2101, 334.5269
102.6922, 332.9664
103.1743, 332.0440
103.6564, 331.6917
104.1385, 331.4701
104.6207, 331.3992
105.1028, 331.3611
105.5849, 330.9842
106.0670, 330.1701
106.5491, 328.7388
107.0313, 326.7007
107.5134, 324.0497
107.9955, 320.7461
108.4776, 316.3356
108.9597, 310.3238
109.4418, 305.3462
109.9240, 302.7343
110.4061, 301.0608
110.8882, 299.3727
111.3703, 297.2939
111.8524, 295.0513
112.3345, 293.2924
112.8167, 292.6352
113.2988, 291.6515
113.7809, 290.0882
114.2630, 288.1068
114.7451, 285.8355
115.2272, 283.3356
115.7094, 280.6228
116.1915, 278.4595
116.6736, 277.3972
117.1557, 276.2285
117.6378, 274.4959
118.1199, 272.2682
118.6021, 269.8407
119.0842, 267.3243
119.5663, 264.7521
120.0484, 263.1055
120.5305, 262.9065
121.0126, 263.2743
121.4948, 263.6260
121.9769, 263.9295
122.4590, 263.8981
122.9411, 263.2448
123.4232, 262.0515
123.9053, 260.2073
124.3875, 257.2042
124.8696, 253.4827
125.3517, 250.3423
125.8338, 248.2500
126.3159, 246.3258
126.7980, 243.9831
127.2802, 241.2537
127.7623, 238.3367
128.2444, 235.2690
128.7265, 232.0282
129.2086, 229.0210
129.6907, 226.5210
130.1729, 224.0902
130.6550, 221.5512
131.1371, 218.8782
131.6192, 216.1533
132.1013, 213.4201
132.5834, 210.2809
133.0656, 207.9678
133.5477, 206.9765
134.0298, 206.3780
134.5119, 205.4267
134.9940, 203.8851
135.4761, 202.0764
135.9583, 200.7486
136.4404, 199.9433
136.9225, 199.6301
137.4046, 200.3697
137.8867, 201.4966
138.3688, 201.9868
138.8510, 201.2948
139.3331, 199.8266
139.8152, 198.9223
140.2973, 198.8890
140.7794, 198.8336
141.2615, 198.2631
141.7437, 197.3019
142.2258, 196.5373
142.7079, 196.4635
143.1900, 196.6851
143.6721, 196.3103
144.1542, 194.8204
144.6364, 193.3137
145.1185, 193.0993
145.6006, 194.4241
146.0827, 195.5353
146.5648, 195.4258
147.0469, 194.6511
147.5291, 193.6080
148.0112, 192.2451
148.4933, 190.8930
148.9754, 190.3959
149.4575, 191.3477
149.9396, 192.1590
150.4218, 192.3923
150.9039, 192.1886
151.3860, 191.7266
151.8681, 191.1042
152.3502, 190.3138
152.8323, 189.3346
153.3145, 188.1931
153.7966, 186.7928
154.2787, 184.9033
154.7608, 182.7223
155.2429, 180.6174
155.7250, 178.8855
156.2072, 177.5692
156.6893, 176.0332
157.1714, 173.9913
157.6535, 172.0271
158.1356, 170.3575
158.6177, 168.9903
159.0999, 167.8284
159.5820, 166.8083
160.0641, 165.9559
160.5462, 165.0592
161.0283, 164.3534
161.5104, 163.4599
161.9926, 161.8905
162.4747, 159.6010
162.9568, 157.3243
163.4389, 155.9268
163.9210, 155.3619
164.4031, 154.8419
164.8853, 154.3329
165.3674, 153.7687
165.8495, 152.9732
166.3316, 151.7957
166.8137, 150.7357
167.2958, 150.4702
167.7780, 150.7900
168.2601, 150.8974
168.7422, 150.1857
169.2243, 148.8942
169.7064, 148.0129
170.1885, 147.8097
170.6707, 147.8624
171.1528, 148.0738
171.6349, 148.3434
172.1170, 148.3005
172.5991, 147.3932
173.0812, 145.5526
173.5634, 144.3327
174.0455, 144.6839
174.5276, 144.9960
175.0097, 144.4767
175.4918, 143.1951
175.9739, 141.7861
176.4561, 141.0527
176.9382, 141.3765
177.4203, 141.0364
177.9024, 139.4757
178.3845, 137.7662
178.8666, 136.4179
179.3488, 135.5255
179.8309, 134.9096
180.3130, 134.3591
180.7951, 133.9222
181.2772, 133.4450
181.7593, 132.9711
182.2415, 132.4389
182.7236, 131.7823
183.2057, 130.9935
183.6878, 130.1356
184.1699, 129.2699
184.6520, 128.1411
185.1342, 127.6178
185.6163, 128.4156
186.0984, 129.5351
186.5805, 129.8882
187.0626, 129.1394
187.5447, 127.7458
188.0269, 126.2823
188.5090, 124.5483
188.9911, 123.4542
189.4732, 123.7535
189.9553, 124.7454
190.4374, 125.1711
190.9196, 124.5705
191.4017, 123.5102
191.8838, 122.8015
192.3659, 122.4570
192.8480, 122.1221
193.3301, 121.5276
193.8123, 120.7846
194.2944, 120.3628
194.7765, 120.6483
195.2586, 120.9550
195.7407, 120.4797
196.2228, 119.2093
196.7050, 117.9712
197.1871, 117.5226
197.6692, 117.8154
198.1513, 117.7457
198.6334, 116.8505
199.1155, 115.7132
199.5977, 114.5690
200.0798, 113.4713
200.5619, 112.6858
201.0440, 112.6515
201.5261, 113.5394
202.0082, 114.0344
202.4904, 113.5853
202.9725, 112.9705
203.4546, 112.5033
203.9367, 112.2475
204.4188, 112.1538
204.9009, 112.2076
205.3831, 112.5018
205.8652, 112.6519
206.3473, 112.4502
206.8294, 112.2571
207.3115, 112.3189
207.7936, 112.6544
208.2758, 113.0790
208.7579, 113.3343
209.2400, 113.3447
209.7221, 113.3347
210.2042, 113.1830
210.6863, 113.0949
211.1685, 113.2778
211.6506, 113.7414
212.1327, 114.2666
212.6148, 114.5387
213.0969, 114.4366
213.5790, 114.2900
214.0612, 114.0154
214.5433, 113.7503
215.0254, 113.6554
215.5075, 113.7536
215.9896, 113.8573
216.4717, 113.6764
216.9539, 112.9839
217.4360, 112.5594
217.9181, 112.7110
218.4002, 112.9882
218.8823, 112.8385
219.3644, 112.1247
219.8466, 111.3593
220.3287, 111.2800
220.8108, 111.9965
221.2929, 112.7485
221.7750, 113.6996
222.2571, 114.5349
222.7393, 114.8048
223.2214, 114.3789
223.7035, 113.6144
224.1856, 112.8217
224.6677, 112.0012
225.1498, 111.3823
225.6320, 111.2599
226.1141, 111.3194
226.5962, 111.0069
227.0783, 110.1614
227.5604, 109.1512
228.0425, 108.2479
228.5247, 107.4542
229.0068, 106.8467
229.4889, 106.5400
229.9710, 106.4388
230.4531, 106.3596
230.9352, 106.3396
231.4174, 106.2206
231.8995, 105.8529
232.3816, 105.2980
232.8637, 104.7081
233.3458, 104.2160
233.8279, 103.7517
234.3101, 103.0098
234.7922, 101.7206
235.2743, 100.6249
235.7564, 100.2950
236.2385, 100.4368
236.7206, 100.4380
237.2028, 99.75687
237.6849, 98.64783
238.1670, 98.23896
238.6491, 98.94276
239.1312, 99.77914
239.6133, 100.5715
240.0955, 101.1786
240.5776, 101.3490
241.0597, 100.8243
241.5418, 99.77106
242.0239, 99.00902
242.5060, 98.70486
242.9882, 98.48820
243.4703, 98.21200
243.9524, 97.94764
244.4345, 97.85177
244.9166, 98.06960
245.3987, 98.46152
245.8809, 98.33794
246.3630, 97.17102
246.8451, 96.14262
247.3272, 95.53608
247.8093, 95.18843
248.2914, 94.91794
248.7736, 94.63749
249.2557, 94.31449
249.7378, 93.81129
250.2199, 92.83592
250.7020, 92.04070
251.1841, 91.53757
251.6663, 91.24865
252.1484, 91.12132
252.6305, 91.13272
253.1126, 91.21786
253.5947, 91.17245
254.0768, 91.01680
254.5590, 90.67606
255.0411, 89.80850
255.5232, 88.88531
256.0053, 88.52921
256.4874, 89.00020
256.9695, 89.88805
257.4517, 90.20137
257.9338, 89.29514
258.4159, 88.53720
258.8980, 87.92228
259.3801, 87.46426
259.8622, 87.23342
260.3444, 87.24721
260.8265, 87.34676
261.3086, 87.23006
261.7907, 86.69291
262.2728, 86.24497
262.7549, 85.91722
263.2371, 85.66686
263.7192, 85.55598
264.2013, 85.58507
264.6834, 85.48941
265.1655, 84.83245
265.6476, 83.25834
266.1298, 81.96876
266.6119, 80.71135
267.0940, 79.89318
267.5761, 80.18602
268.0582, 81.66900
268.5403, 83.34310
269.0225, 84.04136
269.5046, 83.50854
269.9867, 82.93075
270.4688, 82.38017
270.9509, 81.76496
271.4330, 80.86140
271.9152, 79.67817
272.3973, 78.67954
272.8794, 78.33205
273.3615, 78.70934
273.8436, 79.19396
274.3257, 80.19653
274.8079, 81.00978
275.2900, 80.76846
275.7721, 79.52340
276.2542, 78.51313
276.7363, 78.76221
277.2184, 80.16528
277.7006, 81.21522
278.1827, 82.15563
278.6648, 82.53690
279.1469, 81.60456
279.6290, 79.55241
280.1111, 77.88387
280.5933, 77.60873
281.0754, 78.40441
281.5575, 78.90726
282.0396, 79.10870
282.5217, 79.03821
283.0038, 78.48622
283.4860, 77.57798
283.9681, 76.97327
284.4502, 77.01437
284.9323, 77.52876
285.4144, 78.14037
285.8965, 78.99348
286.3787, 79.60551
286.8608, 79.66028
287.3429, 79.24360
287.8250, 78.62188
288.3071, 77.76913
288.7892, 76.90057
289.2714, 76.28935
289.7535, 75.92586
290.2356, 75.78237
290.7177, 75.94571
291.1998, 76.32228
291.6819, 76.68106
292.1641, 76.99438
292.6462, 77.23173
293.1283, 77.43342
293.6104, 77.59291
294.0925, 77.46922
294.5746, 76.64483
295.0568, 75.52573
295.5389, 74.97583
296.0210, 75.21050
296.5031, 75.67032
296.9852, 75.86971
297.4673, 75.90524
297.9495, 76.04929
298.4316, 76.67260
298.9137, 77.34570
299.3958, 77.34653
299.8779, 76.55337
300.3600, 75.59616
300.8422, 74.56445
301.3243, 73.70344
301.8064, 73.57167
302.2885, 74.79571
302.7706, 76.30848
303.2527, 76.80407
303.7349, 76.21661
304.2170, 75.58032
304.6991, 75.40610
305.1812, 75.45060
305.6633, 75.34341
306.1454, 74.94075
306.6276, 74.63505
307.1097, 74.89552
307.5918, 75.68171
308.0739, 76.27568
308.5560, 76.30341
309.0381, 76.15237
309.5203, 76.27651
310.0024, 76.70865
310.4845, 77.19351
310.9666, 77.64648
311.4487, 78.03502
311.9308, 78.15308
312.4130, 77.81395
312.8951, 77.40136
313.3772, 77.20876
313.8593, 77.22761
314.3414, 77.46032
314.8235, 78.10300
315.3057, 78.95296
315.7878, 79.44497
316.2699, 79.40414
316.7520, 79.30919
317.2341, 79.42174
317.7162, 79.73657
318.1984, 80.30479
318.6805, 81.39844
319.1626, 82.63885
319.6447, 83.30128
320.1268, 83.23476
320.6089, 83.35049
321.0911, 84.34325
321.5732, 85.80295
322.0553, 87.22965
322.5374, 88.64195
323.0195, 89.81289
323.5016, 90.26091
323.9838, 89.97930
324.4659, 90.15515
324.9480, 91.67079
325.4301, 93.57070
325.9122, 94.57787
326.3943, 94.47149
326.8765, 94.33732
327.3586, 94.97720
327.8407, 96.28416
328.3228, 97.67793
328.8049, 99.10387
329.2870, 100.4685
329.7692, 101.5819
330.2513, 102.4730
330.7334, 103.5565
331.2155, 105.2153
331.6976, 107.1891
332.1797, 108.7717
332.6619, 109.7078
333.1440, 110.7661
333.6261, 112.7425
334.1082, 115.3324
334.5903, 117.8988
335.0724, 120.4619
335.5546, 122.7769
336.0367, 124.3946
336.5188, 125.2479
337.0009, 126.0323
337.4830, 127.0605
337.9651, 128.3167
338.4473, 129.8041
338.9294, 131.7868
339.4115, 133.5848
339.8936, 134.7107
340.3757, 135.1862
340.8578, 135.0786
341.3400, 134.1873
341.8221, 132.9283
342.3042, 132.0527
342.7863, 131.6881
343.2684, 130.9907
343.7505, 129.3062
344.2327, 126.9916
344.7148, 124.8956
345.1969, 123.2076
345.6790, 121.7392
346.1611, 120.3767
346.6432, 119.0981
347.1254, 117.6921
347.6075, 115.7256
348.0896, 113.7876
348.5717, 112.8000
349.0538, 112.8672
349.5359, 113.0027
350.0181, 112.4401
350.5002, 111.3250
350.9823, 110.4083
351.4644, 109.6899
351.9465, 109.2198
352.4286, 109.0963
352.9108, 109.2755
353.3929, 109.6213
353.8750, 110.2365
354.3571, 110.7972
354.8392, 110.4082
355.3214, 108.5178
355.8035, 107.0498
356.2856, 107.1160
356.7677, 107.9928
357.2498, 108.3639
357.7319, 107.8257
358.2141, 106.8726
358.6962, 106.0913
359.1783, 105.4583
359.6604, 105.1370
360.1425, 105.6261
360.6246, 106.1386
361.1068, 105.9637
361.5889, 105.0318
362.0710, 103.6047
362.5531, 101.7934
363.0352, 99.60538
363.5173, 97.74232
363.9995, 96.26254
364.4816, 95.00272
364.9637, 94.06560
365.4458, 93.30247
365.9279, 92.37857
366.4100, 91.13216
366.8922, 89.58261
367.3743, 87.78291
367.8564, 85.32726
368.3385, 83.20589
368.8206, 81.61655
369.3027, 80.39381
369.7849, 79.39706
370.2670, 78.58237
370.7491, 77.91722
371.2312, 77.39664
371.7133, 77.18473
372.1954, 76.58231
372.6776, 75.25405
373.1597, 73.85176
373.6418, 72.69255
374.1239, 71.82097
374.6060, 71.21748
375.0881, 70.90810
375.5703, 70.87646
376.0524, 70.50419
376.5345, 69.33941
377.0166, 68.35679
377.4987, 67.84191
377.9808, 67.62624
378.4630, 67.42568
378.9451, 67.10839
379.4272, 66.80099
379.9093, 66.84288
380.3914, 67.71274
380.8735, 68.11586
381.3557, 67.90170
381.8378, 67.33823
382.3199, 66.44165
382.8020, 65.31491
383.2841, 64.30820
383.7662, 63.85086
384.2484, 64.02718
384.7305, 64.14979
385.2126, 64.04494
385.6947, 64.05616
386.1768, 64.44908
386.6589, 65.03410
387.1411, 65.41766
387.6232, 65.33111
388.1053, 64.92358
388.5874, 64.78027
389.0695, 65.23388
389.5516, 65.30496
390.0338, 64.36555
390.5159, 63.21767
390.9980, 62.67043
391.4801, 62.94081
391.9622, 63.45581
392.4443, 63.48455
392.9265, 62.96794
393.4086, 62.54508
393.8907, 62.38747
394.3728, 62.25575
394.8549, 61.99398
395.3370, 61.63066
395.8192, 61.29557
396.3013, 61.02940
396.7834, 60.85557
397.2655, 60.87990
397.7476, 61.16754
398.2297, 61.48431
398.7119, 61.87463
399.1940, 62.17102
399.6761, 62.04619
400.1582, 61.21740
400.6403, 60.39633
401.1224, 60.40303
401.6046, 61.18933
402.0867, 61.95349
402.5688, 62.52965
403.0509, 62.89148
403.5330, 62.95437
404.0151, 62.70937
404.4973, 62.57646
404.9794, 62.91824
405.4615, 63.44094
405.9436, 63.57070
406.4257, 63.19935
406.9078, 62.77634
407.3900, 62.64014
407.8721, 62.76974
408.3542, 62.99061
408.8363, 63.58090
409.3184, 64.00026
409.8005, 63.60294
410.2827, 62.67451
410.7648, 62.29313
411.2469, 63.05288
411.7290, 64.38607
412.2111, 64.93203
412.6932, 64.26655
413.1754, 63.99580
413.6575, 64.75429
414.1396, 65.84525
414.6217, 66.51956
415.1038, 66.66093
415.5859, 66.65945
416.0681, 66.90555
416.5502, 67.43320
417.0323, 67.83083
417.5144, 67.79283
417.9965, 67.96008
418.4786, 68.71610
418.9608, 69.85329
419.4429, 70.96424
419.9250, 71.83775
420.4071, 72.56076
420.8892, 73.38884
421.3713, 74.60287
421.8535, 75.47021
422.3356, 75.56875
422.8177, 75.62025
423.2998, 76.19251
423.7819, 77.34517
424.2640, 78.75091
424.7462, 80.07924
425.2283, 81.32299
425.7104, 82.67619
426.1925, 84.31643
426.6746, 85.87392
427.1567, 87.10551
427.6389, 88.21816
428.1210, 89.53188
428.6031, 91.21284
429.0852, 93.12343
429.5673, 94.98745
430.0494, 96.79720
430.5316, 98.59921
431.0137, 100.1938
431.4958, 101.9247
431.9779, 104.1402
432.4600, 106.8156
432.9421, 109.4239
433.4243, 111.8244
433.9064, 113.8798
434.3885, 115.0289
434.8706, 115.2441
435.3527, 114.5525
435.8348, 112.6909
436.3170, 109.9927
436.7991, 106.8567
437.2812, 103.2421
437.7633, 99.42636
438.2454, 95.46748
438.7275, 91.43056
439.2097, 87.91723
439.6918, 85.25391
440.1739, 83.05600
440.6560, 80.67852
441.1381, 78.03600
441.6202, 75.90253
442.1024, 74.64363
442.5845, 73.92635
443.0666, 73.46129
443.5487, 73.19936
444.0308, 73.06331
444.5129, 73.01476
444.9951, 73.04591
445.4772, 73.07140
445.9593, 72.98766
446.4414, 73.01710
446.9235, 73.30369
447.4056, 73.72410
447.8878, 74.06423
448.3699, 74.25465
448.8520, 74.43336
449.3341, 74.76083
449.8162, 75.01431
450.2983, 76.13955
450.7805, 79.14196
451.2626, 81.95277
451.7447, 83.01841
452.2268, 82.94311
452.7089, 83.53749
453.1910, 86.08230
453.6732, 90.06944
454.1553, 93.32231
454.6374, 95.29183
455.1195, 97.44833
455.6016, 100.3955
456.0837, 103.3640
456.5659, 105.6360
457.0480, 107.1232
457.5301, 108.2948
458.0122, 109.9188
458.4943, 111.9682
458.9764, 112.6557
459.4586, 111.5614
459.9407, 109.5646
460.4228, 107.1897
460.9049, 104.3479
461.3870, 100.7598
461.8691, 95.98882
462.3513, 91.00010
462.8334, 87.07387
463.3155, 84.17204
463.7976, 81.27280
464.2797, 77.94490
464.7618, 74.64009
465.2440, 71.84985
465.7261, 69.54755
466.2082, 67.71931
466.6903, 66.61985
467.1724, 65.84322
467.6545, 64.88799
468.1367, 63.72836
468.6188, 62.60006
469.1009, 61.65412
469.5830, 60.87943
470.0651, 60.18808
470.5472, 59.38376
471.0294, 58.89601
471.5115, 58.99235
471.9936, 59.39876
472.4757, 59.86688
472.9578, 60.30427
473.4399, 60.55353
473.9221, 60.39344
474.4042, 59.73043
474.8863, 59.19624
475.3684, 58.71781
475.8505, 58.42138
476.3326, 58.49008
476.8148, 58.74675
477.2969, 58.87098
477.7790, 58.70043
478.2611, 58.42581
478.7432, 58.47081
479.2253, 58.94702
479.7075, 59.42831
480.1896, 59.79806
480.6717, 60.21858
481.1538, 60.92866
481.6359, 61.81700
482.1180, 62.43624
482.6002, 62.32505
483.0823, 61.77599
483.5644, 61.65729
484.0465, 62.08519
484.5286, 62.52406
485.0107, 62.78228
485.4929, 62.89862
485.9750, 62.88267
486.4571, 62.70202
486.9392, 62.55830
487.4213, 62.44611
487.9034, 62.47717
488.3856, 62.95631
488.8677, 63.96819
489.3498, 65.17253
489.8319, 66.35442
490.3140, 67.48913
490.7961, 68.39909
491.2783, 68.81956
491.7604, 69.30560
492.2425, 70.15466
492.7246, 71.24211
493.2067, 72.31083
493.6888, 73.26595
494.1710, 74.26701
494.6531, 75.58302
495.1352, 77.43881
495.6173, 78.88136
496.0994, 79.45610
496.5815, 80.11915
497.0637, 81.31203
497.5458, 82.95647
498.0279, 84.85796
498.5100, 86.94061
498.9921, 89.04752
499.4742, 90.75423
499.9564, 91.78718
500.4385, 93.10999
500.9206, 95.22330
501.4027, 97.38599
501.8848, 98.86339
502.3669, 99.83401
502.8491, 101.3333
503.3312, 104.6254
503.8133, 108.8361
504.2954, 111.4495
504.7775, 112.1823
505.2596, 112.6128
505.7418, 113.4586
506.2239, 114.3953
506.7060, 114.9385
507.1881, 114.9821
507.6702, 114.9729
508.1523, 115.3944
508.6345, 115.8245
509.1166, 115.4673
509.5987, 114.2017
510.0808, 112.6600
510.5629, 111.3768
511.0450, 110.2974
511.5272, 108.7570
512.0093, 106.3935
512.4914, 104.0560
512.9735, 102.3603
513.4556, 100.6774
513.9377, 97.91638
514.4199, 93.89763
514.9020, 89.68206
515.3841, 86.72517
515.8662, 85.29336
516.3483, 83.31631
516.8304, 80.08871
517.3126, 77.06148
517.7947, 74.58778
518.2768, 72.59518
518.7589, 71.02269
519.2410, 69.86465
519.7231, 68.83743
520.2053, 67.51580
520.6874, 65.88171
521.1695, 64.22403
521.6516, 62.39790
522.1337, 60.80409
522.6158, 59.65846
523.0980, 58.92389
523.5801, 58.52284
524.0622, 58.70809
524.5443, 58.94200
525.0264, 58.65393
525.5085, 57.89789
525.9907, 56.93896
526.4728, 55.76054
526.9549, 54.65169
527.4370, 54.13433
527.9191, 54.32957
528.4012, 54.27191
528.8834, 53.55177
529.3655, 52.81966
529.8476, 52.51556
530.3297, 52.58674
530.8118, 52.88934
531.2939, 53.38292
531.7761, 53.82174
532.2582, 53.50922
532.7403, 51.62989
533.2224, 50.51283
533.7045, 50.80211
534.1866, 51.23191
534.6688, 50.99010
535.1509, 50.20097
535.6330, 49.45466
536.1151, 49.10915
536.5972, 49.10228
537.0793, 49.38892
537.5615, 50.13972
538.0436, 50.46058
538.5257, 49.62561
539.0078, 48.61346
539.4899, 48.40465
539.9720, 48.97769
540.4542, 49.35003
540.9363, 48.73093
541.4184, 47.78628
541.9005, 47.55146
542.3826, 48.02731
542.8647, 48.48172
543.3469, 48.52473
543.8290, 48.31384
544.3111, 48.28499
544.7932, 48.65482
545.2753, 48.68161
545.7574, 47.86581
546.2396, 46.94646
546.7217, 46.55949
547.2038, 46.70316
547.6859, 47.06307
548.1680, 47.44489
548.6501, 47.81411
549.1323, 48.01389
549.6144, 47.98001
550.0965, 47.87605
550.5786, 47.59610
551.0607, 47.35697
551.5428, 47.41093
552.0250, 47.70364
552.5071, 47.87460
552.9892, 47.57817
553.4713, 46.99408
553.9534, 46.64969
554.4355, 46.58160
554.9177, 46.57468
555.3998, 46.55561
555.8819, 46.54851
556.3640, 46.61269
556.8461, 46.76938
557.3282, 46.82545
557.8104, 46.70572
558.2925, 46.44632
558.7746, 46.00587
559.2567, 45.42217
559.7388, 44.93563
560.2209, 44.66644
560.7031, 44.62944
561.1852, 44.87273
561.6673, 45.86039
562.1494, 46.47405
562.6315, 46.56029
563.1136, 46.37720
563.5958, 45.92432
564.0779, 45.34871
564.5600, 45.04129
565.0421, 45.32851
565.5242, 45.99474
566.0063, 46.29172
566.4885, 46.07772
566.9706, 45.90520
567.4527, 46.00708
567.9348, 46.11321
568.4169, 45.95222
568.8990, 45.57053
569.3812, 45.35310
569.8633, 45.75286
570.3454, 46.30322
570.8275, 46.19669
571.3096, 45.48440
571.7917, 45.01674
572.2739, 45.25328
572.7560, 45.75214
573.2381, 45.65098
573.7202, 44.71626
574.2023, 44.14088
574.6844, 44.10556
575.1666, 44.39967
575.6487, 45.12856
576.1308, 46.06297
576.6129, 46.66463
577.0950, 46.64380
577.5771, 46.26722
578.0593, 46.13527
578.5414, 46.37344
579.0235, 46.51279
579.5056, 46.12431
579.9877, 46.01897
580.4698, 46.83427
580.9520, 48.21057
581.4341, 49.31141
581.9162, 49.73300
582.3983, 49.78094
582.8804, 49.72582
583.3625, 49.59796
583.8447, 49.80045
584.3268, 50.58659
584.8089, 51.35503
585.2910, 51.27769
585.7731, 50.47764
586.2552, 50.26140
586.7374, 50.94322
587.2195, 52.02364
587.7016, 53.45668
588.1837, 55.05610
