##NAMES=Linarite
##RRUFFID=R120094
##IDEAL CHEMISTRY=Pb^2+^Cu^2+^S^6+^O_4_(OH)_2_
##LOCALITY=Daoping mine, Guangxi, China
##OWNER=RRUFF
##SOURCE=Michael Scott 
##DESCRIPTION=Massive crystalline blebs associated with cerussite, dundasite R060760, and anglesite
##STATUS=The identification of this mineral has been confirmed by single-crystal X-ray diffraction.
##URL=rruff.info/R120094
90.01007, 0.0000000E+00
90.49219, 52.72113
90.97430, 52.95315
91.45642, 52.93020
91.93854, 52.66559
92.42065, 52.27107
92.90277, 51.68856
93.38489, 51.03338
93.86700, 50.59438
94.34912, 50.71389
94.83124, 51.04517
95.31335, 50.72871
95.79547, 49.68207
96.27759, 48.57107
96.75970, 48.21659
97.24182, 48.57434
97.72394, 48.98941
98.20605, 49.39124
98.68817, 49.72980
99.17029, 49.26162
99.65240, 47.74728
100.1345, 45.79665
100.6166, 44.61248
101.0988, 44.29406
101.5809, 44.26227
102.0630, 44.18329
102.5451, 43.98696
103.0272, 44.10950
103.5093, 44.65715
103.9915, 45.53454
104.4736, 46.39974
104.9557, 47.32835
105.4378, 48.12456
105.9199, 48.72506
106.4020, 49.47729
106.8842, 49.36528
107.3663, 47.87077
107.8484, 44.97853
108.3305, 42.91255
108.8126, 42.21074
109.2947, 42.04720
109.7769, 41.66640
110.2590, 40.94230
110.7411, 40.12741
111.2232, 39.23889
111.7053, 38.25212
112.1874, 37.31438
112.6696, 36.50183
113.1517, 35.73225
113.6338, 34.89909
114.1159, 33.53229
114.5980, 32.47463
115.0801, 32.06604
115.5623, 32.55186
116.0444, 33.20395
116.5265, 34.15968
117.0086, 35.16255
117.4907, 35.64553
117.9728, 34.93846
118.4550, 33.94532
118.9371, 33.23837
119.4192, 33.04701
119.9013, 32.99132
120.3834, 32.86933
120.8655, 32.71789
121.3477, 32.68123
121.8298, 32.96469
122.3119, 33.35994
122.7940, 33.64779
123.2761, 33.75436
123.7582, 33.73589
124.2404, 33.63330
124.7225, 33.44634
125.2046, 33.17060
125.6867, 32.67596
126.1688, 32.09802
126.6509, 31.68762
127.1331, 31.65109
127.6152, 31.80073
128.0973, 31.86083
128.5794, 31.82577
129.0615, 31.76892
129.5436, 31.96648
130.0258, 32.28735
130.5079, 32.16354
130.9900, 30.61999
131.4721, 28.36895
131.9542, 27.87768
132.4363, 29.58280
132.9185, 31.92967
133.4006, 32.41053
133.8827, 31.02847
134.3648, 29.66614
134.8469, 29.38259
135.3290, 30.10645
135.8112, 30.88659
136.2933, 31.78505
136.7754, 32.54015
137.2575, 32.25164
137.7396, 30.62289
138.2217, 29.28862
138.7039, 29.60180
139.1860, 31.91784
139.6681, 33.31699
140.1502, 33.24755
140.6323, 32.06579
141.1144, 31.35773
141.5966, 31.32888
142.0787, 31.37778
142.5608, 30.94810
143.0429, 29.71572
143.5250, 28.94624
144.0071, 28.99498
144.4893, 29.81679
144.9714, 30.28224
145.4535, 30.37342
145.9356, 30.11748
146.4177, 29.45945
146.8998, 27.75263
147.3820, 26.65353
147.8641, 26.64182
148.3462, 27.92347
148.8283, 28.85940
149.3104, 29.32304
149.7925, 29.50552
150.2747, 29.63523
150.7568, 29.81298
151.2389, 29.83185
151.7210, 29.60241
152.2031, 29.02210
152.6852, 28.52616
153.1674, 28.17969
153.6495, 27.90516
154.1316, 27.58787
154.6137, 27.12289
155.0958, 26.69675
155.5779, 26.37081
156.0601, 26.17676
156.5422, 26.02042
157.0243, 25.91865
157.5064, 25.84604
157.9885, 25.75340
158.4706, 25.17390
158.9528, 24.90591
159.4349, 25.43141
159.9170, 27.49734
160.3991, 29.16110
160.8812, 29.46270
161.3633, 28.90288
161.8455, 28.79626
162.3276, 29.58465
162.8097, 30.97735
163.2918, 32.85860
163.7739, 35.56299
164.2560, 38.24010
164.7382, 40.28727
165.2203, 41.92188
165.7024, 43.97572
166.1845, 47.34223
166.6666, 51.09757
167.1487, 54.35638
167.6309, 56.42011
168.1130, 58.44915
168.5951, 61.07540
169.0772, 64.26611
169.5593, 67.77170
170.0414, 71.91582
170.5236, 76.17033
171.0057, 79.83593
171.4878, 82.19877
171.9699, 84.31445
172.4520, 87.15431
172.9341, 90.66734
173.4163, 94.05936
173.8984, 96.75204
174.3805, 98.95930
174.8626, 100.9628
175.3447, 102.9449
175.8268, 104.7813
176.3090, 106.1791
176.7911, 107.1207
177.2732, 108.1969
177.7553, 109.6716
178.2374, 111.1704
178.7195, 112.3535
179.2017, 112.8064
179.6838, 113.0011
180.1659, 113.6215
180.6480, 114.6830
181.1301, 116.0325
181.6122, 117.6928
182.0944, 119.5762
182.5765, 121.3479
183.0586, 122.7385
183.5407, 123.9420
184.0228, 125.4534
184.5049, 127.2869
184.9871, 129.3060
185.4692, 131.5417
185.9513, 133.9149
186.4334, 135.8601
186.9155, 136.6966
187.3976, 136.8619
187.8798, 137.9761
188.3619, 140.2386
188.8440, 142.8519
189.3261, 144.6264
189.8082, 145.6355
190.2903, 146.6096
190.7725, 147.9406
191.2546, 149.5830
191.7367, 151.1294
192.2188, 152.5210
192.7009, 153.9303
193.1830, 155.7340
193.6652, 157.9283
194.1473, 159.9609
194.6294, 161.2892
195.1115, 162.0017
195.5936, 163.3676
196.0757, 165.6496
196.5579, 168.2771
197.0400, 170.2165
197.5221, 171.4532
198.0042, 172.2251
198.4863, 172.3973
198.9684, 171.9555
199.4506, 172.2342
199.9327, 173.5419
200.4148, 175.3272
200.8969, 176.3956
201.3790, 176.6988
201.8611, 176.6277
202.3433, 176.3190
202.8254, 175.7474
203.3075, 175.2540
203.7896, 174.8766
204.2717, 174.5835
204.7538, 174.2123
205.2360, 173.6518
205.7181, 173.4040
206.2002, 173.8396
206.6823, 175.0517
207.1644, 176.3577
207.6465, 177.8377
208.1287, 179.2991
208.6108, 180.0842
209.0929, 179.9411
209.5750, 179.8140
210.0571, 180.3678
210.5392, 181.8016
211.0214, 182.9739
211.5035, 183.7359
211.9856, 184.1901
212.4677, 184.7614
212.9498, 185.5947
213.4319, 186.2376
213.9140, 186.3491
214.3962, 185.7428
214.8783, 185.3053
215.3604, 185.1991
215.8425, 185.3074
216.3246, 185.1481
216.8067, 184.6286
217.2889, 184.0163
217.7710, 183.4675
218.2531, 183.0056
218.7352, 182.5150
219.2173, 181.9439
219.6994, 181.3241
220.1816, 180.8909
220.6637, 180.8072
221.1458, 180.6092
221.6279, 179.9332
222.1100, 178.4645
222.5921, 177.3342
223.0743, 176.6658
223.5564, 176.4039
224.0385, 176.2986
224.5206, 176.4627
225.0027, 176.6165
225.4848, 176.5960
225.9670, 176.3834
226.4491, 176.0462
226.9312, 175.5509
227.4133, 174.9357
227.8954, 174.3662
228.3775, 173.9371
228.8597, 173.4353
229.3418, 172.7433
229.8239, 171.8535
230.3060, 170.7760
230.7881, 169.4102
231.2702, 167.8391
231.7524, 166.5683
232.2345, 165.8918
232.7166, 165.1140
233.1987, 163.7948
233.6808, 161.6199
234.1629, 159.5945
234.6451, 157.7652
235.1272, 156.1211
235.6093, 154.5919
236.0914, 153.2111
236.5735, 151.8997
237.0556, 150.5597
237.5378, 148.9196
238.0199, 147.8902
238.5020, 147.8360
238.9841, 148.4389
239.4662, 148.3907
239.9483, 147.4177
240.4305, 146.1788
240.9126, 144.9948
241.3947, 143.8750
241.8768, 142.7865
242.3589, 141.6654
242.8410, 140.5819
243.3232, 139.7902
243.8053, 139.4684
244.2874, 139.1968
244.7695, 138.7663
245.2516, 138.1044
245.7337, 137.4335
246.2159, 136.7699
246.6980, 136.0926
247.1801, 135.3578
247.6622, 134.5629
248.1443, 133.6987
248.6264, 132.7308
249.1086, 131.4909
249.5907, 130.5477
250.0728, 130.0148
250.5549, 129.7555
251.0370, 129.4259
251.5191, 129.0757
252.0013, 128.5808
252.4834, 127.8467
252.9655, 126.7419
253.4476, 125.7429
253.9297, 124.7398
254.4118, 123.8944
254.8940, 123.6658
255.3761, 124.5685
255.8582, 125.1762
256.3403, 124.8108
256.8224, 123.1227
257.3046, 121.5835
257.7867, 120.0928
258.2688, 118.8228
258.7509, 118.2322
259.2330, 118.7259
259.7151, 119.0769
260.1973, 118.7194
260.6794, 117.4157
261.1615, 116.5252
261.6436, 116.2188
262.1257, 116.1880
262.6078, 115.9230
263.0900, 115.3734
263.5721, 114.7225
264.0542, 114.0415
264.5363, 113.3318
265.0184, 112.4520
265.5005, 111.1149
265.9827, 109.9241
266.4648, 109.9525
266.9469, 111.7666
267.4290, 113.1477
267.9111, 113.2885
268.3932, 112.0937
268.8754, 111.2325
269.3575, 110.8798
269.8396, 110.5882
270.3217, 109.6361
270.8038, 107.7276
271.2859, 106.3119
271.7681, 105.8699
272.2502, 106.3706
272.7323, 107.0424
273.2144, 108.0006
273.6965, 108.8698
274.1786, 109.1799
274.6608, 108.8327
275.1429, 108.4613
275.6250, 108.1678
276.1071, 107.9682
276.5892, 108.1233
277.0714, 108.8205
277.5535, 109.3291
278.0356, 108.6691
278.5177, 106.6611
278.9998, 105.4010
279.4819, 105.5815
279.9641, 106.7798
280.4462, 107.1051
280.9283, 106.4218
281.4104, 105.4467
281.8925, 104.6683
282.3746, 104.0862
282.8568, 103.7515
283.3389, 103.7456
283.8210, 103.9380
284.3031, 103.9467
284.7852, 103.7533
285.2673, 103.5549
285.7495, 103.5570
286.2316, 103.7338
286.7137, 103.7185
287.1958, 103.4511
287.6779, 102.9932
288.1600, 102.3625
288.6422, 101.5526
289.1243, 100.8999
289.6064, 100.6556
290.0885, 100.7655
290.5706, 101.0193
291.0527, 101.4421
291.5349, 101.8857
292.0170, 102.2350
292.4991, 102.4617
292.9812, 102.2946
293.4633, 101.2118
293.9454, 99.58411
294.4276, 98.65821
294.9097, 98.57930
295.3918, 98.88911
295.8739, 99.07408
296.3560, 99.16430
296.8381, 99.30973
297.3203, 99.79141
297.8024, 100.3384
298.2845, 100.3359
298.7666, 99.73961
299.2487, 98.91869
299.7308, 97.95141
300.2130, 97.00783
300.6951, 96.59991
301.1772, 97.46807
301.6593, 98.72173
302.1414, 98.93214
302.6235, 98.11974
303.1057, 97.25135
303.5878, 97.23348
304.0699, 97.72054
304.5520, 98.06496
305.0341, 97.88097
305.5162, 97.62526
305.9984, 97.88677
306.4805, 98.58479
306.9626, 99.18296
307.4447, 99.04066
307.9268, 98.66120
308.4089, 98.76173
308.8911, 99.86706
309.3732, 100.9729
309.8553, 101.2066
310.3374, 100.7485
310.8195, 100.2062
311.3016, 99.68417
311.7838, 99.35978
312.2659, 99.45593
312.7480, 100.1954
313.2301, 100.9268
313.7122, 101.1756
314.1943, 101.1383
314.6765, 101.2232
315.1586, 101.7590
315.6407, 102.3719
316.1228, 102.7410
316.6049, 102.6960
317.0870, 102.9682
317.5692, 104.1980
318.0513, 105.8676
318.5334, 107.2468
319.0155, 107.7390
319.4976, 108.2022
319.9797, 108.9873
320.4619, 110.1330
320.9440, 111.4288
321.4261, 112.9668
321.9082, 114.5468
322.3903, 115.9730
322.8724, 117.1339
323.3546, 118.2047
323.8367, 119.3562
324.3188, 120.5684
324.8009, 121.3051
325.2830, 120.9760
325.7651, 120.4506
326.2473, 120.2921
326.7294, 120.9744
327.2115, 121.5431
327.6936, 121.9224
328.1757, 122.1234
328.6578, 122.2123
329.1400, 121.9901
329.6221, 121.8288
330.1042, 121.8752
330.5863, 122.0878
331.0684, 122.5872
331.5505, 123.4687
332.0327, 124.6138
332.5148, 125.7449
332.9969, 126.7300
333.4790, 127.8767
333.9611, 129.3395
334.4432, 131.2143
334.9254, 133.0085
335.4075, 134.6720
335.8896, 136.2688
336.3717, 137.7524
336.8538, 138.7271
337.3359, 140.5264
337.8180, 143.6497
338.3001, 148.0590
338.7823, 152.5829
339.2644, 157.3624
339.7465, 161.8915
340.2286, 165.4464
340.7107, 167.7444
341.1928, 170.6790
341.6750, 174.8273
342.1571, 179.7807
342.6392, 183.7375
343.1213, 186.6792
343.6034, 188.9263
344.0855, 190.9252
344.5677, 192.6257
345.0498, 193.1064
345.5319, 192.2469
346.0140, 190.1228
346.4961, 186.4001
346.9782, 181.1595
347.4604, 175.9719
347.9425, 171.7850
348.4246, 168.3913
348.9067, 165.1769
349.3888, 162.0873
349.8709, 159.2788
350.3531, 156.8394
350.8352, 154.8124
351.3173, 153.3652
351.7994, 152.8735
352.2815, 152.8916
352.7636, 152.7355
353.2458, 152.4024
353.7279, 151.9079
354.2100, 150.9450
354.6921, 149.8736
355.1742, 149.3537
355.6563, 149.9295
356.1385, 150.7651
356.6206, 150.9064
357.1027, 150.5266
357.5848, 150.4809
358.0669, 151.3490
358.5490, 152.7575
359.0312, 154.4308
359.5133, 156.5282
359.9954, 158.4330
360.4775, 159.7449
360.9596, 160.6159
361.4417, 161.3479
361.9239, 161.9924
362.4060, 162.6009
362.8881, 163.2330
363.3702, 163.9270
363.8523, 164.4741
364.3344, 164.8551
364.8166, 165.0376
365.2987, 164.9840
365.7808, 164.9785
366.2629, 164.4442
366.7450, 163.1370
367.2271, 161.0573
367.7093, 158.7270
368.1914, 156.2819
368.6735, 153.5547
369.1556, 150.4050
369.6377, 146.3712
370.1198, 142.5747
370.6020, 139.1357
371.0841, 135.9737
371.5662, 132.7881
372.0483, 129.5648
372.5304, 126.3760
373.0125, 123.1744
373.4947, 119.7500
373.9768, 117.0572
374.4589, 115.4878
374.9410, 114.3055
375.4231, 112.2230
375.9052, 108.7608
376.3874, 105.7134
376.8695, 103.7241
377.3516, 102.7477
377.8337, 101.7011
378.3158, 100.4769
378.7979, 99.44250
379.2801, 99.16753
379.7622, 99.70371
380.2443, 99.81092
380.7264, 99.17898
381.2085, 98.02329
381.6906, 96.78236
382.1728, 95.45322
382.6549, 94.33070
383.1370, 93.66750
383.6191, 93.39120
384.1012, 93.26733
384.5833, 93.28479
385.0655, 93.39384
385.5476, 93.66788
386.0297, 94.01726
386.5118, 94.10246
386.9939, 93.50516
387.4760, 92.65035
387.9582, 92.20737
388.4403, 92.19041
388.9224, 92.19132
389.4045, 91.71854
389.8866, 91.09911
390.3687, 90.81678
390.8509, 91.38720
391.3330, 91.96414
391.8151, 91.89440
392.2972, 91.30074
392.7793, 90.68427
393.2614, 90.22795
393.7436, 89.88564
394.2257, 89.62157
394.7078, 89.44621
395.1899, 89.31278
395.6720, 89.18750
396.1541, 89.09515
396.6363, 89.07613
397.1184, 89.26021
397.6005, 89.40624
398.0826, 89.50279
398.5647, 89.58095
399.0468, 89.31516
399.5290, 88.00943
400.0111, 86.72060
400.4932, 86.30689
400.9753, 87.65090
401.4574, 88.69477
401.9395, 89.22962
402.4217, 89.32009
402.9038, 89.21472
403.3859, 88.73436
403.8680, 88.32202
404.3501, 88.24097
404.8322, 88.65508
405.3144, 88.80352
405.7965, 88.58362
406.2786, 88.21843
406.7607, 88.09093
407.2428, 88.25239
407.7249, 88.37418
408.2071, 88.36706
408.6892, 88.23151
409.1713, 87.84741
409.6534, 87.13741
410.1355, 86.62525
410.6176, 87.02176
411.0998, 88.14027
411.5819, 88.84330
412.0640, 88.79984
412.5461, 88.43055
413.0282, 88.41927
413.5103, 88.71372
413.9925, 89.00320
414.4746, 89.02621
414.9567, 88.95711
415.4388, 89.12364
415.9209, 89.58418
416.4030, 89.99149
416.8852, 89.77541
417.3673, 89.36156
417.8494, 89.43912
418.3315, 90.69508
418.8136, 92.18044
419.2957, 93.24344
419.7779, 93.95461
420.2600, 94.85897
420.7421, 96.44741
421.2242, 98.17469
421.7063, 99.56780
422.1884, 100.2708
422.6706, 101.2033
423.1527, 102.9399
423.6348, 105.0247
424.1169, 106.6076
424.5990, 106.9716
425.0811, 107.4036
425.5633, 108.3176
426.0454, 109.7849
426.5275, 111.2358
427.0096, 112.5957
427.4917, 114.0107
427.9738, 115.5631
428.4560, 117.0537
428.9381, 119.1161
429.4202, 122.0211
429.9023, 125.4714
430.3844, 128.4791
430.8665, 130.7155
431.3487, 133.3992
431.8308, 137.3594
432.3129, 142.6595
432.7950, 147.5598
433.2771, 151.9951
433.7592, 156.1179
434.2414, 160.3061
434.7235, 164.5151
435.2056, 168.2630
435.6877, 171.7874
436.1698, 174.4859
436.6519, 175.2407
437.1341, 174.0318
437.6162, 170.8745
438.0983, 164.7808
438.5804, 156.9669
439.0625, 149.3804
439.5446, 142.2205
440.0268, 135.7346
440.5089, 129.9235
440.9910, 124.9348
441.4731, 121.1505
441.9552, 118.5872
442.4373, 117.3476
442.9195, 117.6954
443.4016, 119.6050
443.8837, 122.1680
444.3658, 125.0450
444.8479, 128.4176
445.3300, 132.4071
445.8122, 137.5935
446.2943, 142.7098
446.7764, 147.7074
447.2585, 152.5110
447.7406, 156.9263
448.2227, 160.6591
448.7049, 164.2745
449.1870, 167.7474
449.6691, 170.8161
450.1512, 175.1875
450.6333, 181.2471
451.1154, 188.1277
451.5976, 194.8334
452.0797, 200.7803
452.5618, 208.2764
453.0439, 217.7640
453.5260, 228.9492
454.0081, 241.4626
454.4903, 255.3266
454.9724, 270.7412
455.4545, 288.3657
455.9366, 307.8434
456.4187, 327.8265
456.9008, 348.0760
457.3830, 369.0716
457.8651, 391.5951
458.3472, 415.1500
458.8293, 437.1240
459.3114, 457.3460
459.7935, 475.1408
460.2757, 492.2327
460.7578, 507.3314
461.2399, 514.4917
461.7220, 510.8901
462.2041, 497.1806
462.6862, 472.3713
463.1684, 434.7079
463.6505, 393.9427
464.1326, 351.6109
464.6147, 310.6290
465.0968, 274.0835
465.5789, 243.7614
466.0611, 218.2030
466.5432, 197.5471
467.0253, 181.6490
467.5074, 167.9217
467.9895, 156.3471
468.4716, 146.6771
468.9538, 138.9679
469.4359, 133.9872
469.9180, 129.4608
470.4001, 125.3046
470.8822, 121.6137
471.3643, 118.4899
471.8465, 115.9155
472.3286, 113.9851
472.8107, 112.8835
473.2928, 112.4682
473.7749, 111.8226
474.2570, 110.9133
474.7392, 109.9592
475.2213, 108.9976
475.7034, 108.0811
476.1855, 107.6396
476.6676, 107.7962
477.1497, 108.1674
477.6319, 108.1747
478.1140, 107.9512
478.5961, 107.9315
479.0782, 108.4748
479.5603, 109.2159
480.0424, 109.7926
480.5246, 110.2056
481.0067, 110.4475
481.4888, 110.4984
481.9709, 110.3864
482.4530, 110.1284
482.9352, 109.7119
483.4173, 109.1872
483.8994, 108.4288
484.3815, 107.6022
484.8636, 106.9679
485.3457, 106.9257
485.8279, 106.7323
486.3100, 106.0279
486.7921, 104.8113
487.2742, 104.0481
487.7563, 103.8445
488.2384, 103.9822
488.7206, 104.3065
489.2027, 104.6498
489.6848, 105.7513
490.1669, 108.1080
490.6490, 110.7001
491.1311, 111.6222
491.6133, 110.5303
492.0954, 110.1199
492.5775, 111.4284
493.0596, 113.9966
493.5417, 116.1496
494.0238, 117.8725
494.5060, 119.5434
494.9881, 121.3452
495.4702, 123.3002
495.9523, 125.4778
496.4344, 127.8409
496.9165, 130.5798
497.3987, 134.0384
497.8808, 138.0053
498.3629, 142.0158
498.8450, 145.8721
499.3271, 149.7224
499.8092, 153.5652
500.2914, 157.4670
500.7735, 161.4560
501.2556, 165.6082
501.7377, 169.9010
502.2198, 174.2491
502.7019, 178.4799
503.1841, 183.3207
503.6662, 189.1664
504.1483, 195.5672
504.6304, 201.9249
505.1125, 207.9328
505.5946, 214.2672
506.0768, 221.1822
506.5589, 228.5412
507.0410, 235.7227
507.5231, 242.5398
508.0052, 249.6674
508.4873, 257.9368
508.9695, 267.2612
509.4516, 275.3365
509.9337, 282.0521
510.4158, 287.9092
510.8979, 293.7468
511.3800, 299.3410
511.8622, 303.5403
512.3443, 306.3216
512.8264, 307.1598
513.3085, 305.2680
513.7906, 300.8362
514.2728, 294.5381
514.7549, 286.4936
515.2370, 276.9245
515.7191, 265.7010
516.2012, 252.7110
516.6833, 239.4294
517.1655, 225.7213
517.6476, 212.3349
518.1297, 199.9075
518.6118, 188.6421
519.0939, 178.2508
519.5760, 168.6821
520.0582, 160.0235
520.5403, 152.1504
521.0224, 145.4704
521.5045, 139.1172
521.9866, 132.7272
522.4688, 126.2790
522.9509, 120.9659
523.4330, 116.9178
523.9151, 113.6127
524.3972, 110.8085
524.8793, 108.5286
525.3615, 106.1295
525.8436, 103.4878
526.3257, 100.8423
526.8078, 98.53873
527.2899, 96.55422
527.7720, 94.84319
528.2542, 93.60459
528.7363, 92.48339
529.2184, 90.84228
529.7005, 88.81017
530.1826, 87.00797
530.6647, 85.75912
531.1469, 84.95000
531.6290, 84.64884
532.1111, 85.05589
532.5932, 85.03004
533.0753, 83.62963
533.5574, 81.78423
534.0396, 80.48113
534.5217, 80.38862
535.0038, 80.25249
535.4859, 79.91521
535.9680, 79.40803
536.4501, 78.78075
536.9323, 77.80378
537.4144, 77.11185
537.8965, 77.11491
538.3786, 77.84467
538.8607, 77.74437
539.3428, 76.57117
539.8250, 75.31639
540.3071, 75.11513
540.7892, 75.82171
541.2713, 75.91078
541.7534, 74.98405
542.2355, 73.84238
542.7177, 73.72695
543.1998, 74.35570
543.6819, 74.83471
544.1640, 74.49928
544.6461, 74.00003
545.1282, 74.10255
545.6104, 74.67911
546.0925, 74.93543
546.5746, 74.02439
547.0567, 72.96031
547.5388, 72.44834
548.0209, 72.74361
548.5031, 73.07088
548.9852, 73.39966
549.4673, 73.62200
549.9494, 73.61191
550.4315, 73.09850
550.9136, 72.77372
551.3958, 72.72739
551.8779, 72.90993
552.3600, 73.25694
552.8421, 73.90159
553.3242, 74.24138
553.8063, 73.86423
554.2885, 72.89986
554.7706, 72.41296
555.2527, 72.43282
555.7348, 72.62099
556.2169, 72.76752
556.6990, 72.85129
557.1812, 72.79267
557.6633, 72.54666
558.1454, 72.28735
558.6275, 72.26469
559.1096, 72.33535
559.5917, 72.24509
560.0739, 71.60725
560.5560, 71.05466
561.0381, 70.93929
561.5202, 71.19188
562.0023, 71.49020
562.4844, 71.82269
562.9666, 72.12354
563.4487, 72.42260
563.9308, 72.80598
564.4129, 72.73543
564.8950, 71.85329
565.3771, 70.90694
565.8593, 70.55333
566.3414, 70.95205
566.8235, 71.26165
567.3056, 71.39706
567.7877, 71.41825
568.2698, 71.42464
568.7520, 71.41631
569.2341, 71.37925
569.7162, 71.21728
570.1983, 71.08548
570.6804, 71.46043
571.1625, 72.23889
571.6447, 72.71147
572.1268, 71.98880
572.6089, 70.98418
573.0910, 70.69150
573.5731, 71.31953
574.0552, 71.85557
574.5374, 71.66295
575.0195, 71.25011
575.5016, 71.09184
575.9837, 71.32011
576.4658, 71.75729
576.9479, 72.62853
577.4301, 73.64205
577.9122, 74.20391
578.3943, 74.09224
578.8764, 73.97018
579.3585, 73.99886
579.8406, 74.16549
580.3228, 74.31535
580.8049, 74.39857
581.2870, 74.78246
581.7691, 75.94581
582.2512, 77.65665
582.7333, 78.98650
583.2155, 79.87327
583.6975, 80.51889
584.1796, 80.95071
584.6617, 81.32906
585.1439, 81.94882
585.6260, 83.03689
586.1081, 84.12064
586.5902, 84.67095
587.0723, 85.04134
