##NAMES=Linarite
##RRUFFID=R060130
##IDEAL CHEMISTRY=Pb^2+^Cu^2+^S^6+^O_4_(OH)_2_
##LOCALITY=Graham County, Arizona, USA
##OWNER=RRUFF
##SOURCE=University of Arizona Mineral Museum
##DESCRIPTION=Azure-blue fragments in quartz
##STATUS=The identification of this mineral has been confirmed by X-ray diffraction and chemical analysis
##URL=rruff.info/R060130
##MEASURED CHEMISTRY=Pb_1.00_Cu_1.00_(S_1.00_O_4_)(OH)_2_
89.78156, 0.0000000E+00
90.26367, 5.895354
90.74579, 5.765800
91.22791, 5.797376
91.71002, 5.976885
92.19214, 6.191813
92.67426, 6.433281
93.15638, 6.650089
93.63850, 6.692469
94.12061, 6.398368
94.60273, 5.927000
95.08485, 5.644969
95.56696, 5.564690
96.04908, 5.606920
96.53120, 5.732689
97.01331, 5.933801
97.49543, 6.088584
97.97755, 6.135564
98.45966, 6.078826
98.94178, 5.990469
99.42390, 5.853426
99.90602, 5.710555
100.3881, 5.659422
100.8703, 5.729579
101.3524, 5.785403
101.8345, 5.726904
102.3166, 5.499982
102.7987, 5.411725
103.2808, 5.561984
103.7630, 5.864172
104.2451, 5.904221
104.7272, 5.513336
105.2093, 5.083827
105.6914, 4.877698
106.1735, 5.039290
106.6557, 5.181441
107.1378, 5.261602
107.6199, 5.279358
108.1020, 5.262461
108.5841, 5.047629
109.0662, 4.884362
109.5484, 4.993293
110.0305, 5.610364
110.5126, 6.266049
110.9947, 6.923139
111.4768, 7.624178
111.9590, 8.150734
112.4411, 8.291221
112.9232, 8.295817
113.4053, 8.482036
113.8874, 9.064074
114.3695, 9.710142
114.8517, 10.29429
115.3338, 10.78323
115.8159, 11.25418
116.2980, 11.64598
116.7801, 12.03649
117.2622, 12.58875
117.7444, 13.36487
118.2265, 14.32612
118.7086, 15.45722
119.1907, 16.84110
119.6728, 18.28374
120.1549, 19.58413
120.6371, 20.81727
121.1192, 22.29382
121.6013, 24.16315
122.0834, 26.36669
122.5655, 28.83980
123.0476, 31.63988
123.5298, 34.63456
124.0119, 37.66535
124.4940, 40.74444
124.9761, 44.05817
125.4582, 47.89880
125.9404, 52.05595
126.4225, 56.08773
126.9046, 60.32819
127.3867, 64.18417
127.8688, 66.62888
128.3509, 67.61271
128.8331, 67.66724
129.3152, 67.18912
129.7973, 66.20669
130.2794, 64.88647
130.7615, 63.00367
131.2436, 60.79724
131.7258, 59.10164
132.2079, 57.96187
132.6900, 57.29266
133.1721, 57.06116
133.6542, 57.27327
134.1364, 57.63744
134.6185, 57.90304
135.1006, 58.09285
135.5827, 58.74872
136.0648, 59.95972
136.5469, 61.60408
137.0291, 63.48920
137.5112, 65.67376
137.9933, 67.80495
138.4754, 69.65179
138.9575, 71.15002
139.4396, 72.65344
139.9218, 74.15278
140.4039, 75.67984
140.8860, 77.37073
141.3681, 79.22695
141.8502, 81.22788
142.3323, 83.26229
142.8145, 85.22227
143.2966, 87.58151
143.7787, 90.53395
144.2608, 94.09020
144.7429, 97.25682
145.2250, 99.69182
145.7072, 102.0825
146.1893, 105.1332
146.6714, 109.3762
147.1535, 113.4714
147.6356, 117.0394
148.1178, 119.9342
148.5999, 123.1945
149.0820, 126.6754
149.5641, 130.5741
150.0462, 135.0982
150.5283, 140.8605
151.0105, 146.5791
151.4926, 150.5240
151.9747, 153.5645
152.4568, 156.8754
152.9389, 160.6732
153.4210, 164.6807
153.9032, 168.5804
154.3853, 172.3508
154.8674, 175.9403
155.3495, 179.2964
155.8316, 182.3757
156.3137, 185.4224
156.7959, 188.7737
157.2780, 192.1079
157.7601, 194.8010
158.2422, 196.5969
158.7243, 197.8560
159.2065, 198.8032
159.6886, 199.6511
160.1707, 199.8902
160.6528, 199.4083
161.1349, 198.2239
161.6170, 196.3723
162.0992, 193.8347
162.5813, 190.6687
163.0634, 186.9019
163.5455, 182.4449
164.0276, 177.5334
164.5097, 172.1411
164.9919, 166.3416
165.4740, 160.4177
165.9561, 154.2649
166.4382, 148.1720
166.9203, 142.3204
167.4024, 136.7085
167.8846, 131.4065
168.3667, 126.4666
168.8488, 121.8557
169.3309, 117.3755
169.8130, 112.8311
170.2952, 108.3454
170.7773, 104.1300
171.2594, 100.1765
171.7415, 96.52732
172.2236, 93.15046
172.7057, 90.04597
173.1879, 87.26972
173.6700, 85.00229
174.1521, 83.07295
174.6342, 81.18459
175.1163, 79.16683
175.5984, 77.13431
176.0806, 75.21311
176.5627, 73.39204
177.0448, 71.73495
177.5269, 70.40173
178.0090, 69.29075
178.4911, 68.12196
178.9733, 66.69858
179.4554, 65.18574
179.9375, 63.77266
180.4196, 62.46277
180.9017, 61.36578
181.3838, 60.77698
181.8660, 60.55885
182.3481, 60.19673
182.8302, 59.28872
183.3123, 58.08946
183.7944, 57.23968
184.2766, 56.79793
184.7587, 56.44223
185.2408, 55.66425
185.7229, 54.55452
186.2050, 53.62080
186.6871, 53.20631
187.1693, 53.18541
187.6514, 53.14007
188.1335, 53.05650
188.6156, 52.93144
189.0977, 52.76052
189.5798, 52.54336
190.0620, 52.27496
190.5441, 51.95100
191.0262, 51.56966
191.5083, 51.08815
191.9904, 50.44221
192.4725, 49.81714
192.9547, 49.61737
193.4368, 49.85633
193.9189, 50.03138
194.4010, 49.80079
194.8831, 49.19594
195.3652, 48.69289
195.8474, 48.31243
196.3295, 48.06311
196.8116, 48.04371
197.2937, 48.28864
197.7758, 48.44425
198.2579, 48.26056
198.7401, 47.72981
199.2222, 47.23339
199.7043, 46.81939
200.1864, 46.43828
200.6685, 45.94751
201.1507, 45.31953
201.6328, 44.72112
202.1149, 44.32573
202.5970, 44.17787
203.0791, 43.72601
203.5612, 42.80378
204.0434, 41.64837
204.5255, 40.93367
205.0076, 40.73240
205.4897, 40.71904
205.9718, 40.66730
206.4539, 40.52911
206.9361, 40.67101
207.4182, 41.23052
207.9003, 42.04251
208.3824, 42.55207
208.8645, 42.64624
209.3466, 42.73710
209.8288, 43.09219
210.3109, 43.76777
210.7930, 44.46260
211.2751, 45.15601
211.7572, 45.84664
212.2393, 46.56855
212.7215, 47.34229
213.2036, 48.08573
213.6857, 48.75292
214.1678, 49.35263
214.6499, 49.82640
215.1320, 50.07222
215.6142, 50.19892
216.0963, 50.68690
216.5784, 51.61686
217.0605, 52.74360
217.5426, 53.95118
218.0247, 55.28991
218.5069, 56.52240
218.9890, 57.61153
219.4711, 58.57688
219.9532, 59.50828
220.4353, 60.35028
220.9175, 61.26263
221.3996, 62.40416
221.8817, 63.92776
222.3638, 65.23746
222.8459, 66.15378
223.3280, 66.80387
223.8102, 67.78892
224.2923, 69.32063
224.7744, 70.88673
225.2565, 72.15340
225.7386, 73.02914
226.2207, 73.83028
226.7029, 74.63428
227.1850, 75.39220
227.6671, 75.83794
228.1492, 76.04361
228.6313, 75.83728
229.1134, 75.07557
229.5956, 73.53554
230.0777, 71.92311
230.5598, 70.25671
231.0419, 68.54955
231.5240, 66.84319
232.0062, 65.20797
232.4883, 63.48024
232.9704, 61.51879
233.4525, 59.11094
233.9346, 56.95794
234.4167, 55.21236
234.8989, 53.78196
235.3810, 52.22042
235.8631, 50.33899
236.3452, 48.54720
236.8273, 47.09509
237.3094, 46.22129
237.7916, 45.15932
238.2737, 43.73608
238.7558, 42.07990
239.2379, 40.71127
239.7200, 39.72175
240.2021, 38.89378
240.6843, 38.11717
241.1664, 37.42827
241.6485, 36.70921
242.1306, 35.93813
242.6127, 35.13069
243.0948, 34.36490
243.5770, 33.60464
244.0591, 32.93451
244.5412, 32.42138
245.0233, 32.15733
245.5054, 31.83628
245.9876, 31.42417
246.4697, 30.95374
246.9518, 30.51749
247.4339, 30.13880
247.9160, 29.75737
248.3981, 29.33536
248.8803, 28.80795
249.3624, 28.39717
249.8445, 28.17470
250.3266, 28.05299
250.8087, 27.77523
251.2908, 27.23933
251.7730, 26.71457
252.2551, 26.34583
252.7372, 26.23562
253.2193, 25.99157
253.7014, 25.50961
254.1835, 24.94123
254.6657, 24.68138
255.1478, 24.95249
255.6299, 25.13994
256.1120, 24.93712
256.5941, 24.14297
257.0763, 23.61818
257.5584, 23.45126
258.0405, 23.49261
258.5226, 23.44480
259.0047, 23.26471
259.4868, 23.08513
259.9690, 22.97769
260.4511, 22.98503
260.9332, 22.84604
261.4153, 22.45917
261.8974, 22.01295
262.3795, 21.86829
262.8617, 22.17142
263.3438, 22.42050
263.8259, 22.43531
264.3080, 22.18284
264.7901, 21.92291
265.2722, 21.65119
265.7544, 21.37709
266.2365, 21.11495
266.7186, 20.86078
267.2007, 20.63261
267.6828, 20.44081
268.1649, 20.28439
268.6471, 20.13857
269.1292, 19.98928
269.6113, 19.86831
270.0934, 19.81970
270.5755, 19.85546
271.0576, 19.92144
271.5398, 20.03689
272.0219, 20.19730
272.5040, 20.17023
272.9861, 19.88622
273.4682, 19.56634
273.9503, 19.46746
274.4325, 19.63573
274.9146, 19.77614
275.3967, 19.83963
275.8788, 19.82121
276.3610, 19.63545
276.8431, 19.23076
277.3252, 18.82147
277.8073, 18.60208
278.2894, 18.58091
278.7715, 18.66733
279.2537, 18.89676
279.7358, 19.20864
280.2179, 19.35829
280.7000, 19.33929
281.1821, 19.18758
281.6642, 18.84873
282.1464, 18.32063
282.6285, 17.97883
283.1106, 17.92655
283.5927, 18.06294
284.0748, 18.13486
284.5569, 18.14118
285.0391, 18.09089
285.5212, 17.95598
286.0033, 17.74721
286.4854, 17.60538
286.9675, 17.56949
287.4496, 17.57516
287.9318, 17.45713
288.4139, 17.21197
288.8960, 17.03214
289.3781, 17.10263
289.8602, 17.35991
290.3423, 17.47147
290.8245, 17.38987
291.3066, 17.20506
291.7887, 17.03823
292.2708, 16.88867
292.7529, 16.75597
293.2350, 16.64340
293.7172, 16.54811
294.1993, 16.45905
294.6814, 16.37086
295.1635, 16.30881
295.6456, 16.34148
296.1277, 16.44179
296.6099, 16.49326
297.0920, 16.38368
297.5741, 16.20018
298.0562, 16.13006
298.5383, 16.18336
299.0204, 16.25887
299.5026, 16.24920
299.9847, 16.18163
300.4668, 16.12786
300.9489, 16.11248
301.4311, 16.12958
301.9132, 16.18492
302.3953, 16.27741
302.8774, 16.36540
303.3595, 16.39487
303.8416, 16.40017
304.3238, 16.44739
304.8059, 16.60305
305.2880, 16.76357
305.7701, 16.77764
306.2522, 16.67385
306.7343, 16.62590
307.2165, 16.79840
307.6986, 17.07644
308.1807, 17.31415
308.6628, 17.46046
309.1449, 17.58738
309.6270, 17.76012
310.1092, 17.96434
310.5913, 18.14869
311.0734, 18.30505
311.5555, 18.41900
312.0376, 18.44294
312.5197, 18.29904
313.0019, 18.25420
313.4840, 18.56306
313.9661, 19.07731
314.4482, 19.49613
314.9303, 19.68461
315.4124, 19.74333
315.8946, 19.66719
316.3767, 19.39886
316.8588, 19.28867
317.3409, 19.65643
317.8230, 20.22008
318.3051, 20.60633
318.7873, 20.41183
319.2694, 20.27533
319.7515, 20.54728
320.2336, 21.28278
320.7157, 21.86813
321.1978, 21.87063
321.6800, 21.76046
322.1621, 21.96198
322.6442, 23.12069
323.1263, 24.02028
323.6084, 24.18650
324.0905, 23.67761
324.5727, 23.46413
325.0548, 24.08908
325.5369, 24.79340
326.0190, 25.11727
326.5012, 24.49060
326.9833, 24.10672
327.4654, 24.15462
327.9475, 24.54128
328.4296, 24.89171
328.9117, 25.18372
329.3939, 25.45851
329.8760, 25.73075
330.3581, 25.97464
330.8402, 26.26055
331.3223, 26.55153
331.8044, 26.89502
332.2866, 27.41047
332.7687, 28.26567
333.2508, 29.03636
333.7329, 29.56628
334.2150, 29.79089
334.6971, 30.08198
335.1793, 30.42229
335.6614, 30.84913
336.1435, 31.42161
336.6256, 32.19544
337.1077, 32.97595
337.5898, 33.65923
338.0720, 34.26945
338.5541, 35.14712
339.0362, 36.38572
339.5183, 37.70100
340.0004, 38.81177
340.4825, 39.70074
340.9647, 40.57366
341.4468, 41.43618
341.9289, 42.31912
342.4110, 43.41277
342.8931, 44.75323
343.3752, 46.00658
343.8574, 46.86720
344.3395, 47.36824
344.8216, 47.86824
345.3037, 48.32649
345.7858, 48.94888
346.2679, 50.32038
346.7501, 52.39222
347.2322, 54.18768
347.7143, 54.95935
348.1964, 55.03923
348.6785, 55.52300
349.1607, 56.48994
349.6428, 57.67529
350.1249, 58.74956
350.6070, 59.79278
351.0891, 61.09116
351.5713, 62.99016
352.0534, 65.08225
352.5355, 66.70456
353.0176, 67.85675
353.4997, 69.06046
353.9818, 70.86353
354.4640, 72.94310
354.9461, 74.81551
355.4282, 76.21324
355.9103, 77.49831
356.3924, 78.95295
356.8745, 80.56509
357.3567, 82.24729
357.8388, 83.99765
358.3209, 85.78082
358.8030, 87.60091
359.2851, 89.47372
359.7672, 91.30611
360.2494, 93.04968
360.7315, 94.72549
361.2136, 96.34489
361.6957, 98.08821
362.1778, 99.65234
362.6599, 100.9418
363.1421, 101.9688
363.6242, 102.5380
364.1063, 102.5478
364.5884, 102.0855
365.0705, 101.2408
365.5526, 100.0869
366.0348, 98.50246
366.5169, 96.38133
366.9990, 93.74287
367.4811, 90.91830
367.9632, 88.02043
368.4453, 84.87566
368.9275, 81.39075
369.4096, 77.20765
369.8917, 73.20374
370.3738, 69.35561
370.8559, 65.68302
371.3380, 62.30849
371.8202, 59.22383
372.3023, 56.40401
372.7844, 53.90003
373.2665, 51.80747
373.7487, 49.65898
374.2308, 47.33793
374.7129, 45.07917
375.1950, 43.15583
375.6771, 41.57939
376.1592, 40.30607
376.6414, 39.40394
377.1235, 38.82650
377.6056, 38.03413
378.0877, 36.96136
378.5698, 35.86754
379.0519, 34.92784
379.5341, 34.14949
380.0162, 33.57589
380.4983, 33.26881
380.9804, 33.11251
381.4625, 32.83823
381.9446, 32.44598
382.4268, 32.11072
382.9089, 32.01932
383.3910, 32.07591
383.8731, 31.91787
384.3552, 31.47758
384.8373, 31.01921
385.3195, 30.89653
385.8016, 31.01741
386.2837, 31.10851
386.7658, 30.97707
387.2479, 30.78423
387.7300, 30.79775
388.2122, 31.00514
388.6943, 31.11224
389.1764, 30.75561
389.6585, 30.21848
390.1406, 29.87565
390.6227, 29.93794
391.1049, 30.06688
391.5870, 30.05036
392.0691, 29.92244
392.5512, 29.78575
393.0333, 29.69027
393.5154, 29.59911
393.9976, 29.49455
394.4797, 29.38127
394.9618, 29.22943
395.4439, 28.94141
395.9260, 28.63398
396.4081, 28.46304
396.8903, 28.61471
397.3724, 28.75251
397.8545, 28.82936
398.3366, 28.84669
398.8188, 28.67123
399.3009, 28.02450
399.7830, 27.36067
400.2651, 26.97114
400.7472, 27.06080
401.2293, 27.12252
401.7115, 27.16396
402.1936, 27.15838
402.6757, 26.99607
403.1578, 26.53369
403.6399, 26.16189
404.1220, 26.09709
404.6042, 26.42532
405.0863, 26.54874
405.5684, 26.43263
406.0505, 26.16635
406.5326, 25.78634
407.0147, 25.24645
407.4969, 24.95725
407.9790, 25.10845
408.4611, 25.57456
408.9432, 25.85290
409.4253, 25.93147
409.9074, 25.93113
410.3896, 25.92211
410.8717, 25.90887
411.3538, 25.91179
411.8359, 25.93517
412.3180, 25.97222
412.8001, 25.97275
413.2823, 25.96506
413.7644, 26.06268
414.2465, 26.43369
414.7286, 26.89678
415.2107, 27.15814
415.6928, 27.19407
416.1750, 27.32171
416.6571, 27.79204
417.1392, 28.49564
417.6213, 29.30123
418.1034, 30.14537
418.5855, 31.09206
419.0677, 32.24899
419.5498, 33.56100
420.0319, 34.77556
420.5140, 35.70247
420.9961, 36.57869
421.4782, 37.57738
421.9604, 38.81517
422.4425, 39.91720
422.9246, 40.76147
423.4067, 41.42440
423.8889, 42.02134
424.3710, 42.16225
424.8531, 42.65940
425.3352, 43.78047
425.8173, 45.52370
426.2994, 47.19221
426.7816, 48.67076
427.2637, 50.17756
427.7458, 51.84874
428.2279, 53.74238
428.7100, 55.67582
429.1921, 57.47588
429.6743, 59.39500
430.1564, 62.05315
430.6385, 65.61392
431.1206, 69.28389
431.6027, 72.76051
432.0848, 76.07602
432.5670, 79.29175
433.0491, 82.42286
433.5312, 85.43253
434.0133, 88.72427
434.4954, 92.09544
434.9775, 94.23074
435.4597, 94.96660
435.9418, 94.10767
436.4239, 90.91660
436.9060, 85.61063
437.3881, 79.39926
437.8702, 72.39011
438.3524, 65.18993
438.8345, 58.53675
439.3166, 52.45473
439.7987, 47.28358
440.2808, 43.32558
440.7629, 40.43719
441.2451, 38.43174
441.7272, 37.56717
442.2093, 37.26100
442.6914, 37.26893
443.1735, 37.58720
443.6556, 38.22197
444.1378, 39.39399
444.6199, 40.73969
445.1020, 42.03105
445.5841, 43.21798
446.0662, 44.37676
446.5483, 45.60607
447.0305, 46.79519
447.5126, 47.75595
447.9947, 48.18532
448.4768, 48.74139
448.9590, 49.60803
449.4411, 50.78923
449.9232, 51.89237
450.4053, 52.83756
450.8874, 53.83435
451.3695, 54.96476
451.8517, 56.16015
452.3338, 57.85171
452.8159, 60.17125
453.2980, 62.87221
453.7801, 65.48737
454.2622, 67.97934
454.7444, 70.60673
455.2265, 73.44685
455.7086, 76.50980
456.1907, 79.76855
456.6728, 83.27888
457.1549, 86.78064
457.6371, 90.23704
458.1192, 93.55352
458.6013, 96.71773
459.0834, 100.0310
459.5655, 102.5597
460.0476, 103.6628
460.5298, 103.1904
461.0119, 100.6894
461.4940, 95.04184
461.9761, 87.84847
462.4582, 79.95205
462.9403, 71.27253
463.4225, 63.21069
463.9046, 56.12948
464.3867, 50.03965
464.8688, 45.11884
465.3509, 41.93707
465.8330, 39.24591
466.3152, 36.91480
466.7973, 34.92093
467.2794, 33.19820
467.7615, 31.61112
468.2436, 30.40037
468.7257, 29.71898
469.2079, 29.71462
469.6900, 29.58167
470.1721, 29.23788
470.6542, 28.85615
471.1363, 28.61869
471.6184, 28.54915
472.1006, 28.53825
472.5827, 28.59343
473.0648, 28.67866
473.5469, 28.63715
474.0291, 28.44969
474.5112, 28.36224
474.9933, 28.58345
475.4754, 29.03750
475.9575, 29.38445
476.4396, 29.60146
476.9218, 29.79804
477.4039, 30.08146
477.8860, 30.43180
478.3681, 30.80777
478.8502, 31.23969
479.3323, 31.63773
479.8145, 31.85801
480.2966, 31.95471
480.7787, 32.11717
481.2608, 32.46568
481.7429, 32.90236
482.2250, 33.37760
482.7072, 33.89632
483.1893, 34.38745
483.6714, 34.78738
484.1535, 35.16570
484.6356, 35.59258
485.1177, 36.00160
485.5999, 36.55257
486.0820, 37.30692
486.5641, 38.22569
487.0462, 39.20319
487.5283, 40.28130
488.0104, 41.36264
488.4926, 42.38387
488.9747, 43.28811
489.4568, 44.44855
489.9389, 45.87789
490.4210, 47.52460
490.9031, 49.28972
491.3853, 51.17279
491.8674, 53.31422
492.3495, 55.76130
492.8316, 58.43927
493.3137, 61.08247
493.7958, 63.73289
494.2780, 66.77540
494.7601, 70.47215
495.2422, 74.69341
495.7243, 79.20251
496.2064, 84.05736
496.6885, 88.87988
497.1707, 93.43106
497.6528, 97.85632
498.1349, 102.3582
498.6170, 107.0349
499.0992, 111.8034
499.5813, 116.7740
500.0634, 121.8408
500.5455, 126.7953
501.0276, 131.3619
501.5097, 135.9673
501.9919, 140.7837
502.4740, 145.7836
502.9561, 151.0904
503.4382, 156.9869
503.9203, 163.0583
504.4024, 169.0424
504.8846, 174.6291
505.3667, 180.6249
505.8488, 187.1403
506.3309, 194.0063
506.8130, 200.9341
507.2951, 207.9649
507.7773, 214.8135
508.2594, 221.5913
508.7415, 228.0607
509.2236, 233.1995
509.7057, 236.9948
510.1878, 239.6434
510.6700, 241.5730
511.1521, 242.5144
511.6342, 241.7924
512.1163, 239.3957
512.5984, 235.0201
513.0806, 228.0128
513.5627, 218.7984
514.0448, 208.2636
514.5269, 196.0237
515.0090, 183.2292
515.4911, 170.3611
515.9733, 157.4496
516.4554, 145.0534
516.9375, 132.8961
517.4196, 121.5419
517.9017, 111.3465
518.3839, 102.5029
518.8660, 94.40991
519.3481, 87.23434
519.8302, 80.72488
520.3123, 74.75386
520.7944, 69.19817
521.2766, 64.35562
521.7587, 60.41785
522.2408, 57.22349
522.7229, 53.96413
523.2050, 50.54472
523.6871, 47.41323
524.1693, 44.81558
524.6514, 42.76649
525.1335, 40.95497
525.6156, 39.39951
526.0977, 37.92078
526.5798, 36.20474
527.0620, 34.38415
527.5441, 32.91491
528.0262, 32.00982
528.5083, 31.27273
528.9904, 30.24708
529.4725, 29.06429
529.9547, 28.05269
530.4368, 27.48304
530.9189, 27.05900
531.4010, 26.63346
531.8831, 26.19111
532.3652, 25.71716
532.8474, 25.16478
533.3295, 24.60018
533.8116, 24.05819
534.2937, 23.56010
534.7758, 23.06323
535.2579, 22.54235
535.7401, 22.03513
536.2222, 21.61321
536.7043, 21.28864
537.1864, 21.00576
537.6685, 20.75129
538.1506, 20.52866
538.6328, 20.39725
539.1149, 20.38070
539.5970, 20.30036
540.0791, 19.98144
540.5612, 19.48930
541.0433, 19.16747
541.5255, 19.03975
542.0076, 18.96793
542.4897, 18.83934
542.9718, 18.66295
543.4539, 18.44684
543.9360, 18.16190
544.4182, 17.89768
544.9003, 17.75589
545.3824, 17.69054
545.8645, 17.59964
546.3466, 17.40662
546.8287, 17.21021
547.3109, 17.04210
547.7930, 16.90569
548.2751, 16.82921
548.7572, 16.88117
549.2393, 16.94477
549.7214, 16.95516
550.2036, 16.87903
550.6857, 16.83142
551.1678, 16.84507
551.6499, 16.85401
552.1320, 16.75099
552.6141, 16.51501
553.0963, 16.29250
553.5784, 16.08643
554.0605, 15.94203
554.5426, 16.06988
555.0247, 16.44946
555.5068, 16.70734
555.9890, 16.47310
556.4711, 16.01559
556.9532, 15.85217
557.4353, 16.00143
557.9174, 16.14427
558.3995, 16.05252
558.8817, 15.81974
559.3638, 15.52502
559.8459, 15.11068
560.3281, 14.79916
560.8102, 14.74939
561.2923, 14.84605
561.7744, 14.90893
562.2565, 14.91766
562.7386, 14.87440
563.2208, 14.76249
563.7029, 14.59349
564.1850, 14.42522
564.6671, 14.20357
565.1492, 14.08320
565.6313, 14.20328
566.1135, 14.59749
566.5956, 14.73181
567.0777, 14.55767
567.5598, 14.29098
568.0419, 14.13111
568.5240, 14.06985
569.0062, 14.06222
569.4883, 14.10588
569.9704, 14.18486
570.4525, 14.32954
570.9346, 14.49766
571.4167, 14.57478
571.8989, 14.33726
572.3810, 14.13422
572.8631, 14.29060
573.3452, 14.74518
573.8273, 15.08003
574.3094, 15.05615
574.7916, 14.93226
575.2737, 14.82049
575.7558, 14.68985
576.2379, 14.71117
576.7200, 14.95806
577.2021, 15.29715
577.6843, 15.61290
578.1664, 15.87945
578.6485, 16.21040
579.1306, 16.67406
579.6127, 17.14866
580.0948, 17.34571
580.5770, 17.26390
581.0591, 17.25186
581.5412, 17.46683
582.0233, 17.83039
582.5054, 18.19273
582.9875, 18.54912
583.4697, 18.90182
583.9518, 19.28082
584.4339, 19.63634
584.9160, 19.86324
585.3981, 19.92466
585.8802, 20.11414
