##NAMES=Linarite
##RRUFFID=R060472
##IDEAL CHEMISTRY=Pb^2+^Cu^2+^S^6+^O_4_(OH)_2_
##LOCALITY=Tiger, Arizona, USA
##OWNER=RRUFF
##SOURCE=Michael Scott
##DESCRIPTION=Blue tabular crystals
##STATUS=The identification of this mineral is confirmed by single-crystal X-ray diffraction and chemical analysis.
##URL=rruff.info/R060472
##MEASURED CHEMISTRY=Pb_1.00_Cu_1.00_(S_1.00_O_4_)(OH)_2_
159.0660, 35.84100
159.5481, 37.63045
160.0302, 38.28377
160.5123, 37.35099
160.9945, 35.74912
161.4766, 35.16222
161.9587, 37.05175
162.4408, 37.73682
162.9229, 36.60905
163.4050, 34.65364
163.8871, 32.48711
164.3693, 30.35637
164.8514, 28.60060
165.3335, 28.11549
165.8156, 29.85912
166.2977, 31.53325
166.7798, 33.51522
167.2620, 35.18794
167.7441, 35.25207
168.2262, 32.83779
168.7083, 29.18749
169.1904, 28.00569
169.6725, 30.50428
170.1547, 32.68537
170.6368, 32.36322
171.1189, 30.28411
171.6010, 29.10807
172.0831, 30.43501
172.5652, 33.09806
173.0474, 34.65566
173.5295, 34.94566
174.0116, 34.45797
174.4937, 33.07092
174.9758, 30.78442
175.4579, 29.23096
175.9401, 29.52305
176.4222, 30.78049
176.9043, 32.17003
177.3864, 33.65393
177.8685, 34.99066
178.3506, 36.16722
178.8328, 37.54578
179.3149, 37.37297
179.7970, 32.66313
180.2791, 27.27332
180.7612, 25.01428
181.2433, 27.59352
181.7255, 32.60950
182.2076, 34.74798
182.6897, 32.04970
183.1718, 29.95828
183.6539, 29.90626
184.1360, 30.81044
184.6181, 31.60637
185.1003, 31.78016
185.5824, 31.50586
186.0645, 31.40625
186.5466, 31.79068
187.0287, 31.96794
187.5108, 32.01908
187.9930, 31.77770
188.4751, 30.67786
188.9572, 28.29758
189.4393, 25.23645
189.9214, 24.98979
190.4035, 31.86402
190.8857, 36.76777
191.3678, 37.04543
191.8499, 34.26294
192.3320, 31.09758
192.8141, 29.06714
193.2962, 28.07841
193.7784, 27.46424
194.2605, 27.41888
194.7426, 27.43849
195.2247, 27.18377
195.7068, 26.82280
196.1889, 26.84583
196.6711, 27.58069
197.1532, 28.96096
197.6353, 30.44782
198.1174, 32.58907
198.5995, 34.34552
199.0816, 34.94695
199.5638, 34.53379
200.0459, 34.08136
200.5280, 34.32741
201.0101, 34.86544
201.4922, 34.59450
201.9743, 33.12770
202.4565, 31.19207
202.9386, 29.13397
203.4207, 26.92974
203.9028, 25.24080
204.3849, 24.37168
204.8670, 24.32766
205.3492, 25.29504
205.8313, 27.88821
206.3134, 30.75562
206.7955, 32.12761
207.2776, 31.74943
207.7597, 31.05231
208.2419, 30.05143
208.7240, 29.30068
209.2061, 29.65401
209.6882, 31.76341
210.1703, 34.31090
210.6524, 34.65788
211.1346, 31.57705
211.6167, 29.48263
212.0988, 30.76612
212.5809, 33.17535
213.0630, 34.53469
213.5451, 33.90608
214.0273, 32.07578
214.5094, 30.77816
214.9915, 30.21761
215.4736, 29.87636
215.9557, 29.32968
216.4378, 29.02824
216.9200, 29.73741
217.4021, 31.84809
217.8842, 34.48077
218.3663, 35.02914
218.8484, 31.32716
219.3305, 28.58550
219.8127, 27.59690
220.2948, 27.70347
220.7769, 28.37859
221.2590, 29.38400
221.7411, 30.49994
222.2232, 31.06989
222.7054, 30.46189
223.1875, 30.02080
223.6696, 29.88245
224.1517, 29.92915
224.6338, 29.98155
225.1159, 29.95743
225.5980, 29.97229
226.0802, 30.37119
226.5623, 31.98217
227.0444, 32.98579
227.5265, 32.97919
228.0086, 32.36737
228.4907, 31.57302
228.9729, 30.75717
229.4550, 30.00333
229.9371, 29.55792
230.4192, 29.53435
230.9013, 29.61265
231.3834, 30.23566
231.8656, 30.82508
232.3477, 30.29599
232.8298, 28.09481
233.3119, 25.16001
233.7940, 23.63774
234.2761, 23.98800
234.7583, 24.24139
235.2404, 23.34742
235.7225, 22.12285
236.2046, 22.37304
236.6867, 25.13277
237.1688, 28.45827
237.6510, 28.33498
238.1331, 24.14298
238.6152, 21.10855
239.0973, 21.74030
239.5794, 24.71990
240.0615, 27.23078
240.5437, 28.45190
241.0258, 29.17266
241.5079, 30.80547
241.9900, 33.41841
242.4721, 34.91041
242.9542, 33.04067
243.4364, 29.35321
243.9185, 28.36038
244.4006, 32.34256
244.8827, 36.54388
245.3648, 35.47078
245.8469, 29.84729
246.3290, 24.69564
246.8112, 22.29967
247.2933, 22.24756
247.7754, 23.58834
248.2575, 27.17880
248.7396, 30.50650
249.2217, 31.50012
249.7039, 30.64286
250.1860, 29.45128
250.6681, 28.64288
251.1502, 28.13375
251.6323, 27.51227
252.1144, 26.40896
252.5966, 25.82817
253.0787, 27.11113
253.5608, 29.33529
254.0429, 30.36254
254.5250, 28.20303
255.0071, 23.86210
255.4893, 21.28379
255.9714, 21.17039
256.4535, 21.85908
256.9356, 22.42691
257.4177, 23.15030
257.8998, 24.67770
258.3820, 27.96229
258.8641, 32.02324
259.3462, 33.06354
259.8283, 28.77231
260.3104, 25.20063
260.7925, 24.53539
261.2747, 25.56961
261.7568, 26.83663
262.2389, 27.71834
262.7210, 28.18831
263.2031, 28.08865
263.6852, 26.88298
264.1674, 26.02876
264.6495, 26.26781
265.1316, 26.81745
265.6137, 26.69107
266.0958, 25.41799
266.5779, 23.68043
267.0601, 23.22179
267.5422, 25.11323
268.0243, 26.37379
268.5064, 26.34950
268.9885, 25.73192
269.4706, 24.88337
269.9528, 23.96945
270.4349, 23.39374
270.9170, 24.13028
271.3991, 27.46109
271.8812, 29.53334
272.3633, 29.95257
272.8455, 29.34248
273.3276, 27.66728
273.8097, 25.12319
274.2918, 22.69428
274.7739, 22.10707
275.2560, 24.97963
275.7382, 26.21472
276.2202, 24.49426
276.7024, 22.47735
277.1845, 22.18473
277.6666, 23.68235
278.1487, 25.23788
278.6308, 24.39286
279.1129, 19.46986
279.5951, 18.12828
280.0772, 23.43797
280.5593, 29.01236
281.0414, 31.71454
281.5235, 31.41791
282.0056, 29.52249
282.4878, 27.15316
282.9699, 24.05116
283.4520, 22.36353
283.9341, 23.43516
284.4162, 24.39428
284.8983, 23.75160
285.3805, 21.95236
285.8626, 20.49281
286.3447, 20.63901
286.8268, 22.34533
287.3089, 22.76540
287.7910, 20.11641
288.2732, 18.19390
288.7553, 18.55117
289.2374, 20.41032
289.7195, 22.28107
290.2016, 23.29552
290.6837, 23.53284
291.1659, 23.40497
291.6480, 22.04614
292.1301, 21.33572
292.6122, 22.21922
293.0943, 23.77731
293.5764, 24.66738
294.0586, 24.26298
294.5407, 23.02599
295.0228, 22.20417
295.5049, 22.32043
295.9870, 22.22850
296.4691, 21.36200
296.9513, 20.49517
297.4334, 20.60748
297.9155, 21.98820
298.3976, 23.94808
298.8797, 25.34056
299.3618, 25.83799
299.8440, 26.30559
300.3261, 27.07352
300.8082, 27.60726
301.2903, 27.37900
301.7724, 26.32987
302.2545, 24.88177
302.7367, 23.44217
303.2188, 21.87439
303.7009, 21.03098
304.1830, 20.92727
304.6651, 21.44330
305.1472, 22.79235
305.6294, 24.80638
306.1115, 26.85781
306.5936, 28.42906
307.0757, 29.50338
307.5578, 30.32362
308.0399, 31.45144
308.5221, 31.84487
309.0042, 30.52773
309.4863, 28.04281
309.9684, 25.84240
310.4505, 24.91683
310.9326, 25.02138
311.4148, 24.46870
311.8969, 22.15875
312.3790, 20.55467
312.8611, 20.72082
313.3432, 21.89320
313.8253, 22.82660
314.3075, 22.94636
314.7896, 22.56227
315.2717, 22.46861
315.7538, 23.08117
316.2359, 23.38161
316.7180, 22.48058
317.2001, 21.58303
317.6823, 22.38765
318.1644, 25.33053
318.6465, 28.87191
319.1286, 30.74959
319.6107, 30.37440
320.0928, 29.38647
320.5750, 26.95845
321.0571, 24.49897
321.5392, 23.30448
322.0213, 23.40208
322.5034, 23.61016
322.9855, 22.63247
323.4677, 20.13729
323.9498, 19.01790
324.4319, 19.85104
324.9140, 21.28271
325.3961, 23.34825
325.8782, 25.54573
326.3604, 26.52458
326.8425, 25.08702
327.3246, 21.59263
327.8067, 20.16702
328.2888, 22.45360
328.7709, 24.62216
329.2531, 25.93333
329.7352, 26.44511
330.2173, 26.31401
330.6994, 25.60790
331.1815, 24.36152
331.6636, 22.64395
332.1458, 18.32428
332.6279, 16.26445
333.1100, 18.10704
333.5921, 21.53932
334.0742, 24.65849
334.5563, 26.81497
335.0385, 27.99494
335.5206, 28.16623
336.0027, 27.26596
336.4848, 25.26500
336.9669, 19.62036
337.4490, 14.94095
337.9312, 15.29439
338.4133, 20.13079
338.8954, 25.15198
339.3775, 26.19761
339.8596, 22.81122
340.3417, 21.20498
340.8239, 22.74863
341.3060, 24.38785
341.7881, 25.34118
342.2702, 25.55434
342.7523, 24.97618
343.2344, 23.49665
343.7166, 21.41858
344.1987, 20.23528
344.6808, 20.60452
345.1629, 21.21213
345.6450, 22.05855
346.1271, 23.04143
346.6093, 24.33232
347.0914, 25.93298
347.5735, 27.20931
348.0556, 26.72107
348.5377, 22.28064
349.0198, 20.10654
349.5020, 21.69300
349.9841, 24.09787
350.4662, 25.36512
350.9483, 25.27948
351.4304, 24.88183
351.9125, 25.53636
352.3947, 27.74785
352.8768, 27.59499
353.3589, 21.51060
353.8410, 16.62247
354.3231, 16.06026
354.8052, 18.66214
355.2874, 21.73993
355.7695, 23.57483
356.2516, 24.28552
356.7337, 24.55757
357.2158, 24.03906
357.6979, 23.53068
358.1800, 23.20470
358.6621, 22.95231
359.1443, 22.52269
359.6264, 21.82165
360.1085, 21.26453
360.5906, 21.64403
361.0727, 23.24569
361.5548, 25.07496
362.0370, 28.28744
362.5191, 30.74421
363.0012, 30.51116
363.4833, 27.75374
363.9654, 24.69864
364.4475, 23.90171
364.9297, 25.57554
365.4118, 25.85158
365.8939, 22.92468
366.3760, 20.55759
366.8581, 20.53519
367.3402, 22.16585
367.8224, 24.03126
368.3045, 25.53552
368.7866, 26.50936
369.2687, 26.26471
369.7508, 24.18339
370.2329, 22.23745
370.7151, 21.22457
371.1972, 20.59793
371.6793, 19.62151
372.1614, 17.99377
372.6435, 16.76046
373.1256, 17.83309
373.6078, 21.47641
374.0899, 23.50465
374.5720, 21.51426
375.0541, 18.95791
375.5362, 18.52283
376.0183, 20.10612
376.5005, 21.83441
376.9826, 22.42032
377.4647, 22.15692
377.9468, 22.12246
378.4289, 22.41410
378.9110, 22.86302
379.3932, 23.99177
379.8753, 25.16316
380.3574, 24.92370
380.8395, 21.75389
381.3216, 17.95783
381.8037, 16.30753
382.2859, 16.82051
382.7680, 18.40518
383.2501, 21.41645
383.7322, 24.69355
384.2143, 26.41845
384.6964, 26.22642
385.1786, 25.62435
385.6607, 25.38650
386.1428, 25.39047
386.6249, 25.47088
387.1070, 25.78763
387.5891, 25.59864
388.0713, 22.94165
388.5534, 18.10861
389.0355, 15.95938
389.5176, 19.81630
389.9997, 25.34750
390.4818, 28.12643
390.9640, 28.01964
391.4461, 27.62587
391.9282, 29.17377
392.4103, 31.78484
392.8924, 31.09443
393.3745, 23.98118
393.8567, 17.28323
394.3388, 13.61781
394.8209, 12.26102
395.3030, 12.20633
395.7851, 13.22059
396.2672, 14.46592
396.7494, 14.28525
397.2315, 11.34966
397.7136, 10.25350
398.1957, 12.35924
398.6778, 15.58916
399.1599, 18.87550
399.6420, 21.77644
400.1241, 23.29858
400.6063, 22.27470
401.0884, 18.57424
401.5705, 16.73288
402.0526, 18.52937
402.5347, 19.93633
403.0168, 18.90989
403.4990, 16.84442
403.9811, 16.46672
404.4632, 19.12478
404.9453, 23.09138
405.4274, 23.91874
405.9095, 17.94970
406.3917, 15.06048
406.8738, 18.06655
407.3559, 22.09360
407.8380, 23.60819
408.3201, 22.28161
408.8022, 20.09592
409.2844, 18.91833
409.7665, 18.79817
410.2486, 19.03519
410.7307, 20.07814
411.2128, 21.00114
411.6949, 21.42250
412.1771, 21.56621
412.6592, 21.87760
413.1413, 22.63806
413.6234, 23.47243
414.1055, 23.48380
414.5876, 22.36984
415.0698, 21.35035
415.5519, 20.87923
416.0340, 20.49331
416.5161, 19.77334
416.9982, 18.70130
417.4803, 17.80044
417.9625, 17.26404
418.4446, 17.18029
418.9267, 18.50170
419.4088, 22.51430
419.8909, 25.68062
420.3730, 25.17202
420.8552, 22.27081
421.3373, 19.38039
421.8194, 16.82679
422.3015, 15.12226
422.7836, 15.44432
423.2657, 17.75981
423.7479, 19.40919
424.2300, 18.95858
424.7121, 17.60598
425.1942, 17.31450
425.6763, 18.27623
426.1584, 19.25919
426.6406, 19.21195
427.1227, 18.99362
427.6048, 20.28119
428.0869, 23.44168
428.5690, 27.08512
429.0511, 30.30334
429.5333, 32.95860
430.0154, 33.98827
430.4975, 31.95845
430.9796, 29.64825
431.4617, 28.16117
431.9438, 27.62430
432.4260, 28.52488
432.9081, 31.29650
433.3902, 34.82101
433.8723, 36.41621
434.3544, 34.86213
434.8365, 33.28320
435.3187, 31.79292
435.8008, 30.30377
436.2829, 28.58234
436.7650, 26.70808
437.2471, 25.15147
437.7292, 24.36843
438.2114, 24.37057
438.6935, 24.58765
439.1756, 25.22891
439.6577, 25.85738
440.1398, 26.77457
440.6219, 27.49123
441.1040, 27.03607
441.5862, 25.01297
442.0683, 22.65143
442.5504, 22.51200
443.0325, 25.72812
443.5146, 27.67658
443.9967, 26.87855
444.4789, 25.62174
444.9610, 25.07152
445.4431, 25.15087
445.9252, 25.12560
446.4073, 24.42090
446.8894, 23.20599
447.3716, 22.06297
447.8537, 20.86945
448.3358, 20.06158
448.8179, 20.43078
449.3000, 21.02414
449.7821, 20.51354
450.2643, 18.31340
450.7464, 16.50099
451.2285, 17.33115
451.7106, 20.26758
452.1927, 22.62380
452.6748, 23.82964
453.1570, 24.40717
453.6391, 24.91599
454.1212, 25.29560
454.6033, 25.00189
455.0854, 22.85462
455.5675, 20.76062
456.0497, 20.68467
456.5318, 22.38633
457.0139, 24.33550
457.4960, 26.01242
457.9781, 27.12332
458.4602, 26.60806
458.9424, 23.33535
459.4245, 21.07397
459.9066, 21.08383
460.3887, 22.08704
460.8708, 23.07566
461.3529, 23.76839
461.8351, 23.85542
462.3172, 22.89998
462.7993, 20.84622
463.2814, 19.69893
463.7635, 20.11217
464.2456, 20.61132
464.7278, 20.92568
465.2099, 21.07400
465.6920, 21.06290
466.1741, 20.90417
466.6562, 20.74743
467.1383, 20.86151
467.6205, 21.33845
468.1026, 21.80532
468.5847, 22.58033
469.0668, 23.04061
469.5489, 22.91626
470.0310, 22.22841
470.5132, 21.01846
470.9953, 19.03663
471.4774, 16.81175
471.9595, 15.87525
472.4416, 16.61141
472.9237, 17.19399
473.4059, 16.26848
473.8880, 15.35363
474.3701, 16.19819
474.8522, 19.05961
475.3343, 21.62331
475.8164, 22.08330
476.2986, 21.15494
476.7807, 20.59937
477.2628, 20.65110
477.7449, 20.88136
478.2270, 21.19616
478.7091, 21.42657
479.1913, 20.94774
479.6734, 18.39122
480.1555, 16.60624
480.6376, 18.02102
481.1197, 21.17298
481.6018, 22.78404
482.0839, 21.72076
482.5660, 19.72158
483.0482, 19.29530
483.5303, 21.19855
484.0124, 21.89324
484.4945, 20.48934
484.9766, 18.79344
485.4587, 17.39917
485.9409, 16.50962
486.4230, 16.51729
486.9051, 17.71202
487.3872, 19.49607
487.8693, 20.05978
488.3514, 18.49569
488.8336, 17.40458
489.3157, 17.01513
489.7978, 17.04681
490.2799, 17.40782
490.7620, 18.03386
491.2441, 18.79848
491.7263, 19.56921
492.2084, 20.39442
492.6905, 21.83187
493.1726, 24.81146
493.6547, 26.14851
494.1368, 21.87914
494.6190, 16.58849
495.1011, 15.69088
495.5832, 20.67735
496.0653, 25.60667
496.5474, 24.80323
497.0295, 20.32597
497.5117, 18.80863
497.9938, 21.78130
498.4759, 25.36486
498.9580, 26.38813
499.4401, 25.25350
499.9222, 24.39963
500.4044, 24.06733
500.8865, 23.94374
501.3686, 23.86475
501.8507, 23.87568
502.3328, 24.14515
502.8149, 24.74196
503.2971, 25.37162
503.7792, 25.60233
504.2613, 25.29771
504.7434, 25.06706
505.2255, 25.39969
505.7076, 25.32144
506.1898, 23.64221
506.6719, 21.27268
507.1540, 20.13959
507.6361, 21.28860
508.1182, 23.83206
508.6003, 25.82679
509.0825, 27.36941
509.5646, 28.10066
510.0467, 28.05557
510.5288, 27.12897
511.0109, 24.35153
511.4930, 20.43016
511.9752, 17.69518
512.4573, 18.08172
512.9394, 20.31956
513.4215, 21.51235
513.9036, 21.53905
514.3857, 21.29597
514.8679, 20.97046
515.3500, 20.64933
515.8321, 20.59068
516.3142, 20.88457
516.7963, 20.64910
517.2784, 19.14364
517.7606, 17.05168
518.2427, 15.23150
518.7248, 13.77273
519.2069, 12.49796
519.6890, 11.05518
520.1711, 9.782447
520.6533, 10.50211
521.1354, 14.92343
521.6175, 18.73071
522.0996, 21.31530
522.5817, 22.89745
523.0638, 23.42858
523.5460, 23.04220
524.0281, 22.31873
524.5102, 21.83165
524.9923, 21.56665
525.4744, 20.85473
525.9565, 18.86857
526.4387, 17.55042
526.9208, 17.60801
527.4029, 18.31874
527.8850, 19.25657
528.3671, 20.23419
528.8492, 20.45670
529.3314, 18.28898
529.8135, 14.14198
530.2956, 12.23864
530.7777, 13.53077
531.2598, 15.59610
531.7419, 17.91135
532.2241, 19.79182
532.7062, 19.77416
533.1883, 16.63332
533.6704, 13.50762
534.1525, 12.43395
534.6346, 12.97726
535.1168, 14.45412
535.5989, 16.82207
536.0810, 18.92474
536.5631, 19.55998
537.0452, 18.64527
537.5273, 17.53526
538.0095, 15.38269
538.4916, 13.98890
538.9737, 15.39099
539.4558, 17.51124
539.9379, 16.31151
540.4200, 10.78685
540.9022, 5.167283
541.3843, 5.997233
541.8664, 14.99965
542.3485, 20.70239
542.8306, 20.91072
543.3127, 19.95701
543.7948, 18.53922
544.2769, 17.00982
544.7590, 15.58578
545.2411, 14.24755
545.7233, 13.69094
546.2054, 15.68027
546.6875, 19.92263
547.1696, 21.59545
547.6517, 18.79183
548.1339, 15.54418
548.6160, 15.91069
549.0981, 18.62232
549.5802, 20.11199
550.0623, 18.39910
550.5444, 16.69595
551.0266, 17.99300
551.5087, 20.78463
551.9908, 21.08022
552.4729, 17.57290
552.9550, 13.44390
553.4371, 12.86815
553.9193, 16.76022
554.4014, 18.64432
554.8835, 16.50913
555.3656, 14.89313
555.8477, 16.39514
556.3298, 19.14860
556.8120, 20.08901
557.2941, 18.15364
557.7762, 15.16705
558.2583, 13.74032
558.7404, 14.08700
559.2225, 14.24168
559.7047, 13.87404
560.1868, 13.69139
560.6689, 13.90492
561.1510, 14.52574
561.6331, 15.63561
562.1152, 17.37922
562.5974, 19.26907
563.0795, 21.33134
563.5616, 23.23223
564.0437, 23.39224
564.5258, 21.15172
565.0079, 18.78774
565.4901, 18.62115
565.9722, 20.51611
566.4543, 21.16812
566.9364, 19.43722
567.4185, 17.77950
567.9006, 17.09622
568.3828, 17.06720
568.8649, 17.16282
569.3470, 17.26376
569.8291, 17.75570
570.3112, 19.27414
570.7933, 21.95789
571.2755, 23.22959
571.7576, 21.94933
572.2397, 20.63081
572.7218, 19.25261
573.2039, 18.45840
573.6860, 19.61702
574.1682, 22.97203
574.6503, 25.57418
575.1324, 23.67764
575.6145, 18.46983
576.0966, 15.28889
576.5787, 14.70272
577.0609, 15.24050
577.5430, 16.62643
578.0251, 18.35406
578.5072, 19.29029
578.9893, 19.43672
579.4714, 18.73685
579.9536, 16.37395
580.4357, 13.56767
580.9178, 11.88642
581.3999, 11.44880
581.8820, 11.26843
582.3641, 10.53617
582.8463, 9.477513
583.3284, 9.473077
583.8105, 12.78049
584.2926, 13.78920
584.7747, 9.108468
585.2568, 4.342150
585.7390, 4.313574
586.2211, 8.686615
586.7032, 13.47168
587.1853, 15.80779
587.6674, 16.53853
588.1495, 18.00692
588.6317, 20.40519
589.1138, 22.39968
589.5959, 23.81307
590.0780, 24.35992
590.5601, 23.32746
591.0422, 20.74876
591.5244, 19.06453
592.0065, 20.04041
592.4886, 21.42879
592.9707, 20.76681
593.4528, 18.66702
593.9349, 17.64515
594.4171, 18.90946
594.8992, 21.02081
595.3813, 21.41135
595.8634, 19.35125
596.3455, 17.69017
596.8276, 15.63768
597.3098, 14.73870
597.7919, 16.55414
598.2740, 19.73165
598.7561, 22.12189
599.2382, 22.85815
599.7203, 22.45324
600.2025, 21.15711
600.6846, 19.01303
601.1667, 17.93727
601.6488, 18.56194
602.1309, 19.38604
602.6130, 19.14927
603.0952, 18.41208
603.5773, 18.33838
604.0594, 19.28982
604.5415, 20.51252
605.0236, 21.62078
605.5057, 22.76090
605.9879, 24.57388
606.4700, 26.99188
606.9521, 28.37486
607.4342, 27.10284
607.9163, 23.67897
608.3984, 21.93503
608.8806, 23.45215
609.3627, 24.54661
609.8448, 24.41444
610.3269, 24.12886
610.8090, 24.84847
611.2911, 26.35913
611.7733, 27.24645
612.2554, 26.21002
612.7375, 24.17826
613.2196, 23.61174
613.7017, 24.72969
614.1838, 24.76429
614.6660, 21.94353
615.1481, 18.84278
615.6302, 18.92771
616.1123, 21.94207
616.5944, 24.20802
617.0765, 24.96368
617.5587, 24.75782
618.0408, 23.00068
618.5229, 20.68350
619.0050, 20.14538
619.4871, 22.17019
619.9692, 25.04088
620.4514, 26.41702
620.9335, 26.07070
621.4156, 25.99780
621.8977, 26.10733
622.3798, 26.63280
622.8619, 28.34164
623.3441, 30.14091
623.8262, 30.58232
624.3083, 29.35593
624.7904, 27.86384
625.2725, 27.28688
625.7546, 27.35798
626.2367, 27.32132
626.7188, 27.11677
627.2009, 27.10218
627.6830, 27.53404
628.1652, 28.21719
628.6473, 28.67754
629.1294, 28.78230
629.6115, 29.11862
630.0936, 30.41877
630.5757, 31.42892
631.0579, 31.19807
631.5400, 29.89740
632.0221, 28.20618
632.5042, 26.48218
632.9863, 24.41180
633.4684, 20.80051
633.9506, 14.66711
634.4327, 12.02618
634.9148, 16.36362
635.3969, 20.21798
635.8790, 18.52906
636.3611, 14.27065
636.8433, 12.89744
637.3254, 16.57561
637.8075, 20.68296
638.2896, 21.85519
638.7717, 21.12110
639.2538, 20.19637
639.7360, 19.35807
640.2181, 18.94372
640.7002, 19.21847
641.1823, 20.07858
641.6644, 21.11667
642.1465, 23.15835
642.6287, 24.18911
643.1108, 23.77555
643.5929, 22.70544
644.0750, 20.83132
644.5571, 18.75499
645.0392, 18.04116
645.5214, 19.90864
646.0035, 22.39896
646.4856, 21.51204
646.9677, 17.26889
647.4498, 15.15308
647.9319, 16.94744
648.4141, 19.33143
648.8962, 19.45679
649.3783, 17.89425
649.8604, 16.76004
650.3425, 15.66097
650.8246, 15.76793
651.3068, 19.37070
651.7889, 23.48083
652.2710, 23.72449
652.7531, 20.04520
653.2352, 16.19254
653.7173, 15.10996
654.1995, 16.17044
654.6816, 16.84185
655.1637, 17.23896
655.6458, 16.96283
656.1279, 15.16783
