##NAMES=Linarite
##RRUFFID=R060130
##IDEAL CHEMISTRY=Pb^2+^Cu^2+^S^6+^O_4_(OH)_2_
##LOCALITY=Graham County, Arizona, USA
##OWNER=RRUFF
##SOURCE=University of Arizona Mineral Museum
##DESCRIPTION=Azure-blue fragments in quartz
##STATUS=The identification of this mineral has been confirmed by X-ray diffraction and chemical analysis
##URL=rruff.info/R060130
##MEASURED CHEMISTRY=Pb_1.00_Cu_1.00_(S_1.00_O_4_)(OH)_2_
92.02539, 94.70432
92.50751, 97.89953
92.98962, 100.0968
93.47174, 98.70120
93.95386, 95.96030
94.43597, 93.30560
94.91809, 91.54307
95.40021, 90.42849
95.88232, 88.79785
96.36444, 86.47526
96.84656, 83.89768
97.32867, 81.26810
97.81078, 78.57030
98.29290, 75.69509
98.77502, 72.40310
99.25713, 68.41119
99.73925, 65.46667
100.2214, 64.07880
100.7035, 62.97795
101.1856, 61.59113
101.6677, 59.86890
102.1498, 58.12320
102.6320, 56.71307
103.1141, 55.65987
103.5962, 54.99416
104.0783, 55.06014
104.5604, 55.36116
105.0425, 55.28872
105.5247, 54.60593
106.0068, 53.70459
106.4889, 53.36779
106.9710, 53.73449
107.4531, 53.79381
107.9352, 53.00029
108.4173, 51.46462
108.8995, 49.77170
109.3816, 47.99457
109.8637, 46.23548
110.3458, 44.53534
110.8279, 42.84275
111.3100, 41.38326
111.7922, 40.48486
112.2743, 40.29974
112.7564, 40.21309
113.2385, 40.15435
113.7206, 40.05537
114.2027, 39.82261
114.6849, 39.39856
115.1670, 38.86302
115.6491, 38.50413
116.1312, 38.41135
116.6133, 38.41639
117.0954, 38.66027
117.5776, 38.96044
118.0597, 39.02592
118.5418, 38.62529
119.0239, 37.74666
119.5060, 37.17324
119.9881, 36.88659
120.4703, 36.84079
120.9524, 37.20451
121.4345, 37.87399
121.9166, 38.47155
122.3987, 38.67050
122.8808, 38.39150
123.3630, 37.82293
123.8451, 36.73127
124.3272, 35.46736
124.8093, 34.35141
125.2914, 33.42593
125.7735, 32.66393
126.2557, 32.05328
126.7378, 31.57211
127.2199, 31.26824
127.7020, 31.25225
128.1841, 31.44514
128.6662, 31.62672
129.1483, 31.88881
129.6305, 31.94654
130.1126, 31.59237
130.5947, 30.84924
131.0768, 29.94987
131.5589, 29.01225
132.0410, 28.00641
132.5232, 27.21284
133.0053, 26.73149
133.4874, 26.43229
133.9695, 26.31161
134.4516, 26.35225
134.9337, 26.47584
135.4159, 26.57471
135.8980, 26.67837
136.3801, 26.68877
136.8622, 26.63099
137.3443, 26.48238
137.8264, 26.17886
138.3086, 25.70305
138.7907, 25.14636
139.2728, 24.77169
139.7549, 24.77364
140.2370, 24.74142
140.7191, 24.65645
141.2013, 24.51735
141.6834, 24.32525
142.1655, 24.08300
142.6476, 23.78468
143.1297, 23.40812
143.6118, 22.81955
144.0939, 22.30669
144.5761, 22.00551
145.0582, 21.88995
145.5403, 21.84679
146.0224, 21.85563
146.5045, 21.87319
146.9866, 21.78399
147.4688, 21.46383
147.9509, 21.13457
148.4330, 21.06249
148.9151, 21.29651
149.3972, 21.48001
149.8793, 21.20401
150.3615, 20.78158
150.8436, 20.64007
151.3257, 21.12137
151.8078, 21.88506
152.2899, 22.10432
152.7720, 21.47046
153.2542, 20.81263
153.7363, 20.43276
154.2184, 20.25895
154.7005, 20.19489
155.1826, 20.22011
155.6647, 20.31530
156.1469, 20.27398
156.6290, 19.87520
157.1111, 19.55146
157.5932, 19.47667
158.0753, 19.57237
158.5574, 19.66090
159.0396, 19.58751
159.5217, 19.33001
160.0038, 19.11109
160.4859, 18.92896
160.9680, 18.77960
161.4501, 18.66775
161.9323, 18.59042
162.4144, 18.53724
162.8965, 18.49665
163.3786, 18.46545
163.8607, 18.47513
164.3428, 18.61094
164.8250, 18.72687
165.3071, 18.67357
165.7892, 18.43744
166.2713, 18.19240
166.7534, 18.19058
167.2355, 18.48912
167.7177, 18.58527
168.1998, 18.23197
168.6819, 17.71495
169.1640, 17.40341
169.6461, 17.38665
170.1282, 17.52644
170.6104, 17.72787
171.0925, 17.98352
171.5746, 18.13598
172.0567, 18.03370
172.5388, 17.77011
173.0209, 17.63649
173.5031, 17.76403
173.9852, 17.92463
174.4673, 17.90117
174.9494, 17.71066
175.4315, 17.51173
175.9136, 17.42692
176.3958, 17.45169
176.8779, 17.45838
177.3600, 17.43306
177.8421, 17.37870
178.3242, 17.26567
178.8063, 17.10535
179.2885, 16.97680
179.7706, 17.00047
180.2527, 17.24198
180.7348, 17.34553
181.2169, 17.14267
181.6990, 16.90608
182.1812, 16.79467
182.6633, 16.82445
183.1454, 16.88938
183.6275, 16.82702
184.1096, 16.52991
184.5917, 16.33453
185.0738, 16.25614
185.5560, 16.24839
186.0381, 16.36214
186.5202, 16.57915
187.0023, 16.73260
187.4844, 16.44867
187.9665, 16.49479
188.4487, 16.48943
188.9308, 16.43537
189.4129, 16.18673
189.8950, 16.18935
190.3771, 16.09128
190.8592, 15.98908
191.3414, 16.20429
191.8235, 16.10229
192.3056, 15.98136
192.7877, 15.83205
193.2698, 15.68924
193.7519, 15.59411
194.2341, 15.55916
194.7162, 15.58537
195.1983, 15.71715
195.6804, 16.01830
196.1625, 16.20287
196.6446, 16.14082
197.1268, 15.89939
197.6089, 15.60446
198.0910, 15.24992
198.5731, 14.93837
199.0552, 14.83503
199.5373, 14.95820
200.0195, 15.13046
200.5016, 15.26873
200.9837, 15.37903
201.4658, 15.50031
201.9479, 15.69353
202.4300, 15.84540
202.9122, 15.80536
203.3943, 15.54962
203.8764, 15.31175
204.3585, 15.33290
204.8406, 15.61087
205.3227, 15.76873
205.8048, 15.61035
206.2870, 15.37288
206.7691, 15.22745
207.2512, 15.19301
207.7333, 15.18042
208.2154, 15.05808
208.6975, 14.78248
209.1797, 14.65772
209.6618, 14.94484
210.1439, 15.25815
210.6260, 15.37280
211.1081, 15.25608
211.5902, 15.04448
212.0724, 14.89430
212.5545, 14.79600
213.0366, 14.79861
213.5187, 15.05647
214.0008, 15.30056
214.4829, 15.31958
214.9651, 15.09317
215.4472, 14.80502
215.9293, 14.75511
216.4114, 15.18375
216.8935, 15.34203
217.3756, 15.03783
217.8578, 14.64604
218.3399, 14.37749
218.8220, 14.29800
219.3041, 14.39111
219.7862, 14.65468
220.2683, 15.28193
220.7505, 15.69456
221.2326, 15.84854
221.7147, 15.84489
222.1968, 15.67760
222.6789, 15.37374
223.1610, 15.10756
223.6432, 15.16695
224.1253, 15.91366
224.6074, 16.20682
225.0895, 15.65069
225.5716, 14.86744
226.0537, 14.40737
226.5358, 14.39906
227.0180, 14.63796
227.5001, 14.87634
227.9822, 15.15551
228.4643, 15.27268
228.9464, 15.02575
229.4285, 14.69767
229.9107, 14.64679
230.3928, 14.96142
230.8749, 15.33564
231.3570, 15.32707
231.8391, 14.89000
232.3212, 14.59271
232.8034, 14.63655
233.2855, 14.82425
233.7676, 14.91958
234.2497, 14.88012
234.7318, 14.75022
235.2139, 14.49123
235.6961, 14.12596
236.1782, 13.93816
236.6603, 14.11647
237.1424, 14.48014
237.6245, 14.75676
238.1066, 14.90329
238.5888, 14.99941
239.0709, 15.16651
239.5530, 15.36262
240.0351, 15.41548
240.5172, 15.12166
240.9993, 14.67467
241.4815, 14.44517
241.9636, 14.48429
242.4457, 14.66962
242.9278, 15.02270
243.4099, 15.45358
243.8920, 15.76168
244.3742, 15.83978
244.8563, 15.74061
245.3384, 15.54725
245.8205, 15.18335
246.3026, 14.90268
246.7847, 14.91858
247.2668, 15.09487
247.7490, 15.22325
248.2311, 15.23001
248.7132, 15.11868
249.1953, 14.86554
249.6774, 14.37474
250.1595, 13.93962
250.6417, 13.67329
251.1238, 13.52954
251.6059, 13.47749
252.0880, 13.54200
252.5701, 13.64119
253.0522, 13.54939
253.5344, 13.15558
254.0165, 12.78538
254.4986, 12.56289
254.9807, 12.40334
255.4628, 12.17998
255.9449, 11.81606
256.4271, 11.44491
256.9092, 11.42940
257.3913, 12.07808
257.8734, 12.49077
258.3555, 12.33768
258.8376, 11.98137
259.3198, 11.77115
259.8019, 11.84514
260.2840, 12.05761
260.7661, 12.09053
261.2482, 11.79961
261.7303, 11.60244
262.2125, 11.57946
262.6946, 11.63303
263.1767, 11.69137
263.6588, 11.72971
264.1409, 11.75577
264.6230, 11.78460
265.1052, 11.82544
265.5873, 11.84943
266.0694, 11.91932
266.5515, 11.93532
267.0336, 11.77227
267.5157, 11.42539
267.9979, 11.04710
268.4800, 10.88040
268.9621, 11.08111
269.4442, 11.15825
269.9263, 10.99645
270.4084, 10.82076
270.8906, 10.79949
271.3727, 10.94152
271.8548, 11.11799
272.3369, 11.16563
272.8190, 11.02463
273.3011, 10.95253
273.7833, 11.01308
274.2654, 11.07576
274.7475, 11.04875
275.2296, 10.94191
275.7117, 10.84386
276.1938, 10.85437
276.6760, 11.01169
277.1581, 11.03443
277.6402, 10.82665
278.1223, 10.60630
278.6044, 10.43019
279.0865, 10.32326
279.5686, 10.32704
280.0508, 10.48845
280.5329, 10.81161
281.0150, 11.07077
281.4971, 11.24385
281.9792, 11.39065
282.4613, 11.60048
282.9435, 11.80639
283.4256, 11.82411
283.9077, 11.50467
284.3898, 10.90701
284.8719, 10.58561
285.3540, 10.70182
285.8362, 10.86222
286.3183, 11.02288
286.8004, 11.15170
287.2825, 11.19667
287.7646, 11.12704
288.2467, 10.96712
288.7289, 10.79696
289.2110, 10.58833
289.6931, 10.40528
290.1752, 10.22506
290.6573, 10.08566
291.1394, 10.06781
291.6216, 10.20883
292.1037, 10.41966
292.5858, 10.51534
293.0679, 10.43351
293.5500, 10.35598
294.0321, 10.32476
294.5143, 10.29574
294.9964, 10.20143
295.4785, 10.02388
295.9606, 9.836088
296.4427, 9.742018
296.9248, 9.773044
297.4070, 9.816724
297.8891, 9.863209
298.3712, 9.924628
298.8533, 10.03191
299.3354, 10.18349
299.8175, 10.31653
300.2997, 10.36148
300.7818, 10.29995
301.2639, 10.25800
301.7460, 10.27293
302.2281, 10.27834
302.7102, 10.21268
303.1924, 10.08322
303.6745, 9.951013
304.1566, 9.842973
304.6387, 9.771875
305.1208, 9.842502
305.6029, 10.24882
306.0851, 10.59676
306.5672, 10.65882
307.0493, 10.49034
307.5314, 10.26948
308.0135, 10.07374
308.4956, 9.921179
308.9778, 9.896199
309.4599, 10.12721
309.9420, 10.30330
310.4241, 10.27087
310.9062, 10.11860
311.3883, 10.01945
311.8705, 10.04749
312.3526, 10.15475
312.8347, 10.24473
313.3168, 10.33878
313.7989, 10.37439
314.2810, 10.28627
314.7632, 10.15090
315.2453, 10.07781
315.7274, 10.09916
316.2095, 10.15005
316.6916, 10.13958
317.1737, 10.04977
317.6559, 9.977056
318.1380, 9.902950
318.6201, 9.864587
319.1022, 9.924087
319.5843, 10.08241
320.0664, 10.23920
320.5485, 10.29815
321.0306, 10.24831
321.5128, 10.21308
321.9949, 10.20684
322.4770, 10.20244
322.9591, 10.18503
323.4412, 10.15421
323.9233, 10.11128
324.4055, 10.05294
324.8876, 9.983829
325.3697, 9.938970
325.8518, 9.898280
326.3339, 9.897860
326.8160, 10.00265
327.2982, 10.15698
327.7803, 10.22886
328.2624, 10.14497
328.7445, 9.972309
329.2266, 9.894363
329.7087, 9.966548
330.1909, 10.01832
330.6730, 9.981497
331.1551, 9.920017
331.6372, 9.920789
332.1193, 10.00949
332.6014, 10.14372
333.0836, 10.26054
333.5657, 10.33658
334.0478, 10.47405
334.5299, 10.84398
335.0120, 11.16659
335.4941, 11.12279
335.9763, 10.71501
336.4584, 10.31059
336.9405, 10.28203
337.4226, 10.67688
337.9047, 10.83852
338.3868, 10.58415
338.8690, 10.29873
339.3511, 10.13677
339.8332, 10.10630
340.3153, 10.21055
340.7974, 10.47788
341.2795, 10.86131
341.7617, 11.04560
342.2438, 10.90619
342.7259, 10.74773
343.2080, 10.61135
343.6901, 10.50404
344.1722, 10.44080
344.6544, 10.42889
345.1365, 10.44650
345.6186, 10.44971
346.1007, 10.44982
346.5828, 10.41295
347.0649, 10.28626
347.5471, 10.15342
348.0292, 10.10470
348.5113, 10.14966
348.9934, 10.21057
349.4755, 10.19098
349.9576, 10.06276
350.4398, 9.967645
350.9219, 9.935581
351.4040, 9.903955
351.8861, 9.799628
352.3682, 9.659188
352.8503, 9.606948
353.3325, 9.755069
353.8146, 10.08222
354.2967, 10.25037
354.7788, 10.07600
355.2609, 9.952718
355.7430, 10.04763
356.2252, 10.22130
356.7073, 10.24840
357.1894, 10.01930
357.6715, 9.654914
358.1536, 9.457818
358.6357, 9.526875
359.1179, 9.629501
359.5999, 9.855795
360.0821, 10.04795
360.5642, 10.05185
361.0463, 9.850983
361.5284, 9.570083
362.0105, 9.355574
362.4926, 9.211005
362.9748, 9.123553
363.4569, 9.126414
363.9390, 9.151187
364.4211, 9.212648
364.9032, 9.275814
365.3853, 9.257259
365.8675, 9.076082
366.3496, 8.757197
366.8317, 8.541067
367.3138, 8.489397
367.7959, 8.471972
368.2780, 8.438225
368.7602, 8.428015
369.2423, 8.523885
369.7244, 8.767397
370.2065, 9.041767
370.6886, 9.099626
371.1707, 8.849283
371.6529, 8.608435
372.1350, 8.346637
372.6171, 8.160415
373.0992, 8.160654
373.5813, 8.340928
374.0634, 8.542035
374.5456, 8.578800
375.0277, 8.440403
375.5098, 8.381257
375.9919, 8.527232
376.4740, 8.618338
376.9561, 8.450657
377.4383, 8.137010
377.9204, 7.952411
378.4025, 8.128825
378.8846, 8.498813
379.3667, 8.558609
379.8488, 8.173415
380.3310, 7.826409
380.8131, 7.710621
381.2952, 7.731604
381.7773, 7.841208
382.2594, 8.055495
382.7415, 8.224804
383.2237, 8.077169
383.7058, 7.615630
384.1879, 7.456895
384.6700, 7.991686
385.1521, 8.631524
385.6342, 8.835279
386.1164, 8.622133
386.5985, 8.343749
387.0806, 8.189853
387.5627, 8.111279
388.0448, 7.961387
388.5269, 7.687596
389.0091, 7.483815
389.4912, 7.589835
389.9733, 7.873305
390.4554, 8.039401
390.9375, 7.929080
391.4196, 7.771757
391.9018, 7.795970
392.3839, 7.981865
392.8660, 8.152068
393.3481, 8.245294
393.8302, 8.259902
394.3123, 8.189041
394.7945, 8.004061
395.2766, 7.835684
395.7587, 7.743697
396.2408, 7.699560
396.7229, 7.655195
397.2050, 7.598643
397.6872, 7.548257
398.1693, 7.511661
398.6514, 7.487964
399.1335, 7.548240
399.6156, 7.868285
400.0977, 8.134910
400.5798, 8.078753
401.0620, 7.747190
401.5441, 7.278313
402.0262, 7.424946
402.5083, 7.520103
402.9904, 7.566555
403.4725, 7.418417
403.9547, 7.521558
404.4368, 7.523993
404.9189, 7.487035
405.4010, 7.456416
405.8831, 7.499212
406.3652, 7.570000
406.8474, 7.606813
407.3295, 7.616580
407.8116, 7.562044
408.2937, 7.309459
408.7758, 7.117260
409.2579, 7.196196
409.7401, 7.478926
410.2222, 7.719784
410.7043, 7.727227
411.1864, 7.537797
411.6685, 7.478622
412.1506, 7.756325
412.6328, 7.910172
413.1149, 7.756317
413.5970, 7.498561
414.0791, 7.367611
414.5612, 7.440709
415.0433, 7.613297
415.5255, 7.742009
416.0076, 7.842921
416.4897, 7.843992
416.9718, 7.576934
417.4539, 7.348579
417.9360, 7.342947
418.4182, 7.517161
418.9003, 7.689380
419.3824, 7.716172
419.8645, 7.637015
420.3466, 7.642343
420.8287, 7.792645
421.3109, 7.900194
421.7930, 7.816154
422.2751, 7.681458
422.7572, 7.681092
423.2393, 7.892908
423.7214, 8.115753
424.2036, 8.084452
424.6857, 7.812206
425.1678, 7.649032
425.6499, 7.705603
426.1320, 7.856993
426.6141, 8.015990
427.0963, 8.174957
427.5784, 8.267388
428.0605, 8.192975
428.5426, 8.064342
429.0247, 8.082056
429.5068, 8.266145
429.9890, 8.427059
430.4711, 8.423574
430.9532, 8.310762
431.4353, 8.283407
431.9174, 8.425117
432.3995, 8.528919
432.8817, 8.447086
433.3638, 8.256825
433.8459, 8.123727
434.3280, 8.102404
434.8101, 8.132835
435.2922, 8.143619
435.7744, 8.142759
436.2565, 8.072323
436.7386, 7.834704
437.2207, 7.603076
437.7028, 7.513499
438.1849, 7.549052
438.6671, 7.607536
439.1492, 7.622197
439.6313, 7.600654
440.1134, 7.587077
440.5955, 7.564565
441.0776, 7.477526
441.5598, 7.601015
442.0418, 7.673028
442.5240, 7.696337
443.0061, 7.525054
443.4882, 7.605045
443.9703, 7.584337
444.4524, 7.559499
444.9345, 7.674855
445.4167, 7.429976
445.8988, 7.590724
446.3809, 7.699997
446.8630, 7.760566
447.3451, 7.626542
447.8272, 7.743793
448.3094, 7.760351
448.7915, 7.772774
449.2736, 7.925387
449.7557, 7.819668
450.2378, 7.970058
450.7199, 8.018215
451.2021, 8.280385
451.6842, 8.452654
452.1663, 8.529482
452.6484, 8.418244
453.1305, 8.192615
453.6126, 8.228929
454.0948, 8.666956
454.5769, 9.085349
455.0590, 9.136688
455.5411, 8.978729
456.0232, 8.871825
456.5053, 8.878089
456.9875, 8.944280
457.4696, 9.087757
457.9517, 9.272243
458.4338, 9.301910
458.9159, 9.054708
459.3980, 8.738503
459.8802, 8.727775
460.3623, 9.064540
460.8444, 9.223207
461.3265, 8.977568
461.8086, 8.605092
462.2907, 8.330722
462.7729, 8.170246
463.2550, 8.079694
463.7371, 8.051192
464.2192, 8.054259
464.7013, 7.906290
465.1834, 7.293895
465.6656, 6.938634
466.1477, 7.176241
466.6298, 7.602173
467.1119, 7.758377
467.5940, 7.550389
468.0761, 7.226377
468.5583, 7.087438
469.0404, 7.170445
469.5225, 7.193720
470.0046, 7.080855
470.4867, 6.986812
470.9688, 6.970761
471.4510, 7.002725
471.9331, 7.027641
472.4152, 7.017786
472.8973, 6.999182
473.3794, 7.039036
473.8615, 7.168886
474.3437, 7.221548
474.8258, 7.088987
475.3079, 6.930470
475.7900, 6.865179
476.2721, 6.794147
476.7542, 6.908180
477.2364, 6.970740
477.7185, 6.984593
478.2006, 6.803857
478.6827, 6.874393
479.1648, 6.844230
479.6469, 6.809938
480.1291, 6.915840
480.6112, 6.763406
481.0933, 6.867084
481.5754, 6.868527
482.0575, 6.916761
482.5396, 6.863674
483.0217, 6.929300
483.5038, 7.030238
483.9860, 7.083947
484.4681, 7.018578
484.9502, 6.829374
485.4323, 6.754956
485.9144, 6.855653
486.3965, 6.998733
486.8787, 7.156772
487.3608, 7.312975
487.8429, 7.455932
488.3250, 7.581475
488.8071, 7.656935
489.2892, 7.612030
489.7714, 7.358119
490.2535, 7.201588
490.7356, 7.125680
491.2177, 7.144613
491.6998, 7.357677
492.1819, 7.672812
492.6641, 7.877183
493.1462, 7.822291
493.6283, 7.595968
494.1104, 7.438153
494.5925, 7.331388
495.0746, 7.342105
495.5568, 7.660240
496.0389, 7.980300
496.5210, 8.028799
497.0031, 7.811671
497.4852, 7.641120
497.9673, 7.788908
498.4495, 8.146342
498.9316, 8.417891
499.4137, 8.586193
499.8958, 8.707910
500.3779, 8.848642
500.8600, 8.948332
501.3422, 8.864038
501.8243, 8.455699
502.3064, 8.154155
502.7885, 8.270599
503.2706, 8.613194
503.7527, 8.843302
504.2349, 8.887074
504.7170, 8.842975
505.1991, 8.794215
505.6812, 8.739467
506.1633, 8.717633
506.6454, 8.791794
507.1276, 8.825604
507.6097, 8.707829
508.0918, 8.534758
508.5739, 8.495616
509.0560, 8.652998
509.5381, 8.831470
510.0203, 8.722650
510.5024, 8.193748
510.9845, 7.832825
511.4666, 7.712469
511.9487, 7.690191
512.4308, 7.786344
512.9130, 7.931686
513.3951, 7.997876
513.8772, 7.905169
514.3593, 7.746281
514.8414, 7.721146
515.3235, 7.862101
515.8057, 7.882136
516.2878, 7.631060
516.7699, 7.319789
517.2520, 7.101436
517.7341, 6.977191
518.2162, 6.936515
518.6984, 7.036463
519.1805, 7.182285
519.6626, 7.252213
520.1447, 7.247937
520.6268, 7.226170
521.1089, 7.214408
521.5911, 7.200626
522.0732, 7.157036
522.5553, 7.084977
523.0374, 6.988187
523.5195, 6.795178
524.0016, 6.628075
524.4838, 6.649261
524.9659, 6.825041
525.4480, 6.945781
525.9301, 6.849643
526.4122, 6.588595
526.8943, 6.431547
527.3765, 6.500069
527.8586, 6.501708
528.3407, 6.337078
528.8228, 6.151047
529.3049, 6.047635
529.7870, 6.045502
530.2692, 6.123885
530.7513, 6.308198
531.2334, 6.562699
531.7155, 6.645076
532.1976, 6.449175
532.6797, 6.328867
533.1619, 6.538240
533.6440, 6.848166
534.1261, 7.040856
534.6082, 7.081679
535.0903, 7.026349
535.5724, 6.853349
536.0546, 6.621849
536.5367, 6.443578
537.0188, 6.329938
537.5009, 6.305193
537.9830, 6.422647
538.4651, 6.646175
538.9473, 6.769098
539.4294, 6.762037
539.9115, 6.702454
540.3936, 6.538760
540.8757, 6.368370
541.3578, 6.340157
541.8400, 6.468553
542.3221, 6.615821
542.8042, 6.641475
543.2863, 6.543872
543.7684, 6.424222
544.2505, 6.115499
544.7326, 5.996651
545.2147, 6.303301
545.6968, 6.752733
546.1790, 7.038912
546.6611, 7.085181
547.1432, 7.024203
547.6253, 6.951645
548.1074, 6.876520
548.5895, 6.932814
549.0717, 7.208021
549.5538, 7.436915
550.0359, 7.400256
550.5180, 7.230608
551.0001, 7.127702
551.4822, 7.159942
551.9644, 7.172672
552.4465, 7.005082
552.9286, 6.761076
553.4107, 6.686258
553.8928, 6.831767
554.3749, 6.989563
554.8571, 6.960657
555.3392, 6.752011
555.8213, 6.643203
556.3034, 6.766133
556.7855, 6.813265
557.2676, 6.631152
557.7498, 6.365907
558.2319, 6.178305
558.7140, 6.111506
559.1961, 6.134378
559.6782, 6.225289
560.1603, 6.384607
560.6425, 6.536560
561.1246, 6.750434
561.6067, 6.845323
562.0888, 6.735741
562.5709, 6.509489
563.0530, 6.214034
563.5352, 5.854458
564.0173, 5.610561
564.4994, 5.703576
564.9815, 6.038518
565.4636, 6.312633
565.9457, 6.498177
566.4279, 6.629203
566.9100, 6.766491
567.3921, 6.852967
567.8742, 6.708478
568.3563, 6.091177
568.8384, 5.646432
569.3206, 5.741387
569.8027, 6.053451
570.2848, 6.193868
570.7669, 6.107034
571.2490, 5.941871
571.7311, 5.804533
572.2133, 5.709035
572.6954, 5.823507
573.1775, 6.462244
573.6596, 6.876513
574.1417, 6.858981
574.6238, 6.665677
575.1060, 6.454419
575.5881, 6.280248
576.0702, 6.219960
576.5523, 6.411829
577.0344, 6.762437
577.5165, 6.900794
577.9987, 6.779068
578.4808, 6.657492
578.9629, 6.684144
579.4450, 6.742319
579.9271, 6.641812
580.4092, 6.346594
580.8914, 6.130898
581.3735, 6.130713
581.8556, 6.241851
582.3377, 6.373769
582.8198, 6.511001
583.3019, 6.643790
583.7841, 6.775860
584.2662, 6.875429
584.7483, 6.849970
585.2304, 6.544274
585.7125, 6.369658
586.1946, 6.465738
586.6768, 6.560535
587.1589, 6.417771
587.6410, 6.127386
588.1231, 5.967287
