##NAMES=Lindgrenite
##RRUFFID=R060241
##IDEAL CHEMISTRY=Cu^2+^_3_(Mo^6+^O_4_)_2_(OH)_2_
##LOCALITY=San Samuel mine, Carrera Pinto, Chile
##OWNER=RRUFF
##SOURCE=Rock Currier
##DESCRIPTION=Dark green tabular crystals associated with antlerite, pseudomalachite, albite, dravite and monazite
##STATUS=The identification of this mineral is confirmed by single-crystal X-ray diffraction and chemical analysis.
##URL=rruff.info/R060241
##MEASURED CHEMISTRY=Cu_3.00_(Mo^6+^_1.00_O_4_)_2_((OH)_1.98_Cl_0.02_)_Î£=2_
89.60352, 160.6575
90.08563, 160.6658
90.56775, 160.8030
91.04987, 161.7805
91.53198, 162.2234
92.01410, 158.4005
92.49622, 150.6427
92.97833, 145.5436
93.46045, 152.6166
93.94257, 168.2078
94.42468, 179.7387
94.90680, 182.1206
95.38892, 177.0458
95.87103, 167.9917
96.35315, 153.8466
96.83527, 140.4575
97.31738, 135.8668
97.79950, 140.2648
98.28162, 147.4984
98.76373, 155.8771
99.24585, 165.5078
99.72797, 174.0508
100.2101, 182.8174
100.6922, 189.2224
101.1743, 184.5359
101.6564, 163.4442
102.1385, 145.5906
102.6207, 145.2786
103.1028, 171.4408
103.5849, 186.7338
104.0670, 184.3142
104.5491, 166.8305
105.0313, 154.2237
105.5134, 146.4876
105.9955, 143.4988
106.4776, 145.5482
106.9597, 156.9599
107.4418, 167.3301
107.9240, 176.1186
108.4061, 183.8657
108.8882, 185.7666
109.3703, 175.1316
109.8524, 161.1562
110.3345, 153.6474
110.8167, 157.4167
111.2988, 163.3933
111.7809, 168.7728
112.2630, 171.4875
112.7451, 179.3108
113.2272, 201.2412
113.7094, 227.9693
114.1915, 244.3795
114.6736, 231.7259
115.1557, 218.5508
115.6378, 220.0759
116.1199, 249.2091
116.6021, 275.1349
117.0842, 283.8146
117.5663, 280.2370
118.0484, 279.3870
118.5305, 283.4661
119.0126, 294.9342
119.4948, 316.5050
119.9769, 359.8210
120.4590, 402.5817
120.9411, 427.0058
121.4232, 435.5480
121.9053, 445.6015
122.3875, 461.1292
122.8696, 486.3557
123.3517, 527.1462
123.8338, 594.6842
124.3159, 674.6195
124.7980, 748.4075
125.2802, 815.8037
125.7623, 890.5696
126.2444, 992.1504
126.7265, 1112.071
127.2086, 1227.739
127.6907, 1341.666
128.1729, 1442.403
128.6550, 1506.188
129.1371, 1530.406
129.6192, 1523.462
130.1013, 1482.630
130.5834, 1412.563
131.0656, 1347.731
131.5477, 1309.437
132.0298, 1293.753
132.5119, 1280.326
132.9940, 1265.720
133.4761, 1254.930
133.9583, 1260.559
134.4404, 1283.963
134.9225, 1308.749
135.4046, 1317.007
135.8867, 1308.045
136.3688, 1320.425
136.8510, 1365.164
137.3331, 1433.196
137.8152, 1493.701
138.2973, 1545.518
138.7794, 1593.406
139.2615, 1641.192
139.7437, 1687.821
140.2258, 1735.866
140.7079, 1781.095
141.1900, 1824.583
141.6721, 1898.356
142.1542, 2014.817
142.6364, 2144.848
143.1185, 2255.894
143.6006, 2335.065
144.0827, 2419.557
144.5648, 2521.719
145.0469, 2649.984
145.5291, 2753.136
146.0112, 2820.427
146.4933, 2869.956
146.9754, 2928.480
147.4575, 3000.013
147.9396, 3074.776
148.4218, 3148.119
148.9039, 3208.399
149.3860, 3294.569
149.8681, 3414.977
150.3502, 3559.176
150.8323, 3707.641
151.3145, 3842.634
151.7966, 3994.852
152.2787, 4174.677
152.7608, 4375.322
153.2429, 4613.275
153.7250, 4887.825
154.2072, 5200.179
154.6893, 5553.722
155.1714, 5927.587
155.6535, 6304.649
156.1356, 6713.621
156.6177, 7162.881
157.0999, 7639.475
157.5820, 8158.181
158.0641, 8708.032
158.5462, 9242.549
159.0283, 9765.373
159.5104, 10261.63
159.9926, 10721.91
160.4747, 11183.52
160.9568, 11573.62
161.4389, 11881.68
161.9210, 12103.66
162.4031, 12229.01
162.8853, 12218.41
163.3674, 12123.79
163.8495, 11992.65
164.3316, 11763.67
164.8137, 11565.12
165.2958, 11446.25
165.7780, 11407.20
166.2601, 11460.95
166.7422, 11608.06
167.2243, 11851.57
167.7064, 12192.37
168.1885, 12614.48
168.6707, 13144.12
169.1528, 13797.27
169.6349, 14576.82
170.1170, 15474.26
170.5991, 16536.15
171.0812, 17718.39
171.5634, 18926.76
172.0455, 20226.31
172.5276, 21489.74
173.0097, 22649.90
173.4918, 23739.88
173.9739, 24535.67
174.4561, 24952.70
174.9382, 24964.85
175.4203, 24499.56
175.9024, 23360.98
176.3845, 21786.81
176.8666, 20039.19
177.3488, 18089.15
177.8309, 16150.37
178.3130, 14400.67
178.7951, 12826.53
179.2772, 11452.56
179.7593, 10289.52
180.2415, 9324.578
180.7236, 8521.537
181.2057, 7887.758
181.6878, 7378.717
182.1699, 6935.462
182.6520, 6563.858
183.1342, 6250.342
183.6163, 6004.352
184.0984, 5813.485
184.5805, 5649.202
185.0626, 5502.620
185.5447, 5384.667
186.0269, 5317.640
186.5090, 5300.654
186.9911, 5305.304
187.4732, 5302.772
187.9553, 5301.106
188.4374, 5341.762
188.9196, 5439.107
189.4017, 5574.635
189.8838, 5713.121
190.3659, 5856.576
190.8480, 5998.965
191.3301, 6140.188
191.8123, 6280.619
192.2944, 6413.082
192.7765, 6543.532
193.2586, 6661.430
193.7407, 6731.554
194.2228, 6752.927
194.7050, 6735.858
195.1871, 6675.820
195.6692, 6573.338
196.1513, 6478.692
196.6334, 6401.917
197.1155, 6341.072
197.5977, 6280.172
198.0798, 6212.845
198.5619, 6172.110
199.0440, 6192.442
199.5261, 6275.749
200.0082, 6384.868
200.4904, 6512.244
200.9725, 6658.741
201.4546, 6836.096
201.9367, 7048.231
202.4188, 7280.665
202.9009, 7515.869
203.3831, 7753.448
203.8652, 8005.202
204.3473, 8283.657
204.8294, 8583.715
205.3115, 8849.392
205.7936, 9081.657
206.2758, 9277.982
206.7579, 9438.988
207.2400, 9566.600
207.7221, 9643.496
208.2042, 9653.150
208.6863, 9597.262
209.1685, 9551.673
209.6506, 9510.424
210.1327, 9488.830
210.6148, 9500.365
211.0969, 9539.967
211.5790, 9628.908
212.0612, 9775.843
212.5433, 9979.729
213.0254, 10224.57
213.5075, 10523.88
213.9896, 10847.00
214.4717, 11166.50
214.9538, 11511.13
215.4360, 11782.61
215.9181, 11965.92
216.4002, 12061.69
216.8823, 12041.82
217.3644, 11903.99
217.8465, 11653.11
218.3287, 11281.76
218.8108, 10752.89
219.2929, 10180.78
219.7750, 9572.953
220.2571, 8917.677
220.7392, 8311.858
221.2214, 7752.964
221.7035, 7240.416
222.1856, 6762.333
222.6677, 6318.322
223.1498, 5916.646
223.6319, 5569.659
224.1141, 5276.362
224.5962, 5015.051
225.0783, 4791.712
225.5604, 4597.974
226.0425, 4421.755
226.5246, 4268.815
227.0068, 4124.301
227.4889, 3985.590
227.9710, 3848.724
228.4531, 3731.688
228.9352, 3641.372
229.4173, 3564.910
229.8995, 3485.294
230.3816, 3391.027
230.8637, 3312.915
231.3458, 3263.448
231.8279, 3247.054
232.3100, 3226.122
232.7922, 3199.513
233.2743, 3169.465
233.7564, 3137.103
234.2385, 3096.508
234.7206, 3064.596
235.2027, 3047.228
235.6849, 3046.580
236.1670, 3045.663
236.6491, 3040.187
237.1312, 3037.894
237.6133, 3050.244
238.0954, 3088.300
238.5776, 3121.740
239.0597, 3140.306
239.5418, 3140.153
240.0239, 3150.965
240.5060, 3174.327
240.9881, 3207.298
241.4703, 3247.184
241.9524, 3297.730
242.4345, 3347.953
242.9166, 3391.718
243.3987, 3426.130
243.8808, 3478.386
244.3630, 3553.822
244.8451, 3642.790
245.3272, 3734.080
245.8093, 3826.956
246.2914, 3923.555
246.7735, 4021.877
247.2557, 4120.529
247.7378, 4241.355
248.2199, 4392.804
248.7020, 4559.044
249.1841, 4722.905
249.6662, 4881.927
250.1484, 5043.965
250.6305, 5217.831
251.1126, 5404.320
251.5947, 5559.918
252.0768, 5679.124
252.5589, 5771.271
253.0411, 5847.910
253.5232, 5918.684
254.0053, 5951.341
254.4874, 5936.542
254.9695, 5873.634
255.4516, 5786.553
255.9338, 5671.247
256.4159, 5537.340
256.8980, 5393.112
257.3801, 5230.090
257.8622, 5074.467
258.3444, 4930.385
258.8265, 4797.443
259.3086, 4681.784
259.7907, 4585.847
260.2728, 4506.875
260.7549, 4444.469
261.2371, 4398.748
261.7192, 4367.966
262.2013, 4353.214
262.6834, 4353.765
263.1655, 4363.317
263.6476, 4381.328
264.1298, 4409.310
264.6119, 4450.149
265.0940, 4505.779
265.5761, 4566.427
266.0582, 4630.300
266.5403, 4697.386
267.0225, 4770.526
267.5046, 4850.366
267.9867, 4933.851
268.4688, 5021.094
268.9509, 5116.432
269.4330, 5199.017
269.9152, 5261.249
270.3973, 5310.307
270.8794, 5373.173
271.3615, 5452.397
271.8436, 5538.056
272.3257, 5620.599
272.8079, 5698.582
273.2900, 5784.712
273.7721, 5880.200
274.2542, 5985.569
274.7363, 6103.666
275.2184, 6234.471
275.7006, 6377.188
276.1827, 6522.548
276.6648, 6668.479
277.1469, 6852.438
277.6290, 7082.209
278.1111, 7345.551
278.5933, 7608.201
279.0754, 7866.745
279.5575, 8159.506
280.0396, 8508.578
280.5217, 8910.934
281.0038, 9355.768
281.4860, 9842.389
281.9681, 10371.17
282.4502, 10939.24
282.9323, 11545.49
283.4144, 12204.61
283.8965, 12938.07
284.3787, 13735.12
284.8608, 14554.16
285.3429, 15401.84
285.8250, 16250.21
286.3071, 17083.17
286.7892, 17899.35
287.2714, 18628.86
287.7535, 19261.62
288.2356, 19792.37
288.7177, 20159.64
289.1998, 20365.70
289.6819, 20429.09
290.1641, 20327.86
290.6462, 20078.49
291.1283, 19808.80
291.6104, 19541.67
292.0925, 19293.95
292.5746, 19112.25
293.0568, 18993.33
293.5389, 18961.62
294.0210, 19034.62
294.5031, 19213.59
294.9852, 19506.55
295.4673, 19911.79
295.9495, 20433.86
296.4316, 21065.44
296.9137, 21803.68
297.3958, 22675.79
297.8779, 23711.26
298.3600, 24892.58
298.8422, 26203.03
299.3243, 27645.84
299.8064, 29212.99
300.2885, 30940.38
300.7706, 32804.15
301.2527, 34708.26
301.7349, 36657.43
302.2170, 38575.05
302.6991, 40330.86
303.1812, 42015.50
303.6633, 43345.89
304.1454, 44122.70
304.6276, 44324.39
305.1097, 43872.62
305.5918, 42493.90
306.0739, 40520.01
306.5560, 38285.73
307.0381, 35716.66
307.5203, 33215.37
308.0024, 31018.66
308.4845, 29131.80
308.9666, 27567.54
309.4487, 26402.78
309.9308, 25518.47
310.4130, 24859.80
310.8951, 24439.68
311.3772, 24132.35
311.8593, 23935.71
312.3414, 23793.77
312.8235, 23615.00
313.3057, 23406.67
313.7878, 23114.53
314.2699, 22709.95
314.7520, 22193.44
315.2341, 21560.96
315.7162, 20779.05
316.1984, 19891.44
316.6805, 18958.26
317.1626, 17924.83
317.6447, 16907.78
318.1268, 15936.53
318.6089, 15006.60
319.0911, 14164.22
319.5732, 13412.78
320.0553, 12757.32
320.5374, 12209.55
321.0195, 11788.61
321.5016, 11449.95
321.9838, 11194.58
322.4659, 11017.40
322.9480, 10893.79
323.4301, 10828.38
323.9122, 10808.62
324.3943, 10828.41
324.8765, 10887.56
325.3586, 10984.81
325.8407, 11125.18
326.3228, 11303.75
326.8049, 11509.01
327.2870, 11733.54
327.7692, 11988.11
328.2513, 12276.33
328.7334, 12591.86
329.2155, 12948.04
329.6976, 13352.47
330.1797, 13796.88
330.6619, 14260.70
331.1440, 14731.02
331.6261, 15242.47
332.1082, 15816.02
332.5903, 16449.62
333.0724, 17085.03
333.5546, 17714.39
334.0367, 18355.49
334.5188, 19024.38
335.0009, 19747.08
335.4830, 20452.09
335.9651, 21127.04
336.4473, 21775.35
336.9294, 22371.90
337.4115, 22925.71
337.8936, 23408.84
338.3757, 23798.57
338.8578, 24102.10
339.3399, 24288.24
339.8221, 24340.44
340.3042, 24278.08
340.7863, 24148.66
341.2684, 23941.95
341.7505, 23712.63
342.2326, 23487.63
342.7148, 23268.79
343.1969, 23042.54
343.6790, 22803.20
344.1611, 22569.11
344.6432, 22381.04
345.1253, 22238.29
345.6075, 22107.03
346.0896, 21978.41
346.5717, 21848.04
347.0538, 21700.88
347.5359, 21532.72
348.0180, 21360.30
348.5002, 21207.45
348.9823, 21068.13
349.4644, 20917.03
349.9465, 20735.12
350.4286, 20542.14
350.9107, 20357.04
351.3929, 20182.11
351.8750, 20046.43
352.3571, 19967.32
352.8392, 19945.54
353.3213, 19980.83
353.8034, 20067.68
354.2856, 20219.56
354.7677, 20464.98
355.2498, 20793.39
355.7319, 21164.10
356.2140, 21555.69
356.6961, 21974.94
357.1783, 22441.04
357.6604, 22970.92
358.1425, 23502.62
358.6246, 24026.61
359.1067, 24526.13
359.5888, 24973.82
360.0710, 25398.72
360.5531, 25735.71
361.0352, 25962.93
361.5173, 26082.08
361.9994, 26054.34
362.4815, 25875.72
362.9637, 25538.89
363.4458, 25036.07
363.9279, 24287.98
364.4100, 23444.51
364.8921, 22544.80
365.3742, 21586.64
365.8564, 20610.98
366.3385, 19578.46
366.8206, 18560.83
367.3027, 17601.29
367.7848, 16709.38
368.2669, 15862.33
368.7491, 15068.52
369.2312, 14324.88
369.7133, 13644.36
370.1954, 13038.34
370.6775, 12480.94
371.1596, 11968.06
371.6418, 11495.50
372.1239, 11070.32
372.6060, 10704.80
373.0881, 10382.43
373.5702, 10076.05
374.0523, 9780.445
374.5345, 9511.186
375.0166, 9272.025
375.4987, 9061.790
375.9808, 8870.751
376.4629, 8700.421
376.9450, 8540.955
377.4272, 8375.791
377.9093, 8201.559
378.3914, 8047.306
378.8735, 7919.251
379.3556, 7811.948
379.8377, 7701.744
380.3199, 7587.331
380.8020, 7493.298
381.2841, 7440.858
381.7662, 7424.423
382.2483, 7415.112
382.7304, 7408.679
383.2126, 7414.523
383.6947, 7448.034
384.1768, 7506.769
384.6589, 7576.501
385.1410, 7644.850
385.6231, 7722.638
386.1053, 7831.763
386.5874, 7972.490
387.0695, 8131.119
387.5516, 8299.729
388.0337, 8479.897
388.5158, 8672.546
388.9980, 8878.241
389.4801, 9098.232
389.9622, 9329.861
390.4443, 9573.028
390.9264, 9833.797
391.4085, 10106.21
391.8907, 10400.30
392.3728, 10728.64
392.8549, 11097.44
393.3370, 11478.42
393.8191, 11844.13
394.3012, 12213.03
394.7834, 12616.26
395.2655, 13080.56
395.7476, 13565.16
396.2297, 14061.87
396.7118, 14573.08
397.1939, 15068.72
397.6761, 15536.91
398.1582, 15991.13
398.6403, 16442.66
399.1224, 16945.67
399.6045, 17383.09
400.0866, 17739.24
400.5688, 18020.34
401.0509, 18254.28
401.5330, 18448.11
402.0151, 18589.71
402.4972, 18674.55
402.9793, 18705.71
403.4615, 18669.64
403.9436, 18553.40
404.4257, 18381.58
404.9078, 18194.81
405.3899, 17989.63
405.8720, 17777.95
406.3542, 17558.64
406.8363, 17332.44
407.3184, 17127.11
407.8005, 16944.31
408.2826, 16769.68
408.7647, 16591.00
409.2469, 16408.80
409.7290, 16224.29
410.2111, 16040.73
410.6932, 15848.95
411.1753, 15635.37
411.6574, 15401.00
412.1396, 15135.17
412.6217, 14838.61
413.1038, 14508.41
413.5859, 14131.43
414.0680, 13702.53
414.5501, 13243.58
415.0323, 12758.66
415.5144, 12257.15
415.9965, 11745.32
416.4786, 11226.87
416.9607, 10705.90
417.4428, 10172.56
417.9250, 9633.604
418.4071, 9106.130
418.8892, 8592.282
419.3713, 8102.280
419.8534, 7653.042
420.3355, 7248.323
420.8177, 6875.634
421.2998, 6528.823
421.7819, 6207.474
422.2640, 5901.407
422.7461, 5612.365
423.2282, 5339.288
423.7104, 5076.041
424.1925, 4818.938
424.6746, 4593.729
425.1567, 4415.639
425.6388, 4261.006
426.1209, 4106.947
426.6031, 3946.991
427.0852, 3800.050
427.5673, 3672.168
428.0494, 3559.163
428.5315, 3443.393
429.0136, 3322.372
429.4958, 3206.541
429.9779, 3103.269
430.4600, 3013.558
430.9421, 2929.568
431.4242, 2851.706
431.9063, 2778.650
432.3885, 2710.315
432.8706, 2647.323
433.3527, 2585.827
433.8348, 2522.345
434.3169, 2460.135
434.7990, 2411.626
435.2812, 2377.086
435.7633, 2344.081
436.2454, 2299.880
436.7275, 2249.968
437.2096, 2206.946
437.6917, 2175.332
438.1739, 2146.202
438.6560, 2109.236
439.1381, 2067.002
439.6202, 2026.286
440.1023, 1986.622
440.5844, 1952.592
441.0666, 1930.971
441.5487, 1922.898
442.0308, 1911.077
442.5129, 1882.885
442.9950, 1848.555
443.4771, 1817.857
443.9593, 1792.917
444.4414, 1772.443
444.9235, 1758.008
445.4056, 1748.133
445.8877, 1737.085
446.3698, 1722.207
446.8520, 1707.537
447.3341, 1694.919
447.8162, 1685.732
448.2983, 1674.737
448.7804, 1662.457
449.2625, 1648.024
449.7447, 1629.216
450.2268, 1599.997
450.7089, 1580.636
451.1910, 1578.554
451.6731, 1589.607
452.1552, 1591.953
452.6374, 1584.209
453.1195, 1572.890
453.6016, 1561.758
454.0837, 1550.882
454.5658, 1537.141
455.0479, 1518.689
455.5301, 1502.824
456.0122, 1504.595
456.4943, 1520.733
456.9764, 1531.164
457.4585, 1523.530
457.9406, 1508.567
458.4228, 1506.019
458.9049, 1514.597
459.3870, 1521.424
459.8691, 1511.411
460.3512, 1496.417
460.8333, 1493.058
461.3155, 1509.139
461.7976, 1524.074
462.2797, 1522.463
462.7618, 1510.914
463.2439, 1500.973
463.7260, 1492.936
464.2082, 1491.024
464.6903, 1501.242
465.1724, 1523.556
465.6545, 1539.215
466.1366, 1538.365
466.6187, 1533.401
467.1009, 1532.345
467.5830, 1536.102
468.0651, 1543.357
468.5472, 1556.059
469.0293, 1571.567
469.5114, 1583.702
469.9936, 1587.480
470.4757, 1597.705
470.9578, 1621.635
471.4399, 1659.064
471.9220, 1686.971
472.4041, 1702.171
472.8863, 1716.345
473.3684, 1741.713
473.8505, 1777.870
474.3326, 1807.684
474.8147, 1826.480
475.2968, 1841.953
475.7790, 1866.490
476.2611, 1899.710
476.7432, 1937.936
477.2253, 1981.970
477.7074, 2029.134
478.1895, 2075.516
478.6717, 2121.030
479.1538, 2166.001
479.6359, 2206.785
480.1180, 2248.674
480.6001, 2298.642
481.0822, 2361.954
481.5644, 2428.498
482.0465, 2494.189
482.5286, 2559.294
483.0107, 2624.369
483.4928, 2684.656
483.9749, 2749.644
484.4571, 2826.423
484.9392, 2918.293
485.4213, 3001.019
485.9034, 3056.314
486.3855, 3112.335
486.8676, 3189.227
487.3498, 3299.623
487.8319, 3408.974
488.3140, 3514.780
488.7961, 3618.206
489.2782, 3722.528
489.7603, 3828.844
490.2425, 3929.097
490.7246, 4017.167
491.2067, 4094.611
491.6888, 4174.392
492.1709, 4256.226
492.6530, 4340.063
493.1352, 4430.412
493.6173, 4524.062
494.0994, 4605.479
494.5815, 4669.807
495.0636, 4724.170
495.5457, 4779.610
496.0279, 4832.428
496.5100, 4871.316
496.9921, 4889.250
497.4742, 4892.153
497.9563, 4885.980
498.4384, 4870.685
498.9206, 4841.882
499.4027, 4793.678
499.8848, 4732.954
500.3669, 4663.778
500.8490, 4585.444
501.3311, 4502.318
501.8133, 4417.886
502.2954, 4328.384
502.7775, 4226.529
503.2596, 4098.917
503.7417, 3971.185
504.2238, 3850.385
504.7060, 3736.333
505.1881, 3619.594
505.6702, 3501.392
506.1523, 3379.729
506.6344, 3249.997
507.1165, 3109.771
507.5987, 2982.552
508.0808, 2873.283
508.5629, 2774.675
509.0450, 2674.011
509.5271, 2572.334
510.0092, 2484.428
510.4914, 2420.803
510.9735, 2370.068
511.4556, 2306.605
511.9377, 2232.636
512.4199, 2162.221
512.9020, 2107.624
513.3841, 2061.126
513.8662, 2012.530
514.3483, 1959.173
514.8304, 1909.827
515.3126, 1872.604
515.7947, 1841.830
516.2768, 1809.724
516.7589, 1775.536
517.2410, 1738.030
517.7231, 1695.023
518.2053, 1647.730
518.6874, 1601.882
519.1695, 1551.088
519.6516, 1509.084
520.1337, 1483.680
520.6158, 1480.151
521.0980, 1468.455
521.5801, 1445.277
522.0622, 1418.214
522.5443, 1394.276
523.0264, 1373.787
523.5085, 1354.448
523.9907, 1335.926
524.4728, 1318.617
524.9549, 1304.128
525.4370, 1292.240
525.9191, 1279.136
526.4012, 1262.445
526.8834, 1243.071
527.3655, 1221.536
527.8476, 1198.073
528.3297, 1177.804
528.8118, 1166.985
529.2939, 1161.081
529.7761, 1154.564
530.2582, 1145.926
530.7403, 1137.287
531.2224, 1130.123
531.7045, 1123.733
532.1866, 1117.003
532.6688, 1109.707
533.1509, 1101.851
533.6330, 1094.667
534.1151, 1087.939
534.5972, 1075.502
535.0793, 1048.486
535.5615, 1025.275
536.0436, 1016.394
536.5257, 1028.077
537.0078, 1031.178
537.4899, 1023.275
537.9720, 1010.703
538.4542, 1002.451
538.9363, 998.9733
539.4184, 990.0666
539.9005, 970.7477
540.3826, 948.0499
540.8647, 939.5358
541.3469, 943.5027
541.8290, 946.9044
542.3111, 941.8315
542.7932, 931.8109
543.2753, 921.0752
543.7574, 909.8538
544.2396, 900.0755
544.7217, 894.6206
545.2038, 890.6268
545.6859, 884.8081
546.1680, 873.8586
546.6501, 865.7340
547.1323, 866.8943
547.6144, 872.0365
548.0965, 871.9485
548.5786, 856.7339
549.0607, 845.7694
549.5428, 845.3738
550.0250, 854.1063
550.5071, 856.4136
550.9892, 850.1093
551.4713, 841.3337
551.9534, 832.0699
552.4355, 821.7980
552.9177, 817.7701
553.3998, 821.6891
553.8819, 826.5135
554.3640, 823.5420
554.8461, 813.8332
555.3282, 802.9721
555.8104, 791.7409
556.2925, 781.2258
556.7746, 772.5900
557.2567, 765.8813
557.7388, 761.2375
558.2209, 760.3593
558.7031, 760.4334
559.1852, 758.8862
559.6673, 755.7538
560.1494, 753.8938
560.6315, 755.6412
561.1136, 758.2799
561.5958, 760.1573
562.0779, 761.5335
562.5600, 761.2120
563.0421, 759.0914
563.5242, 755.3517
564.0063, 749.4976
564.4885, 738.8039
564.9706, 732.7017
565.4527, 733.9827
565.9348, 740.5716
566.4169, 746.6210
566.8990, 752.4294
567.3812, 754.7051
567.8633, 747.5216
568.3454, 735.1003
568.8275, 736.3151
569.3096, 751.6004
569.7917, 764.2363
570.2739, 753.4753
570.7560, 732.5236
571.2381, 722.0681
571.7202, 728.4445
572.2023, 739.1688
572.6844, 750.2639
573.1666, 759.6631
573.6487, 764.4631
574.1308, 760.1578
574.6129, 754.8275
575.0950, 748.7000
575.5771, 742.7724
576.0593, 742.7927
576.5414, 754.3555
577.0235, 764.9586
577.5056, 769.8719
577.9877, 768.5545
578.4698, 765.9355
578.9520, 761.1981
579.4341, 757.1591
579.9162, 757.1121
580.3983, 760.7297
580.8804, 763.1073
581.3625, 763.4379
581.8447, 762.7218
582.3268, 762.9066
582.8089, 763.2449
583.2910, 761.4573
583.7731, 753.4341
