##NAMES=Lindgrenite
##RRUFFID=R110061
##IDEAL CHEMISTRY=Cu^2+^_3_(Mo^6+^O_4_)_2_(OH)_2_
##LOCALITY=Childs Aldwinkle mine, Copper Creek, Pinal County, Arizona, USA
##OWNER=RRUFF
##SOURCE=Ron Gibbs
##DESCRIPTION=Pale green needles
##STATUS=The identification of this mineral has been confirmed only by single crystal X-ray diffraction.
##URL=rruff.info/R110061
158.4706, 61.25298
158.9528, 66.46741
159.4349, 70.88770
159.9170, 73.79067
160.3991, 77.02406
160.8812, 81.59188
161.3633, 86.93919
161.8455, 91.60910
162.3276, 94.81001
162.8097, 97.32366
163.2918, 99.67549
163.7739, 101.7769
164.2560, 103.9741
164.7382, 106.2341
165.2203, 108.6533
165.7024, 111.6015
166.1845, 115.4676
166.6666, 119.8649
167.1487, 124.3450
167.6309, 127.9813
168.1130, 132.5763
168.5951, 139.5044
169.0772, 148.5346
169.5593, 158.1331
170.0414, 166.7740
170.5236, 175.6935
171.0057, 186.2523
171.4878, 199.6053
171.9699, 214.3804
172.4520, 230.2056
172.9341, 246.9721
173.4163, 262.3661
173.8984, 275.4449
174.3805, 286.0294
174.8626, 293.5152
175.3447, 298.7455
175.8268, 300.4424
176.3090, 296.5586
176.7911, 287.1006
177.2732, 274.5949
177.7553, 258.5382
178.2374, 239.9236
178.7195, 222.2332
179.2017, 206.6163
179.6838, 192.7293
180.1659, 180.4667
180.6480, 169.6916
181.1301, 160.3030
181.6122, 152.1021
182.0944, 145.0273
182.5765, 139.0967
183.0586, 134.3705
183.5407, 130.7247
184.0228, 127.7382
184.5049, 125.4271
184.9871, 123.6677
185.4692, 122.4672
185.9513, 121.7590
186.4334, 121.2833
186.9155, 120.8630
187.3976, 120.5602
187.8798, 120.6044
188.3619, 121.0172
188.8440, 121.6878
189.3261, 122.3987
189.8082, 123.1717
190.2903, 124.2648
190.7725, 125.8320
191.2546, 127.8556
191.7367, 130.2423
192.2188, 133.1466
192.7009, 136.0308
193.1830, 137.9287
193.6652, 138.8398
194.1473, 139.3360
194.6294, 139.6808
195.1115, 139.8694
195.5936, 139.7840
196.0757, 139.3606
196.5579, 138.7636
197.0400, 138.2777
197.5221, 137.9028
198.0042, 137.6267
198.4863, 137.3877
198.9684, 137.1837
199.4506, 137.1996
199.9327, 137.3158
200.4148, 137.8110
200.8969, 139.4449
201.3790, 142.3837
201.8611, 145.6373
202.3433, 148.7169
202.8254, 151.6245
203.3075, 154.3972
203.7896, 157.0508
204.2717, 159.5321
204.7538, 161.5576
205.2360, 162.9814
205.7181, 164.4801
206.2002, 166.6890
206.6823, 169.8537
207.1644, 172.0907
207.6465, 173.1282
208.1287, 173.2114
208.6108, 173.0051
209.0929, 172.4159
209.5750, 171.7892
210.0571, 171.3048
210.5392, 170.9402
211.0214, 170.7547
211.5035, 170.5938
211.9856, 170.6645
212.4677, 171.7834
212.9498, 174.2263
213.4319, 177.1122
213.9140, 179.9828
214.3962, 182.8527
214.8783, 185.7584
215.3604, 188.9647
215.8425, 192.1752
216.3246, 194.1475
216.8067, 195.0025
217.2889, 194.4458
217.7710, 192.1301
218.2531, 187.5654
218.7352, 182.6593
219.2173, 177.5822
219.6994, 172.2125
220.1816, 166.1747
220.6637, 158.9229
221.1458, 151.7696
221.6279, 145.6568
222.1100, 140.8728
222.5921, 136.2134
223.0743, 131.4807
223.5564, 126.7921
224.0385, 122.4177
224.5206, 118.3122
225.0027, 114.7369
225.4848, 111.9264
225.9670, 110.1640
226.4491, 108.5443
226.9312, 107.0106
227.4133, 105.5693
227.8954, 104.1834
228.3775, 102.9339
228.8597, 101.6623
229.3418, 100.2524
229.8239, 98.54543
230.3060, 97.06002
230.7881, 95.79156
231.2702, 94.76600
231.7524, 94.22878
232.2345, 94.50199
232.7166, 94.80949
233.1987, 94.63837
233.6808, 93.59042
234.1629, 92.95216
234.6451, 92.91711
235.1272, 93.35678
235.6093, 93.72520
236.0914, 94.05083
236.5735, 94.26711
237.0556, 94.32015
237.5378, 94.11784
238.0199, 93.94852
238.5020, 93.78036
238.9841, 93.65620
239.4662, 93.77576
239.9483, 94.29936
240.4305, 94.85328
240.9126, 95.21481
241.3947, 95.18526
241.8768, 95.40431
242.3589, 95.91793
242.8410, 96.69458
243.3232, 97.66354
243.8053, 98.92046
244.2874, 100.2329
244.7695, 101.5077
245.2516, 102.8893
245.7337, 103.8903
246.2159, 104.2468
246.6980, 104.2442
247.1801, 104.7992
247.6622, 106.0918
248.1443, 107.6720
248.6264, 109.3291
249.1086, 111.0840
249.5907, 112.8828
250.0728, 114.7080
250.5549, 116.5814
251.0370, 118.6224
251.5191, 121.1350
252.0013, 123.3431
252.4834, 124.9220
252.9655, 125.7359
253.4476, 126.2266
253.9297, 126.2934
254.4118, 126.0842
254.8940, 126.0276
255.3761, 126.5596
255.8582, 126.4668
256.3403, 125.0704
256.8224, 121.8156
257.3046, 119.1252
257.7867, 117.2014
258.2688, 115.7323
258.7509, 114.1212
259.2330, 112.2798
259.7151, 110.5025
260.1973, 108.8141
260.6794, 107.1338
261.1615, 106.0773
261.6436, 105.8626
262.1257, 106.0934
262.6078, 106.1438
263.0900, 106.0218
263.5721, 105.6959
264.0542, 105.0199
264.5363, 103.8392
265.0184, 103.3614
265.5005, 103.7747
265.9827, 104.6574
266.4648, 105.4285
266.9469, 106.0416
267.4290, 106.6650
267.9111, 107.3623
268.3932, 108.1352
268.8754, 108.8454
269.3575, 109.3788
269.8396, 110.0175
270.3217, 111.2202
270.8038, 113.1789
271.2859, 114.9296
271.7681, 116.1658
272.2502, 116.8975
272.7323, 117.5293
273.2144, 117.9655
273.6965, 118.4730
274.1786, 119.3747
274.6608, 120.7474
275.1429, 122.1419
275.6250, 123.4298
276.1071, 124.6352
276.5892, 125.9611
277.0714, 127.3472
277.5535, 128.9682
278.0356, 130.9775
278.5177, 133.3808
278.9998, 136.1228
279.4819, 139.2651
279.9641, 142.7309
280.4462, 145.9519
280.9283, 148.8235
281.4104, 151.9416
281.8925, 155.7478
282.3746, 160.2395
282.8568, 165.4646
283.3389, 171.5213
283.8210, 178.2451
284.3031, 185.2280
284.7852, 192.5102
285.2673, 199.9791
285.7495, 207.6352
286.2316, 215.4836
286.7137, 223.6983
287.1958, 232.6078
287.6779, 241.4558
288.1600, 248.8512
288.6422, 254.7972
289.1243, 259.3756
289.6064, 262.1647
290.0885, 263.4382
290.5706, 264.3817
291.0527, 265.0378
291.5349, 265.5388
292.0170, 265.9962
292.4991, 266.4218
292.9812, 267.0457
293.4633, 267.5035
293.9454, 268.2039
294.4276, 270.6694
294.9097, 275.1363
295.3918, 280.5622
295.8739, 285.1740
296.3560, 289.3580
296.8381, 295.1789
297.3203, 303.9620
297.8024, 314.9065
298.2845, 326.1812
298.7666, 337.6725
299.2487, 350.8304
299.7308, 368.1888
300.2130, 388.7509
300.6951, 409.3711
301.1772, 429.1765
301.6593, 448.0824
302.1414, 466.5160
302.6235, 484.2993
303.1057, 500.6752
303.5878, 517.0071
304.0699, 531.1804
304.5520, 538.9451
305.0341, 538.5047
305.5162, 531.5313
305.9984, 518.2224
306.4805, 499.1906
306.9626, 477.7168
307.4447, 454.1475
307.9268, 430.1804
308.4089, 408.2453
308.8911, 388.5962
309.3732, 371.6643
309.8553, 358.0695
310.3374, 347.5962
310.8195, 339.2756
311.3016, 334.0864
311.7838, 330.1575
312.2659, 325.7454
312.7480, 320.3428
313.2301, 314.8963
313.7122, 310.3959
314.1943, 306.2084
314.6765, 301.0973
315.1586, 294.3009
315.6407, 286.5788
316.1228, 278.2046
316.6049, 269.1538
317.0870, 259.8846
317.5692, 250.3739
318.0513, 240.8874
318.5334, 231.8550
319.0155, 222.9423
319.4976, 214.9099
319.9797, 208.1641
320.4619, 202.7491
320.9440, 198.3382
321.4261, 195.2341
321.9082, 192.9532
322.3903, 191.0543
322.8724, 189.0398
323.3546, 187.7987
323.8367, 187.7125
324.3188, 188.7543
324.8009, 190.1144
325.2830, 191.5068
325.7651, 193.2622
326.2473, 195.5935
326.7294, 199.5953
327.2115, 202.9414
327.6936, 204.7166
328.1757, 205.3996
328.6578, 207.4508
329.1400, 211.7879
329.6221, 216.7581
330.1042, 221.7259
330.5863, 226.7120
331.0684, 231.6570
331.5505, 236.0068
332.0327, 240.3860
332.5148, 246.2173
332.9969, 254.4961
333.4790, 262.9078
333.9611, 270.7550
334.4432, 277.8290
334.9254, 285.2286
335.4075, 293.2653
335.8896, 301.2628
336.3717, 308.1678
336.8538, 313.4607
337.3359, 318.8127
337.8180, 325.0463
338.3001, 332.0966
338.7823, 336.8993
339.2644, 339.1175
339.7465, 339.6888
340.2286, 339.2595
340.7107, 337.6983
341.1928, 336.0506
341.6750, 334.7833
342.1571, 333.5241
342.6392, 330.6140
343.1213, 325.7687
343.6034, 320.6786
344.0855, 316.5025
344.5677, 313.2419
345.0498, 310.0840
345.5319, 307.0268
346.0140, 303.9199
346.4961, 300.4604
346.9782, 296.6708
347.4604, 292.6999
347.9425, 288.4055
348.4246, 283.9682
348.9067, 280.3224
349.3888, 277.6211
349.8709, 275.1854
350.3531, 272.2938
350.8352, 268.9940
351.3173, 265.4804
351.7994, 261.5206
352.2815, 257.4706
352.7636, 253.7591
353.2458, 250.3850
353.7279, 247.6373
354.2100, 245.8786
354.6921, 244.8924
355.1742, 244.3272
355.6563, 244.2017
356.1385, 244.3034
356.6206, 244.4234
357.1027, 244.5861
357.5848, 244.9094
358.0669, 245.5651
358.5490, 246.3665
359.0312, 247.1870
359.5133, 248.1394
359.9954, 248.8168
360.4775, 249.0608
360.9596, 248.8645
361.4417, 248.2137
361.9239, 247.2621
362.4060, 245.7404
362.8881, 243.5848
363.3702, 240.8545
363.8523, 237.1394
364.3344, 231.7895
364.8166, 225.5655
365.2987, 219.2826
365.7808, 213.2019
366.2629, 207.1783
366.7450, 201.1562
367.2271, 195.1354
367.7093, 189.2663
368.1914, 183.4574
368.6735, 177.8696
369.1556, 172.5648
369.6377, 167.3165
370.1198, 162.7824
370.6020, 159.0322
371.0841, 156.0186
371.5662, 153.6345
372.0483, 152.5823
372.5304, 151.3338
373.0125, 149.1209
373.4947, 145.3335
373.9768, 142.4146
374.4589, 140.6523
374.9410, 139.4942
375.4231, 138.0323
375.9052, 136.0383
376.3874, 134.3756
376.8695, 133.4628
377.3516, 133.2634
377.8337, 132.5487
378.3158, 131.1810
378.7979, 129.6679
379.2801, 128.5022
379.7622, 127.6838
380.2443, 127.0029
380.7264, 126.3656
381.2085, 125.8746
381.6906, 125.8818
382.1728, 126.3927
382.6549, 126.9903
383.1370, 127.3488
383.6191, 127.5456
384.1012, 127.8306
384.5833, 128.1901
385.0655, 128.7794
385.5476, 129.9494
386.0297, 131.5683
386.5118, 133.0992
386.9939, 134.0553
387.4760, 134.8779
387.9582, 136.2570
388.4403, 138.2226
388.9224, 140.3708
389.4045, 142.3892
389.8866, 144.3599
390.3687, 146.4057
390.8509, 148.4333
391.3330, 150.6644
391.8151, 153.5121
392.2972, 156.7914
392.7793, 159.7937
393.2614, 161.6050
393.7436, 163.3505
394.2257, 165.9377
394.7078, 169.7984
395.1899, 173.7870
395.6720, 177.5593
396.1541, 181.1904
396.6363, 184.8015
397.1184, 188.5714
397.6005, 192.1845
398.0826, 195.5697
398.5647, 198.7327
399.0468, 201.5697
399.5290, 203.8414
400.0111, 205.9082
400.4932, 208.0798
400.9753, 210.9615
401.4574, 213.1494
401.9395, 214.5224
402.4217, 215.1076
402.9038, 214.8928
403.3859, 213.3615
403.8680, 211.7908
404.3501, 210.9008
404.8322, 211.0851
405.3144, 210.5659
405.7965, 209.1918
406.2786, 207.3037
406.7607, 205.3546
407.2428, 203.2948
407.7249, 201.4495
408.2071, 200.0517
408.6892, 198.9925
409.1713, 197.5719
409.6534, 195.7339
410.1355, 193.8154
410.6176, 192.2558
411.0998, 190.9407
411.5819, 189.2608
412.0640, 187.1205
412.5461, 184.5158
413.0282, 181.1850
413.5103, 177.2445
413.9925, 173.3200
414.4746, 169.8476
414.9567, 166.5552
415.4388, 163.0652
415.9209, 159.3038
416.4030, 155.4672
416.8852, 151.5765
417.3673, 147.7037
417.8494, 143.9539
418.3315, 140.5764
418.8136, 137.1327
419.2957, 132.9853
419.7779, 128.3420
420.2600, 124.2978
420.7421, 121.9066
421.2242, 119.9935
421.7063, 117.7560
422.1884, 114.7762
422.6706, 111.9090
423.1527, 109.2443
423.6348, 106.8257
424.1169, 104.7194
424.5990, 102.9780
425.0811, 101.4781
425.5633, 100.2428
426.0454, 99.31046
426.5275, 98.33216
427.0096, 97.27407
427.4917, 96.18247
427.9738, 95.06929
428.4560, 93.82798
428.9381, 92.79395
429.4202, 92.04602
429.9023, 91.53307
430.3844, 91.08350
430.8665, 90.75644
431.3487, 90.33060
431.8308, 89.61526
432.3129, 88.58790
432.7950, 87.84851
433.2771, 87.48011
433.7592, 87.20262
434.2414, 86.57669
434.7235, 85.64115
435.2056, 84.86160
435.6877, 84.41489
436.1698, 84.19774
436.6519, 84.01962
437.1341, 83.87928
437.6162, 83.74441
438.0983, 83.56960
438.5804, 83.38792
439.0625, 83.28272
439.5446, 83.30518
440.0268, 83.27779
440.5089, 83.08053
440.9910, 82.71361
441.4731, 82.18388
441.9552, 81.14938
442.4373, 80.21956
442.9195, 79.87148
443.4016, 80.10251
443.8837, 80.30515
444.3658, 80.16089
444.8479, 79.92323
445.3300, 79.79814
445.8122, 80.05067
446.2943, 80.12035
446.7764, 79.63126
447.2585, 78.88010
447.7406, 78.62918
448.2227, 79.55547
448.7049, 80.36421
449.1870, 80.62907
449.6691, 80.22292
450.1512, 80.03329
450.6333, 80.14430
451.1154, 80.38371
451.5976, 80.64989
452.0797, 81.04802
452.5618, 81.08587
453.0439, 80.54813
453.5260, 79.67689
454.0081, 79.20036
454.4903, 79.15697
454.9724, 79.25577
455.4545, 79.39061
455.9366, 79.54601
456.4187, 79.61675
456.9008, 79.59403
457.3830, 79.50938
457.8651, 79.31661
458.3472, 79.07613
458.8293, 78.99953
459.3114, 79.19469
459.7935, 79.54253
460.2757, 79.98486
460.7578, 80.48340
461.2399, 80.85960
461.7220, 80.84334
462.2041, 80.74030
462.6862, 80.90553
463.1684, 81.48190
463.6505, 81.90907
464.1326, 81.72554
464.6147, 81.27404
465.0968, 80.99452
465.5789, 81.08179
466.0611, 81.30264
466.5432, 81.65421
467.0253, 82.11733
467.5074, 82.51196
467.9895, 82.60502
468.4716, 82.79980
468.9538, 83.32396
469.4359, 84.46796
469.9180, 85.28657
470.4001, 85.70454
470.8822, 85.85456
471.3643, 85.88394
471.8465, 85.68272
472.3286, 85.68906
472.8107, 86.08647
473.2928, 86.78654
473.7749, 87.24657
474.2570, 87.39661
474.7392, 87.66121
475.2213, 88.49517
475.7034, 89.79121
476.1855, 90.78943
476.6676, 91.37167
477.1497, 91.78403
477.6319, 92.25943
478.1140, 92.81895
478.5961, 93.52581
479.0782, 94.41699
479.5603, 95.46472
480.0424, 96.65285
480.5246, 97.98232
481.0067, 99.41164
481.4888, 101.2621
481.9709, 103.0089
482.4530, 104.0319
482.9352, 103.7433
483.4173, 103.9044
483.8994, 105.6242
484.3815, 108.1445
484.8636, 110.2924
485.3457, 111.5614
485.8279, 112.6727
486.3100, 113.6507
486.7921, 114.5129
487.2742, 115.8446
487.7563, 118.0880
488.2384, 120.3718
488.7206, 122.1571
489.2027, 123.1464
489.6848, 124.4487
490.1669, 126.1939
490.6490, 128.1333
491.1311, 129.9336
491.6133, 131.5769
492.0954, 133.0980
492.5775, 134.5051
493.0596, 135.7958
493.5417, 136.9254
494.0238, 137.8844
494.5060, 138.8983
494.9881, 140.3841
495.4702, 142.0295
495.9523, 143.0174
496.4344, 143.1454
496.9165, 143.0143
497.3987, 143.3944
497.8808, 143.9306
498.3629, 143.9458
498.8450, 142.7463
499.3271, 141.2865
499.8092, 140.2417
500.2914, 139.5110
500.7735, 138.6039
501.2556, 137.1440
501.7377, 135.5681
502.2198, 134.2275
502.7019, 133.4908
503.1841, 132.0969
503.6662, 129.2741
504.1483, 125.9651
504.6304, 123.2977
505.1125, 121.6675
505.5946, 120.1058
506.0768, 118.5599
506.5589, 116.9700
507.0410, 114.8609
507.5231, 111.9162
508.0052, 109.3440
508.4873, 108.0039
508.9695, 107.9266
509.4516, 107.1759
509.9337, 105.6569
510.4158, 103.8081
510.8979, 102.0272
511.3800, 100.3137
511.8622, 98.70625
512.3443, 97.09176
512.8264, 95.76491
513.3085, 95.37947
513.7906, 95.67730
514.2728, 95.73154
514.7549, 94.81113
515.2370, 93.55949
515.7191, 92.47600
516.2012, 91.59822
516.6833, 90.87608
517.1655, 90.34454
517.6476, 89.91900
518.1297, 89.53005
518.6118, 89.32397
519.0939, 88.95429
519.5760, 88.28630
520.0582, 87.42278
520.5403, 86.58327
521.0224, 85.65123
521.5045, 84.92138
521.9866, 84.51506
522.4688, 84.43037
522.9509, 84.34055
523.4330, 84.26504
523.9151, 84.13585
524.3972, 83.82249
524.8793, 83.31735
525.3615, 83.11734
525.8436, 83.34132
526.3257, 83.66719
526.8078, 83.60503
527.2899, 83.21337
527.7720, 82.76360
528.2542, 82.33076
528.7363, 81.92718
529.2184, 81.57255
529.7005, 81.26411
530.1826, 80.96947
530.6647, 80.68636
531.1469, 80.40014
531.6290, 80.09898
532.1111, 79.78754
532.5932, 79.44280
533.0753, 78.85966
533.5574, 78.32375
534.0396, 78.14063
534.5217, 78.87557
535.0038, 79.36172
535.4859, 79.28943
535.9680, 78.84557
536.4501, 78.63618
536.9323, 78.84996
537.4144, 78.97548
537.8965, 78.77950
538.3786, 78.25159
538.8607, 77.91614
539.3428, 77.82742
539.8250, 77.76899
540.3071, 77.48476
540.7892, 77.01394
541.2713, 76.69185
541.7534, 76.56023
542.2355, 76.62221
542.7177, 77.00281
543.1998, 77.60480
543.6819, 78.10862
544.1640, 78.37525
544.6461, 78.46671
545.1282, 78.43443
545.6104, 78.27653
546.0925, 77.98373
546.5746, 77.24662
547.0567, 76.58883
547.5388, 76.44653
548.0209, 77.10473
548.5031, 77.51521
548.9852, 77.30086
549.4673, 76.81148
549.9494, 76.40815
550.4315, 76.03820
550.9136, 75.85732
551.3958, 75.97334
551.8779, 76.26537
552.3600, 76.36376
552.8421, 76.22642
553.3242, 76.03992
553.8063, 75.82902
554.2885, 75.61864
554.7706, 75.65355
555.2527, 75.95386
555.7348, 76.28869
556.2169, 76.57199
556.6990, 76.73005
557.1812, 76.47802
557.6633, 75.65332
558.1454, 74.87946
558.6275, 74.80038
559.1096, 75.18818
559.5917, 75.63984
560.0739, 76.32224
560.5560, 76.71439
561.0381, 76.31485
561.5202, 75.32687
562.0023, 74.63217
562.4844, 74.75829
562.9666, 74.96195
563.4487, 74.81028
563.9308, 74.10251
564.4129, 74.03721
564.8950, 75.06150
565.3771, 76.23817
565.8593, 76.79186
566.3414, 76.60422
566.8235, 76.24271
567.3056, 75.64693
567.7877, 75.07213
568.2698, 75.14999
568.7520, 75.82918
569.2341, 76.21191
569.7162, 75.79170
570.1983, 74.98064
570.6804, 74.36681
571.1625, 73.98339
571.6447, 74.02569
572.1268, 75.13145
572.6089, 76.43143
573.0910, 76.99028
573.5731, 76.62395
574.0552, 76.20322
574.5374, 76.15453
575.0195, 76.22279
575.5016, 76.16877
575.9837, 75.57328
576.4658, 75.31890
576.9479, 75.73753
577.4301, 76.48362
577.9122, 76.87566
578.3943, 76.76521
578.8764, 76.58900
579.3585, 76.42581
579.8406, 76.28812
580.3228, 76.28399
580.8049, 76.42596
581.2870, 76.61802
581.7691, 76.88741
582.2512, 77.16942
582.7333, 77.14165
583.2155, 76.75765
583.6975, 76.35548
584.1796, 76.22627
584.6617, 76.29758
585.1439, 76.47195
585.6260, 76.83289
586.1081, 77.09276
586.5902, 76.99577
587.0723, 76.68149
587.5544, 76.42165
588.0366, 76.16512
588.5187, 76.09879
589.0008, 76.40884
589.4829, 77.06271
589.9650, 77.45393
590.4471, 77.52009
590.9293, 77.39510
591.4114, 77.05312
591.8935, 76.40536
592.3756, 76.19617
592.8577, 76.51423
593.3398, 77.03151
593.8220, 77.48935
594.3041, 77.87458
594.7862, 78.06743
595.2683, 78.02309
595.7504, 77.84436
596.2325, 77.56128
596.7147, 77.24407
597.1968, 77.07749
597.6789, 77.26795
598.1610, 77.53249
598.6431, 77.70350
599.1252, 77.78178
599.6074, 77.78271
600.0895, 77.55497
600.5716, 77.38474
601.0537, 77.47018
601.5358, 77.92533
602.0179, 78.12623
602.5001, 77.87687
602.9822, 77.55998
603.4643, 77.48888
603.9464, 77.76984
604.4285, 77.85804
604.9106, 77.67297
605.3928, 77.37560
605.8749, 77.16191
606.3570, 77.03651
606.8391, 77.08360
607.3212, 77.41335
607.8033, 77.81846
608.2855, 78.01854
608.7676, 78.02764
609.2497, 77.90585
609.7318, 77.43943
610.2139, 77.03474
610.6960, 77.13007
611.1782, 77.72038
611.6603, 78.13691
612.1424, 77.90880
612.6245, 77.60894
613.1066, 77.62612
613.5887, 78.25417
614.0709, 78.57117
614.5530, 78.39114
615.0351, 78.07239
615.5172, 78.02254
615.9993, 78.33483
616.4814, 78.47597
616.9636, 78.32072
617.4457, 78.03340
617.9278, 77.96191
618.4099, 78.07985
618.8920, 78.10971
619.3741, 77.76536
619.8563, 77.38878
620.3384, 77.60863
620.8205, 78.30859
621.3026, 78.90966
621.7847, 79.02334
622.2668, 78.95013
622.7490, 78.89285
623.2311, 78.87422
623.7132, 78.83973
624.1953, 78.90723
624.6774, 78.86435
625.1595, 78.52744
625.6417, 77.47076
626.1238, 76.99047
626.6059, 77.31851
627.0880, 77.97556
627.5701, 78.35033
628.0522, 78.42482
628.5344, 78.37730
629.0165, 78.19200
629.4986, 77.98376
629.9807, 78.01401
630.4628, 78.24184
630.9449, 78.44657
631.4271, 78.47001
631.9092, 78.44606
632.3913, 78.52914
632.8734, 78.70374
633.3555, 78.86903
633.8376, 79.01289
634.3198, 79.10151
634.8019, 79.07009
635.2840, 78.85793
635.7661, 78.82168
636.2482, 79.14391
636.7303, 79.53012
637.2125, 79.78101
637.6946, 79.85274
638.1767, 79.94201
638.6588, 80.11257
639.1409, 80.20715
639.6230, 79.94286
640.1052, 79.34370
640.5873, 78.75179
641.0694, 78.21159
641.5515, 77.80310
642.0336, 77.74895
642.5157, 77.94656
642.9979, 78.09571
643.4800, 77.84812
643.9621, 77.66493
644.4442, 78.00058
644.9263, 78.75201
645.4084, 79.29214
645.8906, 79.31009
646.3727, 79.16270
646.8548, 78.94872
647.3369, 78.63340
647.8190, 78.57349
648.3011, 78.89806
648.7833, 79.28580
649.2654, 79.55087
649.7475, 79.70833
650.2296, 79.48359
650.7117, 78.77307
651.1938, 78.02464
651.6760, 77.83643
652.1581, 78.07582
652.6402, 78.35291
653.1223, 78.59185
653.6044, 78.78075
654.0865, 78.85954
654.5687, 78.88979
655.0508, 78.99004
655.5329, 79.36343
656.0150, 79.65267
