##NAMES=Lindgrenite
##RRUFFID=R050213
##IDEAL CHEMISTRY=Cu^2+^_3_(Mo^6+^O_4_)_2_(OH)_2_
##LOCALITY=Chuquicamata mine, Calama, Antofagasta Province, Chile
##OWNER=RRUFF
##SOURCE=John Dagenais
##DESCRIPTION=Green tabular single crystals
##STATUS=The identification of this mineral is confirmed by single-crystal X-ray diffraction and chemical analysis.
##URL=rruff.info/R050213
##MEASURED CHEMISTRY=(Cu_2.99_Fe_0.01_)_Î£=3.00_(Mo^6+^_1.00_O_4_)_2_(OH)_2.00_ ; OH not measured but estimated by difference and charge balance
93.74609, 36.67332
94.22821, 35.44865
94.71033, 35.80748
95.19244, 37.59689
95.67456, 40.20023
96.15668, 43.85072
96.63879, 48.18555
97.12091, 51.76526
97.60303, 54.37898
98.08514, 56.84526
98.56726, 60.28882
99.04938, 64.73029
99.53149, 69.93984
100.0136, 75.87737
100.4957, 82.52351
100.9778, 89.42430
101.4600, 96.31763
101.9421, 103.5648
102.4242, 111.9108
102.9063, 121.3856
103.3884, 132.0393
103.8705, 143.7160
104.3527, 156.4403
104.8348, 170.5991
105.3169, 186.7625
105.7990, 204.6350
106.2811, 222.8376
106.7632, 242.1774
107.2454, 260.9045
107.7275, 277.5860
108.2096, 295.4237
108.6917, 306.9901
109.1738, 310.5467
109.6559, 305.3120
110.1381, 297.2811
110.6202, 283.4376
111.1023, 267.8445
111.5844, 254.7471
112.0665, 244.7635
112.5486, 236.6174
113.0308, 229.8482
113.5129, 224.1174
113.9950, 220.5706
114.4771, 219.9648
114.9592, 221.5334
115.4413, 224.1183
115.9235, 228.3250
116.4056, 232.8631
116.8877, 236.7898
117.3698, 238.9634
117.8519, 242.8242
118.3340, 250.8158
118.8162, 261.5362
119.2983, 271.5009
119.7804, 279.2823
120.2625, 285.8494
120.7446, 291.7700
121.2267, 296.5522
121.7089, 301.6924
122.1910, 307.7568
122.6731, 314.8311
123.1552, 323.2970
123.6373, 333.1676
124.1194, 344.5712
124.6016, 357.9395
125.0837, 373.7882
125.5658, 391.0463
126.0479, 409.6244
126.5300, 429.3629
127.0121, 447.5801
127.4943, 463.4992
127.9764, 476.2387
128.4585, 484.1926
128.9406, 486.3355
129.4227, 483.3570
129.9048, 475.3546
130.3869, 462.0233
130.8691, 446.6872
131.3512, 432.3657
131.8333, 419.0191
132.3154, 406.3575
132.7975, 393.8787
133.2796, 381.8646
133.7618, 372.0370
134.2439, 363.5587
134.7260, 355.5916
135.2081, 349.6497
135.6902, 346.5290
136.1723, 345.0293
136.6545, 344.7992
137.1366, 345.8200
137.6187, 347.2480
138.1008, 348.7881
138.5829, 351.0291
139.0650, 355.3444
139.5472, 361.9368
140.0293, 369.7259
140.5114, 378.1292
140.9935, 387.0861
141.4756, 397.2735
141.9577, 409.0361
142.4399, 422.1074
142.9220, 435.3751
143.4041, 449.2603
143.8862, 462.8144
144.3683, 475.2801
144.8504, 485.1222
145.3326, 497.4843
145.8147, 513.9399
146.2968, 533.8800
146.7789, 550.2926
147.2610, 563.1177
147.7431, 572.7531
148.2253, 579.2858
148.7074, 578.7260
149.1895, 580.7231
149.6716, 585.7695
150.1537, 593.7285
150.6358, 606.5219
151.1180, 625.5757
151.6001, 648.5573
152.0822, 673.2863
152.5643, 698.5632
153.0464, 726.7649
153.5285, 758.0190
154.0107, 791.9667
154.4928, 829.3836
154.9749, 871.7897
155.4570, 917.3489
155.9391, 964.1962
156.4212, 1013.547
156.9034, 1063.439
157.3855, 1113.453
157.8676, 1162.918
158.3497, 1213.237
158.8318, 1267.221
159.3139, 1321.874
159.7961, 1373.690
160.2782, 1424.328
160.7603, 1469.945
161.2424, 1509.770
161.7245, 1544.596
162.2066, 1570.312
162.6888, 1584.075
163.1709, 1588.060
163.6530, 1585.785
164.1351, 1572.605
164.6172, 1557.653
165.0993, 1545.015
165.5815, 1533.690
166.0636, 1529.430
166.5457, 1534.736
167.0278, 1548.979
167.5099, 1570.899
167.9920, 1597.743
168.4742, 1633.144
168.9563, 1680.149
169.4384, 1740.205
169.9205, 1810.323
170.4026, 1890.424
170.8847, 1979.383
171.3669, 2073.364
171.8490, 2176.966
172.3311, 2281.809
172.8132, 2381.797
173.2953, 2483.176
173.7774, 2566.340
174.2596, 2619.845
174.7417, 2642.944
175.2238, 2630.523
175.7059, 2573.203
176.1880, 2480.185
176.6701, 2361.891
177.1523, 2212.214
177.6344, 2049.597
178.1165, 1887.822
178.5986, 1727.155
179.0807, 1579.154
179.5628, 1450.368
180.0450, 1338.198
180.5271, 1239.684
181.0092, 1154.301
181.4913, 1080.211
181.9734, 1017.128
182.4555, 964.7332
182.9377, 919.3474
183.4198, 877.4840
183.9019, 839.7723
184.3840, 809.0669
184.8661, 786.9042
185.3482, 771.0811
185.8304, 757.2430
186.3125, 745.4537
186.7946, 736.1729
187.2767, 729.5463
187.7588, 725.6273
188.2409, 725.1851
188.7231, 729.3715
189.2052, 736.6573
189.6873, 742.8654
190.1694, 747.8890
190.6515, 753.7517
191.1336, 762.2531
191.6158, 773.3050
192.0979, 786.5387
192.5800, 804.0328
193.0621, 823.2845
193.5442, 835.1262
194.0263, 839.0906
194.5085, 839.1654
194.9906, 839.1398
195.4727, 838.9974
195.9548, 837.5620
196.4369, 833.8641
196.9190, 828.5770
197.4012, 824.6810
197.8833, 821.9969
198.3654, 821.4139
198.8475, 824.5856
199.3296, 831.6813
199.8117, 838.9529
200.2939, 844.3865
200.7760, 848.7220
201.2581, 858.5448
201.7402, 874.7667
202.2223, 893.8838
202.7044, 911.7504
203.1866, 927.7891
203.6687, 945.8776
204.1508, 967.9857
204.6329, 993.7117
205.1150, 1017.082
205.5971, 1038.231
206.0793, 1056.760
206.5614, 1072.545
207.0435, 1085.698
207.5256, 1094.763
208.0077, 1098.667
208.4898, 1097.493
208.9720, 1095.234
209.4541, 1091.181
209.9362, 1087.248
210.4183, 1085.080
210.9004, 1084.028
211.3825, 1087.221
211.8647, 1096.060
212.3468, 1110.611
212.8289, 1126.211
213.3110, 1142.638
213.7931, 1160.520
214.2752, 1181.801
214.7574, 1209.766
215.2395, 1232.097
215.7216, 1246.156
216.2037, 1251.830
216.6858, 1250.635
217.1679, 1243.294
217.6500, 1228.126
218.1322, 1202.520
218.6143, 1163.725
219.0964, 1120.713
219.5785, 1075.962
220.0606, 1029.032
220.5427, 980.6038
221.0249, 929.3031
221.5070, 878.5360
221.9891, 833.1039
222.4712, 793.5599
222.9533, 757.1271
223.4354, 724.0797
223.9176, 694.0497
224.3997, 666.1017
224.8818, 639.8226
225.3639, 615.8068
225.8460, 594.4740
226.3281, 576.8531
226.8103, 560.0504
227.2924, 543.5250
227.7745, 526.9563
228.2566, 512.7620
228.7387, 501.4794
229.2208, 491.9919
229.7030, 483.3378
230.1851, 475.3752
230.6672, 468.3405
231.1493, 462.2616
231.6314, 457.1352
232.1135, 452.9796
232.5957, 449.8167
233.0778, 447.5925
233.5599, 446.3572
234.0420, 446.3985
234.5241, 446.8524
235.0062, 447.5083
235.4884, 448.3572
235.9705, 449.8708
236.4526, 452.0483
236.9347, 454.9140
237.4168, 458.5579
237.8989, 463.2659
238.3811, 468.1756
238.8632, 473.1606
239.3453, 478.2382
239.8274, 483.2217
240.3095, 487.8661
240.7916, 492.7234
241.2738, 498.1754
241.7559, 503.9124
242.2380, 510.8858
242.7201, 519.7036
243.2022, 530.2489
243.6843, 539.4918
244.1665, 546.2191
244.6486, 553.1716
245.1307, 562.4816
245.6128, 574.7734
246.0949, 588.0999
246.5770, 601.6947
247.0592, 615.8541
247.5413, 633.8416
248.0234, 657.4805
248.5055, 682.4641
248.9876, 705.4896
249.4697, 725.9690
249.9519, 746.1766
250.4340, 766.8040
250.9161, 787.4538
251.3982, 805.9376
251.8803, 822.3488
252.3624, 836.2010
252.8446, 847.0316
253.3267, 854.9235
253.8088, 859.9359
254.2909, 862.9922
254.7730, 863.1592
255.2551, 856.1182
255.7373, 839.5992
256.2194, 819.6572
256.7015, 799.6808
257.1836, 779.7933
257.6657, 759.1695
258.1478, 737.1723
258.6299, 714.6416
259.1121, 693.4454
259.5942, 673.5067
260.0763, 654.9276
260.5584, 637.0900
261.0405, 619.4333
261.5226, 604.9370
262.0048, 594.3969
262.4869, 586.6908
262.9690, 578.6623
263.4511, 569.4667
263.9332, 561.8887
264.4153, 557.3884
264.8975, 556.6307
265.3796, 556.0981
265.8617, 555.4777
266.3438, 555.3401
266.8259, 557.0287
267.3080, 561.2242
267.7902, 565.3732
268.2723, 568.0509
268.7544, 568.8423
269.2365, 571.5666
269.7186, 576.6603
270.2007, 583.1196
270.6829, 589.4196
271.1650, 595.5057
271.6471, 601.5741
272.1292, 607.3705
272.6113, 612.8594
273.0934, 619.4874
273.5756, 627.3593
274.0577, 636.0777
274.5398, 645.3287
275.0219, 655.0924
275.5040, 665.1871
275.9861, 675.1791
276.4683, 685.2335
276.9504, 697.5304
277.4325, 712.1264
277.9146, 728.8053
278.3967, 747.6985
278.8788, 768.8817
279.3610, 790.5299
279.8431, 811.1462
280.3252, 831.6405
280.8073, 858.2829
281.2894, 891.7601
281.7715, 928.5350
282.2537, 964.7767
282.7358, 1000.376
283.2179, 1040.710
283.7000, 1087.366
284.1821, 1139.316
284.6642, 1192.827
285.1464, 1248.223
285.6285, 1304.445
286.1106, 1361.380
286.5927, 1418.870
287.0748, 1475.646
287.5569, 1533.312
288.0391, 1588.036
288.5212, 1630.604
289.0033, 1661.220
289.4854, 1683.588
289.9675, 1698.819
290.4496, 1707.434
290.9318, 1711.428
291.4139, 1710.167
291.8960, 1706.540
292.3781, 1704.373
292.8602, 1703.698
293.3423, 1705.055
293.8245, 1707.202
294.3066, 1711.450
294.7887, 1721.952
295.2708, 1738.833
295.7529, 1761.861
296.2350, 1791.419
296.7172, 1827.101
297.1993, 1867.270
297.6814, 1908.955
298.1635, 1955.426
298.6456, 2012.831
299.1277, 2081.545
299.6099, 2160.312
300.0920, 2248.196
300.5741, 2344.554
301.0562, 2444.240
301.5383, 2548.883
302.0204, 2655.201
302.5026, 2759.559
302.9847, 2862.564
303.4668, 2956.783
303.9489, 3046.241
304.4310, 3121.808
304.9131, 3171.197
305.3953, 3190.595
305.8774, 3181.370
306.3595, 3137.824
306.8416, 3063.695
307.3237, 2976.500
307.8058, 2878.642
308.2880, 2778.367
308.7701, 2685.167
309.2522, 2598.206
309.7343, 2522.414
310.2164, 2462.490
310.6985, 2416.496
311.1807, 2380.701
311.6628, 2358.757
312.1449, 2342.712
312.6270, 2327.508
313.1091, 2313.687
313.5912, 2295.613
314.0734, 2269.007
314.5555, 2235.763
315.0376, 2199.200
315.5197, 2163.109
316.0018, 2122.086
316.4839, 2072.931
316.9661, 2014.610
317.4482, 1952.539
317.9303, 1884.467
318.4124, 1815.678
318.8945, 1751.480
319.3766, 1693.294
319.8588, 1640.843
320.3409, 1594.583
320.8230, 1554.291
321.3051, 1519.966
321.7872, 1491.387
322.2693, 1468.917
322.7515, 1452.842
323.2336, 1445.682
323.7157, 1442.295
324.1978, 1441.877
324.6799, 1444.432
325.1620, 1449.995
325.6442, 1457.302
326.1263, 1468.488
326.6084, 1484.702
327.0905, 1508.072
327.5726, 1533.617
328.0547, 1560.366
328.5369, 1588.907
329.0190, 1621.659
329.5011, 1660.428
329.9832, 1701.278
330.4653, 1742.549
330.9474, 1782.624
331.4296, 1827.420
331.9117, 1879.092
332.3938, 1934.690
332.8759, 1990.132
333.3580, 2045.404
333.8401, 2101.452
334.3223, 2158.175
334.8044, 2215.945
335.2865, 2273.575
335.7686, 2330.851
336.2507, 2387.678
336.7328, 2444.531
337.2150, 2506.078
337.6971, 2556.097
338.1792, 2590.591
338.6613, 2611.111
339.1434, 2629.422
339.6255, 2646.466
340.1077, 2659.083
340.5898, 2665.785
341.0719, 2666.701
341.5540, 2659.369
342.0361, 2642.279
342.5182, 2618.204
343.0003, 2592.818
343.4825, 2566.153
343.9646, 2539.433
344.4467, 2512.970
344.9288, 2487.185
345.4109, 2463.897
345.8930, 2444.161
346.3752, 2424.516
346.8573, 2400.450
347.3394, 2371.986
347.8215, 2341.905
348.3036, 2310.506
348.7857, 2278.434
349.2679, 2247.326
349.7500, 2217.313
350.2321, 2188.338
350.7142, 2159.815
351.1963, 2132.611
351.6784, 2108.744
352.1606, 2089.119
352.6427, 2073.108
353.1248, 2060.207
353.6069, 2050.090
354.0890, 2041.454
354.5711, 2031.174
355.0533, 2022.474
355.5354, 2020.487
356.0175, 2027.595
356.4996, 2037.993
356.9817, 2047.973
357.4638, 2057.500
357.9460, 2066.473
358.4281, 2076.722
358.9102, 2085.245
359.3923, 2089.416
359.8744, 2088.862
360.3565, 2085.250
360.8387, 2081.765
361.3208, 2075.116
361.8029, 2061.210
362.2850, 2038.163
362.7671, 2007.916
363.2492, 1970.383
363.7314, 1925.795
364.2135, 1876.554
364.6956, 1822.329
365.1777, 1764.909
365.6598, 1705.609
366.1419, 1642.288
366.6241, 1579.815
367.1062, 1518.162
367.5883, 1458.108
368.0704, 1402.745
368.5525, 1354.531
369.0346, 1309.369
369.5168, 1265.304
369.9989, 1221.342
370.4810, 1180.358
370.9631, 1141.448
371.4452, 1105.628
371.9273, 1074.318
372.4095, 1049.649
372.8916, 1026.784
373.3737, 1004.358
373.8558, 982.2197
374.3379, 962.9294
374.8200, 946.9868
375.3022, 932.9424
375.7843, 919.7875
376.2664, 907.3035
376.7485, 896.1302
377.2306, 886.7637
377.7127, 878.5891
378.1949, 869.1431
378.6770, 857.8032
379.1591, 848.0309
379.6412, 842.0302
380.1233, 839.7650
380.6054, 839.0717
381.0876, 839.8517
381.5697, 842.1693
382.0518, 846.4351
382.5339, 852.5438
383.0160, 859.4532
383.4981, 865.9918
383.9803, 873.1094
384.4624, 884.0508
384.9445, 898.9113
385.4266, 914.6432
385.9087, 928.6016
386.3908, 941.4155
386.8730, 954.7847
387.3551, 969.3182
387.8372, 984.5917
388.3193, 999.1331
388.8014, 1013.658
389.2835, 1031.085
389.7657, 1053.927
390.2478, 1080.298
390.7299, 1108.092
391.2120, 1137.031
391.6941, 1166.958
392.1762, 1198.793
392.6584, 1230.980
393.1405, 1261.602
393.6226, 1286.638
394.1047, 1312.614
394.5868, 1343.285
395.0689, 1378.624
395.5511, 1414.287
396.0332, 1451.098
396.5153, 1486.263
396.9974, 1517.636
397.4795, 1541.825
397.9616, 1565.641
398.4438, 1592.042
398.9259, 1619.244
399.4080, 1641.652
399.8901, 1658.709
400.3722, 1670.880
400.8543, 1678.220
401.3365, 1680.540
401.8186, 1678.900
402.3007, 1674.214
402.7828, 1665.005
403.2649, 1648.834
403.7470, 1621.916
404.2292, 1595.240
404.7113, 1572.348
405.1934, 1552.446
405.6755, 1526.412
406.1576, 1492.275
406.6397, 1457.041
407.1219, 1426.163
407.6040, 1400.238
408.0861, 1373.719
408.5682, 1345.831
409.0503, 1317.428
409.5324, 1288.999
410.0146, 1260.553
410.4967, 1231.906
410.9788, 1202.344
411.4609, 1172.521
411.9430, 1144.394
412.4251, 1117.890
412.9073, 1091.841
413.3894, 1065.097
413.8715, 1037.209
414.3536, 1007.370
414.8357, 974.4452
415.3178, 939.9793
415.8000, 905.5782
416.2821, 871.2205
416.7642, 838.3234
417.2463, 809.1636
417.7284, 781.0956
418.2105, 751.4489
418.6927, 718.9301
419.1748, 687.5162
419.6569, 659.1538
420.1390, 633.0717
420.6211, 608.8599
421.1032, 586.3412
421.5854, 565.0154
422.0675, 544.6760
422.5496, 525.1532
423.0317, 506.9033
423.5138, 490.1810
423.9959, 474.5256
424.4781, 459.3346
424.9602, 444.2343
425.4423, 430.4505
425.9244, 418.5183
426.4065, 407.8547
426.8886, 397.1042
427.3708, 385.4125
427.8529, 374.5357
428.3350, 365.0654
428.8171, 357.1386
429.2992, 349.7318
429.7813, 343.1156
430.2635, 336.6909
430.7456, 329.5996
431.2277, 321.5256
431.7098, 314.2811
432.1919, 308.2412
432.6740, 303.1917
433.1562, 298.5033
433.6383, 294.1718
434.1204, 290.2059
434.6025, 286.7966
435.0846, 283.8253
435.5667, 280.5737
436.0489, 276.9445
436.5310, 273.1734
437.0131, 269.8343
437.4952, 266.6703
437.9773, 262.7724
438.4594, 256.9218
438.9416, 250.8614
439.4236, 247.3502
439.9058, 246.0488
440.3879, 244.6938
440.8700, 241.3051
441.3521, 237.2973
441.8342, 234.2079
442.3163, 232.4944
442.7985, 231.1701
443.2806, 230.0983
443.7627, 228.9689
444.2448, 227.2612
444.7269, 223.5917
445.2090, 220.4399
445.6912, 219.2359
446.1733, 220.0157
446.6554, 220.0643
447.1375, 218.0348
447.6196, 215.6453
448.1017, 213.9673
448.5839, 213.5474
449.0660, 213.2337
449.5481, 213.2178
450.0302, 213.2657
450.5123, 212.8727
450.9944, 211.9689
451.4766, 210.7519
451.9587, 209.1696
452.4408, 207.1788
452.9229, 205.5074
453.4050, 204.0809
453.8871, 203.0844
454.3693, 202.9221
454.8514, 203.6556
455.3335, 203.8081
455.8156, 202.9875
456.2977, 201.7043
456.7798, 200.9911
457.2620, 200.8086
457.7441, 200.7206
458.2262, 200.3578
458.7083, 199.9444
459.1904, 200.0341
459.6725, 200.6601
460.1547, 201.4165
460.6368, 201.9926
461.1189, 202.4548
461.6010, 202.8470
462.0831, 202.8532
462.5652, 203.2600
463.0474, 205.1791
463.5295, 208.0438
464.0116, 210.2133
464.4937, 210.2851
464.9758, 209.9447
465.4579, 210.0960
465.9401, 210.8804
466.4222, 211.8630
466.9043, 213.1373
467.3864, 214.4612
467.8685, 215.6064
468.3506, 215.8535
468.8328, 216.7640
469.3149, 218.7566
469.7970, 221.5453
470.2791, 224.0793
470.7612, 226.0858
471.2433, 228.2300
471.7255, 230.8533
472.2076, 234.0793
472.6897, 236.9488
473.1718, 239.2541
473.6539, 241.6987
474.1360, 245.2446
474.6182, 249.9388
475.1003, 254.6486
475.5824, 259.1993
476.0645, 263.5477
476.5466, 267.3731
477.0287, 270.7325
477.5109, 274.1749
477.9930, 277.7516
478.4751, 281.7079
478.9572, 286.7479
479.4393, 292.9962
479.9214, 299.3797
480.4036, 304.5993
480.8857, 309.3736
481.3678, 314.7511
481.8499, 321.3082
482.3320, 328.3357
482.8141, 335.4556
483.2963, 342.6824
483.7784, 349.9944
484.2605, 357.0639
484.7426, 364.3932
485.2247, 372.6570
485.7068, 382.4564
486.1890, 390.5292
486.6711, 394.4501
487.1532, 397.5078
487.6353, 402.8589
488.1174, 412.1553
488.5995, 420.9088
489.0817, 428.3770
489.5638, 435.0010
490.0459, 442.7916
490.5280, 452.6977
491.0101, 461.4027
491.4922, 466.9429
491.9744, 469.2792
492.4565, 473.5196
492.9386, 480.1114
493.4207, 486.9089
493.9028, 491.3718
494.3849, 493.8428
494.8671, 496.3900
495.3492, 499.7473
495.8313, 502.9314
496.3134, 504.8409
496.7955, 505.4143
497.2776, 504.4068
497.7598, 500.7358
498.2419, 495.9720
498.7240, 491.9940
499.2061, 488.8597
499.6882, 485.1078
500.1703, 479.5058
500.6525, 473.0661
501.1346, 466.8050
501.6167, 461.5488
502.0988, 455.4871
502.5809, 447.9700
503.0630, 439.2729
503.5452, 430.0847
504.0273, 420.0473
504.5094, 410.0836
504.9915, 400.5228
505.4736, 391.4108
505.9557, 382.2549
506.4379, 373.2000
506.9200, 363.9847
507.4021, 354.4021
507.8842, 344.2079
508.3663, 334.0695
508.8484, 323.6378
509.3306, 313.8145
509.8127, 306.4780
510.2948, 301.6096
510.7769, 296.9372
511.2590, 292.0023
511.7411, 286.5395
512.2233, 279.3981
512.7054, 270.7491
513.1875, 262.8043
513.6696, 257.6779
514.1517, 254.0347
514.6339, 249.9863
515.1160, 245.1462
515.5981, 240.3896
516.0802, 236.3670
516.5623, 232.7231
517.0444, 228.9844
517.5266, 224.7682
518.0087, 220.6510
518.4908, 216.7477
518.9729, 213.0839
519.4550, 209.7542
519.9371, 207.4123
520.4193, 204.8558
520.9014, 201.5002
521.3835, 196.9621
521.8656, 193.2277
522.3477, 190.5248
522.8298, 188.3750
523.3120, 186.2466
523.7941, 184.0461
524.2762, 182.5737
524.7583, 182.2300
525.2404, 182.3595
525.7225, 181.4674
526.2047, 179.5603
526.6868, 177.2521
527.1689, 174.6234
527.6510, 171.8431
528.1331, 169.2627
528.6152, 166.8643
529.0974, 164.7817
529.5795, 163.1862
530.0616, 161.9156
530.5437, 160.8120
531.0258, 159.9119
531.5079, 158.9278
531.9901, 157.5068
532.4722, 155.8992
532.9543, 154.5131
533.4364, 153.4753
533.9185, 152.6631
534.4006, 152.1236
534.8828, 151.8239
535.3649, 151.4344
535.8470, 151.1618
536.3291, 150.5664
536.8112, 149.3446
537.2933, 147.1855
537.7755, 145.6738
538.2576, 145.0526
538.7397, 144.7537
539.2218, 144.2088
539.7039, 143.4236
540.1860, 142.3093
540.6682, 140.6006
541.1503, 138.9135
541.6324, 138.9416
542.1145, 140.4796
542.5966, 141.4879
543.0787, 140.6990
543.5609, 138.7919
544.0430, 136.4669
544.5251, 133.8069
545.0072, 131.8069
545.4893, 131.8069
545.9714, 132.5466
546.4536, 132.7429
546.9357, 132.0522
547.4178, 131.0336
547.8999, 129.3791
548.3820, 127.6886
548.8641, 126.7901
549.3463, 127.8445
549.8284, 128.5843
550.3105, 128.4063
550.7926, 127.4948
551.2747, 126.8290
551.7568, 126.4948
552.2390, 126.2525
552.7211, 126.1161
553.2032, 126.1467
553.6853, 125.3901
554.1674, 123.6146
554.6495, 121.7718
555.1317, 120.7475
555.6138, 120.5164
556.0959, 120.9673
556.5780, 122.4041
557.0601, 123.7046
557.5422, 122.8004
558.0244, 120.4210
558.5065, 118.6846
558.9886, 119.4244
559.4707, 120.6337
559.9528, 120.4368
560.4349, 119.0634
560.9171, 117.9980
561.3992, 118.2989
561.8813, 118.8365
562.3634, 118.8339
562.8455, 117.9290
563.3276, 117.3674
563.8098, 117.7123
564.2919, 118.2235
564.7740, 118.2100
565.2561, 117.2414
565.7382, 116.6145
566.2203, 116.5433
566.7025, 116.8305
567.1846, 117.0583
567.6667, 117.2628
568.1488, 117.1627
568.6309, 116.4059
569.1130, 115.3017
569.5952, 115.1870
570.0773, 116.0470
570.5594, 116.7985
571.0415, 116.3147
571.5236, 115.2999
572.0057, 114.9971
572.4879, 115.6540
572.9700, 116.3797
573.4521, 116.3160
573.9342, 116.0296
574.4163, 116.2127
574.8984, 118.0523
575.3806, 119.2634
575.8627, 118.7294
576.3448, 117.0713
576.8269, 116.0153
577.3090, 115.9476
577.7911, 116.2037
578.2733, 116.7043
578.7554, 117.4369
579.2375, 118.1006
579.7196, 118.7075
580.2017, 119.2123
580.6838, 119.5408
581.1660, 119.6947
581.6481, 119.9461
582.1302, 120.3551
582.6123, 120.6482
583.0944, 120.1747
583.5765, 119.2975
584.0587, 119.1822
584.5408, 120.6483
585.0229, 122.1469
585.5050, 121.7467
585.9871, 120.1526
586.4692, 119.0880
586.9514, 119.9762
587.4335, 120.9804
