##NAMES=Lindgrenite
##RRUFFID=R110061
##IDEAL CHEMISTRY=Cu^2+^_3_(Mo^6+^O_4_)_2_(OH)_2_
##LOCALITY=Childs Aldwinkle mine, Copper Creek, Pinal County, Arizona, USA
##OWNER=RRUFF
##SOURCE=Ron Gibbs
##DESCRIPTION=Pale green needles
##STATUS=The identification of this mineral has been confirmed only by single crystal X-ray diffraction.
##URL=rruff.info/R110061
156.2072, 484.9155
156.6893, 485.2699
157.1714, 489.8404
157.6535, 494.1036
158.1356, 496.0173
158.6177, 495.7217
159.0999, 494.7144
159.5820, 494.3990
160.0641, 494.9547
160.5462, 494.6273
161.0283, 492.2148
161.5104, 489.7768
161.9926, 488.9627
162.4747, 489.9826
162.9568, 491.8187
163.4389, 493.7194
163.9210, 495.6646
164.4031, 496.9610
164.8853, 496.7413
165.3674, 496.0204
165.8495, 496.2699
166.3316, 497.7740
166.8137, 500.0901
167.2958, 503.3069
167.7780, 507.1447
168.2601, 510.3807
168.7422, 511.7357
169.2243, 511.8358
169.7064, 513.4017
170.1885, 518.1323
170.6707, 522.5339
171.1528, 524.5195
171.6349, 524.3074
172.1170, 523.0016
172.5991, 521.5735
173.0812, 520.0806
173.5634, 517.2437
174.0455, 511.7681
174.5276, 505.7618
175.0097, 500.0432
175.4918, 494.6314
175.9739, 489.1430
176.4561, 482.9725
176.9382, 475.4660
177.4203, 469.4135
177.9024, 465.7685
178.3845, 462.6547
178.8666, 459.1317
179.3488, 455.0902
179.8309, 450.9289
180.3130, 447.0912
180.7951, 442.8158
181.2772, 440.9708
181.7593, 443.9293
182.2415, 447.4671
182.7236, 448.1456
183.2057, 445.2710
183.6878, 440.9731
184.1699, 438.4252
184.6520, 438.4157
185.1342, 438.9454
185.6163, 440.6743
186.0984, 442.6489
186.5805, 443.4997
187.0626, 442.7376
187.5447, 441.7874
188.0269, 443.5116
188.5090, 448.7574
188.9911, 452.7795
189.4732, 454.0378
189.9553, 453.4641
190.4374, 452.6231
190.9196, 451.9548
191.4017, 451.1190
191.8838, 449.3521
192.3659, 446.5465
192.8480, 444.2570
193.3301, 444.1390
193.8123, 445.3453
194.2944, 444.4914
194.7765, 439.5259
195.2586, 433.6436
195.7407, 430.2141
196.2228, 429.2744
196.7050, 429.0776
197.1871, 428.5313
197.6692, 427.6504
198.1513, 426.7450
198.6334, 425.7480
199.1155, 424.8685
199.5977, 424.1751
200.0798, 423.6895
200.5619, 423.5193
201.0440, 424.0375
201.5261, 425.4679
202.0082, 426.1093
202.4904, 424.7668
202.9725, 423.2704
203.4546, 422.3219
203.9367, 422.0907
204.4188, 422.5737
204.9009, 424.1884
205.3831, 427.9200
205.8652, 429.6525
206.3473, 427.5705
206.8294, 424.9019
207.3115, 423.3632
207.7936, 423.2821
208.2758, 424.0024
208.7579, 424.5472
209.2400, 424.3063
209.7221, 425.3501
210.2042, 429.2690
210.6863, 433.1405
211.1685, 434.9600
211.6506, 434.3561
212.1327, 432.3416
212.6148, 430.2961
213.0969, 428.0929
213.5790, 426.2066
214.0612, 425.0313
214.5433, 423.9130
215.0254, 422.4243
215.5075, 420.4482
215.9896, 417.8983
216.4718, 414.5183
216.9539, 409.3678
217.4360, 405.7917
217.9181, 405.3187
218.4002, 405.7030
218.8823, 404.6185
219.3645, 401.4995
219.8466, 397.5998
220.3287, 394.5881
220.8108, 392.5997
221.2929, 390.6118
221.7750, 388.2166
222.2572, 385.8572
222.7393, 384.3057
223.2214, 383.8483
223.7035, 383.4574
224.1856, 381.5590
224.6677, 378.2880
225.1499, 375.4416
225.6320, 373.6435
226.1141, 372.5137
226.5962, 371.5380
227.0783, 370.7360
227.5604, 369.7832
228.0426, 368.1232
228.5247, 365.9492
229.0068, 364.0276
229.4889, 362.4775
229.9710, 361.4126
230.4531, 361.2148
230.9353, 362.2308
231.4174, 363.4875
231.8995, 364.1783
232.3816, 364.4887
232.8637, 364.9208
233.3458, 366.1573
233.8280, 367.7480
234.3101, 368.0192
234.7922, 365.9853
235.2743, 364.2388
235.7564, 364.3470
236.2385, 365.7614
236.7207, 367.4405
237.2028, 369.0348
237.6849, 370.4368
238.1670, 371.1476
238.6491, 370.7287
239.1312, 370.2325
239.6134, 370.1140
240.0955, 370.2258
240.5776, 370.2762
241.0597, 369.9963
241.5418, 369.5444
242.0239, 369.6818
242.5061, 370.4903
242.9882, 371.8809
243.4703, 374.2458
243.9524, 377.0254
244.4345, 379.4266
244.9166, 380.9623
245.3988, 381.8069
245.8809, 382.7992
246.3630, 384.7030
246.8451, 385.6795
247.3272, 384.4557
247.8093, 382.3918
248.2915, 381.2386
248.7736, 381.9666
249.2557, 384.1948
249.7378, 386.4224
250.2199, 389.7640
250.7020, 391.5878
251.1842, 390.5875
251.6663, 388.2460
252.1484, 386.2481
252.6305, 385.3984
253.1126, 385.4173
253.5947, 385.4270
254.0769, 386.0741
254.5590, 385.8544
255.0411, 383.8148
255.5232, 381.2093
256.0053, 379.6358
256.4874, 379.7648
256.9695, 380.6582
257.4517, 380.0492
257.9338, 375.8765
258.4159, 372.5749
258.8980, 370.5066
259.3801, 369.1705
259.8622, 368.0147
260.3444, 366.8505
260.8265, 365.8840
261.3086, 365.5375
261.7907, 366.6443
262.2728, 367.0324
262.7549, 365.6170
263.2371, 363.9833
263.7192, 363.9269
264.2013, 365.8901
264.6834, 368.6460
265.1655, 370.3644
265.6476, 370.4141
266.1298, 370.8886
266.6119, 372.4853
267.0940, 374.1665
267.5761, 374.7037
268.0582, 373.9093
268.5403, 372.9644
269.0225, 373.2687
269.5046, 375.1606
269.9867, 377.0417
270.4688, 378.9663
270.9509, 380.8120
271.4330, 382.3987
271.9152, 383.7202
272.3973, 385.0905
272.8794, 386.9570
273.3615, 389.3475
273.8436, 390.8248
274.3257, 389.7949
274.8079, 388.9570
275.2900, 390.7803
275.7721, 395.2631
276.2542, 400.2175
276.7363, 404.1278
277.2184, 407.0235
277.7006, 410.0617
278.1827, 413.0567
278.6648, 416.3195
279.1469, 419.8758
279.6290, 423.7754
280.1111, 428.5313
280.5933, 434.8518
281.0754, 442.1650
281.5575, 448.4184
282.0396, 452.4490
282.5217, 456.8208
283.0038, 463.1917
283.4860, 471.3316
283.9681, 480.2570
284.4502, 490.0818
284.9323, 499.9342
285.4144, 508.1319
285.8965, 514.2948
286.3787, 519.8552
286.8608, 525.8709
287.3429, 531.9825
287.8250, 536.8234
288.3071, 539.5132
288.7892, 541.2912
289.2714, 543.8068
289.7535, 546.9916
290.2356, 550.9746
290.7177, 556.3324
291.1998, 562.5529
291.6819, 568.2624
292.1641, 572.9668
292.6462, 577.4909
293.1283, 582.7396
293.6104, 588.6193
294.0925, 594.7706
294.5746, 600.6490
295.0568, 606.7503
295.5389, 614.0106
296.0210, 622.5198
296.5031, 632.2382
296.9852, 643.4466
297.4673, 655.8650
297.9495, 669.1907
298.4316, 684.4678
298.9137, 700.1082
299.3958, 713.2444
299.8779, 723.2873
300.3600, 733.4574
300.8422, 747.2458
301.3243, 762.3992
301.8064, 774.7866
302.2885, 783.6213
302.7706, 789.3710
303.2527, 792.2665
303.7349, 792.2350
304.2170, 790.6759
304.6991, 789.7601
305.1812, 786.6578
305.6633, 777.0936
306.1454, 758.9124
306.6276, 738.2858
307.1097, 719.7161
307.5918, 703.2208
308.0739, 688.6047
308.5560, 676.5720
309.0381, 666.0804
309.5203, 656.0551
310.0024, 646.4904
310.4845, 636.7089
310.9666, 625.7053
311.4487, 613.9007
311.9308, 603.5914
312.4130, 595.7781
312.8951, 588.9006
313.3772, 581.5994
313.8593, 573.9211
314.3414, 566.3802
314.8235, 559.3176
315.3057, 552.5646
315.7878, 545.3218
316.2699, 537.0055
316.7520, 529.5585
317.2341, 524.9049
317.7162, 522.1828
318.1984, 519.6749
318.6805, 516.9681
319.1626, 514.0528
319.6447, 510.4589
320.1268, 505.7949
320.6089, 502.4535
321.0911, 503.2849
321.5732, 505.8977
322.0553, 506.8790
322.5374, 504.8257
323.0195, 502.1581
323.5016, 501.4374
323.9838, 502.6708
324.4659, 504.0609
324.9480, 504.3354
325.4301, 504.9366
325.9122, 507.9033
326.3943, 513.8410
326.8765, 519.6262
327.3586, 522.6937
327.8407, 523.5243
328.3228, 524.5797
328.8049, 526.0179
329.2870, 528.4763
329.7692, 532.5331
330.2513, 538.0758
330.7334, 544.3981
331.2155, 552.7398
331.6976, 561.4608
332.1797, 566.0754
332.6619, 564.9182
333.1440, 563.0224
333.6261, 564.9635
334.1082, 569.3776
334.5903, 573.2058
335.0724, 575.8663
335.5546, 577.2682
336.0367, 576.8790
336.5188, 574.5461
337.0009, 572.0334
337.4830, 569.8613
337.9651, 568.3710
338.4473, 568.4288
338.9294, 571.5555
339.4115, 573.9938
339.8936, 572.1678
340.3758, 566.5789
340.8579, 561.0116
341.3400, 556.7692
341.8221, 553.2912
342.3042, 549.7129
342.7863, 546.0443
343.2685, 542.1787
343.7506, 537.6170
344.2327, 532.8297
344.7148, 529.1561
345.1969, 527.1838
345.6790, 525.5458
346.1612, 522.8083
346.6433, 519.1180
347.1254, 514.6245
347.6075, 508.1682
348.0896, 501.5132
348.5717, 497.2426
349.0539, 495.6222
349.5360, 494.4820
350.0181, 492.5052
350.5002, 489.6533
350.9823, 486.1105
351.4644, 480.9806
351.9466, 475.9554
352.4287, 472.0689
352.9108, 469.2503
353.3929, 467.1129
353.8750, 465.5726
354.3571, 464.5438
354.8393, 463.8688
355.3214, 463.8741
355.8035, 463.4775
356.2856, 462.0513
356.7677, 460.0089
357.2498, 458.1807
357.7320, 456.8582
358.2141, 455.4771
358.6962, 453.2478
359.1783, 450.1372
359.6604, 446.4249
360.1425, 441.1518
360.6247, 435.8809
361.1068, 432.4665
361.5889, 430.9217
362.0710, 429.4036
362.5531, 426.2875
363.0352, 421.5811
363.5174, 417.5680
363.9995, 415.1970
364.4816, 412.4979
364.9637, 408.0268
365.4458, 402.4492
365.9279, 397.5777
366.4101, 394.4347
366.8922, 392.4502
367.3743, 389.8297
367.8564, 386.1643
368.3385, 382.4858
368.8206, 378.6097
369.3028, 374.9146
369.7849, 372.0135
370.2670, 370.0529
370.7491, 368.3792
371.2312, 365.9888
371.7133, 362.2382
372.1955, 359.9192
372.6776, 360.4168
373.1597, 361.0798
373.6418, 360.2289
374.1239, 357.9507
374.6060, 355.2118
375.0882, 352.6120
375.5703, 350.1994
376.0524, 349.2003
376.5345, 351.5343
377.0166, 353.0544
377.4987, 352.3751
377.9809, 350.4200
378.4630, 348.5913
378.9451, 347.5361
379.4272, 345.6604
379.9093, 345.5692
380.3914, 342.7950
380.8736, 340.8779
381.3557, 339.9303
381.8378, 339.7333
382.3199, 340.5541
382.8020, 342.1812
383.2841, 343.6046
383.7663, 343.5128
384.2484, 341.5611
384.7305, 340.5053
385.2126, 340.4171
385.6947, 341.2246
386.1768, 343.7780
386.6590, 347.1833
387.1411, 349.7812
387.6232, 350.5319
388.1053, 349.8350
388.5874, 348.9027
389.0695, 346.8177
389.5517, 346.3382
390.0338, 349.9550
390.5159, 354.2163
390.9980, 355.3354
391.4801, 352.3190
391.9622, 348.6427
392.4444, 349.0174
392.9265, 353.9602
393.4086, 357.9371
393.8907, 359.9404
394.3728, 361.0489
394.8549, 361.6708
395.3371, 361.9151
395.8192, 362.0196
396.3013, 362.2049
396.7834, 362.3653
397.2655, 362.0594
397.7477, 361.0627
398.2298, 360.1863
398.7119, 360.4078
399.1940, 360.8376
399.6761, 360.1234
400.1582, 357.4806
400.6404, 354.6037
401.1225, 353.4841
401.6046, 353.9897
402.0867, 354.0357
402.5688, 352.9530
403.0509, 351.1647
403.5331, 349.0475
404.0152, 346.5825
404.4973, 344.4707
404.9794, 343.4331
405.4615, 342.8312
405.9436, 341.5015
406.4258, 339.2700
406.9079, 336.7291
407.3900, 334.3565
407.8721, 332.0900
408.3542, 329.5738
408.8363, 325.7947
409.3185, 322.6588
409.8006, 322.3390
410.2827, 323.9184
410.7648, 324.1294
411.2469, 321.3687
411.7290, 316.7715
412.2112, 312.8546
412.6933, 309.9627
413.1754, 306.7908
413.6575, 302.1528
414.1396, 297.6452
414.6217, 295.2891
415.1039, 295.2950
415.5860, 295.8534
416.0681, 295.1709
416.5502, 293.1012
417.0323, 291.3172
417.5144, 290.4547
417.9966, 289.1763
418.4787, 286.3059
418.9608, 282.6944
419.4429, 280.1272
419.9250, 279.5788
420.4071, 280.1916
420.8893, 279.5861
421.3714, 277.0263
421.8535, 274.2650
422.3356, 270.3335
422.8177, 266.9244
423.2998, 266.0493
423.7820, 267.5174
424.2641, 268.8335
424.7462, 267.0741
425.2283, 261.8943
425.7104, 258.6898
426.1925, 259.0832
426.6747, 259.8365
427.1568, 260.4795
427.6389, 260.7711
428.1210, 260.1690
428.6031, 258.2086
429.0852, 256.0652
429.5674, 256.8129
430.0495, 261.9533
430.5316, 264.5783
431.0137, 259.7176
431.4958, 254.0546
431.9779, 252.1779
432.4601, 254.2170
432.9422, 256.6648
433.4243, 256.8934
433.9064, 255.3272
434.3885, 253.6681
434.8706, 251.7260
435.3528, 250.3130
435.8349, 250.5046
436.3170, 251.4809
436.7991, 251.7943
437.2812, 250.5228
437.7633, 249.2836
438.2455, 250.1647
438.7276, 252.7570
439.2097, 254.1155
439.6918, 252.9881
440.1739, 250.5383
440.6560, 248.2931
441.1382, 246.1914
441.6203, 244.5256
442.1024, 243.1583
442.5845, 242.3917
443.0666, 242.9173
443.5487, 244.6917
444.0309, 246.4890
444.5130, 247.4829
444.9951, 247.6748
445.4772, 247.2600
445.9593, 245.8165
446.4414, 244.3600
446.9236, 242.7964
447.4057, 241.5285
447.8878, 241.2672
448.3699, 242.2391
448.8520, 243.8667
449.3341, 245.3732
449.8163, 247.0700
450.2984, 247.6335
450.7805, 246.0834
451.2626, 244.4830
451.7447, 243.9955
452.2268, 244.3859
452.7090, 244.7832
453.1911, 244.6086
453.6732, 243.9852
454.1553, 243.4450
454.6374, 243.1868
455.1195, 242.6538
455.6017, 241.2458
456.0838, 239.8885
456.5659, 239.4245
457.0480, 239.9756
457.5301, 240.9743
458.0122, 242.0504
458.4944, 243.1952
458.9765, 243.6383
459.4586, 242.6543
459.9407, 242.0357
460.4228, 242.9806
460.9049, 244.8373
461.3871, 246.4852
461.8692, 247.5840
462.3513, 248.2336
462.8334, 248.6919
463.3155, 248.9339
463.7976, 248.0547
464.2798, 244.7832
464.7619, 241.4777
465.2440, 241.7994
465.7261, 245.8381
466.2082, 248.3623
466.6903, 246.0617
467.1725, 242.1465
467.6546, 240.5117
468.1367, 241.4061
468.6188, 243.2118
469.1009, 245.1730
469.5830, 247.0802
470.0652, 247.9249
470.5473, 246.5112
471.0294, 245.6907
471.5115, 246.9306
471.9936, 248.8494
472.4757, 249.5202
472.9579, 248.5116
473.4400, 247.0710
473.9221, 246.6931
474.4042, 247.5616
474.8863, 248.4547
475.3684, 249.3777
475.8506, 250.3228
476.3327, 251.4205
476.8148, 252.5086
477.2969, 253.3515
477.7790, 253.8335
478.2611, 253.9671
478.7433, 253.6258
479.2254, 252.4061
479.7075, 251.8734
480.1896, 252.5286
480.6717, 253.6489
481.1538, 255.1249
481.6360, 256.7871
482.1181, 258.2013
482.6002, 259.0634
483.0823, 259.4681
483.5644, 259.7691
484.0465, 260.0974
484.5287, 259.7848
485.0108, 257.4403
485.4929, 254.8738
485.9750, 254.6069
486.4571, 257.3923
486.9392, 259.8837
487.4214, 259.2104
487.9035, 256.9031
488.3856, 256.6804
488.8677, 259.3470
489.3498, 262.3370
489.8319, 263.4802
490.3141, 262.8347
490.7962, 262.2976
491.2783, 262.1711
491.7604, 261.8291
492.2425, 260.4610
492.7246, 258.7704
493.2068, 258.4108
493.6889, 259.9659
494.1710, 261.8415
494.6531, 261.4613
495.1352, 257.8239
495.6173, 255.0370
496.0995, 253.2444
496.5816, 252.0253
497.0637, 251.2887
497.5458, 250.9650
498.0279, 251.1934
498.5100, 252.1624
498.9922, 253.1487
499.4743, 251.8977
499.9564, 246.7139
500.4385, 243.6375
500.9206, 245.8603
501.4027, 248.5598
501.8849, 248.7893
502.3670, 246.5959
502.8491, 243.7707
503.3312, 240.9317
503.8133, 238.4878
504.2954, 237.9547
504.7776, 239.8108
505.2597, 241.3104
505.7418, 240.9040
506.2239, 239.5503
506.7060, 238.6306
507.1881, 238.2886
507.6703, 238.0726
508.1524, 238.1442
508.6345, 238.0720
509.1166, 236.8856
509.5987, 234.4336
510.0808, 231.9465
510.5630, 230.3745
511.0451, 229.6865
511.5272, 229.2719
512.0093, 229.8319
512.4914, 229.7967
512.9735, 228.2491
513.4556, 226.0319
513.9377, 224.1259
514.4199, 222.8453
514.9020, 222.0691
515.3841, 221.6754
515.8662, 221.6682
516.3483, 222.0178
516.8304, 223.3863
517.3126, 224.4074
517.7947, 224.9815
518.2768, 224.8739
518.7589, 223.5533
519.2410, 220.7527
519.7231, 217.5548
520.2053, 215.3514
520.6874, 214.1566
521.1695, 213.9594
521.6516, 215.6056
522.1337, 217.1736
522.6158, 216.9709
523.0980, 215.6326
523.5801, 215.0397
524.0622, 216.6998
524.5443, 218.5514
525.0264, 218.1255
525.5085, 215.7895
525.9907, 213.6521
526.4728, 212.3402
526.9549, 211.7581
527.4370, 211.9062
527.9191, 212.8948
528.4012, 213.8624
528.8834, 215.4836
529.3655, 216.4101
529.8476, 214.9174
530.3297, 211.8653
530.8118, 209.9718
531.2939, 210.7995
531.7761, 212.9975
532.2582, 212.9469
532.7403, 208.1422
533.2224, 205.7425
533.7045, 207.4626
534.1866, 209.8887
534.6688, 211.4731
535.1509, 211.9779
535.6330, 211.4211
536.1151, 209.5449
536.5972, 206.9697
537.0793, 205.2935
537.5615, 204.5880
538.0436, 204.5369
538.5257, 205.5163
539.0078, 206.7890
539.4899, 207.9234
539.9720, 208.8671
540.4542, 209.1671
540.9363, 207.8430
541.4184, 206.1225
541.9005, 206.1632
542.3826, 207.9160
542.8647, 208.9981
543.3469, 207.9187
543.8290, 205.6340
544.3111, 204.7290
544.7932, 206.0746
545.2753, 206.5525
545.7574, 204.3323
546.2396, 202.0649
546.7217, 202.6987
547.2038, 205.7461
547.6859, 208.1081
548.1680, 207.4988
548.6501, 204.6933
549.1323, 203.1782
549.6144, 203.9373
550.0965, 204.3166
550.5786, 203.5538
551.0607, 202.7139
551.5428, 202.6059
552.0250, 203.2295
552.5071, 204.0422
552.9892, 204.7832
553.4713, 205.3789
553.9534, 205.6801
554.4355, 205.7328
554.9177, 205.1842
555.3998, 203.3150
555.8819, 201.1893
556.3640, 200.2027
556.8461, 200.4590
557.3282, 201.1692
557.8104, 202.2867
558.2925, 203.5471
558.7746, 204.7597
559.2567, 205.8653
559.7388, 206.6539
560.2209, 207.0837
560.7031, 206.9837
561.1852, 205.7990
561.6673, 201.2657
562.1494, 198.8748
562.6315, 200.2690
563.1136, 202.5981
563.5958, 204.0461
564.0779, 204.4787
564.5600, 204.4925
565.0421, 204.5475
565.5242, 204.4361
566.0063, 203.1378
566.4885, 199.7638
566.9706, 197.8231
567.4527, 199.8465
567.9348, 202.3343
568.4169, 202.7645
568.8990, 201.2361
569.3812, 199.5949
569.8633, 198.4241
570.3454, 197.9060
570.8275, 198.8254
571.3096, 201.0335
571.7917, 202.3488
572.2739, 201.6428
572.7560, 199.9074
573.2381, 198.8221
573.7202, 198.3839
574.2023, 198.5177
574.6844, 200.0332
575.1666, 201.4133
575.6487, 201.4838
576.1308, 200.5396
576.6129, 199.4447
577.0950, 198.6284
577.5771, 198.1109
578.0593, 198.0098
578.5414, 198.6040
579.0235, 198.8484
579.5056, 198.6455
579.9877, 198.1135
580.4698, 197.0766
580.9520, 195.7561
581.4341, 194.6604
581.9162, 194.1449
582.3983, 193.6792
582.8804, 191.9734
583.3625, 189.2810
583.8447, 188.7579
584.3268, 191.9386
584.8089, 195.6322
585.2910, 196.2767
585.7732, 194.1904
586.2553, 192.6671
586.7374, 191.9144
587.2195, 191.8681
587.7017, 192.9184
588.1838, 194.5477
588.6659, 196.0103
589.1480, 197.0513
589.6301, 197.5444
590.1122, 197.2127
590.5944, 195.9048
591.0765, 195.2275
591.5586, 195.5840
592.0407, 196.1330
592.5228, 196.9248
593.0049, 197.6836
593.4871, 198.2642
593.9692, 198.6066
594.4513, 198.2334
594.9334, 195.9512
595.4155, 192.4344
595.8976, 190.8359
596.3798, 191.6394
596.8619, 192.9990
597.3440, 194.1787
597.8261, 195.0510
598.3082, 195.3253
598.7903, 194.6880
599.2725, 194.2498
599.7546, 194.6711
600.2367, 195.2811
600.7188, 195.1141
601.2009, 194.2915
601.6830, 194.0190
602.1652, 195.2316
602.6473, 197.3186
603.1294, 197.9024
603.6115, 195.5397
604.0936, 194.3406
604.5757, 195.7766
605.0579, 197.2830
605.5400, 197.1624
606.0221, 195.6910
606.5042, 194.1855
606.9863, 193.4101
607.4684, 192.9489
607.9506, 191.8136
608.4327, 190.0477
608.9148, 189.6211
609.3969, 191.6452
609.8790, 194.0576
610.3611, 194.2743
610.8433, 192.5283
611.3254, 191.7370
611.8075, 193.0439
612.2896, 194.4995
612.7717, 194.9884
613.2538, 194.9559
613.7360, 195.4055
614.2181, 196.5676
614.7002, 197.4274
615.1823, 196.6424
615.6644, 194.0968
616.1465, 192.3008
616.6287, 191.5229
617.1108, 191.1837
617.5929, 191.1231
618.0750, 191.3961
618.5571, 192.4443
619.0392, 194.2639
619.5214, 195.3528
620.0035, 193.7001
620.4856, 190.7195
620.9677, 190.0607
621.4498, 191.9683
621.9319, 192.9668
622.4141, 190.8874
622.8962, 187.3540
623.3783, 185.8811
623.8604, 186.9714
624.3425, 188.2176
624.8246, 189.8896
625.3068, 191.1586
625.7889, 191.3554
626.2710, 190.6882
626.7531, 189.5274
627.2352, 188.0339
627.7173, 186.8195
628.1995, 187.3953
628.6816, 190.3628
629.1637, 191.7254
629.6458, 190.2046
630.1279, 188.3950
630.6100, 187.0243
631.0922, 186.4018
631.5743, 187.3946
632.0564, 190.8847
632.5385, 193.9770
633.0206, 194.0318
633.5027, 192.3524
633.9849, 191.4636
634.4670, 191.7370
634.9491, 192.5998
635.4312, 193.8942
635.9133, 195.2823
636.3954, 195.1457
636.8776, 191.2133
637.3597, 188.8070
637.8418, 189.2815
638.3239, 190.3691
638.8060, 190.6343
639.2881, 190.0341
639.7703, 189.0211
640.2524, 187.7315
640.7345, 186.5294
641.2166, 186.2009
641.6987, 186.7765
642.1808, 187.5652
642.6630, 188.7154
643.1451, 189.5924
643.6272, 189.5139
644.1093, 188.6680
644.5914, 187.6405
645.0735, 185.3453
645.5557, 184.2220
646.0378, 186.7220
646.5199, 190.5473
647.0020, 192.3306
647.4841, 191.5040
647.9662, 189.6116
648.4484, 187.8840
648.9305, 186.3764
649.4126, 185.3956
649.8947, 184.8260
650.3768, 185.0488
650.8589, 186.7943
651.3411, 188.7799
651.8232, 190.2054
652.3053, 191.0400
652.7874, 191.5820
653.2695, 192.0408
653.7516, 192.2224
