##NAMES=Lithiophosphate
##RRUFFID=R100092
##IDEAL CHEMISTRY=Li_3_PO_4_
##LOCALITY=Cachoeira mine, Itinga, Minas Gerais, Brazil
##OWNER=RRUFF
##SOURCE=Luiz Menezes 
##DESCRIPTION=Colorless fragments and prismatic crystals
##STATUS=The identification of this mineral has been confirmed by single-crystal X-ray diffraction.
##URL=rruff.info/R100092
132.9952, 83.80791
133.4774, 83.96645
133.9595, 84.48645
134.4416, 84.96923
134.9237, 85.00432
135.4058, 84.51787
135.8879, 84.10307
136.3701, 83.97314
136.8522, 83.88650
137.3343, 83.69743
137.8164, 83.37059
138.2985, 82.99265
138.7806, 82.76917
139.2628, 83.07534
139.7449, 82.79311
140.2270, 81.30665
140.7091, 79.52471
141.1912, 78.26756
141.6733, 77.90956
142.1555, 78.22006
142.6376, 78.42249
143.1197, 78.50980
143.6018, 78.48292
144.0839, 78.32767
144.5660, 78.05690
145.0482, 77.68587
145.5303, 77.21974
146.0124, 76.66280
146.4945, 76.03777
146.9766, 74.82240
147.4587, 74.04729
147.9409, 74.62003
148.4230, 76.22250
148.9051, 77.33128
149.3872, 76.56229
149.8693, 74.34513
150.3514, 73.40730
150.8336, 75.09256
151.3157, 77.27483
151.7978, 77.91927
152.2799, 76.81592
152.7620, 75.41280
153.2441, 74.85554
153.7263, 74.75391
154.2084, 74.45280
154.6905, 73.41518
155.1726, 72.08120
155.6547, 71.48728
156.1368, 71.97324
156.6190, 72.62875
157.1011, 72.89958
157.5832, 72.95036
158.0653, 73.11380
158.5474, 73.70669
159.0295, 74.67571
159.5117, 75.32150
159.9938, 75.71752
160.4759, 75.64343
160.9580, 74.76097
161.4401, 73.30249
161.9222, 71.82276
162.4044, 70.81541
162.8865, 70.33601
163.3686, 69.99788
163.8507, 69.88174
164.3328, 69.82235
164.8149, 69.78987
165.2971, 69.75935
165.7792, 69.68916
166.2613, 69.52219
166.7434, 69.20554
167.2255, 68.94601
167.7076, 68.80195
168.1898, 68.66659
168.6719, 68.46868
169.1540, 68.19261
169.6361, 67.86906
170.1182, 67.54100
170.6003, 67.22285
171.0825, 66.85556
171.5646, 66.23807
172.0467, 65.64764
172.5288, 65.42221
173.0109, 65.67213
173.4930, 66.21201
173.9752, 66.91512
174.4573, 67.91238
174.9394, 68.40979
175.4215, 67.71601
175.9036, 66.35884
176.3857, 65.54167
176.8679, 65.69059
177.3500, 66.38696
177.8321, 67.09177
178.3142, 67.82148
178.7963, 68.45687
179.2784, 68.71036
179.7606, 68.67925
180.2427, 69.20292
180.7248, 71.07338
181.2069, 73.08875
181.6890, 74.27287
182.1711, 74.55037
182.6533, 74.19308
183.1354, 73.20369
183.6175, 71.45039
184.0996, 70.11252
184.5817, 70.09794
185.0638, 70.19833
185.5460, 69.51880
186.0281, 67.89755
186.5102, 66.18546
186.9923, 65.69650
187.4744, 67.01368
187.9565, 68.02422
188.4387, 68.64915
188.9208, 68.81510
189.4029, 68.24987
189.8850, 66.91618
190.3671, 65.30669
190.8492, 64.33427
191.3314, 64.26673
191.8135, 64.51223
192.2956, 65.33537
192.7777, 66.26263
193.2598, 66.83625
193.7419, 66.88206
194.2241, 66.62282
194.7062, 66.59261
195.1883, 66.52503
195.6704, 67.07913
196.1525, 68.67728
196.6346, 70.77144
197.1168, 72.92583
197.5989, 74.98513
198.0810, 76.67170
198.5631, 77.09000
199.0452, 75.58792
199.5273, 73.79800
200.0095, 71.74360
200.4916, 69.59364
200.9737, 67.49390
201.4558, 65.39810
201.9379, 63.60525
202.4200, 63.11409
202.9022, 64.73652
203.3843, 65.96893
203.8664, 65.64664
204.3485, 64.21454
204.8306, 62.85630
205.3127, 62.00692
205.7949, 61.62926
206.2770, 61.56283
206.7591, 61.83759
207.2412, 62.30665
207.7233, 63.06106
208.2054, 64.02635
208.6876, 64.70963
209.1697, 64.82620
209.6518, 64.59205
210.1339, 64.32243
210.6160, 63.96272
211.0981, 63.75929
211.5803, 64.05547
212.0624, 64.85273
212.5445, 65.43742
213.0266, 65.32728
213.5087, 65.02169
213.9908, 64.99718
214.4730, 65.34949
214.9551, 65.83198
215.4372, 66.12593
215.9193, 66.17162
216.4014, 66.41039
216.8836, 67.12581
217.3657, 68.00227
217.8478, 68.82191
218.3299, 69.52604
218.8120, 70.28108
219.2941, 71.21580
219.7763, 72.19653
220.2584, 73.83377
220.7405, 76.66558
221.2226, 79.88916
221.7047, 82.98535
222.1868, 85.81276
222.6690, 88.56737
223.1511, 91.50088
223.6332, 94.50209
224.1153, 98.03000
224.5974, 103.4562
225.0795, 108.5161
225.5617, 111.7688
226.0438, 112.7489
226.5259, 111.6610
227.0080, 108.6810
227.4901, 102.7644
227.9722, 96.72454
228.4544, 90.13484
228.9365, 83.80179
229.4186, 78.34573
229.9007, 73.96117
230.3828, 70.50516
230.8649, 67.76569
231.3471, 65.65298
231.8292, 64.57826
232.3113, 65.48540
232.7934, 66.78761
233.2755, 66.97826
233.7576, 65.70597
234.2398, 63.98846
234.7219, 63.54859
235.2040, 65.47550
235.6861, 66.81658
236.1682, 67.15269
236.6503, 67.14554
237.1325, 67.36489
237.6146, 67.96284
238.0967, 68.74971
238.5788, 69.41089
239.0609, 69.67478
239.5430, 70.51769
240.0252, 72.57548
240.5073, 74.92850
240.9894, 76.64836
241.4715, 77.52235
241.9536, 77.94303
242.4357, 78.50083
242.9179, 79.38737
243.4000, 79.46034
243.8821, 78.33627
244.3642, 76.46929
244.8463, 74.09513
245.3284, 71.20986
245.8106, 68.49304
246.2927, 66.90917
246.7748, 66.50302
247.2569, 65.88857
247.7390, 64.72220
248.2211, 63.30088
248.7033, 61.87689
249.1854, 60.45224
249.6675, 59.28414
250.1496, 58.77246
250.6317, 58.81719
251.1138, 58.82966
251.5960, 58.69374
252.0781, 58.45941
252.5602, 58.22127
253.0423, 58.01201
253.5244, 57.66652
254.0065, 56.80939
254.4887, 55.66553
254.9708, 54.90051
255.4529, 54.88577
255.9350, 55.26251
256.4171, 55.56066
256.8992, 55.75816
257.3813, 55.91595
257.8635, 56.17181
258.3456, 56.41169
258.8277, 56.39649
259.3098, 55.88239
259.7919, 55.18052
260.2740, 54.68082
260.7562, 54.36359
261.2383, 54.33329
261.7204, 55.09520
262.2025, 56.07483
262.6846, 56.48713
263.1667, 55.83137
263.6489, 54.85006
264.1310, 54.69466
264.6131, 55.57917
265.0952, 56.35796
265.5773, 56.58292
266.0594, 56.41052
266.5416, 55.84562
267.0237, 54.77180
267.5058, 53.62193
267.9879, 52.98826
268.4700, 52.95314
268.9521, 53.06658
269.4343, 53.29680
269.9164, 53.55727
270.3985, 53.81335
270.8806, 54.06566
271.3627, 54.22866
271.8448, 54.09685
272.3270, 53.55884
272.8091, 53.30604
273.2912, 53.99907
273.7733, 54.71816
274.2554, 54.75584
274.7375, 54.01747
275.2197, 53.19423
275.7018, 53.14219
276.1839, 54.00690
276.6660, 54.69242
277.1481, 54.99268
277.6302, 55.10160
278.1124, 55.07031
278.5945, 54.91493
279.0766, 54.65777
279.5587, 54.16515
280.0408, 53.34446
280.5229, 53.12134
281.0051, 54.52502
281.4872, 55.69804
281.9693, 55.61556
282.4514, 54.52114
282.9335, 53.41453
283.4156, 53.20541
283.8978, 53.91675
284.3799, 54.43663
284.8620, 54.68396
285.3441, 54.79596
285.8262, 54.82597
286.3083, 54.75945
286.7905, 54.53364
287.2726, 54.04042
287.7547, 53.33346
288.2368, 52.94812
288.7189, 53.04736
289.2010, 53.31437
289.6832, 53.79264
290.1653, 54.34797
290.6474, 54.77815
291.1295, 54.94393
291.6116, 54.93268
292.0938, 55.11492
292.5759, 55.73014
293.0580, 56.19297
293.5401, 56.31708
294.0222, 56.27211
294.5043, 56.24619
294.9865, 56.32404
295.4686, 56.45497
295.9507, 56.50587
296.4328, 56.38655
296.9149, 56.35148
297.3970, 56.51637
297.8792, 56.71840
298.3613, 56.70669
298.8434, 56.43451
299.3255, 56.23577
299.8076, 56.80285
300.2897, 58.84251
300.7719, 60.01468
301.2540, 59.58036
301.7361, 58.84900
302.2182, 58.52649
302.7003, 58.78642
303.1824, 59.50409
303.6646, 60.63295
304.1467, 62.37401
304.6288, 63.77647
305.1109, 64.40559
305.5930, 65.10345
306.0751, 66.60897
306.5573, 68.65331
307.0394, 70.20486
307.5215, 70.14917
308.0036, 68.31447
308.4857, 67.40009
308.9678, 67.79383
309.4500, 68.78095
309.9321, 70.54887
310.4142, 72.76777
310.8963, 74.83938
311.3784, 76.33607
311.8605, 77.35924
312.3427, 78.68340
312.8248, 80.71793
313.3069, 82.60374
313.7890, 83.96560
314.2711, 85.15737
314.7532, 86.61305
315.2354, 88.53190
315.7175, 90.89776
316.1996, 93.67721
316.6817, 97.28031
317.1638, 100.6809
317.6459, 103.3537
318.1281, 106.0160
318.6102, 109.3696
319.0923, 113.6145
319.5744, 118.3100
320.0565, 122.6840
320.5386, 126.3850
321.0208, 130.5857
321.5029, 136.0001
321.9850, 141.3363
322.4671, 145.8975
322.9492, 149.5679
323.4313, 152.5634
323.9135, 155.2575
324.3956, 157.8342
324.8777, 159.0849
325.3598, 158.9322
325.8419, 157.5246
326.3240, 154.3058
326.8062, 149.7614
327.2883, 144.9953
327.7704, 140.7803
328.2525, 137.1109
328.7346, 133.7320
329.2167, 130.9209
329.6989, 128.0870
330.1810, 124.8225
330.6631, 121.4967
331.1452, 118.6158
331.6273, 116.4204
332.1094, 114.9338
332.5916, 114.3046
333.0737, 115.0632
333.5558, 115.8194
334.0379, 116.0837
334.5200, 116.3571
335.0021, 117.1497
335.4843, 118.6203
335.9664, 120.4546
336.4485, 122.1014
336.9306, 123.3872
337.4127, 125.0256
337.8948, 127.0454
338.3770, 129.4485
338.8591, 132.3135
339.3412, 135.6224
339.8233, 139.1945
340.3055, 142.8490
340.7876, 146.5448
341.2697, 150.5917
341.7518, 155.1532
342.2339, 159.9184
342.7160, 164.8280
343.1982, 169.8532
343.6803, 174.9854
344.1624, 180.2619
344.6445, 185.6342
345.1266, 190.8008
345.6087, 195.3979
346.0909, 200.4126
346.5730, 206.1070
347.0551, 212.3522
347.5372, 219.1387
348.0193, 226.7013
348.5014, 234.2271
348.9836, 240.4394
349.4657, 245.3202
349.9478, 248.8250
350.4299, 250.0716
350.9120, 250.4668
351.3941, 251.0057
351.8763, 251.8692
352.3584, 252.4699
352.8405, 252.1845
353.3226, 250.9975
353.8047, 249.4476
354.2868, 247.7364
354.7690, 245.4668
355.2511, 242.1326
355.7332, 237.9583
356.2153, 233.9245
356.6974, 230.7920
357.1795, 228.3295
357.6617, 225.5568
358.1438, 222.2182
358.6259, 219.1273
359.1080, 216.6389
359.5901, 214.7057
360.0722, 213.2920
360.5544, 212.4000
361.0365, 212.0089
361.5186, 211.9856
362.0007, 212.2775
362.4828, 213.3974
362.9649, 215.8689
363.4471, 219.1693
363.9292, 222.6550
364.4113, 226.2036
364.8934, 230.2504
365.3755, 234.9564
365.8576, 240.3861
366.3398, 247.0239
366.8219, 255.4655
367.3040, 264.5154
367.7861, 272.7437
368.2682, 280.2533
368.7503, 288.3083
369.2325, 298.0936
369.7146, 308.5945
370.1967, 318.3384
370.6788, 327.3455
371.1609, 334.8842
371.6430, 340.6104
372.1252, 344.3140
372.6073, 345.2188
373.0894, 342.2849
373.5715, 337.2345
374.0536, 331.4205
374.5357, 324.7563
375.0179, 316.3853
375.5000, 305.7070
375.9821, 293.2838
376.4642, 280.2534
376.9463, 266.0938
377.4284, 252.6967
377.9106, 240.8959
378.3927, 230.3299
378.8748, 220.2606
379.3569, 210.4396
379.8390, 201.5278
380.3211, 194.5033
380.8033, 189.6832
381.2854, 185.1649
381.7675, 180.2857
382.2496, 176.0756
382.7317, 173.5016
383.2138, 172.5158
383.6960, 172.2265
384.1781, 171.9431
384.6602, 171.7290
385.1423, 172.4898
385.6244, 174.5107
386.1065, 176.9753
386.5887, 179.6522
387.0708, 182.5754
387.5529, 185.8475
388.0350, 189.5208
388.5171, 193.5395
388.9992, 197.8188
389.4814, 202.9044
389.9635, 207.3646
390.4456, 211.1387
390.9277, 214.3465
391.4098, 217.5282
391.8919, 220.4984
392.3741, 222.1105
392.8562, 221.0738
393.3383, 217.1183
393.8204, 212.4521
394.3025, 207.4454
394.7846, 201.4093
395.2668, 193.5733
395.7489, 184.5625
396.2310, 175.3553
396.7131, 166.4389
397.1952, 157.9727
397.6773, 150.5220
398.1595, 144.7108
398.6416, 138.9009
399.1237, 132.3100
399.6058, 125.9575
400.0879, 121.0290
400.5700, 117.6686
401.0522, 114.5815
401.5343, 109.8291
402.0164, 102.9410
402.4985, 97.33068
402.9806, 93.97916
403.4627, 91.19364
403.9449, 88.30161
404.4270, 85.38599
404.9091, 82.79184
405.3912, 80.77258
405.8733, 79.20598
406.3554, 77.74032
406.8376, 76.35805
407.3197, 75.09605
407.8018, 74.15157
408.2839, 73.25024
408.7660, 72.02209
409.2481, 70.28845
409.7303, 68.66096
410.2124, 67.87068
410.6945, 67.86085
411.1766, 67.66968
411.6587, 66.87489
412.1408, 66.13443
412.6230, 66.27775
413.1051, 67.15421
413.5872, 67.61185
414.0693, 66.69382
414.5514, 65.23536
415.0335, 64.63289
415.5157, 65.02094
415.9978, 65.63706
416.4799, 66.13061
416.9620, 66.45225
417.4441, 66.50016
417.9262, 66.03426
418.4084, 65.60787
418.8905, 65.46347
419.3726, 65.59799
419.8547, 66.06016
420.3368, 66.91374
420.8189, 67.94272
421.3011, 68.75871
421.7832, 69.24417
422.2653, 70.02344
422.7474, 71.41293
423.2295, 72.95467
423.7116, 74.12314
424.1938, 74.96416
424.6759, 76.08170
425.1580, 77.99149
425.6401, 80.64473
426.1222, 83.20446
426.6043, 86.02316
427.0865, 88.35832
427.5686, 89.48289
428.0507, 90.18870
428.5328, 91.62615
429.0149, 94.23096
429.4970, 97.47050
429.9792, 100.4059
430.4613, 102.7129
430.9434, 105.4755
431.4255, 109.2013
431.9076, 112.8643
432.3897, 115.5885
432.8719, 117.6645
433.3540, 120.1549
433.8361, 123.9027
434.3182, 128.7681
434.8003, 133.7984
435.2824, 138.6909
435.7646, 144.2447
436.2467, 150.5269
436.7288, 157.5136
437.2109, 165.2072
437.6930, 173.6154
438.1751, 182.5093
438.6573, 191.7241
439.1394, 201.2745
439.6215, 210.9391
440.1036, 220.8661
440.5857, 230.7290
441.0678, 241.1069
441.5500, 251.4787
442.0321, 259.9686
442.5142, 265.9886
442.9963, 269.4302
443.4784, 270.2219
443.9605, 268.3989
444.4427, 263.5705
444.9248, 254.7400
445.4069, 242.9536
445.8890, 230.2273
446.3711, 216.2163
446.8532, 202.3431
447.3354, 189.4706
447.8175, 177.3316
448.2996, 165.0937
448.7817, 152.4465
449.2638, 140.6014
449.7459, 131.0233
450.2281, 123.8771
450.7102, 117.4908
451.1923, 112.0108
451.6744, 107.0915
452.1565, 102.4402
452.6386, 98.16943
453.1208, 94.69298
453.6029, 92.23093
454.0850, 90.61910
454.5671, 89.41398
455.0492, 89.07214
455.5313, 88.52756
456.0135, 87.39536
456.4956, 86.30507
456.9777, 85.82788
457.4598, 85.98567
457.9419, 86.30405
458.4240, 86.25076
458.9062, 85.80960
459.3883, 86.26688
459.8704, 88.60779
460.3525, 90.78799
460.8346, 92.19732
461.3167, 93.25845
461.7989, 94.49398
462.2810, 96.10770
462.7631, 97.84615
463.2452, 100.0108
463.7273, 102.0897
464.2094, 104.5052
464.6916, 107.1826
465.1737, 110.3555
465.6558, 114.3689
466.1379, 119.0186
466.6200, 123.6286
467.1021, 127.4885
467.5843, 131.2276
468.0664, 136.0625
468.5485, 142.0647
469.0306, 148.8087
469.5127, 156.2487
469.9948, 164.3095
470.4770, 172.8294
470.9591, 182.0336
471.4412, 190.8311
471.9233, 198.8728
472.4054, 206.1065
472.8875, 212.4283
473.3697, 217.8375
473.8518, 222.1657
474.3339, 225.4409
474.8160, 227.4938
475.2981, 227.3363
475.7802, 223.9499
476.2624, 219.5051
476.7445, 214.2852
477.2266, 208.7845
477.7087, 203.9530
478.1908, 200.1362
478.6729, 196.8385
479.1551, 193.2049
479.6372, 189.1718
480.1193, 184.8727
480.6014, 180.1248
481.0835, 175.2928
481.5656, 170.9440
482.0478, 166.7244
482.5299, 161.7403
483.0120, 155.4286
483.4941, 147.8913
483.9762, 139.5197
484.4583, 129.4498
484.9405, 120.3479
485.4226, 112.9564
485.9047, 106.4595
486.3868, 100.4257
486.8689, 94.74309
487.3510, 89.40784
487.8332, 84.33132
488.3153, 79.59664
488.7974, 75.45705
489.2795, 71.94430
489.7616, 68.99648
490.2437, 66.79209
490.7259, 65.08465
491.2080, 63.55684
491.6901, 62.27981
492.1722, 60.95181
492.6543, 59.24504
493.1364, 57.31340
493.6186, 55.58919
494.1007, 54.15938
494.5828, 53.00602
495.0649, 52.20372
495.5470, 51.80324
496.0291, 51.09570
496.5113, 49.34923
496.9934, 47.94579
497.4755, 48.13550
497.9576, 49.31281
498.4397, 49.87290
498.9218, 49.01221
499.4040, 47.43029
499.8861, 46.73597
500.3682, 47.81121
500.8503, 48.15639
501.3324, 47.18858
501.8145, 46.07804
502.2967, 45.58495
502.7788, 45.61510
503.2609, 45.57558
503.7430, 44.98439
504.2251, 44.08700
504.7072, 43.91843
505.1894, 44.87378
505.6715, 45.65289
506.1536, 45.85306
506.6357, 45.79951
507.1178, 45.67240
507.5999, 45.50966
508.0821, 45.39226
508.5642, 45.44836
509.0463, 45.59480
509.5284, 45.56810
510.0105, 45.32604
510.4926, 45.02097
510.9748, 44.60587
511.4569, 44.24006
511.9390, 44.30384
512.4211, 45.07088
512.9032, 45.80343
513.3853, 46.08782
513.8674, 46.10969
514.3495, 46.18522
514.8317, 46.38590
515.3138, 46.59358
515.7959, 46.68201
516.2780, 46.64016
516.7601, 46.64472
517.2422, 46.49001
517.7244, 46.60156
518.2065, 47.36327
518.6886, 48.40047
519.1707, 49.18779
519.6528, 49.53719
520.1349, 49.62223
520.6171, 49.67351
521.0992, 49.66841
521.5813, 49.71864
522.0634, 49.38745
522.5455, 49.58001
523.0276, 51.14071
523.5098, 53.39088
523.9919, 54.97588
524.4740, 55.14251
524.9561, 54.86763
525.4382, 55.76188
525.9203, 57.84890
526.4025, 59.39746
526.8846, 59.68370
527.3667, 59.72787
527.8488, 60.77169
528.3309, 62.60188
528.8130, 63.79696
529.2952, 63.16429
529.7773, 62.31391
530.2594, 62.82621
530.7415, 64.49435
531.2236, 66.36269
531.7057, 68.13328
532.1879, 69.52053
532.6700, 69.93948
533.1521, 68.99546
533.6342, 67.89189
534.1163, 66.42223
534.5984, 64.99525
535.0806, 64.09647
535.5627, 63.49325
536.0448, 62.45530
536.5269, 60.49850
537.0090, 57.96360
537.4911, 55.89523
537.9733, 54.35095
538.4554, 53.12678
538.9375, 52.25683
539.4196, 51.63196
539.9017, 51.47987
540.3839, 51.59489
540.8660, 51.19694
541.3481, 49.35380
541.8302, 46.89996
542.3123, 45.83801
542.7944, 46.31909
543.2766, 46.89800
543.7587, 47.19080
544.2408, 47.13576
544.7229, 46.46533
545.2050, 45.03163
545.6871, 44.27543
546.1693, 45.62257
546.6514, 47.31801
547.1335, 47.09731
547.6156, 45.11782
548.0977, 43.39418
548.5798, 43.17411
549.0620, 44.05813
549.5441, 44.69682
550.0262, 44.85569
550.5083, 45.06783
550.9904, 45.39460
551.4725, 45.72978
551.9547, 46.07952
552.4368, 46.37748
552.9189, 46.41696
553.4010, 45.97127
553.8831, 45.22973
554.3652, 44.97911
554.8474, 45.36133
555.3295, 45.88013
555.8116, 46.48247
556.2937, 47.13141
556.7758, 47.85090
557.2579, 48.62081
557.7401, 49.28909
558.2222, 49.67670
558.7043, 49.93860
559.1864, 50.38578
559.6685, 51.02448
560.1506, 51.56295
560.6328, 51.73071
561.1149, 51.82876
561.5970, 52.63564
562.0791, 54.41801
562.5612, 55.89252
563.0433, 56.40020
563.5255, 56.81995
564.0076, 58.01447
564.4897, 59.87205
564.9718, 61.61237
565.4539, 62.68867
565.9360, 63.44587
566.4182, 65.04929
566.9003, 67.90334
567.3824, 70.89650
567.8645, 73.69703
568.3466, 76.81255
568.8287, 81.01810
569.3109, 85.92668
569.7930, 90.03060
570.2751, 92.05614
570.7572, 93.08955
571.2393, 95.38716
571.7214, 99.00191
572.2036, 103.1353
572.6857, 107.7659
573.1678, 112.5242
573.6499, 116.8097
574.1320, 120.6185
574.6141, 125.0954
575.0963, 130.4588
575.5784, 136.6712
576.0605, 143.5936
576.5426, 151.3046
577.0247, 160.3228
577.5068, 170.9413
577.9890, 182.3882
578.4711, 193.0605
578.9532, 201.6497
579.4353, 212.9304
579.9174, 227.4785
580.3995, 243.7767
580.8817, 261.9328
581.3638, 281.1017
581.8459, 300.2560
582.3280, 319.0874
582.8101, 336.4824
583.2922, 351.2946
583.7744, 363.6100
584.2565, 371.6489
584.7386, 376.0680
585.2207, 374.7216
585.7029, 365.6383
586.1850, 350.0646
586.6671, 330.4864
587.1492, 305.2867
587.6313, 279.0981
588.1135, 254.3709
588.5956, 231.2783
589.0777, 210.3050
589.5598, 191.6164
590.0419, 174.6888
590.5240, 159.0138
591.0062, 144.6137
591.4883, 132.4007
591.9704, 123.0700
592.4525, 114.7760
592.9346, 107.0816
593.4167, 100.1875
593.8989, 94.40535
594.3810, 89.77232
594.8631, 85.83466
595.3452, 82.18968
595.8273, 78.84445
596.3094, 75.80814
596.7916, 73.09827
597.2737, 70.63008
597.7558, 68.14008
598.2379, 65.99045
598.7200, 64.79499
599.2021, 64.73205
599.6843, 64.50539
600.1664, 63.34729
600.6485, 61.68069
601.1306, 59.80567
601.6127, 57.86185
602.0948, 56.71186
602.5770, 57.00990
603.0591, 58.16764
603.5412, 58.54978
604.0233, 57.31059
604.5054, 56.67276
604.9875, 57.13916
605.4697, 57.75349
605.9518, 57.84491
606.4339, 57.56435
606.9160, 57.45858
607.3981, 57.85278
607.8802, 58.48959
608.3624, 58.83149
608.8445, 58.82616
609.3266, 58.93188
609.8087, 59.20850
610.2908, 59.63210
610.7729, 60.16736
611.2551, 60.82300
611.7372, 61.64109
612.2193, 62.66785
612.7014, 63.81551
613.1835, 65.14675
613.6656, 66.53435
614.1478, 67.63278
614.6299, 68.35538
615.1120, 69.05888
615.5941, 70.09856
616.0762, 71.47771
616.5583, 72.92634
617.0405, 74.56551
617.5226, 76.12955
618.0047, 77.95805
618.4868, 79.46548
618.9689, 79.95632
619.4510, 79.41551
619.9332, 78.52348
620.4153, 77.85424
620.8974, 77.28951
621.3795, 76.39698
621.8616, 75.14070
622.3438, 73.74797
622.8259, 72.27607
623.3080, 70.72652
623.7901, 69.12303
624.2722, 67.46642
624.7543, 65.72855
625.2365, 63.68871
625.7186, 61.73122
626.2007, 60.34071
626.6828, 59.31294
627.1649, 58.03929
627.6470, 56.25089
628.1292, 54.27466
628.6113, 52.59336
629.0934, 51.18551
629.5755, 50.15478
630.0576, 49.74932
630.5397, 49.47689
631.0219, 49.35313
