##NAMES=Lithiotantite
##RRUFFID=R100165
##IDEAL CHEMISTRY=LiTa^5+^_3_O_8_
##LOCALITY=Murundu mine, Jenipapo district, Itinga, Minas Gerais, Brazil
##OWNER=RRUFF
##SOURCE=Luiz Menezes
##DESCRIPTION=Brown bladed crystals associated with reddish brown prismatic tantalite, and black cassiterite. Used in the Menezes et al (2012) study.
##STATUS=The identification of this mineral has been confirmed by single-crystal X-ray diffraction.
##URL=rruff.info/R100165
90.60547, 4228.395
91.08759, 4139.683
91.56970, 4126.767
92.05182, 4149.188
92.53394, 4236.218
93.01605, 4338.153
93.49817, 4443.875
93.98029, 4557.523
94.46240, 4672.391
94.94452, 4785.628
95.42664, 4901.284
95.90874, 5021.469
96.39086, 5147.716
96.87298, 5280.245
97.35509, 5418.719
97.83721, 5561.752
98.31933, 5692.293
98.80145, 5815.767
99.28356, 5928.087
99.76568, 6026.396
100.2478, 6110.227
100.7299, 6179.833
101.2120, 6235.406
101.6941, 6264.431
102.1763, 6292.255
102.6584, 6321.173
103.1405, 6349.017
103.6226, 6372.951
104.1047, 6391.815
104.5868, 6404.818
105.0690, 6406.648
105.5511, 6406.725
106.0332, 6389.819
106.5153, 6350.382
106.9974, 6288.124
107.4795, 6202.561
107.9617, 6089.140
108.4438, 5949.211
108.9259, 5794.188
109.4080, 5615.875
109.8901, 5425.601
110.3722, 5236.109
110.8544, 5045.937
111.3365, 4863.646
111.8186, 4690.288
112.3007, 4527.185
112.7828, 4379.110
113.2649, 4249.489
113.7471, 4137.566
114.2292, 4041.738
114.7113, 3966.376
115.1934, 3904.708
115.6755, 3853.959
116.1576, 3814.031
116.6397, 3785.203
117.1219, 3768.162
117.6040, 3764.466
118.0861, 3769.240
118.5682, 3779.738
119.0503, 3798.537
119.5324, 3828.143
120.0146, 3868.627
120.4967, 3917.690
120.9788, 3971.281
121.4609, 4030.949
121.9430, 4093.909
122.4251, 4159.268
122.9073, 4228.323
123.3894, 4302.650
123.8715, 4383.631
124.3536, 4468.673
124.8357, 4550.399
125.3178, 4627.098
125.8000, 4705.240
126.2821, 4787.286
126.7642, 4872.695
127.2463, 4957.639
127.7284, 5039.635
128.2105, 5121.345
128.6927, 5207.652
129.1748, 5300.079
129.6569, 5395.208
130.1390, 5489.906
130.6211, 5583.897
131.1032, 5679.018
131.5854, 5776.468
132.0675, 5875.970
132.5496, 5977.576
133.0317, 6082.181
133.5138, 6187.935
133.9959, 6292.317
134.4781, 6399.868
134.9602, 6498.349
135.4423, 6586.896
135.9244, 6665.644
136.4065, 6735.228
136.8886, 6797.201
137.3708, 6851.018
137.8529, 6884.063
138.3350, 6893.479
138.8171, 6883.496
139.2992, 6853.585
139.7813, 6804.477
140.2635, 6737.025
140.7456, 6651.944
141.2277, 6547.835
141.7098, 6429.151
142.1919, 6293.317
142.6740, 6148.974
143.1561, 5997.371
143.6383, 5840.205
144.1204, 5682.178
144.6025, 5527.193
145.0846, 5375.659
145.5667, 5230.813
146.0488, 5093.333
146.5310, 4962.854
147.0131, 4838.989
147.4952, 4721.437
147.9773, 4611.112
148.4594, 4508.568
148.9415, 4412.802
149.4237, 4323.625
149.9058, 4243.123
150.3879, 4169.376
150.8700, 4098.430
151.3521, 4028.802
151.8342, 3962.527
152.3164, 3899.671
152.7985, 3840.417
153.2806, 3784.020
153.7627, 3730.979
154.2448, 3681.226
154.7269, 3631.969
155.2091, 3580.772
155.6912, 3532.008
156.1733, 3488.590
156.6554, 3450.364
157.1375, 3415.017
157.6196, 3379.457
158.1018, 3342.549
158.5839, 3309.000
159.0660, 3278.741
159.5481, 3251.490
160.0302, 3227.387
160.5123, 3206.420
160.9945, 3188.397
161.4766, 3173.116
161.9587, 3160.458
162.4408, 3151.216
162.9229, 3146.047
163.4050, 3143.652
163.8871, 3142.638
164.3693, 3142.491
164.8514, 3144.120
165.3335, 3150.007
165.8156, 3163.415
166.2977, 3176.497
166.7798, 3188.163
167.2620, 3199.132
167.7441, 3210.030
168.2262, 3220.810
168.7083, 3232.436
169.1904, 3247.689
169.6725, 3267.161
170.1547, 3288.009
170.6368, 3308.941
171.1189, 3330.257
171.6010, 3353.006
172.0831, 3377.800
172.5652, 3404.346
173.0474, 3431.725
173.5295, 3459.333
174.0116, 3488.738
174.4937, 3521.718
174.9758, 3558.330
175.4579, 3595.113
175.9401, 3632.445
176.4222, 3668.184
176.9043, 3699.388
177.3864, 3724.957
177.8685, 3747.608
178.3506, 3772.186
178.8328, 3800.936
179.3149, 3823.390
179.7970, 3833.127
180.2791, 3836.675
180.7612, 3839.079
181.2433, 3842.292
181.7255, 3844.807
182.2076, 3843.464
182.6897, 3837.688
183.1718, 3828.438
183.6539, 3813.234
184.1360, 3796.397
184.6181, 3782.615
185.1003, 3774.238
185.5824, 3769.742
186.0645, 3763.812
186.5466, 3754.500
187.0287, 3746.028
187.5108, 3742.095
187.9930, 3738.577
188.4751, 3730.274
188.9572, 3714.271
189.4393, 3691.473
189.9214, 3666.706
190.4035, 3642.951
190.8857, 3614.069
191.3678, 3576.309
191.8499, 3532.935
192.3320, 3489.074
192.8141, 3447.654
193.2962, 3408.479
193.7784, 3369.528
194.2605, 3327.837
194.7426, 3289.305
195.2247, 3255.674
195.7068, 3226.706
196.1889, 3201.454
196.6711, 3179.577
197.1532, 3161.153
197.6353, 3145.124
198.1174, 3130.980
198.5995, 3119.244
199.0816, 3109.583
199.5638, 3102.190
200.0459, 3098.538
200.5280, 3099.930
201.0101, 3106.077
201.4922, 3114.342
201.9743, 3125.387
202.4565, 3137.850
202.9386, 3149.941
203.4207, 3161.601
203.9028, 3175.950
204.3849, 3195.396
204.8670, 3218.577
205.3492, 3243.534
205.8313, 3270.205
206.3134, 3298.210
206.7955, 3326.460
207.2776, 3354.476
207.7597, 3385.034
208.2419, 3419.870
208.7240, 3457.810
209.2061, 3497.969
209.6882, 3540.067
210.1703, 3584.287
210.6524, 3630.940
211.1346, 3679.525
211.6167, 3731.325
212.0988, 3785.678
212.5809, 3843.152
213.0630, 3905.499
213.5451, 3973.398
214.0273, 4045.016
214.5094, 4115.738
214.9915, 4183.672
215.4736, 4254.493
215.9557, 4331.197
216.4378, 4410.045
216.9200, 4488.175
217.4021, 4563.906
217.8842, 4637.937
218.3663, 4711.528
218.8484, 4788.208
219.3305, 4858.513
219.8127, 4922.338
220.2948, 4979.792
220.7769, 5031.586
221.2590, 5078.056
221.7411, 5118.320
222.2232, 5149.716
222.7054, 5168.204
223.1875, 5181.173
223.6696, 5188.827
224.1517, 5191.390
224.6338, 5188.510
225.1159, 5180.019
225.5980, 5167.023
226.0802, 5152.611
226.5623, 5137.710
227.0444, 5120.184
227.5265, 5098.468
228.0086, 5074.414
228.4907, 5050.470
228.9729, 5027.642
229.4550, 5005.624
229.9371, 4983.863
230.4192, 4960.328
230.9013, 4940.060
231.3834, 4925.138
231.8656, 4913.745
232.3477, 4903.436
232.8298, 4893.368
233.3119, 4883.636
233.7940, 4874.729
234.2761, 4867.824
234.7583, 4858.878
235.2404, 4847.476
235.7225, 4833.283
236.2046, 4815.611
236.6867, 4794.021
237.1688, 4768.992
237.6510, 4740.674
238.1331, 4709.608
238.6152, 4675.708
239.0973, 4637.430
239.5794, 4596.308
240.0615, 4554.927
240.5437, 4512.286
241.0258, 4472.801
241.5079, 4441.442
241.9900, 4417.297
242.4721, 4400.676
242.9542, 4393.586
243.4364, 4394.247
243.9185, 4397.447
244.4006, 4400.561
244.8827, 4409.589
245.3648, 4430.505
245.8469, 4462.114
246.3290, 4499.290
246.8112, 4540.443
247.2933, 4585.155
247.7754, 4633.081
248.2575, 4683.763
248.7396, 4738.588
249.2217, 4798.186
249.7039, 4862.044
250.1860, 4928.672
250.6681, 4998.373
251.1502, 5070.230
251.6323, 5142.419
252.1144, 5215.420
252.5966, 5287.042
253.0787, 5356.714
253.5608, 5424.162
254.0429, 5489.635
254.5250, 5553.229
255.0071, 5614.617
255.4893, 5673.602
255.9714, 5732.021
256.4535, 5783.986
256.9356, 5831.017
257.4177, 5870.682
257.8998, 5899.305
258.3820, 5914.796
258.8641, 5917.622
259.3462, 5909.476
259.8283, 5890.883
260.3104, 5858.456
260.7925, 5811.041
261.2747, 5751.789
261.7568, 5684.341
262.2389, 5609.381
262.7210, 5528.711
263.2031, 5446.063
263.6852, 5359.210
264.1674, 5274.140
264.6495, 5189.272
265.1316, 5107.889
265.6137, 5033.375
266.0958, 4967.108
266.5779, 4909.421
267.0601, 4861.120
267.5422, 4821.119
268.0243, 4794.775
268.5064, 4781.320
268.9885, 4779.756
269.4706, 4789.168
269.9528, 4809.237
270.4349, 4840.608
270.9170, 4884.740
271.3991, 4942.326
271.8812, 5012.646
272.3633, 5095.387
272.8455, 5188.116
273.3276, 5288.747
273.8097, 5396.925
274.2918, 5512.955
274.7739, 5637.077
275.2560, 5768.529
275.7382, 5911.470
276.2202, 6068.300
276.7024, 6232.316
277.1845, 6401.020
277.6666, 6573.799
278.1487, 6750.354
278.6308, 6932.681
279.1129, 7127.201
279.5951, 7302.681
280.0772, 7474.115
280.5593, 7618.772
281.0414, 7732.533
281.5235, 7810.339
282.0056, 7841.978
282.4878, 7816.421
282.9699, 7729.725
283.4520, 7607.097
283.9341, 7430.342
284.4162, 7240.890
284.8983, 7047.160
285.3805, 6853.930
285.8626, 6666.171
286.3447, 6486.596
286.8268, 6316.011
287.3089, 6162.758
287.7910, 6031.258
288.2732, 5910.902
288.7553, 5802.325
289.2374, 5703.258
289.7195, 5612.319
290.2016, 5529.147
290.6837, 5452.333
291.1659, 5371.654
291.6480, 5289.490
292.1301, 5201.232
292.6122, 5106.201
293.0943, 5004.500
293.5764, 4895.858
294.0586, 4779.506
294.5407, 4657.302
295.0228, 4533.677
295.5049, 4403.423
295.9870, 4278.115
296.4691, 4156.634
296.9513, 4040.975
297.4334, 3933.189
297.9155, 3834.399
298.3976, 3743.306
298.8797, 3658.103
299.3618, 3579.223
299.8440, 3507.086
300.3261, 3441.691
300.8082, 3383.324
301.2903, 3332.782
301.7724, 3290.049
302.2545, 3252.159
302.7367, 3215.562
303.2188, 3180.347
303.7009, 3147.136
304.1830, 3114.221
304.6651, 3084.244
305.1472, 3059.578
305.6294, 3039.780
306.1115, 3022.053
306.5936, 3003.952
307.0757, 2985.283
307.5578, 2969.827
308.0399, 2959.077
308.5221, 2949.387
309.0042, 2939.417
309.4863, 2929.229
309.9684, 2919.422
310.4505, 2910.378
310.9326, 2902.068
311.4148, 2894.626
311.8969, 2884.858
312.3790, 2879.376
312.8611, 2880.958
313.3432, 2887.678
313.8253, 2896.281
314.3075, 2905.219
314.7896, 2915.586
315.2717, 2930.444
315.7538, 2951.868
316.2359, 2974.974
316.7180, 2998.001
317.2001, 3023.164
317.6823, 3053.012
318.1644, 3088.387
318.6465, 3127.772
319.1286, 3169.025
319.6107, 3211.416
320.0928, 3257.790
320.5750, 3308.833
321.0571, 3363.359
321.5392, 3420.206
322.0213, 3479.213
322.5034, 3542.250
322.9855, 3610.883
323.4677, 3686.444
323.9498, 3762.589
324.4319, 3836.460
324.9140, 3913.512
325.3961, 3997.171
325.8782, 4086.547
326.3604, 4179.380
326.8425, 4274.116
327.3246, 4373.449
327.8067, 4472.306
328.2888, 4580.697
328.7709, 4690.929
329.2531, 4802.147
329.7352, 4914.038
330.2173, 5026.442
330.6994, 5139.354
331.1815, 5252.147
331.6636, 5364.045
332.1458, 5470.927
332.6279, 5582.134
333.1100, 5699.280
333.5921, 5819.583
334.0742, 5940.110
334.5563, 6059.433
335.0385, 6181.392
335.5206, 6310.382
336.0027, 6448.366
336.4848, 6590.618
336.9669, 6740.018
337.4490, 6892.108
337.9312, 7044.634
338.4133, 7197.749
338.8954, 7352.245
339.3775, 7510.557
339.8596, 7674.890
340.3417, 7818.593
340.8239, 7946.868
341.3060, 8052.456
341.7881, 8141.111
342.2702, 8204.785
342.7523, 8229.133
343.2344, 8205.809
343.7166, 8135.292
344.1987, 8019.423
344.6808, 7841.949
345.1629, 7630.893
345.6450, 7375.920
346.1271, 7094.661
346.6093, 6801.562
347.0914, 6504.716
347.5735, 6206.357
348.0556, 5915.301
348.5377, 5621.938
349.0198, 5353.607
349.5020, 5108.313
349.9841, 4885.034
350.4662, 4686.557
350.9483, 4512.674
351.4304, 4359.868
351.9125, 4225.915
352.3947, 4111.396
352.8768, 4013.764
353.3589, 3937.112
353.8410, 3873.170
354.3231, 3821.323
354.8052, 3780.226
355.2874, 3747.750
355.7695, 3722.714
356.2516, 3705.239
356.7337, 3695.668
357.2158, 3696.644
357.6979, 3702.953
358.1800, 3713.798
358.6621, 3728.943
359.1443, 3748.121
359.6264, 3771.326
360.1085, 3798.487
360.5906, 3830.296
361.0727, 3868.679
361.5548, 3906.876
362.0370, 3943.804
362.5191, 3980.574
363.0012, 4018.864
363.4833, 4058.494
363.9654, 4096.088
364.4475, 4128.212
364.9297, 4154.644
365.4118, 4179.306
365.8939, 4203.556
366.3760, 4224.072
366.8581, 4239.141
367.3402, 4249.581
367.8224, 4257.216
368.3045, 4263.243
368.7866, 4267.029
369.2687, 4266.238
369.7508, 4259.287
370.2329, 4251.106
370.7151, 4246.124
371.1972, 4239.607
371.6793, 4225.859
372.1614, 4202.904
372.6435, 4175.890
373.1256, 4152.356
373.6078, 4133.021
374.0899, 4107.853
374.5720, 4074.693
375.0541, 4034.254
375.5362, 3986.268
376.0183, 3931.102
376.5005, 3873.060
376.9826, 3812.700
377.4647, 3751.219
377.9468, 3692.906
378.4289, 3638.872
378.9110, 3586.116
379.3932, 3531.116
379.8753, 3475.910
380.3574, 3424.784
380.8395, 3379.493
381.3216, 3338.386
381.8037, 3299.382
382.2859, 3262.353
382.7680, 3229.713
383.2501, 3203.220
383.7322, 3181.791
384.2143, 3162.365
384.6964, 3144.683
385.1786, 3130.184
385.6607, 3119.594
386.1428, 3112.974
386.6249, 3110.843
387.1070, 3113.892
387.5891, 3119.936
388.0713, 3126.631
388.5534, 3133.950
389.0355, 3143.599
389.5176, 3155.993
389.9997, 3170.845
390.4818, 3188.272
390.9640, 3208.227
391.4461, 3229.548
391.9282, 3251.945
392.4103, 3275.018
392.8924, 3296.773
393.3745, 3315.686
393.8567, 3335.059
394.3388, 3357.421
394.8209, 3380.970
395.3030, 3401.796
395.7851, 3418.530
396.2672, 3432.597
396.7494, 3446.723
397.2315, 3461.400
397.7136, 3474.637
398.1957, 3486.114
398.6778, 3496.363
399.1599, 3505.298
399.6420, 3513.219
400.1241, 3521.294
400.6063, 3530.457
401.0884, 3540.745
401.5705, 3552.431
402.0526, 3565.400
402.5347, 3579.719
403.0168, 3594.393
403.4990, 3610.706
403.9811, 3630.444
404.4632, 3654.379
404.9453, 3682.365
405.4274, 3714.070
405.9095, 3749.968
406.3917, 3789.018
406.8738, 3833.008
407.3559, 3878.276
407.8380, 3922.933
408.3201, 3966.410
408.8022, 4008.783
409.2844, 4050.624
409.7665, 4091.774
410.2486, 4131.900
410.7307, 4171.845
411.2128, 4209.462
411.6949, 4245.704
412.1771, 4278.837
412.6592, 4306.603
413.1413, 4327.998
413.6234, 4343.032
414.1055, 4351.396
414.5876, 4352.371
415.0698, 4348.831
415.5519, 4344.155
416.0340, 4333.292
416.5161, 4311.341
416.9982, 4277.934
417.4803, 4238.634
417.9625, 4196.407
418.4446, 4151.754
418.9267, 4106.735
419.4088, 4061.660
419.8909, 4016.328
420.3730, 3971.656
420.8552, 3926.843
421.3373, 3880.227
421.8194, 3828.720
422.3015, 3777.821
422.7836, 3734.135
423.2657, 3697.707
423.7479, 3664.924
424.2300, 3633.360
424.7121, 3606.122
425.1942, 3586.755
425.6763, 3575.617
426.1584, 3569.962
426.6406, 3571.304
427.1227, 3576.628
427.6048, 3580.915
428.0869, 3583.324
428.5690, 3585.433
429.0511, 3589.508
429.5333, 3595.273
430.0154, 3596.250
430.4975, 3592.017
430.9796, 3583.354
431.4617, 3570.816
431.9438, 3554.241
432.4260, 3532.724
432.9081, 3505.773
433.3902, 3474.378
433.8723, 3440.749
434.3544, 3403.042
434.8365, 3366.144
435.3187, 3330.336
435.8008, 3295.263
436.2829, 3261.233
436.7650, 3228.012
437.2471, 3194.388
437.7292, 3158.864
438.2114, 3121.146
438.6935, 3087.911
439.1756, 3062.952
439.6577, 3038.282
440.1398, 3011.445
440.6219, 2984.146
441.1040, 2958.853
441.5862, 2936.708
442.0683, 2917.190
442.5504, 2899.934
443.0325, 2885.715
443.5146, 2871.281
443.9967, 2854.750
444.4789, 2839.352
444.9610, 2826.978
445.4431, 2817.474
445.9252, 2809.449
446.4073, 2802.142
446.8894, 2795.589
447.3716, 2789.543
447.8537, 2783.033
448.3358, 2779.477
448.8179, 2781.610
449.3000, 2786.917
449.7821, 2792.672
450.2643, 2797.965
450.7464, 2805.344
451.2285, 2817.676
451.7106, 2834.237
452.1927, 2851.089
452.6748, 2867.188
453.1570, 2883.786
453.6391, 2901.712
454.1212, 2920.959
454.6033, 2942.694
455.0854, 2968.537
455.5675, 2995.859
456.0497, 3022.972
456.5318, 3049.628
457.0139, 3075.402
457.4960, 3099.952
457.9781, 3125.327
458.4602, 3147.837
458.9424, 3173.765
459.4245, 3197.541
459.9066, 3220.157
460.3887, 3239.275
460.8708, 3252.267
461.3529, 3258.881
461.8351, 3260.916
462.3172, 3260.142
462.7993, 3256.634
463.2814, 3247.556
463.7635, 3232.700
464.2456, 3212.982
464.7278, 3186.933
465.2099, 3156.492
465.6920, 3123.833
466.1741, 3089.710
466.6562, 3054.751
467.1383, 3019.976
467.6205, 2985.086
468.1026, 2950.370
468.5847, 2916.136
469.0668, 2881.774
469.5489, 2846.038
470.0310, 2809.906
470.5132, 2776.288
470.9953, 2747.270
471.4774, 2721.608
471.9595, 2696.237
472.4416, 2671.152
472.9237, 2646.513
473.4059, 2621.529
473.8880, 2597.743
474.3701, 2576.953
474.8522, 2559.551
475.3343, 2543.028
475.8164, 2524.346
476.2986, 2505.599
476.7807, 2492.484
477.2628, 2486.402
477.7449, 2482.076
478.2270, 2475.800
478.7091, 2468.029
479.1913, 2460.911
479.6734, 2454.506
480.1555, 2448.820
480.6376, 2443.788
481.1197, 2439.487
481.6018, 2436.074
482.0839, 2433.603
482.5660, 2431.998
483.0482, 2431.277
483.5303, 2431.865
484.0124, 2431.782
484.4945, 2431.125
484.9766, 2429.755
485.4587, 2427.136
485.9409, 2423.733
486.4230, 2420.610
486.9051, 2418.366
487.3872, 2416.698
487.8693, 2414.624
488.3514, 2411.063
488.8336, 2409.195
489.3157, 2409.707
489.7978, 2411.344
490.2799, 2413.891
490.7620, 2416.931
491.2441, 2419.322
491.7263, 2419.560
492.2084, 2418.425
492.6905, 2419.953
493.1726, 2425.257
493.6547, 2430.571
494.1368, 2433.630
494.6190, 2436.253
495.1011, 2440.699
495.5832, 2447.636
496.0653, 2454.138
496.5474, 2456.758
497.0295, 2457.096
497.5117, 2460.363
497.9938, 2467.808
498.4759, 2476.066
498.9580, 2481.951
499.4401, 2486.230
499.9222, 2492.915
500.4044, 2504.398
500.8865, 2516.107
501.3686, 2526.235
501.8507, 2534.864
502.3328, 2541.813
502.8149, 2546.916
503.2971, 2552.006
503.7792, 2559.871
504.2613, 2571.883
504.7434, 2581.992
505.2255, 2588.418
505.7076, 2594.936
506.1898, 2603.663
506.6719, 2613.864
507.1540, 2623.770
507.6361, 2632.469
508.1182, 2640.342
508.6003, 2648.127
509.0825, 2655.755
509.5646, 2663.524
510.0467, 2671.008
510.5288, 2678.999
511.0109, 2688.178
511.4930, 2698.343
511.9752, 2708.704
512.4573, 2718.854
512.9394, 2728.827
513.4215, 2739.031
513.9036, 2749.750
514.3857, 2758.993
514.8679, 2764.549
515.3500, 2769.363
515.8321, 2777.513
516.3142, 2789.483
516.7963, 2801.014
517.2784, 2809.627
517.7606, 2817.072
518.2427, 2825.651
518.7248, 2835.585
519.2069, 2846.528
519.6890, 2858.488
520.1711, 2871.224
520.6533, 2883.122
521.1354, 2891.832
521.6175, 2903.011
522.0996, 2919.130
522.5817, 2937.215
523.0638, 2953.894
523.5460, 2968.783
524.0281, 2984.230
524.5102, 3002.418
524.9923, 3023.213
525.4744, 3044.848
525.9565, 3068.104
526.4387, 3090.962
526.9208, 3111.385
527.4029, 3132.167
527.8850, 3156.208
528.3671, 3184.218
528.8492, 3214.576
529.3314, 3246.081
529.8135, 3278.585
530.2956, 3311.230
530.7777, 3343.610
531.2598, 3376.698
531.7419, 3409.806
532.2241, 3444.216
532.7062, 3482.965
533.1883, 3526.963
533.6704, 3574.469
534.1525, 3626.204
534.6346, 3680.475
535.1168, 3733.283
535.5989, 3783.478
536.0810, 3834.604
536.5631, 3889.879
537.0452, 3949.719
537.5273, 4011.092
538.0095, 4071.984
538.4916, 4136.648
538.9737, 4208.509
539.4558, 4284.802
539.9379, 4361.689
540.4200, 4437.763
540.9022, 4514.524
541.3843, 4593.478
541.8664, 4674.745
542.3485, 4757.756
542.8306, 4841.945
543.3127, 4928.214
543.7948, 5016.111
544.2769, 5106.279
544.7590, 5199.898
545.2411, 5297.986
545.7233, 5396.856
546.2054, 5489.288
546.6875, 5576.264
547.1696, 5667.964
547.6517, 5768.193
548.1339, 5868.706
548.6160, 5962.079
549.0981, 6049.883
549.5802, 6137.425
550.0623, 6225.178
550.5444, 6312.802
551.0266, 6402.447
551.5087, 6491.869
551.9908, 6576.292
552.4729, 6654.255
552.9550, 6727.254
553.4371, 6796.378
553.9193, 6860.883
554.4014, 6927.722
554.8835, 7001.888
555.3656, 7072.591
555.8477, 7136.334
556.3298, 7194.501
556.8120, 7248.582
557.2941, 7299.466
557.7762, 7346.459
558.2583, 7388.381
558.7404, 7424.486
559.2225, 7460.088
559.7047, 7497.273
560.1868, 7530.661
560.6689, 7560.297
561.1510, 7584.381
561.6331, 7599.615
562.1152, 7603.646
562.5974, 7602.094
563.0795, 7600.770
563.5616, 7598.256
564.0437, 7589.226
564.5258, 7572.275
565.0079, 7550.189
565.4901, 7526.015
565.9722, 7499.083
566.4543, 7464.544
566.9364, 7421.283
567.4185, 7371.958
567.9006, 7316.192
568.3828, 7255.618
568.8649, 7192.103
569.3470, 7126.500
569.8291, 7057.083
570.3112, 6982.702
570.7933, 6902.956
571.2755, 6820.393
571.7576, 6731.930
572.2397, 6644.008
572.7218, 6558.752
573.2039, 6474.171
573.6860, 6387.823
574.1682, 6298.748
574.6503, 6208.803
575.1324, 6119.280
575.6145, 6030.164
576.0966, 5941.795
576.5787, 5854.787
577.0609, 5766.263
577.5430, 5673.114
578.0251, 5578.499
578.5072, 5490.352
578.9893, 5410.654
579.4714, 5333.327
579.9536, 5257.915
580.4357, 5182.739
580.9178, 5104.150
581.3999, 5022.617
581.8820, 4941.818
582.3641, 4864.311
582.8463, 4790.227
583.3284, 4719.496
583.8105, 4652.288
584.2926, 4588.225
584.7747, 4528.689
585.2568, 4470.781
585.7390, 4411.578
