##NAMES=Lithiophilite
##RRUFFID=R070303
##IDEAL CHEMISTRY=LiMn^2+^PO_4_
##LOCALITY=Vittaniemi, Erajarvi, Orivesi, Etela-Suomen Laani, Finland
##OWNER=RRUFF
##SOURCE=James Shigley
##DESCRIPTION=Yellowish brown massive associated with muscovite
##STATUS=The identification of this mineral is confirmed by single-crystal X-ray diffraction and chemical analysis.
##URL=rruff.info/R070303
##MEASURED CHEMISTRY=Li_1.00_(Mn^2+^_0.67_Fe^2+^_0.33_)_Î£=1_P_1.00_O_4_; trace amounts of Ca and Mg; Li estimated by difference and charge balance
133.2699, 413.1988
133.7520, 429.8107
134.2341, 447.4795
134.7162, 468.1556
135.1983, 491.9407
135.6804, 511.8542
136.1626, 526.6714
136.6447, 538.9799
137.1268, 553.5848
137.6089, 570.7577
138.0910, 588.9045
138.5731, 606.9223
139.0553, 624.9980
139.5374, 643.4116
140.0195, 663.3742
140.5016, 683.4677
140.9837, 696.0241
141.4658, 695.8392
141.9480, 696.4969
142.4301, 708.7961
142.9122, 741.8287
143.3943, 766.7373
143.8764, 776.7661
144.3585, 772.2833
144.8407, 776.3550
145.3228, 793.7145
145.8049, 816.0254
146.2870, 835.5208
146.7691, 850.4599
147.2512, 864.5873
147.7334, 879.0971
148.2155, 895.1983
148.6976, 906.8288
149.1797, 915.4082
149.6618, 919.0834
150.1439, 915.4269
150.6261, 900.8407
151.1082, 882.1935
151.5903, 860.4971
152.0724, 833.6066
152.5545, 808.7616
153.0366, 784.0805
153.5188, 762.0036
154.0009, 747.3870
154.4830, 745.8480
154.9651, 748.1061
155.4472, 750.2491
155.9293, 752.6692
156.4115, 753.5973
156.8936, 752.7071
157.3757, 750.0580
157.8578, 745.8880
158.3399, 735.8757
158.8221, 726.8982
159.3042, 723.3679
159.7863, 733.7117
160.2684, 742.4485
160.7505, 742.8298
161.2326, 735.9794
161.7148, 730.5326
162.1969, 731.3035
162.6790, 734.7771
163.1611, 737.5406
163.6432, 739.3145
164.1253, 739.4511
164.6075, 735.6094
165.0896, 727.6351
165.5717, 723.2348
166.0538, 730.5226
166.5359, 743.4464
167.0180, 753.3524
167.5002, 753.4572
167.9823, 751.2833
168.4644, 752.6443
168.9465, 758.3073
169.4286, 765.1229
169.9107, 772.1460
170.3929, 778.6578
170.8750, 783.3239
171.3571, 784.3168
171.8392, 783.5532
172.3213, 782.7183
172.8034, 781.7230
173.2856, 781.6725
173.7677, 783.6600
174.2498, 787.4976
174.7319, 792.4781
175.2140, 800.5630
175.6961, 808.9873
176.1783, 812.8148
176.6604, 809.4329
177.1425, 804.2221
177.6246, 804.0225
178.1067, 808.2325
178.5888, 812.9486
179.0710, 815.0206
179.5531, 815.4728
180.0352, 816.6141
180.5173, 819.4097
180.9994, 822.7095
181.4815, 824.1555
181.9637, 823.8268
182.4458, 823.8068
182.9279, 826.0754
183.4100, 830.2015
183.8921, 834.5178
184.3742, 838.0656
184.8564, 841.7191
185.3385, 848.1127
185.8206, 857.5329
186.3027, 866.8791
186.7848, 872.0922
187.2669, 873.8292
187.7491, 877.3722
188.2312, 886.5066
188.7133, 898.9315
189.1954, 905.2623
189.6775, 904.4568
190.1596, 902.0248
190.6418, 903.9214
191.1239, 910.1329
191.6060, 919.5743
192.0881, 932.3774
192.5702, 948.3273
193.0524, 966.6902
193.5345, 988.6255
194.0166, 1009.861
194.4987, 1020.592
194.9808, 1019.844
195.4629, 1023.319
195.9451, 1041.885
196.4272, 1075.340
196.9093, 1099.884
197.3914, 1113.656
197.8735, 1120.276
198.3556, 1125.991
198.8378, 1130.834
199.3199, 1134.487
199.8020, 1138.612
200.2841, 1143.806
200.7662, 1139.432
201.2483, 1123.002
201.7305, 1098.389
202.2126, 1074.497
202.6947, 1051.347
203.1768, 1028.846
203.6589, 1006.857
204.1410, 985.5688
204.6232, 964.3925
205.1053, 941.9029
205.5874, 920.0958
206.0695, 906.0894
206.5516, 901.2016
207.0337, 900.6567
207.5159, 902.6017
207.9980, 908.2662
208.4801, 909.9677
208.9622, 904.9229
209.4443, 895.2309
209.9264, 891.6121
210.4086, 895.7512
210.8907, 902.6085
211.3728, 908.7379
211.8549, 914.4835
212.3370, 918.4686
212.8191, 920.3519
213.3013, 920.2564
213.7834, 918.9697
214.2655, 915.5441
214.7476, 912.4470
215.2297, 912.0071
215.7118, 915.0757
216.1940, 918.3052
216.6761, 920.3210
217.1582, 921.3514
217.6403, 927.2806
218.1224, 940.7328
218.6045, 955.4803
219.0867, 965.0712
219.5688, 966.8032
220.0509, 969.6332
220.5330, 975.6718
221.0151, 985.0836
221.4972, 993.5018
221.9794, 1000.863
222.4615, 1007.386
222.9436, 1012.518
223.4257, 1013.013
223.9078, 1019.320
224.3899, 1036.444
224.8721, 1066.198
225.3542, 1084.723
225.8363, 1084.884
226.3184, 1080.732
226.8005, 1091.077
227.2827, 1127.892
227.7648, 1155.901
228.2469, 1163.003
228.7290, 1145.157
229.2111, 1138.454
229.6932, 1149.175
230.1754, 1166.021
230.6575, 1174.213
231.1396, 1170.105
231.6217, 1163.596
232.1038, 1157.068
232.5859, 1150.583
233.0681, 1143.358
233.5502, 1133.167
234.0323, 1123.846
234.5144, 1121.628
234.9965, 1131.316
235.4786, 1139.969
235.9608, 1142.667
236.4429, 1136.922
236.9250, 1137.093
237.4071, 1146.827
237.8892, 1160.220
238.3713, 1167.000
238.8535, 1160.730
239.3356, 1158.743
239.8177, 1168.487
240.2998, 1195.302
240.7819, 1212.880
241.2640, 1217.074
241.7462, 1214.730
242.2283, 1218.552
242.7104, 1235.093
243.1925, 1246.989
243.6746, 1247.713
244.1567, 1233.825
244.6389, 1220.451
245.1210, 1208.919
245.6031, 1197.155
246.0852, 1180.480
246.5673, 1153.296
247.0494, 1130.850
247.5316, 1120.680
248.0137, 1129.489
248.4958, 1127.118
248.9779, 1108.357
249.4600, 1081.333
249.9421, 1061.409
250.4243, 1050.353
250.9064, 1042.946
251.3885, 1037.386
251.8706, 1033.457
252.3527, 1032.581
252.8348, 1037.035
253.3170, 1043.134
253.7991, 1043.165
254.2812, 1033.655
254.7633, 1024.742
255.2454, 1020.579
255.7275, 1022.830
256.2097, 1023.835
256.6918, 1023.410
257.1739, 1021.860
257.6560, 1019.264
258.1381, 1014.234
258.6202, 1011.051
259.1024, 1012.088
259.5845, 1019.036
260.0666, 1023.281
260.5487, 1024.969
261.0308, 1023.823
261.5129, 1017.531
261.9951, 1001.655
262.4772, 991.4640
262.9593, 995.6595
263.4414, 1019.326
263.9235, 1032.753
264.4056, 1033.198
264.8878, 1026.070
265.3699, 1019.551
265.8520, 1012.011
266.3341, 1009.650
266.8162, 1017.126
267.2983, 1036.979
267.7805, 1049.976
268.2626, 1055.343
268.7447, 1054.535
269.2268, 1048.679
269.7089, 1036.079
270.1910, 1024.521
270.6732, 1016.503
271.1553, 1012.085
271.6374, 1012.220
272.1195, 1019.026
272.6016, 1027.279
273.0837, 1027.085
273.5659, 1016.554
274.0480, 1007.235
274.5301, 1002.923
275.0122, 1003.682
275.4943, 1010.301
275.9764, 1025.095
276.4586, 1041.394
276.9407, 1049.182
277.4228, 1047.828
277.9049, 1042.794
278.3870, 1033.815
278.8691, 1021.323
279.3513, 1016.137
279.8334, 1019.607
280.3155, 1026.917
280.7976, 1031.877
281.2798, 1034.353
281.7619, 1036.668
282.2440, 1039.309
282.7261, 1042.392
283.2082, 1047.411
283.6903, 1054.940
284.1725, 1062.293
284.6546, 1066.289
285.1367, 1066.950
285.6188, 1065.612
286.1009, 1061.261
286.5830, 1055.144
287.0652, 1053.062
287.5473, 1055.428
288.0294, 1059.478
288.5115, 1061.590
288.9936, 1062.231
289.4757, 1065.268
289.9579, 1073.965
290.4400, 1085.511
290.9221, 1092.840
291.4042, 1095.931
291.8863, 1095.059
292.3684, 1085.931
292.8506, 1071.565
293.3327, 1065.323
293.8148, 1076.310
294.2969, 1095.137
294.7790, 1102.486
295.2611, 1098.349
295.7433, 1092.639
296.2254, 1094.966
296.7075, 1102.703
297.1896, 1108.024
297.6717, 1106.210
298.1538, 1103.082
298.6360, 1108.609
299.1181, 1122.208
299.6002, 1136.389
300.0823, 1146.290
300.5644, 1152.716
301.0465, 1157.151
301.5287, 1159.385
302.0108, 1160.542
302.4929, 1160.876
302.9750, 1160.753
303.4571, 1162.247
303.9392, 1164.854
304.4214, 1170.474
304.9035, 1182.868
305.3856, 1206.765
305.8677, 1231.020
306.3498, 1244.706
306.8319, 1249.935
307.3141, 1254.403
307.7962, 1263.131
308.2783, 1272.965
308.7604, 1280.722
309.2425, 1284.809
309.7246, 1288.485
310.2068, 1294.406
310.6889, 1301.630
311.1710, 1307.774
311.6531, 1315.014
312.1352, 1318.722
312.6173, 1313.639
313.0995, 1295.231
313.5816, 1279.096
314.0637, 1275.879
314.5458, 1279.762
315.0279, 1279.750
315.5100, 1270.183
315.9922, 1256.705
316.4743, 1241.019
316.9564, 1221.981
317.4385, 1206.337
317.9206, 1196.774
318.4027, 1191.831
318.8849, 1189.467
319.3670, 1196.825
319.8491, 1199.907
320.3312, 1190.011
320.8133, 1162.974
321.2954, 1144.648
321.7776, 1145.739
322.2597, 1155.639
322.7418, 1163.042
323.2239, 1165.723
323.7060, 1166.365
324.1881, 1165.660
324.6703, 1163.698
325.1524, 1159.481
325.6345, 1149.571
326.1166, 1139.206
326.5987, 1132.521
327.0808, 1131.838
327.5630, 1132.145
328.0451, 1133.429
328.5272, 1135.607
329.0093, 1137.034
329.4914, 1139.586
329.9735, 1139.684
330.4557, 1134.303
330.9378, 1117.015
331.4199, 1105.521
331.9020, 1102.409
332.3841, 1106.299
332.8662, 1110.920
333.3484, 1117.601
333.8305, 1122.924
334.3126, 1124.169
334.7947, 1118.645
335.2768, 1117.730
335.7589, 1123.952
336.2411, 1134.005
336.7232, 1139.851
337.2053, 1140.957
337.6874, 1139.261
338.1695, 1134.026
338.6516, 1124.288
339.1338, 1120.131
339.6159, 1122.641
340.0980, 1129.380
340.5801, 1137.552
341.0622, 1147.703
341.5443, 1154.984
342.0265, 1156.686
342.5086, 1153.369
342.9907, 1149.847
343.4728, 1145.810
343.9549, 1142.905
344.4370, 1145.277
344.9192, 1152.065
345.4013, 1154.749
345.8834, 1147.432
346.3655, 1134.639
346.8476, 1128.444
347.3297, 1128.952
347.8119, 1133.118
348.2940, 1139.717
348.7761, 1147.944
349.2582, 1155.343
349.7403, 1161.820
350.2225, 1166.729
350.7046, 1168.279
351.1867, 1166.881
351.6688, 1165.594
352.1509, 1168.602
352.6331, 1172.626
353.1152, 1171.975
353.5973, 1162.838
354.0794, 1153.549
354.5615, 1152.449
355.0436, 1157.513
355.5258, 1162.570
356.0079, 1164.170
356.4900, 1164.316
356.9721, 1165.395
357.4542, 1168.909
357.9363, 1169.503
358.4185, 1159.391
358.9006, 1144.825
359.3827, 1136.623
359.8648, 1144.911
360.3469, 1155.966
360.8290, 1162.267
361.3112, 1162.398
361.7933, 1163.569
362.2754, 1170.127
362.7575, 1178.156
363.2396, 1183.425
363.7217, 1184.173
364.2039, 1182.803
364.6860, 1177.233
365.1681, 1167.421
365.6502, 1164.664
366.1323, 1178.901
366.6144, 1195.312
367.0966, 1203.689
367.5787, 1197.366
368.0608, 1190.571
368.5429, 1181.580
369.0250, 1171.966
369.5071, 1170.366
369.9893, 1183.133
370.4714, 1196.497
370.9535, 1203.425
371.4356, 1199.755
371.9177, 1199.345
372.3998, 1204.776
372.8820, 1212.334
373.3641, 1212.130
373.8462, 1199.489
374.3283, 1191.325
374.8104, 1197.012
375.2925, 1218.519
375.7747, 1230.534
376.2568, 1231.203
376.7389, 1226.274
377.2210, 1221.752
377.7031, 1217.366
378.1852, 1217.602
378.6674, 1225.895
379.1495, 1239.790
379.6316, 1249.288
380.1137, 1254.156
380.5958, 1256.023
381.0779, 1254.454
381.5601, 1250.458
382.0422, 1249.110
382.5243, 1251.723
383.0064, 1257.253
383.4885, 1265.557
383.9706, 1276.150
384.4528, 1284.878
384.9349, 1287.956
385.4170, 1287.632
385.8991, 1288.125
386.3812, 1290.752
386.8633, 1291.994
387.3455, 1286.183
387.8276, 1276.374
388.3097, 1269.482
388.7918, 1271.193
389.2739, 1275.900
389.7560, 1278.610
390.2382, 1278.615
390.7203, 1280.579
391.2024, 1290.593
391.6845, 1302.716
392.1666, 1310.209
392.6487, 1303.130
393.1309, 1298.160
393.6130, 1303.700
394.0951, 1318.858
394.5772, 1332.150
395.0593, 1338.521
395.5414, 1343.474
396.0236, 1350.392
396.5057, 1365.128
396.9878, 1375.486
397.4699, 1376.911
397.9520, 1372.638
398.4341, 1372.851
398.9163, 1381.254
399.3984, 1390.325
399.8805, 1397.613
400.3626, 1403.118
400.8447, 1406.516
401.3268, 1405.720
401.8090, 1404.359
402.2911, 1408.116
402.7732, 1419.133
403.2553, 1429.472
403.7374, 1436.286
404.2195, 1439.934
404.7017, 1448.132
405.1838, 1462.964
405.6659, 1476.794
406.1480, 1479.577
406.6301, 1471.035
407.1122, 1471.437
407.5944, 1487.140
408.0765, 1511.117
408.5586, 1525.323
409.0407, 1530.018
409.5228, 1535.496
410.0049, 1550.348
410.4871, 1571.186
410.9692, 1588.808
411.4513, 1602.175
411.9334, 1612.917
412.4155, 1620.568
412.8976, 1626.962
413.3798, 1636.969
413.8619, 1659.329
414.3440, 1682.822
414.8261, 1695.531
415.3082, 1697.228
415.7903, 1694.683
416.2725, 1686.426
416.7546, 1678.627
417.2367, 1678.245
417.7188, 1691.237
418.2009, 1707.982
418.6830, 1726.100
419.1652, 1744.940
419.6473, 1761.408
420.1294, 1775.552
420.6115, 1786.424
421.0937, 1793.002
421.5758, 1791.897
422.0579, 1793.234
422.5400, 1801.851
423.0221, 1812.967
423.5042, 1818.798
423.9864, 1811.093
424.4685, 1807.045
424.9506, 1811.601
425.4327, 1825.512
425.9148, 1838.032
426.3969, 1850.638
426.8791, 1860.177
427.3612, 1863.312
427.8433, 1858.419
428.3254, 1851.920
428.8075, 1843.606
429.2896, 1834.701
429.7718, 1829.593
430.2539, 1828.544
430.7360, 1829.693
431.2181, 1834.129
431.7002, 1841.259
432.1823, 1840.552
432.6645, 1829.466
433.1466, 1817.274
433.6287, 1820.786
434.1108, 1836.266
434.5929, 1844.755
435.0750, 1831.145
435.5572, 1808.747
436.0393, 1803.922
436.5214, 1815.800
437.0035, 1825.976
437.4856, 1816.469
437.9677, 1797.318
438.4499, 1782.995
438.9320, 1780.370
439.4141, 1777.962
439.8962, 1765.357
440.3783, 1746.425
440.8604, 1730.770
441.3426, 1725.557
441.8247, 1722.817
442.3068, 1718.433
442.7889, 1711.880
443.2710, 1704.012
443.7531, 1693.888
444.2353, 1683.038
444.7174, 1672.976
445.1995, 1664.618
445.6816, 1656.443
446.1637, 1647.802
446.6458, 1638.919
447.1280, 1631.427
447.6101, 1625.399
448.0922, 1620.667
448.5743, 1618.238
449.0564, 1621.981
449.5385, 1616.636
450.0207, 1597.982
450.5028, 1573.627
450.9849, 1559.005
451.4670, 1556.314
451.9491, 1552.783
452.4312, 1542.176
452.9134, 1525.937
453.3955, 1516.097
453.8776, 1513.479
454.3597, 1511.586
454.8418, 1501.085
455.3239, 1485.054
455.8061, 1477.577
456.2882, 1484.749
456.7703, 1497.165
457.2524, 1502.129
457.7345, 1500.759
458.2166, 1497.665
458.6988, 1497.001
459.1809, 1495.323
459.6630, 1486.999
460.1451, 1470.095
460.6272, 1456.198
461.1093, 1456.294
461.5915, 1462.578
462.0736, 1465.360
462.5557, 1455.969
463.0378, 1447.888
463.5199, 1447.880
464.0020, 1454.709
464.4842, 1458.662
464.9663, 1456.147
465.4484, 1451.377
465.9305, 1446.608
466.4126, 1443.072
466.8947, 1437.104
467.3769, 1423.572
467.8590, 1409.853
468.3411, 1409.702
468.8232, 1433.109
469.3053, 1449.884
469.7874, 1449.547
470.2696, 1433.379
470.7517, 1426.046
471.2338, 1429.815
471.7159, 1435.472
472.1980, 1435.664
472.6801, 1430.428
473.1623, 1421.376
473.6444, 1406.709
474.1265, 1392.191
474.6086, 1388.134
475.0907, 1393.600
475.5728, 1402.513
476.0550, 1413.973
476.5371, 1426.072
477.0192, 1436.123
477.5013, 1444.107
477.9834, 1449.018
478.4655, 1449.744
478.9477, 1447.019
479.4298, 1441.466
479.9119, 1428.793
480.3940, 1418.920
480.8761, 1419.994
481.3582, 1428.396
481.8404, 1433.724
482.3225, 1428.429
482.8046, 1422.726
483.2867, 1421.563
483.7688, 1426.797
484.2509, 1431.575
484.7331, 1438.092
485.2152, 1442.423
485.6973, 1440.521
486.1794, 1427.630
486.6615, 1416.415
487.1436, 1407.636
487.6258, 1401.773
488.1079, 1402.420
488.5900, 1412.280
489.0721, 1421.170
489.5542, 1422.042
490.0363, 1414.806
490.5185, 1412.044
491.0006, 1414.780
491.4827, 1419.722
491.9648, 1424.178
492.4470, 1427.679
492.9291, 1426.917
493.4112, 1417.058
493.8933, 1405.560
494.3754, 1405.229
494.8575, 1414.733
495.3397, 1425.687
495.8218, 1436.297
496.3039, 1443.791
496.7860, 1443.664
497.2681, 1433.078
497.7502, 1423.701
498.2324, 1420.058
498.7145, 1421.775
499.1966, 1428.282
499.6787, 1447.341
500.1608, 1463.170
500.6429, 1470.049
501.1251, 1468.365
501.6072, 1465.976
502.0893, 1462.124
502.5714, 1458.817
503.0535, 1456.879
503.5356, 1456.061
504.0178, 1457.535
504.4999, 1462.924
504.9820, 1469.106
505.4641, 1471.327
505.9462, 1469.122
506.4283, 1465.039
506.9105, 1458.136
507.3926, 1450.302
507.8747, 1451.497
508.3568, 1462.335
508.8389, 1470.889
509.3210, 1464.630
509.8032, 1449.324
510.2853, 1441.051
510.7674, 1442.425
511.2495, 1448.251
511.7316, 1457.454
512.2137, 1466.980
512.6959, 1470.540
513.1780, 1454.618
513.6601, 1440.990
514.1422, 1448.649
514.6243, 1474.165
515.1064, 1493.376
515.5886, 1492.897
516.0707, 1485.949
516.5528, 1480.188
517.0349, 1476.349
517.5170, 1474.112
517.9991, 1475.595
518.4813, 1477.849
518.9634, 1476.589
519.4455, 1466.700
519.9276, 1462.357
520.4097, 1468.593
520.8918, 1483.227
521.3740, 1492.484
521.8561, 1495.529
522.3382, 1495.956
522.8203, 1495.743
523.3024, 1494.880
523.7845, 1492.785
524.2667, 1489.011
524.7488, 1485.542
525.2309, 1484.725
525.7130, 1486.190
526.1951, 1488.987
526.6772, 1496.178
527.1594, 1501.323
527.6415, 1491.398
528.1236, 1470.740
528.6057, 1458.263
529.0878, 1473.262
529.5699, 1495.135
530.0521, 1508.295
530.5342, 1509.445
531.0163, 1508.322
531.4984, 1504.622
531.9805, 1501.697
532.4626, 1503.076
532.9448, 1517.671
533.4269, 1526.309
533.9090, 1523.518
534.3911, 1512.854
534.8732, 1508.572
535.3553, 1513.548
535.8375, 1519.469
536.3196, 1522.316
536.8017, 1521.866
537.2838, 1524.349
537.7659, 1530.577
538.2480, 1537.128
538.7302, 1540.972
539.2123, 1542.116
539.6944, 1539.890
540.1765, 1532.917
540.6586, 1524.783
541.1407, 1517.919
541.6229, 1513.479
542.1050, 1515.396
542.5871, 1534.691
543.0692, 1555.462
543.5513, 1560.737
544.0334, 1549.744
544.5156, 1540.641
544.9977, 1544.059
545.4798, 1551.634
545.9619, 1556.580
546.4440, 1553.158
546.9261, 1553.716
547.4083, 1564.097
547.8904, 1578.717
548.3725, 1587.080
548.8546, 1584.608
549.3367, 1583.453
549.8188, 1586.401
550.3010, 1593.270
550.7831, 1603.981
551.2652, 1621.376
551.7473, 1633.140
552.2294, 1624.296
552.7115, 1597.993
553.1937, 1588.622
553.6758, 1601.555
554.1579, 1620.415
554.6400, 1622.885
555.1221, 1614.615
555.6042, 1611.897
556.0864, 1624.161
556.5685, 1640.807
557.0506, 1653.379
557.5327, 1662.088
558.0148, 1667.440
558.4969, 1665.366
558.9791, 1663.272
559.4612, 1664.846
559.9433, 1670.013
560.4254, 1681.183
560.9075, 1705.238
561.3896, 1731.864
561.8718, 1752.270
562.3539, 1763.391
562.8360, 1772.916
563.3181, 1778.123
563.8002, 1783.513
564.2823, 1802.891
564.7645, 1840.101
565.2466, 1872.960
565.7287, 1888.614
566.2108, 1892.269
566.6929, 1910.289
567.1750, 1942.931
567.6572, 1980.910
568.1393, 2019.938
568.6214, 2057.642
569.1035, 2086.887
569.5856, 2105.405
570.0677, 2121.385
570.5499, 2139.239
571.0320, 2159.774
571.5141, 2184.353
571.9962, 2212.583
572.4783, 2245.818
572.9604, 2288.664
573.4426, 2338.240
573.9247, 2381.088
574.4068, 2414.193
574.8889, 2440.304
575.3710, 2459.458
575.8531, 2470.308
576.3353, 2480.472
576.8174, 2491.188
577.2995, 2499.229
577.7816, 2503.809
578.2637, 2505.834
578.7458, 2491.297
579.2280, 2453.238
579.7101, 2406.804
580.1922, 2378.976
580.6743, 2367.453
581.1564, 2359.241
581.6385, 2344.335
582.1207, 2331.441
582.6028, 2334.649
583.0849, 2352.288
583.5670, 2371.439
584.0491, 2382.436
584.5313, 2393.200
585.0134, 2412.396
585.4955, 2447.162
585.9776, 2470.938
586.4597, 2472.733
586.9418, 2461.583
587.4240, 2447.865
587.9061, 2438.248
588.3882, 2416.515
588.8703, 2378.579
589.3524, 2328.057
589.8345, 2273.780
590.3167, 2213.835
590.7988, 2157.070
591.2809, 2108.692
591.7630, 2067.293
592.2451, 2027.486
592.7272, 1989.163
593.2094, 1955.077
593.6915, 1932.343
594.1736, 1914.500
594.6557, 1886.321
595.1378, 1842.476
595.6199, 1803.015
596.1021, 1785.520
596.5842, 1781.415
597.0663, 1778.460
597.5485, 1770.160
598.0306, 1764.962
598.5127, 1768.221
598.9948, 1777.551
599.4769, 1782.523
599.9590, 1780.073
600.4412, 1776.221
600.9233, 1772.350
601.4054, 1768.308
601.8875, 1765.930
602.3696, 1764.529
602.8517, 1766.564
603.3339, 1778.141
603.8160, 1797.919
604.2981, 1803.731
604.7802, 1789.787
605.2623, 1773.084
605.7444, 1777.494
606.2266, 1797.021
606.7087, 1815.251
607.1908, 1824.143
607.6729, 1831.811
608.1550, 1846.696
608.6371, 1866.098
609.1193, 1881.759
609.6014, 1878.520
610.0835, 1880.874
610.5656, 1902.217
611.0477, 1945.757
611.5298, 1989.461
612.0120, 2029.087
612.4941, 2071.593
612.9762, 2122.004
613.4583, 2182.863
613.9404, 2241.205
614.4225, 2294.786
614.9047, 2348.333
615.3868, 2409.966
615.8689, 2479.684
616.3510, 2550.585
616.8331, 2620.916
617.3152, 2690.905
617.7974, 2759.129
618.2795, 2826.856
618.7616, 2902.374
619.2437, 2988.999
619.7258, 3085.525
620.2079, 3197.965
620.6901, 3325.701
621.1722, 3444.364
621.6543, 3541.014
622.1364, 3629.376
622.6185, 3717.256
623.1006, 3808.323
623.5828, 3895.923
624.0649, 3996.437
624.5470, 4078.443
625.0291, 4104.883
625.5112, 4072.972
625.9933, 3997.250
626.4755, 3874.586
