##NAMES=Lithiophilite
##RRUFFID=R070303
##IDEAL CHEMISTRY=LiMn^2+^PO_4_
##LOCALITY=Vittaniemi, Erajarvi, Orivesi, Etela-Suomen Laani, Finland
##OWNER=RRUFF
##SOURCE=James Shigley
##DESCRIPTION=Yellowish brown massive associated with muscovite
##STATUS=The identification of this mineral is confirmed by single-crystal X-ray diffraction and chemical analysis.
##URL=rruff.info/R070303
##MEASURED CHEMISTRY=Li_1.00_(Mn^2+^_0.67_Fe^2+^_0.33_)_Î£=1_P_1.00_O_4_; trace amounts of Ca and Mg; Li estimated by difference and charge balance
143.1968, 670.4056
143.6789, 701.6699
144.1610, 733.0225
144.6431, 764.9142
145.1252, 796.3897
145.6074, 826.3888
146.0895, 855.1557
146.5716, 884.7024
147.0537, 917.8168
147.5358, 954.0970
148.0179, 983.0501
148.5001, 1004.046
148.9822, 1018.423
149.4643, 1026.943
149.9464, 1029.725
150.4285, 1026.660
150.9106, 1014.891
151.3928, 995.6160
151.8749, 982.3935
152.3570, 981.7682
152.8391, 984.0181
153.3212, 980.5643
153.8033, 970.7549
154.2855, 957.5616
154.7676, 940.9969
155.2497, 922.3701
155.7318, 907.5574
156.2139, 896.2607
156.6960, 889.8359
157.1782, 891.9970
157.6603, 904.1278
158.1424, 916.5601
158.6245, 918.8622
159.1066, 915.4196
159.5887, 917.2043
160.0709, 930.5329
160.5530, 949.3022
161.0351, 965.2867
161.5172, 978.2347
161.9993, 988.3572
162.4814, 993.4504
162.9636, 995.8131
163.4457, 999.7300
163.9278, 1007.018
164.4099, 1016.641
164.8920, 1027.742
165.3741, 1041.884
165.8563, 1052.937
166.3384, 1053.578
166.8205, 1048.931
167.3026, 1047.712
167.7847, 1055.054
168.2668, 1067.547
168.7490, 1078.621
169.2311, 1089.508
169.7132, 1095.925
170.1953, 1093.166
170.6774, 1085.253
171.1595, 1077.964
171.6417, 1072.236
172.1238, 1069.522
172.6059, 1075.365
173.0880, 1096.121
173.5701, 1112.489
174.0522, 1112.756
174.5344, 1104.423
175.0165, 1098.102
175.4986, 1099.501
175.9807, 1105.880
176.4628, 1108.962
176.9449, 1104.874
177.4271, 1104.935
177.9092, 1117.087
178.3913, 1134.493
178.8734, 1147.999
179.3555, 1153.159
179.8376, 1151.669
180.3197, 1147.574
180.8019, 1136.564
181.2840, 1131.022
181.7661, 1136.383
182.2482, 1147.944
182.7303, 1160.759
183.2124, 1173.357
183.6946, 1184.225
184.1767, 1188.255
184.6588, 1180.680
185.1409, 1174.350
185.6230, 1173.733
186.1051, 1175.694
186.5873, 1175.963
187.0694, 1171.979
187.5515, 1166.819
188.0336, 1169.049
188.5157, 1182.660
188.9978, 1197.292
189.4800, 1214.556
189.9621, 1229.883
190.4442, 1237.449
190.9263, 1234.069
191.4084, 1224.773
191.8905, 1221.682
192.3727, 1227.115
192.8548, 1235.256
193.3369, 1248.787
193.8190, 1262.378
194.3011, 1269.277
194.7832, 1266.657
195.2654, 1260.727
195.7475, 1265.620
196.2296, 1288.958
196.7117, 1309.247
197.1938, 1324.062
197.6759, 1335.055
198.1581, 1343.476
198.6402, 1349.804
199.1223, 1353.814
199.6044, 1354.898
200.0865, 1352.000
200.5686, 1348.001
201.0508, 1344.049
201.5329, 1338.829
202.0150, 1332.129
202.4971, 1323.631
202.9792, 1311.933
203.4613, 1293.340
203.9435, 1261.379
204.4256, 1237.496
204.9077, 1225.120
205.3898, 1217.940
205.8719, 1212.377
206.3540, 1207.443
206.8362, 1203.611
207.3183, 1201.760
207.8004, 1202.921
208.2825, 1203.515
208.7646, 1204.842
209.2467, 1204.705
209.7289, 1201.132
210.2110, 1194.292
210.6931, 1186.245
211.1752, 1178.378
211.6573, 1168.762
212.1395, 1166.988
212.6216, 1179.865
213.1037, 1194.166
213.5858, 1204.333
214.0679, 1209.833
214.5500, 1212.670
215.0322, 1214.721
215.5143, 1216.097
215.9964, 1215.808
216.4785, 1211.085
216.9606, 1207.281
217.4427, 1206.190
217.9249, 1207.792
218.4070, 1211.375
218.8891, 1216.578
219.3712, 1223.449
219.8533, 1230.185
220.3354, 1238.662
220.8176, 1245.097
221.2997, 1247.175
221.7818, 1246.383
222.2639, 1245.263
222.7460, 1245.078
223.2281, 1246.192
223.7103, 1252.587
224.1924, 1271.787
224.6745, 1288.321
225.1566, 1296.625
225.6387, 1300.743
226.1208, 1308.224
226.6030, 1324.367
227.0851, 1344.837
227.5672, 1350.636
228.0493, 1326.535
228.5314, 1307.688
229.0135, 1301.029
229.4957, 1302.114
229.9778, 1306.514
230.4599, 1312.368
230.9420, 1318.809
231.4241, 1323.489
231.9062, 1324.178
232.3884, 1327.011
232.8705, 1336.508
233.3526, 1346.152
233.8347, 1349.935
234.3168, 1345.933
234.7989, 1337.415
235.2811, 1328.918
235.7632, 1317.551
236.2453, 1313.507
236.7274, 1319.419
237.2095, 1330.572
237.6916, 1347.002
238.1738, 1367.399
238.6559, 1385.631
239.1380, 1391.946
239.6201, 1381.048
240.1022, 1378.030
240.5843, 1393.752
241.0665, 1409.344
241.5486, 1415.843
242.0307, 1413.055
242.5128, 1405.994
242.9949, 1398.138
243.4770, 1389.113
243.9592, 1383.828
244.4413, 1387.773
244.9234, 1390.326
245.4055, 1388.369
245.8876, 1381.823
246.3697, 1371.086
246.8519, 1354.533
247.3340, 1333.318
247.8161, 1319.041
248.2982, 1316.286
248.7803, 1314.767
249.2624, 1311.535
249.7446, 1306.878
250.2267, 1301.120
250.7088, 1293.750
251.1909, 1286.095
251.6730, 1282.871
252.1551, 1288.048
252.6373, 1289.401
253.1194, 1278.792
253.6015, 1264.502
254.0836, 1256.091
254.5657, 1257.776
255.0478, 1263.552
255.5300, 1263.421
256.0121, 1255.589
256.4942, 1248.640
256.9763, 1244.761
257.4584, 1242.884
257.9406, 1242.805
258.4227, 1244.545
258.9048, 1246.785
259.3869, 1249.264
259.8690, 1252.156
260.3511, 1250.597
260.8333, 1237.431
261.3154, 1225.110
261.7975, 1223.520
262.2796, 1232.494
262.7617, 1243.172
263.2438, 1249.620
263.7260, 1252.447
264.2081, 1255.464
264.6902, 1260.508
265.1723, 1263.334
265.6544, 1259.932
266.1365, 1251.813
266.6187, 1243.904
267.1008, 1235.891
267.5829, 1230.123
268.0650, 1233.577
268.5471, 1249.438
269.0292, 1264.596
269.5114, 1271.509
269.9935, 1271.379
270.4756, 1264.047
270.9577, 1240.572
271.4398, 1217.161
271.9219, 1215.561
272.4041, 1236.453
272.8862, 1256.237
273.3683, 1263.981
273.8504, 1262.508
274.3325, 1257.627
274.8146, 1245.948
275.2968, 1237.496
275.7789, 1241.875
276.2610, 1256.005
276.7431, 1267.620
277.2252, 1273.045
277.7073, 1272.978
278.1895, 1266.577
278.6716, 1251.280
279.1537, 1242.162
279.6358, 1251.379
280.1179, 1268.832
280.6000, 1275.490
281.0822, 1266.025
281.5643, 1252.843
282.0464, 1252.124
282.5285, 1265.342
283.0106, 1272.125
283.4927, 1261.908
283.9749, 1249.552
284.4570, 1251.394
284.9391, 1267.602
285.4212, 1282.450
285.9033, 1282.067
286.3854, 1266.682
286.8676, 1258.410
287.3497, 1261.181
287.8318, 1266.507
288.3139, 1272.468
288.7960, 1277.866
289.2781, 1279.240
289.7603, 1273.792
290.2424, 1264.335
290.7245, 1263.019
291.2066, 1279.693
291.6887, 1291.771
292.1708, 1292.766
292.6530, 1288.441
293.1351, 1286.312
293.6172, 1288.977
294.0993, 1293.204
294.5814, 1293.088
295.0635, 1284.829
295.5457, 1279.315
296.0278, 1276.565
296.5099, 1276.320
296.9920, 1279.711
297.4741, 1286.089
297.9562, 1292.575
298.4384, 1296.588
298.9205, 1298.384
299.4026, 1295.646
299.8847, 1277.193
300.3668, 1265.455
300.8489, 1272.508
301.3310, 1292.394
301.8131, 1312.263
302.2953, 1324.096
302.7774, 1328.653
303.2595, 1329.363
303.7416, 1322.308
304.2237, 1317.135
304.7058, 1315.934
305.1880, 1317.355
305.6701, 1320.283
306.1522, 1324.350
306.6343, 1328.883
307.1164, 1332.641
307.5985, 1335.223
308.0807, 1338.471
308.5628, 1344.048
309.0449, 1349.442
309.5270, 1352.744
310.0091, 1353.941
310.4912, 1354.920
310.9734, 1357.860
311.4555, 1362.451
311.9376, 1365.199
312.4197, 1365.717
312.9018, 1364.386
313.3839, 1361.274
313.8661, 1356.723
314.3482, 1351.575
314.8303, 1345.238
315.3124, 1338.957
315.7945, 1335.815
316.2766, 1336.610
316.7588, 1335.800
317.2409, 1328.671
317.7230, 1318.600
318.2051, 1311.180
318.6872, 1307.607
319.1693, 1305.874
319.6515, 1305.432
320.1336, 1305.885
320.6157, 1305.265
321.0978, 1302.503
321.5799, 1299.027
322.0620, 1296.857
322.5442, 1295.800
323.0263, 1296.326
323.5084, 1300.946
323.9905, 1306.225
324.4726, 1306.882
324.9547, 1302.061
325.4369, 1296.437
325.9190, 1294.508
326.4011, 1296.730
326.8832, 1298.374
327.3653, 1299.380
327.8474, 1299.898
328.3296, 1299.106
328.8117, 1297.769
329.2938, 1298.379
329.7759, 1302.759
330.2580, 1309.592
330.7401, 1312.763
331.2223, 1309.712
331.7044, 1306.143
332.1865, 1300.592
332.6686, 1295.727
333.1507, 1295.230
333.6328, 1299.949
334.1150, 1306.480
334.5971, 1309.859
335.0792, 1309.354
335.5613, 1307.452
336.0434, 1303.504
336.5255, 1298.925
337.0077, 1291.698
337.4898, 1284.004
337.9719, 1282.313
338.4540, 1294.361
338.9361, 1317.416
339.4182, 1325.981
339.9004, 1309.623
340.3825, 1293.560
340.8646, 1284.917
341.3467, 1280.873
341.8288, 1277.252
342.3109, 1272.014
342.7931, 1268.808
343.2752, 1274.981
343.7573, 1292.339
344.2394, 1306.320
344.7215, 1312.995
345.2036, 1315.150
345.6858, 1314.250
346.1679, 1310.497
346.6500, 1306.295
347.1321, 1301.370
347.6142, 1297.167
348.0963, 1298.702
348.5785, 1308.069
349.0606, 1318.234
349.5427, 1324.023
350.0248, 1326.220
350.5069, 1326.656
350.9890, 1325.956
351.4712, 1323.353
351.9533, 1316.040
352.4354, 1305.348
352.9175, 1298.558
353.3996, 1299.916
353.8817, 1306.345
354.3639, 1309.938
354.8460, 1310.285
355.3281, 1309.470
355.8102, 1307.372
356.2923, 1304.607
356.7744, 1300.704
357.2566, 1295.874
357.7387, 1293.837
358.2208, 1299.818
358.7029, 1316.733
359.1850, 1325.004
359.6671, 1317.956
360.1493, 1310.253
360.6314, 1309.480
361.1135, 1313.174
361.5956, 1314.733
362.0777, 1310.043
362.5598, 1301.128
363.0420, 1295.197
363.5241, 1292.173
364.0062, 1292.715
364.4883, 1300.989
364.9704, 1309.882
365.4525, 1312.188
365.9347, 1306.915
366.4168, 1300.583
366.8989, 1300.810
367.3810, 1308.004
367.8631, 1315.385
368.3452, 1326.209
368.8274, 1332.664
369.3095, 1326.898
369.7916, 1314.067
370.2737, 1306.744
370.7558, 1313.484
371.2379, 1326.882
371.7201, 1335.004
372.2022, 1337.599
372.6843, 1337.065
373.1664, 1332.225
373.6485, 1326.047
374.1306, 1323.338
374.6128, 1325.277
375.0949, 1326.952
375.5770, 1324.698
376.0591, 1320.574
376.5412, 1318.675
377.0233, 1319.884
377.5055, 1323.081
377.9876, 1328.231
378.4697, 1335.654
378.9518, 1338.223
379.4339, 1330.159
379.9160, 1322.325
380.3982, 1322.125
380.8803, 1327.655
381.3624, 1332.631
381.8445, 1333.496
382.3266, 1332.020
382.8087, 1333.664
383.2909, 1344.065
383.7730, 1350.104
384.2551, 1350.032
384.7372, 1346.526
385.2193, 1340.147
385.7014, 1331.920
386.1836, 1324.906
386.6657, 1322.163
387.1478, 1323.762
387.6299, 1328.648
388.1120, 1342.143
388.5941, 1352.738
389.0763, 1355.573
389.5584, 1353.433
390.0405, 1350.544
390.5226, 1348.491
391.0047, 1347.060
391.4868, 1345.529
391.9690, 1343.700
392.4511, 1343.899
392.9332, 1348.493
393.4153, 1353.806
393.8974, 1356.201
394.3795, 1355.666
394.8617, 1354.791
395.3438, 1353.405
395.8259, 1352.969
396.3080, 1358.012
396.7901, 1369.405
397.2722, 1376.994
397.7544, 1371.156
398.2365, 1355.380
398.7186, 1348.695
399.2007, 1357.717
399.6828, 1368.212
400.1649, 1376.029
400.6471, 1381.394
401.1292, 1383.869
401.6113, 1383.298
402.0934, 1382.525
402.5755, 1386.367
403.0576, 1398.509
403.5398, 1403.609
404.0219, 1396.208
404.5040, 1387.904
404.9861, 1383.452
405.4682, 1383.110
405.9503, 1386.634
406.4325, 1394.587
406.9146, 1404.634
407.3967, 1407.454
407.8788, 1397.399
408.3609, 1391.788
408.8430, 1396.163
409.3252, 1404.416
409.8073, 1413.967
410.2894, 1423.773
410.7715, 1429.330
411.2536, 1421.731
411.7357, 1404.992
412.2179, 1401.970
412.7000, 1419.263
413.1821, 1437.945
413.6642, 1444.102
414.1463, 1442.354
414.6284, 1440.790
415.1106, 1438.934
415.5927, 1440.070
416.0748, 1449.521
416.5569, 1464.284
417.0390, 1474.379
417.5211, 1475.779
418.0033, 1473.609
418.4854, 1475.984
418.9675, 1485.689
419.4496, 1490.061
419.9317, 1483.098
420.4138, 1475.218
420.8960, 1473.021
421.3781, 1476.214
421.8602, 1482.369
422.3423, 1490.501
422.8244, 1499.146
423.3065, 1501.497
423.7887, 1489.464
424.2708, 1483.902
424.7529, 1493.229
425.2350, 1505.068
425.7171, 1508.802
426.1992, 1503.295
426.6814, 1495.451
427.1635, 1491.095
427.6456, 1490.066
428.1277, 1491.421
428.6098, 1497.328
429.0919, 1501.415
429.5741, 1498.019
430.0562, 1491.401
430.5383, 1488.314
431.0204, 1492.023
431.5025, 1495.915
431.9846, 1493.182
432.4668, 1485.852
432.9489, 1481.189
433.4310, 1481.170
433.9131, 1483.927
434.3952, 1488.099
434.8773, 1493.967
435.3595, 1497.586
435.8416, 1498.335
436.3237, 1497.125
436.8058, 1494.177
437.2879, 1489.734
437.7701, 1483.682
438.2522, 1475.769
438.7343, 1467.512
439.2164, 1463.305
439.6985, 1469.097
440.1806, 1468.113
440.6628, 1453.980
441.1449, 1438.790
441.6270, 1429.944
442.1091, 1427.486
442.5912, 1427.557
443.0733, 1427.252
443.5555, 1427.253
444.0376, 1431.133
444.5197, 1441.223
445.0018, 1448.672
445.4839, 1450.790
445.9660, 1448.086
446.4482, 1438.879
446.9303, 1421.934
447.4124, 1406.958
447.8945, 1401.718
448.3766, 1402.300
448.8587, 1400.224
449.3409, 1394.152
449.8230, 1388.380
450.3051, 1386.013
450.7872, 1387.015
451.2693, 1389.602
451.7514, 1398.271
452.2336, 1403.208
452.7157, 1399.673
453.1978, 1391.000
453.6799, 1380.695
454.1620, 1370.121
454.6441, 1361.029
455.1263, 1355.829
455.6084, 1355.051
456.0905, 1355.188
456.5726, 1354.471
457.0547, 1356.640
457.5368, 1367.112
458.0190, 1380.236
458.5011, 1386.688
458.9832, 1381.990
459.4653, 1371.953
459.9474, 1363.253
460.4295, 1355.876
460.9117, 1353.739
461.3938, 1361.771
461.8759, 1369.528
462.3580, 1365.301
462.8401, 1351.661
463.3222, 1342.232
463.8044, 1341.416
464.2865, 1345.751
464.7686, 1355.441
465.2507, 1368.378
465.7328, 1377.043
466.2149, 1378.228
466.6971, 1373.124
467.1792, 1363.267
467.6613, 1341.833
468.1434, 1330.628
468.6255, 1337.576
469.1076, 1347.645
469.5898, 1353.176
470.0719, 1353.627
470.5540, 1349.840
471.0361, 1341.498
471.5182, 1331.585
472.0003, 1329.888
472.4825, 1340.716
472.9646, 1348.018
473.4467, 1344.141
473.9288, 1338.648
474.4109, 1337.665
474.8930, 1341.308
475.3752, 1345.894
475.8573, 1350.044
476.3394, 1353.507
476.8215, 1356.471
477.3036, 1358.941
477.7857, 1358.298
478.2679, 1352.402
478.7500, 1343.241
479.2321, 1334.892
479.7142, 1325.268
480.1963, 1321.230
480.6784, 1326.930
481.1606, 1336.865
481.6427, 1349.760
482.1248, 1363.056
482.6069, 1368.225
483.0890, 1357.568
483.5711, 1334.961
484.0533, 1321.637
484.5354, 1319.864
485.0175, 1324.403
485.4996, 1343.385
485.9817, 1361.327
486.4638, 1362.970
486.9460, 1348.360
487.4281, 1333.180
487.9102, 1330.750
488.3923, 1337.109
488.8744, 1340.165
489.3565, 1339.323
489.8387, 1338.107
490.3208, 1338.696
490.8029, 1339.748
491.2850, 1338.147
491.7671, 1332.267
492.2492, 1328.446
492.7314, 1329.323
493.2135, 1333.118
493.6956, 1339.741
494.1777, 1348.126
494.6598, 1353.195
495.1419, 1350.463
495.6241, 1341.486
496.1062, 1336.366
496.5883, 1338.998
497.0704, 1340.160
497.5525, 1335.338
498.0346, 1331.209
498.5168, 1335.647
498.9989, 1348.015
499.4810, 1358.411
499.9631, 1356.496
500.4452, 1346.165
500.9273, 1343.012
501.4095, 1348.878
501.8916, 1354.167
502.3737, 1354.733
502.8558, 1352.218
503.3379, 1349.415
503.8200, 1346.464
504.3022, 1342.858
504.7843, 1336.622
505.2664, 1330.661
505.7485, 1329.616
506.2306, 1333.032
506.7127, 1335.139
507.1949, 1331.498
507.6770, 1324.301
508.1591, 1323.317
508.6412, 1335.729
509.1233, 1343.916
509.6054, 1344.816
510.0876, 1343.024
510.5697, 1341.755
511.0518, 1341.135
511.5339, 1339.368
512.0161, 1334.257
512.4982, 1327.658
512.9803, 1325.089
513.4624, 1327.240
513.9445, 1329.451
514.4266, 1330.697
514.9088, 1330.677
515.3909, 1328.382
515.8730, 1323.470
516.3551, 1320.598
516.8372, 1322.371
517.3193, 1325.898
517.8015, 1329.692
518.2836, 1333.005
518.7657, 1333.579
519.2478, 1329.942
519.7299, 1324.070
520.2120, 1320.738
520.6942, 1321.563
521.1763, 1321.881
521.6584, 1318.711
522.1405, 1317.827
522.6226, 1326.645
523.1047, 1340.306
523.5869, 1345.831
524.0690, 1334.290
524.5511, 1316.061
525.0332, 1308.230
525.5153, 1310.735
525.9974, 1313.741
526.4796, 1314.437
526.9617, 1315.770
527.4438, 1323.453
527.9259, 1336.319
528.4080, 1342.052
528.8901, 1329.312
529.3723, 1318.492
529.8544, 1325.498
530.3365, 1342.411
530.8186, 1352.920
531.3007, 1351.587
531.7828, 1345.825
532.2650, 1346.374
532.7471, 1355.072
533.2292, 1358.661
533.7113, 1355.293
534.1934, 1348.547
534.6755, 1333.748
535.1577, 1318.497
535.6398, 1314.363
536.1219, 1325.539
536.6040, 1339.409
537.0861, 1343.915
537.5682, 1341.648
538.0504, 1341.425
538.5325, 1344.694
539.0146, 1346.402
539.4967, 1341.504
539.9788, 1332.184
540.4609, 1329.397
540.9431, 1340.862
541.4252, 1347.520
541.9073, 1340.298
542.3894, 1329.943
542.8715, 1327.293
543.3536, 1332.750
543.8358, 1339.521
544.3179, 1342.305
544.8000, 1341.924
545.2821, 1342.409
545.7642, 1345.327
546.2463, 1344.771
546.7285, 1335.636
547.2106, 1325.111
547.6926, 1317.245
548.1747, 1312.553
548.6569, 1313.002
549.1390, 1323.793
549.6211, 1337.135
550.1032, 1344.296
550.5853, 1346.240
551.0674, 1347.060
551.5496, 1347.977
552.0317, 1351.057
552.5138, 1361.238
552.9959, 1385.746
553.4780, 1392.327
553.9601, 1364.584
554.4423, 1339.155
554.9244, 1330.652
555.4065, 1334.184
555.8886, 1342.285
556.3707, 1352.424
556.8528, 1361.195
557.3350, 1363.433
557.8171, 1360.013
558.2992, 1357.598
558.7813, 1356.150
559.2634, 1357.803
559.7455, 1364.886
560.2277, 1376.225
560.7098, 1387.821
561.1919, 1403.228
561.6740, 1412.673
562.1561, 1408.835
562.6382, 1400.116
563.1204, 1393.724
563.6025, 1391.331
564.0846, 1393.778
564.5667, 1402.310
565.0488, 1415.107
565.5309, 1425.005
566.0131, 1430.887
566.4952, 1436.684
566.9773, 1443.191
567.4594, 1449.734
567.9415, 1453.819
568.4236, 1456.951
568.9058, 1465.760
569.3879, 1488.376
569.8700, 1513.153
570.3521, 1529.306
570.8342, 1537.872
571.3163, 1539.117
571.7985, 1531.968
572.2806, 1529.893
572.7627, 1552.369
573.2448, 1604.523
573.7269, 1632.982
574.2090, 1617.037
574.6912, 1603.719
575.1733, 1606.358
575.6554, 1616.842
576.1375, 1627.107
576.6196, 1634.812
577.1017, 1639.165
577.5839, 1639.707
578.0660, 1636.337
578.5481, 1628.249
579.0302, 1615.184
579.5123, 1598.892
579.9944, 1576.520
580.4766, 1554.624
580.9587, 1548.555
581.4408, 1562.786
581.9229, 1570.811
582.4050, 1564.494
582.8871, 1554.970
583.3693, 1548.725
583.8514, 1545.299
584.3335, 1540.973
584.8156, 1534.033
585.2977, 1529.633
585.7798, 1540.302
586.2620, 1568.674
586.7441, 1579.549
587.2262, 1563.275
587.7083, 1542.559
588.1904, 1529.367
588.6725, 1520.496
589.1547, 1511.005
589.6368, 1500.003
590.1189, 1488.861
590.6010, 1479.310
591.0831, 1469.380
591.5652, 1455.477
592.0474, 1438.163
592.5295, 1421.784
593.0116, 1409.066
593.4937, 1399.955
593.9758, 1395.046
594.4579, 1398.702
594.9401, 1396.230
595.4222, 1378.298
595.9043, 1361.390
596.3864, 1354.942
596.8685, 1356.120
597.3506, 1356.970
597.8328, 1354.461
598.3149, 1350.933
598.7970, 1347.741
599.2791, 1345.235
599.7612, 1344.887
600.2433, 1346.989
600.7255, 1348.784
601.2076, 1347.846
601.6897, 1344.528
602.1718, 1341.706
602.6539, 1339.516
603.1360, 1337.675
603.6182, 1334.269
604.1003, 1332.678
604.5824, 1337.923
605.0645, 1347.932
605.5466, 1354.036
606.0287, 1349.777
606.5109, 1340.993
606.9930, 1336.801
607.4751, 1336.481
607.9572, 1333.286
608.4393, 1324.227
608.9214, 1317.135
609.4036, 1320.757
609.8857, 1335.168
610.3678, 1346.629
610.8499, 1354.752
611.3320, 1360.697
611.8141, 1363.604
612.2963, 1365.174
612.7784, 1365.591
613.2605, 1365.874
613.7426, 1369.590
614.2247, 1380.739
614.7068, 1396.149
615.1890, 1407.752
615.6711, 1415.363
616.1532, 1423.699
616.6353, 1435.128
617.1174, 1445.853
617.5995, 1451.080
618.0817, 1450.680
618.5638, 1450.644
619.0459, 1445.503
619.5280, 1447.322
620.0101, 1466.057
620.4922, 1491.772
620.9744, 1513.660
621.4565, 1528.829
621.9386, 1537.978
622.4207, 1539.850
622.9028, 1537.013
623.3849, 1540.606
623.8671, 1552.226
624.3492, 1560.948
624.8313, 1563.187
625.3134, 1561.472
625.7955, 1559.194
626.2776, 1556.356
626.7598, 1548.824
627.2419, 1536.386
627.7240, 1518.773
628.2061, 1492.329
628.6882, 1462.118
629.1703, 1433.389
629.6525, 1408.470
630.1346, 1391.429
630.6167, 1389.270
631.0988, 1398.002
631.5809, 1392.870
632.0630, 1368.529
632.5452, 1351.661
633.0273, 1355.859
633.5094, 1365.560
633.9915, 1362.164
634.4736, 1346.498
634.9557, 1334.092
635.4379, 1326.762
635.9200, 1324.837
636.4021, 1333.285
