##NAMES=Lithiotantite
##RRUFFID=R100165
##IDEAL CHEMISTRY=LiTa^5+^_3_O_8_
##LOCALITY=Murundu mine, Jenipapo district, Itinga, Minas Gerais, Brazil
##OWNER=RRUFF
##SOURCE=Luiz Menezes
##DESCRIPTION=Brown bladed crystals associated with reddish brown prismatic tantalite, and black cassiterite. Used in the Menezes et al (2012) study.
##STATUS=The identification of this mineral has been confirmed by single-crystal X-ray diffraction.
##URL=rruff.info/R100165
91.03516, 107.8199
91.51727, 110.1584
91.99939, 108.1128
92.48151, 103.0777
92.96362, 99.00447
93.44574, 98.55702
93.92786, 100.4214
94.40997, 101.9362
94.89210, 102.9685
95.37421, 103.4952
95.85633, 103.2700
96.33845, 102.3252
96.82056, 101.3297
97.30268, 100.6152
97.78480, 100.1878
98.26691, 100.1866
98.74903, 100.8193
99.23115, 101.7427
99.71326, 101.7324
100.1954, 100.5016
100.6775, 99.43629
101.1596, 99.85851
101.6417, 102.1353
102.1239, 104.1118
102.6060, 105.4325
103.0881, 106.1238
103.5702, 106.4498
104.0523, 106.4098
104.5344, 106.0110
105.0166, 105.0999
105.4987, 102.9566
105.9808, 101.6163
106.4629, 101.7580
106.9450, 103.8256
107.4271, 105.3964
107.9093, 106.7397
108.3914, 107.5010
108.8735, 107.1266
109.3556, 103.4686
109.8377, 100.6799
110.3198, 100.0863
110.8020, 103.3430
111.2841, 105.6027
111.7662, 105.9378
112.2483, 105.1629
112.7304, 105.0870
113.2125, 107.0775
113.6947, 109.0105
114.1768, 109.8335
114.6589, 108.4387
115.1410, 107.2299
115.6231, 106.6864
116.1052, 106.7546
116.5874, 107.2287
117.0695, 109.0156
117.5516, 110.7008
118.0337, 111.1850
118.5158, 108.8326
118.9980, 106.4142
119.4801, 104.7742
119.9622, 103.9666
120.4443, 104.4352
120.9264, 108.0141
121.4085, 112.6116
121.8907, 115.6627
122.3728, 114.2039
122.8549, 111.9772
123.3370, 112.3335
123.8191, 115.4484
124.3012, 118.9040
124.7834, 120.1431
125.2655, 120.2448
125.7476, 121.5298
126.2297, 126.0393
126.7118, 132.0878
127.1939, 136.7515
127.6761, 139.4552
128.1582, 142.7590
128.6403, 149.9093
129.1224, 160.4151
129.6045, 171.9063
130.0867, 181.8818
130.5688, 191.7263
131.0509, 205.4691
131.5330, 223.8657
132.0151, 245.7755
132.4972, 268.3934
132.9794, 291.7130
133.4615, 319.6830
133.9436, 353.5250
134.4257, 393.7115
134.9078, 443.1763
135.3899, 505.1455
135.8721, 574.8251
136.3542, 637.8676
136.8363, 691.5624
137.3184, 750.9698
137.8005, 826.3558
138.2826, 918.7825
138.7648, 1024.870
139.2469, 1144.036
139.7290, 1277.042
140.2111, 1422.384
140.6932, 1584.424
141.1753, 1753.097
141.6575, 1919.580
142.1396, 2090.126
142.6217, 2245.927
143.1038, 2382.276
143.5859, 2499.967
144.0681, 2605.448
144.5502, 2700.811
145.0323, 2782.985
145.5144, 2848.917
145.9965, 2890.577
146.4786, 2927.433
146.9608, 2961.364
147.4429, 2990.411
147.9250, 3026.946
148.4071, 3069.154
148.8892, 3119.632
149.3713, 3181.199
149.8535, 3258.158
150.3356, 3342.840
150.8177, 3433.939
151.2998, 3533.325
151.7819, 3634.909
152.2640, 3739.943
152.7462, 3847.452
153.2283, 3953.621
153.7104, 4065.990
154.1925, 4170.811
154.6746, 4263.170
155.1567, 4342.355
155.6389, 4407.466
156.1210, 4457.003
156.6031, 4492.501
157.0852, 4518.502
157.5673, 4535.840
158.0495, 4543.920
158.5316, 4542.160
159.0137, 4526.498
159.4958, 4506.483
159.9779, 4480.989
160.4600, 4452.181
160.9422, 4427.140
161.4243, 4403.388
161.9064, 4386.983
162.3885, 4382.007
162.8706, 4390.432
163.3527, 4409.238
163.8349, 4437.540
164.3170, 4475.302
164.7991, 4522.349
165.2812, 4577.856
165.7633, 4642.934
166.2454, 4718.769
166.7276, 4812.172
167.2097, 4910.552
167.6918, 5008.252
168.1739, 5104.747
168.6560, 5203.008
169.1381, 5304.813
169.6203, 5407.214
170.1024, 5472.366
170.5845, 5522.853
171.0666, 5572.735
171.5487, 5615.689
172.0309, 5652.287
172.5130, 5691.350
172.9951, 5741.873
173.4772, 5798.357
173.9593, 5852.397
174.4414, 5897.294
174.9236, 5939.740
175.4057, 5987.303
175.8878, 6040.445
176.3699, 6092.058
176.8520, 6137.522
177.3341, 6177.528
177.8163, 6213.698
178.2984, 6244.432
178.7805, 6272.145
179.2626, 6302.148
179.7447, 6334.555
180.2268, 6362.740
180.7090, 6378.227
181.1911, 6383.422
181.6732, 6385.284
182.1553, 6388.930
182.6374, 6391.253
183.1195, 6384.989
183.6017, 6369.398
184.0838, 6348.474
184.5659, 6323.837
185.0480, 6296.571
185.5301, 6271.042
186.0123, 6249.107
186.4944, 6230.451
186.9765, 6216.069
187.4586, 6206.651
187.9407, 6198.085
188.4228, 6186.186
188.9050, 6170.838
189.3871, 6149.878
189.8692, 6125.155
190.3513, 6095.206
190.8334, 6050.188
191.3155, 5988.642
191.7977, 5915.595
192.2798, 5837.728
192.7619, 5755.125
193.2440, 5668.881
193.7261, 5574.898
194.2082, 5474.879
194.6904, 5383.422
195.1725, 5301.497
195.6546, 5227.737
196.1367, 5162.527
196.6188, 5105.475
197.1009, 5056.486
197.5831, 5016.707
198.0652, 4985.713
198.5473, 4958.122
199.0294, 4932.736
199.5115, 4911.622
199.9937, 4899.389
200.4758, 4896.505
200.9579, 4899.438
201.4400, 4907.148
201.9221, 4919.790
202.4042, 4933.904
202.8864, 4948.708
203.3685, 4965.335
203.8506, 4986.466
204.3327, 5011.900
204.8148, 5041.509
205.2969, 5075.694
205.7791, 5114.834
206.2612, 5154.941
206.7433, 5194.031
207.2254, 5235.208
207.7075, 5287.690
208.1896, 5354.436
208.6718, 5424.291
209.1539, 5491.731
209.6360, 5555.014
210.1181, 5621.151
210.6002, 5689.160
211.0823, 5761.030
211.5645, 5842.284
212.0466, 5933.794
212.5287, 6033.870
213.0108, 6141.719
213.4929, 6258.391
213.9750, 6380.830
214.4572, 6508.145
214.9393, 6641.170
215.4214, 6787.227
215.9035, 6949.773
216.3856, 7119.708
216.8678, 7289.289
217.3499, 7460.631
217.8320, 7631.701
218.3141, 7802.276
218.7962, 7971.158
219.2783, 8133.762
219.7605, 8289.898
220.2426, 8437.074
220.7247, 8573.931
221.2068, 8703.345
221.6889, 8813.284
222.1710, 8902.362
222.6532, 8971.577
223.1353, 9020.880
223.6174, 9049.874
224.0995, 9060.884
224.5816, 9054.821
225.0637, 9030.168
225.5459, 8991.915
226.0280, 8937.506
226.5101, 8870.214
226.9922, 8801.691
227.4743, 8732.123
227.9564, 8660.159
228.4386, 8583.318
228.9207, 8500.119
229.4028, 8418.592
229.8849, 8337.278
230.3670, 8257.779
230.8492, 8181.563
231.3313, 8106.465
231.8134, 8038.951
232.2955, 7981.826
232.7776, 7939.977
233.2597, 7899.642
233.7419, 7860.737
234.2240, 7823.345
234.7061, 7789.149
235.1882, 7761.375
235.6703, 7732.353
236.1524, 7698.915
236.6346, 7661.768
237.1167, 7618.820
237.5988, 7569.000
238.0809, 7513.804
238.5630, 7455.935
239.0451, 7397.446
239.5273, 7333.501
240.0094, 7260.329
240.4915, 7170.334
240.9736, 7089.525
241.4557, 7016.555
241.9378, 6952.537
242.4200, 6900.103
242.9021, 6859.172
243.3842, 6828.885
243.8663, 6808.890
244.3484, 6799.296
244.8306, 6799.400
245.3127, 6808.262
245.7948, 6827.221
246.2769, 6859.341
246.7590, 6906.491
247.2411, 6962.986
247.7233, 7027.460
248.2054, 7100.860
248.6875, 7178.868
249.1696, 7258.849
249.6517, 7344.458
250.1338, 7441.782
250.6160, 7554.832
251.0981, 7672.956
251.5802, 7791.472
252.0623, 7909.958
252.5444, 8034.760
253.0265, 8165.389
253.5087, 8301.973
253.9908, 8442.652
254.4729, 8590.549
254.9550, 8738.347
255.4371, 8885.972
255.9192, 9033.108
256.4014, 9172.488
256.8835, 9305.207
257.3656, 9429.087
257.8477, 9547.260
258.3298, 9666.736
258.8120, 9765.476
259.2941, 9840.053
259.7762, 9890.738
260.2583, 9913.437
260.7404, 9906.031
261.2225, 9873.269
261.7047, 9818.645
262.1868, 9739.082
262.6689, 9644.205
263.1510, 9532.983
263.6331, 9406.608
264.1152, 9273.149
264.5974, 9131.150
265.0795, 8985.503
265.5616, 8843.915
266.0437, 8703.374
266.5258, 8569.489
267.0079, 8441.451
267.4901, 8319.611
267.9722, 8217.222
268.4543, 8135.104
268.9364, 8069.049
269.4185, 8013.751
269.9006, 7966.609
270.3828, 7941.295
270.8649, 7938.280
271.3470, 7958.630
271.8291, 8008.804
272.3112, 8093.093
272.7933, 8197.288
273.2755, 8308.034
273.7576, 8422.379
274.2397, 8560.756
274.7218, 8723.229
275.2039, 8911.259
275.6860, 9129.661
276.1682, 9381.764
276.6503, 9659.375
277.1324, 9961.620
277.6145, 10286.63
278.0966, 10628.11
278.5787, 10989.58
279.0609, 11361.45
279.5430, 11738.86
280.0251, 12126.18
280.5072, 12482.85
280.9893, 12798.69
281.4715, 13071.35
281.9536, 13273.80
282.4357, 13410.11
282.9178, 13466.08
283.3999, 13407.19
283.8820, 13230.40
284.3642, 12989.24
284.8463, 12689.58
285.3284, 12334.79
285.8105, 11981.72
286.2926, 11625.74
286.7747, 11279.94
287.2569, 10961.90
287.7390, 10671.23
288.2211, 10399.96
288.7032, 10146.33
289.1853, 9910.063
289.6674, 9686.603
290.1496, 9475.378
290.6317, 9274.034
291.1138, 9084.862
291.5959, 8905.131
292.0780, 8722.559
292.5602, 8533.778
293.0423, 8337.849
293.5244, 8131.541
294.0065, 7915.757
294.4886, 7691.377
294.9707, 7451.791
295.4529, 7200.308
295.9350, 6953.735
296.4171, 6711.925
296.8992, 6477.849
297.3813, 6257.626
297.8634, 6052.302
298.3456, 5863.037
298.8277, 5695.921
299.3098, 5547.097
299.7919, 5409.423
300.2740, 5282.624
300.7561, 5166.195
301.2383, 5064.779
301.7204, 4976.079
302.2025, 4896.638
302.6846, 4823.675
303.1667, 4758.035
303.6488, 4699.834
304.1310, 4650.118
304.6131, 4606.453
305.0952, 4567.332
305.5773, 4532.917
306.0594, 4503.776
306.5415, 4480.821
307.0237, 4462.735
307.5058, 4448.243
307.9879, 4437.535
308.4700, 4428.919
308.9521, 4420.851
309.4343, 4413.958
309.9164, 4409.132
310.3985, 4405.850
310.8806, 4405.330
311.3627, 4407.667
311.8448, 4412.859
312.3270, 4423.518
312.8091, 4441.913
313.2912, 4466.428
313.7733, 4495.150
314.2554, 4525.631
314.7375, 4561.687
315.2197, 4605.003
315.7018, 4655.846
316.1839, 4713.144
316.6660, 4775.808
317.1481, 4845.411
317.6302, 4922.574
318.1124, 5010.877
318.5945, 5102.897
319.0766, 5196.535
319.5587, 5292.250
320.0408, 5392.919
320.5229, 5496.957
321.0051, 5607.912
321.4872, 5728.378
321.9693, 5858.796
322.4514, 5996.096
322.9335, 6138.946
323.4156, 6288.240
323.8978, 6445.706
324.3799, 6612.596
324.8620, 6786.874
325.3441, 6968.101
325.8262, 7153.501
326.3083, 7348.883
326.7905, 7560.979
327.2726, 7782.103
327.7547, 7999.870
328.2368, 8209.484
328.7189, 8422.213
329.2010, 8643.308
329.6832, 8872.259
330.1653, 9093.771
330.6474, 9304.150
331.1295, 9509.525
331.6116, 9716.916
332.0938, 9925.495
332.5759, 10138.11
333.0580, 10351.84
333.5401, 10569.24
334.0222, 10793.12
334.5043, 11020.92
334.9865, 11261.16
335.4686, 11520.58
335.9507, 11800.32
336.4328, 12098.34
336.9149, 12416.92
337.3970, 12757.26
337.8792, 13109.39
338.3613, 13477.87
338.8434, 13859.16
339.3255, 14261.62
339.8076, 14692.65
340.2898, 15104.42
340.7719, 15507.77
341.2540, 15880.13
341.7361, 16204.30
342.2182, 16477.45
342.7003, 16682.18
343.1825, 16822.36
343.6646, 16891.01
344.1467, 16831.20
344.6288, 16638.94
345.1109, 16336.04
345.5930, 15922.39
346.0752, 15407.22
346.5573, 14832.59
347.0394, 14188.88
347.5215, 13504.60
348.0036, 12810.29
348.4857, 12109.74
348.9679, 11439.61
349.4500, 10813.35
349.9321, 10231.88
350.4142, 9700.837
350.8963, 9219.433
351.3784, 8784.659
351.8606, 8403.189
352.3427, 8073.993
352.8248, 7785.443
353.3069, 7538.909
353.7890, 7330.459
354.2711, 7152.508
354.7533, 7005.672
355.2354, 6883.968
355.7175, 6788.702
356.1996, 6715.991
356.6817, 6659.059
357.1638, 6614.196
357.6460, 6584.717
358.1281, 6573.780
358.6102, 6580.939
359.0923, 6601.132
359.5744, 6635.065
360.0565, 6679.028
360.5387, 6729.677
361.0208, 6788.941
361.5029, 6851.404
361.9850, 6913.338
362.4671, 6976.092
362.9492, 7043.091
363.4314, 7122.063
363.9135, 7200.876
364.3956, 7273.274
364.8777, 7338.704
365.3598, 7397.637
365.8419, 7450.348
366.3241, 7496.716
366.8062, 7536.131
367.2883, 7567.566
367.7704, 7592.943
368.2526, 7611.578
368.7347, 7622.436
369.2168, 7632.729
369.6989, 7643.214
370.1810, 7652.838
370.6631, 7660.949
371.1453, 7668.670
371.6274, 7673.265
372.1095, 7675.093
372.5916, 7673.766
373.0737, 7667.434
373.5558, 7658.248
374.0380, 7640.789
374.5201, 7612.383
375.0022, 7574.085
375.4843, 7522.218
375.9664, 7455.673
376.4485, 7376.378
376.9307, 7285.269
377.4128, 7182.084
377.8949, 7071.252
378.3770, 6953.407
378.8591, 6829.450
379.3412, 6706.538
379.8234, 6585.741
380.3055, 6465.850
380.7876, 6345.309
381.2697, 6223.659
381.7518, 6110.979
382.2339, 6010.545
382.7161, 5920.518
383.1982, 5834.354
383.6803, 5752.908
384.1624, 5679.280
384.6445, 5618.944
385.1266, 5568.856
385.6088, 5520.655
386.0909, 5472.056
386.5730, 5428.732
387.0551, 5397.752
387.5372, 5378.073
388.0193, 5366.284
388.5015, 5361.588
388.9836, 5363.577
389.4657, 5372.468
389.9478, 5388.321
390.4299, 5408.646
390.9120, 5431.344
391.3942, 5457.674
391.8763, 5488.939
392.3584, 5530.156
392.8405, 5572.069
393.3226, 5610.068
393.8047, 5644.747
394.2869, 5678.810
394.7690, 5713.149
395.2511, 5747.336
395.7332, 5781.751
396.2154, 5819.203
396.6975, 5851.055
397.1796, 5873.586
397.6617, 5889.994
398.1438, 5905.646
398.6259, 5925.304
399.1081, 5940.504
399.5902, 5946.780
400.0723, 5942.126
400.5544, 5942.283
401.0365, 5947.974
401.5186, 5957.833
402.0008, 5970.967
402.4829, 5989.492
402.9650, 6006.623
403.4471, 6017.729
403.9292, 6026.936
404.4113, 6053.010
404.8935, 6102.389
405.3756, 6154.072
405.8577, 6195.849
406.3398, 6225.063
406.8219, 6261.273
407.3040, 6304.610
407.7862, 6355.457
408.2683, 6417.407
408.7504, 6490.854
409.2325, 6564.930
409.7146, 6636.496
410.1967, 6705.502
410.6789, 6776.721
411.1610, 6850.354
411.6431, 6923.641
412.1252, 6995.616
412.6073, 7065.085
413.0894, 7128.722
413.5716, 7185.852
414.0537, 7233.945
414.5358, 7269.858
415.0179, 7293.405
415.5000, 7305.298
415.9821, 7305.584
416.4643, 7294.152
416.9464, 7271.569
417.4285, 7237.980
417.9106, 7189.516
418.3927, 7117.063
418.8748, 7030.227
419.3570, 6941.808
419.8391, 6852.368
420.3212, 6764.873
420.8033, 6678.604
421.2854, 6594.468
421.7675, 6514.697
422.2497, 6440.299
422.7318, 6370.282
423.2139, 6303.913
423.6960, 6237.302
424.1781, 6183.184
424.6602, 6143.132
425.1424, 6116.805
425.6245, 6104.246
426.1066, 6107.994
426.5887, 6122.209
427.0709, 6147.059
427.5530, 6182.509
428.0351, 6222.503
428.5172, 6270.671
428.9993, 6318.904
429.4814, 6363.294
429.9636, 6406.255
430.4457, 6435.802
430.9278, 6450.647
431.4099, 6451.805
431.8920, 6440.667
432.3741, 6416.677
432.8563, 6383.688
433.3384, 6343.072
433.8205, 6294.624
434.3026, 6238.061
434.7847, 6172.834
435.2668, 6102.118
435.7490, 6026.041
436.2311, 5946.172
436.7132, 5870.583
437.1953, 5800.925
437.6774, 5736.908
438.1595, 5677.588
438.6417, 5622.764
439.1238, 5571.568
439.6059, 5523.787
440.0880, 5479.253
440.5701, 5437.823
441.0522, 5399.349
441.5344, 5363.974
442.0165, 5332.359
442.4986, 5303.646
442.9807, 5276.958
443.4628, 5251.147
443.9449, 5228.128
444.4271, 5208.334
444.9092, 5191.826
445.3913, 5178.851
445.8734, 5169.967
446.3555, 5164.500
446.8376, 5162.675
447.3198, 5167.567
447.8019, 5169.791
448.2840, 5163.834
448.7661, 5157.292
449.2482, 5161.096
449.7303, 5179.971
450.2125, 5201.061
450.6946, 5220.970
451.1767, 5240.314
451.6588, 5266.208
452.1409, 5299.281
452.6230, 5337.927
453.1052, 5380.932
453.5873, 5428.755
454.0694, 5479.844
454.5515, 5533.762
455.0337, 5591.273
455.5158, 5652.112
455.9979, 5716.822
456.4800, 5785.789
456.9621, 5862.519
457.4442, 5943.311
457.9264, 6021.485
458.4085, 6096.695
458.8906, 6167.753
459.3727, 6234.117
459.8548, 6295.026
460.3369, 6348.470
460.8191, 6395.933
461.3012, 6433.048
461.7833, 6456.162
462.2654, 6466.578
462.7475, 6466.953
463.2296, 6462.107
463.7118, 6444.542
464.1939, 6408.742
464.6760, 6353.969
465.1581, 6289.545
465.6402, 6215.713
466.1223, 6135.229
466.6045, 6050.889
467.0866, 5960.834
467.5687, 5869.820
468.0508, 5775.213
468.5329, 5679.514
469.0150, 5586.958
469.4972, 5499.219
469.9793, 5413.792
470.4614, 5330.404
470.9435, 5248.986
471.4256, 5171.567
471.9077, 5097.981
472.3899, 5028.907
472.8720, 4965.250
473.3541, 4906.341
473.8362, 4852.495
474.3183, 4803.804
474.8004, 4759.289
475.2826, 4716.940
475.7647, 4676.822
476.2468, 4640.062
476.7289, 4606.443
477.2110, 4576.568
477.6931, 4552.599
478.1753, 4534.384
478.6574, 4520.354
479.1395, 4511.953
479.6216, 4506.132
480.1037, 4498.056
480.5858, 4484.798
481.0680, 4472.177
481.5501, 4464.596
482.0322, 4460.585
482.5143, 4457.138
482.9964, 4453.269
483.4786, 4449.627
483.9607, 4446.202
484.4428, 4442.976
484.9249, 4441.349
485.4070, 4443.540
485.8892, 4446.278
486.3713, 4447.133
486.8534, 4442.358
487.3355, 4441.244
487.8176, 4445.530
488.2997, 4453.065
488.7819, 4459.335
489.2640, 4463.654
489.7461, 4468.180
490.2282, 4473.453
490.7103, 4479.481
491.1924, 4486.142
491.6746, 4493.404
492.1567, 4501.396
492.6388, 4510.187
493.1209, 4519.832
493.6030, 4529.713
494.0851, 4539.641
494.5673, 4550.368
495.0494, 4562.768
495.5315, 4576.833
496.0136, 4592.097
496.4957, 4609.471
496.9778, 4627.378
497.4600, 4644.809
497.9421, 4661.683
498.4242, 4677.867
498.9063, 4691.536
499.3884, 4705.627
499.8705, 4723.199
500.3527, 4745.834
500.8348, 4769.185
501.3169, 4792.459
501.7990, 4814.933
502.2811, 4835.751
502.7632, 4853.178
503.2454, 4870.383
503.7275, 4888.523
504.2096, 4907.394
504.6917, 4925.269
505.1738, 4941.030
505.6559, 4957.136
506.1381, 4974.964
506.6202, 4995.267
507.1023, 5014.268
507.5844, 5031.290
508.0665, 5048.306
508.5486, 5068.039
509.0308, 5090.639
509.5129, 5112.869
509.9950, 5134.012
510.4771, 5154.176
510.9592, 5173.500
511.4413, 5191.963
511.9235, 5210.896
512.4056, 5231.685
512.8877, 5253.093
513.3698, 5273.615
513.8519, 5293.055
514.3340, 5312.081
514.8162, 5331.671
515.2983, 5350.952
515.7804, 5368.853
516.2625, 5384.146
516.7446, 5399.369
517.2267, 5414.063
517.7089, 5429.433
518.1910, 5448.229
518.6731, 5475.493
519.1552, 5502.355
519.6373, 5524.083
520.1194, 5539.787
520.6016, 5561.159
521.0837, 5589.701
521.5658, 5621.836
522.0479, 5654.884
522.5300, 5687.708
523.0121, 5724.739
523.4943, 5767.650
523.9764, 5812.943
524.4585, 5853.297
524.9406, 5887.839
525.4227, 5926.150
525.9048, 5971.259
526.3870, 6022.504
526.8691, 6081.870
527.3513, 6149.077
527.8334, 6215.364
528.3155, 6270.919
528.7976, 6323.745
529.2797, 6385.849
529.7618, 6459.619
530.2440, 6539.161
530.7261, 6618.958
531.2082, 6702.061
531.6903, 6790.863
532.1724, 6892.026
532.6545, 6993.738
533.1367, 7091.776
533.6188, 7187.646
534.1009, 7290.491
534.5830, 7400.708
535.0651, 7518.338
535.5472, 7642.908
536.0294, 7776.377
536.5115, 7910.526
536.9936, 8043.052
537.4757, 8179.542
537.9578, 8323.963
538.4399, 8477.896
538.9221, 8637.445
539.4042, 8803.800
539.8863, 8976.104
540.3684, 9154.332
540.8505, 9338.385
541.3326, 9527.172
541.8148, 9719.999
542.2969, 9916.595
542.7790, 10119.86
543.2611, 10328.83
543.7432, 10542.30
544.2253, 10760.25
544.7075, 10981.87
545.1896, 11206.19
545.6717, 11432.96
546.1538, 11663.27
546.6359, 11899.50
547.1180, 12139.33
547.6002, 12377.23
548.0823, 12614.43
548.5644, 12847.16
549.0465, 13075.40
549.5286, 13299.91
550.0107, 13522.25
550.4929, 13742.57
550.9750, 13960.47
551.4571, 14177.35
551.9392, 14394.03
552.4213, 14597.80
552.9034, 14787.93
553.3856, 14970.88
553.8677, 15153.40
554.3498, 15334.63
554.8319, 15503.37
555.3140, 15657.26
555.7961, 15803.68
556.2783, 15950.86
556.7604, 16097.28
557.2425, 16236.86
557.7246, 16367.43
558.2067, 16490.89
558.6888, 16608.32
559.1710, 16719.62
559.6531, 16822.74
560.1352, 16912.27
560.6173, 16996.11
561.0994, 17081.29
561.5815, 17171.13
562.0637, 17242.03
562.5458, 17283.98
563.0279, 17308.27
563.5100, 17324.36
563.9921, 17336.09
564.4742, 17332.64
564.9564, 17314.02
565.4385, 17279.73
565.9206, 17226.91
566.4027, 17153.62
566.8848, 17073.18
567.3669, 16992.38
567.8491, 16905.84
568.3312, 16798.58
568.8133, 16671.38
569.2954, 16530.16
569.7775, 16379.68
570.2596, 16218.50
570.7418, 16047.00
571.2239, 15863.74
571.7060, 15671.84
572.1881, 15470.96
572.6702, 15264.40
573.1523, 15052.85
573.6345, 14837.25
574.1166, 14619.39
574.5987, 14399.58
575.0808, 14180.51
575.5629, 13962.45
576.0450, 13752.69
576.5272, 13541.15
577.0093, 13326.46
577.4914, 13110.34
577.9735, 12896.46
578.4556, 12685.96
578.9377, 12479.13
579.4199, 12272.61
579.9020, 12068.96
580.3841, 11871.64
580.8662, 11681.69
581.3483, 11496.52
581.8304, 11316.07
582.3126, 11140.39
582.7947, 10969.71
583.2768, 10804.27
583.7589, 10643.08
584.2410, 10484.11
584.7231, 10328.55
585.2053, 10178.81
585.6874, 10033.85
586.1696, 9896.549
