##NAMES=Lithiophosphate
##RRUFFID=R100092
##IDEAL CHEMISTRY=Li_3_PO_4_
##LOCALITY=Cachoeira mine, Itinga, Minas Gerais, Brazil
##OWNER=RRUFF
##SOURCE=Luiz Menezes 
##DESCRIPTION=Colorless fragments and prismatic crystals
##STATUS=The identification of this mineral has been confirmed by single-crystal X-ray diffraction.
##URL=rruff.info/R100092
90.49219, 17.14785
90.97430, 17.47934
91.45642, 17.59780
91.93854, 17.39819
92.42065, 17.01497
92.90277, 16.57479
93.38489, 16.03897
93.86700, 15.63835
94.34912, 15.89853
94.83124, 16.68197
95.31335, 17.18607
95.79547, 16.62787
96.27759, 15.30056
96.75970, 14.41102
97.24182, 14.19662
97.72394, 14.41504
98.20605, 14.65268
98.68817, 14.93491
99.17029, 15.02784
99.65240, 14.52105
100.1345, 13.33699
100.6166, 12.76743
101.0988, 13.36250
101.5809, 14.89174
102.0630, 15.27207
102.5451, 14.08516
103.0272, 12.49979
103.5093, 11.87621
103.9915, 12.62309
104.4736, 13.28502
104.9557, 13.41799
105.4378, 12.88536
105.9199, 12.59854
106.4020, 12.66264
106.8842, 12.91919
107.3663, 13.10959
107.8484, 13.32403
108.3305, 13.36389
108.8126, 13.11737
109.2947, 12.14657
109.7769, 11.61960
110.2590, 11.91084
110.7411, 12.71172
111.2232, 13.05559
111.7053, 12.35330
112.1874, 11.59403
112.6696, 11.22684
113.1517, 11.88385
113.6338, 12.29989
114.1159, 12.20615
114.5980, 11.66683
115.0801, 11.14023
115.5623, 10.64305
116.0444, 10.24499
116.5265, 10.00089
117.0086, 9.955655
117.4907, 10.03726
117.9728, 10.35158
118.4550, 10.91121
118.9371, 11.20407
119.4192, 10.73520
119.9013, 9.926654
120.3834, 9.323652
120.8655, 9.424883
121.3477, 9.634260
121.8298, 9.478830
122.3119, 8.858622
122.7940, 8.220805
123.2761, 7.871756
123.7582, 7.741790
124.2404, 7.675702
124.7225, 7.577329
125.2046, 7.501475
125.6867, 7.530938
126.1688, 7.704813
126.6509, 7.918431
127.1331, 8.119211
127.6152, 8.287549
128.0973, 8.326073
128.5794, 8.066428
129.0615, 7.624474
129.5436, 7.257739
130.0258, 6.976815
130.5079, 6.846391
130.9900, 7.118586
131.4721, 7.790629
131.9542, 8.374922
132.4363, 8.310985
132.9185, 7.701407
133.4006, 7.249530
133.8827, 7.136811
134.3648, 7.326357
134.8469, 7.727690
135.3290, 8.370685
135.8112, 9.097353
136.2933, 9.762560
136.7754, 10.37457
137.2575, 10.85928
137.7396, 11.25079
138.2217, 11.53605
138.7039, 11.32030
139.1860, 10.36824
139.6681, 9.285601
140.1502, 9.085454
140.6323, 10.02533
141.1144, 10.99563
141.5966, 11.57618
142.0787, 11.68997
142.5608, 11.71157
143.0429, 11.55579
143.5250, 11.35520
144.0071, 11.46829
144.4893, 12.15237
144.9714, 12.73033
145.4535, 12.81563
145.9356, 11.86075
146.4177, 11.54123
146.8998, 12.20930
147.3820, 13.57036
147.8641, 14.39625
148.3462, 14.07375
148.8283, 13.78242
149.3104, 14.18133
149.7925, 16.32552
150.2747, 17.77649
150.7568, 18.00812
151.2389, 17.15060
151.7210, 16.78525
152.2031, 17.23203
152.6852, 17.97562
153.1674, 18.70233
153.6495, 19.24791
154.1316, 19.93089
154.6137, 20.96977
155.0958, 22.37758
155.5779, 23.35803
156.0601, 23.56402
156.5422, 23.42013
157.0243, 23.28552
157.5064, 22.92307
157.9885, 22.85514
158.4706, 23.46164
158.9528, 24.88442
159.4349, 25.81961
159.9170, 25.61301
160.3991, 24.83670
160.8812, 24.15204
161.3633, 23.65993
161.8455, 23.37087
162.3276, 23.32946
162.8097, 23.57784
163.2918, 23.88124
163.7739, 24.10814
164.2560, 24.30849
164.7382, 24.44970
165.2203, 24.85567
165.7024, 25.29033
166.1845, 25.53391
166.6666, 25.47863
167.1487, 25.50597
167.6309, 25.93851
168.1130, 26.60933
168.5951, 27.15825
169.0772, 27.33880
169.5593, 27.37580
170.0414, 27.45565
170.5236, 27.61753
171.0057, 27.80990
171.4878, 28.01276
171.9699, 28.22120
172.4520, 28.41593
172.9341, 28.69419
173.4163, 28.91787
173.8984, 28.86609
174.3805, 28.29066
174.8626, 27.76051
175.3447, 27.92627
175.8268, 28.66030
176.3090, 29.37879
176.7911, 29.63280
177.2732, 29.61720
177.7553, 29.60515
178.2374, 29.51332
178.7195, 29.62408
179.2017, 30.44317
179.6838, 31.91344
180.1659, 33.43152
180.6480, 34.56362
181.1301, 35.39945
181.6122, 36.13896
182.0944, 36.63336
182.5765, 37.20885
183.0586, 39.06667
183.5407, 42.15452
184.0228, 44.33297
184.5049, 42.86874
184.9871, 38.65880
185.4692, 34.96275
185.9513, 32.79809
186.4334, 31.78845
186.9155, 31.17735
187.3976, 30.99610
187.8798, 30.87828
188.3619, 30.38232
188.8440, 29.57187
189.3261, 28.89166
189.8082, 28.54634
190.2903, 28.44070
190.7725, 28.19559
191.2546, 27.77743
191.7367, 27.37954
192.2188, 27.27518
192.7009, 27.44570
193.1830, 27.55256
193.6652, 27.33846
194.1473, 26.90515
194.6294, 26.93672
195.1115, 27.47941
195.5936, 28.32378
196.0757, 29.31354
196.5579, 30.46060
197.0400, 31.42524
197.5221, 32.03994
198.0042, 32.32224
198.4863, 32.62578
198.9684, 33.05387
199.4506, 33.26987
199.9327, 32.56002
200.4148, 30.79620
200.8969, 29.26019
201.3790, 28.60648
201.8611, 28.87949
202.3433, 28.79410
202.8254, 28.29012
203.3075, 27.52254
203.7896, 26.69230
204.2717, 25.75113
204.7538, 24.96219
205.2360, 24.33830
205.7181, 23.82671
206.2002, 24.02579
206.6823, 25.12944
207.1644, 26.70643
207.6465, 27.95675
208.1287, 28.78417
208.6108, 29.58326
209.0929, 30.52062
209.5750, 31.62041
210.0571, 32.78910
210.5392, 34.13918
211.0214, 35.46844
211.5035, 36.28953
211.9856, 36.42389
212.4677, 36.52811
212.9498, 36.91790
213.4319, 37.67440
213.9140, 38.33241
214.3962, 38.79256
214.8783, 39.21615
215.3604, 40.00884
215.8425, 41.33231
216.3246, 42.67340
216.8067, 43.74341
217.2889, 44.33471
217.7710, 45.34051
218.2531, 46.85920
218.7352, 48.75026
219.2173, 50.69374
219.6994, 52.59820
220.1816, 54.74508
220.6637, 57.30836
221.1458, 60.38119
221.6279, 63.59439
222.1100, 66.82917
222.5921, 70.25219
223.0743, 74.39727
223.5564, 79.24380
224.0385, 84.81036
224.5206, 91.18023
225.0027, 99.08255
225.4848, 106.3247
225.9670, 114.0454
226.4491, 120.6631
226.9312, 121.8805
227.4133, 116.3789
227.8954, 107.5708
228.3775, 96.57191
228.8597, 81.13204
229.3418, 68.58998
229.8239, 59.48438
230.3060, 53.15351
230.7881, 48.15745
231.2702, 44.84754
231.7524, 42.24457
232.2345, 39.94864
232.7166, 37.86362
233.1987, 36.22858
233.6808, 35.12037
234.1629, 34.44439
234.6451, 33.95974
235.1272, 33.74970
235.6093, 33.61410
236.0914, 33.44994
236.5735, 33.15768
237.0556, 33.06347
237.5378, 33.16941
238.0199, 33.47278
238.5020, 34.00824
238.9841, 35.01696
239.4662, 35.91188
239.9483, 36.39700
240.4305, 36.16734
240.9126, 36.23514
241.3947, 36.66127
241.8768, 37.36418
242.3589, 38.22892
242.8410, 39.64982
243.3232, 40.62810
243.8053, 40.65028
244.2874, 39.21352
244.7695, 38.06016
245.2516, 37.42006
245.7337, 36.96720
246.2159, 35.90416
246.6980, 33.75586
247.1801, 31.74097
247.6622, 30.32438
248.1443, 29.65641
248.6264, 29.17084
249.1086, 28.90832
249.5907, 28.80432
250.0728, 28.75302
250.5549, 28.85615
251.0370, 28.84003
251.5191, 28.57219
252.0013, 27.96111
252.4834, 27.39251
252.9655, 26.79812
253.4476, 26.29048
253.9297, 26.12141
254.4118, 26.47203
254.8940, 26.82401
255.3761, 26.97850
255.8582, 26.86684
256.3403, 26.84550
256.8224, 26.97925
257.3046, 27.15403
257.7867, 27.16397
258.2688, 26.93319
258.7509, 26.69631
259.2330, 26.50537
259.7151, 26.33769
260.1973, 26.38602
260.6794, 26.81697
261.1615, 27.30163
261.6436, 27.24614
262.1257, 26.29075
262.6078, 25.68442
263.0900, 25.96394
263.5721, 27.27687
264.0542, 28.02562
264.5363, 28.08782
265.0184, 27.74100
265.5005, 27.25835
265.9827, 26.51914
266.4648, 26.01626
266.9469, 25.97510
267.4290, 26.40958
267.9111, 26.59717
268.3932, 26.43938
268.8754, 26.18443
269.3575, 26.13964
269.8396, 26.38159
270.3217, 26.54223
270.8038, 26.47648
271.2859, 26.20570
271.7681, 26.21095
272.2502, 26.60926
272.7323, 27.04137
273.2144, 27.04934
273.6965, 26.51256
274.1786, 26.21786
274.6608, 26.40007
275.1429, 26.98340
275.6250, 27.43946
276.1071, 27.76758
276.5892, 27.97111
277.0714, 28.03658
277.5535, 27.95921
278.0356, 27.77627
278.5177, 27.41519
278.9998, 26.97318
279.4819, 26.91524
279.9641, 27.32001
280.4462, 27.77951
280.9283, 27.94751
281.4104, 27.81265
281.8925, 27.70737
282.3746, 27.66940
282.8568, 27.70275
283.3389, 27.83422
283.8210, 28.07165
284.3031, 28.34534
284.7852, 28.71759
285.2673, 29.16183
285.7495, 29.18755
286.2316, 28.59493
286.7137, 27.75471
287.1958, 27.47500
287.6779, 27.76983
288.1600, 28.18230
288.6422, 28.40741
289.1243, 28.48634
289.6064, 28.72524
290.0885, 29.19298
290.5706, 29.72482
291.0527, 30.04971
291.5349, 30.17808
292.0170, 30.25984
292.4991, 30.38535
292.9812, 30.53241
293.4633, 30.59324
293.9454, 30.54371
294.4276, 30.49017
294.9097, 30.63443
295.3918, 30.92928
295.8739, 31.12132
296.3560, 31.01413
296.8381, 30.72274
297.3203, 30.42511
297.8024, 30.09661
298.2845, 30.02209
298.7666, 30.81317
299.2487, 32.16390
299.7308, 33.15641
300.2130, 33.12359
300.6951, 32.60916
301.1772, 32.45146
301.6593, 32.64897
302.1414, 33.07981
302.6235, 33.76384
303.1057, 34.59980
303.5878, 35.36388
304.0699, 35.93898
304.5520, 36.45117
305.0341, 37.11876
305.5162, 37.90790
305.9984, 38.55301
306.4805, 38.56108
306.9626, 38.37939
307.4447, 38.64741
307.9268, 39.69233
308.4089, 41.03827
308.8911, 42.35889
309.3732, 43.65174
309.8553, 44.90780
310.3374, 45.95873
310.8195, 47.04708
311.3016, 48.46315
311.7838, 50.45771
312.2659, 52.37412
312.7480, 53.65921
313.2301, 54.50529
313.7122, 55.41799
314.1943, 56.38267
314.6765, 57.67005
315.1586, 59.65002
315.6407, 62.65027
316.1228, 65.34253
316.6049, 66.50484
317.0870, 67.00819
317.5692, 68.26476
318.0513, 71.37556
318.5334, 74.88231
319.0155, 78.03811
319.4976, 80.73558
319.9797, 83.61468
320.4619, 87.16183
320.9440, 90.91985
321.4261, 94.33159
321.9082, 97.04395
322.3903, 99.63737
322.8724, 102.3670
323.3546, 105.2470
323.8367, 107.7867
324.3188, 110.0653
324.8009, 111.8870
325.2830, 113.0814
325.7651, 113.8514
326.2473, 113.7768
326.7294, 112.4747
327.2115, 110.0980
327.6936, 107.8250
328.1757, 105.5641
328.6578, 103.5625
329.1400, 101.9398
329.6221, 100.9169
330.1042, 99.98836
330.5863, 98.91270
331.0684, 97.91941
331.5505, 97.70058
332.0327, 98.51649
332.5148, 99.79015
332.9969, 101.3105
333.4790, 102.9763
333.9611, 105.0842
334.4432, 107.7351
334.9254, 110.7807
335.4075, 113.8928
335.8896, 116.9273
336.3717, 120.3796
336.8538, 124.4668
337.3359, 129.3002
337.8180, 133.8667
338.3001, 137.8579
338.7823, 142.0434
339.2644, 147.2409
339.7465, 153.5933
340.2286, 160.5185
340.7107, 168.0642
341.1928, 176.1486
341.6750, 183.2273
342.1571, 189.1270
342.6392, 195.0262
343.1213, 202.1563
343.6034, 210.4749
344.0855, 218.6262
344.5677, 226.2093
345.0498, 233.5898
345.5319, 241.3882
346.0140, 249.6013
346.4961, 258.2801
346.9782, 267.8598
347.4604, 278.1132
347.9425, 287.5152
348.4246, 296.0391
348.9067, 303.6539
349.3888, 310.3891
349.8709, 316.2407
350.3531, 321.1622
350.8352, 324.9551
351.3173, 327.8359
351.7994, 330.3849
352.2815, 332.6483
352.7636, 334.0638
353.2458, 334.0200
353.7279, 332.7227
354.2100, 330.6090
354.6921, 327.6031
355.1742, 324.0347
355.6563, 319.8886
356.1385, 315.2621
356.6206, 311.0010
357.1027, 307.9486
357.5848, 305.4979
358.0669, 302.8179
358.5490, 299.2032
359.0312, 296.0479
359.5133, 294.2614
359.9954, 293.6492
360.4775, 293.5688
360.9596, 293.2823
361.4417, 293.7027
361.9239, 295.6195
362.4060, 299.5919
362.8881, 303.7637
363.3702, 306.5536
363.8523, 309.2697
364.3344, 313.9178
364.8166, 322.5538
365.2987, 331.9515
365.7808, 340.6374
366.2629, 348.4608
366.7450, 356.9375
367.2271, 366.2551
367.7093, 376.3548
368.1914, 387.1855
368.6735, 399.5332
369.1556, 411.8406
369.6377, 424.2041
370.1198, 436.5469
370.6020, 447.2000
371.0841, 456.5915
371.5662, 463.9272
372.0483, 468.7478
372.5304, 471.1407
373.0125, 470.9892
373.4947, 468.5851
373.9768, 463.5540
374.4589, 454.7769
374.9410, 441.5701
375.4231, 425.9257
375.9052, 408.1214
376.3874, 387.8170
376.8695, 367.3294
377.3516, 346.1237
377.8337, 325.2861
378.3158, 305.4239
378.7979, 286.4261
379.2801, 268.6942
379.7622, 251.9321
380.2443, 236.4945
380.7264, 223.4816
381.2085, 213.1054
381.6906, 204.1405
382.1728, 195.4293
382.6549, 187.0877
383.1370, 180.4721
383.6191, 175.9442
384.1012, 172.8696
384.5833, 170.3997
385.0655, 168.4824
385.5476, 166.7296
386.0297, 164.4566
386.5118, 162.2742
386.9939, 161.3103
387.4760, 161.7255
387.9582, 162.9349
388.4403, 164.7894
388.9224, 167.0375
389.4045, 169.1392
389.8866, 171.1162
390.3687, 172.7094
390.8509, 173.5482
391.3330, 173.6777
391.8151, 173.6326
392.2972, 174.3410
392.7793, 174.7394
393.2614, 173.7764
393.7436, 170.8261
394.2257, 167.0065
394.7078, 162.7900
395.1899, 158.0782
395.6720, 152.6105
396.1541, 145.4729
396.6363, 138.2262
397.1184, 131.6216
397.6005, 125.8946
398.0826, 120.3148
398.5647, 114.6293
399.0468, 109.0816
399.5290, 103.9667
400.0111, 99.47520
400.4932, 95.23758
400.9753, 91.17761
401.4574, 87.28025
401.9395, 83.73444
402.4217, 80.67513
402.9038, 77.79099
403.3859, 74.86526
403.8680, 71.80553
404.3501, 68.88882
404.8322, 66.07111
405.3144, 63.45037
405.7965, 61.44194
406.2786, 60.18514
406.7607, 59.03728
407.2428, 57.69714
407.7249, 56.14952
408.2071, 54.71859
408.6892, 53.38400
409.1713, 52.19871
409.6534, 51.26697
410.1355, 50.58340
410.6176, 49.94193
411.0998, 49.23581
411.5819, 48.55626
412.0640, 48.22839
412.5461, 48.23806
413.0282, 48.14872
413.5103, 47.42868
413.9925, 46.39607
414.4746, 45.72272
414.9567, 45.56993
415.4388, 45.64281
415.9209, 45.69635
416.4030, 45.73711
416.8852, 45.78283
417.3673, 45.83042
417.8494, 45.89384
418.3315, 46.02825
418.8136, 46.23724
419.2957, 46.34283
419.7779, 46.08580
420.2600, 45.74174
420.7421, 45.59032
421.2242, 45.67425
421.7063, 46.00067
422.1884, 46.64638
422.6706, 47.55271
423.1527, 48.52244
423.6348, 49.55116
424.1169, 50.58960
424.5990, 51.60026
425.0811, 52.46179
425.5633, 53.55791
426.0454, 54.91405
426.5275, 56.49676
427.0096, 58.30040
427.4917, 60.42709
427.9738, 62.60244
428.4560, 64.74976
428.9381, 66.89285
429.4202, 69.12541
429.9023, 71.32755
430.3844, 73.78465
430.8665, 76.77271
431.3487, 80.40984
431.8308, 83.81628
432.3129, 86.80926
432.7950, 89.67030
433.2771, 93.00533
433.7592, 96.80698
434.2414, 100.5213
434.7235, 103.4129
435.2056, 105.9389
435.6877, 110.2216
436.1698, 116.3427
436.6519, 122.9408
437.1341, 128.4856
437.6162, 133.3511
438.0983, 138.6915
438.5804, 144.9807
439.0625, 151.6293
439.5446, 157.9536
440.0268, 164.0532
440.5089, 170.2907
440.9910, 177.6077
441.4731, 184.7191
441.9552, 190.7518
442.4373, 195.6152
442.9195, 198.9707
443.4016, 200.5316
443.8837, 200.5170
444.3658, 199.1924
444.8479, 197.4309
445.3300, 193.5704
445.8122, 186.4257
446.2943, 176.3467
446.7764, 165.9507
447.2585, 155.2727
447.7406, 144.6377
448.2227, 134.0570
448.7049, 122.9128
449.1870, 113.1850
449.6691, 105.1608
450.1512, 98.45529
450.6333, 92.72392
451.1154, 88.28170
451.5976, 84.00571
452.0797, 79.44177
452.5618, 74.66860
453.0439, 71.22128
453.5260, 69.30971
454.0081, 68.25673
454.4903, 67.78269
454.9724, 67.88087
455.4545, 67.69695
455.9366, 66.96729
456.4187, 66.25625
456.9008, 66.66742
457.3830, 68.09165
457.8651, 69.61355
458.3472, 70.41313
458.8293, 71.15662
459.3114, 73.35509
459.7935, 76.98472
460.2757, 80.70213
460.7578, 83.30778
461.2399, 85.33351
461.7220, 87.45350
462.2041, 89.67113
462.6862, 92.36509
463.1684, 95.88516
463.6505, 100.0884
464.1326, 104.5648
464.6147, 109.0280
465.0968, 113.8510
465.5789, 119.1881
466.0611, 125.0946
466.5432, 131.1881
467.0253, 137.1398
467.5074, 143.3350
467.9895, 150.0639
468.4716, 157.2219
468.9538, 165.2384
469.4359, 174.4593
469.9180, 184.4744
470.4001, 194.0390
470.8822, 202.8652
471.3643, 211.6577
471.8465, 220.9191
472.3286, 230.8177
472.8107, 239.6070
473.2928, 247.3321
473.7749, 253.6286
474.2570, 258.3358
474.7392, 261.4488
475.2213, 261.3614
475.7034, 257.2924
476.1855, 250.3576
476.6676, 242.4348
477.1497, 233.5304
477.6319, 224.1400
478.1140, 213.7879
478.5961, 203.2879
479.0782, 194.0084
479.5603, 186.0634
480.0424, 178.9701
480.5246, 172.6872
481.0067, 166.9108
481.4888, 161.2093
481.9709, 155.6045
482.4530, 149.7917
482.9352, 143.7290
483.4173, 137.3531
483.8994, 130.4627
484.3815, 122.5459
484.8636, 114.4365
485.3457, 106.3934
485.8279, 98.19240
486.3100, 90.84053
486.7921, 84.71090
487.2742, 79.32834
487.7563, 74.23348
488.2384, 69.32278
488.7206, 64.83727
489.2027, 60.74779
489.6848, 57.10711
490.1669, 54.26763
490.6490, 52.46101
491.1311, 50.82343
491.6133, 48.94866
492.0954, 46.83576
492.5775, 44.89599
493.0596, 43.13667
493.5417, 41.56606
494.0238, 40.17379
494.5060, 38.96815
494.9881, 38.05923
495.4702, 37.60233
495.9523, 37.26540
496.4344, 36.44278
496.9165, 35.29464
497.3987, 34.42594
497.8808, 34.43920
498.3629, 34.72483
498.8450, 34.64470
499.3271, 34.13152
499.8092, 33.70946
500.2914, 33.91780
500.7735, 34.22274
501.2556, 34.11596
501.7377, 33.00749
502.2198, 32.03703
502.7019, 31.49102
503.1841, 31.26101
503.6662, 31.04279
504.1483, 30.65044
504.6304, 30.44232
505.1125, 30.62502
505.5946, 31.25934
506.0768, 31.47667
506.5589, 31.07972
507.0410, 30.55642
507.5231, 30.30798
508.0052, 30.37409
508.4873, 30.47706
508.9695, 30.62715
509.4516, 30.73645
509.9337, 30.55091
510.4158, 30.09197
510.8979, 29.76934
511.3800, 29.84461
511.8622, 30.15077
512.3443, 30.31719
512.8264, 30.34780
513.3085, 30.34521
513.7906, 30.33569
514.2728, 30.35831
514.7549, 30.47861
515.2370, 30.73840
515.7191, 31.00619
516.2012, 31.23817
516.6833, 31.41603
517.1655, 31.51586
517.6476, 31.29585
518.1297, 31.22923
518.6118, 31.52611
519.0939, 32.16304
519.5760, 32.83315
520.0582, 33.60308
520.5403, 34.30686
521.0224, 34.86134
521.5045, 35.23527
521.9866, 35.52990
522.4688, 35.60807
522.9509, 35.75822
523.4330, 36.45359
523.9151, 37.84778
524.3972, 38.89225
524.8793, 39.19020
525.3615, 39.13295
525.8436, 39.90958
526.3257, 41.50919
526.8078, 42.95914
527.2899, 43.61026
527.7720, 43.73066
528.2542, 43.88784
528.7363, 44.10626
529.2184, 44.34545
529.7005, 44.47749
530.1826, 44.63625
530.6647, 45.01553
531.1469, 45.74020
531.6290, 46.57196
532.1111, 47.65928
532.5932, 48.73633
533.0753, 49.25928
533.5574, 48.89373
534.0396, 48.12589
534.5217, 46.91255
535.0038, 45.22613
535.4859, 44.00922
535.9680, 43.71790
536.4501, 43.48139
536.9323, 42.80451
537.4144, 41.55359
537.8965, 40.15630
538.3786, 38.46983
538.8607, 36.84220
539.3428, 35.91906
539.8250, 35.74572
540.3071, 35.55926
540.7892, 35.15990
541.2713, 34.59810
541.7534, 33.86958
542.2355, 33.01286
542.7177, 32.43899
543.1998, 32.69469
543.6819, 33.28979
544.1640, 33.44944
544.6461, 33.10463
545.1282, 32.61472
545.6104, 32.06677
546.0925, 31.58201
546.5746, 31.31139
547.0567, 31.51899
547.5388, 31.63434
548.0209, 31.27076
548.5031, 30.68913
548.9852, 30.45561
549.4673, 31.13290
549.9494, 31.65814
550.4315, 31.65410
550.9136, 31.12450
551.3958, 31.00100
551.8779, 31.46698
552.3600, 32.03122
552.8421, 32.41186
553.3242, 32.60360
553.8063, 32.59230
554.2885, 32.28271
554.7706, 32.03122
555.2527, 32.43156
555.7348, 33.37915
556.2169, 34.21028
556.6990, 34.64799
557.1812, 34.96116
557.6633, 35.61345
558.1454, 36.49569
558.6275, 37.19931
559.1096, 37.26743
559.5917, 37.20868
560.0739, 37.45735
560.5560, 38.04866
561.0381, 38.64602
561.5202, 39.02071
562.0023, 39.39896
562.4844, 39.94510
562.9666, 40.70791
563.4487, 41.60831
563.9308, 42.56248
564.4129, 43.67562
564.8950, 45.14289
565.3771, 47.10649
565.8593, 49.05264
566.3414, 50.78988
566.8235, 52.42250
567.3056, 54.47255
567.7877, 56.92953
568.2698, 59.80958
568.7520, 63.12766
569.2341, 66.99323
569.7162, 71.20093
570.1983, 76.08333
570.6804, 81.37207
571.1625, 87.07861
571.6447, 93.00144
572.1268, 98.73914
572.6089, 104.0570
573.0910, 109.5898
573.5731, 115.8883
574.0552, 122.6890
574.5374, 129.6729
575.0195, 136.5641
575.5016, 143.7268
575.9837, 150.8896
576.4658, 158.1576
576.9479, 167.1115
577.4301, 178.3616
577.9122, 190.4604
578.3943, 202.9672
578.8764, 215.8272
579.3585, 229.0959
579.8406, 242.7839
580.3228, 256.8661
580.8049, 271.2947
581.2870, 286.0146
581.7691, 301.4043
582.2512, 317.6856
582.7333, 334.0157
583.2155, 350.3588
583.6975, 365.7667
584.1796, 378.0425
584.6617, 387.3016
585.1439, 391.9146
585.6260, 390.7575
586.1081, 383.7638
586.5902, 370.6454
587.0723, 347.8986
587.5544, 321.7276
588.0366, 294.5266
588.5187, 266.0648
