##NAMES=Lithiomarsturite
##RRUFFID=R100094
##IDEAL CHEMISTRY=LiCa_2_Mn^2+^_2_Si_5_O_14_(OH)
##LOCALITY=Foote mine, Kings Mountain, North Carolina, USA
##OWNER=RRUFF
##SOURCE=
##DESCRIPTION=Tan colored prismatic crystals, associated with brannockite, fluorapatite, albite, bavenite, and pyrite
##STATUS=The identification of this mineral has been confirmed by single-crystal X-ray diffraction.
##URL=rruff.info/R100094
91.53320, 213.2112
92.01532, 218.1021
92.49744, 219.3367
92.97955, 218.2475
93.46167, 214.1874
93.94379, 209.2498
94.42590, 205.1975
94.90802, 201.5188
95.39014, 197.0540
95.87225, 191.6098
96.35437, 186.3218
96.83649, 181.6732
97.31860, 177.5232
97.80072, 173.7446
98.28284, 170.0746
98.76495, 166.4001
99.24707, 163.0889
99.72919, 160.0888
100.2113, 157.5674
100.6934, 155.5737
101.1755, 154.0214
101.6577, 152.7898
102.1398, 151.7488
102.6219, 150.8511
103.1040, 150.3748
103.5861, 150.4303
104.0682, 150.6532
104.5504, 150.8307
105.0325, 150.9299
105.5146, 151.0691
105.9967, 151.4034
106.4788, 152.0014
106.9609, 152.5958
107.4431, 152.8165
107.9252, 153.1098
108.4073, 154.1867
108.8894, 156.4141
109.3715, 159.1969
109.8536, 161.4086
110.3358, 162.9176
110.8179, 164.5786
111.3000, 167.0885
111.7821, 170.3357
112.2642, 173.2675
112.7463, 175.9001
113.2285, 177.6793
113.7106, 178.1022
114.1927, 177.0272
114.6748, 174.7015
115.1569, 171.2700
115.6390, 166.2681
116.1212, 161.2278
116.6033, 156.3217
117.0854, 151.6791
117.5675, 147.4114
118.0496, 143.5397
118.5317, 140.0907
119.0139, 137.2427
119.4960, 135.4119
119.9781, 133.8308
120.4602, 132.3062
120.9423, 130.9216
121.4244, 129.8566
121.9066, 129.2585
122.3887, 129.1506
122.8708, 129.2218
123.3529, 129.6081
123.8350, 130.0076
124.3171, 130.1870
124.7993, 130.1825
125.2814, 130.2874
125.7635, 130.8179
126.2456, 131.8872
126.7277, 132.9395
127.2098, 133.7019
127.6920, 134.5602
128.1741, 136.0217
128.6562, 138.2484
129.1383, 140.7368
129.6204, 143.0712
130.1025, 145.2916
130.5847, 146.9081
131.0668, 147.4379
131.5489, 147.1450
132.0310, 146.9766
132.5131, 147.3207
132.9952, 147.6106
133.4774, 147.3999
133.9595, 146.6812
134.4416, 145.6785
134.9237, 144.5713
135.4058, 143.3614
135.8879, 142.0065
136.3701, 140.1460
136.8522, 138.3691
137.3343, 137.0402
137.8164, 136.2404
138.2985, 135.7980
138.7806, 135.4374
139.2628, 135.2389
139.7449, 134.9758
140.2270, 134.2818
140.7091, 133.6747
141.1912, 133.7207
141.6733, 134.6716
142.1555, 136.2223
142.6376, 137.3133
143.1197, 138.1776
143.6018, 138.2583
144.0839, 137.1417
144.5660, 135.2282
145.0482, 133.1362
145.5303, 131.2303
146.0124, 129.4482
146.4945, 127.2708
146.9766, 124.1516
147.4587, 121.2664
147.9409, 119.3572
148.4230, 118.2280
148.9051, 116.9319
149.3872, 114.6948
149.8693, 111.6974
150.3514, 109.1599
150.8336, 107.4120
151.3157, 105.9420
151.7978, 104.1907
152.2799, 102.0665
152.7620, 100.1756
153.2441, 99.15511
153.7263, 98.67954
154.2084, 98.25683
154.6905, 97.69609
155.1726, 97.09011
155.6547, 96.69872
156.1368, 96.73351
156.6190, 96.58718
157.1011, 95.75468
157.5832, 94.52840
158.0653, 93.46611
158.5474, 92.94299
159.0295, 92.92780
159.5117, 93.01404
159.9938, 93.30749
160.4759, 93.60685
160.9580, 93.90382
161.4401, 94.15649
161.9222, 94.27408
162.4044, 94.12610
162.8865, 93.62642
163.3686, 93.36950
163.8507, 93.41798
164.3328, 93.62868
164.8149, 94.11268
165.2971, 94.77760
165.7792, 95.29830
166.2613, 95.25136
166.7434, 94.29050
167.2255, 93.77338
167.7076, 93.80750
168.1898, 94.13358
168.6719, 94.73899
169.1540, 95.57151
169.6361, 96.30366
170.1182, 96.42262
170.6003, 95.54030
171.0825, 95.02075
171.5646, 95.13119
172.0467, 95.55419
172.5288, 95.93599
173.0109, 96.17355
173.4930, 96.37603
173.9752, 96.83996
174.4573, 97.68491
174.9394, 98.10498
175.4215, 97.53161
175.9036, 96.36625
176.3857, 95.51563
176.8679, 95.27589
177.3500, 95.38472
177.8321, 95.64029
178.3142, 96.12039
178.7963, 96.13253
179.2784, 94.89754
179.7606, 92.59618
180.2427, 90.81174
180.7248, 90.30219
181.2069, 90.19666
181.6890, 89.75167
182.1711, 88.90518
182.6533, 87.88418
183.1354, 86.79475
183.6175, 85.58994
184.0996, 84.69160
184.5817, 84.73372
185.0638, 84.78832
185.5460, 84.25491
186.0281, 83.01358
186.5102, 81.46394
186.9923, 80.12858
187.4744, 79.03008
187.9565, 78.10856
188.4387, 77.35474
188.9208, 76.74240
189.4029, 76.33465
189.8850, 76.13087
190.3671, 75.97061
190.8492, 75.50906
191.3314, 74.38523
191.8135, 73.56031
192.2956, 73.18079
192.7777, 73.04237
193.2598, 73.03918
193.7419, 73.11978
194.2241, 73.18558
194.7062, 72.99804
195.1883, 72.01054
195.6704, 71.40530
196.1525, 71.38094
196.6346, 71.69720
197.1168, 72.15735
197.5989, 72.69018
198.0810, 73.18131
198.5631, 73.26995
199.0452, 72.50932
199.5273, 71.96265
200.0095, 72.04185
200.4916, 72.41073
200.9737, 72.41462
201.4558, 71.65766
201.9379, 70.57255
202.4200, 70.50541
202.9022, 72.09873
203.3843, 73.37299
203.8664, 73.38297
204.3485, 72.50166
204.8306, 71.73916
205.3127, 71.51200
205.7949, 71.68951
206.2770, 71.92925
206.7591, 72.21785
207.2412, 72.58538
207.7233, 73.15359
208.2054, 73.87127
208.6876, 74.38212
209.1697, 74.40029
209.6518, 74.23827
210.1339, 74.36077
210.6160, 74.83294
211.0981, 75.44838
211.5803, 76.08704
212.0624, 76.74804
212.5445, 77.36047
213.0266, 77.89449
213.5087, 78.35855
213.9908, 78.77168
214.4730, 79.14021
214.9551, 79.42355
215.4372, 79.48852
215.9193, 79.26693
216.4014, 79.25619
216.8836, 79.82786
217.3657, 80.54170
217.8478, 81.09694
218.3299, 81.41630
218.8120, 81.68468
219.2941, 82.12209
219.7763, 82.71661
220.2584, 83.53220
220.7405, 84.78542
221.2226, 86.12598
221.7047, 87.39451
222.1868, 88.53366
222.6690, 89.44388
223.1511, 89.88584
223.6332, 89.52450
224.1153, 89.46793
224.5974, 90.04177
225.0795, 90.76779
225.5617, 91.21336
226.0438, 91.28643
226.5259, 91.33344
227.0080, 92.05557
227.4901, 94.27163
227.9722, 95.62249
228.4544, 95.58706
228.9365, 95.06591
229.4186, 94.71313
229.9007, 94.72420
230.3828, 94.89693
230.8649, 94.85036
231.3471, 94.08466
231.8292, 93.95288
232.3113, 95.13432
232.7934, 96.49841
233.2755, 96.99464
233.7576, 96.37092
234.2398, 95.30146
234.7219, 94.91600
235.2040, 95.78822
235.6861, 96.36454
236.1682, 96.46608
236.6503, 96.37679
237.1325, 96.33411
237.6146, 96.40334
238.0967, 96.52010
238.5788, 96.57439
239.0609, 96.45585
239.5430, 96.55979
240.0252, 97.08566
240.5073, 97.74862
240.9894, 98.28578
241.4715, 98.63651
241.9536, 98.84474
242.4357, 98.92998
242.9179, 98.83568
243.4000, 98.88097
243.8821, 99.08312
244.3642, 99.44576
244.8463, 100.0032
245.3284, 100.7701
245.8106, 101.6387
246.2927, 102.4775
246.7748, 103.2807
247.2569, 104.1954
247.7390, 105.3709
248.2211, 106.6184
248.7033, 107.6687
249.1854, 108.4585
249.6675, 109.2487
250.1496, 110.3643
250.6317, 111.7582
251.1138, 113.0600
251.5960, 114.0840
252.0781, 115.0246
252.5602, 116.1785
253.0423, 117.5977
253.5244, 119.0395
254.0065, 120.1574
254.4887, 121.0967
254.9708, 122.3029
255.4529, 123.9367
255.9350, 125.8778
256.4171, 128.0644
256.8992, 130.5831
257.3813, 132.9365
257.8635, 134.6058
258.3456, 135.8775
258.8277, 137.2109
259.3098, 138.6928
259.7919, 140.3158
260.2740, 142.1843
260.7562, 144.4151
261.2383, 146.3789
261.7204, 147.4820
262.2025, 148.1578
262.6846, 148.9090
263.1667, 149.8881
263.6489, 150.9902
264.1310, 152.1600
264.6131, 153.4749
265.0952, 154.5171
265.5773, 154.9112
266.0594, 155.0033
266.5416, 155.1300
267.0237, 155.4416
267.5058, 155.6543
267.9879, 155.3550
268.4700, 154.4695
268.9521, 153.4193
269.4343, 152.2831
269.9164, 151.0654
270.3985, 149.7463
270.8806, 148.3147
271.3627, 146.8413
271.8448, 145.4998
272.3270, 144.3767
272.8091, 142.8971
273.2912, 140.4827
273.7733, 137.9329
274.2554, 135.7626
274.7375, 134.0398
275.2197, 132.4371
275.7018, 130.5720
276.1839, 128.4167
276.6660, 126.2229
277.1481, 123.9591
277.6302, 121.7177
278.1124, 119.4775
278.5945, 117.2729
279.0766, 115.3095
279.5587, 113.8426
280.0408, 112.9174
280.5229, 112.0487
281.0051, 111.4250
281.4872, 110.6783
281.9693, 109.5152
282.4514, 108.0512
282.9335, 106.6637
283.4156, 105.6168
283.8978, 104.9082
284.3799, 104.6650
284.8620, 105.4058
285.3441, 106.1187
285.8262, 106.4929
286.3083, 106.5670
286.7905, 106.4504
287.2726, 106.1372
287.7547, 105.6838
288.2368, 105.6614
288.7189, 106.3564
289.2010, 107.1871
289.6832, 107.9743
290.1653, 108.7859
290.6474, 109.7433
291.1295, 110.9143
291.6116, 112.2729
292.0938, 113.7294
292.5759, 115.4630
293.0580, 117.0193
293.5401, 118.2166
294.0222, 119.2459
294.5043, 120.2822
294.9865, 121.4005
295.4686, 122.6214
295.9507, 124.0246
296.4328, 125.8072
296.9149, 127.4120
297.3970, 128.5533
297.8792, 129.6330
298.3613, 131.0140
298.8434, 132.8032
299.3255, 134.8018
299.8076, 136.7315
300.2897, 138.7320
300.7719, 140.3126
301.2540, 141.3823
301.7361, 142.1552
302.2182, 142.5659
302.7003, 142.7099
303.1824, 143.0159
303.6646, 144.1600
304.1467, 146.5937
304.6288, 148.1908
305.1109, 148.2941
305.5930, 148.1993
306.0751, 148.5407
306.5573, 149.2643
307.0394, 149.9214
307.5215, 150.0971
308.0036, 149.7624
308.4857, 149.3684
308.9678, 148.6677
309.4500, 148.1516
309.9321, 147.9640
310.4142, 148.0739
310.8963, 148.3961
311.3784, 148.8829
311.8605, 149.5285
312.3427, 150.2871
312.8248, 151.6061
313.3069, 152.4973
313.7890, 152.5324
314.2711, 152.1226
314.7532, 151.7450
315.2354, 151.6259
315.7175, 151.7735
316.1996, 152.2435
316.6817, 153.3506
317.1638, 154.2944
317.6459, 154.6389
318.1281, 154.9836
318.6102, 155.9962
319.0923, 157.8491
319.5744, 159.9888
320.0565, 161.3881
320.5386, 161.3730
321.0208, 162.1990
321.5029, 164.5501
321.9850, 167.1759
322.4671, 169.2899
322.9492, 170.8246
323.4313, 172.2353
323.9135, 174.1128
324.3956, 176.6386
324.8777, 178.6833
325.3598, 180.3045
325.8419, 181.3946
326.3240, 181.8018
326.8062, 181.6173
327.2883, 181.1159
327.7704, 180.5701
328.2525, 179.9378
328.7346, 178.4492
329.2167, 175.5691
329.6989, 172.3360
330.1810, 169.1657
330.6631, 165.7793
331.1452, 161.5892
331.6273, 156.1583
332.1094, 150.1145
332.5916, 145.5212
333.0737, 143.4964
333.5558, 141.0513
334.0379, 137.3565
334.5200, 133.2249
335.0021, 129.3467
335.4843, 125.9457
335.9664, 123.0131
336.4485, 120.6140
336.9306, 118.8901
337.4127, 117.2690
337.8948, 115.9298
338.3770, 114.4908
338.8591, 112.4885
339.3412, 110.0074
339.8233, 107.7616
340.3055, 106.4894
340.7876, 106.2655
341.2697, 106.3186
341.7518, 107.0954
342.2339, 107.7127
342.7160, 107.7017
343.1982, 107.2496
343.6803, 106.8389
344.1624, 106.8059
344.6445, 107.0755
345.1266, 107.2506
345.6087, 107.1764
346.0909, 107.2728
346.5730, 107.6271
347.0551, 108.2148
347.5372, 109.0246
348.0193, 110.0798
348.5014, 111.2853
348.9836, 112.5356
349.4657, 113.9016
349.9478, 115.0528
350.4299, 115.3858
350.9120, 115.7912
351.3941, 117.0474
351.8763, 119.2802
352.3584, 121.7835
352.8405, 123.8035
353.3226, 125.3319
353.8047, 126.9671
354.2868, 128.8186
354.7690, 130.7708
355.2511, 132.7057
355.7332, 134.6583
356.2153, 136.7480
356.6974, 139.1409
357.1795, 141.7495
357.6617, 144.2789
358.1438, 146.8072
358.6259, 149.0421
359.1080, 150.5893
359.5901, 151.7844
360.0722, 153.2074
360.5544, 155.2513
361.0365, 157.3904
361.5186, 158.9955
362.0007, 160.0652
362.4828, 160.5197
362.9649, 160.1401
363.4471, 159.1817
363.9292, 157.9122
364.4113, 156.3298
364.8934, 154.5416
365.3755, 152.6433
365.8576, 150.6160
366.3398, 148.3719
366.8219, 145.9132
367.3040, 143.1584
367.7861, 139.8338
368.2682, 136.0109
368.7503, 132.5125
369.2325, 129.9219
369.7146, 127.7720
370.1967, 125.1777
370.6788, 121.9693
371.1609, 118.8642
371.6430, 116.5910
372.1252, 114.8865
372.6073, 112.9127
373.0894, 110.0632
373.5715, 107.3135
374.0536, 105.5205
374.5357, 104.5790
375.0179, 103.8569
375.5000, 103.1446
375.9821, 102.3953
376.4642, 101.4453
376.9463, 100.0885
377.4284, 99.02573
377.9106, 98.75483
378.3927, 98.89890
378.8748, 98.78905
379.3569, 98.23272
379.8390, 97.51617
380.3211, 96.97891
380.8033, 96.64005
381.2854, 96.41016
381.7675, 96.16489
382.2496, 96.11267
382.7317, 96.56780
383.2138, 97.46679
383.6960, 98.31377
384.1781, 98.74643
384.6602, 98.78175
385.1423, 98.72907
385.6244, 98.47199
386.1065, 98.27182
386.5887, 98.31120
387.0708, 98.44785
387.5529, 98.39458
388.0350, 98.01496
388.5171, 97.50728
388.9992, 97.32486
389.4814, 98.10725
389.9635, 98.19967
390.4456, 97.23740
390.9277, 95.84121
391.4098, 94.40308
391.8919, 93.03838
392.3741, 91.75239
392.8562, 90.54524
393.3383, 89.39713
393.8204, 88.45928
394.3025, 88.13561
394.7846, 87.59052
395.2668, 86.43395
395.7489, 84.85427
396.2310, 83.17933
396.7131, 81.57308
397.1952, 80.09478
397.6773, 78.98051
398.1595, 78.61576
398.6416, 77.96782
399.1237, 76.63382
399.6058, 75.15991
400.0879, 74.01919
400.5700, 73.31557
401.0522, 72.80989
401.5343, 72.20839
402.0164, 71.48740
402.4985, 70.82785
402.9806, 70.28947
403.4627, 69.76558
403.9449, 69.26954
404.4270, 68.75510
404.9091, 68.09233
405.3912, 67.07011
405.8733, 65.90500
406.3554, 65.38831
406.8376, 65.86037
407.3197, 66.11894
407.8018, 65.46135
408.2839, 64.45533
408.7660, 63.66911
409.2481, 63.25013
409.7303, 62.94624
410.2124, 62.50228
410.6945, 61.92901
411.1766, 61.36040
411.6587, 60.73474
412.1408, 60.24669
412.6230, 60.15261
413.1051, 60.39437
413.5872, 60.53950
414.0693, 60.39142
414.5514, 60.04110
415.0335, 59.58175
415.5157, 59.00342
415.9978, 58.49298
416.4799, 58.26554
416.9620, 58.17963
417.4441, 57.80140
417.9262, 56.88575
418.4084, 55.97981
418.8905, 55.44491
419.3726, 55.16307
419.8547, 54.86020
420.3368, 54.46344
420.8189, 53.93512
421.3011, 53.12333
421.7832, 51.85829
422.2653, 51.04708
422.7474, 51.29427
423.2295, 51.69314
423.7116, 51.34808
424.1938, 50.27607
424.6759, 49.20741
425.1580, 48.72840
425.6401, 48.79845
426.1222, 48.64278
426.6043, 48.01886
427.0865, 47.48741
427.5686, 47.21242
428.0507, 47.10367
428.5328, 47.04811
429.0149, 46.99970
429.4970, 46.94098
429.9792, 46.82585
430.4613, 46.54589
430.9434, 46.45559
431.4255, 46.92551
431.9076, 47.23216
432.3897, 46.75383
432.8719, 45.69234
433.3540, 44.81063
433.8361, 44.77453
434.3182, 45.42774
434.8003, 45.58514
435.2824, 44.69556
435.7646, 44.16352
436.2467, 44.62564
436.7288, 45.43829
437.2109, 45.90929
437.6930, 45.82046
438.1751, 45.49548
438.6573, 45.34942
439.1394, 45.40340
439.6215, 45.32106
440.1036, 44.88274
440.5857, 44.49568
441.0678, 44.49694
441.5500, 44.78859
442.0321, 44.99059
442.5142, 44.84553
442.9963, 44.51609
443.4784, 44.29253
443.9605, 44.18424
444.4427, 44.11052
444.9248, 44.04866
445.4069, 43.98997
445.8890, 43.92016
446.3711, 43.83604
446.8532, 43.74781
447.3354, 43.69783
447.8175, 43.64397
448.2996, 43.45594
448.7817, 43.08287
449.2638, 42.71783
449.7459, 42.58800
450.2281, 42.71143
450.7102, 42.79402
451.1923, 42.90038
451.6744, 42.89634
452.1565, 42.55871
452.6386, 42.02122
453.1208, 41.69395
453.6029, 41.80445
454.0850, 42.20937
454.5671, 42.51374
455.0492, 42.75829
455.5313, 42.82859
456.0135, 42.50547
456.4956, 42.15447
456.9777, 42.15127
457.4598, 42.48660
457.9419, 42.77954
458.4240, 42.61419
458.9062, 41.97888
459.3883, 41.77464
459.8704, 42.45921
460.3525, 43.08185
460.8346, 43.48518
461.3167, 43.69315
461.7989, 43.71162
462.2810, 43.53976
462.7631, 43.30338
463.2452, 43.18198
463.7273, 43.17837
464.2094, 43.27168
464.6916, 43.45837
465.1737, 43.75365
465.6558, 44.27674
466.1379, 44.93690
466.6200, 45.43113
467.1021, 45.52100
467.5843, 45.37002
468.0664, 45.26690
468.5485, 45.20159
469.0306, 45.26000
469.5127, 45.53113
469.9948, 45.92720
470.4770, 46.27442
470.9591, 46.52273
471.4412, 46.89242
471.9233, 47.68827
472.4054, 48.63412
472.8875, 49.15062
473.3697, 49.11526
473.8518, 48.98487
474.3339, 49.20451
474.8160, 49.76551
475.2981, 50.05553
475.7802, 49.59443
476.2624, 49.37124
476.7445, 50.04380
477.2266, 51.23615
477.7087, 52.22982
478.1908, 52.74609
478.6729, 52.96903
479.1551, 53.22444
479.6372, 53.54624
480.1193, 53.82000
480.6014, 53.78208
481.0835, 53.93684
481.5656, 54.66823
482.0478, 55.84431
482.5299, 57.09200
483.0120, 58.18850
483.4941, 59.12502
483.9762, 59.82503
484.4583, 60.23908
484.9405, 60.50628
485.4226, 60.41402
485.9047, 60.36090
486.3868, 60.73562
486.8689, 61.55436
487.3510, 62.40206
487.8332, 62.84680
488.3153, 62.99794
488.7974, 63.43549
489.2795, 64.26801
489.7616, 65.16939
490.2437, 66.12918
490.7259, 66.98536
491.2080, 67.41121
491.6901, 67.12732
492.1722, 66.83459
492.6543, 67.10896
493.1364, 67.77998
493.6186, 68.35515
494.1007, 68.70802
494.5828, 68.96290
495.0649, 69.26116
495.5470, 69.61006
496.0291, 69.90587
496.5113, 69.97530
496.9934, 70.15073
497.4755, 70.93852
497.9576, 71.98570
498.4397, 72.32067
498.9218, 71.43685
499.4040, 69.97275
499.8861, 69.39561
500.3682, 70.47826
500.8503, 71.04468
501.3324, 70.78835
501.8145, 70.34352
502.2967, 70.05222
502.7788, 69.92503
503.2609, 69.83076
503.7430, 69.68164
504.2251, 69.48981
504.7072, 69.29125
505.1894, 69.04221
505.6715, 68.88724
506.1536, 69.00794
506.6357, 69.13980
507.1178, 69.06810
507.5999, 68.76950
508.0821, 68.38150
508.5642, 67.96150
509.0463, 67.53223
509.5284, 67.17196
510.0105, 66.90456
510.4926, 66.62808
510.9748, 66.32139
511.4569, 65.94746
511.9390, 65.40909
512.4211, 64.56454
512.9032, 63.81243
513.3853, 63.35004
513.8674, 63.11116
514.3495, 63.01920
514.8317, 63.05504
515.3138, 63.15891
515.7959, 63.32274
516.2780, 63.57396
516.7601, 63.38863
517.2422, 62.21774
517.7244, 61.29681
518.2065, 61.19706
518.6886, 61.55436
519.1707, 61.83466
519.6528, 61.84651
520.1349, 61.75827
520.6171, 61.84364
521.0992, 62.17601
521.5813, 62.38288
522.0634, 62.25448
522.5455, 62.20936
523.0276, 62.49184
523.5098, 62.95394
523.9919, 63.24300
524.4740, 63.10235
524.9561, 63.01773
525.4382, 63.97496
525.9203, 65.99803
526.4025, 67.28590
526.8846, 67.05098
527.3667, 66.43106
527.8488, 66.63506
528.3309, 67.51410
528.8130, 68.10130
529.2952, 67.72228
529.7773, 67.23101
530.2594, 67.42555
530.7415, 68.22392
531.2236, 69.24478
531.7057, 70.39341
532.1879, 71.46049
532.6700, 72.01801
533.1521, 71.79320
533.6342, 71.65684
534.1163, 71.55846
534.5984, 71.60789
535.0806, 72.05594
535.5627, 72.72782
536.0448, 73.14857
536.5269, 73.01039
537.0090, 72.47566
537.4911, 72.02036
537.9733, 71.62635
538.4554, 71.34840
538.9375, 71.30754
539.4196, 71.28401
539.9017, 71.31618
540.3839, 71.28515
540.8660, 70.77415
541.3481, 69.14126
541.8302, 67.05601
542.3123, 66.21612
542.7944, 66.79471
543.2766, 67.11350
543.7587, 66.51688
544.2408, 65.30436
544.7229, 63.86613
545.2050, 62.15520
545.6871, 60.63594
546.1693, 59.66964
546.6514, 58.85600
547.1335, 57.68291
547.6156, 56.18282
548.0977, 54.75777
548.5798, 53.64126
549.0620, 52.79486
549.5441, 52.09703
550.0262, 51.79935
550.5083, 51.31289
550.9904, 50.47646
551.4725, 49.56910
551.9547, 48.77983
552.4368, 48.12273
552.9189, 47.52236
553.4010, 46.92689
553.8831, 46.34659
554.3652, 45.79848
554.8474, 45.18523
555.3295, 44.85828
555.8116, 45.27838
556.2937, 45.76405
556.7758, 45.80857
557.2579, 45.39479
557.7401, 44.86944
558.2222, 44.34898
558.7043, 43.88176
559.1864, 43.61839
559.6685, 43.56500
560.1506, 43.34475
560.6328, 42.68506
561.1149, 41.83529
561.5970, 41.39134
562.0791, 41.53100
562.5612, 41.43374
563.0433, 40.62097
563.5255, 39.75856
564.0076, 39.53418
564.4897, 39.83197
564.9718, 39.97271
565.4539, 39.50538
565.9360, 38.62042
566.4182, 37.96983
566.9003, 37.70020
567.3824, 37.38512
567.8645, 36.98567
568.3466, 36.54498
568.8287, 36.09532
569.3109, 35.62953
569.7930, 35.11918
570.2751, 34.51233
570.7572, 33.88012
571.2393, 33.33577
571.7214, 32.86833
572.2036, 32.66538
572.6857, 33.00285
573.1678, 33.39759
573.6499, 33.20738
574.1320, 32.45202
574.6141, 31.80850
575.0963, 31.53293
575.5784, 31.38791
576.0605, 31.18002
576.5426, 30.92412
577.0247, 30.72934
577.5068, 30.65893
577.9890, 30.58779
578.4711, 30.25790
578.9532, 29.46757
579.4353, 28.93783
579.9174, 28.85410
580.3995, 28.81061
580.8817, 28.59229
581.3638, 28.27293
581.8459, 28.00710
582.3280, 27.86317
582.8101, 27.83887
583.2922, 28.00249
583.7744, 28.38079
584.2565, 28.53446
584.7386, 28.32180
585.2207, 27.99002
585.7029, 27.66620
586.1850, 27.36375
586.6671, 27.12601
587.1492, 27.00834
587.6313, 26.89549
