##NAMES=Lithiophilite
##RRUFFID=R100096
##IDEAL CHEMISTRY=LiMn^2+^PO_4_
##LOCALITY=Foote mine, Kings Mountain, North Carolina, USA
##OWNER=RRUFF
##SOURCE=
##DESCRIPTION=Parallel aggregate of pale pink acicular crystals, associated with quartz, muscovite, and elongated platy bertrandite, R110025.
##STATUS=The identification of this mineral has been confirmed by single-crystal X-ray diffraction.
##URL=rruff.info/R100096
91.53320, 144.5510
92.01532, 145.3637
92.49744, 145.3455
92.97955, 146.5055
93.46167, 146.9240
93.94379, 145.2625
94.42590, 142.0460
94.90802, 138.4394
95.39014, 135.3762
95.87225, 132.9674
96.35437, 130.6264
96.83649, 128.1194
97.31860, 125.6504
97.80072, 123.4108
98.28284, 121.3294
98.76495, 119.3174
99.24707, 117.6375
99.72919, 116.7229
100.2113, 115.6920
100.6934, 113.9270
101.1755, 111.8140
101.6577, 110.1973
102.1398, 109.8975
102.6219, 111.2730
103.1040, 112.0153
103.5861, 111.4203
104.0682, 110.9066
104.5504, 111.7075
105.0325, 113.8182
105.5146, 115.8183
105.9967, 115.6242
106.4788, 112.3169
106.9609, 108.9726
107.4431, 105.4723
107.9252, 102.0783
108.4073, 99.21536
108.8894, 97.08526
109.3715, 95.37875
109.8536, 93.49368
110.3358, 91.28201
110.8179, 89.38876
111.3000, 88.27171
111.7821, 87.86564
112.2642, 87.54849
112.7463, 87.08974
113.2285, 86.61899
113.7106, 86.26727
114.1927, 86.07076
114.6748, 85.95997
115.1569, 85.87283
115.6390, 85.86294
116.1212, 85.72402
116.6033, 85.25346
117.0854, 84.69333
117.5675, 84.25776
118.0496, 84.03755
118.5317, 84.03793
119.0139, 84.29231
119.4960, 85.10130
119.9781, 85.86646
120.4602, 86.41415
120.9423, 86.84351
121.4244, 87.37115
121.9066, 88.20339
122.3887, 89.39791
122.8708, 90.04662
123.3529, 89.83619
123.8350, 89.50394
124.3171, 89.39394
124.7993, 89.51567
125.2814, 89.64764
125.7635, 89.51962
126.2456, 89.03245
126.7277, 88.92484
127.2098, 89.59615
127.6920, 90.47776
128.1741, 90.89935
128.6562, 90.66129
129.1383, 90.28398
129.6204, 90.48802
130.1025, 91.20132
130.5847, 91.87831
131.0668, 92.21365
131.5489, 92.31960
132.0310, 92.59734
132.5131, 93.21696
132.9952, 93.95646
133.4774, 94.57961
133.9595, 95.08499
134.4416, 95.65317
134.9237, 96.43267
135.4058, 97.43623
135.8879, 98.59843
136.3701, 100.0042
136.8522, 101.5060
137.3343, 102.9748
137.8164, 104.3974
138.2985, 105.9162
138.7806, 107.8432
139.2628, 110.5512
139.7449, 112.9955
140.2270, 114.7905
140.7091, 116.4582
141.1912, 118.7462
141.6733, 121.9746
142.1555, 125.5320
142.6376, 127.2488
143.1197, 126.2556
143.6018, 124.2083
144.0839, 120.9521
144.5660, 116.7641
145.0482, 111.9263
145.5303, 106.5195
146.0124, 100.6764
146.4945, 95.28779
146.9766, 89.92322
147.4587, 85.30793
147.9409, 81.92561
148.4230, 79.64062
148.9051, 77.82959
149.3872, 76.07559
149.8693, 74.49229
150.3514, 73.35828
150.8336, 73.27590
151.3157, 73.28031
151.7978, 72.27554
152.2799, 70.07401
152.7620, 68.02515
153.2441, 67.37285
153.7263, 67.57296
154.2084, 67.80266
154.6905, 67.77058
155.1726, 67.59180
155.6547, 67.51533
156.1368, 67.55685
156.6190, 67.68600
157.1011, 68.04654
157.5832, 68.47530
158.0653, 68.63441
158.5474, 68.12592
159.0295, 67.03038
159.5117, 66.44828
159.9938, 67.06120
160.4759, 67.53624
160.9580, 67.28112
161.4401, 66.46105
161.9222, 65.57038
162.4044, 65.03719
162.8865, 64.89650
163.3686, 64.91611
163.8507, 65.25364
164.3328, 65.60361
164.8149, 65.87070
165.2971, 66.03014
165.7792, 66.07939
166.2613, 66.02062
166.7434, 65.86275
167.2255, 65.52859
167.7076, 64.73125
168.1898, 63.97332
168.6719, 63.70162
169.1540, 63.97507
169.6361, 64.41096
170.1182, 64.47630
170.6003, 64.03193
171.0825, 63.51311
171.5646, 62.73608
172.0467, 61.97150
172.5288, 61.54320
173.0109, 61.55460
173.4930, 61.84387
173.9752, 62.28733
174.4573, 62.97710
174.9394, 63.32632
175.4215, 62.81411
175.9036, 61.84041
176.3857, 61.34022
176.8679, 61.69705
177.3500, 62.44811
177.8321, 63.01502
178.3142, 63.41520
178.7963, 63.61304
179.2784, 63.36058
179.7606, 62.75175
180.2427, 62.61796
180.7248, 63.63084
181.2069, 64.81496
181.6890, 65.27749
182.1711, 64.93626
182.6533, 64.34515
183.1354, 63.95817
183.6175, 63.77461
184.0996, 63.80255
184.5817, 64.40411
185.0638, 65.00394
185.5460, 65.22092
186.0281, 64.97993
186.5102, 64.54430
186.9923, 64.27912
187.4744, 64.25429
187.9565, 64.21931
188.4387, 64.10451
188.9208, 63.99099
189.4029, 63.96300
189.8850, 64.03990
190.3671, 64.14037
190.8492, 64.07356
191.3314, 63.50074
191.8135, 63.34735
192.2956, 64.04984
192.7777, 64.95360
193.2598, 65.43223
193.7419, 65.24702
194.2241, 64.68557
194.7062, 64.44044
195.1883, 64.76512
195.6704, 65.15568
196.1525, 65.61726
196.6346, 66.13361
197.1168, 66.69170
197.5989, 67.28657
198.0810, 67.91309
198.5631, 68.55888
199.0452, 69.23600
199.5273, 69.91552
200.0095, 70.78922
200.4916, 71.63559
200.9737, 72.01942
201.4558, 71.66942
201.9379, 70.89539
202.4200, 70.65562
202.9022, 71.48067
203.3843, 71.84530
203.8664, 70.92135
204.3485, 69.07909
204.8306, 67.33022
205.3127, 66.09724
205.7949, 65.23353
206.2770, 64.32050
206.7591, 63.13914
207.2412, 62.33946
207.7233, 62.52802
208.2054, 63.54990
208.6876, 64.45332
209.1697, 64.87559
209.6518, 64.94030
210.1339, 64.83595
210.6160, 64.48232
211.0981, 64.20889
211.5803, 64.42609
212.0624, 65.13587
212.5445, 65.57189
213.0266, 65.13859
213.5087, 64.50143
213.9908, 64.30692
214.4730, 64.69345
214.9551, 65.27808
215.4372, 65.58404
215.9193, 65.53007
216.4014, 65.71392
216.8836, 66.66256
217.3657, 67.71843
217.8478, 68.40004
218.3299, 68.58308
218.8120, 68.61318
219.2941, 68.93703
219.7763, 69.59281
220.2584, 70.42937
220.7405, 71.77106
221.2226, 73.06232
221.7047, 73.92686
222.1868, 74.26162
222.6690, 74.20071
223.1511, 73.86604
223.6332, 72.96764
224.1153, 72.47607
224.5974, 72.76589
225.0795, 73.24737
225.5617, 73.43417
226.0438, 73.21119
226.5259, 72.89841
227.0080, 73.09933
227.4901, 74.29044
227.9722, 75.12692
228.4544, 75.47543
228.9365, 75.56513
229.4186, 75.57304
229.9007, 75.54782
230.3828, 75.40321
230.8649, 74.92336
231.3471, 73.22058
231.8292, 72.70831
232.3113, 74.36217
232.7934, 76.52673
233.2755, 77.76949
233.7576, 77.71755
234.2398, 77.11652
234.7219, 77.19750
235.2040, 78.47610
235.6861, 79.58069
236.1682, 80.68945
236.6503, 81.53855
237.1325, 81.87460
237.6146, 81.63272
238.0967, 80.92370
238.5788, 79.85019
239.0609, 78.12849
239.5430, 76.71947
240.0252, 76.07084
240.5073, 75.55063
240.9894, 74.43113
241.4715, 72.53685
241.9536, 70.44104
242.4357, 68.89150
242.9179, 67.99664
243.4000, 67.23173
243.8821, 66.65779
244.3642, 66.14632
244.8463, 65.51067
245.3284, 64.70129
245.8106, 63.93959
246.2927, 63.52873
246.7748, 63.48062
247.2569, 63.40844
247.7390, 63.32355
248.2211, 63.15607
248.7033, 62.73458
249.1854, 61.99388
249.6675, 61.30767
250.1496, 61.16258
250.6317, 61.46733
251.1138, 61.62044
251.5960, 61.38374
252.0781, 60.97779
252.5602, 60.71632
253.0423, 60.66006
253.5244, 60.56614
254.0065, 60.11976
254.4887, 59.45353
254.9708, 58.93937
255.4529, 58.71717
255.9350, 58.68107
256.4171, 58.72728
256.8992, 58.87869
257.3813, 58.99302
257.8635, 58.93495
258.3456, 58.77168
258.8277, 58.59742
259.3098, 58.36558
259.7919, 58.18080
260.2740, 58.22166
260.7562, 58.52810
261.2383, 58.88591
261.7204, 59.16597
262.2025, 59.42725
262.6846, 59.75856
263.1667, 60.22658
263.6489, 60.72425
264.1310, 61.17094
264.6131, 61.62445
265.0952, 61.77185
265.5773, 61.19762
266.0594, 60.34982
266.5416, 59.62505
267.0237, 59.13861
267.5058, 58.78107
267.9879, 58.33895
268.4700, 57.73179
268.9521, 57.42453
269.4343, 57.94985
269.9164, 58.65133
270.3985, 59.01854
270.8806, 58.91552
271.3627, 58.61469
271.8448, 58.44608
272.3270, 58.43866
272.8091, 58.40743
273.2912, 58.21824
273.7733, 58.04943
274.2554, 58.05331
274.7375, 58.24813
275.2197, 58.45914
275.7018, 58.45167
276.1839, 58.17387
276.6660, 58.01430
277.1481, 58.12136
277.6302, 58.29819
278.1124, 58.50301
278.5945, 58.70964
279.0766, 58.84147
279.5587, 58.75722
280.0408, 58.41142
280.5229, 58.26391
281.0051, 58.61943
281.4872, 58.93929
281.9693, 58.92784
282.4514, 58.65533
282.9335, 58.40633
283.4156, 58.40336
283.8978, 58.64812
284.3799, 59.06989
284.8620, 60.15973
285.3441, 60.91391
285.8262, 60.78590
286.3083, 60.04803
286.7905, 59.29719
287.2726, 58.93703
287.7547, 58.94170
288.2368, 59.08226
288.7189, 59.41551
289.2010, 59.83581
289.6832, 60.44938
290.1653, 61.09983
290.6474, 61.53331
291.1295, 61.56708
291.6116, 61.33297
292.0938, 61.38835
292.5759, 62.06395
293.0580, 62.55671
293.5401, 62.72973
294.0222, 62.65060
294.5043, 62.30501
294.9865, 61.67130
295.4686, 60.97540
295.9507, 60.82519
296.4328, 61.72433
296.9149, 62.27016
297.3970, 62.15277
297.8792, 61.74463
298.3613, 61.26924
298.8434, 60.81923
299.3255, 60.51612
299.8076, 60.64009
300.2897, 61.56591
300.7719, 62.05489
301.2540, 61.75513
301.7361, 61.28822
302.2182, 61.01076
302.7003, 60.99658
303.1824, 61.13184
303.6646, 61.30949
304.1467, 61.57301
304.6288, 61.71302
305.1109, 61.69611
305.5930, 61.59486
306.0751, 61.49513
306.5573, 61.35549
307.0394, 61.02226
307.5215, 60.30290
308.0036, 59.14962
308.4857, 58.25527
308.9678, 57.64017
309.4500, 57.27946
309.9321, 57.40175
310.4142, 57.77478
310.8963, 57.93988
311.3784, 57.55137
311.8605, 56.70225
312.3427, 56.13906
312.8248, 56.19704
313.3069, 56.15977
313.7890, 55.79140
314.2711, 55.28465
314.7532, 54.87583
315.2354, 54.68142
315.7175, 54.67580
316.1996, 54.82549
316.6817, 55.46366
317.1638, 55.70282
317.6459, 55.02484
318.1281, 54.17896
318.6102, 53.94289
319.0923, 54.53024
319.5744, 55.40700
320.0565, 55.65243
320.5386, 54.91290
321.0208, 54.34525
321.5029, 54.04522
321.9850, 53.86295
322.4671, 53.67344
322.9492, 53.48143
323.4313, 53.41923
323.9135, 53.71360
324.3956, 54.51600
324.8777, 54.89003
325.3598, 54.37020
325.8419, 53.85293
326.3240, 53.68779
326.8062, 53.82475
327.2883, 54.01838
327.7704, 54.06065
328.2525, 53.97118
328.7346, 54.10948
329.2167, 54.86781
329.6989, 55.40976
330.1810, 55.52529
330.6631, 55.30419
331.1452, 54.81459
331.6273, 54.04686
332.1094, 53.19012
332.5916, 52.88219
333.0737, 53.56701
333.5558, 54.05299
334.0379, 54.10054
334.5200, 53.90719
335.0021, 53.59998
335.4843, 53.22813
335.9664, 52.87991
336.4485, 52.71342
336.9306, 52.78959
337.4127, 52.86652
337.8948, 53.01805
338.3770, 53.09054
338.8591, 52.88224
339.3412, 52.43561
339.8233, 52.06934
340.3055, 52.14323
340.7876, 52.70274
341.2697, 53.24479
341.7518, 53.93619
342.2339, 54.42521
342.7160, 54.48129
343.1982, 54.22192
343.6803, 53.93915
344.1624, 53.84735
344.6445, 53.88844
345.1266, 53.73940
345.6087, 53.18381
346.0909, 52.79950
346.5730, 52.82158
347.0551, 53.07750
347.5372, 53.37235
348.0193, 53.64383
348.5014, 53.86979
348.9836, 54.04860
349.4657, 54.23794
349.9478, 54.17921
350.4299, 53.55864
350.9120, 52.81348
351.3941, 52.20351
351.8763, 51.78442
352.3584, 51.57920
352.8405, 51.64911
353.3226, 51.99952
353.8047, 52.46328
354.2868, 53.27812
354.7690, 53.91898
355.2511, 53.95669
355.7332, 53.50458
356.2153, 53.06367
356.6974, 52.94158
357.1795, 53.08896
357.6617, 53.36128
358.1438, 53.87643
358.6259, 54.25985
359.1080, 54.16423
359.5901, 53.82980
360.0722, 53.65008
360.5544, 53.84254
361.0365, 54.15972
361.5186, 54.22076
362.0007, 53.98646
362.4828, 53.80289
362.9649, 53.85406
363.4471, 54.00623
363.9292, 54.14085
364.4113, 54.27071
364.8934, 54.26911
365.3755, 53.89356
365.8576, 53.24279
366.3398, 52.90903
366.8219, 53.19145
367.3040, 53.58554
367.7861, 53.42365
368.2682, 52.77400
368.7503, 52.42664
369.2325, 52.99713
369.7146, 53.98185
370.1967, 54.49321
370.6788, 54.41035
371.1609, 54.13765
371.6430, 53.93979
372.1252, 53.79463
372.6073, 53.63150
373.0894, 53.23411
373.5715, 52.98186
374.0536, 53.35630
374.5357, 54.23649
375.0179, 54.89124
375.5000, 54.91385
375.9821, 54.52712
376.4642, 54.20800
376.9463, 53.76438
377.4284, 53.78841
377.9106, 55.04490
378.3927, 56.79591
378.8748, 57.66322
379.3569, 57.22441
379.8390, 56.29480
380.3211, 55.89092
380.8033, 56.11395
381.2854, 56.31581
381.7675, 56.37835
382.2496, 56.45645
382.7317, 56.71720
383.2138, 57.14367
383.6960, 57.54179
384.1781, 57.75637
384.6602, 57.80307
385.1423, 57.93793
385.6244, 58.29464
386.1065, 58.57351
386.5887, 58.68505
387.0708, 58.65001
387.5529, 58.45385
388.0350, 58.07819
388.5171, 57.66994
388.9992, 57.54840
389.4814, 57.81672
389.9635, 58.25749
390.4456, 58.98588
390.9277, 59.80780
391.4098, 60.61425
391.8919, 61.36293
392.3741, 62.00887
392.8562, 62.47186
393.3383, 62.70026
393.8204, 63.16665
394.3025, 64.26031
394.7846, 65.17437
395.2668, 65.52377
395.7489, 65.50493
396.2310, 65.50396
396.7131, 65.74660
397.1952, 66.16308
397.6773, 66.52277
398.1595, 66.87770
398.6416, 67.07492
399.1237, 66.84023
399.6058, 66.61269
400.0879, 66.81810
400.5700, 67.53285
401.0522, 68.43295
401.5343, 69.15347
402.0164, 69.67079
402.4985, 70.12199
402.9806, 70.39011
403.4627, 70.70776
403.9449, 71.14810
404.4270, 71.71712
404.9091, 72.42019
405.3912, 73.30885
405.8733, 74.31131
406.3554, 75.23486
406.8376, 76.16584
407.3197, 76.80981
407.8018, 76.80319
408.2839, 76.56940
408.7660, 76.51553
409.2481, 76.74122
409.7303, 77.12946
410.2124, 77.65703
410.6945, 78.30376
411.1766, 78.74216
411.6587, 78.76881
412.1408, 78.74134
412.6230, 79.03291
413.1051, 79.59895
413.5872, 80.11297
414.0693, 80.22651
414.5514, 80.28247
415.0335, 80.95784
415.5157, 82.35252
415.9978, 83.66687
416.4799, 84.33177
416.9620, 84.52007
417.4441, 84.83469
417.9262, 85.40166
418.4084, 85.95847
418.8905, 86.21571
419.3726, 86.34062
419.8547, 86.85275
420.3368, 88.01234
420.8189, 89.34327
421.3011, 89.96317
421.7832, 89.58149
422.2653, 89.76398
422.7474, 91.28989
423.2295, 93.03426
423.7116, 93.97103
424.1938, 94.08271
424.6759, 94.02977
425.1580, 94.29961
425.6401, 94.88103
426.1222, 95.58590
426.6043, 96.63467
427.0865, 97.53059
427.5686, 98.06175
428.0507, 98.39552
428.5328, 98.77660
429.0149, 99.29818
429.4970, 99.86169
429.9792, 100.2672
430.4613, 100.2764
430.9434, 100.6724
431.4255, 101.8483
431.9076, 102.9987
432.3897, 103.7431
432.8719, 104.0547
433.3540, 104.0167
433.8361, 103.6167
434.3182, 102.9403
434.8003, 102.6134
435.2824, 102.7948
435.7646, 103.1120
436.2467, 103.7700
436.7288, 104.3592
437.2109, 104.3292
437.6930, 103.5007
438.1751, 102.4819
438.6573, 102.1708
439.1394, 102.6510
439.6215, 102.6252
440.1036, 101.5680
440.5857, 100.3397
441.0678, 99.50333
441.5500, 98.98438
442.0321, 98.46833
442.5142, 97.93847
442.9963, 97.25365
443.4784, 96.00941
443.9605, 94.11264
444.4427, 92.39869
444.9248, 91.51213
445.4069, 90.95468
445.8890, 89.83031
446.3711, 87.89774
446.8532, 85.96240
447.3354, 84.45966
447.8175, 83.27980
448.2996, 82.24426
448.7817, 81.34497
449.2638, 80.38645
449.7459, 79.07619
450.2281, 77.38494
450.7102, 76.07819
451.1923, 75.46479
451.6744, 74.99320
452.1565, 74.34138
452.6386, 73.54260
453.1208, 72.74550
453.6029, 72.01616
454.0850, 71.36376
454.5671, 70.81789
455.0492, 70.69972
455.5313, 70.23352
456.0135, 68.93546
456.4956, 67.60493
456.9777, 67.07172
457.4598, 67.30941
457.9419, 67.44566
458.4240, 66.52312
458.9062, 64.51576
459.3883, 63.50891
459.8704, 64.58997
460.3525, 65.49315
460.8346, 65.83942
461.3167, 65.69156
461.7989, 65.05672
462.2810, 63.92602
462.7631, 62.65036
463.2452, 61.76634
463.7273, 61.31992
464.2094, 60.98973
464.6916, 60.70587
465.1737, 60.57402
465.6558, 60.77384
466.1379, 61.20141
466.6200, 61.49638
467.1021, 61.42919
467.5843, 61.11635
468.0664, 60.71012
468.5485, 60.16650
469.0306, 59.86355
469.5127, 60.21827
469.9948, 60.76732
470.4770, 60.73216
470.9591, 59.91785
471.4412, 59.16205
471.9233, 58.98914
472.4054, 59.13194
472.8875, 59.02323
473.3697, 58.53949
473.8518, 58.20663
474.3339, 58.65479
474.8160, 59.85482
475.2981, 60.29055
475.7802, 59.09101
476.2624, 58.06257
476.7445, 58.22050
477.2266, 59.09043
477.7087, 59.80224
478.1908, 60.01814
478.6729, 59.81404
479.1551, 59.28731
479.6372, 58.14635
480.1193, 57.37189
480.6014, 56.99725
481.0835, 56.90063
481.5656, 57.17450
482.0478, 57.67841
482.5299, 58.11578
483.0120, 58.29871
483.4941, 58.25467
483.9762, 58.05733
484.4583, 57.60505
484.9405, 57.20774
485.4226, 56.93546
485.9047, 56.72910
486.3868, 56.55736
486.8689, 56.41191
487.3510, 56.28543
487.8332, 56.23058
488.3153, 56.20565
488.7974, 55.93316
489.2795, 55.24055
489.7616, 54.70383
490.2437, 54.77283
490.7259, 55.20551
491.2080, 55.72241
491.6901, 56.45186
492.1722, 56.90012
492.6543, 56.46933
493.1364, 55.45860
493.6186, 54.73101
494.1007, 54.51015
494.5828, 54.58695
495.0649, 54.79430
495.5470, 55.15415
496.0291, 55.33429
496.5113, 55.06609
496.9934, 54.85651
497.4755, 55.19674
497.9576, 55.83229
498.4397, 56.01348
498.9218, 55.34469
499.4040, 54.36775
499.8861, 54.36116
500.3682, 56.34013
500.8503, 57.41117
501.3324, 57.01512
501.8145, 56.30476
502.2967, 55.85614
502.7788, 55.72840
503.2609, 55.79549
503.7430, 55.98804
504.2251, 56.28623
504.7072, 56.63955
505.1894, 57.14596
505.6715, 57.48193
506.1536, 57.44630
506.6357, 57.29110
507.1178, 57.15031
507.5999, 57.05564
508.0821, 57.10631
508.5642, 57.58770
509.0463, 58.26681
509.5284, 58.40125
510.0105, 57.86430
510.4926, 57.14653
510.9748, 56.42809
511.4569, 55.77716
511.9390, 55.33837
512.4211, 55.18048
512.9032, 55.13060
513.3853, 55.21279
513.8674, 55.31831
514.3495, 55.23717
514.8317, 54.92194
515.3138, 54.52049
515.7959, 54.17470
516.2780, 53.88658
516.7601, 53.61285
517.2422, 53.09834
517.7244, 52.87739
518.2065, 53.45457
518.6886, 54.32940
519.1707, 54.73905
519.6528, 54.42674
520.1349, 53.80718
520.6171, 53.53359
521.0992, 53.73945
521.5813, 53.74517
522.0634, 53.14238
522.5455, 52.74966
523.0276, 53.10258
523.5098, 53.84526
523.9919, 54.24540
524.4740, 53.88311
524.9561, 53.32854
525.4382, 53.56145
525.9203, 54.60095
526.4025, 55.21435
526.8846, 54.93175
527.3667, 54.37321
527.8488, 54.16072
528.3309, 54.23440
528.8130, 54.20112
529.2952, 53.74640
529.7773, 53.28863
530.2594, 53.20187
530.7415, 53.45738
531.2236, 53.95473
531.7057, 54.72496
532.1879, 55.49354
532.6700, 55.71179
533.1521, 55.09836
533.6342, 54.54019
534.1163, 53.81506
534.5984, 53.35275
535.0806, 53.69574
535.5627, 54.56915
536.0448, 55.15640
536.5269, 54.92252
537.0090, 54.17923
537.4911, 53.89149
537.9733, 54.29120
538.4554, 54.63653
538.9375, 54.86144
539.4196, 54.99212
539.9017, 55.05950
540.3839, 55.05097
540.8660, 54.88714
541.3481, 54.26654
541.8302, 53.59473
542.3123, 54.04809
542.7944, 55.81297
543.2766, 57.04121
543.7587, 56.81146
544.2408, 55.81071
544.7229, 54.95332
545.2050, 54.20045
545.6871, 53.87213
546.1693, 54.45143
546.6514, 55.28241
547.1335, 55.63006
547.6156, 55.49417
548.0977, 55.26753
548.5798, 55.16638
549.0620, 55.18143
549.5441, 55.28158
550.0262, 55.51445
550.5083, 55.77472
550.9904, 56.15656
551.4725, 56.49362
551.9547, 56.63676
552.4368, 56.60659
552.9189, 56.51672
553.4010, 56.42109
553.8831, 56.36618
554.3652, 56.56717
554.8474, 57.12676
555.3295, 57.68133
555.8116, 58.11266
556.2937, 58.52559
556.7758, 59.05997
557.2579, 59.69503
557.7401, 60.16014
558.2222, 60.15108
558.7043, 59.92645
559.1864, 59.93089
559.6685, 60.17683
560.1506, 60.52807
560.6328, 60.96142
561.1149, 61.41614
561.5970, 61.76403
562.0791, 62.00023
562.5612, 62.16999
563.0433, 61.94693
563.5255, 61.90718
564.0076, 62.87244
564.4897, 64.57130
564.9718, 65.77508
565.4539, 65.63427
565.9360, 64.63882
566.4182, 64.47731
566.9003, 65.75630
567.3824, 66.73490
567.8645, 66.89528
568.3466, 67.09196
568.8287, 67.97231
569.3109, 69.41063
569.7930, 70.78293
570.2751, 71.70969
570.7572, 72.33223
571.2393, 72.77697
571.7214, 72.98031
572.2036, 73.78493
572.6857, 75.77908
573.1678, 78.13371
573.6499, 79.86808
574.1320, 80.99592
574.6141, 82.09859
575.0963, 83.32054
575.5784, 84.58476
576.0605, 85.88991
576.5426, 87.18581
577.0247, 88.37392
577.5068, 89.42062
577.9890, 90.22777
578.4711, 90.57192
578.9532, 90.15786
579.4353, 90.03114
579.9174, 90.54530
580.3995, 90.95839
580.8817, 90.70776
581.3638, 90.12504
581.8459, 89.91172
582.3280, 90.42400
582.8101, 91.23409
583.2922, 91.64970
583.7744, 91.64353
584.2565, 91.59486
584.7386, 91.40222
585.2207, 91.39449
585.7029, 91.94913
586.1850, 92.85640
586.6671, 93.59325
587.1492, 94.10226
587.6313, 94.31848
