##NAMES=Lithiomarsturite
##RRUFFID=R100094
##IDEAL CHEMISTRY=LiCa_2_Mn^2+^_2_Si_5_O_14_(OH)
##LOCALITY=Foote mine, Kings Mountain, North Carolina, USA
##OWNER=RRUFF
##SOURCE=
##DESCRIPTION=Tan colored prismatic crystals, associated with brannockite, fluorapatite, albite, bavenite, and pyrite
##STATUS=The identification of this mineral has been confirmed by single-crystal X-ray diffraction.
##URL=rruff.info/R100094
123.2761, 12.97864
123.7582, 13.51643
124.2404, 14.05663
124.7225, 14.24547
125.2046, 14.25341
125.6867, 14.28605
126.1688, 14.38091
126.6509, 14.48873
127.1331, 14.51988
127.6152, 14.49852
128.0973, 14.54458
128.5794, 14.77320
129.0615, 15.13120
129.5436, 15.46521
130.0258, 15.65909
130.5079, 15.90543
130.9900, 16.71921
131.4721, 18.09286
131.9542, 19.37735
132.4363, 19.86261
132.9185, 19.66802
133.4006, 19.58603
133.8827, 19.68242
134.3648, 20.07415
134.8469, 21.32993
135.3290, 23.56618
135.8112, 26.16639
136.2933, 28.40434
136.7754, 30.26551
137.2575, 32.15924
137.7396, 34.24720
138.2217, 36.48893
138.7039, 38.65746
139.1860, 40.62481
139.6681, 42.72824
140.1502, 45.61825
140.6323, 49.45853
141.1144, 53.44579
141.5966, 57.36660
142.0787, 61.27147
142.5608, 64.78010
143.0429, 67.85330
143.5250, 70.54832
144.0071, 73.04707
144.4893, 75.64800
144.9714, 77.53004
145.4535, 78.11935
145.9356, 76.24378
146.4177, 75.45895
146.8998, 76.19611
147.3820, 78.10376
147.8641, 79.75672
148.3462, 80.82929
148.8283, 81.93259
149.3104, 83.42581
149.7925, 85.93970
150.2747, 88.00388
150.7568, 89.12478
151.2389, 89.42897
151.7210, 90.49937
152.2031, 92.71877
152.6852, 95.45229
153.1674, 98.33345
153.6495, 101.9521
154.1316, 105.0618
154.6137, 107.2950
155.0958, 108.6326
155.5779, 110.0853
156.0601, 112.1250
156.5422, 114.1748
157.0243, 115.7163
157.5064, 115.7205
157.9885, 116.0789
158.4706, 117.6957
158.9528, 120.8382
159.4349, 123.1685
159.9170, 123.1209
160.3991, 122.2298
160.8812, 122.2689
161.3633, 124.2014
161.8455, 126.8086
162.3276, 129.7541
162.8097, 133.0812
163.2918, 136.1537
163.7739, 138.5642
164.2560, 140.3989
164.7382, 141.1548
165.2203, 141.4491
165.7024, 141.9313
166.1845, 142.7740
166.6666, 143.9717
167.1487, 145.5970
167.6309, 148.0471
168.1130, 150.9769
168.5951, 153.6119
169.0772, 155.5035
169.5593, 157.0300
170.0414, 158.4739
170.5236, 159.8335
171.0057, 161.2494
171.4878, 163.1089
171.9699, 165.1952
172.4520, 166.8059
172.9341, 167.2393
173.4163, 167.1178
173.8984, 167.1864
174.3805, 167.7103
174.8626, 168.2885
175.3447, 168.5566
175.8268, 168.5519
176.3090, 168.4469
176.7911, 168.4951
177.2732, 168.4983
177.7553, 168.0744
178.2374, 166.8398
178.7195, 165.4571
179.2017, 164.9735
179.6838, 165.2834
180.1659, 165.4334
180.6480, 164.6179
181.1301, 163.0903
181.6122, 161.3662
182.0944, 159.2831
182.5765, 157.3105
183.0586, 156.6246
183.5407, 157.2180
184.0228, 157.4792
184.5049, 155.4997
184.9871, 151.8546
185.4692, 148.7008
185.9513, 146.9102
186.4334, 145.9568
186.9155, 144.5415
187.3976, 142.6391
187.8798, 140.6477
188.3619, 138.8952
188.8440, 137.3689
189.3261, 136.1170
189.8082, 135.2647
190.2903, 134.6867
190.7725, 133.9411
191.2546, 133.0150
191.7367, 131.9391
192.2188, 130.6876
192.7009, 129.2584
193.1830, 127.8156
193.6652, 126.2968
194.1473, 124.7622
194.6294, 123.7543
195.1115, 123.3486
195.5936, 123.2095
196.0757, 123.0020
196.5579, 122.7336
197.0400, 122.1996
197.5221, 120.9938
198.0042, 119.2190
198.4863, 118.6777
198.9684, 119.7307
199.4506, 121.2264
199.9327, 121.1458
200.4148, 119.2614
200.8969, 117.8882
201.3790, 118.3727
201.8611, 120.8146
202.3433, 122.0245
202.8254, 121.7848
203.3075, 120.6622
203.7896, 119.4473
204.2717, 118.0449
204.7538, 116.9781
205.2360, 116.4335
205.7181, 116.4069
206.2002, 117.0182
206.6823, 118.5158
207.1644, 120.3500
207.6465, 121.4592
208.1287, 121.6727
208.6108, 121.7347
209.0929, 121.9054
209.5750, 122.1579
210.0571, 122.7040
210.5392, 123.6233
211.0214, 124.7707
211.5035, 125.9577
211.9856, 127.3499
212.4677, 128.3102
212.9498, 128.3113
213.4319, 126.9170
213.9140, 126.4672
214.3962, 127.2571
214.8783, 128.8257
215.3604, 130.1139
215.8425, 131.0703
216.3246, 131.8843
216.8067, 132.5845
217.2889, 133.0351
217.7710, 133.8176
218.2531, 135.0206
218.7352, 136.5117
219.2173, 138.0742
219.6994, 139.8992
220.1816, 141.4351
220.6637, 142.3729
221.1458, 142.4047
221.6279, 142.7498
222.1100, 143.5483
222.5921, 144.6244
223.0743, 145.5339
223.5564, 146.1868
224.0385, 146.8300
224.5206, 147.4984
225.0027, 148.0123
225.4848, 149.0998
225.9670, 151.0165
226.4491, 153.4224
226.9312, 155.5142
227.4133, 157.3722
227.8954, 158.7633
228.3775, 159.5195
228.8597, 159.4897
229.3418, 159.1528
229.8239, 158.1608
230.3060, 156.9473
230.7881, 156.8834
231.2702, 158.8348
231.7524, 160.6134
232.2345, 161.0519
232.7166, 159.1035
233.1987, 158.3521
233.6808, 159.4715
234.1629, 161.6218
234.6451, 162.5182
235.1272, 161.5058
235.6093, 160.2121
236.0914, 159.3354
236.5735, 159.0237
237.0556, 158.7788
237.5378, 158.4403
238.0199, 158.2199
238.5020, 158.7569
238.9841, 160.7354
239.4662, 162.4761
239.9483, 163.1944
240.4305, 162.3209
240.9126, 161.7261
241.3947, 161.3489
241.8768, 161.2639
242.3589, 161.7213
242.8410, 163.0621
243.3232, 164.4112
243.8053, 165.3226
244.2874, 165.3867
244.7695, 166.0450
245.2516, 167.6033
245.7337, 169.6377
246.2159, 171.1568
246.6980, 171.7868
247.1801, 172.4972
247.6622, 173.7377
248.1443, 175.8422
248.6264, 177.5253
249.1086, 178.5771
249.5907, 179.3246
250.0728, 180.4642
250.5549, 182.2189
251.0370, 183.9881
251.5191, 185.4962
252.0013, 186.5375
252.4834, 187.9631
252.9655, 189.8447
253.4476, 192.0471
253.9297, 194.3241
254.4118, 196.6305
254.8940, 199.0435
255.3761, 201.6203
255.8582, 204.4436
256.3403, 207.1483
256.8224, 209.7434
257.3046, 212.2181
257.7867, 214.4242
258.2688, 216.1205
258.7509, 218.1049
259.2330, 220.6774
259.7151, 223.9615
260.1973, 227.2765
260.6794, 230.7525
261.1615, 234.0739
261.6436, 236.5136
262.1257, 237.5263
262.6078, 239.0674
263.0900, 242.0497
263.5721, 246.7911
264.0542, 249.9560
264.5363, 251.0330
265.0184, 251.1760
265.5005, 251.9605
265.9827, 253.6994
266.4648, 255.1361
266.9469, 255.8682
267.4290, 255.8802
267.9111, 255.8801
268.3932, 256.0606
268.8754, 255.9236
269.3575, 254.7590
269.8396, 252.2439
270.3217, 249.8725
270.8038, 248.1676
271.2859, 247.0508
271.7681, 245.1800
272.2502, 242.3877
272.7323, 239.1957
273.2144, 236.2494
273.6965, 233.6337
274.1786, 230.7123
274.6608, 227.1609
275.1429, 223.1355
275.6250, 219.7722
276.1071, 217.2914
276.5892, 214.8538
277.0714, 211.6026
277.5535, 207.3891
278.0356, 203.6004
278.5177, 200.5036
278.9998, 198.0223
279.4819, 196.0185
279.9641, 194.6175
280.4462, 193.0990
280.9283, 190.6324
281.4104, 187.1908
281.8925, 184.3418
282.3746, 182.3570
282.8568, 181.0924
283.3389, 180.2416
283.8210, 179.8374
284.3031, 179.5826
284.7852, 179.3736
285.2673, 179.1939
285.7495, 178.6358
286.2316, 177.4364
286.7137, 176.1330
287.1958, 175.9286
287.6779, 176.8455
288.1600, 178.1065
288.6422, 179.2813
289.1243, 180.4001
289.6064, 181.5810
290.0885, 182.8309
290.5706, 184.1885
291.0527, 185.7194
291.5349, 187.4221
292.0170, 189.2669
292.4991, 191.2706
292.9812, 193.4119
293.4633, 195.5403
293.9454, 197.6632
294.4276, 199.7785
294.9097, 201.8189
295.3918, 203.8135
295.8739, 205.8779
296.3560, 208.0355
296.8381, 210.2996
297.3203, 212.5964
297.8024, 214.8921
298.2845, 217.4025
298.7666, 220.6225
299.2487, 224.2735
299.7308, 227.5977
300.2130, 229.9926
300.6951, 231.9770
301.1772, 234.5576
301.6593, 237.7223
302.1414, 240.7346
302.6235, 242.8212
303.1057, 244.2794
303.5878, 245.6482
304.0699, 247.1270
304.5520, 248.6171
305.0341, 250.1997
305.5162, 251.8112
305.9984, 252.9480
306.4805, 252.6716
306.9626, 251.8315
307.4447, 251.6466
307.9268, 252.7185
308.4089, 254.1740
308.8911, 255.4425
309.3732, 256.4984
309.8553, 257.2431
310.3374, 257.3035
310.8195, 257.1676
311.3016, 257.3428
311.7838, 258.0426
312.2659, 258.8377
312.7480, 259.4222
313.2301, 259.8812
313.7122, 260.4341
314.1943, 261.3243
314.6765, 262.2664
315.1586, 263.0064
315.6407, 263.4053
316.1228, 263.9691
316.6049, 264.9100
317.0870, 266.1786
317.5692, 267.6744
318.0513, 269.6960
318.5334, 271.6717
319.0155, 273.0950
319.4976, 273.7738
319.9797, 275.1051
320.4619, 277.7665
320.9440, 281.2510
321.4261, 284.9514
321.9082, 288.7715
322.3903, 292.7628
322.8724, 297.1546
323.3546, 301.9614
323.8367, 306.2355
324.3188, 309.4440
324.8009, 312.2664
325.2830, 315.1870
325.7651, 318.8028
326.2473, 321.9704
326.7294, 324.7669
327.2115, 327.1123
327.6936, 328.3622
328.1757, 328.3894
328.6578, 327.3669
329.1400, 325.3731
329.6221, 322.4316
330.1042, 318.5163
330.5863, 313.3407
331.0684, 307.1508
331.5505, 300.7838
332.0327, 294.1469
332.5148, 287.3688
332.9969, 280.3479
333.4790, 272.8936
333.9611, 266.1106
334.4432, 260.2284
334.9254, 254.8589
335.4075, 249.3544
335.8896, 243.3059
336.3717, 237.8932
336.8538, 233.8932
337.3359, 231.5357
337.8180, 227.4866
338.3001, 220.9978
338.7823, 213.9788
339.2644, 208.7076
339.7465, 205.4071
340.2286, 202.7888
340.7107, 200.8721
341.1928, 199.4406
341.6750, 196.9926
342.1571, 193.2107
342.6392, 189.4626
343.1213, 186.9697
343.6034, 185.7706
344.0855, 184.4761
344.5677, 182.8126
345.0498, 180.9852
345.5319, 179.2695
346.0140, 177.6366
346.4961, 176.9139
346.9782, 178.4095
347.4604, 181.5256
347.9425, 183.1002
348.4246, 182.5910
348.9067, 181.2988
349.3888, 180.9385
349.8709, 181.4211
350.3531, 182.2481
350.8352, 183.0903
351.3173, 184.1190
351.7994, 185.7582
352.2815, 188.0443
352.7636, 190.6077
353.2458, 193.2083
353.7279, 195.8201
354.2100, 198.3808
354.6921, 200.6478
355.1742, 202.9879
355.6563, 205.8416
356.1385, 209.1749
356.6206, 212.7486
357.1027, 216.3897
357.5848, 220.1719
358.0669, 224.2833
358.5490, 229.0782
359.0312, 233.7297
359.5133, 237.6111
359.9954, 240.9160
360.4775, 244.3031
360.9596, 248.6862
361.4417, 252.8595
361.9239, 255.9964
362.4060, 257.7716
362.8881, 259.0780
363.3702, 260.1443
363.8523, 260.9708
364.3344, 261.5587
364.8166, 262.4821
365.2987, 262.6555
365.7808, 261.4859
366.2629, 258.8143
366.7450, 256.0004
367.2271, 253.2437
367.7093, 250.4481
368.1914, 247.5291
368.6735, 244.0176
369.1556, 240.8797
369.6377, 238.4344
370.1198, 236.5832
370.6020, 234.6748
371.0841, 232.6822
371.5662, 230.6488
372.0483, 228.5050
372.5304, 225.3373
373.0125, 223.8355
373.4947, 224.8614
373.9768, 227.3052
374.4589, 228.5284
374.9410, 228.0402
375.4231, 227.3242
375.9052, 226.7637
376.3874, 226.2647
376.8695, 226.8244
377.3516, 228.8144
377.8337, 231.2498
378.3158, 232.9138
378.7979, 233.7139
379.2801, 234.4147
379.7622, 234.9371
380.2443, 235.5529
380.7264, 237.7408
381.2085, 241.6416
381.6906, 246.0604
382.1728, 250.1862
382.6549, 254.0361
383.1370, 257.4375
383.6191, 260.3214
384.1012, 262.8782
384.5833, 265.3860
385.0655, 267.8658
385.5476, 270.4371
386.0297, 273.6790
386.5118, 276.9762
386.9939, 279.1781
387.4760, 280.0980
387.9582, 280.4796
388.4403, 281.1181
388.9224, 281.7390
389.4045, 281.7791
389.8866, 281.3648
390.3687, 280.0329
390.8509, 277.0775
391.3330, 272.6239
391.8151, 267.8607
392.2972, 263.5008
392.7793, 259.2071
393.2614, 254.6366
393.7436, 249.7154
394.2257, 244.5745
394.7078, 239.2342
395.1899, 233.7487
395.6720, 228.2590
396.1541, 222.6135
396.6363, 217.1336
397.1184, 211.9199
397.6005, 206.8973
398.0826, 202.4173
398.5647, 198.7193
399.0468, 195.5285
399.5290, 192.5114
400.0111, 189.9359
400.4932, 187.2155
400.9753, 184.0905
401.4574, 180.5515
401.9395, 177.5475
402.4217, 175.2702
402.9038, 173.2936
403.3859, 171.3613
403.8680, 169.5163
404.3501, 167.5668
404.8322, 165.3657
405.3144, 163.1227
405.7965, 161.5202
406.2786, 160.7036
406.7607, 160.0125
407.2428, 159.2139
407.7249, 158.3062
408.2071, 157.1284
408.6892, 155.6017
409.1713, 154.0162
409.6534, 152.7113
410.1355, 151.6871
410.6176, 150.8223
411.0998, 150.1172
411.5819, 149.5172
412.0640, 149.0196
412.5461, 148.6136
413.0282, 147.8999
413.5103, 146.1212
413.9925, 143.8797
414.4746, 142.5493
414.9567, 142.6037
415.4388, 142.8622
415.9209, 141.9397
416.4030, 140.2426
416.8852, 138.7542
417.3673, 138.3231
417.8494, 138.0940
418.3315, 137.3675
418.8136, 136.1067
419.2957, 134.5819
419.7779, 132.6442
420.2600, 130.6521
420.7421, 128.9963
421.2242, 127.8422
421.7063, 126.9666
422.1884, 126.5953
422.6706, 126.5136
423.1527, 125.8923
423.6348, 123.8267
424.1169, 121.7632
424.5990, 120.3775
425.0811, 120.0568
425.5633, 119.6718
426.0454, 119.0611
426.5275, 118.4162
427.0096, 117.9959
427.4917, 118.0994
427.9738, 117.9637
428.4560, 117.2972
428.9381, 116.1354
429.4202, 115.4149
429.9023, 115.1766
430.3844, 115.3113
430.8665, 115.9280
431.3487, 117.2014
431.8308, 117.7983
432.3129, 117.4035
432.7950, 116.5386
433.2771, 116.3632
433.7592, 116.9085
434.2414, 117.3612
434.7235, 117.1274
435.2056, 116.4647
435.6877, 116.5692
436.1698, 117.4982
436.6519, 118.4621
437.1341, 118.5475
437.6162, 118.0363
438.0983, 117.7026
438.5804, 117.9248
439.0625, 118.1704
439.5446, 117.6224
440.0268, 116.5124
440.5089, 115.6845
440.9910, 116.1019
441.4731, 116.7457
441.9552, 116.6265
442.4373, 115.5061
442.9195, 114.3374
443.4016, 113.4224
443.8837, 112.7927
444.3658, 112.4866
444.8479, 113.2094
445.3300, 113.5591
445.8122, 112.7674
446.2943, 111.0057
446.7764, 109.7830
447.2585, 109.8157
447.7406, 110.0577
448.2227, 110.0069
448.7049, 109.6399
449.1870, 108.9951
449.6691, 107.8352
450.1512, 106.5181
450.6333, 105.6940
451.1154, 105.7093
451.5976, 105.4240
452.0797, 104.3026
452.5618, 102.4576
453.0439, 101.7385
453.5260, 102.3785
454.0081, 103.4501
454.4903, 104.4113
454.9724, 105.2496
455.4545, 105.5165
455.9366, 105.0265
456.4187, 104.2117
456.9008, 103.8448
457.3830, 103.8633
457.8651, 103.8203
458.3472, 103.0798
458.8293, 102.2654
459.3114, 102.8775
459.7935, 104.8997
460.2757, 106.6433
460.7578, 106.4292
461.2399, 105.1767
461.7220, 104.1516
462.2041, 103.7118
462.6862, 103.5072
463.1684, 103.2595
463.6505, 103.0679
464.1326, 103.1703
464.6147, 103.9361
465.0968, 104.7947
465.5789, 105.4504
466.0611, 105.8620
466.5432, 106.2240
467.0253, 106.7076
467.5074, 107.0803
467.9895, 107.1418
468.4716, 106.3436
468.9538, 105.9282
469.4359, 106.1144
469.9180, 106.7330
470.4001, 107.2445
470.8822, 107.5466
471.3643, 107.9258
471.8465, 108.5784
472.3286, 109.5674
472.8107, 110.1340
473.2928, 110.1693
473.7749, 110.0416
474.2570, 110.2081
474.7392, 110.6660
475.2213, 110.8722
475.7034, 110.5071
476.1855, 110.0682
476.6676, 110.7405
477.1497, 112.4298
477.6319, 114.1973
478.1140, 115.7242
478.5961, 116.9008
479.0782, 117.3210
479.5603, 116.8944
480.0424, 116.6159
480.5246, 117.4495
481.0067, 118.8982
481.4888, 120.2418
481.9709, 120.8917
482.4530, 121.8024
482.9352, 123.9586
483.4173, 126.8632
483.8994, 128.9448
484.3815, 128.9876
484.8636, 128.6491
485.3457, 128.6511
485.8279, 129.0528
486.3100, 129.7935
486.7921, 131.2771
487.2742, 132.8731
487.7563, 134.0198
488.2384, 134.3514
488.7206, 134.8697
489.2027, 135.7138
489.6848, 136.8198
490.1669, 137.9392
490.6490, 139.0162
491.1311, 140.2554
491.6133, 141.9457
492.0954, 144.0780
492.5775, 145.3461
493.0596, 145.6235
493.5417, 145.5420
494.0238, 145.6937
494.5060, 146.0599
494.9881, 146.5635
495.4702, 147.1961
495.9523, 147.9332
496.4344, 148.7144
496.9165, 149.5562
497.3987, 150.5161
497.8808, 152.0184
498.3629, 153.4283
498.8450, 153.9668
499.3271, 153.5410
499.8092, 153.2219
500.2914, 153.9021
500.7735, 154.8040
501.2556, 155.2030
501.7377, 154.5369
502.2198, 153.8037
502.7019, 153.0935
503.1841, 152.4621
503.6662, 152.0563
504.1483, 152.1359
504.6304, 152.1736
505.1125, 152.0208
505.5946, 151.6669
506.0768, 151.3212
506.5589, 151.1357
507.0410, 150.7385
507.5231, 149.6376
508.0052, 147.6358
508.4873, 146.3473
508.9695, 146.1690
509.4516, 146.4718
509.9337, 145.9822
510.4158, 144.7488
510.8979, 143.6991
511.3800, 143.4015
511.8622, 143.5054
512.3443, 143.1061
512.8264, 142.2395
513.3085, 141.5283
513.7906, 141.6555
514.2728, 142.1430
514.7549, 142.3520
515.2370, 142.0971
515.7191, 141.7515
516.2012, 141.5178
516.6833, 141.3529
517.1655, 141.1864
517.6476, 141.1353
518.1297, 140.9426
518.6118, 140.3231
519.0939, 139.3501
519.5760, 138.8373
520.0582, 139.2659
520.5403, 139.8549
521.0224, 140.3059
521.5045, 140.6526
521.9866, 140.7092
522.4688, 140.1812
522.9509, 139.6863
523.4330, 140.1366
523.9151, 141.7632
524.3972, 142.9947
524.8793, 143.2669
525.3615, 143.1136
525.8436, 144.1998
526.3257, 146.5080
526.8078, 148.5457
527.2899, 149.0401
527.7720, 148.7235
528.2542, 149.4795
528.7363, 151.4246
529.2184, 153.1821
529.7005, 153.1178
530.1826, 152.2867
530.6647, 152.1493
531.1469, 153.4143
531.6290, 154.9473
532.1111, 156.1613
532.5932, 157.1827
533.0753, 158.2649
533.5574, 159.9552
534.0396, 161.2725
534.5217, 161.6046
535.0038, 160.8472
535.4859, 160.8398
535.9680, 162.3938
536.4501, 163.9446
536.9323, 164.5361
537.4144, 163.7280
537.8965, 163.1896
538.3786, 162.9631
538.8607, 162.9947
539.3428, 163.3795
539.8250, 164.1814
540.3071, 164.5205
540.7892, 164.1292
541.2713, 163.1348
541.7534, 161.5766
542.2355, 159.5300
542.7177, 157.7962
543.1998, 157.3462
543.6819, 157.3439
544.1640, 156.4909
544.6461, 154.6745
545.1282, 152.4426
545.6104, 149.9674
546.0925, 147.3911
546.5746, 144.8728
547.0567, 142.4867
547.5388, 140.1231
548.0209, 137.7751
548.5031, 135.4465
548.9852, 133.0948
549.4673, 130.1230
549.9494, 127.7743
550.4315, 126.6657
550.9136, 126.7891
551.3958, 126.0269
551.8779, 123.9774
552.3600, 121.7148
552.8421, 119.8611
553.3242, 118.4375
553.8063, 117.2019
554.2885, 116.1168
554.7706, 115.2943
555.2527, 115.0262
555.7348, 115.2226
556.2169, 115.3270
556.6990, 115.1799
557.1812, 114.8501
557.6633, 114.3298
558.1454, 113.6811
558.6275, 113.1356
559.1096, 113.0044
559.5917, 112.9129
560.0739, 112.6071
560.5560, 112.0689
561.0381, 111.2597
561.5202, 109.7855
562.0023, 108.2745
562.4844, 107.2121
562.9666, 107.1243
563.4487, 106.7847
563.9308, 105.8914
564.4129, 104.8120
564.8950, 104.2049
565.3771, 104.5703
565.8593, 104.2385
566.3414, 102.5297
566.8235, 99.87942
567.3056, 98.29248
567.7877, 97.90150
568.2698, 97.67313
568.7520, 96.97047
569.2341, 95.92165
569.7162, 95.06777
570.1983, 94.45573
570.6804, 93.66509
571.1625, 92.06924
571.6447, 90.10278
572.1268, 88.43127
572.6089, 87.11694
573.0910, 86.30801
573.5731, 86.67900
574.0552, 87.52039
574.5374, 87.59813
575.0195, 85.57522
575.5016, 83.67235
575.9837, 82.72881
576.4658, 82.68472
576.9479, 82.46148
577.4301, 81.89674
577.9122, 81.31981
578.3943, 80.93596
578.8764, 80.86321
579.3585, 80.24290
579.8406, 78.87867
580.3228, 77.40273
580.8049, 76.54530
581.2870, 76.26883
581.7691, 75.79671
582.2512, 74.90140
582.7333, 73.99430
583.2155, 73.81339
583.6975, 74.15923
584.1796, 74.39902
584.6617, 74.12586
585.1439, 73.69753
585.6260, 73.47819
586.1081, 73.41091
586.5902, 73.20655
587.0723, 72.44621
587.5544, 71.73386
588.0366, 71.45940
588.5187, 71.78944
589.0008, 72.01561
589.4829, 71.83475
589.9650, 71.66936
590.4471, 71.89507
590.9293, 72.90916
591.4114, 73.34917
591.8935, 72.93008
592.3756, 72.12013
592.8577, 71.77156
593.3398, 71.91093
593.8220, 72.11028
594.3041, 72.25594
594.7862, 72.35480
595.2683, 72.40884
595.7504, 72.42292
596.2325, 72.43618
596.7147, 72.46972
597.1968, 72.51785
597.6789, 72.64339
598.1610, 72.85484
598.6431, 72.85901
599.1252, 71.88274
599.6074, 70.98695
600.0895, 71.13536
600.5716, 73.50280
601.0537, 75.16660
601.5358, 75.38687
602.0179, 74.78050
602.5001, 74.00587
602.9822, 72.55264
603.4643, 72.05099
603.9464, 73.19894
604.4285, 75.31036
604.9106, 75.92300
605.3928, 74.83589
605.8749, 74.02251
606.3570, 74.74041
606.8391, 76.46314
607.3212, 77.49747
607.8033, 77.85643
608.2855, 77.92240
608.7676, 77.63493
609.2497, 77.37415
609.7318, 77.71337
610.2139, 78.85306
610.6960, 80.02622
611.1782, 80.90373
611.6603, 81.55380
612.1424, 82.05810
612.6245, 82.22472
613.1066, 82.49010
613.5887, 82.87519
614.0709, 83.40173
614.5530, 84.17240
615.0351, 85.33735
615.5172, 86.38734
615.9993, 87.13506
616.4814, 87.66122
616.9636, 88.47461
617.4457, 89.60263
617.9278, 90.67850
618.4099, 91.40736
618.8920, 91.90096
619.3741, 92.42665
