##NAMES=Litidionite
##RRUFFID=R130088
##IDEAL CHEMISTRY=KNaCu^2+^Si_4_O_10_
##LOCALITY=Mt Vesuvius, Napoli, Italy
##OWNER=RRUFF
##SOURCE=Rock Currier
##DESCRIPTION=Blue to green glassy, massive. The two larger fragments are from the 1880 eruption. The smaller fragment is from 1873.
##STATUS=The identification of this mineral has been confirmed by single-crystal X-ray diffraction.
##URL=rruff.info/R130088
8.936163e+001, 0.000000e+000
8.984375e+001, 7.290814e+002
9.032587e+001, 7.374548e+002
9.080798e+001, 7.389108e+002
9.129010e+001, 7.302229e+002
9.177222e+001, 7.183796e+002
9.225433e+001, 7.125855e+002
9.273645e+001, 7.123121e+002
9.321857e+001, 7.121562e+002
9.370068e+001, 7.072308e+002
9.418280e+001, 6.986656e+002
9.466492e+001, 6.901545e+002
9.514703e+001, 6.830183e+002
9.562915e+001, 6.767701e+002
9.611127e+001, 6.697122e+002
9.659338e+001, 6.617679e+002
9.707550e+001, 6.536106e+002
9.755762e+001, 6.454681e+002
9.803973e+001, 6.372863e+002
9.852185e+001, 6.306127e+002
9.900397e+001, 6.265117e+002
9.948608e+001, 6.250336e+002
9.996820e+001, 6.236364e+002
1.004503e+002, 6.230277e+002
1.009324e+002, 6.216385e+002
1.014146e+002, 6.157250e+002
1.018967e+002, 6.040292e+002
1.023788e+002, 5.912561e+002
1.028609e+002, 5.790004e+002
1.033430e+002, 5.663109e+002
1.038251e+002, 5.579043e+002
1.043073e+002, 5.560246e+002
1.047894e+002, 5.590167e+002
1.052715e+002, 5.580897e+002
1.057536e+002, 5.511514e+002
1.062357e+002, 5.425944e+002
1.067178e+002, 5.352305e+002
1.072000e+002, 5.289037e+002
1.076821e+002, 5.241332e+002
1.081642e+002, 5.218350e+002
1.086463e+002, 5.223154e+002
1.091284e+002, 5.210218e+002
1.096105e+002, 5.185399e+002
1.100927e+002, 5.140083e+002
1.105748e+002, 5.066628e+002
1.110569e+002, 4.910086e+002
1.115390e+002, 4.776976e+002
1.120211e+002, 4.699441e+002
1.125032e+002, 4.695546e+002
1.129854e+002, 4.684460e+002
1.134675e+002, 4.659654e+002
1.139496e+002, 4.620751e+002
1.144317e+002, 4.566653e+002
1.149138e+002, 4.466572e+002
1.153959e+002, 4.374181e+002
1.158781e+002, 4.317666e+002
1.163602e+002, 4.317848e+002
1.168423e+002, 4.317635e+002
1.173244e+002, 4.298204e+002
1.178065e+002, 4.263307e+002
1.182886e+002, 4.222489e+002
1.187708e+002, 4.177843e+002
1.192529e+002, 4.129772e+002
1.197350e+002, 4.077436e+002
1.202171e+002, 4.007293e+002
1.206992e+002, 3.948658e+002
1.211813e+002, 3.933797e+002
1.216635e+002, 3.954280e+002
1.221456e+002, 3.963958e+002
1.226277e+002, 3.923312e+002
1.231098e+002, 3.857145e+002
1.235919e+002, 3.798086e+002
1.240740e+002, 3.757605e+002
1.245562e+002, 3.729288e+002
1.250383e+002, 3.713268e+002
1.255204e+002, 3.709376e+002
1.260025e+002, 3.699441e+002
1.264846e+002, 3.658579e+002
1.269667e+002, 3.598263e+002
1.274489e+002, 3.547180e+002
1.279310e+002, 3.527321e+002
1.284131e+002, 3.523516e+002
1.288952e+002, 3.506399e+002
1.293773e+002, 3.474211e+002
1.298594e+002, 3.432929e+002
1.303416e+002, 3.382870e+002
1.308237e+002, 3.326481e+002
1.313058e+002, 3.278268e+002
1.317879e+002, 3.248631e+002
1.322700e+002, 3.234716e+002
1.327521e+002, 3.224215e+002
1.332343e+002, 3.218218e+002
1.337164e+002, 3.211651e+002
1.341985e+002, 3.192645e+002
1.346806e+002, 3.160318e+002
1.351627e+002, 3.127059e+002
1.356448e+002, 3.104120e+002
1.361270e+002, 3.091690e+002
1.366091e+002, 3.068236e+002
1.370912e+002, 3.025222e+002
1.375733e+002, 2.972388e+002
1.380554e+002, 2.943987e+002
1.385375e+002, 2.947588e+002
1.390197e+002, 2.953398e+002
1.395018e+002, 2.934666e+002
1.399839e+002, 2.883955e+002
1.404660e+002, 2.842279e+002
1.409481e+002, 2.818201e+002
1.414302e+002, 2.810516e+002
1.419124e+002, 2.802238e+002
1.423945e+002, 2.794579e+002
1.428766e+002, 2.784747e+002
1.433587e+002, 2.769770e+002
1.438408e+002, 2.748585e+002
1.443229e+002, 2.724420e+002
1.448051e+002, 2.695998e+002
1.452872e+002, 2.661165e+002
1.457693e+002, 2.636581e+002
1.462514e+002, 2.627656e+002
1.467335e+002, 2.625240e+002
1.472156e+002, 2.617298e+002
1.476978e+002, 2.598790e+002
1.481799e+002, 2.581147e+002
1.486620e+002, 2.568531e+002
1.491441e+002, 2.566386e+002
1.496262e+002, 2.554448e+002
1.501083e+002, 2.520105e+002
1.505905e+002, 2.478163e+002
1.510726e+002, 2.454616e+002
1.515547e+002, 2.473437e+002
1.520368e+002, 2.490130e+002
1.525189e+002, 2.491504e+002
1.530010e+002, 2.472141e+002
1.534832e+002, 2.446059e+002
1.539653e+002, 2.404574e+002
1.544474e+002, 2.356387e+002
1.549295e+002, 2.322390e+002
1.554116e+002, 2.318418e+002
1.558937e+002, 2.319562e+002
1.563759e+002, 2.314802e+002
1.568580e+002, 2.300358e+002
1.573401e+002, 2.282966e+002
1.578222e+002, 2.257707e+002
1.583043e+002, 2.228708e+002
1.587864e+002, 2.211178e+002
1.592686e+002, 2.219680e+002
1.597507e+002, 2.234860e+002
1.602328e+002, 2.244394e+002
1.607149e+002, 2.243008e+002
1.611970e+002, 2.237979e+002
1.616791e+002, 2.228564e+002
1.621613e+002, 2.216003e+002
1.626434e+002, 2.207621e+002
1.631255e+002, 2.209563e+002
1.636076e+002, 2.215760e+002
1.640897e+002, 2.220802e+002
1.645718e+002, 2.225445e+002
1.650540e+002, 2.226468e+002
1.655361e+002, 2.221581e+002
1.660182e+002, 2.210867e+002
1.665003e+002, 2.197675e+002
1.669824e+002, 2.183481e+002
1.674645e+002, 2.167775e+002
1.679467e+002, 2.150149e+002
1.684288e+002, 2.124170e+002
1.689109e+002, 2.100326e+002
1.693930e+002, 2.087214e+002
1.698751e+002, 2.085388e+002
1.703572e+002, 2.086763e+002
1.708394e+002, 2.083591e+002
1.713215e+002, 2.080002e+002
1.718036e+002, 2.082955e+002
1.722857e+002, 2.111497e+002
1.727678e+002, 2.139780e+002
1.732499e+002, 2.134572e+002
1.737321e+002, 2.089116e+002
1.742142e+002, 2.045655e+002
1.746963e+002, 2.049502e+002
1.751784e+002, 2.083332e+002
1.756605e+002, 2.106178e+002
1.761426e+002, 2.076691e+002
1.766248e+002, 2.030611e+002
1.771069e+002, 2.020373e+002
1.775890e+002, 2.055667e+002
1.780711e+002, 2.105373e+002
1.785532e+002, 2.138350e+002
1.790353e+002, 2.158172e+002
1.795175e+002, 2.176377e+002
1.799996e+002, 2.197101e+002
1.804817e+002, 2.221091e+002
1.809638e+002, 2.251726e+002
1.814459e+002, 2.291482e+002
1.819280e+002, 2.332532e+002
1.824102e+002, 2.366033e+002
1.828923e+002, 2.391890e+002
1.833744e+002, 2.413499e+002
1.838565e+002, 2.431062e+002
1.843386e+002, 2.445679e+002
1.848207e+002, 2.460349e+002
1.853029e+002, 2.476391e+002
1.857850e+002, 2.491227e+002
1.862671e+002, 2.498330e+002
1.867492e+002, 2.498146e+002
1.872313e+002, 2.500647e+002
1.877134e+002, 2.514271e+002
1.881956e+002, 2.537145e+002
1.886777e+002, 2.559869e+002
1.891598e+002, 2.581475e+002
1.896419e+002, 2.601886e+002
1.901240e+002, 2.620945e+002
1.906061e+002, 2.638871e+002
1.910883e+002, 2.655868e+002
1.915704e+002, 2.670970e+002
1.920525e+002, 2.684763e+002
1.925346e+002, 2.700909e+002
1.930167e+002, 2.717875e+002
1.934988e+002, 2.737165e+002
1.939810e+002, 2.762532e+002
1.944631e+002, 2.793121e+002
1.949452e+002, 2.825267e+002
1.954273e+002, 2.843966e+002
1.959094e+002, 2.849644e+002
1.963915e+002, 2.855838e+002
1.968737e+002, 2.864610e+002
1.973558e+002, 2.875871e+002
1.978379e+002, 2.892112e+002
1.983200e+002, 2.915258e+002
1.988021e+002, 2.934805e+002
1.992842e+002, 2.937829e+002
1.997664e+002, 2.923370e+002
2.002485e+002, 2.915313e+002
2.007306e+002, 2.919880e+002
2.012127e+002, 2.934751e+002
2.016948e+002, 2.947869e+002
2.021769e+002, 2.959630e+002
2.026591e+002, 2.968981e+002
2.031412e+002, 2.973747e+002
2.036233e+002, 2.973194e+002
2.041054e+002, 2.974227e+002
2.045875e+002, 2.978641e+002
2.050696e+002, 2.986055e+002
2.055518e+002, 2.993558e+002
2.060339e+002, 3.001480e+002
2.065160e+002, 3.008692e+002
2.069981e+002, 3.013801e+002
2.074802e+002, 3.016342e+002
2.079623e+002, 3.018379e+002
2.084445e+002, 3.019044e+002
2.089266e+002, 3.018599e+002
2.094087e+002, 3.025880e+002
2.098908e+002, 3.044136e+002
2.103729e+002, 3.064126e+002
2.108550e+002, 3.075197e+002
2.113372e+002, 3.074924e+002
2.118193e+002, 3.074138e+002
2.123014e+002, 3.075604e+002
2.127835e+002, 3.079310e+002
2.132656e+002, 3.080840e+002
2.137477e+002, 3.077776e+002
2.142299e+002, 3.075878e+002
2.147120e+002, 3.081770e+002
2.151941e+002, 3.096263e+002
2.156762e+002, 3.116393e+002
2.161583e+002, 3.144230e+002
2.166404e+002, 3.180402e+002
2.171226e+002, 3.207197e+002
2.176047e+002, 3.222664e+002
2.180868e+002, 3.231194e+002
2.185689e+002, 3.237820e+002
2.190510e+002, 3.242017e+002
2.195331e+002, 3.245349e+002
2.200153e+002, 3.245896e+002
2.204974e+002, 3.242274e+002
2.209795e+002, 3.253668e+002
2.214616e+002, 3.289769e+002
2.219437e+002, 3.330913e+002
2.224258e+002, 3.351174e+002
2.229080e+002, 3.339317e+002
2.233901e+002, 3.330782e+002
2.238722e+002, 3.337015e+002
2.243543e+002, 3.360738e+002
2.248364e+002, 3.375144e+002
2.253185e+002, 3.376470e+002
2.258007e+002, 3.371804e+002
2.262828e+002, 3.370099e+002
2.267649e+002, 3.373197e+002
2.272470e+002, 3.375342e+002
2.277291e+002, 3.374317e+002
2.282112e+002, 3.369291e+002
2.286934e+002, 3.367231e+002
2.291755e+002, 3.369861e+002
2.296576e+002, 3.373878e+002
2.301397e+002, 3.374137e+002
2.306218e+002, 3.365799e+002
2.311039e+002, 3.362794e+002
2.315861e+002, 3.370074e+002
2.320682e+002, 3.389700e+002
2.325503e+002, 3.405843e+002
2.330324e+002, 3.415842e+002
2.335145e+002, 3.424713e+002
2.339966e+002, 3.439444e+002
2.344788e+002, 3.463881e+002
2.349609e+002, 3.487226e+002
2.354430e+002, 3.505776e+002
2.359251e+002, 3.518222e+002
2.364072e+002, 3.535652e+002
2.368893e+002, 3.561086e+002
2.373715e+002, 3.588971e+002
2.378536e+002, 3.613062e+002
2.383357e+002, 3.635945e+002
2.388178e+002, 3.650653e+002
2.392999e+002, 3.653545e+002
2.397820e+002, 3.642679e+002
2.402642e+002, 3.634568e+002
2.407463e+002, 3.631765e+002
2.412284e+002, 3.629423e+002
2.417105e+002, 3.621654e+002
2.421926e+002, 3.607231e+002
2.426747e+002, 3.589354e+002
2.431569e+002, 3.567042e+002
2.436390e+002, 3.538808e+002
2.441211e+002, 3.518155e+002
2.446032e+002, 3.508640e+002
2.450853e+002, 3.503324e+002
2.455674e+002, 3.493583e+002
2.460496e+002, 3.474784e+002
2.465317e+002, 3.460317e+002
2.470138e+002, 3.454581e+002
2.474959e+002, 3.458692e+002
2.479780e+002, 3.458835e+002
2.484601e+002, 3.453207e+002
2.489423e+002, 3.445570e+002
2.494244e+002, 3.439718e+002
2.499065e+002, 3.435117e+002
2.503886e+002, 3.433651e+002
2.508707e+002, 3.436871e+002
2.513528e+002, 3.445092e+002
2.518350e+002, 3.450238e+002
2.523171e+002, 3.449508e+002
2.527992e+002, 3.448667e+002
2.532813e+002, 3.454196e+002
2.537634e+002, 3.469400e+002
2.542455e+002, 3.483544e+002
2.547277e+002, 3.494281e+002
2.552098e+002, 3.501551e+002
2.556919e+002, 3.508649e+002
2.561740e+002, 3.515560e+002
2.566561e+002, 3.522176e+002
2.571382e+002, 3.527993e+002
2.576204e+002, 3.532041e+002
2.581025e+002, 3.537562e+002
2.585846e+002, 3.544701e+002
2.590667e+002, 3.553535e+002
2.595488e+002, 3.566172e+002
2.600309e+002, 3.583971e+002
2.605131e+002, 3.603248e+002
2.609952e+002, 3.621046e+002
2.614773e+002, 3.638368e+002
2.619594e+002, 3.651674e+002
2.624415e+002, 3.658718e+002
2.629236e+002, 3.660508e+002
2.634058e+002, 3.666235e+002
2.638879e+002, 3.676188e+002
2.643700e+002, 3.689761e+002
2.648521e+002, 3.708775e+002
2.653342e+002, 3.736939e+002
2.658163e+002, 3.757315e+002
2.662985e+002, 3.765897e+002
2.667806e+002, 3.764427e+002
2.672627e+002, 3.762765e+002
2.677448e+002, 3.761196e+002
2.682269e+002, 3.758770e+002
2.687090e+002, 3.754615e+002
2.691912e+002, 3.748304e+002
2.696733e+002, 3.742025e+002
2.701554e+002, 3.737015e+002
2.706375e+002, 3.731932e+002
2.711196e+002, 3.722047e+002
2.716017e+002, 3.707659e+002
2.720839e+002, 3.687665e+002
2.725660e+002, 3.659115e+002
2.730481e+002, 3.619551e+002
2.735302e+002, 3.586854e+002
2.740123e+002, 3.562965e+002
2.744944e+002, 3.546576e+002
2.749766e+002, 3.535643e+002
2.754587e+002, 3.532394e+002
2.759408e+002, 3.526209e+002
2.764229e+002, 3.508306e+002
2.769050e+002, 3.477215e+002
2.773871e+002, 3.452552e+002
2.778693e+002, 3.436487e+002
2.783514e+002, 3.426693e+002
2.788335e+002, 3.419288e+002
2.793156e+002, 3.414823e+002
2.797977e+002, 3.409145e+002
2.802798e+002, 3.399832e+002
2.807620e+002, 3.386947e+002
2.812441e+002, 3.371686e+002
2.817262e+002, 3.352520e+002
2.822083e+002, 3.333768e+002
2.826904e+002, 3.325185e+002
2.831725e+002, 3.327551e+002
2.836547e+002, 3.328452e+002
2.841368e+002, 3.319871e+002
2.846189e+002, 3.302938e+002
2.851010e+002, 3.290627e+002
2.855831e+002, 3.283705e+002
2.860652e+002, 3.280020e+002
2.865474e+002, 3.277722e+002
2.870295e+002, 3.276749e+002
2.875116e+002, 3.273983e+002
2.879937e+002, 3.265921e+002
2.884758e+002, 3.254083e+002
2.889579e+002, 3.248373e+002
2.894401e+002, 3.249394e+002
2.899222e+002, 3.252989e+002
2.904043e+002, 3.254811e+002
2.908864e+002, 3.254944e+002
2.913685e+002, 3.253959e+002
2.918506e+002, 3.251721e+002
2.923328e+002, 3.248565e+002
2.928149e+002, 3.244918e+002
2.932970e+002, 3.240598e+002
2.937791e+002, 3.237616e+002
2.942612e+002, 3.239210e+002
2.947433e+002, 3.244273e+002
2.952255e+002, 3.248286e+002
2.957076e+002, 3.248573e+002
2.961897e+002, 3.247531e+002
2.966718e+002, 3.249998e+002
2.971539e+002, 3.255895e+002
2.976360e+002, 3.263108e+002
2.981182e+002, 3.271118e+002
2.986003e+002, 3.279067e+002
2.990824e+002, 3.284795e+002
2.995645e+002, 3.286636e+002
3.000466e+002, 3.287173e+002
3.005287e+002, 3.289423e+002
3.010109e+002, 3.293415e+002
3.014930e+002, 3.299556e+002
3.019751e+002, 3.309694e+002
3.024572e+002, 3.321899e+002
3.029393e+002, 3.332893e+002
3.034214e+002, 3.342508e+002
3.039036e+002, 3.350033e+002
3.043857e+002, 3.353413e+002
3.048678e+002, 3.353678e+002
3.053499e+002, 3.354627e+002
3.058320e+002, 3.359774e+002
3.063141e+002, 3.366462e+002
3.067963e+002, 3.370800e+002
3.072784e+002, 3.371057e+002
3.077605e+002, 3.372303e+002
3.082426e+002, 3.380050e+002
3.087247e+002, 3.392130e+002
3.092068e+002, 3.403365e+002
3.096890e+002, 3.409923e+002
3.101711e+002, 3.415086e+002
3.106532e+002, 3.420984e+002
3.111353e+002, 3.427456e+002
3.116174e+002, 3.436388e+002
3.120995e+002, 3.450784e+002
3.125817e+002, 3.468028e+002
3.130638e+002, 3.484112e+002
3.135459e+002, 3.493523e+002
3.140280e+002, 3.504322e+002
3.145101e+002, 3.524712e+002
3.149922e+002, 3.556082e+002
3.154744e+002, 3.581263e+002
3.159565e+002, 3.584606e+002
3.164386e+002, 3.579733e+002
3.169207e+002, 3.582094e+002
3.174028e+002, 3.607453e+002
3.178849e+002, 3.631144e+002
3.183671e+002, 3.641590e+002
3.188492e+002, 3.639333e+002
3.193313e+002, 3.637368e+002
3.198134e+002, 3.640534e+002
3.202955e+002, 3.645507e+002
3.207776e+002, 3.649585e+002
3.212598e+002, 3.653037e+002
3.217419e+002, 3.654593e+002
3.222240e+002, 3.653638e+002
3.227061e+002, 3.650347e+002
3.231882e+002, 3.645801e+002
3.236703e+002, 3.641880e+002
3.241525e+002, 3.635501e+002
3.246346e+002, 3.624753e+002
3.251167e+002, 3.602299e+002
3.255988e+002, 3.585141e+002
3.260809e+002, 3.580700e+002
3.265630e+002, 3.583205e+002
3.270452e+002, 3.576757e+002
3.275273e+002, 3.547413e+002
3.280094e+002, 3.520381e+002
3.284915e+002, 3.505571e+002
3.289736e+002, 3.511923e+002
3.294557e+002, 3.510938e+002
3.299379e+002, 3.498149e+002
3.304200e+002, 3.479373e+002
3.309021e+002, 3.464008e+002
3.313842e+002, 3.452862e+002
3.318663e+002, 3.443813e+002
3.323484e+002, 3.436498e+002
3.328306e+002, 3.431214e+002
3.333127e+002, 3.426631e+002
3.337948e+002, 3.424590e+002
3.342769e+002, 3.421526e+002
3.347590e+002, 3.412795e+002
3.352411e+002, 3.394619e+002
3.357233e+002, 3.379284e+002
3.362054e+002, 3.370498e+002
3.366875e+002, 3.367673e+002
3.371696e+002, 3.361154e+002
3.376517e+002, 3.348526e+002
3.381339e+002, 3.336993e+002
3.386160e+002, 3.333508e+002
3.390981e+002, 3.339859e+002
3.395802e+002, 3.345387e+002
3.400623e+002, 3.348687e+002
3.405444e+002, 3.350034e+002
3.410266e+002, 3.350566e+002
3.415087e+002, 3.350569e+002
3.419908e+002, 3.348213e+002
3.424729e+002, 3.339955e+002
3.429550e+002, 3.325881e+002
3.434371e+002, 3.318004e+002
3.439193e+002, 3.317783e+002
3.444014e+002, 3.323205e+002
3.448835e+002, 3.332555e+002
3.453656e+002, 3.345792e+002
3.458477e+002, 3.357580e+002
3.463298e+002, 3.365912e+002
3.468120e+002, 3.370824e+002
3.472941e+002, 3.370949e+002
3.477762e+002, 3.365622e+002
3.482583e+002, 3.359273e+002
3.487404e+002, 3.357601e+002
3.492225e+002, 3.359662e+002
3.497047e+002, 3.361324e+002
3.501868e+002, 3.360513e+002
3.506689e+002, 3.358547e+002
3.511510e+002, 3.357793e+002
3.516331e+002, 3.358220e+002
3.521152e+002, 3.358832e+002
3.525974e+002, 3.357858e+002
3.530795e+002, 3.356564e+002
3.535616e+002, 3.357746e+002
3.540437e+002, 3.364529e+002
3.545258e+002, 3.371019e+002
3.550079e+002, 3.370346e+002
3.554901e+002, 3.363744e+002
3.559722e+002, 3.356755e+002
3.564543e+002, 3.353180e+002
3.569364e+002, 3.350815e+002
3.574185e+002, 3.346463e+002
3.579006e+002, 3.337631e+002
3.583828e+002, 3.332134e+002
3.588649e+002, 3.338384e+002
3.593470e+002, 3.351418e+002
3.598291e+002, 3.361207e+002
3.603112e+002, 3.360730e+002
3.607933e+002, 3.357666e+002
3.612755e+002, 3.355850e+002
3.617576e+002, 3.355480e+002
3.622397e+002, 3.357454e+002
3.627218e+002, 3.363725e+002
3.632039e+002, 3.371905e+002
3.636860e+002, 3.379337e+002
3.641682e+002, 3.388149e+002
3.646503e+002, 3.393369e+002
3.651324e+002, 3.390713e+002
3.656145e+002, 3.380650e+002
3.660966e+002, 3.374971e+002
3.665787e+002, 3.378790e+002
3.670609e+002, 3.385629e+002
3.675430e+002, 3.391335e+002
3.680251e+002, 3.395303e+002
3.685072e+002, 3.398479e+002
3.689893e+002, 3.399518e+002
3.694714e+002, 3.399588e+002
3.699536e+002, 3.402618e+002
3.704357e+002, 3.410939e+002
3.709178e+002, 3.419815e+002
3.713999e+002, 3.427262e+002
3.718820e+002, 3.432590e+002
3.723641e+002, 3.438518e+002
3.728463e+002, 3.445766e+002
3.733284e+002, 3.453055e+002
3.738105e+002, 3.458464e+002
3.742926e+002, 3.461684e+002
3.747747e+002, 3.463546e+002
3.752568e+002, 3.463411e+002
3.757390e+002, 3.461210e+002
3.762211e+002, 3.462419e+002
3.767032e+002, 3.467241e+002
3.771853e+002, 3.474999e+002
3.776674e+002, 3.486339e+002
3.781495e+002, 3.501942e+002
3.786317e+002, 3.515132e+002
3.791138e+002, 3.524207e+002
3.795959e+002, 3.530399e+002
3.800780e+002, 3.537349e+002
3.805601e+002, 3.544998e+002
3.810422e+002, 3.554036e+002
3.815244e+002, 3.564675e+002
3.820065e+002, 3.577125e+002
3.824886e+002, 3.591797e+002
3.829707e+002, 3.608931e+002
3.834528e+002, 3.628256e+002
3.839349e+002, 3.651334e+002
3.844171e+002, 3.677357e+002
3.848992e+002, 3.701542e+002
3.853813e+002, 3.720558e+002
3.858634e+002, 3.736890e+002
3.863455e+002, 3.755295e+002
3.868276e+002, 3.775869e+002
3.873098e+002, 3.796893e+002
3.877919e+002, 3.818788e+002
3.882740e+002, 3.840043e+002
3.887561e+002, 3.857885e+002
3.892382e+002, 3.871277e+002
3.897203e+002, 3.881169e+002
3.902025e+002, 3.886931e+002
3.906846e+002, 3.889161e+002
3.911667e+002, 3.890947e+002
3.916488e+002, 3.898846e+002
3.921309e+002, 3.904300e+002
3.926130e+002, 3.899259e+002
3.930952e+002, 3.878717e+002
3.935773e+002, 3.855497e+002
3.940594e+002, 3.834956e+002
3.945415e+002, 3.815615e+002
3.950236e+002, 3.794704e+002
3.955057e+002, 3.772777e+002
3.959879e+002, 3.747997e+002
3.964700e+002, 3.716078e+002
3.969521e+002, 3.673868e+002
3.974342e+002, 3.643951e+002
3.979163e+002, 3.641215e+002
3.983984e+002, 3.646866e+002
3.988806e+002, 3.643754e+002
3.993627e+002, 3.625617e+002
3.998448e+002, 3.604373e+002
4.003269e+002, 3.578070e+002
4.008090e+002, 3.548106e+002
4.012911e+002, 3.526093e+002
4.017733e+002, 3.514806e+002
4.022554e+002, 3.507900e+002
4.027375e+002, 3.502740e+002
4.032196e+002, 3.501126e+002
4.037017e+002, 3.496156e+002
4.041838e+002, 3.485256e+002
4.046660e+002, 3.472959e+002
4.051481e+002, 3.469149e+002
4.056302e+002, 3.476254e+002
4.061123e+002, 3.482705e+002
4.065944e+002, 3.483062e+002
4.070765e+002, 3.477861e+002
4.075587e+002, 3.478979e+002
4.080408e+002, 3.487157e+002
4.085229e+002, 3.498684e+002
4.090050e+002, 3.511448e+002
4.094871e+002, 3.525063e+002
4.099692e+002, 3.534845e+002
4.104514e+002, 3.538622e+002
4.109335e+002, 3.539301e+002
4.114156e+002, 3.544276e+002
4.118977e+002, 3.552911e+002
4.123798e+002, 3.558494e+002
4.128619e+002, 3.553955e+002
4.133441e+002, 3.543669e+002
4.138262e+002, 3.536283e+002
4.143083e+002, 3.533165e+002
