##NAMES=Livingstonite
##RRUFFID=R050453
##IDEAL CHEMISTRY=HgSb_4_S_8_
##LOCALITY=Huitzuco, Guerrero, Mexico
##OWNER=RRUFF
##SOURCE=University of Arizona Mineral Museum
##DESCRIPTION=Aggregate of gray columnar crystals
##STATUS=The identification of this mineral has been confirmed by X-ray diffraction and chemical analysis
##URL=rruff.info/R050453
##MEASURED CHEMISTRY=Hg_1.00_Sb_4.00_S_8.00_
103.685, 123.699
104.167, 135.686
104.649, 147.328
105.131, 158.060
105.613, 172.870
106.095, 193.131
106.577, 217.014
107.060, 241.672
107.542, 266.236
108.024, 292.358
108.506, 321.222
108.988, 358.448
109.470, 389.763
109.952, 411.382
110.434, 425.869
110.916, 443.431
111.399, 464.319
111.881, 488.453
112.363, 516.046
112.845, 553.155
113.327, 587.377
113.809, 614.201
114.291, 633.127
114.773, 656.370
115.256, 693.427
115.738, 734.422
116.220, 767.995
116.702, 783.945
117.184, 796.724
117.666, 813.363
118.148, 835.841
118.630, 858.763
119.113, 882.190
119.595, 904.222
120.077, 920.393
120.559, 924.877
121.041, 924.079
121.523, 924.074
122.005, 928.399
122.487, 931.131
122.969, 925.281
123.451, 912.032
123.934, 899.638
124.416, 893.675
124.898, 892.636
125.380, 893.879
125.862, 898.882
126.344, 904.792
126.826, 906.446
127.308, 903.366
127.791, 900.469
128.273, 903.254
128.755, 910.801
129.237, 919.203
129.719, 926.774
130.201, 933.691
130.683, 940.297
131.165, 946.398
131.648, 952.693
132.130, 961.625
132.612, 973.242
133.094, 983.395
133.576, 987.407
134.058, 985.744
134.540, 987.247
135.022, 993.796
135.504, 1004.570
135.986, 1016.399
136.469, 1029.757
136.951, 1042.915
137.433, 1054.999
137.915, 1066.383
138.397, 1073.580
138.879, 1073.188
139.361, 1064.727
139.844, 1065.821
140.326, 1080.195
140.808, 1099.663
141.290, 1111.223
141.772, 1112.287
142.254, 1111.064
142.736, 1110.842
143.218, 1113.163
143.700, 1111.944
144.182, 1104.558
144.665, 1093.920
145.147, 1089.875
145.629, 1098.722
146.111, 1106.884
146.593, 1106.292
147.075, 1086.531
147.557, 1073.673
148.039, 1072.501
148.522, 1082.390
149.004, 1087.932
149.486, 1084.559
149.968, 1079.502
150.450, 1078.411
150.932, 1082.958
151.414, 1089.830
151.896, 1100.931
152.378, 1118.655
152.861, 1128.350
153.343, 1121.551
153.825, 1108.741
154.307, 1102.981
154.789, 1113.604
155.271, 1124.898
155.753, 1130.676
156.235, 1125.341
156.717, 1126.181
157.200, 1142.802
157.682, 1167.920
158.164, 1185.510
158.646, 1185.134
159.128, 1180.164
159.610, 1177.413
160.092, 1176.497
160.574, 1180.074
161.057, 1192.611
161.539, 1211.839
162.021, 1227.136
162.503, 1230.977
162.985, 1230.468
163.467, 1231.570
163.949, 1239.153
164.431, 1246.198
164.913, 1248.349
165.396, 1245.726
165.878, 1243.943
166.360, 1245.429
166.842, 1249.673
167.324, 1256.013
167.806, 1265.687
168.288, 1276.462
168.770, 1288.254
169.253, 1301.641
169.735, 1311.257
170.217, 1310.805
170.699, 1303.834
171.181, 1297.501
171.663, 1293.959
172.145, 1293.545
172.627, 1297.037
173.109, 1305.294
173.592, 1315.360
174.074, 1325.921
174.556, 1336.499
175.038, 1345.085
175.520, 1348.358
176.002, 1349.319
176.484, 1352.862
176.966, 1360.952
177.449, 1370.755
177.931, 1378.956
178.413, 1385.612
178.895, 1391.993
179.377, 1399.052
179.859, 1406.566
180.341, 1414.108
180.823, 1421.893
181.305, 1429.418
181.788, 1436.625
182.270, 1443.525
182.752, 1447.739
183.234, 1444.934
183.716, 1436.669
184.198, 1429.473
184.680, 1426.133
185.162, 1425.690
185.645, 1425.730
186.127, 1426.400
186.609, 1426.735
187.091, 1424.417
187.573, 1419.844
188.055, 1417.134
188.537, 1418.185
189.019, 1422.734
189.501, 1431.046
189.984, 1445.004
190.466, 1458.443
190.948, 1459.204
191.430, 1447.163
191.912, 1435.035
192.394, 1430.251
192.876, 1432.332
193.358, 1436.352
193.840, 1442.596
194.323, 1449.633
194.805, 1454.175
195.287, 1456.005
195.769, 1456.933
196.251, 1459.519
196.733, 1463.911
197.215, 1462.390
197.697, 1450.665
198.180, 1433.427
198.662, 1429.309
199.144, 1440.740
199.626, 1455.473
200.108, 1461.892
200.590, 1458.938
201.072, 1457.675
201.554, 1460.902
202.036, 1467.936
202.519, 1473.685
203.001, 1477.704
203.483, 1481.374
203.965, 1486.182
204.447, 1492.244
204.929, 1498.714
205.411, 1506.038
205.893, 1514.205
206.376, 1518.088
206.858, 1516.058
207.340, 1512.206
207.822, 1512.829
208.304, 1519.560
208.786, 1525.173
209.268, 1525.945
209.750, 1520.658
210.232, 1521.763
210.715, 1532.110
211.197, 1546.024
211.679, 1552.876
212.161, 1550.245
212.643, 1546.898
213.125, 1546.204
213.607, 1548.323
214.089, 1552.725
214.572, 1560.462
215.054, 1569.872
215.536, 1577.128
216.018, 1581.463
216.500, 1585.071
216.982, 1588.583
217.464, 1591.177
217.946, 1596.143
218.428, 1604.597
218.911, 1615.226
219.393, 1623.857
219.875, 1631.044
220.357, 1635.116
220.839, 1633.807
221.321, 1623.135
221.803, 1617.776
222.285, 1620.522
222.768, 1629.975
223.250, 1637.711
223.732, 1643.363
224.214, 1648.029
224.696, 1652.758
225.178, 1658.546
225.660, 1662.064
226.142, 1661.953
226.624, 1658.626
227.107, 1658.163
227.589, 1663.777
228.071, 1668.470
228.553, 1665.559
229.035, 1649.152
229.517, 1636.763
229.999, 1632.246
230.481, 1635.635
230.964, 1635.942
231.446, 1630.397
231.928, 1624.497
232.410, 1624.573
232.892, 1636.985
233.374, 1643.237
233.856, 1637.254
234.338, 1617.763
234.820, 1606.104
235.303, 1608.824
235.785, 1613.956
236.267, 1606.568
236.749, 1576.076
237.231, 1551.831
237.713, 1542.941
238.195, 1552.119
238.677, 1557.432
239.159, 1558.744
239.642, 1556.327
240.124, 1549.957
240.606, 1536.241
241.088, 1524.007
241.570, 1516.015
242.052, 1513.086
242.534, 1510.417
243.016, 1508.047
243.499, 1505.879
243.981, 1504.160
244.463, 1504.929
244.945, 1502.622
245.427, 1493.995
245.909, 1475.700
246.391, 1463.979
246.873, 1461.179
247.355, 1463.633
247.837, 1464.684
248.320, 1462.635
248.802, 1461.939
249.284, 1465.232
249.766, 1475.667
250.248, 1479.426
250.730, 1472.718
251.212, 1461.244
251.695, 1457.384
252.177, 1466.360
252.659, 1474.166
253.141, 1474.846
253.623, 1465.393
254.105, 1457.360
254.587, 1449.873
255.069, 1444.192
255.551, 1443.581
256.034, 1450.036
256.516, 1458.067
256.998, 1465.234
257.480, 1470.565
257.962, 1477.537
258.444, 1486.592
258.926, 1497.074
259.408, 1508.139
259.890, 1521.364
260.373, 1532.152
260.855, 1537.126
261.337, 1532.315
261.819, 1534.098
262.301, 1545.514
262.783, 1562.580
263.265, 1573.206
263.747, 1573.439
264.229, 1575.594
264.712, 1587.573
265.194, 1613.608
265.676, 1633.710
266.158, 1645.283
266.640, 1650.984
267.122, 1657.293
267.604, 1664.122
268.086, 1672.009
268.569, 1681.961
269.051, 1695.215
269.533, 1705.264
270.015, 1710.389
270.497, 1712.903
270.979, 1720.506
271.461, 1736.111
271.943, 1748.837
272.426, 1750.114
272.908, 1737.086
273.390, 1730.784
273.872, 1733.794
274.354, 1743.844
274.836, 1756.789
275.318, 1774.567
275.800, 1788.600
276.282, 1790.214
276.764, 1777.210
277.247, 1771.576
277.729, 1774.426
278.211, 1775.216
278.693, 1774.058
279.175, 1765.115
279.657, 1766.225
280.139, 1763.306
280.621, 1760.221
281.104, 1762.746
281.586, 1758.674
282.068, 1761.209
282.550, 1757.629
283.032, 1747.307
283.514, 1736.465
283.996, 1728.672
284.478, 1723.865
284.961, 1721.483
285.443, 1723.090
285.925, 1724.845
286.407, 1716.387
286.889, 1697.322
287.371, 1679.837
287.853, 1672.655
288.335, 1674.528
288.817, 1676.494
289.299, 1677.661
289.782, 1678.449
290.264, 1680.239
290.746, 1682.927
291.228, 1684.089
291.710, 1679.935
292.192, 1672.372
292.674, 1670.687
293.156, 1677.772
293.639, 1686.610
294.121, 1684.682
294.603, 1673.175
295.085, 1661.845
295.567, 1655.414
296.049, 1653.703
296.531, 1658.270
297.013, 1672.076
297.496, 1684.462
297.978, 1679.196
298.460, 1659.054
298.942, 1637.472
299.424, 1620.109
299.906, 1606.834
300.388, 1597.616
300.870, 1593.012
301.352, 1590.368
301.835, 1587.458
302.317, 1584.135
302.799, 1579.976
303.281, 1576.876
303.763, 1571.963
304.245, 1560.011
304.727, 1538.922
305.209, 1517.188
305.691, 1503.860
306.174, 1495.951
306.656, 1485.700
307.138, 1466.969
307.620, 1445.188
308.102, 1427.107
308.584, 1414.912
309.066, 1398.392
309.548, 1364.985
310.030, 1322.336
310.513, 1283.923
310.995, 1259.268
311.477, 1238.504
311.959, 1213.742
312.441, 1183.962
312.923, 1154.774
313.405, 1131.036
313.888, 1109.749
314.370, 1086.953
314.852, 1056.907
315.334, 1027.715
315.816, 1004.057
316.298, 986.518
316.780, 970.939
317.262, 956.641
317.744, 942.847
318.227, 928.754
318.709, 908.970
319.191, 893.340
319.673, 888.061
320.155, 893.861
320.637, 897.001
321.119, 892.096
321.601, 883.456
322.083, 875.167
322.566, 867.936
323.048, 861.135
323.530, 853.885
324.012, 846.175
324.494, 841.184
324.976, 842.102
325.458, 844.362
325.940, 844.631
326.422, 839.752
326.905, 835.982
327.387, 836.224
327.869, 839.952
328.351, 837.667
328.833, 821.912
329.315, 805.577
329.797, 796.484
330.279, 803.317
330.762, 805.053
331.244, 799.066
331.726, 786.560
332.208, 773.981
332.690, 761.825
333.172, 749.029
333.654, 734.506
334.136, 715.963
334.618, 700.873
335.101, 691.417
335.583, 685.199
336.065, 674.519
336.547, 657.261
337.029, 640.054
337.511, 626.152
337.993, 616.198
338.475, 606.959
338.957, 597.840
339.440, 589.861
339.922, 586.644
340.404, 589.726
340.886, 590.615
341.368, 583.809
341.850, 568.754
342.332, 558.333
342.815, 553.296
343.297, 550.992
343.779, 547.585
344.261, 543.077
344.743, 538.418
345.225, 532.576
345.707, 526.519
346.189, 526.060
346.671, 531.958
347.154, 539.671
347.636, 545.820
348.118, 549.925
348.600, 549.569
349.082, 541.474
349.564, 529.037
350.046, 518.853
350.528, 510.909
351.010, 505.304
351.493, 502.859
351.975, 502.804
352.457, 503.545
352.939, 505.142
353.421, 506.775
353.903, 506.427
354.385, 504.556
354.867, 504.703
355.349, 513.686
355.832, 524.736
356.314, 528.660
356.796, 519.683
357.278, 508.247
357.760, 501.820
358.242, 499.441
358.724, 497.520
359.206, 494.541
359.689, 491.102
360.171, 487.806
360.653, 485.277
361.135, 481.752
361.617, 473.381
362.099, 463.535
362.581, 459.006
363.063, 469.120
363.546, 479.517
364.028, 482.322
364.510, 473.681
364.992, 467.379
365.474, 468.600
365.956, 473.359
366.438, 475.921
366.920, 471.503
367.402, 468.724
367.884, 472.065
368.367, 484.335
368.849, 487.772
369.331, 471.618
369.813, 452.348
370.295, 445.573
370.777, 461.881
371.259, 475.636
371.741, 483.509
372.224, 485.598
372.706, 482.403
373.188, 470.494
373.670, 457.676
374.152, 449.537
374.634, 446.795
375.116, 447.277
375.598, 452.507
376.081, 460.296
376.563, 462.402
377.045, 457.492
377.527, 451.045
378.009, 445.664
378.491, 441.400
378.973, 439.719
379.455, 441.834
379.937, 444.729
380.419, 441.704
380.902, 432.722
381.384, 425.046
381.866, 422.981
382.348, 425.480
382.830, 428.301
383.312, 431.470
383.794, 434.256
384.276, 436.341
384.759, 437.439
385.241, 436.403
385.723, 430.859
386.205, 423.696
386.687, 418.651
387.169, 415.693
387.651, 415.629
388.133, 420.714
388.616, 428.698
389.098, 436.470
389.580, 444.539
390.062, 450.259
390.544, 451.035
391.026, 447.508
391.508, 442.766
391.990, 435.893
392.472, 429.920
392.955, 427.738
393.437, 431.997
393.919, 436.218
394.401, 437.080
394.883, 436.077
395.365, 436.353
395.847, 442.917
396.329, 447.532
396.811, 445.563
397.294, 433.760
397.776, 424.833
398.258, 422.314
398.740, 422.950
399.222, 422.754
399.704, 418.973
400.186, 417.294
400.668, 419.487
401.151, 425.832
401.633, 431.101
402.115, 436.102
402.597, 439.213
403.079, 438.927
403.561, 434.085
404.043, 428.458
404.525, 421.272
405.008, 413.769
405.490, 412.654
405.972, 420.300
406.454, 426.963
406.936, 425.179
407.418, 414.404
407.900, 408.188
408.382, 407.924
408.864, 411.626
409.346, 418.030
409.829, 427.029
410.311, 432.233
410.793, 428.861
411.275, 419.407
411.757, 411.007
412.239, 403.744
412.721, 398.196
413.203, 393.862
413.686, 391.682
414.168, 394.229
414.650, 406.592
415.132, 420.717
415.614, 427.811
416.096, 428.342
416.578, 426.379
417.060, 423.252
417.543, 419.534
418.025, 415.699
418.507, 411.214
418.989, 407.779
419.471, 407.139
419.953, 408.290
420.435, 408.872
420.917, 409.737
421.399, 408.490
421.882, 402.406
422.364, 388.312
422.846, 379.909
423.328, 384.290
423.810, 394.016
424.292, 399.993
424.774, 396.538
425.256, 394.764
425.738, 398.249
426.221, 406.953
426.703, 410.169
427.185, 403.956
427.667, 396.560
428.149, 394.223
428.631, 399.425
429.113, 402.899
429.595, 403.225
430.078, 401.478
430.560, 400.892
431.042, 401.782
431.524, 402.503
432.006, 402.213
432.488, 400.923
432.970, 398.973
433.452, 396.154
433.934, 393.365
434.417, 391.848
434.899, 391.496
435.381, 391.539
435.863, 392.066
436.345, 392.642
436.827, 391.217
437.309, 387.937
437.791, 387.113
438.273, 397.509
438.756, 411.290
439.238, 415.375
439.720, 402.036
440.202, 385.789
440.684, 376.709
441.166, 373.736
441.648, 373.865
442.130, 377.032
442.612, 381.847
443.095, 388.535
443.577, 398.550
444.059, 404.342
444.541, 400.172
445.023, 391.596
445.505, 385.256
445.987, 382.309
446.470, 381.903
446.952, 385.071
447.434, 391.806
447.916, 396.595
448.398, 398.803
448.880, 399.620
449.362, 399.558
449.844, 397.837
450.326, 397.045
450.809, 397.777
451.291, 399.260
451.773, 399.312
452.255, 397.330
452.737, 396.044
453.219, 397.511
453.701, 401.614
454.183, 402.527
454.665, 400.130
455.148, 395.176
455.630, 385.625
456.112, 372.845
456.594, 366.938
457.076, 373.692
457.558, 386.155
458.040, 392.289
458.522, 392.725
459.004, 392.111
459.487, 394.439
459.969, 397.338
460.451, 396.857
460.933, 391.080
461.415, 386.213
461.897, 388.196
462.379, 394.072
462.862, 398.656
463.344, 398.840
463.826, 398.125
464.308, 398.547
464.790, 400.282
465.272, 400.540
465.754, 395.652
466.236, 390.720
466.718, 389.429
467.201, 397.689
467.683, 402.935
468.165, 403.069
468.647, 399.652
469.129, 397.476
469.611, 396.960
470.093, 397.097
470.575, 397.728
471.057, 399.075
471.539, 399.246
472.022, 397.638
472.504, 395.869
472.986, 396.953
473.468, 401.271
473.950, 402.358
474.432, 397.912
474.914, 389.579
475.397, 380.789
475.879, 371.596
476.361, 364.103
476.843, 360.344
477.325, 359.341
477.807, 359.539
478.289, 361.328
478.771, 361.979
479.253, 355.816
479.736, 346.700
480.218, 342.454
480.700, 351.948
481.182, 363.363
481.664, 368.723
482.146, 367.990
482.628, 365.851
483.110, 363.423
483.592, 360.695
484.075, 357.521
484.557, 350.694
485.039, 347.681
485.521, 354.385
486.003, 365.452
486.485, 367.681
486.967, 350.998
487.449, 338.324
487.931, 338.350
488.414, 353.105
488.896, 360.864
489.378, 359.151
489.860, 354.393
490.342, 352.937
490.824, 355.247
491.306, 356.884
491.788, 357.082
492.271, 356.211
492.753, 354.428
493.235, 351.772
493.717, 350.656
494.199, 355.316
494.681, 362.101
495.163, 361.381
495.645, 351.916
496.128, 341.772
496.610, 337.693
497.092, 338.221
497.574, 341.035
498.056, 348.573
498.538, 354.948
499.020, 355.651
499.502, 351.765
499.984, 347.884
500.466, 345.650
500.949, 344.030
501.431, 342.856
501.913, 343.249
502.395, 341.002
502.877, 331.742
503.359, 321.064
503.841, 315.738
504.323, 318.306
504.806, 322.464
505.288, 327.909
505.770, 334.247
506.252, 338.803
506.734, 342.029
507.216, 342.408
507.698, 337.246
508.180, 326.281
508.663, 320.274
509.145, 320.517
509.627, 323.701
510.109, 326.099
510.591, 327.643
511.073, 327.899
511.555, 326.265
512.037, 323.561
512.519, 320.386
513.002, 316.962
513.484, 314.730
513.966, 314.620
514.448, 316.203
514.930, 319.736
515.412, 326.609
515.894, 331.346
516.376, 328.789
516.859, 323.071
517.341, 320.288
517.823, 326.679
518.305, 331.395
518.787, 330.182
519.269, 323.012
519.751, 318.585
520.233, 317.721
520.715, 318.853
521.198, 321.737
521.680, 328.201
522.162, 330.814
522.644, 328.213
523.126, 323.207
523.608, 319.573
524.090, 317.184
524.572, 318.122
525.054, 326.158
525.537, 336.800
526.019, 333.083
526.501, 315.484
526.983, 300.513
527.465, 304.177
527.947, 318.174
528.429, 328.163
528.911, 331.607
529.393, 331.877
529.876, 329.630
530.358, 326.380
530.840, 324.545
531.322, 326.444
531.804, 328.664
532.286, 330.644
532.768, 332.067
533.250, 330.700
533.732, 322.291
534.215, 313.917
534.697, 309.575
535.179, 311.958
535.661, 312.201
536.143, 309.008
536.625, 304.684
537.107, 302.376
537.589, 302.626
538.072, 302.859
538.554, 302.369
539.036, 301.455
539.518, 301.444
540.000, 302.399
540.482, 303.195
540.964, 302.010
541.446, 300.100
541.929, 302.022
542.411, 308.828
542.893, 314.576
543.375, 312.192
543.857, 304.998
544.339, 298.940
544.821, 296.329
545.303, 295.203
545.786, 295.528
546.268, 296.665
546.750, 296.245
547.232, 289.970
547.714, 284.854
548.196, 285.359
548.678, 294.886
549.160, 298.998
549.642, 294.265
550.125, 286.409
550.607, 280.274
551.089, 275.384
551.571, 273.641
552.053, 276.073
552.535, 281.277
553.017, 286.505
553.499, 292.030
553.981, 294.748
554.464, 291.627
554.946, 284.294
555.428, 278.659
555.910, 274.672
556.392, 272.479
556.874, 272.866
557.356, 274.917
557.838, 277.281
558.320, 279.906
558.803, 282.227
559.285, 284.589
559.767, 286.296
560.249, 285.975
560.731, 282.078
561.213, 277.110
561.695, 271.118
562.177, 264.119
562.659, 259.352
563.142, 257.021
563.624, 256.937
564.106, 259.506
564.588, 266.760
565.070, 270.918
565.552, 270.656
566.034, 269.112
566.516, 272.093
566.999, 280.114
567.481, 283.825
567.963, 279.091
568.445, 269.794
568.927, 263.421
569.409, 259.966
569.891, 259.458
570.373, 263.308
570.856, 269.452
571.338, 275.974
571.820, 282.761
572.302, 287.792
572.784, 290.523
573.266, 290.443
573.748, 286.963
574.230, 274.995
574.713, 265.475
575.195, 261.374
575.677, 261.521
576.159, 263.035
576.641, 268.638
577.123, 271.620
577.605, 268.770
578.087, 260.160
578.569, 256.138
579.052, 257.796
579.534, 261.276
580.016, 263.930
580.498, 265.810
580.980, 267.193
581.462, 268.233
581.944, 268.348
582.426, 266.677
582.908, 263.421
583.391, 259.132
583.873, 251.735
584.355, 245.478
584.837, 245.457
585.319, 250.240
585.801, 254.132
586.283, 255.613
586.765, 254.524
587.247, 249.088
587.730, 236.944
588.212, 230.914
588.694, 239.464
589.176, 250.150
589.658, 253.057
590.140, 243.400
590.622, 236.684
591.104, 234.185
591.586, 235.211
592.069, 240.188
592.551, 249.813
593.033, 254.806
593.515, 249.074
593.997, 237.100
594.479, 230.615
594.961, 229.438
595.443, 230.794
595.925, 234.385
596.408, 238.577
596.890, 241.205
597.372, 241.763
597.854, 241.760
598.336, 243.184
598.818, 244.073
599.300, 242.146
599.782, 229.903
600.265, 222.825
600.747, 227.625
601.229, 239.746
601.711, 246.728
602.193, 246.403
602.675, 244.441
603.157, 241.993
603.639, 239.150
604.122, 239.210
604.604, 242.819
605.086, 246.295
605.568, 247.035
606.050, 245.207
606.532, 240.717
607.014, 232.835
607.496, 225.864
607.979, 225.140
608.461, 228.366
608.943, 231.324
609.425, 232.237
609.907, 232.650
610.389, 233.433
610.871, 234.387
611.353, 234.948
611.835, 235.530
612.318, 235.146
612.800, 232.405
613.282, 226.873
613.764, 225.480
614.246, 230.996
614.728, 236.718
615.210, 236.779
615.692, 230.180
616.174, 228.418
616.657, 233.711
617.139, 239.764
617.621, 235.643
618.103, 223.908
618.585, 216.375
619.067, 218.925
619.549, 224.853
620.031, 225.864
620.513, 223.652
620.996, 223.583
621.478, 232.520
621.960, 240.994
622.442, 242.164
622.924, 235.332
623.406, 230.557
623.888, 233.102
624.370, 235.589
624.852, 233.417
625.335, 222.744
625.817, 216.790
626.299, 217.159
626.781, 220.156
627.263, 220.896
627.745, 219.290
628.227, 217.980
628.709, 217.821
629.192, 217.915
629.674, 215.908
630.156, 212.462
630.638, 210.375
631.120, 213.189
631.602, 216.657
632.084, 216.038
632.566, 211.609
633.049, 208.346
633.531, 210.344
634.013, 212.936
634.495, 212.976
634.977, 208.651
635.459, 205.516
635.941, 204.160
636.423, 203.738
636.906, 203.184
637.388, 201.865
637.870, 203.173
638.352, 208.741
638.834, 215.503
639.316, 215.844
639.798, 210.479
640.280, 207.284
640.762, 212.523
641.245, 220.027
641.727, 219.056
642.209, 211.126
642.691, 203.819
643.173, 202.234
643.655, 202.558
644.137, 201.629
644.619, 198.584
645.101, 197.931
645.584, 205.426
646.066, 212.554
646.548, 212.432
647.030, 198.134
647.512, 191.398
647.994, 195.295
648.476, 204.347
