##NAMES=Livingstonite
##RRUFFID=R050453
##IDEAL CHEMISTRY=HgSb_4_S_8_
##LOCALITY=Huitzuco, Guerrero, Mexico
##OWNER=RRUFF
##SOURCE=University of Arizona Mineral Museum
##DESCRIPTION=Aggregate of gray columnar crystals
##STATUS=The identification of this mineral has been confirmed by X-ray diffraction and chemical analysis
##URL=rruff.info/R050453
##MEASURED CHEMISTRY=Hg_1.00_Sb_4.00_S_8.00_
118.153, 14013.700
118.635, 13678.850
119.117, 13362.960
119.599, 13161.360
120.081, 13100.340
120.563, 13275.420
121.046, 13619.170
121.528, 14241.170
122.010, 15307.050
122.492, 16745.170
122.974, 18843.641
123.456, 21609.840
123.938, 25051.881
124.420, 29363.330
124.902, 34730.730
125.385, 41061.730
125.867, 48047.699
126.349, 56390.410
126.831, 64401.289
127.313, 71890.891
127.795, 78560.344
128.277, 83859.148
128.760, 87112.242
129.242, 88408.203
129.724, 89270.344
130.206, 89255.750
130.688, 89229.508
131.170, 89552.094
131.652, 90174.578
132.134, 90877.492
132.616, 91529.023
133.098, 92155.359
133.581, 92520.367
134.063, 92360.781
134.545, 92143.227
135.027, 91950.391
135.509, 91836.383
135.991, 91885.531
136.473, 92167.758
136.955, 92660.969
137.438, 93501.141
137.920, 94604.500
138.402, 96070.547
138.884, 97979.656
139.366, 100321.500
139.848, 103037.203
140.330, 106050.000
140.812, 109426.398
141.294, 112988.898
141.777, 116785.297
142.259, 120676.500
142.741, 124573.703
143.223, 128453.797
143.705, 132329.406
144.187, 136291.500
144.669, 140787.203
145.151, 144369.703
145.633, 147789.406
146.116, 149978.406
146.598, 150020.000
147.080, 147703.000
147.562, 143616.500
148.044, 138595.594
148.526, 131846.094
149.008, 125464.797
149.490, 119424.000
149.973, 113739.000
150.455, 108404.297
150.937, 103410.203
151.419, 98715.898
151.901, 94219.602
152.383, 89943.094
152.865, 85832.938
153.347, 81878.227
153.829, 78110.078
154.312, 74529.000
154.794, 71151.023
155.276, 67986.289
155.758, 65118.949
156.240, 62556.441
156.722, 60204.691
157.204, 58037.141
157.686, 56071.270
158.169, 54381.469
158.651, 53010.570
159.133, 51848.301
159.615, 50679.160
160.097, 49423.059
160.579, 48316.129
161.061, 47455.691
161.543, 46773.129
162.025, 46156.320
162.508, 45577.379
162.990, 45030.801
163.472, 44517.289
163.954, 44040.320
164.436, 43577.070
164.918, 43100.988
165.400, 42634.289
165.882, 42221.680
166.365, 41872.641
166.847, 41602.520
167.329, 41449.039
167.811, 41428.480
168.293, 41437.629
168.775, 41415.320
169.257, 41387.980
169.739, 41428.289
170.221, 41560.672
170.704, 41777.301
171.186, 42048.969
171.668, 42359.680
172.150, 42762.609
172.632, 43285.781
173.114, 43923.949
173.596, 44661.539
174.078, 45513.051
174.561, 46455.539
175.043, 47464.980
175.525, 48556.660
176.007, 49643.250
176.489, 50714.551
176.971, 51754.129
177.453, 52727.879
177.935, 53649.051
178.417, 54451.551
178.900, 55073.680
179.382, 55501.199
179.864, 55850.441
180.346, 56171.570
180.828, 56468.328
181.310, 56754.480
181.792, 57029.801
182.274, 57297.770
182.757, 57568.859
183.239, 57845.680
183.721, 58099.102
184.203, 58316.180
184.685, 58495.422
185.167, 58628.551
185.649, 58707.000
186.131, 58737.961
186.613, 58732.320
187.096, 58688.441
187.578, 58633.930
188.060, 58585.980
188.542, 58543.531
189.024, 58494.852
189.506, 58421.941
189.988, 58361.738
190.470, 58359.840
190.952, 58417.230
191.435, 58457.020
191.917, 58422.898
192.399, 58322.711
192.881, 58216.609
193.363, 58157.691
193.845, 58039.250
194.327, 57793.469
194.809, 57421.762
195.292, 56954.762
195.774, 56379.801
196.256, 55712.379
196.738, 55042.070
197.220, 54335.430
197.702, 53693.250
198.184, 53143.660
198.666, 52694.422
199.148, 52403.121
199.631, 52323.430
200.113, 52440.801
200.595, 52671.141
201.077, 52994.031
201.559, 53461.941
202.041, 54067.922
202.523, 54814.121
203.005, 55700.070
203.488, 56731.039
203.970, 57903.410
204.452, 59194.781
204.934, 60594.051
205.416, 62137.219
205.898, 63792.750
206.380, 65575.977
206.862, 67546.453
207.344, 69726.320
207.827, 72109.141
208.309, 74712.383
208.791, 77548.359
209.273, 80601.062
209.755, 83790.883
210.237, 87147.594
210.719, 90740.797
211.201, 94601.891
211.684, 98735.492
212.166, 103170.398
212.648, 107955.602
213.130, 112971.203
213.612, 118160.703
214.094, 123501.297
214.576, 129080.102
215.058, 134913.297
215.540, 140980.500
216.023, 147219.406
216.505, 153710.203
216.987, 160155.500
217.469, 166477.797
217.951, 172681.500
218.433, 178739.000
218.915, 184746.000
219.397, 190533.797
219.880, 195839.906
220.362, 200710.594
220.844, 205026.203
221.326, 208734.594
221.808, 211845.000
222.290, 214245.797
222.772, 215905.500
223.254, 216860.906
223.736, 217142.203
224.219, 216720.797
224.701, 215768.094
225.183, 214150.203
225.665, 212083.797
226.147, 209724.797
226.629, 207034.406
227.111, 204220.000
227.593, 201443.000
228.076, 198709.406
228.558, 196070.500
229.040, 193482.703
229.522, 191051.906
230.004, 188854.594
230.486, 186883.297
230.968, 185217.594
231.450, 183971.203
231.932, 183133.906
232.415, 182526.594
232.897, 182100.297
233.379, 181914.797
233.861, 181998.500
234.343, 182367.594
234.825, 182911.000
235.307, 183647.797
235.789, 184528.594
236.271, 185345.906
236.754, 186154.094
237.236, 186734.000
237.718, 186967.594
238.200, 186869.703
238.682, 186314.000
239.164, 185249.000
239.646, 183680.703
240.128, 181590.500
240.611, 178947.703
241.093, 175834.703
241.575, 172317.703
242.057, 168425.906
242.539, 164165.906
243.021, 159358.797
243.503, 154234.297
243.985, 149155.500
244.467, 144167.500
244.950, 139226.906
245.432, 134267.094
245.914, 129323.297
246.396, 124614.898
246.878, 120154.297
247.360, 115970.000
247.842, 112103.297
248.324, 108573.703
248.807, 105297.898
249.289, 102234.000
249.771, 99413.367
250.253, 96806.781
250.735, 94418.570
251.217, 92265.031
251.699, 90370.977
252.181, 88733.297
252.663, 87261.922
253.146, 85898.523
253.628, 84691.109
254.110, 83748.500
254.592, 83143.953
255.074, 82702.031
255.556, 82343.844
256.038, 82081.547
256.520, 81955.531
257.003, 81989.359
257.485, 82165.352
257.967, 82445.680
258.449, 82821.422
258.931, 83284.562
259.413, 83841.344
259.895, 84482.422
260.377, 85195.922
260.859, 85977.383
261.341, 86832.977
261.824, 87780.094
262.306, 88820.070
262.788, 89938.883
263.270, 91117.180
263.752, 92392.703
264.234, 93815.047
264.716, 95399.430
265.198, 97096.094
265.681, 98830.641
266.163, 100564.602
266.645, 102567.203
267.127, 104816.602
267.609, 107334.102
268.091, 110178.703
268.573, 113321.297
269.055, 116656.602
269.538, 120067.297
270.020, 123538.000
270.502, 127296.102
270.984, 131378.906
271.466, 135622.094
271.948, 140014.797
272.430, 144494.797
272.912, 149016.594
273.394, 153535.906
273.877, 158041.594
274.359, 162370.906
274.841, 166505.203
275.323, 170486.500
275.805, 174233.500
276.287, 177852.297
276.769, 181411.906
277.251, 184927.703
277.733, 188522.297
278.216, 192499.297
278.698, 196885.703
279.180, 201702.297
279.662, 206928.000
280.144, 212555.094
280.626, 218718.203
281.108, 225383.906
281.590, 232246.406
282.073, 238921.297
282.555, 245581.203
283.037, 251608.500
283.519, 257450.703
284.001, 262309.406
284.483, 265875.000
284.965, 268053.688
285.447, 268670.000
285.930, 267574.094
286.412, 264774.406
286.894, 260297.000
287.376, 253678.297
287.858, 245713.094
288.340, 236436.000
288.822, 226170.703
289.304, 215512.297
289.786, 204682.594
290.268, 193782.094
290.751, 183126.000
291.233, 172541.906
291.715, 162676.703
292.197, 153780.406
292.679, 145676.203
293.161, 138193.297
293.643, 131262.906
294.125, 124951.898
294.608, 119364.703
295.090, 114504.102
295.572, 110280.500
296.054, 106708.297
296.536, 103756.297
297.018, 101345.203
297.500, 99478.289
297.982, 98111.953
298.465, 97162.477
298.947, 96668.258
299.429, 96840.727
299.911, 97738.156
300.393, 99330.000
300.875, 101523.602
301.357, 104270.000
301.839, 107733.797
302.321, 111901.398
302.804, 116836.102
303.286, 122635.797
303.768, 129291.602
304.250, 136886.297
304.732, 145460.000
305.214, 155105.500
305.696, 165971.000
306.178, 178153.594
306.660, 191577.000
307.143, 206214.094
307.625, 222042.906
308.107, 239031.000
308.589, 257275.203
309.071, 276577.594
309.553, 295147.406
310.035, 315190.906
310.517, 332259.906
311.000, 346504.906
311.482, 356768.688
311.964, 361011.906
312.446, 358487.312
312.928, 349736.312
313.410, 335648.812
313.892, 313043.094
314.374, 289817.812
314.857, 264582.812
315.339, 239737.297
315.821, 216795.297
316.303, 196159.094
316.785, 177890.297
317.267, 162015.297
317.749, 148796.797
318.231, 137148.297
318.713, 127390.898
319.195, 118743.102
319.678, 111072.000
320.160, 104281.797
320.642, 98322.219
321.124, 93145.430
321.606, 88728.898
322.088, 84865.430
322.570, 81615.344
323.052, 78896.477
323.535, 76741.156
324.017, 75015.961
324.499, 73588.406
324.981, 72398.547
325.463, 71494.922
325.945, 70939.227
326.427, 70735.656
326.909, 70857.594
327.392, 71323.906
327.874, 72131.227
328.356, 73290.609
328.838, 74800.227
329.320, 76627.812
329.802, 78762.227
330.284, 81189.023
330.766, 83903.562
331.248, 86974.680
331.731, 90153.117
332.213, 93683.930
332.695, 97223.094
333.177, 99810.594
333.659, 101470.797
334.141, 101820.297
334.623, 100322.398
335.105, 96997.508
335.587, 92263.188
336.070, 85893.383
336.552, 78396.500
337.034, 71215.688
337.516, 64131.609
337.998, 57712.199
338.480, 52206.621
338.962, 47543.320
339.444, 43616.180
339.927, 40413.070
340.409, 37778.730
340.891, 35493.160
341.373, 33611.121
341.855, 31947.199
342.337, 30561.801
342.819, 29348.580
343.301, 28225.279
343.784, 27185.760
344.266, 26235.439
344.748, 25381.561
345.230, 24626.350
345.712, 23944.109
346.194, 23341.850
346.676, 22792.100
347.158, 22286.689
347.640, 21827.510
348.122, 21421.109
348.605, 21072.160
349.087, 20766.910
349.569, 20472.500
350.051, 20178.150
350.533, 19921.711
351.015, 19717.391
351.497, 19539.250
351.979, 19375.160
352.462, 19221.289
352.944, 19076.270
353.426, 18937.881
353.908, 18806.221
354.390, 18690.660
354.872, 18619.320
355.354, 18525.051
355.836, 18372.449
356.319, 18173.689
356.801, 17956.590
357.283, 17731.400
357.765, 17496.090
358.247, 17238.369
358.729, 16955.910
359.211, 16683.510
359.693, 16435.279
360.175, 16207.230
360.658, 15992.230
361.140, 15794.360
361.622, 15599.040
362.104, 15392.360
362.586, 15182.670
363.068, 14986.700
363.550, 14808.430
364.032, 14645.960
364.514, 14500.920
364.997, 14377.350
365.479, 14245.910
365.961, 14081.490
366.443, 13927.190
366.925, 13830.310
367.407, 13777.290
367.889, 13707.450
368.371, 13575.230
368.853, 13393.910
369.336, 13250.680
369.818, 13187.620
370.300, 13113.440
370.782, 13008.600
371.264, 12890.120
371.746, 12776.150
372.228, 12672.830
372.711, 12575.450
373.193, 12478.790
373.675, 12385.710
374.157, 12284.410
374.639, 12172.100
375.121, 12053.600
375.603, 11916.230
376.085, 11772.120
376.567, 11652.030
377.049, 11580.880
377.532, 11547.580
378.014, 11520.790
378.496, 11507.470
378.978, 11481.100
379.460, 11421.240
379.942, 11344.830
380.424, 11268.020
380.906, 11191.490
381.389, 11120.050
381.871, 11059.280
382.353, 11007.140
382.835, 10956.100
383.317, 10904.590
383.799, 10853.500
384.281, 10806.830
384.763, 10765.000
385.246, 10713.270
385.728, 10637.600
386.210, 10559.180
386.692, 10495.540
387.174, 10447.150
387.656, 10409.100
388.138, 10379.400
388.620, 10356.440
389.102, 10331.400
389.585, 10302.550
390.067, 10273.950
390.549, 10244.330
391.031, 10216.020
391.513, 10193.830
391.995, 10178.350
392.477, 10161.940
392.959, 10132.280
393.441, 10083.460
393.924, 10045.420
394.406, 10031.670
394.888, 10016.310
395.370, 9981.010
395.852, 9936.110
396.334, 9907.851
396.816, 9918.289
397.298, 9947.978
397.780, 9947.930
398.263, 9912.640
398.745, 9867.349
399.227, 9811.185
399.709, 9754.056
400.191, 9703.394
400.673, 9659.494
401.155, 9626.479
401.638, 9619.609
402.120, 9625.055
402.602, 9602.348
403.084, 9540.253
403.566, 9474.049
404.048, 9436.833
404.530, 9426.959
405.012, 9408.970
405.494, 9371.504
405.977, 9335.009
406.459, 9320.985
406.941, 9317.470
407.423, 9289.952
407.905, 9220.464
408.387, 9130.896
408.869, 9071.096
409.351, 9077.608
409.833, 9055.107
410.316, 8974.072
410.798, 8888.211
411.280, 8839.158
411.762, 8825.032
412.244, 8813.869
412.726, 8777.685
413.208, 8719.243
413.690, 8670.262
414.172, 8635.190
414.655, 8602.344
415.137, 8570.046
415.619, 8536.462
416.101, 8500.131
416.583, 8461.188
417.065, 8415.931
417.547, 8359.351
418.029, 8291.968
418.512, 8217.663
418.994, 8129.696
419.476, 8048.024
419.958, 8001.235
420.440, 7981.838
420.922, 7949.460
421.404, 7887.135
421.886, 7813.862
422.368, 7744.558
422.851, 7679.134
423.333, 7611.790
423.815, 7538.693
424.297, 7464.870
424.779, 7404.757
425.261, 7369.205
425.743, 7331.341
426.225, 7286.206
426.708, 7240.648
427.190, 7197.984
427.672, 7159.917
428.154, 7131.187
428.636, 7118.794
429.118, 7121.815
429.600, 7106.879
430.082, 7059.155
430.565, 7013.146
431.047, 6976.452
431.529, 6946.609
432.011, 6921.376
432.493, 6900.441
432.975, 6880.096
433.457, 6853.383
433.939, 6821.252
434.421, 6800.252
434.904, 6797.688
435.386, 6799.342
435.868, 6792.899
436.350, 6779.952
436.832, 6766.535
437.314, 6756.995
437.796, 6745.487
438.278, 6722.032
438.760, 6690.572
439.243, 6670.110
439.725, 6671.420
440.207, 6683.496
440.689, 6681.400
441.171, 6652.875
441.653, 6631.708
442.135, 6625.005
442.617, 6621.121
443.099, 6610.077
443.582, 6592.638
444.064, 6577.317
444.546, 6571.810
445.028, 6573.740
445.510, 6566.511
445.992, 6542.390
446.474, 6522.148
446.957, 6514.862
447.439, 6510.826
447.921, 6498.406
448.403, 6475.289
448.885, 6455.459
449.367, 6454.615
449.849, 6468.376
450.331, 6479.322
450.813, 6488.485
451.296, 6486.409
451.778, 6459.290
452.260, 6414.373
452.742, 6376.465
453.224, 6342.021
453.706, 6321.484
454.188, 6327.418
454.670, 6350.545
455.152, 6374.416
455.635, 6393.932
456.117, 6406.040
456.599, 6404.536
457.081, 6381.610
457.563, 6373.456
458.045, 6396.145
458.527, 6415.081
459.009, 6401.756
459.491, 6374.550
459.974, 6373.513
460.456, 6422.099
460.938, 6494.763
461.420, 6535.115
461.902, 6533.901
462.384, 6541.610
462.866, 6569.020
463.348, 6607.515
463.831, 6647.729
464.313, 6691.278
464.795, 6750.649
465.277, 6840.739
465.759, 6945.075
466.241, 7045.667
466.723, 7141.657
467.205, 7223.666
467.687, 7280.681
468.170, 7328.619
468.652, 7409.482
469.134, 7529.999
469.616, 7663.277
470.098, 7808.460
470.580, 7962.935
471.062, 8131.996
471.544, 8310.261
472.026, 8484.202
472.509, 8646.581
472.991, 8792.407
473.473, 8879.408
473.955, 8918.888
474.437, 8874.174
474.919, 8732.831
475.401, 8521.452
475.883, 8248.735
476.366, 7920.553
476.848, 7574.453
477.330, 7224.167
477.812, 6879.045
478.294, 6577.679
478.776, 6324.300
479.258, 6105.464
479.740, 5913.013
480.223, 5751.176
480.705, 5628.336
481.187, 5560.821
481.669, 5506.123
482.151, 5446.260
482.633, 5389.910
483.115, 5352.569
483.597, 5336.523
484.079, 5327.316
484.561, 5309.455
485.044, 5282.198
485.526, 5267.982
486.008, 5283.249
486.490, 5293.554
486.972, 5290.042
487.454, 5278.808
487.936, 5267.041
488.418, 5256.940
488.901, 5246.359
489.383, 5228.254
489.865, 5204.451
490.347, 5200.599
490.829, 5230.190
491.311, 5255.762
491.793, 5241.799
492.275, 5204.570
492.758, 5181.005
493.240, 5183.823
493.722, 5191.198
494.204, 5189.581
494.686, 5183.937
495.168, 5186.236
495.650, 5199.430
496.132, 5211.037
496.614, 5205.239
497.097, 5178.806
497.579, 5161.716
498.061, 5163.280
498.543, 5163.104
499.025, 5152.421
499.507, 5137.646
499.989, 5128.052
500.471, 5126.863
500.953, 5129.320
501.436, 5130.352
501.918, 5129.934
502.400, 5126.162
502.882, 5114.612
503.364, 5107.396
503.846, 5121.796
504.328, 5146.525
504.810, 5154.516
505.293, 5129.022
505.775, 5101.715
506.257, 5093.529
506.739, 5097.206
507.221, 5098.269
507.703, 5092.902
508.185, 5084.604
508.667, 5077.077
509.150, 5070.280
509.632, 5064.499
510.114, 5061.294
510.596, 5057.221
511.078, 5051.096
511.560, 5043.617
512.042, 5034.344
512.524, 5023.294
513.006, 5015.214
513.489, 5021.059
513.971, 5039.026
514.453, 5036.159
514.935, 4996.242
515.417, 4965.079
515.899, 4987.584
516.381, 5039.676
516.863, 5068.257
517.346, 5052.217
517.828, 5033.681
518.310, 5035.359
518.792, 5048.461
519.274, 5061.209
519.756, 5070.526
520.238, 5071.888
520.720, 5056.446
521.202, 5023.864
521.685, 5026.339
522.167, 5099.106
522.649, 5166.811
523.131, 5222.248
523.613, 5263.584
524.095, 5284.841
524.577, 5286.264
525.059, 5287.633
525.541, 5309.277
526.024, 5346.717
526.506, 5381.893
526.988, 5414.841
527.470, 5442.137
527.952, 5459.203
528.434, 5469.937
528.916, 5484.515
529.398, 5503.950
529.880, 5525.148
530.363, 5546.057
530.845, 5569.057
531.327, 5473.057
531.809, 5585.126
532.291, 5646.689
532.773, 5660.459
533.255, 5483.289
533.737, 5552.678
534.219, 5523.257
534.702, 5489.784
535.184, 5593.875
535.666, 5444.477
536.148, 5546.386
536.630, 5547.978
537.112, 5526.318
537.594, 5533.774
538.076, 5538.105
538.559, 5521.893
539.041, 5486.233
539.523, 5456.827
540.005, 5444.982
540.487, 5443.647
540.969, 5440.363
541.451, 5433.534
541.933, 5429.642
542.416, 5435.641
542.898, 5438.540
543.380, 5423.576
543.862, 5399.881
544.344, 5390.800
544.826, 5409.146
545.308, 5436.120
545.790, 5431.629
546.273, 5388.713
546.755, 5365.184
547.237, 5381.027
547.719, 5399.940
548.201, 5400.446
548.683, 5385.438
549.165, 5361.319
549.647, 5321.282
550.129, 5283.607
550.612, 5262.904
551.094, 5253.750
551.576, 5245.338
552.058, 5234.968
552.540, 5224.453
553.022, 5217.131
553.504, 5213.532
553.986, 5196.080
554.468, 5153.076
554.951, 5109.253
555.433, 5064.961
555.915, 5023.761
556.397, 4987.500
556.879, 4957.063
557.361, 4935.845
557.843, 4935.054
558.325, 4945.214
558.807, 4932.596
559.290, 4892.926
559.772, 4864.104
560.254, 4871.494
560.736, 4897.079
561.218, 4896.798
561.700, 4859.754
562.182, 4831.677
562.664, 4831.092
563.146, 4832.467
563.629, 4812.830
564.111, 4777.578
564.593, 4746.513
565.075, 4730.688
565.557, 4726.263
566.039, 4727.240
566.521, 4735.884
567.003, 4737.808
567.486, 4724.616
567.968, 4712.171
568.450, 4716.650
568.932, 4730.807
569.414, 4731.817
569.896, 4700.391
570.378, 4670.700
570.860, 4673.309
571.343, 4693.785
571.825, 4699.815
572.307, 4684.444
572.789, 4672.312
573.271, 4692.773
573.753, 4745.129
574.235, 4759.872
574.717, 4701.155
575.200, 4652.095
575.682, 4636.553
576.164, 4630.297
576.646, 4607.296
577.128, 4565.580
577.610, 4528.079
578.092, 4518.939
578.574, 4522.182
579.056, 4502.165
579.539, 4459.280
580.021, 4424.009
580.503, 4411.713
580.985, 4409.797
581.467, 4396.406
581.949, 4367.624
582.431, 4336.875
582.913, 4294.957
583.395, 4260.185
583.878, 4247.995
584.360, 4248.429
584.842, 4245.441
585.324, 4232.683
585.806, 4207.768
586.288, 4159.025
586.770, 4088.728
587.252, 4041.207
587.734, 4024.731
588.217, 4018.897
588.699, 4021.257
589.181, 4022.770
589.663, 3997.917
590.145, 3925.387
590.627, 3865.959
591.109, 3849.391
591.591, 3847.051
592.073, 3828.665
592.556, 3794.538
593.038, 3764.168
593.520, 3751.864
594.002, 3748.959
594.484, 3728.330
594.966, 3683.427
595.448, 3644.745
595.930, 3611.629
596.413, 3592.187
596.895, 3598.195
597.377, 3622.718
597.859, 3640.253
598.341, 3641.581
598.823, 3636.593
599.305, 3628.369
599.787, 3619.462
600.269, 3615.447
600.752, 3617.320
601.234, 3619.748
601.716, 3616.537
602.198, 3608.719
602.680, 3613.122
603.162, 3646.218
603.644, 3663.395
604.127, 3640.138
604.609, 3610.327
605.091, 3602.162
605.573, 3616.301
606.055, 3634.052
606.537, 3646.964
607.019, 3657.595
607.501, 3669.782
607.983, 3682.556
608.466, 3690.242
608.948, 3690.258
609.430, 3690.397
609.912, 3703.061
610.394, 3732.342
610.876, 3744.559
611.358, 3727.128
611.840, 3706.859
612.322, 3684.489
612.805, 3665.371
613.287, 3656.862
613.769, 3659.914
614.251, 3664.604
614.733, 3661.611
615.215, 3655.770
615.697, 3662.192
616.179, 3679.654
616.661, 3679.153
617.144, 3643.331
617.626, 3593.750
618.108, 3569.652
618.590, 3583.479
619.072, 3584.441
619.554, 3571.198
620.036, 3547.739
620.518, 3509.599
621.000, 3464.552
621.483, 3423.648
