##NAMES=Livingstonite
##RRUFFID=R050427
##IDEAL CHEMISTRY=HgSb_4_S_8_
##LOCALITY=Huitzuco, Guerrero, Mexico
##OWNER=RRUFF
##SOURCE=University of Arizona Mineral Museum
##DESCRIPTION=Aggregate of blackish-gray elongated crystals
##STATUS=The identification of this mineral has been confirmed by X-ray diffraction and chemical analysis
##URL=rruff.info/R050427
##MEASURED CHEMISTRY=Hg_1.00_Sb_4.00_S_8.00_
105.131, 284.916
105.613, 321.101
106.095, 356.448
106.577, 391.619
107.060, 427.856
107.542, 464.440
108.024, 502.632
108.506, 543.502
108.988, 591.079
109.470, 634.844
109.952, 673.775
110.434, 708.454
110.916, 741.263
111.399, 764.482
111.881, 790.617
112.363, 826.865
112.845, 888.472
113.327, 945.501
113.809, 988.376
114.291, 1016.146
114.773, 1051.654
115.256, 1053.230
115.738, 1101.494
116.220, 1138.430
116.702, 1164.637
117.184, 1147.999
117.666, 1186.686
118.148, 1203.202
118.630, 1218.808
119.113, 1265.287
119.595, 1254.881
120.077, 1300.865
120.559, 1324.340
121.041, 1358.116
121.523, 1369.584
122.005, 1387.948
122.487, 1428.622
122.969, 1456.939
123.451, 1465.839
123.934, 1500.271
124.416, 1499.258
124.898, 1509.383
125.380, 1520.336
125.862, 1534.369
126.344, 1547.506
126.826, 1551.723
127.308, 1546.042
127.791, 1540.306
128.273, 1545.426
128.755, 1559.610
129.237, 1575.267
129.719, 1590.913
130.201, 1605.330
130.683, 1612.365
131.165, 1608.080
131.648, 1603.182
132.130, 1620.148
132.612, 1659.287
133.094, 1696.992
133.576, 1715.130
134.058, 1714.564
134.540, 1712.109
135.022, 1707.906
135.504, 1704.520
135.986, 1714.771
136.469, 1741.805
136.951, 1771.431
137.433, 1789.121
137.915, 1793.097
138.397, 1794.756
138.879, 1795.226
139.361, 1794.266
139.844, 1803.203
140.326, 1827.646
140.808, 1855.334
141.290, 1863.512
141.772, 1840.286
142.254, 1824.036
142.736, 1834.075
143.218, 1890.343
143.700, 1917.927
144.182, 1901.154
144.665, 1857.874
145.147, 1847.109
145.629, 1893.995
146.111, 1944.571
146.593, 1967.985
147.075, 1938.545
147.557, 1920.783
148.039, 1923.001
148.522, 1944.289
149.004, 1962.430
149.486, 1974.201
149.968, 1984.742
150.450, 1998.306
150.932, 2031.270
151.414, 2050.597
151.896, 2042.328
152.378, 1996.147
152.861, 1976.891
153.343, 2010.786
153.825, 2066.762
154.307, 2106.067
154.789, 2112.189
155.271, 2111.685
155.753, 2111.688
156.235, 2110.990
156.717, 2115.486
157.200, 2131.416
157.682, 2153.448
158.164, 2169.764
158.646, 2164.365
159.128, 2160.790
159.610, 2172.923
160.092, 2220.697
160.574, 2261.572
161.057, 2276.907
161.539, 2271.378
162.021, 2267.874
162.503, 2274.583
162.985, 2287.402
163.467, 2302.965
163.949, 2323.532
164.431, 2343.587
164.913, 2360.726
165.396, 2374.940
165.878, 2387.017
166.360, 2398.848
166.842, 2408.560
167.324, 2413.737
167.806, 2406.525
168.288, 2399.023
168.770, 2400.992
169.253, 2414.094
169.735, 2429.630
170.217, 2440.547
170.699, 2449.572
171.181, 2462.182
171.663, 2487.407
172.145, 2515.013
172.627, 2533.097
173.109, 2537.866
173.592, 2539.482
174.074, 2546.404
174.556, 2557.868
175.038, 2570.786
175.520, 2584.298
176.002, 2597.995
176.484, 2610.555
176.966, 2620.862
177.449, 2631.347
177.931, 2646.552
178.413, 2665.745
178.895, 2683.413
179.377, 2695.217
179.859, 2702.142
180.341, 2706.423
180.823, 2705.692
181.305, 2704.422
181.788, 2712.506
182.270, 2730.185
182.752, 2747.950
183.234, 2755.388
183.716, 2754.457
184.198, 2752.899
184.680, 2750.847
185.162, 2750.390
185.645, 2759.692
186.127, 2780.358
186.609, 2802.313
187.091, 2811.792
187.573, 2809.841
188.055, 2805.958
188.537, 2806.653
189.019, 2809.879
189.501, 2804.498
189.984, 2787.931
190.466, 2767.546
190.948, 2753.473
191.430, 2745.601
191.912, 2744.951
192.394, 2755.650
192.876, 2776.444
193.358, 2793.418
193.840, 2805.181
194.323, 2812.561
194.805, 2817.393
195.287, 2819.695
195.769, 2819.280
196.251, 2812.693
196.733, 2799.640
197.215, 2796.406
197.697, 2808.205
198.180, 2830.543
198.662, 2849.027
199.144, 2864.451
199.626, 2872.947
200.108, 2865.942
200.590, 2840.636
201.072, 2826.535
201.554, 2834.709
202.036, 2860.687
202.519, 2868.967
203.001, 2854.118
203.483, 2834.302
203.965, 2832.259
204.447, 2852.943
204.929, 2865.436
205.411, 2858.094
205.893, 2830.922
206.376, 2808.266
206.858, 2788.073
207.340, 2775.506
207.822, 2779.568
208.304, 2803.934
208.786, 2832.774
209.268, 2863.800
209.750, 2899.350
210.232, 2919.225
210.715, 2918.574
211.197, 2907.831
211.679, 2906.081
212.161, 2917.273
212.643, 2927.845
213.125, 2930.834
213.607, 2922.993
214.089, 2920.648
214.572, 2923.891
215.054, 2932.599
215.536, 2948.989
216.018, 2979.612
216.500, 3004.639
216.982, 3010.045
217.464, 2983.865
217.946, 2975.483
218.428, 2992.937
218.911, 3028.475
219.393, 3055.804
219.875, 3072.700
220.357, 3084.517
220.839, 3093.870
221.321, 3100.190
221.803, 3105.786
222.285, 3111.723
222.768, 3117.380
223.250, 3116.199
223.732, 3122.837
224.214, 3127.578
224.696, 3130.522
225.178, 3126.291
225.660, 3131.325
226.142, 3132.646
226.624, 3133.815
227.107, 3140.154
227.589, 3136.967
228.071, 3143.223
228.553, 3145.710
229.035, 3149.922
229.517, 3150.398
229.999, 3151.929
230.481, 3153.113
230.964, 3154.000
231.446, 3154.479
231.928, 3154.751
232.410, 3156.098
232.892, 3163.823
233.374, 3162.519
233.856, 3147.092
234.338, 3116.552
234.820, 3087.849
235.303, 3060.726
235.785, 3035.981
236.267, 3014.199
236.749, 2994.074
237.231, 2979.408
237.713, 2972.689
238.195, 2975.328
238.677, 2976.197
239.159, 2976.468
239.642, 2974.159
240.124, 2966.297
240.606, 2950.085
241.088, 2932.616
241.570, 2914.959
242.052, 2895.719
242.534, 2882.531
243.016, 2877.767
243.499, 2877.515
243.981, 2876.322
244.463, 2875.934
244.945, 2871.448
245.427, 2859.952
245.909, 2838.483
246.391, 2821.285
246.873, 2810.160
247.355, 2802.194
247.837, 2791.848
248.320, 2776.770
248.802, 2763.291
249.284, 2754.035
249.766, 2750.682
250.248, 2746.385
250.730, 2739.755
251.212, 2733.007
251.695, 2730.661
252.177, 2733.641
252.659, 2739.724
253.141, 2749.388
253.623, 2766.347
254.105, 2776.337
254.587, 2777.955
255.069, 2773.516
255.551, 2766.812
256.034, 2753.595
256.516, 2745.714
256.998, 2749.730
257.480, 2771.440
257.962, 2789.106
258.444, 2802.263
258.926, 2811.405
259.408, 2816.991
259.890, 2815.270
260.373, 2816.667
260.855, 2826.247
261.337, 2845.472
261.819, 2868.721
262.301, 2897.622
262.783, 2929.669
263.265, 2956.710
263.747, 2976.539
264.229, 2996.305
264.712, 3020.010
265.194, 3048.365
265.676, 3077.885
266.158, 3109.323
266.640, 3141.065
267.122, 3165.988
267.604, 3181.069
268.086, 3197.263
268.569, 3221.997
269.051, 3258.694
269.533, 3289.278
270.015, 3309.498
270.497, 3324.892
270.979, 3353.381
271.461, 3401.203
271.943, 3445.390
272.426, 3470.225
272.908, 3471.786
273.390, 3478.560
273.872, 3493.157
274.354, 3513.737
274.836, 3537.223
275.318, 3565.853
275.800, 3589.980
276.282, 3601.043
276.764, 3597.158
277.247, 3599.787
277.729, 3613.303
278.211, 3632.067
278.693, 3643.106
279.175, 3646.365
279.657, 3641.785
280.139, 3625.067
280.621, 3595.615
281.104, 3575.357
281.586, 3568.942
282.068, 3569.855
282.550, 3564.354
283.032, 3552.396
283.514, 3534.331
283.996, 3505.843
284.478, 3467.934
284.961, 3440.787
285.443, 3429.182
285.925, 3425.549
286.407, 3415.844
286.889, 3400.088
287.371, 3378.550
287.853, 3341.378
288.335, 3293.533
288.817, 3277.323
289.299, 3308.600
289.782, 3353.167
290.264, 3335.298
290.746, 3258.139
291.228, 3196.406
291.710, 3213.695
292.192, 3289.886
292.674, 3339.198
293.156, 3348.919
293.639, 3338.080
294.121, 3331.365
294.603, 3329.039
295.085, 3332.205
295.567, 3345.858
296.049, 3365.656
296.531, 3380.396
297.013, 3388.512
297.496, 3392.704
297.978, 3396.319
298.460, 3399.230
298.942, 3400.358
299.424, 3401.963
299.906, 3400.875
300.388, 3387.593
300.870, 3356.723
301.352, 3327.913
301.835, 3301.276
302.317, 3299.615
302.799, 3291.893
303.281, 3278.434
303.763, 3242.059
304.245, 3235.276
304.727, 3216.630
305.209, 3197.501
305.691, 3188.354
306.174, 3183.371
306.656, 3162.886
307.138, 3098.544
307.620, 3017.435
308.102, 2944.625
308.584, 2883.610
309.066, 2827.619
309.548, 2772.123
310.030, 2718.083
310.513, 2665.870
310.995, 2619.431
311.477, 2571.958
311.959, 2517.902
312.441, 2456.720
312.923, 2392.124
313.405, 2324.954
313.888, 2256.185
314.370, 2188.520
314.852, 2114.468
315.334, 2046.865
315.816, 1995.488
316.298, 1962.182
316.780, 1929.048
317.262, 1883.464
317.744, 1835.175
318.227, 1796.009
318.709, 1774.022
319.191, 1757.273
319.673, 1743.219
320.155, 1731.893
320.637, 1717.833
321.119, 1697.366
321.601, 1674.309
322.083, 1652.467
322.566, 1627.970
323.048, 1609.105
323.530, 1599.323
324.012, 1598.661
324.494, 1599.075
324.976, 1602.910
325.458, 1605.469
325.940, 1603.310
326.422, 1587.867
326.905, 1576.751
327.387, 1576.618
327.869, 1586.359
328.351, 1585.412
328.833, 1561.532
329.315, 1535.874
329.797, 1521.104
330.279, 1528.567
330.762, 1530.993
331.244, 1526.770
331.726, 1516.225
332.208, 1500.460
332.690, 1475.176
333.172, 1449.678
333.654, 1429.606
334.136, 1420.609
334.618, 1403.942
335.101, 1374.673
335.583, 1338.236
336.065, 1312.431
336.547, 1302.363
337.029, 1293.078
337.511, 1275.188
337.993, 1244.290
338.475, 1224.759
338.957, 1220.654
339.440, 1224.782
339.922, 1222.856
340.404, 1214.131
340.886, 1202.592
341.368, 1189.184
341.850, 1173.596
342.332, 1159.844
342.815, 1147.669
343.297, 1137.511
343.779, 1131.059
344.261, 1128.485
344.743, 1124.403
345.225, 1114.534
345.707, 1100.714
346.189, 1093.393
346.671, 1093.723
347.154, 1095.286
347.636, 1089.184
348.118, 1077.067
348.600, 1067.698
349.082, 1065.841
349.564, 1068.448
350.046, 1070.776
350.528, 1072.859
351.010, 1070.669
351.493, 1057.338
351.975, 1036.901
352.457, 1018.572
352.939, 1003.352
353.421, 993.284
353.903, 992.472
354.385, 1000.148
354.867, 1010.301
355.349, 1011.119
355.832, 1014.466
356.314, 998.980
356.796, 1011.949
357.278, 1018.011
357.760, 1017.537
358.242, 990.950
358.724, 998.083
359.206, 991.702
359.689, 984.767
360.171, 996.645
360.653, 973.856
361.135, 985.436
361.617, 983.296
362.099, 958.977
362.581, 984.179
363.063, 997.361
363.546, 999.167
364.028, 955.528
364.510, 970.572
364.992, 962.099
365.474, 952.662
365.956, 975.965
366.438, 938.936
366.920, 961.720
367.402, 960.628
367.884, 970.464
368.367, 956.637
368.849, 950.118
369.331, 967.270
369.813, 971.316
370.295, 954.765
370.777, 940.482
371.259, 936.302
371.741, 930.142
372.224, 922.081
372.706, 914.948
373.188, 909.118
373.670, 903.799
374.152, 897.171
374.634, 885.869
375.116, 884.463
375.598, 900.161
376.081, 925.311
376.563, 929.541
377.045, 906.045
377.527, 882.944
378.009, 880.221
378.491, 899.198
378.973, 909.830
379.455, 909.176
379.937, 901.139
380.419, 888.496
380.902, 871.228
381.384, 862.582
381.866, 878.304
382.348, 910.655
382.830, 920.847
383.312, 905.311
383.794, 883.081
384.276, 876.415
384.759, 882.174
385.241, 889.031
385.723, 893.390
386.205, 895.577
386.687, 894.980
387.169, 891.661
387.651, 889.191
388.133, 893.208
388.616, 899.260
389.098, 900.262
389.580, 889.021
390.062, 877.480
390.544, 875.571
391.026, 881.670
391.508, 888.030
391.990, 888.675
392.472, 888.976
392.955, 894.296
393.437, 911.132
393.919, 922.931
394.401, 918.523
394.883, 904.439
395.365, 894.539
395.847, 902.612
396.329, 907.351
396.811, 896.854
397.294, 862.923
397.776, 837.526
398.258, 826.876
398.740, 826.360
399.222, 830.636
399.704, 847.870
400.186, 860.420
400.668, 865.006
401.151, 861.434
401.633, 852.237
402.115, 828.794
402.597, 808.399
403.079, 806.700
403.561, 833.476
404.043, 854.671
404.525, 865.738
405.008, 868.049
405.490, 866.587
405.972, 860.438
406.454, 853.319
406.936, 846.025
407.418, 838.317
407.900, 837.238
408.382, 845.346
408.864, 856.218
409.346, 856.756
409.829, 847.232
410.311, 840.802
410.793, 849.110
411.275, 865.427
411.757, 865.827
412.239, 848.551
412.721, 829.601
413.203, 827.481
413.686, 836.684
414.168, 842.933
414.650, 840.385
415.132, 833.183
415.614, 823.247
416.096, 811.438
416.578, 803.515
417.060, 805.191
417.543, 811.940
418.025, 820.115
418.507, 833.209
418.989, 839.799
419.471, 826.571
419.953, 801.825
420.435, 785.596
420.917, 792.458
421.399, 803.696
421.882, 810.890
422.364, 813.349
422.846, 811.088
423.328, 798.166
423.810, 782.573
424.292, 774.015
424.774, 777.670
425.256, 783.595
425.738, 790.396
426.221, 797.992
426.703, 807.404
427.185, 822.040
427.667, 834.766
428.149, 839.902
428.631, 834.677
429.113, 828.938
429.595, 822.375
430.078, 816.471
430.560, 815.420
431.042, 819.511
431.524, 827.124
432.006, 841.171
432.488, 828.860
432.970, 839.424
433.452, 844.436
433.934, 844.193
434.417, 822.958
434.899, 828.830
435.381, 823.838
435.863, 818.401
436.345, 828.089
436.827, 809.907
437.309, 819.354
437.791, 817.772
438.273, 821.238
438.756, 813.774
439.238, 809.398
439.720, 801.347
440.202, 790.438
440.684, 792.046
441.166, 802.852
441.648, 813.495
442.130, 823.988
442.612, 829.465
443.095, 824.192
443.577, 803.989
444.059, 788.407
444.541, 786.331
445.023, 791.362
445.505, 795.836
445.987, 802.449
446.470, 804.053
446.952, 795.526
447.434, 776.897
447.916, 766.316
448.398, 767.260
448.880, 773.138
449.362, 780.738
449.844, 792.521
450.326, 800.526
450.809, 804.317
451.291, 804.174
451.773, 799.425
452.255, 787.982
452.737, 779.168
453.219, 778.339
453.701, 785.266
454.183, 788.955
454.665, 788.756
455.148, 788.167
455.630, 791.908
456.112, 799.302
456.594, 805.689
457.076, 809.935
457.558, 812.339
458.040, 814.433
458.522, 815.805
459.004, 813.346
459.487, 799.943
459.969, 783.197
460.451, 772.652
460.933, 769.260
461.415, 774.212
461.897, 796.964
462.379, 827.769
462.862, 849.042
463.344, 845.987
463.826, 838.404
464.308, 834.858
464.790, 835.907
465.272, 839.419
465.754, 847.757
466.236, 856.596
466.718, 862.852
467.201, 869.386
467.683, 869.015
468.165, 855.156
468.647, 833.968
469.129, 825.237
469.611, 837.049
470.093, 849.487
470.575, 855.729
471.057, 855.750
471.539, 847.419
472.022, 825.448
472.504, 804.321
472.986, 806.455
473.468, 833.912
473.950, 853.120
474.432, 854.559
474.914, 842.774
475.397, 826.071
475.879, 804.697
476.361, 788.459
476.843, 789.073
477.325, 799.370
477.807, 803.014
478.289, 796.182
478.771, 789.046
479.253, 797.594
479.736, 779.168
480.218, 799.523
480.700, 810.464
481.182, 812.497
481.664, 778.944
482.146, 791.343
482.628, 785.327
483.110, 778.556
483.592, 797.423
484.075, 769.046
484.557, 787.506
485.039, 787.270
485.521, 795.591
486.003, 785.382
486.485, 780.897
486.967, 794.946
487.449, 778.118
487.931, 768.748
488.414, 749.889
488.896, 737.103
489.378, 731.720
489.860, 730.365
490.342, 730.467
490.824, 732.310
491.306, 733.474
491.788, 733.715
492.271, 732.918
492.753, 730.191
493.235, 725.555
493.717, 721.458
494.199, 715.355
494.681, 711.278
495.163, 724.369
495.645, 757.837
496.128, 783.999
496.610, 764.972
497.092, 722.977
497.574, 695.329
498.056, 708.018
498.538, 726.032
499.020, 724.719
499.502, 708.907
499.984, 698.822
500.466, 708.342
500.949, 721.394
501.431, 728.904
501.913, 728.310
502.395, 726.188
502.877, 721.639
503.359, 716.635
503.841, 713.118
504.323, 706.893
504.806, 709.437
505.288, 729.521
505.770, 762.275
506.252, 768.933
506.734, 739.748
507.216, 708.578
507.698, 698.085
508.180, 708.901
508.663, 716.578
509.145, 719.760
509.627, 719.890
510.109, 717.490
510.591, 713.214
511.073, 710.863
511.555, 714.097
512.037, 718.562
512.519, 715.233
513.002, 705.476
513.484, 699.335
513.966, 707.058
514.448, 719.940
514.930, 730.023
515.412, 736.772
515.894, 737.918
516.376, 724.643
516.859, 706.903
517.341, 699.250
517.823, 722.685
518.305, 739.022
518.787, 723.103
519.269, 738.259
519.751, 745.870
520.233, 746.345
520.715, 718.304
521.198, 727.085
521.680, 721.109
522.162, 714.528
522.644, 728.491
523.126, 704.598
523.608, 718.235
524.090, 716.891
524.572, 722.404
525.054, 713.069
525.537, 708.319
526.019, 705.856
526.501, 700.121
526.983, 693.678
527.465, 694.916
527.947, 699.240
528.429, 697.523
528.911, 686.848
529.393, 676.055
529.876, 672.970
530.358, 674.266
530.840, 674.486
531.322, 669.964
531.804, 665.395
532.286, 663.757
532.768, 664.638
533.250, 663.180
533.732, 654.646
534.215, 646.451
534.697, 642.649
535.179, 645.333
535.661, 647.773
536.143, 650.323
536.625, 652.393
537.107, 652.983
537.589, 651.543
538.072, 650.878
538.554, 652.640
539.036, 655.323
539.518, 649.727
540.000, 634.832
540.482, 627.128
540.964, 648.991
541.446, 686.237
541.929, 696.980
542.411, 674.930
542.893, 645.786
543.375, 631.418
543.857, 627.279
544.339, 625.288
544.821, 622.555
545.303, 621.051
545.786, 623.272
546.268, 628.017
546.750, 630.821
547.232, 621.927
547.714, 617.587
548.196, 628.892
548.678, 665.164
549.160, 686.290
549.642, 686.716
550.125, 675.514
550.607, 658.587
551.089, 628.532
551.571, 612.858
552.053, 619.554
552.535, 639.694
553.017, 650.029
553.499, 649.932
553.981, 646.602
554.464, 641.266
554.946, 635.294
555.428, 635.899
555.910, 643.347
556.392, 649.093
556.874, 643.189
557.356, 631.378
557.838, 622.946
558.320, 620.860
558.803, 620.820
559.285, 621.784
559.767, 622.526
560.249, 620.690
560.731, 610.311
561.213, 602.147
561.695, 602.487
562.177, 611.565
562.659, 614.671
563.142, 602.409
563.624, 591.931
564.106, 593.817
564.588, 616.848
565.070, 627.438
565.552, 620.433
566.034, 607.992
566.516, 610.378
566.999, 628.957
567.481, 638.828
567.963, 628.595
568.445, 609.294
568.927, 608.726
569.409, 624.630
569.891, 636.393
570.373, 626.641
570.856, 606.977
571.338, 590.509
571.820, 578.450
572.302, 572.868
572.784, 582.104
573.266, 595.532
573.748, 602.180
574.230, 591.053
574.713, 582.348
575.195, 583.341
575.677, 590.092
576.159, 591.625
576.641, 582.814
577.123, 575.462
577.605, 573.253
578.087, 576.155
578.569, 579.017
579.052, 581.701
579.534, 584.722
580.016, 590.140
580.498, 597.499
580.980, 597.642
581.462, 588.164
581.944, 576.598
582.426, 574.136
582.908, 577.740
583.391, 578.034
583.873, 565.816
584.355, 553.972
584.837, 556.607
585.319, 570.316
585.801, 581.604
586.283, 586.560
586.765, 585.333
587.247, 575.584
587.730, 553.987
588.212, 538.708
588.694, 534.331
589.176, 535.545
589.658, 538.877
590.140, 545.739
590.622, 551.739
591.104, 557.171
591.586, 561.013
592.069, 559.404
592.551, 551.556
593.033, 547.859
593.515, 553.709
593.997, 566.045
594.479, 571.335
594.961, 554.509
595.443, 572.549
595.925, 582.125
596.408, 583.693
596.890, 553.266
597.372, 564.153
597.854, 558.484
598.336, 552.135
598.818, 568.838
599.300, 558.431
599.782, 556.214
600.265, 552.574
600.747, 543.957
601.229, 533.437
601.711, 529.777
602.193, 537.184
602.675, 544.444
603.157, 547.752
603.639, 547.309
604.122, 546.610
604.604, 544.986
605.086, 546.223
605.568, 555.995
606.050, 571.908
606.532, 583.375
607.014, 589.304
607.496, 590.145
607.979, 586.200
608.461, 556.080
608.943, 589.493
609.425, 607.484
609.907, 610.881
610.389, 555.976
610.871, 576.356
611.353, 566.566
611.835, 555.538
612.318, 586.514
612.800, 540.089
613.282, 570.400
613.764, 570.078
614.246, 583.777
614.728, 567.118
615.210, 559.835
615.692, 582.919
616.174, 589.189
616.657, 569.035
617.139, 583.625
617.621, 536.139
618.103, 543.125
618.585, 573.613
619.067, 554.986
619.549, 570.130
620.031, 572.412
620.513, 516.241
620.996, 561.726
621.478, 563.249
621.960, 519.631
622.442, 561.632
622.924, 524.237
623.406, 515.182
623.888, 526.438
624.370, 506.086
624.852, 498.586
625.335, 510.947
625.817, 519.988
626.299, 525.302
626.781, 527.823
627.263, 527.662
627.745, 524.632
628.227, 524.990
628.709, 532.467
629.192, 540.793
629.674, 537.319
630.156, 524.197
630.638, 510.616
631.120, 500.749
631.602, 493.173
632.084, 485.625
632.566, 478.395
633.049, 475.583
633.531, 482.348
634.013, 491.803
634.495, 499.553
634.977, 504.194
635.459, 509.756
635.941, 518.427
636.423, 526.323
636.906, 530.092
637.388, 511.825
637.870, 532.033
638.352, 542.901
638.834, 544.932
639.316, 511.656
639.798, 523.971
640.280, 518.016
640.762, 511.311
641.245, 530.043
641.727, 501.902
642.209, 520.231
642.691, 520.010
643.173, 528.279
643.655, 518.164
644.137, 513.727
644.619, 527.680
645.101, 531.451
645.584, 519.219
646.066, 528.028
