##NAMES=Livingstonite
##RRUFFID=R050453
##IDEAL CHEMISTRY=HgSb_4_S_8_
##LOCALITY=Huitzuco, Guerrero, Mexico
##OWNER=RRUFF
##SOURCE=University of Arizona Mineral Museum
##DESCRIPTION=Aggregate of gray columnar crystals
##STATUS=The identification of this mineral has been confirmed by X-ray diffraction and chemical analysis
##URL=rruff.info/R050453
##MEASURED CHEMISTRY=Hg_1.00_Sb_4.00_S_8.00_
108.024, 2197.617
108.506, 2454.811
108.988, 2759.804
109.470, 3035.855
109.952, 3278.776
110.434, 3490.706
110.916, 3680.540
111.399, 3816.677
111.881, 3950.196
112.363, 4110.873
112.845, 4313.549
113.327, 4530.458
113.809, 4758.200
114.291, 4995.747
114.773, 5248.941
115.256, 5543.984
115.738, 5847.126
116.220, 6116.305
116.702, 6330.818
117.184, 6514.797
117.666, 6682.261
118.148, 6842.090
118.630, 6966.494
119.113, 7031.985
119.595, 7050.482
120.077, 7047.372
120.559, 7033.533
121.041, 7004.149
121.523, 6954.026
122.005, 6877.361
122.487, 6785.057
122.969, 6677.502
123.451, 6557.612
123.934, 6448.884
124.416, 6368.692
124.898, 6311.211
125.380, 6266.224
125.862, 6225.255
126.344, 6196.416
126.826, 6194.130
127.308, 6219.770
127.791, 6260.355
128.273, 6300.384
128.755, 6342.961
129.237, 6401.034
129.719, 6477.044
130.201, 6573.167
130.683, 6699.313
131.165, 6862.423
131.648, 7045.064
132.130, 7224.900
132.612, 7401.764
133.094, 7583.318
133.576, 7765.292
134.058, 7948.090
134.540, 8170.231
135.022, 8445.520
135.504, 8765.432
135.986, 9081.452
136.469, 9394.920
136.951, 9711.563
137.433, 10039.220
137.915, 10376.120
138.397, 10716.150
138.879, 11056.470
139.361, 11395.290
139.844, 11756.220
140.326, 12155.230
140.808, 12556.270
141.290, 12902.900
141.772, 13186.550
142.254, 13429.420
142.736, 13642.180
143.218, 13845.840
143.700, 13968.500
144.182, 14004.000
144.665, 13960.460
145.147, 13862.380
145.629, 13701.480
146.111, 13494.840
146.593, 13250.560
147.075, 12931.040
147.557, 12625.130
148.039, 12345.810
148.522, 12091.450
149.004, 11824.740
149.486, 11523.690
149.968, 11221.890
150.450, 10941.280
150.932, 10689.160
151.414, 10454.590
151.896, 10241.240
152.378, 10054.300
152.861, 9865.193
153.343, 9665.417
153.825, 9464.405
154.307, 9272.697
154.789, 9101.703
155.271, 8932.043
155.753, 8752.576
156.235, 8544.956
156.717, 8372.640
157.200, 8269.978
157.682, 8210.174
158.164, 8138.353
158.646, 8019.055
159.128, 7896.988
159.610, 7795.848
160.092, 7731.340
160.574, 7674.570
161.057, 7615.483
161.539, 7555.857
162.021, 7505.501
162.503, 7474.051
162.985, 7450.492
163.467, 7425.519
163.949, 7391.486
164.431, 7359.525
164.913, 7336.186
165.396, 7321.401
165.878, 7307.909
166.360, 7295.696
166.842, 7282.004
167.324, 7263.258
167.806, 7222.583
168.288, 7186.818
168.770, 7181.222
169.253, 7211.926
169.735, 7242.142
170.217, 7243.974
170.699, 7227.040
171.181, 7210.662
171.663, 7200.752
172.145, 7198.132
172.627, 7204.650
173.109, 7222.335
173.592, 7244.160
174.074, 7259.242
174.556, 7271.428
175.038, 7294.695
175.520, 7338.504
176.002, 7399.419
176.484, 7468.837
176.966, 7540.677
177.449, 7627.333
177.931, 7743.714
178.413, 7888.346
178.895, 8057.134
179.377, 8244.103
179.859, 8452.543
180.341, 8690.080
180.823, 8941.406
181.305, 9232.208
181.788, 9602.804
182.270, 10050.110
182.752, 10577.360
183.234, 11167.580
183.716, 11833.680
184.198, 12602.680
184.680, 13611.950
185.162, 14726.790
185.645, 15703.450
186.127, 16564.990
186.609, 17127.961
187.091, 17102.051
187.573, 16515.811
188.055, 15650.440
188.537, 14492.080
189.019, 13122.250
189.501, 11920.740
189.984, 10893.210
190.466, 10036.740
190.948, 9362.426
191.430, 8865.436
191.912, 8475.177
192.394, 8169.348
192.876, 7943.582
193.358, 7752.910
193.840, 7598.637
194.323, 7471.077
194.805, 7345.020
195.287, 7219.676
195.769, 7107.524
196.251, 7019.754
196.733, 6955.665
197.215, 6900.899
197.697, 6852.672
198.180, 6811.930
198.662, 6779.020
199.144, 6751.579
199.626, 6707.895
200.108, 6758.459
200.590, 6786.146
201.072, 6792.183
201.554, 6711.733
202.036, 6742.964
202.519, 6729.438
203.001, 6714.078
203.483, 6761.027
203.965, 6693.156
204.447, 6739.118
204.929, 6739.640
205.411, 6729.630
205.893, 6770.813
206.376, 6795.097
206.858, 6796.884
207.340, 6790.146
207.822, 6796.412
208.304, 6821.280
208.786, 6840.150
209.268, 6842.452
209.750, 6825.689
210.232, 6814.416
210.715, 6809.342
211.197, 6809.490
211.679, 6815.287
212.161, 6831.629
212.643, 6842.093
213.125, 6836.993
213.607, 6809.923
214.089, 6793.435
214.572, 6790.111
215.054, 6795.942
215.536, 6801.029
216.018, 6802.928
216.500, 6808.460
216.982, 6822.619
217.464, 6850.168
217.946, 6869.251
218.428, 6872.594
218.911, 6867.431
219.393, 6881.147
219.875, 6922.901
220.357, 6967.989
220.839, 7002.330
221.321, 7025.225
221.803, 7038.509
222.285, 7037.591
222.768, 7026.336
223.250, 7026.517
223.732, 7040.091
224.214, 7062.847
224.696, 7093.676
225.178, 7137.596
225.660, 7177.997
226.142, 7209.319
226.624, 7233.379
227.107, 7272.894
227.589, 7342.935
228.071, 7411.329
228.553, 7447.282
229.035, 7424.409
229.517, 7422.146
229.999, 7458.342
230.481, 7532.920
230.964, 7599.640
231.446, 7654.286
231.928, 7705.964
232.410, 7758.638
232.892, 7789.674
233.374, 7867.008
233.856, 8029.501
234.338, 8288.518
234.820, 8454.541
235.303, 8480.711
235.785, 8452.245
236.267, 8460.679
236.749, 8505.127
237.231, 8588.667
237.713, 8714.662
238.195, 8887.354
238.677, 9074.268
239.159, 9260.304
239.642, 9471.940
240.124, 9743.490
240.606, 10088.700
241.088, 10477.530
241.570, 10881.280
242.052, 11272.230
242.534, 11825.570
243.016, 12618.750
243.499, 13526.250
243.981, 14337.230
244.463, 14922.830
244.945, 15620.080
245.427, 16540.010
245.909, 17699.590
246.391, 18993.510
246.873, 20489.160
247.355, 22081.289
247.837, 23625.760
248.320, 25258.430
248.802, 26591.439
249.284, 27524.920
249.766, 28118.320
250.248, 28082.131
250.730, 27290.631
251.212, 25928.670
251.695, 24342.391
252.177, 22369.689
252.659, 20434.580
253.141, 18680.420
253.623, 17110.961
254.105, 15750.460
254.587, 14605.800
255.069, 13655.970
255.551, 12860.410
256.034, 12253.370
256.516, 11753.030
256.998, 11331.370
257.480, 11005.410
257.962, 10719.760
258.444, 10472.670
258.926, 10264.340
259.408, 10092.830
259.890, 9967.630
260.373, 9860.543
260.855, 9755.099
261.337, 9644.023
261.819, 9560.189
262.301, 9513.916
262.783, 9490.818
263.265, 9451.124
263.747, 9383.199
264.229, 9321.928
264.712, 9287.302
265.194, 9288.854
265.676, 9282.741
266.158, 9262.142
266.640, 9235.291
267.122, 9227.535
267.604, 9244.856
268.086, 9267.427
268.569, 9285.421
269.051, 9298.867
269.533, 9308.096
270.015, 9309.981
270.497, 9309.780
270.979, 9325.975
271.461, 9367.063
271.943, 9401.388
272.426, 9403.157
272.908, 9363.282
273.390, 9351.552
273.872, 9383.598
274.354, 9439.757
274.836, 9465.380
275.318, 9454.145
275.800, 9435.851
276.282, 9422.491
276.764, 9412.160
277.247, 9389.318
277.729, 9397.312
278.211, 9397.822
278.693, 9391.250
279.175, 9356.380
279.657, 9358.051
280.139, 9348.454
280.621, 9324.910
281.104, 9298.278
281.586, 9264.638
282.068, 9225.663
282.550, 9180.606
283.032, 9127.942
283.514, 9082.857
283.996, 9056.759
284.478, 9048.951
284.961, 9046.604
285.443, 9051.670
285.925, 9057.233
286.407, 9041.932
286.889, 9004.756
287.371, 8977.611
287.853, 8987.917
288.335, 9030.166
288.817, 9063.903
289.299, 9083.774
289.782, 9095.445
290.264, 9106.350
290.746, 9116.663
291.228, 9131.586
291.710, 9163.271
292.192, 9204.581
292.674, 9225.576
293.156, 9222.718
293.639, 9200.065
294.121, 9151.318
294.603, 9081.313
295.085, 9023.605
295.567, 9010.936
296.049, 9026.678
296.531, 9026.613
297.013, 9004.569
297.496, 8970.110
297.978, 8935.044
298.460, 8898.433
298.942, 8856.819
299.424, 8811.506
299.906, 8759.059
300.388, 8690.131
300.870, 8600.650
301.352, 8502.761
301.835, 8407.155
302.317, 8313.619
302.799, 8220.065
303.281, 8131.306
303.763, 8039.928
304.245, 7935.932
304.727, 7815.115
305.209, 7690.523
305.691, 7573.530
306.174, 7461.449
306.656, 7344.231
307.138, 7214.911
307.620, 7078.773
308.102, 6938.150
308.584, 6793.777
309.066, 6648.531
309.548, 6492.854
310.030, 6338.330
310.513, 6202.420
310.995, 6108.435
311.477, 6024.708
311.959, 5922.584
312.441, 5797.096
312.923, 5681.602
313.405, 5607.814
313.888, 5554.389
314.370, 5491.281
314.852, 5388.947
315.334, 5286.473
315.816, 5207.891
316.298, 5156.540
316.780, 5106.014
317.262, 5041.626
317.744, 4972.594
318.227, 4910.332
318.709, 4862.278
319.191, 4817.402
319.673, 4771.185
320.155, 4723.278
320.637, 4678.376
321.119, 4638.748
321.601, 4602.077
322.083, 4566.656
322.566, 4529.917
323.048, 4496.019
323.530, 4468.832
324.012, 4448.310
324.494, 4421.053
324.976, 4377.137
325.458, 4330.180
325.940, 4289.952
326.422, 4260.375
326.905, 4234.734
327.387, 4215.356
327.869, 4201.496
328.351, 4181.491
328.833, 4146.640
329.315, 4111.861
329.797, 4086.513
330.279, 4087.502
330.762, 4073.439
331.244, 4030.889
331.726, 3968.009
332.208, 3931.115
332.690, 3939.487
333.172, 3951.571
333.654, 3943.855
334.136, 3903.297
334.618, 3871.357
335.101, 3852.204
335.583, 3842.384
336.065, 3832.526
336.547, 3824.228
337.029, 3812.856
337.511, 3794.370
337.993, 3765.696
338.475, 3742.977
338.957, 3727.099
339.440, 3716.707
339.922, 3711.448
340.404, 3713.204
340.886, 3711.362
341.368, 3696.715
341.850, 3668.047
342.332, 3656.843
342.815, 3667.791
343.297, 3685.823
343.779, 3687.111
344.261, 3671.346
344.743, 3655.169
345.225, 3646.571
345.707, 3643.887
346.189, 3635.360
346.671, 3619.634
347.154, 3606.023
347.636, 3609.306
348.118, 3626.002
348.600, 3637.696
349.082, 3639.725
349.564, 3631.074
350.046, 3603.023
350.528, 3555.031
351.010, 3510.682
351.493, 3498.774
351.975, 3506.416
352.457, 3504.038
352.939, 3475.016
353.421, 3438.316
353.903, 3417.172
354.385, 3410.081
354.867, 3405.151
355.349, 3399.638
355.832, 3389.836
356.314, 3369.175
356.796, 3326.786
357.278, 3287.353
357.760, 3274.422
358.242, 3281.647
358.724, 3286.291
359.206, 3266.752
359.689, 3245.703
360.171, 3242.518
360.653, 3268.610
361.135, 3295.388
361.617, 3303.786
362.099, 3303.921
362.581, 3316.921
363.063, 3360.288
363.546, 3409.795
364.028, 3451.146
364.510, 3475.835
364.992, 3515.359
365.474, 3588.472
365.956, 3678.111
366.438, 3757.793
366.920, 3822.871
367.402, 3880.212
367.884, 3934.158
368.367, 3987.788
368.849, 4021.913
369.331, 4026.174
369.813, 4016.497
370.295, 4008.370
370.777, 4019.476
371.259, 4006.677
371.741, 3961.118
372.224, 3883.453
372.706, 3791.164
373.188, 3672.139
373.670, 3554.999
374.152, 3461.215
374.634, 3396.362
375.116, 3341.442
375.598, 3297.160
376.081, 3260.323
376.563, 3217.249
377.045, 3165.786
377.527, 3114.452
378.009, 3066.215
378.491, 3021.747
378.973, 2985.597
379.455, 2960.500
379.937, 2939.917
380.419, 2906.368
380.902, 2859.937
381.384, 2825.242
381.866, 2825.452
382.348, 2850.681
382.830, 2854.897
383.312, 2835.117
383.794, 2805.609
384.276, 2779.116
384.759, 2756.044
385.241, 2738.956
385.723, 2733.071
386.205, 2731.837
386.687, 2725.180
387.169, 2713.060
387.651, 2699.338
388.133, 2680.953
388.616, 2664.222
389.098, 2659.575
389.580, 2681.652
390.062, 2704.240
390.544, 2707.077
391.026, 2692.822
391.508, 2674.205
391.990, 2650.267
392.472, 2629.160
392.955, 2619.307
393.437, 2630.604
393.919, 2637.969
394.401, 2625.106
394.883, 2601.367
395.365, 2586.675
395.847, 2601.255
396.329, 2613.748
396.811, 2607.242
397.294, 2570.942
397.776, 2546.555
398.258, 2547.414
398.740, 2560.453
399.222, 2569.745
399.704, 2576.515
400.186, 2577.354
400.668, 2569.128
401.151, 2551.037
401.633, 2538.345
402.115, 2532.826
402.597, 2530.989
403.079, 2531.011
403.561, 2535.888
404.043, 2534.519
404.525, 2521.976
405.008, 2502.476
405.490, 2496.324
405.972, 2507.891
406.454, 2519.148
406.936, 2516.567
407.418, 2499.202
407.900, 2491.225
408.382, 2496.251
408.864, 2507.368
409.346, 2515.079
409.829, 2519.299
410.311, 2516.976
410.793, 2499.991
411.275, 2475.181
411.757, 2466.823
412.239, 2476.785
412.721, 2488.726
413.203, 2481.761
413.686, 2463.386
414.168, 2453.257
414.650, 2464.935
415.132, 2482.621
415.614, 2489.651
416.096, 2486.675
416.578, 2479.270
417.060, 2464.994
417.543, 2450.741
418.025, 2443.812
418.507, 2446.306
418.989, 2455.547
419.471, 2477.259
419.953, 2505.113
420.435, 2523.524
420.917, 2522.932
421.399, 2514.917
421.882, 2503.809
422.364, 2488.356
422.846, 2476.354
423.328, 2469.344
423.810, 2466.449
424.292, 2466.511
424.774, 2470.716
425.256, 2476.578
425.738, 2484.187
426.221, 2493.459
426.703, 2502.835
427.185, 2512.954
427.667, 2522.442
428.149, 2529.900
428.631, 2534.028
429.113, 2539.388
429.595, 2546.281
430.078, 2554.618
430.560, 2565.087
431.042, 2578.392
431.524, 2590.628
432.006, 2596.391
432.488, 2596.058
432.970, 2608.030
433.452, 2634.002
433.934, 2668.165
434.417, 2701.894
434.899, 2736.194
435.381, 2778.519
435.863, 2837.527
436.345, 2903.894
436.827, 2956.059
437.309, 2994.806
437.791, 3036.691
438.273, 3098.462
438.756, 3171.542
439.238, 3240.331
439.720, 3291.052
440.202, 3353.340
440.684, 3455.882
441.166, 3589.649
441.648, 3729.655
442.130, 3850.700
442.612, 3981.947
443.095, 4147.766
443.577, 4363.068
444.059, 4563.969
444.541, 4730.108
445.023, 4870.828
445.505, 4997.881
445.987, 5116.145
446.470, 5216.458
446.952, 5309.981
447.434, 5396.188
447.916, 5418.194
448.398, 5352.165
448.880, 5244.157
449.362, 5118.258
449.844, 4967.298
450.326, 4816.351
450.809, 4666.744
451.291, 4516.133
451.773, 4360.588
452.255, 4197.422
452.737, 4034.755
453.219, 3873.020
453.701, 3710.768
454.183, 3573.212
454.665, 3460.147
455.148, 3365.286
455.630, 3289.079
456.112, 3228.186
456.594, 3164.429
457.076, 3086.829
457.558, 3007.887
458.040, 2951.870
458.522, 2916.546
459.004, 2883.895
459.487, 2839.636
459.969, 2791.656
460.451, 2751.670
460.933, 2723.087
461.415, 2697.691
461.897, 2671.518
462.379, 2644.637
462.862, 2617.845
463.344, 2585.152
463.826, 2557.934
464.308, 2545.655
464.790, 2549.283
465.272, 2548.047
465.754, 2518.080
466.236, 2492.041
466.718, 2450.739
467.201, 2485.741
467.683, 2502.222
468.165, 2501.176
468.647, 2430.109
469.129, 2449.459
469.611, 2432.573
470.093, 2414.202
470.575, 2446.279
471.057, 2419.025
471.539, 2400.043
472.022, 2396.219
472.504, 2398.854
472.986, 2398.292
473.468, 2394.467
473.950, 2387.205
474.432, 2373.025
474.914, 2357.590
475.397, 2362.386
475.879, 2386.819
476.361, 2404.110
476.843, 2385.946
477.325, 2348.000
477.807, 2324.768
478.289, 2323.756
478.771, 2326.874
479.253, 2315.048
479.736, 2294.662
480.218, 2278.609
480.700, 2272.723
481.182, 2273.037
481.664, 2280.788
482.146, 2295.133
482.628, 2303.207
483.110, 2299.467
483.592, 2287.532
484.075, 2269.227
484.557, 2226.464
485.039, 2201.920
485.521, 2214.996
486.003, 2249.922
486.485, 2268.659
486.967, 2260.139
487.449, 2249.232
487.931, 2244.475
488.414, 2247.550
488.896, 2240.246
489.378, 2216.604
489.860, 2192.174
490.342, 2184.947
490.824, 2197.808
491.306, 2202.450
491.788, 2191.477
492.271, 2172.303
492.753, 2163.482
493.235, 2164.740
493.717, 2167.649
494.199, 2171.561
494.681, 2172.928
495.163, 2159.736
495.645, 2129.705
496.128, 2101.575
496.610, 2096.246
497.092, 2104.274
497.574, 2109.834
498.056, 2101.513
498.538, 2094.858
499.020, 2103.191
499.502, 2122.780
499.984, 2137.993
500.466, 2145.633
500.949, 2145.165
501.431, 2134.346
501.913, 2106.959
502.395, 2085.521
502.877, 2075.116
503.359, 2071.128
503.841, 2067.754
504.323, 2063.781
504.806, 2062.346
505.288, 2065.252
505.770, 2071.527
506.252, 2074.545
506.734, 2074.214
507.216, 2070.765
507.698, 2060.958
508.180, 2044.328
508.663, 2041.900
509.145, 2058.360
509.627, 2078.949
510.109, 2080.804
510.591, 2067.123
511.073, 2055.831
511.555, 2054.831
512.037, 2059.333
512.519, 2064.094
513.002, 2068.660
513.484, 2069.802
513.966, 2061.283
514.448, 2050.303
514.930, 2045.214
515.412, 2050.336
515.894, 2052.765
516.376, 2041.708
516.859, 2025.219
517.341, 2015.086
517.823, 2015.735
518.305, 2021.545
518.787, 2035.312
519.269, 2056.750
519.751, 2066.782
520.233, 2055.182
520.715, 2042.654
521.198, 2042.918
521.680, 2066.637
522.162, 2069.497
522.644, 2041.407
523.126, 2003.489
523.608, 1991.694
524.090, 2008.302
524.572, 2025.991
525.054, 2038.375
525.537, 2044.173
526.019, 2033.601
526.501, 2007.283
526.983, 1985.439
527.465, 1989.230
527.947, 2006.575
528.429, 2015.682
528.911, 2011.697
529.393, 2004.869
529.876, 2000.208
530.358, 1998.681
530.840, 2001.758
531.322, 2025.170
531.804, 2039.158
532.286, 2024.575
532.768, 1984.494
533.250, 1949.757
533.732, 1924.813
534.215, 1908.728
534.697, 1902.513
535.179, 1912.874
535.661, 1916.934
536.143, 1908.088
536.625, 1898.156
537.107, 1907.189
537.589, 1893.241
538.072, 1904.007
538.554, 1908.773
539.036, 1907.863
539.518, 1884.275
540.000, 1889.970
540.482, 1883.930
540.964, 1877.409
541.446, 1887.226
541.929, 1866.936
542.411, 1876.495
542.893, 1874.138
543.375, 1877.234
543.857, 1868.523
544.339, 1863.458
544.821, 1870.206
545.303, 1870.413
545.786, 1860.342
546.268, 1851.403
546.750, 1845.249
547.232, 1846.256
547.714, 1850.154
548.196, 1857.066
548.678, 1870.810
549.160, 1873.072
549.642, 1854.049
550.125, 1830.584
550.607, 1819.320
551.089, 1827.612
551.571, 1828.359
552.053, 1814.429
552.535, 1793.418
553.017, 1785.526
553.499, 1791.533
553.981, 1802.405
554.464, 1818.300
554.946, 1836.000
555.428, 1842.084
555.910, 1836.411
556.392, 1825.362
556.874, 1810.821
557.356, 1795.473
557.838, 1782.724
558.320, 1770.950
558.803, 1767.222
559.285, 1784.177
559.767, 1812.037
560.249, 1831.811
560.731, 1834.301
561.213, 1830.322
561.695, 1821.573
562.177, 1808.156
562.659, 1797.680
563.142, 1792.467
563.624, 1788.540
564.106, 1783.708
564.588, 1776.674
565.070, 1771.639
565.552, 1767.675
566.034, 1766.859
566.516, 1776.533
566.999, 1798.062
567.481, 1806.242
567.963, 1789.042
568.445, 1758.570
568.927, 1738.604
569.409, 1728.936
569.891, 1727.935
570.373, 1740.329
570.856, 1758.082
571.338, 1771.378
571.820, 1778.983
572.302, 1783.417
572.784, 1787.494
573.266, 1788.519
573.748, 1783.632
574.230, 1765.450
574.713, 1749.141
575.195, 1736.573
575.677, 1728.268
576.159, 1726.408
576.641, 1737.445
577.123, 1746.040
577.605, 1747.836
578.087, 1742.909
578.569, 1733.407
579.052, 1715.721
579.534, 1703.221
580.016, 1712.092
580.498, 1740.239
580.980, 1753.758
581.462, 1747.144
581.944, 1732.993
582.426, 1727.646
582.908, 1728.096
583.391, 1725.237
583.873, 1712.601
584.355, 1697.862
584.837, 1685.990
585.319, 1677.362
585.801, 1673.364
586.283, 1680.879
586.765, 1688.434
587.247, 1675.142
587.730, 1685.753
588.212, 1690.563
588.694, 1689.881
589.176, 1667.265
589.658, 1672.973
590.140, 1667.331
590.622, 1661.222
591.104, 1670.917
591.586, 1651.491
592.069, 1660.935
592.551, 1658.855
593.033, 1662.049
593.515, 1653.821
593.997, 1649.122
594.479, 1655.848
594.961, 1656.247
595.443, 1646.705
595.925, 1638.259
596.408, 1637.925
596.890, 1645.155
597.372, 1662.896
597.854, 1676.832
598.336, 1679.109
598.818, 1672.996
599.300, 1662.377
599.782, 1635.417
600.265, 1618.624
600.747, 1625.820
601.229, 1646.924
601.711, 1653.207
602.193, 1632.740
602.675, 1617.461
603.157, 1619.199
603.639, 1637.210
604.122, 1654.286
604.604, 1671.753
605.086, 1682.653
605.568, 1678.733
606.050, 1662.868
606.532, 1646.745
607.014, 1630.704
607.496, 1619.392
607.979, 1622.042
608.461, 1632.167
608.943, 1637.839
609.425, 1630.215
609.907, 1621.530
610.389, 1619.110
610.871, 1621.186
611.353, 1622.281
611.835, 1621.267
612.318, 1618.708
612.800, 1612.368
613.282, 1601.227
613.764, 1601.411
614.246, 1620.420
614.728, 1640.124
615.210, 1646.834
615.692, 1639.395
616.174, 1630.190
616.657, 1619.260
617.139, 1608.434
617.621, 1599.931
618.103, 1593.629
618.585, 1588.834
619.067, 1584.507
619.549, 1582.575
620.031, 1585.797
620.513, 1593.374
620.996, 1602.713
621.478, 1618.825
621.960, 1631.108
622.442, 1630.206
622.924, 1615.014
623.406, 1604.906
623.888, 1608.243
624.370, 1614.021
624.852, 1616.342
625.335, 1614.887
625.817, 1610.005
626.299, 1599.474
626.781, 1588.438
627.263, 1583.804
627.745, 1585.746
628.227, 1590.449
628.709, 1599.672
629.192, 1607.465
629.674, 1599.761
630.156, 1580.019
