##NAMES=Livingstonite
##RRUFFID=R050427
##IDEAL CHEMISTRY=HgSb_4_S_8_
##LOCALITY=Huitzuco, Guerrero, Mexico
##OWNER=RRUFF
##SOURCE=University of Arizona Mineral Museum
##DESCRIPTION=Aggregate of blackish-gray elongated crystals
##STATUS=The identification of this mineral has been confirmed by X-ray diffraction and chemical analysis
##URL=rruff.info/R050427
##MEASURED CHEMISTRY=Hg_1.00_Sb_4.00_S_8.00_
106.577, 1954.676
107.060, 2170.350
107.542, 2396.694
108.024, 2624.225
108.506, 2851.366
108.988, 3064.388
109.470, 3293.860
109.952, 3553.775
110.434, 3833.465
110.916, 4091.042
111.399, 4286.670
111.881, 4482.249
112.363, 4714.204
112.845, 5005.134
113.327, 5311.678
113.809, 5636.501
114.291, 5978.912
114.773, 6313.326
115.256, 6648.559
115.738, 6966.703
116.220, 7241.753
116.702, 7478.759
117.184, 7661.903
117.666, 7775.530
118.148, 7807.443
118.630, 7810.114
119.113, 7788.624
119.595, 7755.068
120.077, 7736.687
120.559, 7771.454
121.041, 7816.215
121.523, 7830.927
122.005, 7796.721
122.487, 7741.792
122.969, 7684.731
123.451, 7625.621
123.934, 7566.835
124.416, 7498.733
124.898, 7433.016
125.380, 7390.101
125.862, 7385.097
126.344, 7404.905
126.826, 7428.151
127.308, 7453.132
127.791, 7495.013
128.273, 7578.726
128.755, 7696.622
129.237, 7816.247
129.719, 7911.549
130.201, 7994.523
130.683, 8102.031
131.165, 8238.947
131.648, 8398.980
132.130, 8579.010
132.612, 8779.041
133.094, 8993.781
133.576, 9217.389
134.058, 9448.609
134.540, 9702.935
135.022, 9984.573
135.504, 10293.060
135.986, 10612.730
136.469, 10947.160
136.951, 11291.580
137.433, 11646.030
137.915, 12009.620
138.397, 12368.970
138.879, 12719.600
139.361, 13059.640
139.844, 13409.660
140.326, 13777.670
140.808, 14145.200
141.290, 14485.850
141.772, 14801.530
142.254, 15080.820
142.736, 15320.190
143.218, 15533.320
143.700, 15676.130
144.182, 15744.440
144.665, 15744.100
145.147, 15695.110
145.629, 15596.700
146.111, 15449.160
146.593, 15251.700
147.075, 14973.310
147.557, 14686.070
148.039, 14390.130
148.522, 14085.910
149.004, 13789.430
149.486, 13493.530
149.968, 13208.170
150.450, 12936.890
150.932, 12685.550
151.414, 12446.170
151.896, 12218.680
152.378, 12004.020
152.861, 11800.760
153.343, 11515.600
153.825, 11340.659
154.307, 11223.449
154.789, 11092.255
155.271, 10947.788
155.753, 10750.313
156.235, 10621.287
156.717, 10464.829
157.200, 10307.214
157.682, 10187.827
158.164, 10023.520
158.646, 9893.286
159.128, 9802.351
159.610, 9724.139
160.092, 9656.157
160.574, 9596.947
161.057, 9545.169
161.539, 9501.109
162.021, 9467.753
162.503, 9454.518
162.985, 9448.192
163.467, 9437.693
163.949, 9413.649
164.431, 9389.503
164.913, 9370.464
165.396, 9356.704
165.878, 9348.731
166.360, 9348.319
166.842, 9353.929
167.324, 9363.539
167.806, 9385.682
168.288, 9406.175
168.770, 9410.844
169.253, 9396.203
169.735, 9386.293
170.217, 9397.317
170.699, 9425.316
171.181, 9462.090
171.663, 9508.328
172.145, 9559.436
172.627, 9605.145
173.109, 9635.783
173.592, 9684.240
174.074, 9786.347
174.556, 9934.637
175.038, 10097.860
175.520, 10234.590
176.002, 10380.480
176.484, 10590.890
176.966, 10895.080
177.449, 11247.840
177.931, 11593.200
178.413, 11931.510
178.895, 12295.260
179.377, 12724.700
179.859, 13199.280
180.341, 13671.010
180.823, 14104.320
181.305, 14537.570
181.788, 15027.280
182.270, 15569.100
182.752, 16174.300
183.234, 16835.480
183.716, 17563.010
184.198, 18370.391
184.680, 19356.270
185.162, 20421.570
185.645, 21433.910
186.127, 22427.779
186.609, 23150.090
187.091, 23265.461
187.573, 22794.160
188.055, 21926.359
188.537, 20571.779
189.019, 18841.580
189.501, 17244.971
189.984, 15778.980
190.466, 14476.100
190.948, 13391.170
191.430, 12515.680
191.912, 11800.490
192.394, 11244.830
192.876, 10840.070
193.358, 10493.170
193.840, 10197.550
194.323, 9953.226
194.805, 9764.113
195.287, 9634.882
195.769, 9533.882
196.251, 9443.451
196.733, 9362.637
197.215, 9288.247
197.697, 9217.437
198.180, 9153.081
198.662, 9106.089
199.144, 9077.797
199.626, 9062.052
200.108, 9059.120
200.590, 9071.371
201.072, 9068.557
201.554, 9086.704
202.036, 9099.764
202.519, 9108.007
203.001, 9097.014
203.483, 9110.861
203.965, 9114.755
204.447, 9118.238
204.929, 9135.582
205.411, 9136.626
205.893, 9142.771
206.376, 9153.803
206.858, 9172.679
207.340, 9191.429
207.822, 9187.765
208.304, 9204.619
208.786, 9216.493
209.268, 9223.654
209.750, 9211.985
210.232, 9224.632
210.715, 9227.533
211.197, 9230.035
211.679, 9246.104
212.161, 9237.173
212.643, 9251.695
213.125, 9249.849
213.607, 9239.529
214.089, 9235.542
214.572, 9240.360
215.054, 9250.077
215.536, 9253.878
216.018, 9245.624
216.500, 9243.008
216.982, 9256.486
217.464, 9292.025
217.946, 9323.509
218.428, 9347.874
218.911, 9367.038
219.393, 9386.360
219.875, 9400.979
220.357, 9423.205
220.839, 9463.931
221.321, 9536.164
221.803, 9592.179
222.285, 9621.877
222.768, 9631.147
223.250, 9652.711
223.732, 9694.146
224.214, 9738.317
224.696, 9772.202
225.178, 9786.131
225.660, 9810.942
226.142, 9848.053
226.624, 9898.322
227.107, 9971.751
227.589, 10089.200
228.071, 10206.430
228.553, 10282.880
229.035, 10291.030
229.517, 10313.510
229.999, 10363.460
230.481, 10440.660
230.964, 10532.250
231.446, 10645.920
231.928, 10767.420
232.410, 10882.510
232.892, 10983.660
233.374, 11091.690
233.856, 11203.760
234.338, 11316.540
234.820, 11473.560
235.303, 11680.710
235.785, 11926.360
236.267, 12195.950
236.749, 12477.420
237.231, 12803.750
237.713, 13169.520
238.195, 13569.060
238.677, 14060.020
239.159, 14655.520
239.642, 15333.170
240.124, 16059.160
240.606, 16829.070
241.088, 17673.939
241.570, 18603.430
242.052, 19636.990
242.534, 20685.750
243.016, 21731.449
243.499, 22803.971
243.981, 23946.689
244.463, 25154.900
244.945, 26439.330
245.427, 27800.609
245.909, 29209.240
246.391, 30764.230
246.873, 32550.510
247.355, 34435.012
247.837, 36223.219
248.320, 38031.910
248.802, 39519.551
249.284, 40621.961
249.766, 41452.301
250.248, 41497.699
250.730, 40651.191
251.212, 39069.891
251.695, 37031.570
252.177, 34289.141
252.659, 31495.580
253.141, 28860.830
253.623, 26356.020
254.105, 24148.420
254.587, 22239.660
255.069, 20609.740
255.551, 19220.730
256.034, 18120.119
256.516, 17199.070
256.998, 16421.020
257.480, 15812.740
257.962, 15291.560
258.444, 14864.600
258.926, 14517.960
259.408, 14207.710
259.890, 13929.770
260.373, 13693.850
260.855, 13506.100
261.337, 13380.090
261.819, 13263.970
262.301, 13155.310
262.783, 13055.690
263.265, 12972.950
263.747, 12907.580
264.229, 12856.260
264.712, 12819.780
265.194, 12804.170
265.676, 12782.670
266.158, 12753.940
266.640, 12719.190
267.122, 12679.620
267.604, 12628.300
268.086, 12588.410
268.569, 12575.410
269.051, 12595.590
269.533, 12616.560
270.015, 12638.610
270.497, 12659.460
270.979, 12672.730
271.461, 12678.680
271.943, 12677.420
272.426, 12665.730
272.908, 12640.710
273.390, 12625.970
273.872, 12627.630
274.354, 12637.920
274.836, 12633.330
275.318, 12608.790
275.800, 12587.240
276.282, 12585.770
276.764, 12606.960
277.247, 12621.120
277.729, 12627.280
278.211, 12623.490
278.693, 12602.420
279.175, 12561.330
279.657, 12515.820
280.139, 12472.450
280.621, 12430.910
281.104, 12400.700
281.586, 12387.770
282.068, 12380.690
282.550, 12346.860
283.032, 12282.610
283.514, 12224.450
283.996, 12201.110
284.478, 12210.540
284.961, 12210.620
285.443, 12194.280
285.925, 12170.750
286.407, 12160.160
286.889, 12162.840
287.371, 12168.370
287.853, 12163.592
288.335, 12180.938
288.817, 12192.914
289.299, 12199.808
289.782, 12186.397
290.264, 12199.206
290.746, 12201.508
291.228, 12203.378
291.710, 12219.876
292.192, 12219.170
292.674, 12213.730
293.156, 12211.610
293.639, 12202.990
294.121, 12171.940
294.603, 12120.060
295.085, 12055.330
295.567, 11973.600
296.049, 11883.370
296.531, 11808.400
297.013, 11756.740
297.496, 11705.810
297.978, 11621.360
298.460, 11508.650
298.942, 11396.160
299.424, 11299.490
299.906, 11213.660
300.388, 11129.790
300.870, 11048.480
301.352, 10961.250
301.835, 10858.700
302.317, 10742.100
302.799, 10613.920
303.281, 10474.120
303.763, 10324.070
304.245, 10166.010
304.727, 9996.430
305.209, 9827.716
305.691, 9676.166
306.174, 9534.005
306.656, 9377.746
307.138, 9178.598
307.620, 8968.141
308.102, 8774.041
308.584, 8601.253
309.066, 8440.610
309.548, 8284.405
310.030, 8135.536
310.513, 7995.278
310.995, 7868.686
311.477, 7746.831
311.959, 7620.470
312.441, 7488.124
312.923, 7362.446
313.405, 7254.689
313.888, 7158.141
314.370, 7064.833
314.852, 6963.560
315.334, 6868.781
315.816, 6793.274
316.298, 6739.813
316.780, 6680.011
317.262, 6589.202
317.744, 6488.869
318.227, 6405.090
318.709, 6357.185
319.191, 6316.034
319.673, 6271.267
320.155, 6222.219
320.637, 6174.218
321.119, 6129.342
321.601, 6085.659
322.083, 6041.890
322.566, 5997.295
323.048, 5952.334
323.530, 5904.568
324.012, 5853.931
324.494, 5810.801
324.976, 5784.471
325.458, 5761.708
325.940, 5732.718
326.422, 5680.113
326.905, 5639.679
327.387, 5624.374
327.869, 5632.049
328.351, 5623.416
328.833, 5583.649
329.315, 5538.255
329.797, 5502.028
330.279, 5481.392
330.762, 5461.355
331.244, 5441.006
331.726, 5420.639
332.208, 5402.584
332.690, 5390.980
333.172, 5376.987
333.654, 5353.982
334.136, 5311.575
334.618, 5283.260
335.101, 5274.375
335.583, 5279.672
336.065, 5284.755
336.547, 5291.898
337.029, 5294.121
337.511, 5286.031
337.993, 5263.974
338.475, 5246.464
338.957, 5233.804
339.440, 5225.807
339.922, 5224.269
340.404, 5231.036
340.886, 5235.648
341.368, 5231.782
341.850, 5218.918
342.332, 5210.675
342.815, 5208.694
343.297, 5207.829
343.779, 5198.936
344.261, 5181.960
344.743, 5166.300
345.225, 5157.512
345.707, 5154.031
346.189, 5142.456
346.671, 5120.224
347.154, 5104.515
347.636, 5124.874
348.118, 5173.598
348.600, 5209.905
349.082, 5213.770
349.564, 5196.007
350.046, 5175.993
350.528, 5153.461
351.010, 5134.491
351.493, 5130.308
351.975, 5133.699
352.457, 5127.829
352.939, 5100.598
353.421, 5067.802
353.903, 5050.872
354.385, 5047.792
354.867, 5042.593
355.349, 5015.240
355.832, 4982.395
356.314, 4966.770
356.796, 4983.324
357.278, 5005.062
357.760, 5010.687
358.242, 5004.353
358.724, 5000.515
359.206, 5000.125
359.689, 5008.950
360.171, 5033.228
360.653, 5080.240
361.135, 5129.047
361.617, 5167.722
362.099, 5201.424
362.581, 5241.693
363.063, 5291.908
363.546, 5349.712
364.028, 5414.859
364.510, 5488.814
364.992, 5564.858
365.474, 5643.540
365.956, 5723.666
366.438, 5801.302
366.920, 5883.814
367.402, 5957.860
367.884, 6021.410
368.367, 6075.360
368.849, 6114.031
369.331, 6139.071
369.813, 6147.981
370.295, 6138.561
370.777, 6112.756
371.259, 6065.246
371.741, 5990.996
372.224, 5890.659
372.706, 5789.123
373.188, 5689.839
373.670, 5586.192
374.152, 5470.234
374.634, 5333.917
375.116, 5210.575
375.598, 5103.385
376.081, 5011.377
376.563, 4928.009
377.045, 4853.265
377.527, 4786.698
378.009, 4729.375
378.491, 4682.850
378.973, 4634.058
379.455, 4581.854
379.937, 4527.773
380.419, 4470.675
380.902, 4411.034
381.384, 4357.832
381.866, 4316.395
382.348, 4285.476
382.830, 4262.861
383.312, 4249.033
383.794, 4240.013
384.276, 4232.309
384.759, 4225.783
385.241, 4220.300
385.723, 4217.646
386.205, 4215.002
386.687, 4206.547
387.169, 4192.263
387.651, 4178.904
388.133, 4174.269
388.616, 4173.345
389.098, 4168.234
389.580, 4152.316
390.062, 4135.944
390.544, 4127.540
391.026, 4125.790
391.508, 4124.231
391.990, 4126.420
392.472, 4123.702
392.955, 4106.759
393.437, 4062.124
393.919, 4025.409
394.401, 4015.316
394.883, 4023.456
395.365, 4032.149
395.847, 4039.534
396.329, 4044.073
396.811, 4044.521
397.294, 4039.442
397.776, 4034.556
398.258, 4034.478
398.740, 4033.596
399.222, 4024.865
399.704, 4001.557
400.186, 3977.452
400.668, 3952.350
401.151, 3925.554
401.633, 3910.443
402.115, 3910.418
402.597, 3918.765
403.079, 3931.996
403.561, 3955.559
404.043, 3970.350
404.525, 3972.624
405.008, 3964.475
405.490, 3953.265
405.972, 3936.856
406.454, 3923.749
406.936, 3920.779
407.418, 3928.503
407.900, 3932.674
408.382, 3931.624
408.864, 3927.988
409.346, 3926.467
409.829, 3926.970
410.311, 3926.635
410.793, 3919.778
411.275, 3910.902
411.757, 3917.226
412.239, 3940.345
412.721, 3964.911
413.203, 3975.495
413.686, 3975.165
414.168, 3971.608
414.650, 3961.193
415.132, 3953.899
415.614, 3966.396
416.096, 3995.594
416.578, 4019.544
417.060, 4018.116
417.543, 4006.257
418.025, 4000.647
418.507, 4011.916
418.989, 4017.881
419.471, 3997.638
419.953, 3962.737
420.435, 3941.122
420.917, 3950.326
421.399, 3969.337
421.882, 3990.146
422.364, 4014.680
422.846, 4031.189
423.328, 4031.132
423.810, 4024.401
424.292, 4023.069
424.774, 4030.662
425.256, 4041.070
425.738, 4053.884
426.221, 4068.959
426.703, 4084.790
427.185, 4099.390
427.667, 4116.839
428.149, 4141.390
428.631, 4178.508
429.113, 4205.885
429.595, 4213.713
430.078, 4213.624
430.560, 4243.135
431.042, 4308.084
431.524, 4377.325
432.006, 4431.974
432.488, 4472.521
432.970, 4520.198
433.452, 4574.186
433.934, 4639.425
434.417, 4729.055
434.899, 4839.629
435.381, 4945.863
435.863, 5031.186
436.345, 5109.156
436.827, 5201.953
437.309, 5310.320
437.791, 5439.472
438.273, 5613.420
438.756, 5807.278
439.238, 5978.012
439.720, 6094.976
440.202, 6220.026
440.684, 6415.158
441.166, 6659.734
441.648, 6896.269
442.130, 7070.275
442.612, 7243.412
443.095, 7458.194
443.577, 7731.497
444.059, 7999.495
444.541, 8266.517
445.023, 8508.996
445.505, 8699.457
445.987, 8803.215
446.470, 8882.559
446.952, 8966.870
447.434, 9055.844
447.916, 9066.364
448.398, 8971.996
448.880, 8824.117
449.362, 8651.605
449.844, 8457.807
450.326, 8232.701
450.809, 7964.225
451.291, 7667.562
451.773, 7381.670
452.255, 7103.345
452.737, 6839.867
453.219, 6596.604
453.701, 6370.604
454.183, 6163.332
454.665, 5972.013
455.148, 5800.167
455.630, 5663.383
456.112, 5555.326
456.594, 5441.230
457.076, 5301.239
457.558, 5157.159
458.040, 5050.302
458.522, 4977.230
459.004, 4909.413
459.487, 4823.618
459.969, 4733.332
460.451, 4658.884
460.933, 4606.361
461.415, 4560.727
461.897, 4514.243
462.379, 4467.570
462.862, 4423.085
463.344, 4378.350
463.826, 4338.793
464.308, 4309.984
464.790, 4292.587
465.272, 4272.697
465.754, 4241.316
466.236, 4209.676
466.718, 4185.710
467.201, 4181.955
467.683, 4171.916
468.165, 4150.439
468.647, 4121.564
469.129, 4096.771
469.611, 4073.297
470.093, 4058.412
470.575, 4058.306
471.057, 4077.410
471.539, 4082.104
472.022, 4069.164
472.504, 4047.026
472.986, 4021.295
473.468, 3990.769
473.950, 3975.931
474.432, 3988.859
474.914, 4016.438
475.397, 4020.214
475.879, 4000.797
476.361, 3980.457
476.843, 3979.585
477.325, 3989.020
477.807, 3988.238
478.289, 3972.984
478.771, 3953.737
479.253, 3940.627
479.736, 3930.974
480.218, 3919.271
480.700, 3901.236
481.182, 3881.578
481.664, 3859.854
482.146, 3836.776
482.628, 3823.953
483.110, 3836.227
483.592, 3854.249
484.075, 3863.912
484.557, 3860.214
485.039, 3850.870
485.521, 3828.599
486.003, 3801.460
486.485, 3789.537
486.967, 3809.792
487.449, 3823.761
487.931, 3817.010
488.414, 3786.357
488.896, 3767.457
489.378, 3764.421
489.860, 3766.989
490.342, 3767.166
490.824, 3765.674
491.306, 3755.633
491.788, 3732.917
492.271, 3704.074
492.753, 3684.894
493.235, 3675.073
493.717, 3670.100
494.199, 3669.170
494.681, 3670.659
495.163, 3670.746
495.645, 3669.031
496.128, 3667.027
496.610, 3666.046
497.092, 3665.702
497.574, 3665.501
498.056, 3668.428
498.538, 3668.350
499.020, 3658.619
499.502, 3641.719
499.984, 3627.829
500.466, 3625.018
500.949, 3623.286
501.431, 3615.091
501.913, 3593.028
502.395, 3582.300
502.877, 3598.930
503.359, 3623.434
503.841, 3631.371
504.323, 3606.211
504.806, 3590.123
505.288, 3595.300
505.770, 3617.367
506.252, 3624.911
506.734, 3614.748
507.216, 3597.780
507.698, 3576.518
508.180, 3550.504
508.663, 3539.877
509.145, 3548.425
509.627, 3564.809
510.109, 3574.930
510.591, 3579.330
511.073, 3580.865
511.555, 3580.697
512.037, 3578.326
512.519, 3572.340
513.002, 3563.113
513.484, 3552.829
513.966, 3536.665
514.448, 3523.329
514.930, 3523.701
515.412, 3544.717
515.894, 3564.283
516.376, 3572.006
516.859, 3571.625
517.341, 3568.882
517.823, 3560.805
518.305, 3554.872
518.787, 3555.839
519.269, 3563.586
519.751, 3563.148
520.233, 3546.292
520.715, 3529.767
521.198, 3523.051
521.680, 3529.138
522.162, 3536.851
522.644, 3547.795
523.126, 3558.231
523.608, 3562.036
524.090, 3558.906
524.572, 3552.459
525.054, 3541.407
525.537, 3528.961
526.019, 3526.401
526.501, 3533.501
526.983, 3541.788
527.465, 3549.844
527.947, 3553.506
528.429, 3541.165
528.911, 3505.629
529.393, 3475.708
529.876, 3484.315
530.358, 3511.847
530.840, 3526.632
531.322, 3503.492
531.804, 3477.160
532.286, 3463.236
532.768, 3461.148
533.250, 3458.332
533.732, 3454.959
534.215, 3448.199
534.697, 3435.685
535.179, 3411.287
535.661, 3394.750
536.143, 3385.870
536.625, 3384.982
537.107, 3394.865
537.589, 3420.449
538.072, 3439.413
538.554, 3446.207
539.036, 3442.804
539.518, 3435.543
540.000, 3424.096
540.482, 3412.399
540.964, 3401.416
541.446, 3392.274
541.929, 3391.172
542.411, 3400.312
542.893, 3405.184
543.375, 3384.875
543.857, 3351.509
544.339, 3326.860
544.821, 3322.251
545.303, 3324.555
545.786, 3331.211
546.268, 3339.714
546.750, 3340.858
547.232, 3318.550
547.714, 3298.984
548.196, 3297.937
548.678, 3326.273
549.160, 3338.493
549.642, 3321.144
550.125, 3296.884
550.607, 3286.973
551.089, 3297.092
551.571, 3307.610
552.053, 3317.995
552.535, 3326.049
553.017, 3325.681
553.499, 3316.509
553.981, 3302.889
554.464, 3281.316
554.946, 3256.361
555.428, 3249.693
555.910, 3261.834
556.392, 3273.994
556.874, 3267.437
557.356, 3250.833
557.838, 3237.633
558.320, 3230.501
558.803, 3228.466
559.285, 3234.574
559.767, 3245.041
560.249, 3252.506
560.731, 3251.549
561.213, 3249.976
561.695, 3251.412
562.177, 3255.987
562.659, 3257.747
563.142, 3255.452
563.624, 3251.001
564.106, 3244.522
564.588, 3232.611
565.070, 3228.759
565.552, 3237.385
566.034, 3247.999
566.516, 3242.975
566.999, 3221.042
567.481, 3203.863
567.963, 3197.672
568.445, 3199.656
568.927, 3205.134
569.409, 3213.731
569.891, 3221.707
570.373, 3229.866
570.856, 3234.662
571.338, 3228.450
571.820, 3209.431
572.302, 3194.019
572.784, 3195.466
573.266, 3204.604
573.748, 3212.044
574.230, 3218.095
574.713, 3218.781
575.195, 3208.461
575.677, 3191.870
576.159, 3182.599
576.641, 3187.779
577.123, 3190.894
577.605, 3185.854
578.087, 3172.803
578.569, 3165.901
579.052, 3166.705
579.534, 3169.881
580.016, 3173.075
580.498, 3175.986
580.980, 3170.576
581.462, 3153.134
581.944, 3137.420
582.426, 3146.764
582.908, 3173.205
583.391, 3192.699
583.873, 3195.434
584.355, 3187.996
584.837, 3168.139
585.319, 3140.720
585.801, 3124.958
586.283, 3146.374
586.765, 3169.309
587.247, 3171.862
587.730, 3147.084
588.212, 3123.494
588.694, 3097.163
589.176, 3078.179
589.658, 3076.154
590.140, 3102.154
590.622, 3121.764
591.104, 3137.368
591.586, 3140.802
592.069, 3100.179
592.551, 3008.997
593.033, 2953.619
593.515, 2985.958
593.997, 3070.942
594.479, 3116.231
594.961, 3123.297
595.443, 3114.506
595.925, 3092.829
596.408, 3070.584
596.890, 3067.216
597.372, 3089.552
597.854, 3108.132
598.336, 3105.181
598.818, 3089.682
599.300, 3072.319
599.782, 3040.559
600.265, 3024.191
600.747, 3040.452
601.229, 3076.349
601.711, 3096.137
602.193, 3091.547
602.675, 3084.480
603.157, 3081.633
603.639, 3082.822
604.122, 3083.733
604.604, 3083.958
605.086, 3085.799
605.568, 3092.931
606.050, 3070.865
606.532, 3099.358
607.014, 3115.579
607.496, 3120.186
607.979, 3078.397
608.461, 3096.519
608.943, 3090.631
609.425, 3083.759
609.907, 3110.313
610.389, 3075.272
610.871, 3101.297
611.353, 3102.945
611.835, 3115.749
612.318, 3104.396
612.800, 3100.504
613.282, 3120.778
613.764, 3127.671
614.246, 3113.536
614.728, 3127.050
615.210, 3091.165
615.692, 3098.628
616.174, 3124.794
616.657, 3111.874
617.139, 3125.830
617.621, 3129.549
618.103, 3086.753
618.585, 3124.853
619.067, 3127.968
619.549, 3106.343
620.031, 3111.655
620.513, 3111.249
620.996, 3111.447
621.478, 3118.942
621.960, 3125.014
622.442, 3122.753
622.924, 3111.362
623.406, 3103.070
623.888, 3105.486
