##NAMES=Livingstonite
##RRUFFID=R050427
##IDEAL CHEMISTRY=HgSb_4_S_8_
##LOCALITY=Huitzuco, Guerrero, Mexico
##OWNER=RRUFF
##SOURCE=University of Arizona Mineral Museum
##DESCRIPTION=Aggregate of blackish-gray elongated crystals
##STATUS=The identification of this mineral has been confirmed by X-ray diffraction and chemical analysis
##URL=rruff.info/R050427
##MEASURED CHEMISTRY=Hg_1.00_Sb_4.00_S_8.00_
88.744, 0.000
89.226, 0.000
89.708, 761.553
90.190, 772.186
90.672, 785.212
91.154, 804.953
91.636, 820.397
92.119, 824.135
92.601, 819.356
93.083, 814.406
93.565, 814.957
94.047, 820.862
94.529, 833.272
95.011, 851.693
95.493, 877.511
95.976, 913.575
96.458, 958.960
96.940, 1009.440
97.422, 1064.655
97.904, 1136.896
98.386, 1179.314
98.868, 1172.021
99.350, 1154.977
99.832, 1151.167
100.315, 1166.638
100.797, 1194.589
101.279, 1222.661
101.761, 1236.057
102.243, 1274.387
102.725, 1343.984
103.207, 1433.529
103.689, 1531.131
104.172, 1631.745
104.654, 1742.678
105.136, 1881.636
105.618, 2014.187
106.100, 2217.739
106.582, 2459.388
107.064, 2784.060
107.546, 3261.984
108.028, 3926.745
108.511, 4765.376
108.993, 5735.703
109.475, 6925.885
109.957, 8113.932
110.439, 9290.868
110.921, 10416.150
111.403, 11382.010
111.885, 12087.720
112.368, 12586.630
112.850, 13135.110
113.332, 13656.360
113.814, 14292.500
114.296, 15183.080
114.778, 16316.780
115.260, 17492.971
115.742, 18707.510
116.224, 19849.600
116.706, 20648.539
117.189, 20978.391
117.671, 21011.039
118.153, 20857.279
118.635, 20482.631
119.117, 20121.369
119.599, 19838.439
120.081, 19684.689
120.563, 19799.430
121.046, 20130.240
121.528, 20779.600
122.010, 21904.961
122.492, 23443.061
122.974, 25655.680
123.456, 28664.170
123.938, 32354.730
124.420, 36675.578
124.902, 41840.609
125.385, 47656.430
125.867, 53358.020
126.349, 59281.840
126.831, 64553.520
127.313, 69041.953
127.795, 72702.680
128.277, 75519.922
128.760, 77268.539
129.242, 78000.211
129.724, 78633.828
130.206, 79206.406
130.688, 79626.000
131.170, 79928.789
131.652, 80070.969
132.134, 79946.750
132.616, 79474.789
133.098, 78650.594
133.581, 77490.273
134.063, 75699.812
134.545, 73794.109
135.027, 71833.352
135.509, 69889.328
135.991, 68118.109
136.473, 66647.953
136.955, 65414.699
137.438, 64754.602
137.920, 64616.039
138.402, 65018.551
138.884, 65975.852
139.366, 67496.531
139.848, 69617.820
140.330, 72406.109
140.812, 76046.648
141.294, 79976.883
141.777, 84261.883
142.259, 88708.633
142.741, 93300.156
143.223, 97977.344
143.705, 102533.102
144.187, 106746.102
144.669, 110894.000
145.151, 113964.102
145.633, 116073.000
146.116, 117180.898
146.598, 117100.297
147.080, 115826.500
147.562, 113753.797
148.044, 111471.898
148.526, 108889.602
149.008, 106226.898
149.490, 103418.703
149.973, 100562.203
150.455, 97722.453
150.937, 94916.438
151.419, 92141.461
151.901, 89367.406
152.383, 86566.492
152.865, 83809.633
153.347, 81052.703
153.829, 78372.148
154.312, 75826.523
154.794, 73446.094
155.276, 71229.383
155.758, 69222.172
156.240, 67445.102
156.722, 65785.570
157.204, 64190.578
157.686, 62708.789
158.169, 61418.301
158.651, 60343.590
159.133, 59473.238
159.615, 58840.789
160.097, 58521.930
160.579, 58182.430
161.061, 57760.480
161.543, 57258.789
162.025, 56682.020
162.508, 56036.250
162.990, 55312.172
163.472, 54481.289
163.954, 53534.070
164.436, 52555.621
164.918, 51518.301
165.400, 50472.770
165.882, 49528.480
166.365, 48722.250
166.847, 48050.250
167.329, 47508.711
167.811, 47092.309
168.293, 46774.980
168.775, 46547.859
169.257, 46412.930
169.739, 46379.691
170.221, 46454.469
170.704, 46637.000
171.186, 46909.762
171.668, 47261.488
172.150, 47715.309
172.632, 48286.609
173.114, 48971.430
173.596, 49751.059
174.078, 50618.039
174.561, 51600.391
175.043, 52722.250
175.525, 53984.672
176.007, 55355.359
176.489, 56828.961
176.971, 58401.051
177.453, 60094.328
177.935, 61912.309
178.417, 63861.141
178.900, 65941.953
179.382, 68168.938
179.864, 70451.180
180.346, 72783.789
180.828, 75151.844
181.310, 77431.383
181.792, 79619.461
182.274, 81651.258
182.757, 83534.078
183.239, 85284.383
183.721, 86743.383
184.203, 87828.352
184.685, 88539.047
185.167, 88868.070
185.649, 88755.578
186.131, 88266.477
186.613, 87517.781
187.096, 86507.703
187.578, 85351.461
188.060, 84113.773
188.542, 82798.672
189.024, 81384.117
189.506, 79813.492
189.988, 78207.250
190.470, 76650.883
190.952, 75155.297
191.435, 73707.422
191.917, 72288.891
192.399, 70908.867
192.881, 69629.703
193.363, 68455.609
193.845, 67405.047
194.327, 66444.219
194.809, 65578.406
195.292, 64853.211
195.774, 64299.910
196.256, 63914.750
196.738, 63675.301
197.220, 63592.789
197.702, 63660.141
198.184, 63820.512
198.666, 64081.629
199.148, 64505.340
199.631, 65136.191
200.113, 65964.508
200.595, 66958.727
201.077, 68133.641
201.559, 69464.953
202.041, 70857.992
202.523, 72336.891
203.005, 73993.078
203.488, 75905.539
203.970, 78050.094
204.452, 80295.820
204.934, 82582.453
205.416, 85054.328
205.898, 87749.180
206.380, 90665.922
206.862, 93810.438
207.344, 97187.617
207.827, 100780.602
208.309, 104571.703
208.791, 108509.297
209.273, 112752.102
209.755, 117362.703
210.237, 122303.797
210.719, 127469.602
211.201, 132823.000
211.684, 138375.594
212.166, 144165.500
212.648, 150211.703
213.130, 156483.906
213.612, 162992.797
214.094, 169684.500
214.576, 176618.297
215.058, 183836.406
215.540, 191263.094
216.023, 198687.000
216.505, 206156.297
216.987, 213482.000
217.469, 220739.500
217.951, 227818.000
218.433, 234480.094
218.915, 240686.594
219.397, 246406.203
219.880, 251602.297
220.362, 256330.297
220.844, 260428.406
221.326, 263816.594
221.808, 266522.688
222.290, 268430.188
222.772, 269451.000
223.254, 269746.688
223.736, 269506.188
224.219, 268709.312
224.701, 267467.906
225.183, 265686.312
225.665, 263504.000
226.147, 260987.000
226.629, 258054.797
227.111, 255002.797
227.593, 252101.000
228.076, 249362.297
228.558, 246709.000
229.040, 244027.594
229.522, 241483.703
230.004, 239245.094
230.486, 237349.500
230.968, 235702.500
231.450, 234229.406
231.932, 232934.297
232.415, 231900.297
232.897, 231266.500
233.379, 230828.094
233.861, 230322.297
234.343, 229728.703
234.825, 229191.500
235.307, 228915.594
235.789, 228822.000
236.271, 228527.203
236.754, 228011.703
237.236, 227141.297
237.718, 225819.797
238.200, 224065.297
238.682, 221995.094
239.164, 219729.094
239.646, 217200.703
240.128, 214169.406
240.611, 210551.203
241.093, 206522.797
241.575, 202242.297
242.057, 197719.500
242.539, 192933.297
243.021, 187729.594
243.503, 182297.500
243.985, 176937.094
244.467, 171690.094
244.950, 166506.906
245.432, 161335.000
245.914, 156198.906
246.396, 151268.203
246.878, 146565.297
247.360, 142093.000
247.842, 137839.500
248.324, 133819.406
248.807, 130049.102
249.289, 126566.500
249.771, 123385.797
250.253, 120385.797
250.735, 117490.102
251.217, 114853.000
251.699, 112604.398
252.181, 110736.000
252.663, 109100.398
253.146, 107637.297
253.628, 106363.602
254.110, 105280.898
254.592, 104406.703
255.074, 103687.898
255.556, 103104.898
256.038, 102659.898
256.520, 102369.000
257.003, 102252.797
257.485, 102279.898
257.967, 102371.602
258.449, 102504.500
258.931, 102722.500
259.413, 103071.703
259.895, 103508.602
260.377, 103950.398
260.859, 104362.703
261.341, 104810.398
261.824, 105411.000
262.306, 106175.297
262.788, 107057.203
263.270, 108059.602
263.752, 109182.703
264.234, 110393.398
264.716, 111696.398
265.198, 113184.297
265.681, 114965.797
266.163, 117097.297
266.645, 119463.500
267.127, 122101.898
267.609, 124932.203
268.091, 127927.797
268.573, 131066.297
269.055, 134330.094
269.538, 137700.000
270.020, 141186.906
270.502, 144651.703
270.984, 148214.000
271.466, 151626.500
271.948, 154809.406
272.430, 157742.203
272.912, 160436.297
273.394, 162874.594
273.877, 165073.906
274.359, 167119.297
274.841, 168759.406
275.323, 170531.094
275.805, 172411.406
276.287, 174504.406
276.769, 176872.297
277.251, 179531.797
277.733, 182605.500
278.216, 186416.703
278.698, 191222.297
279.180, 196483.594
279.662, 202114.094
280.144, 208165.203
280.626, 214812.000
281.108, 222034.203
281.590, 229536.594
282.073, 236945.297
282.555, 244433.000
283.037, 251400.000
283.519, 258160.094
284.001, 264146.594
284.483, 269279.188
284.965, 273411.812
285.447, 276043.500
285.930, 276723.812
286.412, 275452.312
286.894, 272449.906
287.376, 267320.594
287.858, 260694.406
288.340, 252551.797
288.822, 243218.297
289.304, 233293.000
289.786, 222959.500
290.268, 212373.594
290.751, 202045.594
291.233, 191862.703
291.715, 182281.000
292.197, 173452.000
292.679, 165271.500
293.161, 157633.203
293.643, 150460.000
294.125, 143897.500
294.608, 138168.906
295.090, 133288.906
295.572, 129045.000
296.054, 125291.797
296.536, 122220.297
297.018, 119992.297
297.500, 118661.602
297.982, 117987.797
298.465, 117747.703
298.947, 117996.297
299.429, 118993.898
299.911, 120763.102
300.393, 123392.797
300.875, 126912.398
301.357, 131250.703
301.839, 136527.594
302.321, 142715.500
302.804, 149876.203
303.286, 158090.297
303.768, 167329.703
304.250, 177812.297
304.732, 189808.703
305.214, 203372.094
305.696, 218021.297
306.178, 233932.203
306.660, 250867.594
307.143, 268745.688
307.625, 287516.500
308.107, 307016.000
308.589, 327255.500
309.071, 348051.188
309.553, 367589.688
310.035, 388181.406
310.517, 405284.500
311.000, 419405.094
311.482, 428933.906
311.964, 431099.688
312.446, 424878.688
312.928, 411058.312
313.410, 390970.906
313.892, 360389.500
314.374, 329995.312
314.857, 298187.500
315.339, 267718.406
315.821, 240488.906
316.303, 216893.094
316.785, 196610.500
317.267, 179297.703
317.749, 165281.203
318.231, 153115.797
318.713, 143322.406
319.195, 134701.797
319.678, 127003.703
320.160, 120125.703
320.642, 114033.102
321.124, 108675.703
321.606, 104053.703
322.088, 100076.398
322.570, 96874.578
323.052, 94191.250
323.535, 91997.453
324.017, 90211.508
324.499, 88774.602
324.981, 87656.930
325.463, 86821.727
325.945, 86180.344
326.427, 85700.719
326.909, 85584.719
327.392, 85952.492
327.874, 86669.617
328.356, 87660.883
328.838, 88920.727
329.320, 90471.211
329.802, 92363.531
330.284, 94560.828
330.766, 96965.102
331.248, 99650.641
331.731, 102337.500
332.213, 105158.703
332.695, 107861.703
333.177, 109712.000
333.659, 110853.398
334.141, 110793.602
334.623, 108880.797
335.105, 105136.102
335.587, 100013.297
336.070, 93326.977
336.552, 85548.547
337.034, 78017.719
337.516, 70486.742
337.998, 63604.309
338.480, 57635.379
338.962, 52519.359
339.444, 48158.691
339.927, 44537.961
340.409, 41539.852
340.891, 39008.281
341.373, 37045.879
341.855, 35291.070
342.337, 33796.270
342.819, 32462.279
343.301, 31191.980
343.784, 29990.381
344.266, 28912.250
344.748, 28015.270
345.230, 27303.811
345.712, 26616.260
346.194, 25884.730
346.676, 25241.590
347.158, 24747.199
347.640, 24356.740
348.122, 23999.830
348.605, 23643.279
349.087, 23301.400
349.569, 23010.891
350.051, 22784.289
350.533, 22589.260
351.015, 22429.100
351.497, 22289.369
351.979, 22166.250
352.462, 22056.820
352.944, 21953.500
353.426, 21852.270
353.908, 21753.070
354.390, 21644.330
354.872, 21522.180
355.354, 21394.400
355.836, 21282.520
356.319, 21169.869
356.801, 21018.119
357.283, 20803.289
357.765, 20545.820
358.247, 20272.801
358.729, 19984.820
359.211, 19679.279
359.693, 19332.391
360.175, 18978.461
360.658, 18676.971
361.140, 18441.650
361.622, 18228.211
362.104, 18015.670
362.586, 17807.320
363.068, 17606.590
363.550, 17412.740
364.032, 17235.230
364.514, 17084.801
364.997, 16962.881
365.479, 16869.010
365.961, 16832.830
366.443, 16801.250
366.925, 16737.801
367.407, 16643.830
367.889, 16538.881
368.371, 16436.711
368.853, 16334.440
369.336, 16209.100
369.818, 16064.790
370.300, 15891.660
370.782, 15681.870
371.264, 15444.800
371.746, 15183.270
372.228, 14900.730
372.711, 14612.570
373.193, 14339.690
373.675, 14081.200
374.157, 13843.950
374.639, 13640.120
375.121, 13447.760
375.603, 13254.120
376.085, 13063.300
376.567, 12886.620
377.049, 12735.000
377.532, 12601.940
378.014, 12467.480
378.496, 12328.620
378.978, 12193.750
379.460, 12058.660
379.942, 11933.110
380.424, 11834.640
380.906, 11772.500
381.389, 11715.450
381.871, 11636.360
382.353, 11540.000
382.835, 11447.310
383.317, 11363.150
383.799, 11284.990
384.281, 11211.750
384.763, 11143.450
385.246, 11074.750
385.728, 11000.570
386.210, 10928.670
386.692, 10866.950
387.174, 10814.870
387.656, 10767.000
388.138, 10719.990
388.620, 10673.830
389.102, 10629.820
389.585, 10583.330
390.067, 10544.620
390.549, 10517.450
391.031, 10497.830
391.513, 10478.860
391.995, 10459.510
392.477, 10448.580
392.959, 10463.830
393.441, 10519.490
393.924, 10543.510
394.406, 10503.590
394.888, 10461.400
395.370, 10446.750
395.852, 10448.580
396.334, 10435.980
396.816, 10383.470
397.298, 10313.160
397.780, 10285.110
398.263, 10312.210
398.745, 10334.220
399.227, 10322.110
399.709, 10299.340
400.191, 10290.180
400.673, 10299.120
401.155, 10304.960
401.638, 10294.930
402.120, 10271.270
402.602, 10234.990
403.084, 10182.250
403.566, 10136.410
404.048, 10124.540
404.530, 10143.940
405.012, 10145.250
405.494, 10118.530
405.977, 10080.600
406.459, 10035.860
406.941, 9987.441
407.423, 9941.508
407.905, 9900.696
408.387, 9865.177
408.869, 9835.673
409.351, 9821.005
409.833, 9798.187
410.316, 9765.554
410.798, 9726.662
411.280, 9683.746
411.762, 9637.064
412.244, 9584.681
412.726, 9522.276
413.208, 9451.671
413.690, 9394.817
414.172, 9362.170
414.655, 9326.162
415.137, 9281.774
415.619, 9228.156
416.101, 9160.803
416.583, 9076.778
417.065, 8991.235
417.547, 8926.620
418.029, 8878.841
418.512, 8806.530
418.994, 8689.773
419.476, 8568.363
419.958, 8487.033
420.440, 8437.697
420.922, 8379.759
421.404, 8294.827
421.886, 8204.342
422.368, 8127.431
422.851, 8062.460
423.333, 7996.786
423.815, 7923.345
424.297, 7847.644
424.779, 7785.447
425.261, 7750.132
425.743, 7708.384
426.225, 7658.000
426.708, 7600.841
427.190, 7533.014
427.672, 7457.422
428.154, 7388.281
428.636, 7339.064
429.118, 7309.312
429.600, 7275.721
430.082, 7231.370
430.565, 7192.998
431.047, 7168.382
431.529, 7149.922
432.011, 7129.099
432.493, 7103.419
432.975, 7073.403
433.457, 7035.173
433.939, 6989.965
434.421, 6958.906
434.904, 6949.508
435.386, 6948.448
435.868, 6948.950
436.350, 6949.341
436.832, 6940.114
437.314, 6910.329
437.796, 6876.721
438.278, 6850.519
438.760, 6832.437
439.243, 6826.440
439.725, 6836.876
440.207, 6853.985
440.689, 6855.512
441.171, 6830.327
441.653, 6808.782
442.135, 6793.087
442.617, 6780.040
443.099, 6767.408
443.582, 6754.957
444.064, 6743.982
444.546, 6736.171
445.028, 6730.319
445.510, 6717.674
445.992, 6690.014
446.474, 6669.670
446.957, 6670.172
447.439, 6674.754
447.921, 6662.476
448.403, 6629.204
448.885, 6602.578
449.367, 6617.617
449.849, 6662.506
450.331, 6681.669
450.813, 6662.817
451.296, 6639.002
451.778, 6635.248
452.260, 6646.447
452.742, 6654.338
453.224, 6646.128
453.706, 6646.029
454.188, 6673.155
454.670, 6717.052
455.152, 6756.685
455.635, 6785.208
456.117, 6808.219
456.599, 6832.199
457.081, 6853.595
457.563, 6889.649
458.045, 6939.373
458.527, 7002.122
459.009, 7084.407
459.491, 7178.454
459.974, 7267.968
460.456, 7342.930
460.938, 7414.541
461.420, 7503.285
461.902, 7608.704
462.384, 7734.284
462.866, 7886.577
463.348, 8055.067
463.831, 8228.063
464.313, 8407.057
464.795, 8606.396
465.277, 8839.158
465.759, 9091.693
466.241, 9347.622
466.723, 9606.854
467.205, 9872.025
467.687, 10145.750
468.170, 10428.710
468.652, 10724.350
469.134, 11031.230
469.616, 11351.900
470.098, 11694.320
470.580, 12045.550
471.062, 12417.840
471.544, 12794.700
472.026, 13134.820
472.509, 13417.940
472.991, 13626.920
473.473, 13625.420
473.955, 13390.610
474.437, 12962.170
474.919, 12281.550
475.401, 11483.620
475.883, 10651.790
476.366, 9811.626
476.848, 9020.843
477.330, 8311.113
477.812, 7686.607
478.294, 7181.286
478.776, 6807.429
479.258, 6507.637
479.740, 6256.030
480.223, 6054.323
480.705, 5900.281
481.187, 5809.808
481.669, 5740.920
482.151, 5684.917
482.633, 5637.806
483.115, 5596.944
483.597, 5561.130
484.079, 5524.044
484.561, 5477.559
485.044, 5420.856
485.526, 5380.988
486.008, 5368.707
486.490, 5362.577
486.972, 5361.671
487.454, 5363.230
487.936, 5365.108
488.418, 5366.547
488.901, 5366.167
489.383, 5360.132
489.865, 5349.339
490.347, 5345.803
490.829, 5353.771
491.311, 5362.076
491.793, 5363.152
492.275, 5358.692
492.758, 5351.774
493.240, 5339.598
493.722, 5329.311
494.204, 5325.899
494.686, 5327.056
495.168, 5329.455
495.650, 5332.169
496.132, 5332.866
496.614, 5328.463
497.097, 5318.172
497.579, 5309.310
498.061, 5300.295
498.543, 5294.424
499.025, 5299.196
499.507, 5305.321
499.989, 5297.676
500.471, 5271.098
500.953, 5241.424
501.436, 5229.359
501.918, 5234.670
502.400, 5242.039
502.882, 5256.824
503.364, 5261.505
503.846, 5233.107
504.328, 5185.962
504.810, 5152.452
505.293, 5142.343
505.775, 5141.804
506.257, 5144.806
506.739, 5150.790
507.221, 5160.264
507.703, 5173.304
508.185, 5184.687
508.667, 5188.771
509.150, 5185.486
509.632, 5175.331
510.114, 5148.339
510.596, 5126.151
511.078, 5117.063
511.560, 5115.243
512.042, 5112.637
512.524, 5106.658
513.006, 5101.677
513.489, 5103.209
513.971, 5110.925
514.453, 5120.397
514.935, 5132.822
515.417, 5143.673
515.899, 5147.457
516.381, 5147.660
516.863, 5152.018
517.346, 5162.859
517.828, 5175.836
518.310, 5188.101
518.792, 5201.176
519.274, 5220.084
519.756, 5245.158
520.238, 5265.209
520.720, 5265.686
521.202, 5246.271
521.685, 5253.838
522.167, 5321.431
522.649, 5377.668
523.131, 5404.338
523.613, 5417.201
524.095, 5427.901
524.577, 5440.683
525.059, 5466.808
525.541, 5527.647
526.024, 5612.526
526.506, 5674.678
526.988, 5709.721
527.470, 5732.452
527.952, 5743.497
528.434, 5750.602
528.916, 5775.073
529.398, 5833.302
529.880, 5873.989
530.363, 5863.213
530.845, 5838.149
531.327, 5845.406
531.809, 5884.034
532.291, 5914.167
532.773, 5902.994
533.255, 5860.281
533.737, 5837.755
534.219, 5849.457
534.702, 5855.083
535.184, 5843.213
535.666, 5827.042
536.148, 5816.096
536.630, 5810.636
537.112, 5804.917
537.594, 5797.838
538.076, 5787.172
538.559, 5765.427
539.041, 5733.319
539.523, 5709.109
540.005, 5703.632
540.487, 5704.250
540.969, 5687.317
541.451, 5645.497
541.933, 5608.069
542.416, 5573.787
542.898, 5546.114
543.380, 5531.383
543.862, 5524.561
544.344, 5515.247
544.826, 5498.372
545.308, 5476.229
545.790, 5451.717
546.273, 5423.893
546.755, 5401.318
547.237, 5390.095
547.719, 5377.681
548.201, 5355.610
548.683, 5326.060
549.165, 5294.353
549.647, 5259.338
550.129, 5225.960
550.612, 5202.561
551.094, 5182.706
551.576, 5148.601
552.058, 5096.374
552.540, 5046.097
553.022, 5021.104
553.504, 5022.688
553.986, 5008.660
554.468, 4964.050
554.951, 4920.685
555.433, 4883.537
555.915, 4850.226
556.397, 4816.668
556.879, 4782.545
557.361, 4753.724
557.843, 4739.089
558.325, 4733.369
558.807, 4719.475
559.290, 4695.824
559.772, 4675.138
560.254, 4665.824
560.736, 4662.060
561.218, 4650.375
561.700, 4629.614
562.182, 4605.946
562.664, 4569.404
563.146, 4539.113
563.629, 4535.506
564.111, 4551.710
564.593, 4565.982
565.075, 4566.103
565.557, 4556.617
566.039, 4546.024
566.521, 4533.332
567.003, 4524.664
567.486, 4521.832
567.968, 4522.135
568.450, 4520.764
568.932, 4520.534
569.414, 4530.739
569.896, 4564.780
570.378, 4596.399
570.860, 4607.208
571.343, 4602.207
571.825, 4587.487
572.307, 4565.249
572.789, 4545.492
573.271, 4539.215
573.753, 4546.315
574.235, 4547.997
574.717, 4538.915
575.200, 4531.549
575.682, 4536.002
576.164, 4538.028
576.646, 4518.782
577.128, 4478.310
577.610, 4443.078
578.092, 4441.858
578.574, 4454.986
579.056, 4439.088
579.539, 4394.589
580.021, 4356.557
580.503, 4341.768
580.985, 4338.262
581.467, 4325.418
581.949, 4300.049
582.431, 4273.044
582.913, 4243.309
583.395, 4213.005
583.878, 4184.686
584.360, 4156.286
584.842, 4121.875
585.324, 4079.009
585.806, 4037.028
586.288, 4014.884
586.770, 4010.399
587.252, 3981.915
587.734, 3917.685
588.217, 3852.564
588.699, 3809.854
589.181, 3782.013
589.663, 3746.069
590.145, 3695.017
