##NAMES=Livingstonite
##RRUFFID=R050453
##IDEAL CHEMISTRY=HgSb_4_S_8_
##LOCALITY=Huitzuco, Guerrero, Mexico
##OWNER=RRUFF
##SOURCE=University of Arizona Mineral Museum
##DESCRIPTION=Aggregate of gray columnar crystals
##STATUS=The identification of this mineral has been confirmed by X-ray diffraction and chemical analysis
##URL=rruff.info/R050453
##MEASURED CHEMISTRY=Hg_1.00_Sb_4.00_S_8.00_
94.74744, 17548.50
95.22955, 17819.22
95.71167, 18208.38
96.19379, 18488.47
96.67590, 18690.92
97.15802, 18837.39
97.64014, 18932.64
98.12226, 18977.19
98.60438, 18973.04
99.08649, 18927.05
99.56861, 18836.37
100.0507, 18703.29
100.5328, 18497.93
101.0150, 18257.45
101.4971, 18007.07
101.9792, 17746.08
102.4613, 17485.50
102.9434, 17222.72
103.4255, 16958.88
103.9077, 16692.06
104.3898, 16418.96
104.8719, 16146.19
105.3540, 15886.03
105.8361, 15633.55
106.3182, 15398.91
106.8004, 15179.22
107.2825, 14974.04
107.7646, 14781.07
108.2467, 14598.28
108.7288, 14425.32
109.2109, 14265.85
109.6931, 14122.76
110.1752, 13987.52
110.6573, 13860.33
111.1394, 13739.16
111.6215, 13619.87
112.1037, 13499.33
112.5858, 13375.89
113.0679, 13259.28
113.5500, 13160.22
114.0321, 13060.34
114.5142, 12947.25
114.9964, 12818.93
115.4785, 12679.80
115.9606, 12538.19
116.4427, 12394.55
116.9248, 12227.78
117.4069, 12029.33
117.8891, 11804.76
118.3712, 11563.39
118.8533, 11309.08
119.3354, 11033.17
119.8175, 10728.60
120.2996, 10396.29
120.7818, 10054.15
121.2639, 9709.439
121.7460, 9361.646
122.2281, 9024.362
122.7102, 8693.924
123.1923, 8380.313
123.6745, 8092.380
124.1566, 7830.859
124.6387, 7591.809
125.1208, 7367.879
125.6029, 7158.861
126.0850, 6968.706
126.5672, 6800.472
127.0493, 6644.815
127.5314, 6497.776
128.0135, 6356.581
128.4956, 6219.230
128.9778, 6076.578
129.4599, 5930.725
129.9420, 5777.747
130.4241, 5607.700
130.9062, 5431.409
131.3883, 5263.626
131.8705, 5111.306
132.3526, 4974.204
132.8347, 4848.552
133.3168, 4731.698
133.7989, 4625.158
134.2810, 4530.915
134.7632, 4447.962
135.2453, 4370.919
135.7274, 4294.536
136.2095, 4222.419
136.6916, 4163.142
137.1737, 4122.411
137.6559, 4091.311
138.1380, 4060.900
138.6201, 4030.803
139.1022, 4002.990
139.5843, 3982.808
140.0664, 3965.048
140.5486, 3942.182
141.0307, 3911.622
141.5128, 3873.658
141.9949, 3829.913
142.4770, 3781.635
142.9591, 3723.851
143.4413, 3656.122
143.9234, 3579.366
144.4055, 3494.401
144.8876, 3400.953
145.3697, 3299.173
145.8518, 3196.560
146.3340, 3094.791
146.8161, 2990.811
147.2982, 2881.919
147.7803, 2769.450
148.2624, 2657.006
148.7445, 2546.626
149.2267, 2437.643
149.7088, 2338.135
150.1909, 2250.182
150.6730, 2167.571
151.1551, 2086.174
151.6372, 2005.614
152.1194, 1929.534
152.6015, 1862.057
153.0836, 1807.036
153.5657, 1753.345
154.0478, 1699.355
154.5300, 1647.360
155.0121, 1600.551
155.4942, 1559.988
155.9763, 1522.505
156.4584, 1483.716
156.9405, 1443.527
157.4227, 1403.803
157.9048, 1363.725
158.3869, 1324.503
158.8690, 1288.934
159.3511, 1258.084
159.8332, 1230.596
160.3154, 1204.097
160.7975, 1178.459
161.2796, 1154.842
161.7617, 1134.557
162.2438, 1117.297
162.7259, 1100.649
163.2081, 1083.904
163.6902, 1067.713
164.1723, 1052.632
164.6544, 1038.593
165.1365, 1025.454
165.6186, 1012.571
166.1008, 999.5493
166.5829, 988.9312
167.0650, 982.2292
167.5471, 977.3042
168.0292, 973.2765
168.5113, 969.8578
168.9935, 966.9987
169.4756, 964.5348
169.9577, 962.0111
170.4398, 960.9336
170.9219, 962.0818
171.4040, 964.0804
171.8862, 965.6541
172.3683, 966.3561
172.8504, 966.8473
173.3325, 968.6985
173.8146, 971.4283
174.2967, 976.4550
174.7789, 985.2417
175.2610, 995.8651
175.7431, 1006.195
176.2252, 1015.375
176.7073, 1023.581
177.1894, 1031.276
177.6716, 1036.992
178.1537, 1044.031
178.6358, 1054.184
179.1179, 1066.073
179.6000, 1077.232
180.0822, 1086.400
180.5643, 1093.985
181.0464, 1101.246
181.5285, 1107.516
182.0106, 1114.541
182.4927, 1123.649
182.9749, 1134.428
183.4570, 1145.259
183.9391, 1156.319
184.4212, 1166.098
184.9033, 1172.189
185.3854, 1173.606
185.8676, 1172.900
186.3497, 1171.900
186.8318, 1170.618
187.3139, 1168.671
187.7960, 1165.699
188.2781, 1161.979
188.7603, 1157.605
189.2424, 1152.267
189.7245, 1146.971
190.2066, 1143.407
190.6887, 1142.285
191.1708, 1140.252
191.6530, 1134.549
192.1351, 1128.135
192.6172, 1123.232
193.0993, 1120.493
193.5814, 1120.185
194.0635, 1123.073
194.5457, 1130.076
195.0278, 1138.754
195.5099, 1147.868
195.9920, 1158.263
196.4741, 1170.784
196.9562, 1185.815
197.4384, 1203.071
197.9205, 1221.756
198.4026, 1240.149
198.8847, 1262.876
199.3668, 1292.171
199.8489, 1325.151
200.3311, 1358.432
200.8132, 1390.264
201.2953, 1421.708
201.7774, 1456.564
202.2595, 1497.644
202.7416, 1539.480
203.2238, 1580.757
203.7059, 1622.808
204.1880, 1668.307
204.6701, 1718.625
205.1522, 1772.816
205.6344, 1826.565
206.1165, 1881.200
206.5986, 1934.693
207.0807, 1984.233
207.5628, 2032.477
208.0449, 2084.524
208.5271, 2143.191
209.0092, 2207.328
209.4913, 2271.374
209.9734, 2335.289
210.4555, 2399.138
210.9376, 2461.410
211.4198, 2523.244
211.9019, 2588.752
212.3840, 2659.901
212.8661, 2735.458
213.3482, 2811.517
213.8303, 2889.146
214.3125, 2965.082
214.7946, 3035.564
215.2767, 3101.761
215.7588, 3168.484
216.2409, 3239.421
216.7230, 3311.078
217.2052, 3378.983
217.6873, 3442.753
218.1694, 3502.566
218.6515, 3557.235
219.1336, 3607.146
219.6157, 3656.772
220.0979, 3711.002
220.5800, 3763.646
221.0621, 3808.546
221.5442, 3844.740
222.0263, 3874.306
222.5084, 3900.139
222.9906, 3922.816
223.4727, 3936.448
223.9548, 3934.435
224.4369, 3924.704
224.9190, 3911.908
225.4011, 3896.732
225.8833, 3879.479
226.3654, 3860.941
226.8475, 3841.872
227.3296, 3818.081
227.8117, 3787.136
228.2939, 3752.109
228.7760, 3713.695
229.2581, 3672.121
229.7402, 3629.838
230.2223, 3590.213
230.7044, 3554.029
231.1866, 3517.676
231.6687, 3480.932
232.1508, 3443.928
232.6329, 3405.678
233.1150, 3366.313
233.5971, 3328.502
234.0793, 3297.072
234.5614, 3277.171
235.0435, 3250.719
235.5256, 3214.119
236.0077, 3174.277
236.4898, 3135.226
236.9720, 3097.910
237.4541, 3060.661
237.9362, 3021.238
238.4183, 2979.318
238.9004, 2936.267
239.3825, 2894.822
239.8647, 2850.790
240.3468, 2801.466
240.8289, 2746.441
241.3110, 2688.029
241.7931, 2628.106
242.2752, 2566.757
242.7574, 2504.243
243.2395, 2439.092
243.7216, 2374.161
244.2037, 2311.603
244.6858, 2251.602
245.1679, 2192.108
245.6501, 2130.420
246.1322, 2064.936
246.6143, 2004.997
247.0964, 1952.375
247.5785, 1903.057
248.0606, 1853.858
248.5428, 1804.918
249.0249, 1758.437
249.5070, 1716.502
249.9891, 1679.447
250.4712, 1647.296
250.9533, 1622.178
251.4355, 1599.882
251.9176, 1577.281
252.3997, 1554.348
252.8818, 1533.173
253.3639, 1515.689
253.8461, 1502.171
254.3282, 1489.884
254.8103, 1477.354
255.2924, 1467.127
255.7745, 1461.542
256.2566, 1460.417
256.7387, 1461.422
257.2209, 1463.194
257.7030, 1465.868
258.1851, 1469.417
258.6672, 1472.278
259.1493, 1477.234
259.6314, 1486.193
260.1136, 1499.047
260.5957, 1514.825
261.0778, 1533.853
261.5599, 1555.432
262.0420, 1576.701
262.5241, 1595.473
263.0063, 1616.487
263.4884, 1644.010
263.9705, 1677.481
264.4526, 1712.047
264.9348, 1744.957
265.4169, 1777.996
265.8990, 1813.676
266.3811, 1852.887
266.8632, 1893.629
267.3453, 1935.405
267.8275, 1977.906
268.3096, 2019.259
268.7917, 2057.540
269.2738, 2095.272
269.7559, 2135.570
270.2380, 2178.873
270.7202, 2222.653
271.2023, 2266.830
271.6844, 2310.713
272.1665, 2349.646
272.6486, 2379.456
273.1307, 2406.747
273.6129, 2439.204
274.0950, 2476.965
274.5771, 2513.290
275.0592, 2542.780
275.5413, 2566.731
276.0234, 2592.222
276.5056, 2620.751
276.9877, 2650.703
277.4698, 2680.726
277.9519, 2710.841
278.4340, 2741.454
278.9161, 2772.729
279.3983, 2804.662
279.8804, 2838.199
280.3625, 2874.444
280.8446, 2910.400
281.3267, 2944.240
281.8088, 2976.310
282.2910, 3007.835
282.7731, 3041.489
283.2552, 3074.880
283.7373, 3100.821
284.2194, 3120.973
284.7015, 3129.319
285.1837, 3123.559
285.6658, 3106.034
286.1479, 3079.635
286.6300, 3046.056
287.1121, 3004.208
287.5942, 2950.792
288.0764, 2883.059
288.5585, 2809.546
289.0406, 2732.688
289.5227, 2652.714
290.0048, 2568.953
290.4869, 2479.156
290.9691, 2389.440
291.4512, 2309.282
291.9333, 2239.525
292.4154, 2177.407
292.8975, 2124.629
293.3796, 2077.649
293.8618, 2034.868
294.3439, 1995.840
294.8260, 1960.214
295.3081, 1927.503
295.7902, 1897.668
296.2723, 1871.177
296.7545, 1848.884
297.2366, 1829.632
297.7187, 1812.428
298.2008, 1797.442
298.6829, 1786.553
299.1650, 1781.572
299.6472, 1782.469
300.1293, 1789.233
300.6114, 1804.445
301.0935, 1823.835
301.5756, 1846.200
302.0577, 1871.191
302.5399, 1898.744
303.0220, 1929.211
303.5041, 1962.403
303.9862, 1995.321
304.4683, 2025.221
304.9504, 2058.448
305.4326, 2097.110
305.9147, 2140.534
306.3968, 2187.113
306.8789, 2235.369
307.3610, 2286.377
307.8431, 2344.799
308.3253, 2417.650
308.8074, 2486.923
309.2895, 2547.418
309.7716, 2602.372
310.2537, 2657.031
310.7358, 2715.128
311.2180, 2768.810
311.7001, 2802.200
312.1822, 2819.076
312.6643, 2804.827
313.1464, 2758.494
313.6285, 2683.835
314.1107, 2577.397
314.5928, 2439.227
315.0749, 2283.645
315.5570, 2128.708
316.0392, 1972.198
316.5213, 1825.072
317.0034, 1684.915
317.4855, 1556.158
317.9676, 1442.462
318.4497, 1343.972
318.9319, 1258.550
319.4140, 1185.241
319.8961, 1124.669
320.3782, 1071.087
320.8603, 1028.486
321.3424, 990.1375
321.8246, 953.2834
322.3067, 918.5135
322.7888, 887.5031
323.2709, 862.2645
323.7530, 842.1165
324.2351, 822.8068
324.7173, 803.7483
325.1994, 786.4968
325.6815, 771.5255
326.1636, 758.3299
326.6457, 746.0185
327.1278, 734.1923
327.6100, 723.1073
328.0921, 713.3566
328.5742, 705.1602
329.0563, 697.8954
329.5384, 691.8846
330.0205, 686.3413
330.5027, 680.0782
330.9848, 672.7501
331.4669, 666.3217
331.9490, 664.3633
332.4311, 668.3802
332.9132, 670.2448
333.3954, 668.5595
333.8775, 664.4537
334.3596, 659.1307
334.8417, 652.2719
335.3238, 641.6625
335.8059, 624.3903
336.2881, 600.3457
336.7702, 575.8051
337.2523, 550.1871
337.7344, 524.8554
338.2165, 499.6450
338.6986, 475.1300
339.1808, 452.2065
339.6629, 431.2354
340.1450, 412.3495
340.6271, 396.0350
341.1092, 382.9568
341.5913, 371.3857
342.0735, 360.5624
342.5556, 350.6615
343.0377, 341.8484
343.5198, 334.1305
344.0019, 327.6773
344.4840, 323.4961
344.9662, 322.4328
345.4483, 319.8006
345.9304, 312.0510
346.4125, 303.3951
346.8946, 296.6957
347.3767, 292.3692
347.8589, 289.3199
348.3410, 286.7759
348.8231, 284.7172
349.3052, 282.7891
349.7873, 281.2488
350.2694, 279.4426
350.7516, 276.9871
351.2337, 273.9228
351.7158, 270.5038
352.1979, 266.2340
352.6800, 261.6624
353.1621, 258.8637
353.6443, 258.5710
354.1264, 258.4623
354.6085, 257.0279
355.0906, 254.8979
355.5727, 253.0467
356.0548, 251.8756
356.5370, 251.0212
357.0191, 250.2334
357.5012, 249.5932
357.9833, 248.1589
358.4654, 244.7519
358.9475, 240.8029
359.4297, 238.1556
359.9118, 237.1964
360.3939, 236.4146
360.8760, 234.4468
361.3581, 231.6014
361.8402, 229.5361
362.3224, 229.0489
362.8045, 228.8040
363.2866, 227.0527
363.7687, 223.9939
364.2509, 221.6713
364.7330, 221.8119
365.2151, 222.9032
365.6972, 222.0199
366.1793, 218.5666
366.6614, 215.2793
367.1436, 214.6193
367.6257, 215.7949
368.1078, 216.3367
368.5899, 215.7670
369.0720, 214.5951
369.5541, 213.0698
370.0363, 211.2356
370.5184, 209.3859
371.0005, 207.6170
371.4826, 205.9596
371.9647, 204.4803
372.4468, 203.2587
372.9290, 202.0074
373.4111, 200.8500
373.8932, 199.5459
374.3753, 197.5114
374.8574, 194.5082
375.3395, 191.2966
375.8217, 188.8080
376.3038, 187.0797
376.7859, 185.8119
377.2680, 185.2387
377.7501, 184.9404
378.2322, 184.7071
378.7144, 184.4660
379.1965, 183.9336
379.6786, 182.7965
380.1607, 181.1454
380.6428, 179.9975
381.1249, 180.0590
381.6071, 179.7829
382.0892, 178.1265
382.5713, 175.8020
383.0534, 174.2030
383.5355, 173.9424
384.0176, 174.5514
384.4998, 175.0386
384.9819, 175.4727
385.4640, 175.6425
385.9461, 175.6491
386.4282, 175.3231
386.9103, 174.3939
387.3925, 172.8944
387.8746, 171.1723
388.3567, 169.5490
388.8388, 167.9527
389.3209, 167.0299
389.8030, 166.7091
390.2852, 167.0005
390.7673, 168.5822
391.2494, 170.7354
391.7315, 172.0572
392.2136, 171.6799
392.6957, 170.0459
393.1779, 168.8488
393.6600, 168.2725
394.1421, 167.9242
394.6242, 168.3009
395.1063, 168.5694
395.5884, 167.5008
396.0706, 164.9926
396.5527, 162.6691
397.0348, 163.1454
397.5169, 167.6423
397.9990, 170.0438
398.4811, 168.3714
398.9633, 166.3208
399.4454, 165.0249
399.9275, 164.5513
400.4096, 164.7410
400.8917, 165.7541
401.3738, 167.2132
401.8560, 167.3616
402.3381, 165.4132
402.8202, 163.6306
403.3023, 163.0287
403.7844, 162.7595
404.2665, 161.7720
404.7487, 159.6973
405.2308, 157.6154
405.7129, 157.0441
406.1950, 158.0758
406.6771, 158.8152
407.1592, 158.7009
407.6414, 158.4333
408.1235, 158.8871
408.6056, 159.8171
409.0877, 159.8828
409.5698, 157.3917
410.0519, 153.6273
410.5341, 151.8961
411.0162, 152.8021
411.4983, 153.7203
411.9804, 152.7508
412.4625, 150.8128
412.9447, 149.4435
413.4268, 149.1193
413.9089, 149.0108
414.3910, 148.4538
414.8731, 147.5363
415.3553, 146.6842
415.8374, 146.0403
416.3195, 145.5063
416.8016, 145.0062
417.2837, 144.5699
417.7658, 143.9004
418.2480, 142.6727
418.7301, 141.3017
419.2122, 140.3212
419.6943, 139.7709
420.1764, 139.2063
420.6585, 138.2279
421.1407, 136.8983
421.6228, 135.9601
422.1049, 135.7342
422.5870, 135.4949
423.0691, 134.8123
423.5512, 133.9412
424.0334, 133.3953
424.5155, 133.3930
424.9976, 133.6521
425.4797, 133.6628
425.9618, 133.4050
426.4439, 132.8856
426.9261, 131.7281
427.4082, 130.6071
427.8903, 130.1263
428.3724, 130.2028
428.8545, 130.2716
429.3366, 129.8871
429.8188, 129.0539
430.3009, 127.9433
430.7830, 125.5790
431.2651, 124.0433
431.7472, 124.3986
432.2293, 125.4836
432.7115, 125.7758
433.1936, 124.7329
433.6757, 123.2687
434.1578, 123.0299
434.6399, 124.5340
435.1220, 125.4227
435.6042, 124.9479
436.0863, 124.2929
436.5684, 124.0050
437.0505, 124.0349
437.5326, 124.0555
438.0147, 123.8649
438.4969, 123.4881
438.9790, 122.9881
439.4611, 122.3052
439.9432, 121.6513
440.4253, 120.9923
440.9074, 120.4595
441.3896, 120.3042
441.8717, 120.6553
442.3538, 120.9415
442.8359, 120.4856
443.3180, 119.4416
443.8001, 118.8119
444.2823, 118.9742
444.7644, 119.2447
445.2465, 118.7138
445.7286, 117.6102
446.2107, 117.0714
446.6928, 117.7767
447.1750, 118.9362
447.6571, 119.8938
448.1392, 120.6133
448.6213, 120.9880
449.1034, 120.8908
449.5855, 120.4655
450.0677, 120.1065
450.5498, 119.8288
451.0319, 119.5697
451.5140, 119.2885
451.9961, 119.0291
452.4782, 118.7649
452.9604, 118.5147
453.4425, 118.5372
453.9246, 119.1845
454.4067, 120.5704
454.8888, 121.3482
455.3709, 120.6524
455.8531, 120.3897
456.3352, 121.6117
456.8173, 123.6616
457.2994, 125.5111
457.7815, 126.6821
458.2636, 127.2283
458.7458, 127.1736
459.2279, 126.0044
459.7100, 125.3144
460.1921, 125.1499
460.6742, 125.4049
461.1563, 126.1208
461.6385, 127.2252
462.1206, 128.5904
462.6027, 130.3771
463.0848, 132.2930
463.5670, 132.5536
464.0491, 129.9561
464.5312, 128.1568
465.0133, 128.8845
465.4954, 130.7120
465.9775, 132.3413
466.4597, 133.4925
466.9418, 134.3699
467.4239, 135.0569
467.9060, 135.5982
468.3881, 136.3647
468.8702, 137.5846
469.3524, 138.7003
469.8345, 139.0245
470.3166, 138.8369
470.7987, 138.9450
471.2808, 139.8526
471.7629, 140.9046
472.2451, 141.6442
472.7272, 142.0538
473.2093, 142.0302
473.6914, 141.5072
474.1735, 140.5766
474.6556, 139.4594
475.1378, 138.4001
475.6199, 136.4280
476.1020, 132.8125
476.5841, 128.6212
477.0662, 124.6317
477.5483, 120.9817
478.0305, 117.5451
478.5126, 114.2478
478.9947, 111.0882
479.4768, 108.1858
479.9589, 104.7738
480.4410, 102.5488
480.9232, 102.7577
481.4053, 103.7257
481.8874, 103.6480
482.3695, 102.1390
482.8516, 100.2238
483.3337, 99.13280
483.8159, 98.95605
484.2980, 98.83598
484.7801, 98.64000
485.2622, 98.67049
485.7443, 99.41453
486.2264, 100.3568
486.7086, 100.5621
487.1907, 99.49006
487.6728, 98.08380
488.1549, 97.81593
488.6370, 98.76665
489.1191, 99.60467
489.6013, 100.2616
490.0834, 100.4330
490.5655, 99.59544
491.0476, 97.93464
491.5297, 96.74623
492.0118, 96.84748
492.4940, 97.53361
492.9761, 98.07683
493.4582, 98.44159
493.9403, 98.31706
494.4224, 97.28120
494.9045, 95.89201
495.3867, 95.73173
495.8688, 97.45564
496.3509, 98.54837
496.8330, 98.08726
497.3151, 96.90478
497.7972, 95.68504
498.2794, 94.60249
498.7615, 93.81468
499.2436, 93.46268
499.7257, 93.53931
500.2078, 93.91367
500.6899, 94.87174
501.1721, 95.78316
501.6542, 96.81355
502.1363, 97.61507
502.6184, 97.72203
503.1005, 97.06049
503.5826, 96.10027
504.0648, 95.37629
504.5469, 94.89552
505.0290, 94.58583
505.5111, 94.47083
505.9932, 94.51530
506.4753, 94.90526
506.9575, 95.38274
507.4396, 95.51147
507.9217, 95.07611
508.4038, 94.43370
508.8859, 93.93559
509.3680, 93.58745
509.8502, 93.54857
510.3323, 94.01199
510.8144, 94.54053
511.2965, 94.71695
511.7787, 94.58504
512.2607, 94.31937
512.7429, 94.03288
513.2250, 93.57509
513.7071, 92.43847
514.1892, 90.90928
514.6713, 90.35302
515.1534, 91.59193
515.6356, 93.47529
516.1177, 93.62920
516.5998, 90.75320
517.0819, 89.06403
517.5640, 89.25586
518.0461, 90.18641
518.5283, 91.56898
519.0104, 93.03673
519.4925, 93.75901
519.9746, 93.10446
520.4567, 91.53757
520.9388, 90.81578
521.4210, 91.41663
521.9031, 91.99425
522.3852, 92.43790
522.8673, 92.77103
523.3494, 92.94894
523.8315, 93.00713
524.3137, 93.09860
524.7958, 93.37635
525.2779, 93.77368
525.7600, 94.02193
526.2421, 94.05871
526.7242, 94.18498
527.2064, 94.69869
527.6885, 95.28172
528.1706, 95.48669
528.6527, 95.20949
529.1348, 94.96471
529.6169, 95.23179
530.0991, 95.62389
530.5812, 95.34046
531.0633, 94.29967
531.5454, 93.38907
532.0275, 93.28632
532.5096, 93.87727
532.9918, 94.37298
533.4739, 94.83151
533.9560, 95.13760
534.4381, 95.38756
534.9202, 95.40969
535.4023, 94.83986
535.8845, 93.71268
536.3666, 92.61314
536.8488, 92.15927
537.3309, 92.34746
537.8130, 92.45959
538.2951, 92.41866
538.7772, 92.40023
539.2593, 92.86483
539.7415, 93.15981
540.2236, 92.34357
540.7057, 90.21825
541.1878, 88.01826
541.6699, 87.06406
542.1520, 87.19195
542.6342, 87.29327
543.1163, 87.35621
543.5984, 87.23512
544.0805, 86.57870
544.5626, 85.72353
545.0447, 85.33317
545.5269, 85.67515
546.0090, 86.14877
546.4911, 86.64690
546.9732, 86.98216
547.4553, 86.65314
547.9374, 85.54575
548.4196, 84.31174
548.9017, 83.54800
549.3838, 83.25793
549.8659, 83.19241
550.3480, 83.62514
550.8301, 83.91536
551.3123, 83.83423
551.7944, 83.53650
552.2765, 83.16110
552.7586, 82.77049
553.2407, 82.45763
553.7228, 82.40364
554.2050, 82.64046
554.6871, 82.52525
555.1692, 81.79051
555.6513, 81.07440
556.1334, 80.54506
556.6155, 80.19212
557.0977, 80.03477
557.5798, 80.09948
558.0619, 80.19598
558.5440, 80.01936
559.0261, 79.71437
559.5082, 79.98981
559.9904, 81.12495
560.4725, 81.99837
560.9546, 81.57650
561.4367, 80.11664
561.9188, 79.10339
562.4009, 78.84911
562.8831, 78.66991
563.3652, 78.14799
563.8473, 77.61537
564.3294, 77.73045
564.8115, 78.54621
565.2936, 79.21797
565.7758, 78.82744
566.2579, 77.36803
566.7400, 76.41909
567.2221, 76.26064
567.7042, 76.31581
568.1863, 76.72081
568.6685, 77.16553
569.1506, 77.30593
569.6327, 77.08534
570.1148, 76.77236
570.5969, 76.72729
571.0790, 76.85757
571.5612, 76.51523
572.0433, 75.53638
572.5254, 74.52251
573.0075, 73.60348
573.4896, 72.92394
573.9717, 72.74330
574.4539, 73.20553
574.9360, 73.73285
575.4181, 74.19041
575.9002, 74.48774
576.3823, 74.46931
576.8644, 74.13112
577.3466, 73.60930
577.8287, 72.97473
578.3108, 72.25505
578.7929, 71.58620
579.2750, 70.75520
579.7571, 70.26860
580.2393, 70.59099
580.7214, 70.94645
581.2035, 70.53333
581.6856, 69.48164
582.1677, 68.66739
582.6498, 68.82708
583.1320, 69.64494
583.6141, 70.07533
584.0962, 70.12161
584.5783, 69.75331
585.0604, 68.46603
585.5425, 67.14564
586.0247, 66.72982
586.5068, 67.14586
586.9889, 67.24080
587.4710, 65.92059
587.9531, 64.40966
588.4352, 64.44158
588.9174, 65.74897
589.3995, 66.58675
589.8816, 66.13582
590.3637, 65.03893
590.8458, 64.40705
591.3279, 64.48286
