##NAMES=Lizardite
##RRUFFID=R060006
##IDEAL CHEMISTRY=Mg_3_Si_2_O_5_(OH)_4_
##LOCALITY=Snarum, Norway
##OWNER=RRUFF
##SOURCE=University of Arizona Mineral Museum
##DESCRIPTION=Green blebs of fine-grained serpentine habit, polytype 1T, associated with pearly hydrotalcite
##STATUS=The identification of this mineral has been confirmed by X-ray diffraction and chemical analysis
##URL=rruff.info/R060006
##MEASURED CHEMISTRY=(Mg_0.94_Fe^2+^_0.04_Al_0.02_)_3_(Si_0.97_Al_0.03_)_2_O_5_(OH)_4_
105.5988, 3035.198
106.0809, 3033.375
106.5630, 3033.413
107.0451, 3035.463
107.5272, 3037.305
108.0093, 3036.910
108.4915, 3036.113
108.9736, 3036.253
109.4557, 3037.896
109.9378, 3040.475
110.4199, 3042.567
110.9020, 3043.767
111.3842, 3044.819
111.8663, 3046.012
112.3484, 3047.084
112.8305, 3047.573
113.3126, 3047.021
113.7947, 3045.344
114.2769, 3044.687
114.7590, 3045.567
115.2411, 3046.808
115.7232, 3047.958
116.2053, 3049.059
116.6874, 3050.479
117.1695, 3052.687
117.6517, 3055.978
118.1338, 3058.619
118.6159, 3060.327
119.0980, 3061.578
119.5801, 3062.692
120.0622, 3063.718
120.5444, 3064.748
121.0265, 3065.818
121.5086, 3066.867
121.9907, 3068.315
122.4728, 3070.397
122.9549, 3072.957
123.4371, 3075.510
123.9192, 3077.573
124.4013, 3080.116
124.8834, 3084.025
125.3655, 3089.328
125.8476, 3095.267
126.3298, 3101.558
126.8119, 3108.240
127.2940, 3114.325
127.7761, 3120.380
128.2582, 3125.161
128.7404, 3128.135
129.2225, 3129.165
129.7046, 3127.694
130.1867, 3122.639
130.6688, 3112.972
131.1509, 3101.115
131.6331, 3087.071
132.1152, 3071.653
132.5973, 3054.671
133.0794, 3036.053
133.5615, 3016.981
134.0436, 3002.823
134.5258, 2997.660
135.0079, 2993.413
135.4900, 2989.233
135.9721, 2985.238
136.4542, 2981.841
136.9363, 2979.354
137.4184, 2977.728
137.9006, 2976.096
138.3827, 2974.744
138.8648, 2973.137
139.3469, 2970.641
139.8290, 2967.453
140.3111, 2964.740
140.7933, 2963.706
141.2754, 2964.161
141.7575, 2963.874
142.2396, 2962.376
142.7217, 2960.271
143.2038, 2957.940
143.6860, 2955.235
144.1681, 2953.084
144.6502, 2952.789
145.1323, 2953.680
145.6144, 2954.370
146.0965, 2954.055
146.5787, 2953.073
147.0608, 2952.473
147.5429, 2952.295
148.0250, 2952.558
148.5071, 2953.783
148.9892, 2955.505
149.4714, 2956.455
149.9535, 2955.102
150.4356, 2951.174
150.9177, 2948.446
151.3998, 2948.240
151.8819, 2948.289
152.3641, 2947.841
152.8462, 2946.846
153.3283, 2945.661
153.8104, 2944.778
154.2925, 2944.617
154.7746, 2943.539
155.2568, 2940.652
155.7389, 2937.689
156.2210, 2935.815
156.7031, 2935.229
157.1852, 2935.259
157.6673, 2934.881
158.1495, 2933.863
158.6316, 2932.743
159.1137, 2931.727
159.5958, 2930.512
160.0779, 2928.482
160.5600, 2925.365
161.0422, 2922.082
161.5243, 2920.777
162.0064, 2922.407
162.4885, 2923.451
162.9706, 2922.948
163.4527, 2921.340
163.9349, 2919.370
164.4170, 2917.129
164.8991, 2914.965
165.3812, 2913.548
165.8633, 2913.076
166.3454, 2912.650
166.8276, 2911.781
167.3097, 2910.519
167.7918, 2909.137
168.2739, 2907.584
168.7560, 2906.114
169.2381, 2905.109
169.7203, 2904.763
170.2024, 2904.417
170.6845, 2903.225
171.1666, 2900.995
171.6487, 2899.093
172.1308, 2898.164
172.6130, 2897.685
173.0951, 2897.350
173.5772, 2897.080
174.0593, 2896.824
174.5414, 2896.664
175.0235, 2897.177
175.5057, 2896.404
175.9878, 2892.871
176.4699, 2888.565
176.9520, 2885.277
177.4341, 2883.839
177.9162, 2883.819
178.3984, 2883.912
178.8805, 2884.518
179.3626, 2884.678
179.8447, 2884.057
180.3268, 2883.013
180.8089, 2881.987
181.2911, 2881.234
181.7732, 2880.700
182.2553, 2880.014
182.7374, 2879.138
183.2195, 2878.190
183.7016, 2877.276
184.1838, 2876.318
184.6659, 2875.114
185.1480, 2873.487
185.6301, 2871.522
186.1122, 2870.096
186.5943, 2869.447
187.0765, 2868.954
187.5586, 2868.236
188.0407, 2867.423
188.5228, 2867.020
189.0049, 2867.469
189.4870, 2868.612
189.9692, 2869.332
190.4513, 2869.572
190.9334, 2869.442
191.4155, 2868.917
191.8976, 2868.008
192.3797, 2866.917
192.8619, 2865.531
193.3440, 2864.116
193.8261, 2863.372
194.3082, 2863.980
194.7903, 2864.915
195.2724, 2864.834
195.7546, 2863.525
196.2367, 2862.688
196.7188, 2864.391
197.2009, 2867.111
197.6830, 2868.724
198.1651, 2867.935
198.6473, 2866.160
199.1294, 2865.935
199.6115, 2867.808
200.0936, 2869.916
200.5757, 2871.638
201.0578, 2872.988
201.5400, 2873.951
202.0221, 2874.500
202.5042, 2874.638
202.9863, 2874.272
203.4684, 2872.745
203.9505, 2871.781
204.4327, 2871.913
204.9148, 2872.829
205.3969, 2874.134
205.8790, 2875.644
206.3611, 2877.335
206.8432, 2879.128
207.3254, 2881.103
207.8075, 2883.104
208.2896, 2884.604
208.7717, 2886.190
209.2538, 2888.883
209.7359, 2893.459
210.2181, 2899.632
210.7002, 2904.506
211.1823, 2906.231
211.6644, 2908.542
212.1465, 2912.774
212.6286, 2918.069
213.1108, 2922.744
213.5929, 2925.567
214.0750, 2926.770
214.5571, 2929.698
215.0392, 2935.836
215.5213, 2941.964
216.0035, 2947.041
216.4856, 2951.404
216.9677, 2955.846
217.4498, 2960.918
217.9319, 2966.552
218.4140, 2972.240
218.8961, 2976.519
219.3783, 2982.214
219.8604, 2991.175
220.3425, 3002.634
220.8246, 3014.136
221.3067, 3023.962
221.7888, 3032.580
222.2710, 3043.312
222.7531, 3057.111
223.2352, 3071.756
223.7173, 3086.010
224.1994, 3100.069
224.6815, 3115.226
225.1637, 3132.686
225.6458, 3151.764
226.1279, 3169.599
226.6100, 3185.530
227.0921, 3200.892
227.5742, 3217.762
228.0564, 3235.676
228.5385, 3250.665
229.0206, 3261.214
229.5027, 3266.464
229.9848, 3266.058
230.4669, 3259.535
230.9491, 3247.899
231.4312, 3231.427
231.9133, 3210.086
232.3954, 3185.618
232.8775, 3157.696
233.3596, 3127.468
233.8418, 3096.274
234.3239, 3063.306
234.8060, 3030.803
235.2881, 3000.855
235.7702, 2973.539
236.2523, 2948.062
236.7345, 2925.151
237.2166, 2903.661
237.6987, 2882.808
238.1808, 2862.353
238.6629, 2842.852
239.1451, 2824.882
239.6272, 2808.306
240.1093, 2793.875
240.5914, 2783.347
241.0735, 2774.362
241.5556, 2765.377
242.0378, 2755.956
242.5199, 2747.117
243.0020, 2740.430
243.4841, 2736.683
243.9662, 2732.245
244.4483, 2724.601
244.9305, 2717.203
245.4126, 2712.846
245.8947, 2712.006
246.3768, 2712.095
246.8589, 2709.326
247.3410, 2702.432
247.8232, 2696.627
248.3053, 2692.174
248.7874, 2688.986
249.2695, 2687.670
249.7516, 2688.071
250.2337, 2688.791
250.7159, 2687.938
251.1980, 2684.988
251.6801, 2681.876
252.1622, 2678.018
252.6443, 2674.527
253.1264, 2672.356
253.6086, 2671.448
254.0907, 2670.771
254.5728, 2669.033
255.0549, 2665.845
255.5370, 2662.701
256.0191, 2659.059
256.5013, 2655.853
256.9834, 2653.815
257.4655, 2652.865
257.9476, 2652.277
258.4297, 2651.257
258.9118, 2649.633
259.3940, 2648.198
259.8761, 2647.182
260.3582, 2646.088
260.8403, 2644.642
261.3224, 2642.852
261.8045, 2640.853
262.2867, 2638.700
262.7688, 2636.293
263.2509, 2634.514
263.7330, 2633.948
264.2151, 2633.348
264.6972, 2632.134
265.1794, 2630.356
265.6615, 2628.373
266.1436, 2626.493
266.6257, 2624.732
267.1078, 2622.753
267.5899, 2620.707
268.0721, 2618.370
268.5542, 2615.202
269.0363, 2611.597
269.5184, 2608.683
270.0005, 2607.407
270.4826, 2607.594
270.9648, 2606.670
271.4469, 2603.752
271.9290, 2600.901
272.4111, 2599.132
272.8932, 2598.043
273.3753, 2596.592
273.8575, 2594.157
274.3396, 2590.898
274.8217, 2587.630
275.3038, 2583.831
275.7859, 2580.572
276.2680, 2578.450
276.7502, 2577.096
277.2323, 2575.781
277.7144, 2574.211
278.1965, 2572.396
278.6786, 2570.272
279.1607, 2567.580
279.6429, 2565.151
280.1250, 2563.363
280.6071, 2561.975
281.0892, 2560.660
281.5713, 2559.367
282.0534, 2557.880
282.5356, 2555.530
283.0177, 2551.914
283.4998, 2548.954
283.9819, 2547.323
284.4640, 2546.596
284.9461, 2546.410
285.4283, 2546.824
285.9104, 2546.979
286.3925, 2545.322
286.8746, 2541.706
287.3567, 2538.386
287.8388, 2536.101
288.3210, 2534.229
288.8031, 2531.871
289.2852, 2528.794
289.7673, 2525.761
290.2494, 2523.673
290.7315, 2522.479
291.2137, 2521.385
291.6958, 2520.236
292.1779, 2519.158
292.6600, 2518.402
293.1421, 2518.004
293.6242, 2517.500
294.1064, 2516.486
294.5885, 2515.010
295.0706, 2513.449
295.5527, 2511.538
296.0348, 2509.751
296.5169, 2508.555
296.9991, 2507.938
297.4812, 2507.484
297.9633, 2507.017
298.4454, 2506.490
298.9275, 2505.835
299.4096, 2505.124
299.8918, 2504.175
300.3739, 2502.594
300.8560, 2500.504
301.3381, 2498.889
301.8202, 2498.456
302.3023, 2498.572
302.7845, 2497.954
303.2666, 2496.518
303.7487, 2494.632
304.2308, 2492.228
304.7129, 2489.499
305.1950, 2487.103
305.6772, 2485.279
306.1593, 2483.870
306.6414, 2482.805
307.1235, 2482.192
307.6056, 2481.089
308.0877, 2478.881
308.5699, 2475.900
309.0520, 2472.689
309.5341, 2469.075
310.0162, 2465.966
310.4983, 2464.977
310.9804, 2465.737
311.4626, 2465.857
311.9447, 2463.747
312.4268, 2460.806
312.9089, 2459.438
313.3910, 2460.157
313.8731, 2460.917
314.3553, 2459.550
314.8374, 2456.740
315.3195, 2454.705
315.8016, 2454.578
316.2837, 2454.997
316.7658, 2454.424
317.2480, 2452.804
317.7301, 2451.096
318.2122, 2449.771
318.6943, 2448.811
319.1764, 2448.183
319.6585, 2448.458
320.1407, 2448.372
320.6228, 2446.903
321.1049, 2444.179
321.5870, 2440.939
322.0691, 2437.265
322.5512, 2433.484
323.0334, 2430.018
323.5155, 2426.734
323.9976, 2424.241
324.4797, 2423.580
324.9618, 2424.078
325.4439, 2423.583
325.9261, 2421.266
326.4082, 2418.202
326.8903, 2415.691
327.3724, 2413.711
327.8545, 2411.884
328.3366, 2409.691
328.8188, 2407.657
329.3009, 2406.906
329.7830, 2407.812
330.2651, 2408.939
330.7472, 2408.918
331.2293, 2407.898
331.7115, 2406.554
332.1936, 2404.385
332.6757, 2402.308
333.1578, 2401.594
333.6399, 2402.296
334.1220, 2402.805
334.6042, 2401.915
335.0863, 2399.990
335.5684, 2398.565
336.0505, 2397.656
336.5326, 2397.305
337.0147, 2397.954
337.4969, 2399.344
337.9790, 2400.173
338.4611, 2399.606
338.9432, 2398.400
339.4253, 2398.227
339.9074, 2399.272
340.3896, 2400.660
340.8717, 2402.296
341.3538, 2404.007
341.8359, 2405.420
342.3180, 2406.399
342.8001, 2407.177
343.2822, 2408.090
343.7643, 2409.156
344.2465, 2410.135
344.7286, 2410.692
345.2107, 2411.288
345.6928, 2412.667
346.1749, 2414.922
346.6570, 2417.040
347.1392, 2418.082
347.6213, 2417.968
348.1034, 2417.822
348.5855, 2418.873
349.0676, 2418.861
349.5497, 2415.782
350.0319, 2410.083
350.5140, 2404.177
350.9961, 2399.681
351.4782, 2395.958
351.9603, 2390.056
352.4424, 2380.249
352.9246, 2370.754
353.4067, 2362.324
353.8888, 2355.117
354.3709, 2349.574
354.8530, 2345.913
355.3351, 2343.682
355.8173, 2342.163
356.2994, 2341.708
356.7815, 2341.163
357.2636, 2339.938
357.7457, 2338.865
358.2278, 2338.889
358.7100, 2340.122
359.1921, 2341.795
359.6742, 2343.015
360.1563, 2343.600
360.6384, 2344.966
361.1205, 2346.802
361.6027, 2349.582
362.0848, 2353.653
362.5669, 2358.897
363.0490, 2365.058
363.5311, 2371.997
364.0132, 2379.626
364.4954, 2387.169
364.9775, 2395.116
365.4596, 2402.374
365.9417, 2408.375
366.4238, 2413.630
366.9059, 2418.733
367.3881, 2423.952
367.8702, 2429.309
368.3523, 2434.864
368.8344, 2440.517
369.3165, 2446.571
369.7986, 2453.390
370.2808, 2460.342
370.7629, 2466.800
371.2450, 2472.783
371.7271, 2478.925
372.2092, 2485.840
372.6913, 2493.619
373.1735, 2501.936
373.6556, 2511.438
374.1377, 2520.791
374.6198, 2528.841
375.1019, 2536.404
375.5840, 2544.862
376.0662, 2555.029
376.5483, 2566.952
377.0304, 2580.767
377.5125, 2598.086
377.9946, 2615.031
378.4767, 2630.300
378.9589, 2645.153
379.4410, 2661.164
379.9231, 2678.791
380.4052, 2696.617
380.8873, 2713.031
381.3694, 2728.641
381.8516, 2740.504
382.3337, 2746.916
382.8158, 2750.738
383.2979, 2754.327
383.7800, 2756.990
384.2621, 2755.492
384.7443, 2746.993
385.2264, 2731.771
385.7085, 2712.520
386.1906, 2687.735
386.6727, 2660.708
387.1548, 2631.837
387.6370, 2602.188
388.1191, 2573.591
388.6012, 2546.753
389.0833, 2521.164
389.5654, 2496.005
390.0475, 2471.150
390.5297, 2447.346
391.0118, 2424.847
391.4939, 2403.435
391.9760, 2383.041
392.4581, 2363.638
392.9402, 2345.484
393.4224, 2328.907
393.9045, 2313.802
394.3866, 2299.496
394.8687, 2285.578
395.3508, 2273.053
395.8329, 2262.729
396.3151, 2254.310
396.7972, 2247.094
397.2793, 2241.614
397.7614, 2236.840
398.2435, 2230.996
398.7256, 2223.994
399.2078, 2217.535
399.6899, 2212.830
400.1720, 2209.348
400.6541, 2205.725
401.1362, 2201.715
401.6183, 2197.979
402.1005, 2195.160
402.5826, 2192.957
403.0647, 2190.457
403.5468, 2187.315
404.0289, 2183.985
404.5110, 2180.986
404.9932, 2178.246
405.4753, 2176.117
405.9574, 2175.489
406.4395, 2174.979
406.9216, 2172.932
407.4037, 2169.336
407.8859, 2165.837
408.3680, 2163.735
408.8501, 2162.927
409.3322, 2161.981
409.8143, 2161.485
410.2964, 2160.237
410.7786, 2157.269
411.2607, 2153.369
411.7428, 2149.795
412.2249, 2147.079
412.7070, 2145.075
413.1891, 2143.544
413.6713, 2142.977
414.1534, 2142.048
414.6355, 2140.435
415.1176, 2138.725
415.5997, 2137.563
416.0818, 2136.842
416.5640, 2135.764
417.0461, 2133.515
417.5282, 2130.074
418.0103, 2127.184
418.4924, 2125.077
418.9745, 2123.297
419.4567, 2121.938
419.9388, 2120.781
420.4209, 2119.513
420.9030, 2118.000
421.3851, 2116.390
421.8672, 2114.949
422.3494, 2113.527
422.8315, 2112.664
423.3136, 2113.020
423.7957, 2113.435
424.2778, 2113.336
424.7599, 2112.633
425.2421, 2111.404
425.7242, 2109.540
426.2063, 2107.120
426.6884, 2105.018
427.1705, 2103.537
427.6526, 2101.872
428.1348, 2099.431
428.6169, 2096.675
429.0990, 2094.226
429.5811, 2092.279
430.0632, 2090.767
430.5453, 2089.790
431.0275, 2089.369
431.5096, 2088.660
431.9917, 2087.164
432.4738, 2085.560
432.9559, 2084.558
433.4380, 2084.151
433.9202, 2083.906
434.4023, 2084.216
434.8844, 2084.374
435.3665, 2082.807
435.8486, 2079.201
436.3307, 2075.429
436.8129, 2072.655
437.2950, 2070.874
437.7771, 2069.755
438.2592, 2070.320
438.7413, 2070.412
439.2234, 2068.171
439.7056, 2064.569
440.1877, 2062.169
440.6698, 2062.053
441.1519, 2062.797
441.6340, 2062.008
442.1161, 2058.987
442.5983, 2056.463
443.0804, 2054.840
443.5625, 2053.563
444.0446, 2052.077
444.5267, 2050.475
445.0089, 2049.356
445.4910, 2049.248
445.9731, 2050.020
446.4552, 2050.377
446.9373, 2050.687
447.4194, 2050.117
447.9016, 2047.534
448.3837, 2044.464
448.8658, 2042.672
449.3479, 2042.653
449.8300, 2043.505
450.3121, 2044.086
450.7943, 2044.521
451.2764, 2044.203
451.7585, 2042.361
452.2406, 2040.462
452.7227, 2039.067
453.2048, 2038.065
453.6870, 2037.058
454.1691, 2035.714
454.6512, 2034.349
455.1333, 2033.933
455.6154, 2034.920
456.0975, 2035.496
456.5797, 2034.906
457.0618, 2033.771
457.5439, 2032.294
458.0260, 2030.521
458.5081, 2029.096
458.9902, 2028.931
459.4724, 2029.573
459.9545, 2029.168
460.4366, 2027.098
460.9187, 2025.179
461.4008, 2025.353
461.8829, 2026.754
462.3651, 2027.236
462.8472, 2026.103
463.3293, 2024.305
463.8114, 2022.029
464.2935, 2019.576
464.7756, 2018.231
465.2578, 2018.709
465.7399, 2019.870
466.2220, 2019.806
466.7041, 2018.366
467.1862, 2016.460
467.6683, 2013.820
468.1505, 2010.995
468.6326, 2008.187
469.1147, 2005.544
469.5968, 2003.660
470.0789, 2003.112
470.5610, 2003.540
471.0432, 2002.567
471.5253, 1998.544
472.0074, 1995.105
472.4895, 1993.021
472.9716, 1991.493
473.4537, 1989.839
473.9359, 1987.857
474.4180, 1985.600
474.9001, 1983.084
475.3822, 1980.276
475.8643, 1977.646
476.3464, 1975.981
476.8286, 1973.634
477.3107, 1969.167
477.7928, 1963.883
478.2749, 1960.062
478.7570, 1958.931
479.2391, 1958.854
479.7213, 1956.978
480.2034, 1953.017
480.6855, 1949.642
481.1676, 1948.012
481.6497, 1946.558
482.1318, 1943.671
482.6140, 1939.558
483.0961, 1936.095
483.5782, 1934.471
484.0603, 1933.902
484.5424, 1933.368
485.0245, 1932.851
485.5067, 1931.841
485.9888, 1929.959
486.4709, 1927.430
486.9530, 1924.903
487.4351, 1922.329
487.9172, 1919.874
488.3994, 1917.453
488.8815, 1915.238
489.3636, 1913.637
489.8457, 1912.686
490.3278, 1911.702
490.8099, 1909.874
491.2921, 1907.128
491.7742, 1905.724
492.2563, 1907.301
492.7384, 1908.122
493.2205, 1906.377
493.7026, 1903.405
494.1848, 1901.252
494.6669, 1900.655
495.1490, 1900.574
495.6311, 1899.222
496.1132, 1895.974
496.5953, 1893.491
497.0775, 1892.502
497.5596, 1891.586
498.0417, 1890.101
498.5238, 1888.250
499.0059, 1886.551
499.4880, 1885.263
499.9702, 1884.275
500.4523, 1883.585
500.9344, 1883.360
501.4165, 1882.286
501.8986, 1879.203
502.3807, 1875.810
502.8629, 1873.922
503.3450, 1873.502
503.8271, 1872.690
504.3092, 1869.997
504.7913, 1866.632
505.2734, 1864.526
505.7556, 1863.783
506.2377, 1863.506
506.7198, 1863.478
507.2019, 1863.386
507.6840, 1862.166
508.1661, 1858.880
508.6482, 1856.416
509.1303, 1856.466
509.6125, 1857.251
510.0946, 1856.432
510.5767, 1853.794
511.0588, 1851.204
511.5409, 1850.508
512.0231, 1851.685
512.5052, 1851.708
512.9873, 1849.352
513.4694, 1847.268
513.9515, 1846.055
514.4337, 1845.324
514.9158, 1844.797
515.3979, 1844.325
515.8800, 1843.541
516.3621, 1841.686
516.8442, 1838.574
517.3264, 1836.508
517.8085, 1836.445
518.2906, 1836.208
518.7727, 1834.624
519.2548, 1832.284
519.7369, 1830.207
520.2191, 1828.801
520.7012, 1827.579
521.1833, 1825.721
521.6654, 1823.400
522.1475, 1822.168
522.6296, 1822.859
523.1118, 1823.791
523.5939, 1822.839
524.0760, 1820.292
524.5581, 1818.207
525.0402, 1817.506
525.5223, 1816.857
526.0045, 1815.317
526.4866, 1813.040
526.9687, 1810.430
527.4508, 1807.629
527.9329, 1804.863
528.4150, 1802.534
528.8972, 1800.562
529.3793, 1799.339
529.8614, 1799.696
530.3435, 1799.996
530.8256, 1799.402
531.3077, 1797.975
531.7899, 1795.988
532.2720, 1793.531
532.7541, 1790.919
533.2362, 1789.083
533.7183, 1788.427
534.2004, 1787.367
534.6826, 1785.162
535.1647, 1782.841
535.6468, 1781.149
536.1289, 1779.953
536.6110, 1778.500
537.0931, 1776.100
537.5753, 1773.288
538.0574, 1771.113
538.5395, 1769.596
539.0216, 1768.148
539.5037, 1766.400
539.9858, 1764.719
540.4680, 1763.887
540.9501, 1764.130
541.4322, 1763.804
541.9143, 1762.106
542.3964, 1759.864
542.8785, 1757.741
543.3607, 1755.846
543.8428, 1754.249
544.3249, 1753.033
544.8070, 1752.101
545.2891, 1751.082
545.7712, 1750.098
546.2534, 1748.837
546.7355, 1747.080
547.2176, 1745.216
547.6997, 1743.591
548.1818, 1742.168
548.6639, 1740.565
549.1461, 1738.414
549.6282, 1735.912
550.1103, 1734.010
550.5924, 1732.947
551.0745, 1731.816
551.5566, 1730.158
552.0388, 1728.412
552.5209, 1726.777
553.0030, 1725.300
553.4851, 1724.342
553.9672, 1724.761
554.4493, 1725.606
554.9315, 1725.058
555.4136, 1723.029
555.8957, 1720.626
556.3778, 1718.379
556.8599, 1716.240
557.3420, 1714.078
557.8242, 1711.753
558.3063, 1709.747
558.7884, 1708.236
559.2705, 1707.038
559.7526, 1706.047
560.2347, 1705.224
560.7169, 1704.538
561.1990, 1703.998
561.6811, 1703.507
562.1632, 1702.649
562.6453, 1701.105
563.1274, 1699.681
563.6096, 1698.738
564.0917, 1697.698
564.5738, 1695.956
565.0559, 1693.620
565.5380, 1691.464
566.0201, 1690.214
566.5023, 1689.458
566.9844, 1688.007
567.4665, 1685.721
567.9486, 1683.723
568.4307, 1682.784
568.9128, 1682.094
569.3950, 1680.342
569.8771, 1677.392
570.3592, 1675.111
570.8413, 1674.673
571.3234, 1674.828
571.8055, 1674.423
572.2877, 1673.414
572.7698, 1671.955
573.2519, 1670.041
573.7340, 1668.006
574.2161, 1666.765
574.6982, 1667.119
575.1804, 1666.830
575.6625, 1665.347
576.1446, 1663.720
576.6267, 1662.585
577.1088, 1661.849
577.5909, 1661.098
578.0731, 1660.089
578.5552, 1658.913
579.0373, 1657.721
579.5194, 1656.462
580.0015, 1655.498
580.4836, 1655.398
580.9658, 1655.086
581.4479, 1653.563
581.9300, 1651.095
582.4121, 1648.839
582.8942, 1647.094
583.3763, 1645.849
583.8585, 1645.478
584.3406, 1645.690
584.8227, 1645.296
585.3048, 1643.827
585.7869, 1641.942
586.2690, 1640.482
586.7512, 1639.463
587.2333, 1638.964
587.7154, 1639.763
588.1975, 1640.218
588.6796, 1639.582
589.1617, 1638.157
589.6438, 1636.370
590.1259, 1634.413
590.6080, 1632.434
591.0901, 1630.387
591.5723, 1628.104
592.0544, 1627.470
592.5365, 1629.785
593.0186, 1631.859
593.5007, 1632.076
593.9828, 1631.162
594.4650, 1630.114
594.9471, 1629.103
595.4292, 1628.211
595.9113, 1627.730
596.3934, 1627.389
596.8755, 1626.444
597.3577, 1624.767
597.8398, 1623.094
598.3219, 1622.054
598.8040, 1621.523
599.2861, 1620.587
599.7682, 1618.678
