##NAMES=Lollingite
##RRUFFID=R070592
##IDEAL CHEMISTRY=FeAs_2_
##LOCALITY=Ebisu mine, Hirukawa, Gifu Prefecture, Honshu, Japan
##OWNER=RRUFF
##SOURCE=James Shigley
##DESCRIPTION=Steel gray massive associated with quartz
##STATUS=The identification of this mineral is confirmed by single-crystal X-ray diffraction and chemical analysis.
##URL=rruff.info/R070592
##MEASURED CHEMISTRY=Fe_1.05_Bi_0.01_As_2_
132.9770, 14369.18
133.4591, 14615.77
133.9412, 14811.57
134.4234, 15030.36
134.9055, 15302.95
135.3876, 15624.76
135.8697, 15932.38
136.3518, 16225.09
136.8339, 16509.72
137.3161, 16811.43
137.7982, 17156.83
138.2803, 17432.68
138.7624, 17573.42
139.2445, 17549.88
139.7266, 17510.32
140.2088, 17442.93
140.6909, 17365.26
141.1730, 17343.71
141.6551, 17395.61
142.1372, 17433.61
142.6193, 17338.42
143.1015, 17198.11
143.5836, 17115.02
144.0657, 17120.07
144.5478, 17212.63
145.0299, 17261.35
145.5120, 17252.16
145.9942, 17212.68
146.4763, 17169.59
146.9584, 17131.87
147.4405, 17081.39
147.9226, 17006.76
148.4047, 16886.32
148.8869, 16808.29
149.3690, 16806.68
149.8511, 16842.63
150.3332, 16849.32
150.8153, 16773.94
151.2974, 16712.74
151.7796, 16699.83
152.2617, 16770.78
152.7438, 16840.02
153.2259, 16930.90
153.7080, 17024.57
154.1901, 17045.39
154.6722, 16913.20
155.1544, 16746.06
155.6365, 16619.51
156.1186, 16571.85
156.6007, 16538.05
157.0828, 16499.41
157.5649, 16455.77
158.0471, 16431.21
158.5292, 16464.51
159.0113, 16509.67
159.4934, 16518.23
159.9755, 16420.84
160.4576, 16328.06
160.9398, 16299.24
161.4219, 16354.47
161.9040, 16399.08
162.3861, 16379.12
162.8682, 16322.46
163.3503, 16278.48
163.8325, 16295.27
164.3146, 16316.20
164.7967, 16297.93
165.2788, 16212.68
165.7609, 16124.54
166.2430, 16058.81
166.7252, 16017.33
167.2073, 16007.67
167.6894, 16055.02
168.1715, 16128.33
168.6536, 16196.10
169.1357, 16261.12
169.6179, 16306.66
170.1000, 16316.71
170.5821, 16292.71
171.0642, 16247.37
171.5463, 16174.74
172.0284, 16088.46
172.5106, 16011.54
172.9927, 15940.24
173.4748, 15888.37
173.9569, 15881.92
174.4390, 15926.17
174.9211, 15976.20
175.4033, 15987.77
175.8854, 15970.93
176.3675, 15954.76
176.8496, 15960.48
177.3317, 15975.15
177.8138, 15976.03
178.2959, 15959.13
178.7781, 15932.92
179.2602, 15901.08
179.7423, 15865.43
180.2244, 15840.84
180.7065, 15841.74
181.1886, 15860.54
181.6708, 15878.93
182.1529, 15897.75
182.6350, 15909.30
183.1171, 15885.51
183.5992, 15827.04
184.0813, 15786.22
184.5635, 15839.15
185.0456, 15960.76
185.5277, 16030.73
186.0098, 15994.87
186.4919, 15891.95
186.9740, 15830.92
187.4562, 15814.96
187.9383, 15815.91
188.4204, 15805.24
188.9025, 15784.03
189.3846, 15761.92
189.8667, 15743.80
190.3489, 15728.82
190.8310, 15702.13
191.3131, 15655.60
191.7952, 15619.88
192.2773, 15660.62
192.7594, 15781.58
193.2416, 15879.09
193.7237, 15892.39
194.2058, 15825.14
194.6879, 15754.91
195.1700, 15683.33
195.6521, 15613.15
196.1343, 15547.84
196.6164, 15486.62
197.0985, 15436.83
197.5806, 15405.55
198.0627, 15393.08
198.5448, 15391.72
199.0269, 15415.41
199.5091, 15442.72
199.9912, 15390.10
200.4733, 15244.63
200.9554, 15070.07
201.4375, 14919.11
201.9196, 14796.31
202.4018, 14668.06
202.8839, 14522.09
203.3660, 14363.41
203.8481, 14233.44
204.3302, 14134.44
204.8123, 14060.06
205.2945, 14009.92
205.7766, 13993.11
206.2587, 13962.94
206.7408, 13895.48
207.2229, 13788.11
207.7050, 13736.68
208.1872, 13761.00
208.6693, 13814.72
209.1514, 13830.87
209.6335, 13797.37
210.1156, 13760.52
210.5977, 13735.71
211.0799, 13724.17
211.5620, 13715.79
212.0441, 13710.21
212.5262, 13707.71
213.0083, 13707.97
213.4904, 13708.46
213.9726, 13716.65
214.4547, 13740.30
214.9368, 13789.98
215.4189, 13816.59
215.9010, 13803.41
216.3831, 13770.45
216.8653, 13786.90
217.3474, 13886.21
217.8295, 13976.64
218.3116, 14000.25
218.7937, 13922.70
219.2758, 13867.21
219.7580, 13846.96
220.2401, 13857.02
220.7222, 13867.84
221.2043, 13877.22
221.6864, 13890.97
222.1685, 13916.01
222.6507, 13962.54
223.1328, 13996.98
223.6149, 14010.13
224.0970, 14003.50
224.5791, 14007.09
225.0612, 14023.47
225.5434, 14047.06
226.0255, 14074.57
226.5076, 14111.43
226.9897, 14140.44
227.4718, 14155.85
227.9539, 14156.01
228.4361, 14161.21
228.9182, 14169.38
229.4003, 14183.68
229.8824, 14208.32
230.3645, 14244.91
230.8466, 14288.75
231.3288, 14345.18
231.8109, 14422.17
232.2930, 14467.65
232.7751, 14471.08
233.2572, 14450.31
233.7393, 14431.58
234.2215, 14417.61
234.7036, 14402.15
235.1857, 14379.59
235.6678, 14340.07
236.1499, 14324.90
236.6320, 14325.14
237.1142, 14353.54
237.5963, 14448.77
238.0784, 14686.05
238.5605, 14879.10
239.0426, 14950.43
239.5247, 14849.46
240.0069, 14738.66
240.4890, 14604.89
240.9711, 14463.63
241.4532, 14355.55
241.9353, 14296.00
242.4174, 14247.26
242.8996, 14192.60
243.3817, 14132.18
243.8638, 14063.49
244.3459, 13975.58
244.8280, 13878.82
245.3101, 13816.78
245.7922, 13802.04
246.2744, 13804.72
246.7565, 13809.04
247.2386, 13815.54
247.7207, 13823.00
248.2028, 13829.24
248.6849, 13836.17
249.1671, 13855.40
249.6492, 13895.56
250.1313, 13937.40
250.6134, 13969.94
251.0955, 13999.02
251.5776, 14004.86
252.0598, 13973.25
252.5419, 13909.74
253.0240, 13879.63
253.5061, 13898.41
253.9882, 13931.39
254.4703, 13950.97
254.9525, 13949.44
255.4346, 13951.34
255.9167, 13959.91
256.3988, 13975.09
256.8809, 13997.12
257.3630, 14034.71
257.8452, 14067.64
258.3273, 14071.72
258.8094, 14028.22
259.2915, 14000.62
259.7736, 14002.15
260.2557, 14033.08
260.7379, 14079.04
261.2200, 14153.81
261.7021, 14225.75
262.1842, 14257.19
262.6663, 14231.65
263.1484, 14209.35
263.6306, 14202.95
264.1127, 14212.67
264.5948, 14238.85
265.0769, 14288.96
265.5590, 14346.61
266.0411, 14399.28
266.5233, 14455.23
267.0054, 14479.38
267.4875, 14454.16
267.9696, 14376.53
268.4517, 14306.22
268.9338, 14241.09
269.4160, 14186.68
269.8981, 14153.95
270.3802, 14151.14
270.8623, 14139.59
271.3444, 14100.09
271.8265, 14029.56
272.3087, 13984.12
272.7908, 13971.43
273.2729, 13971.84
273.7550, 13954.42
274.2371, 13914.62
274.7192, 13879.43
275.2014, 13856.85
275.6835, 13846.76
276.1656, 13859.44
276.6477, 13907.03
277.1298, 13957.52
277.6119, 13948.34
278.0940, 13869.91
278.5761, 13803.37
279.0583, 13790.21
279.5404, 13831.69
280.0225, 13854.23
280.5046, 13853.45
280.9867, 13841.52
281.4688, 13838.97
281.9510, 13846.43
282.4331, 13851.14
282.9152, 13842.83
283.3973, 13822.79
283.8794, 13814.90
284.3615, 13821.37
284.8437, 13836.13
285.3258, 13851.10
285.8079, 13866.23
286.2900, 13880.41
286.7721, 13896.91
287.2542, 13913.79
287.7364, 13915.07
288.2185, 13896.92
288.7006, 13871.92
289.1827, 13860.50
289.6648, 13862.07
290.1469, 13863.41
290.6291, 13854.47
291.1112, 13839.03
291.5933, 13834.27
292.0754, 13844.64
292.5575, 13855.67
293.0396, 13838.08
293.5218, 13796.38
294.0039, 13768.70
294.4860, 13787.59
294.9681, 13835.33
295.4502, 13866.50
295.9323, 13876.25
296.4145, 13871.33
296.8966, 13850.20
297.3787, 13817.84
297.8608, 13796.12
298.3429, 13803.98
298.8250, 13829.66
299.3072, 13854.47
299.7893, 13878.96
300.2714, 13894.17
300.7535, 13882.36
301.2356, 13850.62
301.7177, 13822.68
302.1999, 13813.77
302.6820, 13815.21
303.1641, 13813.46
303.6462, 13804.89
304.1283, 13801.50
304.6104, 13824.48
305.0926, 13863.19
305.5747, 13889.53
306.0568, 13876.40
306.5389, 13849.70
307.0210, 13838.10
307.5031, 13848.41
307.9853, 13860.03
308.4674, 13854.33
308.9495, 13838.33
309.4316, 13827.13
309.9137, 13829.54
310.3958, 13838.73
310.8780, 13851.13
311.3601, 13867.79
311.8422, 13881.07
312.3243, 13878.37
312.8064, 13869.56
313.2885, 13872.71
313.7707, 13914.70
314.2528, 13957.28
314.7349, 13975.28
315.2170, 13961.33
315.6991, 13942.09
316.1812, 13931.20
316.6634, 13921.94
317.1455, 13903.65
317.6276, 13859.67
318.1097, 13816.83
318.5918, 13786.15
319.0739, 13769.56
319.5561, 13763.46
320.0382, 13770.47
320.5203, 13786.62
321.0024, 13806.46
321.4845, 13831.55
321.9666, 13857.48
322.4487, 13885.87
322.9308, 13920.89
323.4130, 13941.40
323.8951, 13929.41
324.3772, 13906.03
324.8593, 13897.48
325.3414, 13927.68
325.8235, 13952.89
326.3057, 13963.57
326.7878, 13958.62
327.2699, 13942.03
327.7520, 13887.95
328.2341, 13833.02
328.7162, 13819.45
329.1984, 13892.66
329.6805, 13950.33
330.1626, 13963.12
330.6447, 13920.74
331.1268, 13913.73
331.6089, 13972.57
332.0911, 14042.29
332.5732, 14061.19
333.0553, 13995.51
333.5374, 13941.75
334.0195, 13923.38
334.5016, 13941.27
334.9838, 13947.19
335.4659, 13936.68
335.9480, 13921.18
336.4301, 13909.64
336.9122, 13900.03
337.3943, 13904.19
337.8765, 13932.99
338.3586, 13980.86
338.8407, 13995.66
339.3228, 13968.63
339.8049, 13932.39
340.2870, 13917.10
340.7692, 13924.69
341.2513, 13930.70
341.7334, 13926.00
342.2155, 13917.06
342.6976, 13935.51
343.1797, 13985.56
343.6619, 14029.87
344.1440, 14029.51
344.6261, 13989.12
345.1082, 13955.35
345.5903, 13936.13
346.0724, 13929.10
346.5546, 13929.51
347.0367, 13937.39
347.5188, 13951.28
348.0009, 13977.29
348.4830, 14009.41
348.9651, 14030.08
349.4473, 14037.94
349.9294, 14030.00
350.4115, 13984.58
350.8936, 13910.77
351.3757, 13858.50
351.8578, 13881.94
352.3400, 13941.53
352.8221, 13974.08
353.3042, 13963.31
353.7863, 13938.27
354.2684, 13919.65
354.7505, 13907.08
355.2327, 13900.09
355.7148, 13906.31
356.1969, 13913.73
356.6790, 13907.94
357.1611, 13881.42
357.6432, 13861.37
358.1254, 13876.52
358.6075, 13908.54
359.0896, 13923.75
359.5717, 13881.52
360.0538, 13838.21
360.5359, 13832.42
361.0181, 13877.99
361.5002, 13914.57
361.9823, 13915.76
362.4644, 13897.59
362.9465, 13881.30
363.4286, 13865.31
363.9108, 13858.67
364.3929, 13867.36
364.8750, 13894.11
365.3571, 13919.36
365.8392, 13936.04
366.3214, 13951.41
366.8035, 13972.33
367.2856, 14030.28
367.7677, 14060.07
368.2498, 14036.69
368.7319, 13956.02
369.2140, 13907.13
369.6961, 13906.92
370.1783, 13924.07
370.6604, 13934.78
371.1425, 13935.37
371.6246, 13935.56
372.1067, 13937.48
372.5888, 13940.43
373.0710, 13937.05
373.5531, 13922.52
374.0352, 13910.90
374.5173, 13916.54
374.9994, 13948.01
375.4815, 13961.81
375.9637, 13952.72
376.4458, 13924.41
376.9279, 13876.89
377.4100, 13800.79
377.8921, 13749.33
378.3742, 13771.58
378.8564, 13864.42
379.3385, 13915.77
379.8206, 13908.98
380.3027, 13874.73
380.7848, 13864.28
381.2669, 13876.50
381.7491, 13889.84
382.2312, 13889.86
382.7133, 13882.00
383.1954, 13883.27
383.6775, 13895.57
384.1596, 13911.11
384.6418, 13926.94
385.1239, 13939.79
385.6060, 13939.82
386.0881, 13905.70
386.5702, 13864.64
387.0523, 13856.53
387.5345, 13883.89
388.0166, 13907.05
388.4987, 13890.71
388.9808, 13852.23
389.4629, 13817.94
389.9450, 13785.04
390.4272, 13768.90
390.9093, 13792.25
391.3914, 13850.61
391.8735, 13895.04
392.3556, 13892.20
392.8377, 13870.66
393.3199, 13854.31
393.8020, 13852.49
394.2841, 13852.79
394.7662, 13851.64
395.2483, 13849.90
395.7304, 13850.89
396.2126, 13852.03
396.6947, 13858.91
397.1768, 13876.18
397.6589, 13931.96
398.1410, 13956.81
398.6231, 13927.53
399.1053, 13867.09
399.5874, 13827.21
400.0695, 13819.75
400.5516, 13818.43
401.0337, 13814.82
401.5158, 13807.97
401.9980, 13799.39
402.4801, 13780.73
402.9622, 13767.12
403.4443, 13787.95
403.9264, 13860.95
404.4085, 13912.70
404.8907, 13913.62
405.3728, 13866.14
405.8549, 13840.16
406.3370, 13839.69
406.8191, 13847.04
407.3012, 13843.14
407.7834, 13828.36
408.2655, 13818.83
408.7476, 13823.63
409.2297, 13833.39
409.7118, 13816.55
410.1939, 13773.76
410.6761, 13736.76
411.1582, 13733.72
411.6403, 13755.71
412.1224, 13781.99
412.6045, 13813.29
413.0866, 13838.49
413.5687, 13838.95
414.0508, 13820.72
414.5330, 13806.36
415.0151, 13810.66
415.4972, 13823.97
415.9793, 13838.55
416.4614, 13854.75
416.9435, 13864.47
417.4257, 13858.16
417.9078, 13842.30
418.3899, 13827.36
418.8720, 13814.22
419.3541, 13805.57
419.8362, 13805.99
420.3184, 13816.93
420.8005, 13821.81
421.2826, 13801.81
421.7647, 13780.62
422.2468, 13780.03
422.7289, 13839.68
423.2111, 13880.95
423.6932, 13881.87
424.1753, 13846.43
424.6574, 13821.87
425.1395, 13802.56
425.6216, 13799.67
426.1038, 13823.79
426.5859, 13900.69
427.0680, 13947.92
427.5501, 13952.07
428.0322, 13927.21
428.5143, 13908.83
428.9965, 13896.98
429.4786, 13889.72
429.9607, 13886.95
430.4428, 13888.77
430.9249, 13888.11
431.4070, 13883.18
431.8892, 13879.62
432.3713, 13895.62
432.8534, 13929.26
433.3355, 13936.71
433.8176, 13882.67
434.2997, 13796.39
434.7819, 13754.20
435.2640, 13756.70
435.7461, 13779.64
436.2282, 13816.51
436.7103, 13857.70
437.1924, 13881.90
437.6746, 13878.28
438.1567, 13863.23
438.6388, 13842.03
439.1209, 13819.55
439.6030, 13815.26
440.0851, 13879.21
440.5673, 13943.62
441.0494, 13941.12
441.5315, 13829.37
442.0136, 13733.10
442.4957, 13713.49
442.9778, 13741.73
443.4600, 13768.75
443.9421, 13762.41
444.4242, 13768.84
444.9063, 13815.42
445.3884, 13916.38
445.8705, 13982.25
446.3527, 13991.56
446.8348, 13970.97
447.3169, 13940.34
447.7990, 13879.72
448.2811, 13841.36
448.7632, 13842.27
449.2454, 13874.81
449.7275, 13881.16
450.2096, 13848.06
450.6917, 13816.54
451.1738, 13816.82
451.6559, 13854.25
452.1381, 13883.91
452.6202, 13902.33
453.1023, 13911.67
453.5844, 13914.24
454.0665, 13910.05
454.5486, 13903.77
455.0308, 13894.96
455.5129, 13885.48
455.9950, 13886.94
456.4771, 13901.60
456.9592, 13907.39
457.4413, 13866.74
457.9234, 13800.93
458.4055, 13756.73
458.8877, 13762.30
459.3698, 13787.30
459.8519, 13812.14
460.3340, 13834.91
460.8161, 13844.50
461.2982, 13812.97
461.7804, 13777.98
462.2625, 13773.97
462.7446, 13829.92
463.2267, 13876.75
463.7088, 13890.81
464.1909, 13878.79
464.6731, 13854.60
465.1552, 13794.07
465.6373, 13745.85
466.1194, 13728.29
466.6015, 13747.68
467.0836, 13773.25
467.5658, 13812.05
468.0479, 13851.35
468.5300, 13878.82
469.0121, 13892.12
469.4942, 13897.33
469.9763, 13893.12
470.4585, 13881.31
470.9406, 13872.41
471.4227, 13867.26
471.9048, 13862.82
472.3869, 13859.98
472.8690, 13858.62
473.3512, 13842.28
473.8333, 13802.12
474.3154, 13765.44
474.7975, 13791.92
475.2796, 13869.77
475.7617, 13925.05
476.2439, 13896.34
476.7260, 13831.50
477.2081, 13810.80
477.6902, 13836.37
478.1723, 13870.62
478.6544, 13888.28
479.1366, 13894.87
479.6187, 13897.38
480.1008, 13896.38
480.5829, 13893.02
481.0650, 13885.35
481.5471, 13874.90
482.0293, 13867.68
482.5114, 13871.74
482.9935, 13874.91
483.4756, 13869.17
483.9577, 13844.83
484.4398, 13831.79
484.9220, 13847.74
485.4041, 13871.49
485.8862, 13875.16
486.3683, 13844.34
486.8504, 13815.85
487.3326, 13796.21
487.8147, 13785.62
488.2968, 13787.22
488.7789, 13808.23
489.2610, 13826.05
489.7431, 13816.23
490.2253, 13776.28
490.7074, 13756.08
491.1895, 13767.14
491.6716, 13791.40
492.1537, 13792.03
492.6358, 13770.77
493.1180, 13749.04
493.6001, 13734.94
494.0822, 13728.41
494.5643, 13731.20
495.0464, 13743.64
495.5285, 13757.96
496.0107, 13770.13
496.4928, 13779.22
496.9749, 13783.98
497.4570, 13787.15
497.9391, 13783.23
498.4212, 13760.99
498.9034, 13726.47
499.3855, 13705.99
499.8676, 13729.56
500.3497, 13754.62
500.8318, 13753.94
501.3139, 13699.64
501.7961, 13674.50
502.2781, 13711.11
502.7603, 13770.84
503.2424, 13799.49
503.7245, 13771.38
504.2066, 13755.17
504.6887, 13773.02
505.1708, 13821.09
505.6530, 13835.79
506.1351, 13805.58
506.6172, 13771.63
507.0993, 13771.62
507.5814, 13805.31
508.0635, 13818.47
508.5457, 13799.07
509.0278, 13767.96
509.5099, 13762.86
509.9920, 13778.71
510.4741, 13787.55
510.9562, 13761.68
511.4384, 13725.60
511.9205, 13721.48
512.4026, 13750.60
512.8847, 13777.16
513.3668, 13773.40
513.8489, 13753.99
514.3311, 13734.98
514.8132, 13712.88
515.2953, 13702.21
515.7774, 13721.73
516.2595, 13759.38
516.7416, 13777.58
517.2238, 13751.83
517.7059, 13719.80
518.1880, 13693.43
518.6701, 13669.67
519.1522, 13664.54
519.6343, 13691.23
520.1165, 13726.00
520.5986, 13743.50
521.0807, 13739.14
521.5628, 13731.81
522.0449, 13722.80
522.5270, 13714.02
523.0092, 13715.16
523.4913, 13727.61
523.9734, 13737.57
524.4555, 13730.19
524.9376, 13711.98
525.4197, 13710.90
525.9019, 13731.36
526.3840, 13756.20
526.8661, 13770.37
527.3482, 13774.84
527.8303, 13771.70
528.3124, 13747.72
528.7946, 13727.74
529.2767, 13735.56
529.7588, 13766.75
530.2409, 13794.88
530.7230, 13815.43
531.2051, 13824.13
531.6873, 13814.75
532.1694, 13769.83
532.6515, 13742.97
533.1336, 13761.45
533.6157, 13796.45
534.0978, 13804.93
534.5800, 13759.45
535.0621, 13730.24
535.5442, 13738.93
536.0263, 13780.75
536.5084, 13799.37
536.9905, 13787.82
537.4727, 13773.24
537.9548, 13773.28
538.4369, 13787.86
538.9190, 13816.09
539.4011, 13863.75
539.8832, 13908.77
540.3654, 13913.54
540.8475, 13886.40
541.3296, 13860.03
541.8117, 13851.94
542.2938, 13850.09
542.7759, 13836.02
543.2581, 13811.74
543.7402, 13797.01
544.2223, 13811.96
544.7044, 13836.90
545.1865, 13855.30
545.6686, 13861.46
546.1508, 13865.32
546.6329, 13862.73
547.1150, 13860.55
547.5971, 13871.13
548.0792, 13911.77
548.5613, 13946.48
549.0435, 13969.16
549.5256, 13979.81
550.0077, 13977.61
550.4898, 13959.00
550.9719, 13934.27
551.4540, 13906.95
551.9362, 13875.95
552.4183, 13863.14
552.9004, 13874.81
553.3825, 13895.62
553.8646, 13900.05
554.3467, 13891.03
554.8289, 13885.19
555.3110, 13893.42
555.7931, 13907.65
556.2752, 13916.82
556.7573, 13921.40
557.2394, 13924.64
557.7216, 13931.28
558.2037, 13936.13
558.6858, 13932.07
559.1679, 13908.97
559.6500, 13896.60
560.1321, 13920.15
560.6143, 13956.89
561.0964, 13970.47
561.5785, 13933.46
562.0606, 13897.30
562.5427, 13868.86
563.0248, 13848.65
563.5070, 13840.80
563.9891, 13851.65
564.4712, 13863.01
564.9533, 13859.75
565.4354, 13839.54
565.9175, 13836.69
566.3997, 13857.15
566.8818, 13885.06
567.3639, 13896.23
567.8460, 13893.95
568.3281, 13895.29
568.8102, 13917.41
569.2924, 13938.47
569.7744, 13918.71
570.2565, 13865.64
570.7386, 13824.71
571.2208, 13837.50
571.7029, 13864.78
572.1850, 13873.59
572.6671, 13853.01
573.1492, 13834.00
573.6313, 13820.68
574.1135, 13815.93
574.5956, 13824.08
575.0777, 13862.57
575.5598, 13892.01
576.0419, 13910.35
576.5240, 13916.07
577.0062, 13898.75
577.4883, 13850.72
577.9704, 13799.13
578.4525, 13748.00
578.9346, 13698.39
579.4167, 13699.27
579.8989, 13759.84
580.3810, 13825.67
580.8631, 13824.67
581.3452, 13777.56
581.8273, 13750.72
582.3094, 13776.05
582.7916, 13808.87
583.2737, 13794.61
583.7558, 13749.26
584.2379, 13719.25
584.7200, 13740.00
585.2021, 13772.03
585.6843, 13795.12
586.1664, 13807.40
586.6485, 13812.02
587.1306, 13800.83
587.6127, 13787.70
588.0948, 13783.04
588.5770, 13792.20
589.0591, 13800.26
589.5412, 13809.80
590.0233, 13815.54
590.5054, 13805.78
590.9875, 13779.37
591.4697, 13744.65
591.9518, 13695.74
592.4339, 13642.36
592.9160, 13624.15
593.3981, 13641.23
593.8802, 13667.81
594.3624, 13689.59
594.8445, 13706.08
595.3266, 13715.23
595.8087, 13714.64
596.2908, 13715.00
596.7729, 13732.77
597.2551, 13753.64
597.7372, 13757.17
598.2193, 13710.24
598.7014, 13672.58
599.1835, 13669.14
599.6656, 13694.54
600.1478, 13706.13
600.6299, 13697.82
601.1120, 13681.87
601.5941, 13657.12
602.0762, 13618.04
602.5583, 13617.52
603.0405, 13669.05
603.5226, 13726.35
604.0047, 13732.82
604.4868, 13694.29
604.9689, 13665.91
605.4510, 13659.24
605.9332, 13668.27
606.4153, 13701.31
606.8974, 13745.97
607.3795, 13763.01
607.8616, 13698.58
608.3438, 13622.61
608.8259, 13590.65
609.3080, 13604.18
609.7901, 13625.31
610.2722, 13655.27
610.7543, 13678.03
611.2365, 13682.23
611.7186, 13655.92
612.2007, 13628.46
612.6828, 13591.87
613.1649, 13559.45
613.6470, 13555.48
614.1292, 13588.89
614.6113, 13613.97
615.0934, 13616.00
615.5755, 13603.63
616.0576, 13608.03
616.5397, 13628.69
617.0219, 13641.14
617.5040, 13619.31
617.9861, 13582.38
618.4682, 13562.18
618.9503, 13561.45
619.4324, 13568.96
619.9146, 13581.99
620.3967, 13596.70
620.8788, 13609.40
621.3609, 13625.36
621.8430, 13630.72
622.3251, 13609.41
622.8073, 13576.14
623.2894, 13564.91
623.7715, 13601.29
624.2536, 13622.75
624.7357, 13606.87
625.2178, 13558.60
625.7000, 13537.10
626.1821, 13546.61
626.6642, 13564.71
627.1463, 13584.51
627.6284, 13602.13
628.1105, 13588.71
628.5927, 13537.06
629.0748, 13486.47
629.5569, 13479.47
