##NAMES=Lollingite
##RRUFFID=R060185
##IDEAL CHEMISTRY=FeAs_2_
##LOCALITY=MW Claim, Seagull Batholith, Cassiar Mountains, Yukon, Canada
##OWNER=RRUFF
##SOURCE=Lloyd Twaites
##DESCRIPTION=Steel-gray metallic fragments
##STATUS=The identification of this mineral has been confirmed by X-ray diffraction and chemical analysis
##URL=rruff.info/R060185
##MEASURED CHEMISTRY=Fe_1.00_(As_1.90_S_0.10_)_Î£=2_
90.26367, 28.78643
90.74579, 29.09548
91.22791, 28.98470
91.71002, 28.49688
92.19214, 28.00451
92.67426, 27.91588
93.15637, 28.07328
93.63850, 28.06057
94.12061, 27.67241
94.60273, 27.04069
95.08485, 26.43552
95.56696, 25.85627
96.04908, 25.34544
96.53120, 24.95817
97.01331, 24.69873
97.49543, 24.51769
97.97755, 24.38186
98.45966, 24.29616
98.94178, 24.39087
99.42390, 24.76594
99.90602, 25.17629
100.3881, 25.08755
100.8703, 24.36444
101.3524, 23.61620
101.8345, 23.12422
102.3166, 22.91326
102.7987, 22.90293
103.2808, 23.21063
103.7630, 23.71340
104.2451, 23.83229
104.7272, 23.38339
105.2093, 22.79482
105.6914, 22.32966
106.1735, 22.01480
106.6557, 21.78807
107.1378, 21.68496
107.6199, 21.71051
108.1020, 21.65218
108.5841, 21.38445
109.0662, 21.09841
109.5484, 20.96195
110.0305, 21.30195
110.5126, 21.46578
110.9947, 21.29697
111.4768, 20.71792
111.9590, 20.15327
112.4411, 19.59104
112.9232, 19.07157
113.4053, 18.66325
113.8874, 18.19075
114.3695, 17.97542
114.8517, 18.27739
115.3338, 19.48640
115.8159, 20.28384
116.2980, 19.96854
116.7801, 18.95731
117.2622, 18.16678
117.7444, 18.22125
118.2265, 18.43859
118.7086, 18.33665
119.1907, 17.57622
119.6728, 16.83846
120.1549, 16.49218
120.6371, 16.48682
121.1192, 16.61813
121.6013, 16.88217
122.0834, 17.18188
122.5655, 17.43265
123.0477, 17.89968
123.5298, 18.05307
124.0119, 16.93144
124.4940, 14.65242
124.9761, 12.87138
125.4582, 13.37752
125.9404, 15.32672
126.4225, 17.06520
126.9046, 17.82155
127.3867, 18.01371
127.8688, 18.30033
128.3509, 18.69531
128.8331, 19.04890
129.3152, 19.07004
129.7973, 18.84756
130.2794, 18.82309
130.7615, 19.36304
131.2436, 20.28616
131.7258, 21.02637
132.2079, 21.60196
132.6900, 21.87878
133.1721, 21.37658
133.6542, 20.08442
134.1364, 19.08659
134.6185, 19.03399
135.1006, 19.90040
135.5827, 20.92800
136.0648, 22.09118
136.5469, 23.36251
137.0291, 24.86650
137.5112, 26.76575
137.9933, 28.17497
138.4754, 28.32017
138.9575, 26.95035
139.4396, 25.89358
139.9218, 25.46849
140.4039, 25.51123
140.8860, 25.19134
141.3681, 24.34688
141.8502, 23.42994
142.3323, 22.80791
142.8145, 22.17434
143.2966, 22.66162
143.7787, 22.95349
144.2608, 23.06043
144.7429, 22.42861
145.2251, 22.75076
145.7072, 22.69060
146.1893, 22.61476
146.6714, 23.07117
147.1535, 22.18087
147.6356, 22.71633
148.1178, 23.05639
148.5999, 23.21152
149.0820, 22.62787
149.5641, 22.99819
150.0462, 22.98621
150.5283, 22.95855
151.0105, 24.51202
151.4926, 25.05868
151.9747, 24.68334
152.4568, 24.74709
152.9389, 25.62428
153.4210, 26.86246
153.9032, 27.84513
154.3853, 29.05640
154.8674, 29.54004
155.3495, 28.80725
155.8316, 26.08233
156.3138, 23.91880
156.7959, 22.82705
157.2780, 22.52732
157.7601, 22.14514
158.2422, 22.51484
158.7243, 22.68911
159.2065, 22.67845
159.6886, 21.92904
160.1707, 22.13359
160.6528, 21.95584
161.1349, 21.76241
161.6170, 22.10123
162.0992, 21.45925
162.5813, 21.78963
163.0634, 21.73187
163.5455, 21.85175
164.0276, 21.58696
164.5097, 21.44099
164.9919, 21.04657
165.4740, 20.78671
165.9561, 20.66204
166.4382, 20.65688
166.9203, 20.76260
167.4025, 21.09411
167.8846, 21.05619
168.3667, 21.45172
168.8488, 21.65183
169.3309, 21.66702
169.8130, 20.94344
170.2952, 21.17382
170.7773, 21.02190
171.2594, 20.85431
171.7415, 21.21897
172.2236, 20.60284
172.7057, 20.95905
173.1879, 20.92712
173.6700, 21.07284
174.1521, 20.83389
174.6342, 20.71375
175.1163, 20.97840
175.5984, 21.02999
176.0806, 20.74675
176.5627, 20.90376
177.0448, 20.27419
177.5269, 20.33486
178.0090, 20.69333
178.4911, 20.42944
178.9733, 20.59347
179.4554, 20.59453
179.9375, 19.98006
180.4196, 19.72365
180.9017, 19.45117
181.3839, 19.10707
181.8660, 18.74652
182.3481, 18.55559
182.8302, 18.71756
183.3123, 19.10245
183.7944, 19.46271
184.2766, 19.81843
184.7587, 20.03159
185.2408, 19.85258
185.7229, 19.33807
186.2050, 18.81949
186.6871, 18.33587
187.1693, 17.95536
187.6514, 18.05406
188.1335, 18.74849
188.6156, 19.57779
189.0977, 19.87445
189.5798, 19.65621
190.0620, 19.30406
190.5441, 18.99084
191.0262, 18.70533
191.5083, 18.33612
191.9904, 17.81613
192.4725, 17.33519
192.9547, 17.25056
193.4368, 17.57016
193.9189, 17.99438
194.4010, 18.44167
194.8831, 18.89894
195.3652, 19.13650
195.8474, 19.11341
196.3295, 18.90813
196.8116, 18.65913
197.2937, 18.36764
197.7758, 18.03420
198.2579, 17.51643
198.7401, 16.79870
199.2222, 16.67288
199.7043, 17.37926
200.1864, 18.49681
200.6685, 19.04633
201.1507, 18.94345
201.6328, 18.65172
202.1149, 18.45797
202.5970, 18.38664
203.0791, 18.11934
203.5612, 17.52343
204.0434, 16.79932
204.5255, 16.58341
205.0076, 17.02196
205.4897, 17.46483
205.9718, 17.44260
206.4539, 16.84314
206.9361, 16.46680
207.4182, 16.43929
207.9003, 16.65516
208.3824, 16.77158
208.8645, 16.75447
209.3466, 16.72790
209.8288, 16.79879
210.3109, 17.02228
210.7930, 17.08234
211.2751, 16.87003
211.7572, 16.49537
212.2393, 16.37047
212.7215, 16.55969
213.2036, 16.85770
213.6857, 17.16357
214.1678, 17.51320
214.6499, 17.74694
215.1321, 17.83251
215.6142, 17.79484
216.0963, 17.73114
216.5784, 17.62080
217.0605, 17.52353
217.5426, 17.48370
218.0248, 17.52445
218.5069, 17.55662
218.9890, 17.57802
219.4711, 17.58504
219.9532, 17.53702
220.4353, 17.34821
220.9175, 17.24382
221.3996, 17.39684
221.8817, 17.93630
222.3638, 18.39181
222.8459, 18.70232
223.3280, 18.89464
223.8102, 19.08924
224.2923, 19.32657
224.7744, 19.51003
225.2565, 19.53581
225.7386, 19.23770
226.2208, 19.19699
226.7029, 19.56092
227.1850, 20.23780
227.6671, 20.73425
228.1492, 20.98958
228.6313, 21.15118
229.1135, 21.31944
229.5956, 21.56801
230.0777, 21.63632
230.5598, 21.33488
231.0419, 20.81409
231.5240, 20.85376
232.0062, 21.76964
232.4883, 22.81576
232.9704, 23.52031
233.4525, 23.64180
233.9346, 23.96415
234.4167, 24.64988
234.8989, 25.59209
235.3810, 26.29384
235.8631, 26.74574
236.3452, 26.97919
236.8273, 26.95251
237.3095, 26.36438
237.7916, 26.17661
238.2737, 26.54591
238.7558, 27.36085
239.2379, 28.18983
239.7200, 29.15590
240.2022, 29.97003
240.6843, 30.54728
241.1664, 31.13449
241.6485, 30.92290
242.1306, 29.68616
242.6127, 27.62501
243.0949, 25.47994
243.5770, 22.99422
244.0591, 20.77255
244.5412, 19.14434
245.0233, 18.20163
245.5054, 17.63770
245.9876, 17.22958
246.4697, 17.62894
246.9518, 17.83694
247.4339, 17.86406
247.9160, 17.15647
248.3981, 17.40689
248.8803, 17.27905
249.3624, 17.13959
249.8445, 17.53643
250.3266, 16.95654
250.8087, 17.35304
251.2909, 17.36545
251.7730, 17.55955
252.2551, 17.37304
252.7372, 17.30938
253.2193, 17.63457
253.7014, 17.75074
254.1836, 17.53615
254.6657, 17.76584
255.1478, 17.21301
255.6299, 17.35447
256.1120, 17.79777
256.5941, 17.62276
257.0763, 17.87974
257.5584, 17.97779
258.0405, 17.33921
258.5226, 17.99279
259.0047, 18.09335
259.4868, 17.53074
259.9690, 18.01877
260.4511, 19.42572
260.9332, 20.52883
261.4153, 21.26632
261.8974, 21.76789
262.3795, 22.24096
262.8617, 22.71174
263.3438, 23.09829
263.8259, 23.34364
264.3080, 23.41121
264.7901, 23.60904
265.2722, 24.00240
265.7544, 24.44804
266.2365, 24.75118
266.7186, 24.91838
267.2007, 24.92611
267.6829, 24.78232
268.1650, 24.48853
268.6471, 23.89253
269.1292, 22.83072
269.6113, 21.70693
270.0934, 21.10890
270.5756, 21.21832
271.0577, 21.11902
271.5398, 20.46594
272.0219, 19.27728
272.5040, 18.42500
272.9861, 17.98052
273.4683, 17.73585
273.9504, 17.51964
274.4325, 17.35690
274.9146, 17.06586
275.3967, 16.50355
275.8788, 15.74170
276.3610, 15.49207
276.8431, 15.90741
277.3252, 16.37660
277.8073, 16.21996
278.2894, 15.35980
278.7715, 14.79364
279.2537, 14.81281
279.7358, 15.25342
280.2179, 15.40114
280.7000, 15.20475
281.1821, 14.94764
281.6642, 14.87184
282.1464, 14.97863
282.6285, 15.05255
283.1106, 15.07007
283.5927, 15.02373
284.0748, 14.85179
284.5569, 14.53566
285.0391, 14.25553
285.5212, 14.13498
286.0033, 14.16657
286.4854, 14.29082
286.9675, 14.54652
287.4496, 14.81982
287.9318, 14.79409
288.4139, 14.46338
288.8960, 14.25529
289.3781, 14.58762
289.8602, 15.31692
290.3424, 15.68145
290.8245, 15.55927
291.3066, 15.20333
291.7887, 14.96792
292.2708, 14.84627
292.7530, 14.78813
293.2351, 14.80525
293.7172, 14.86794
294.1993, 14.90998
294.6814, 14.94410
295.1635, 14.88255
295.6457, 14.53514
296.1278, 13.57107
296.6099, 14.06988
297.0920, 14.37328
297.5741, 14.49176
298.0562, 13.87147
298.5384, 14.20515
299.0205, 14.15653
299.5026, 14.28881
299.9847, 13.86574
300.4668, 13.51351
300.9489, 13.51017
301.4311, 13.65153
301.9132, 13.64371
302.3953, 13.49243
302.8774, 13.33941
303.3595, 13.28292
303.8416, 13.30441
304.3238, 13.38041
304.8059, 13.58612
305.2880, 13.76053
305.7701, 13.66586
306.2522, 13.34722
306.7343, 13.08541
307.2165, 13.05530
307.6986, 13.19122
308.1807, 13.43693
308.6628, 13.88991
309.1449, 14.27124
309.6270, 14.32634
310.1092, 14.12541
310.5913, 13.89192
311.0734, 13.71332
311.5555, 13.57448
312.0376, 13.46925
312.5197, 13.40480
313.0019, 13.35037
313.4840, 13.21593
313.9661, 13.07906
314.4482, 13.09590
314.9304, 13.58456
315.4125, 14.06818
315.8946, 14.19957
316.3767, 13.86319
316.8588, 13.56283
317.3409, 13.57336
317.8231, 13.72279
318.3052, 13.78425
318.7873, 13.56593
319.2694, 13.35373
319.7515, 13.29313
320.2336, 13.40524
320.7158, 13.46799
321.1979, 13.39348
321.6800, 13.25327
322.1621, 13.11189
322.6442, 12.86093
323.1263, 12.73448
323.6085, 12.93199
324.0906, 13.41471
324.5727, 13.22969
325.0548, 13.66243
325.5369, 13.89976
326.0190, 13.95217
326.5012, 13.26581
326.9833, 13.53342
327.4654, 13.41872
327.9475, 13.28835
328.4296, 13.69022
328.9117, 13.11131
329.3939, 13.50475
329.8760, 13.51004
330.3581, 13.13517
330.8402, 12.90231
331.3223, 12.75776
331.8044, 12.67741
332.2866, 12.60613
332.7687, 12.48896
333.2508, 12.46682
333.7329, 12.65002
334.2150, 13.15135
334.6971, 13.28102
335.1793, 12.86228
335.6614, 12.24399
336.1435, 11.86640
336.6256, 11.74982
337.1077, 11.82695
337.5899, 12.16678
338.0720, 12.74833
338.5541, 13.02453
339.0362, 12.91741
339.5183, 12.68667
340.0005, 12.58603
340.4826, 12.64579
340.9647, 12.60616
341.4468, 12.38830
341.9289, 12.06041
342.4110, 11.83873
342.8932, 11.73249
343.3753, 11.68245
343.8574, 11.61116
344.3395, 11.52996
344.8216, 11.66812
345.3037, 12.11561
345.7859, 12.65540
346.2680, 12.91259
346.7501, 12.89928
347.2322, 12.78090
347.7143, 12.59438
348.1964, 12.36803
348.6786, 12.16138
349.1607, 11.95949
349.6428, 11.86969
350.1249, 12.18249
350.6070, 12.73811
351.0891, 13.03219
351.5713, 12.66039
352.0534, 12.00236
352.5355, 11.62209
353.0176, 11.51608
353.4997, 11.45363
353.9818, 11.16049
354.4640, 10.81489
354.9461, 10.71204
355.4282, 11.09805
355.9103, 11.54923
356.3924, 11.61257
356.8745, 11.39194
357.3567, 11.29657
357.8388, 11.79862
358.3209, 12.39213
358.8030, 12.63158
359.2851, 12.37121
359.7672, 11.92183
360.2494, 11.18285
360.7315, 10.38896
361.2136, 9.982023
361.6957, 10.41753
362.1779, 11.03725
362.6600, 11.57000
363.1421, 12.00181
363.6242, 12.25727
364.1063, 12.30255
364.5884, 12.16428
365.0706, 11.86950
365.5527, 11.02623
366.0348, 10.44329
366.5169, 10.48682
366.9990, 11.10736
367.4811, 11.42743
367.9633, 10.97912
368.4454, 10.47271
368.9275, 10.32003
369.4096, 10.91936
369.8917, 11.32886
370.3738, 11.49860
370.8560, 11.46996
371.3381, 11.34042
371.8202, 10.97168
372.3023, 10.68845
372.7844, 10.64006
373.2665, 10.89989
373.7487, 11.09589
374.2308, 11.22172
374.7129, 11.29017
375.1950, 11.32317
375.6771, 11.32854
376.1592, 11.27113
376.6414, 11.12772
377.1235, 10.90731
377.6056, 10.68879
378.0877, 10.46443
378.5698, 10.26137
379.0519, 10.07834
379.5341, 9.916112
380.0162, 9.877825
380.4983, 10.01826
380.9804, 10.24878
381.4625, 10.35288
381.9446, 10.33453
382.4268, 10.31077
382.9089, 10.38881
383.3910, 10.52187
383.8731, 10.53450
384.3553, 10.39153
384.8374, 10.23256
385.3195, 10.24274
385.8016, 10.37460
386.2837, 10.48869
386.7658, 10.50010
387.2480, 10.47010
387.7301, 10.48690
388.2122, 10.54783
388.6943, 10.58835
389.1764, 10.54484
389.6585, 10.45802
390.1407, 10.37795
390.6228, 10.31235
391.1049, 10.26605
391.5870, 10.20959
392.0691, 10.16932
392.5512, 10.22478
393.0334, 10.56177
393.5155, 10.90228
393.9976, 11.06950
394.4797, 11.01869
394.9618, 10.86502
395.4439, 10.52496
395.9261, 10.13660
396.4082, 9.884549
396.8903, 9.955219
397.3724, 9.671047
397.8545, 10.06258
398.3366, 10.25868
398.8188, 10.26986
399.3009, 9.542279
399.7830, 9.768669
400.2651, 9.612749
400.7472, 9.441155
401.2293, 9.801810
401.7115, 10.07355
402.1936, 10.50288
402.6757, 10.52080
403.1578, 9.851031
403.6399, 9.243618
404.1220, 9.041310
404.6042, 9.318032
405.0863, 9.585219
405.5684, 9.889329
406.0505, 10.10543
406.5326, 9.987394
407.0147, 9.470752
407.4969, 9.114861
407.9790, 9.103782
408.4611, 9.358274
408.9432, 9.576313
409.4254, 9.755603
409.9075, 9.910674
410.3896, 10.04833
410.8717, 10.17111
411.3538, 10.30400
411.8359, 10.46879
412.3181, 10.59525
412.8002, 10.54475
413.2823, 10.35599
413.7644, 10.18057
414.2465, 10.13179
414.7286, 10.12807
415.2108, 10.01165
415.6929, 9.770638
416.1750, 9.630173
416.6571, 9.924294
417.1392, 10.37696
417.6213, 10.61942
418.1035, 10.37228
418.5856, 10.04664
419.0677, 9.886412
419.5498, 9.848174
420.0319, 9.775686
420.5140, 9.463924
420.9962, 9.197401
421.4783, 9.188743
421.9604, 9.606599
422.4425, 9.903187
422.9246, 9.782711
423.4067, 9.521362
423.8889, 9.497029
424.3710, 10.08609
424.8531, 10.57053
425.3352, 10.77628
425.8173, 10.70439
426.2994, 10.59397
426.7816, 10.39252
427.2637, 10.20674
427.7458, 10.10765
428.2279, 10.11861
428.7100, 10.15923
429.1921, 10.22789
429.6743, 10.32076
430.1564, 10.46109
430.6385, 10.69495
431.1206, 10.79410
431.6028, 10.57564
432.0849, 10.06161
432.5670, 9.865330
433.0491, 10.04226
433.5312, 10.30836
434.0133, 10.31032
434.4955, 10.10073
434.9776, 10.05030
435.4597, 10.30424
435.9418, 10.69557
436.4239, 10.99821
436.9060, 11.19759
437.3882, 11.21697
437.8703, 10.83904
438.3524, 10.31034
438.8345, 9.981914
439.3166, 9.899906
439.7987, 9.954501
440.2809, 10.20486
440.7630, 10.50778
441.2451, 10.63794
441.7272, 10.22619
442.2093, 9.869669
442.6914, 10.01761
443.1736, 10.57848
443.6557, 10.92775
444.1378, 10.51050
444.6199, 10.03176
445.1020, 9.972904
445.5841, 10.72242
446.0663, 11.26725
446.5484, 11.36451
447.0305, 11.19992
447.5126, 11.08072
447.9947, 11.09052
448.4768, 11.05236
448.9590, 10.87061
449.4411, 10.53899
449.9232, 10.46278
450.4053, 10.81124
450.8874, 11.16991
451.3695, 11.16942
451.8517, 10.67074
452.3338, 10.45449
452.8159, 10.67578
453.2980, 11.11596
453.7801, 11.31402
454.2622, 11.25092
454.7444, 11.20237
455.2265, 11.31577
455.7086, 11.54857
456.1907, 11.73039
456.6729, 11.86473
457.1550, 11.92749
457.6371, 11.84688
458.1192, 11.68094
458.6013, 11.56977
459.0834, 11.55699
459.5656, 11.59508
460.0477, 11.67821
460.5298, 11.77888
461.0119, 11.81241
461.4940, 11.70565
461.9761, 11.53571
462.4583, 11.29998
462.9404, 10.98013
463.4225, 10.84751
463.9046, 11.26024
464.3867, 11.81139
464.8688, 12.10652
465.3510, 11.72994
465.8331, 11.45956
466.3152, 11.58067
466.7973, 11.95736
467.2794, 12.09568
467.7615, 11.71441
468.2437, 11.33793
468.7258, 11.13578
469.2079, 11.13531
469.6900, 11.21043
470.1721, 11.46567
470.6542, 11.68088
471.1364, 11.55789
471.6185, 10.95602
472.1006, 10.59028
472.5827, 10.65024
473.0648, 10.98694
473.5469, 11.13389
474.0291, 11.07505
474.5112, 11.01599
474.9933, 11.09709
475.4754, 11.28179
475.9575, 11.41812
476.4396, 11.50096
476.9218, 11.53413
477.4039, 11.47198
477.8860, 11.36321
478.3681, 11.33327
478.8503, 11.50163
479.3324, 11.66628
479.8145, 11.53039
480.2966, 11.19236
480.7787, 11.01818
481.2608, 11.34287
481.7430, 11.79190
482.2251, 12.13562
482.7072, 12.35449
483.1893, 12.42394
483.6714, 12.12458
484.1535, 11.76443
484.6357, 11.65320
485.1178, 12.27135
485.5999, 12.64701
486.0820, 12.49787
486.5641, 11.96895
487.0462, 11.57464
487.5284, 11.30627
488.0105, 11.18735
488.4926, 11.27302
488.9747, 11.61843
489.4568, 11.79816
489.9389, 11.76672
490.4211, 11.64882
490.9032, 11.55963
491.3853, 11.49599
491.8674, 11.52487
492.3495, 11.72115
492.8316, 11.94400
493.3138, 11.76785
493.7959, 11.23812
494.2780, 10.87860
494.7601, 11.19777
495.2422, 11.84657
495.7243, 12.09556
496.2065, 11.89946
496.6886, 11.35049
497.1707, 11.79285
497.6528, 12.03978
498.1349, 12.10180
498.6170, 11.42504
499.0992, 11.70226
499.5813, 11.59716
500.0634, 11.47639
500.5455, 11.88787
501.0276, 11.31857
501.5097, 11.72161
501.9919, 11.73651
502.4740, 11.92905
502.9561, 11.73693
503.4382, 11.66361
503.9203, 11.97509
504.4025, 12.07350
504.8846, 11.83709
505.3667, 12.04093
505.8488, 11.45819
506.3309, 11.47826
506.8130, 11.43250
507.2952, 11.54129
507.7773, 11.58656
508.2594, 11.45099
508.7415, 11.17889
509.2236, 11.01241
509.7057, 10.95403
510.1879, 10.96836
510.6700, 11.11618
511.1521, 11.31786
511.6342, 11.30350
512.1163, 10.98450
512.5984, 10.61531
513.0806, 10.43218
513.5627, 10.39947
514.0448, 10.44286
514.5269, 10.54764
515.0090, 10.70257
515.4911, 10.99313
515.9733, 11.37455
516.4554, 11.55220
516.9375, 11.16354
517.4196, 10.72122
517.9017, 10.54567
518.3839, 10.80212
518.8660, 11.01072
519.3481, 11.19690
519.8302, 11.27347
520.3123, 10.74238
520.7944, 11.24448
521.2766, 11.55117
521.7587, 11.67293
522.2408, 11.05591
522.7229, 11.39286
523.2050, 11.38294
523.6871, 11.28263
524.1693, 11.19187
524.6514, 11.11740
525.1335, 11.17292
525.6156, 11.38545
526.0977, 11.55205
526.5798, 11.36162
527.0620, 10.95036
527.5441, 10.77266
528.0262, 10.70401
528.5083, 11.16241
528.9904, 11.42539
529.4725, 11.50344
529.9547, 10.84274
530.4368, 11.13600
530.9189, 11.04695
531.4010, 10.94222
531.8831, 11.36975
532.3652, 11.70268
532.8474, 11.47790
533.3295, 11.04117
533.8116, 10.73255
534.2937, 10.62556
534.7758, 10.59476
535.2579, 10.68034
535.7401, 10.81885
536.2222, 10.90248
536.7043, 10.86296
537.1865, 10.95456
537.6686, 11.33993
538.1507, 11.88692
538.6328, 11.85148
539.1149, 11.12607
539.5970, 10.48957
540.0792, 10.54879
540.5613, 11.13268
541.0434, 11.42216
541.5255, 11.36897
542.0076, 11.20583
542.4897, 11.14709
542.9719, 11.14687
543.4540, 10.74977
543.9361, 11.23281
544.4182, 11.52042
544.9003, 11.62312
545.3824, 10.98705
545.8646, 11.30495
546.3467, 11.24054
546.8288, 11.16045
547.3109, 11.61261
547.7930, 11.08399
548.2751, 11.52770
548.7573, 11.48036
549.2394, 11.35028
549.7215, 11.30328
550.2036, 11.41036
550.6857, 11.43147
551.1678, 11.31380
551.6500, 11.16420
552.1321, 11.13879
552.6142, 11.25390
553.0963, 11.40756
553.5784, 11.64890
554.0605, 11.85183
554.5427, 11.13678
555.0248, 11.51766
555.5069, 11.70311
555.9890, 11.70364
556.4711, 10.96540
556.9532, 11.18114
557.4354, 11.01454
557.9175, 10.83229
558.3996, 11.10579
558.8817, 11.06207
559.3638, 11.03151
559.8459, 11.08943
560.3281, 10.64916
560.8102, 11.07766
561.2923, 11.31073
561.7744, 11.35889
562.2565, 10.66828
562.7386, 10.93163
563.2208, 10.81267
563.7029, 10.67805
564.1850, 11.09447
564.6671, 11.03232
565.1492, 10.91959
565.6313, 10.82928
566.1135, 10.75854
566.5956, 10.77697
567.0777, 10.90787
567.5598, 11.04524
568.0419, 11.05601
568.5240, 10.96752
569.0062, 10.92984
569.4883, 10.99059
569.9704, 11.06882
570.4525, 11.05569
570.9346, 10.97714
571.4167, 10.90114
571.8989, 10.86442
572.3810, 10.83545
572.8631, 10.76108
573.3452, 10.65899
573.8273, 10.64144
574.3094, 10.78474
574.7916, 10.99793
575.2737, 11.26837
575.7558, 11.67553
576.2379, 11.87117
576.7200, 11.77605
577.2021, 11.52769
577.6843, 11.21528
578.1664, 10.77592
578.6485, 10.46334
579.1306, 10.29601
579.6127, 10.27385
580.0948, 10.48477
580.5770, 10.58411
581.0591, 11.04135
581.5412, 11.30317
582.0233, 11.38007
582.5054, 10.71820
582.9875, 11.01030
583.4697, 10.92009
583.9518, 10.81421
584.4340, 11.24058
584.9161, 10.68616
585.3982, 11.10409
585.8803, 11.13387
586.3624, 11.34130
586.8445, 11.16406
