##NAMES=Lollingite
##RRUFFID=R070592
##IDEAL CHEMISTRY=FeAs_2_
##LOCALITY=Ebisu mine, Hirukawa, Gifu Prefecture, Honshu, Japan
##OWNER=RRUFF
##SOURCE=James Shigley
##DESCRIPTION=Steel gray massive associated with quartz
##STATUS=The identification of this mineral is confirmed by single-crystal X-ray diffraction and chemical analysis.
##URL=rruff.info/R070592
##MEASURED CHEMISTRY=Fe_1.05_Bi_0.01_As_2_
89.85687, 57833.23
90.33899, 57753.75
90.82111, 57759.41
91.30322, 57907.11
91.78534, 58051.07
92.26746, 57864.35
92.74957, 57138.62
93.23169, 56380.85
93.71381, 55663.10
94.19592, 55007.00
94.67804, 54421.49
95.16016, 53906.24
95.64227, 53457.88
96.12439, 53203.57
96.60651, 53175.55
97.08862, 53294.44
97.57074, 53613.27
98.05286, 54091.84
98.53497, 54596.44
99.01709, 54975.01
99.49921, 55172.21
99.98132, 55349.64
100.4634, 55545.40
100.9456, 55706.46
101.4277, 55774.30
101.9098, 55465.61
102.3919, 53839.46
102.8740, 52256.81
103.3561, 50667.05
103.8383, 49159.14
104.3204, 47708.30
104.8025, 46329.82
105.2846, 45146.34
105.7667, 44263.93
106.2488, 43564.68
106.7310, 42840.50
107.2131, 42074.01
107.6952, 41271.86
108.1773, 40419.62
108.6594, 39492.52
109.1415, 38593.23
109.6237, 37752.71
110.1058, 36963.07
110.5879, 36229.64
111.0700, 35537.79
111.5521, 34894.63
112.0342, 34347.15
112.5164, 33954.79
112.9985, 33601.57
113.4806, 33251.10
113.9627, 32901.16
114.4448, 32556.69
114.9269, 32224.63
115.4091, 31904.35
115.8912, 31589.18
116.3733, 31256.61
116.8554, 30939.65
117.3375, 30669.74
117.8196, 30446.96
118.3018, 30239.52
118.7839, 29991.40
119.2660, 29634.99
119.7481, 29326.75
120.2302, 29066.85
120.7123, 28854.49
121.1945, 28702.58
121.6766, 28622.91
122.1587, 28588.45
122.6408, 28491.28
123.1229, 28297.79
123.6050, 28095.70
124.0872, 27912.96
124.5693, 27745.37
125.0514, 27576.23
125.5335, 27390.65
126.0156, 27195.12
126.4977, 27020.69
126.9799, 26888.34
127.4620, 26764.78
127.9441, 26618.45
128.4262, 26444.45
128.9083, 26261.43
129.3905, 26077.47
129.8726, 25893.66
130.3547, 25716.05
130.8368, 25561.96
131.3189, 25418.12
131.8010, 25229.87
132.2832, 24949.32
132.7653, 24683.18
133.2474, 24506.99
133.7295, 24404.67
134.2116, 24308.82
134.6937, 24153.05
135.1759, 23925.42
135.6580, 23728.85
136.1401, 23585.89
136.6222, 23466.50
137.1043, 23368.59
137.5864, 23287.95
138.0686, 23207.23
138.5507, 23101.21
139.0328, 22966.07
139.5149, 22807.84
139.9970, 22610.04
140.4791, 22402.38
140.9613, 22212.29
141.4434, 22052.58
141.9255, 21910.21
142.4076, 21742.76
142.8897, 21491.98
143.3718, 21280.33
143.8540, 21144.23
144.3361, 21055.28
144.8182, 20967.62
145.3003, 20852.42
145.7824, 20712.71
146.2645, 20586.09
146.7467, 20480.82
147.2288, 20377.83
147.7109, 20266.98
148.1930, 20149.45
148.6751, 20032.42
149.1572, 19918.88
149.6394, 19810.33
150.1215, 19718.37
150.6036, 19672.30
151.0857, 19626.68
151.5678, 19526.29
152.0499, 19357.55
152.5321, 19181.68
153.0142, 19065.96
153.4963, 18997.27
153.9784, 18932.49
154.4605, 18865.44
154.9426, 18792.55
155.4248, 18704.69
155.9069, 18600.73
156.3890, 18479.51
156.8711, 18334.02
157.3532, 18166.61
157.8354, 18009.35
158.3175, 17883.46
158.7996, 17788.79
159.2817, 17711.98
159.7638, 17671.57
160.2459, 17634.21
160.7281, 17581.49
161.2102, 17510.87
161.6923, 17426.56
162.1744, 17329.12
162.6565, 17211.99
163.1386, 17103.52
163.6208, 17002.56
164.1029, 16913.67
164.5850, 16846.13
165.0671, 16803.11
165.5492, 16770.66
166.0313, 16716.24
166.5135, 16617.81
166.9956, 16531.49
167.4777, 16460.13
167.9598, 16404.98
168.4419, 16372.68
168.9240, 16368.02
169.4062, 16381.54
169.8883, 16366.17
170.3704, 16306.92
170.8525, 16231.98
171.3346, 16129.37
171.8167, 16014.57
172.2989, 15914.31
172.7810, 15848.15
173.2631, 15815.17
173.7452, 15760.55
174.2273, 15662.84
174.7094, 15569.18
175.1916, 15497.01
175.6737, 15445.28
176.1558, 15404.88
176.6379, 15370.41
177.1200, 15342.58
177.6021, 15305.78
178.0843, 15260.08
178.5664, 15206.18
179.0485, 15140.25
179.5306, 15062.71
180.0127, 14984.68
180.4948, 14916.38
180.9770, 14858.06
181.4591, 14805.39
181.9412, 14769.38
182.4233, 14734.45
182.9054, 14675.22
183.3875, 14582.41
183.8697, 14487.80
184.3518, 14435.11
184.8339, 14418.28
185.3160, 14400.05
185.7981, 14364.82
186.2802, 14318.83
186.7624, 14279.57
187.2445, 14258.97
187.7266, 14231.41
188.2087, 14164.98
188.6908, 14061.47
189.1729, 13962.88
189.6551, 13893.83
190.1372, 13852.64
190.6193, 13825.60
191.1014, 13829.61
191.5835, 13828.60
192.0656, 13786.88
192.5478, 13701.49
193.0299, 13615.37
193.5120, 13582.02
193.9941, 13610.69
194.4762, 13602.43
194.9583, 13491.69
195.4405, 13360.56
195.9226, 13253.35
196.4047, 13179.72
196.8868, 13126.76
197.3689, 13078.38
197.8510, 13033.41
198.3332, 12996.39
198.8153, 12982.71
199.2974, 12968.50
199.7795, 12931.61
200.2616, 12864.15
200.7438, 12784.86
201.2259, 12729.60
201.7080, 12706.93
202.1901, 12695.80
202.6722, 12707.76
203.1543, 12721.22
203.6365, 12714.86
204.1186, 12679.01
204.6007, 12622.09
205.0828, 12568.25
205.5649, 12527.24
206.0470, 12476.37
206.5292, 12393.56
207.0113, 12305.95
207.4934, 12249.38
207.9755, 12244.94
208.4576, 12278.81
208.9397, 12284.61
209.4219, 12222.08
209.9040, 12173.43
210.3861, 12167.32
210.8682, 12180.76
211.3503, 12174.33
211.8324, 12121.96
212.3146, 12030.94
212.7967, 11970.23
213.2788, 11961.38
213.7609, 11955.95
214.2430, 11942.55
214.7251, 11922.74
215.2073, 11901.96
215.6894, 11883.56
216.1715, 11867.50
216.6536, 11851.97
217.1357, 11837.61
217.6178, 11822.97
218.1000, 11804.41
218.5821, 11784.13
219.0642, 11770.40
219.5463, 11771.67
220.0284, 11786.80
220.5105, 11785.03
220.9927, 11757.64
221.4748, 11723.29
221.9569, 11690.25
222.4390, 11659.12
222.9211, 11627.68
223.4032, 11591.10
223.8854, 11551.40
224.3675, 11531.64
224.8496, 11559.64
225.3317, 11586.96
225.8138, 11570.68
226.2959, 11510.85
226.7781, 11448.99
227.2602, 11417.77
227.7423, 11416.04
228.2244, 11416.88
228.7065, 11419.46
229.1886, 11423.49
229.6708, 11428.82
230.1529, 11435.42
230.6350, 11443.41
231.1171, 11457.30
231.5992, 11473.87
232.0813, 11476.88
232.5635, 11458.92
233.0456, 11428.41
233.5277, 11395.28
234.0098, 11360.59
234.4919, 11320.42
234.9740, 11267.96
235.4562, 11206.94
235.9383, 11147.47
236.4204, 11083.79
236.9025, 11026.05
237.3846, 10995.65
237.8667, 11001.00
238.3489, 11006.86
238.8310, 10979.13
239.3131, 10929.92
239.7952, 10886.58
240.2773, 10868.22
240.7595, 10859.46
241.2416, 10827.44
241.7237, 10761.38
242.2058, 10696.50
242.6879, 10661.75
243.1700, 10646.94
243.6522, 10630.09
244.1343, 10593.85
244.6164, 10549.83
245.0985, 10529.98
245.5806, 10548.37
246.0627, 10562.07
246.5449, 10540.92
247.0270, 10495.30
247.5091, 10445.75
247.9912, 10398.51
248.4733, 10354.54
248.9554, 10317.29
249.4376, 10289.41
249.9197, 10264.17
250.4018, 10241.99
250.8839, 10219.72
251.3660, 10189.69
251.8481, 10139.36
252.3303, 10077.97
252.8124, 10037.61
253.2945, 10023.41
253.7766, 10023.81
254.2587, 10040.75
254.7408, 10065.67
255.2230, 10081.54
255.7051, 10076.32
256.1872, 10054.66
256.6693, 10034.18
257.1514, 10016.97
257.6335, 9997.550
258.1157, 9973.329
258.5978, 9945.488
259.0799, 9915.748
259.5620, 9882.652
260.0441, 9848.581
260.5262, 9822.530
261.0084, 9804.957
261.4905, 9795.685
261.9726, 9798.028
262.4547, 9806.774
262.9368, 9813.845
263.4189, 9816.981
263.9011, 9814.425
264.3832, 9797.188
264.8653, 9753.359
265.3474, 9712.803
265.8295, 9690.552
266.3116, 9677.724
266.7938, 9660.410
267.2759, 9630.141
267.7580, 9590.040
268.2401, 9552.068
268.7222, 9520.581
269.2043, 9484.077
269.6865, 9431.160
270.1686, 9373.370
270.6507, 9327.881
271.1328, 9305.992
271.6149, 9300.513
272.0970, 9288.752
272.5792, 9272.201
273.0613, 9245.502
273.5434, 9195.444
274.0255, 9139.270
274.5076, 9101.433
274.9897, 9097.739
275.4719, 9114.335
275.9540, 9110.070
276.4361, 9070.544
276.9182, 9034.951
277.4003, 9011.653
277.8824, 8998.318
278.3646, 8995.587
278.8467, 9006.659
279.3288, 9020.798
279.8109, 9008.514
280.2930, 8950.167
280.7751, 8902.940
281.2573, 8881.890
281.7394, 8876.165
282.2215, 8877.186
282.7036, 8882.416
283.1857, 8888.266
283.6678, 8887.252
284.1500, 8877.812
284.6321, 8864.421
285.1142, 8847.051
285.5963, 8827.213
286.0784, 8804.614
286.5605, 8778.883
287.0427, 8753.961
287.5248, 8738.211
288.0069, 8736.323
288.4890, 8731.064
288.9711, 8715.433
289.4532, 8697.705
289.9354, 8683.240
290.4175, 8673.597
290.8996, 8668.558
291.3817, 8671.277
291.8638, 8688.647
292.3459, 8690.834
292.8281, 8664.137
293.3102, 8627.557
293.7923, 8588.055
294.2744, 8548.269
294.7565, 8515.862
295.2386, 8502.875
295.7208, 8513.798
296.2029, 8522.979
296.6850, 8534.069
297.1671, 8537.534
297.6492, 8523.206
298.1313, 8491.887
298.6135, 8458.404
299.0956, 8436.961
299.5777, 8428.419
300.0598, 8426.053
300.5419, 8445.837
301.0240, 8457.684
301.5062, 8438.898
301.9883, 8393.879
302.4704, 8350.974
302.9525, 8340.578
303.4347, 8363.588
303.9168, 8369.646
304.3989, 8340.521
304.8810, 8310.883
305.3631, 8300.309
305.8452, 8304.334
306.3274, 8306.023
306.8095, 8289.609
307.2916, 8257.728
307.7737, 8236.913
308.2558, 8236.231
308.7379, 8234.985
309.2201, 8217.278
309.7022, 8191.521
310.1843, 8177.104
310.6664, 8194.046
311.1485, 8230.222
311.6306, 8239.222
312.1128, 8206.620
312.5949, 8172.467
313.0770, 8156.075
313.5591, 8150.174
314.0412, 8143.870
314.5233, 8131.431
315.0055, 8116.406
315.4876, 8106.578
315.9697, 8103.727
316.4518, 8101.208
316.9339, 8098.982
317.4160, 8094.543
317.8982, 8082.570
318.3803, 8056.825
318.8624, 8031.202
319.3445, 8029.134
319.8266, 8055.396
320.3087, 8077.489
320.7909, 8086.084
321.2730, 8082.196
321.7551, 8062.036
322.2372, 8020.545
322.7193, 7978.315
323.2014, 7958.079
323.6836, 7959.985
324.1657, 7961.794
324.6478, 7955.699
325.1299, 7947.680
325.6120, 7946.736
326.0941, 7955.202
326.5763, 7956.958
327.0584, 7931.479
327.5405, 7885.408
328.0226, 7857.832
328.5047, 7863.804
328.9868, 7883.195
329.4690, 7897.911
329.9511, 7908.162
330.4332, 7908.456
330.9153, 7891.414
331.3974, 7862.599
331.8795, 7833.792
332.3617, 7804.654
332.8438, 7781.487
333.3259, 7777.959
333.8080, 7789.436
334.2901, 7790.508
334.7722, 7755.359
335.2544, 7712.960
335.7365, 7711.003
336.2186, 7757.794
336.7007, 7805.102
337.1828, 7809.071
337.6649, 7777.942
338.1471, 7756.482
338.6292, 7764.503
339.1113, 7773.582
339.5934, 7752.710
340.0755, 7704.162
340.5576, 7661.789
341.0398, 7647.658
341.5219, 7657.904
342.0040, 7667.176
342.4861, 7675.076
342.9682, 7682.362
343.4503, 7697.728
343.9325, 7714.220
344.4146, 7706.109
344.8967, 7653.680
345.3788, 7577.787
345.8609, 7545.870
346.3430, 7576.297
346.8252, 7609.124
347.3073, 7635.375
347.7894, 7653.045
348.2715, 7657.689
348.7536, 7647.386
349.2357, 7627.139
349.7179, 7605.455
350.2000, 7582.485
350.6821, 7557.356
351.1642, 7526.114
351.6463, 7495.062
352.1284, 7465.545
352.6106, 7439.451
353.0927, 7426.530
353.5748, 7441.299
354.0569, 7496.005
354.5390, 7531.654
355.0211, 7545.719
355.5033, 7545.839
355.9854, 7529.770
356.4675, 7501.954
356.9496, 7473.382
357.4317, 7451.769
357.9138, 7436.893
358.3960, 7439.589
358.8781, 7479.728
359.3602, 7515.439
359.8423, 7542.477
360.3244, 7555.543
360.8065, 7543.400
361.2887, 7496.837
361.7708, 7427.233
362.2529, 7382.300
362.7350, 7377.672
363.2171, 7379.097
363.6992, 7387.689
364.1814, 7396.996
364.6635, 7399.800
365.1456, 7393.497
365.6277, 7382.767
366.1098, 7377.061
366.5919, 7381.378
367.0741, 7377.569
367.5562, 7354.231
368.0383, 7329.662
368.5204, 7315.925
369.0025, 7314.348
369.4846, 7317.777
369.9668, 7319.686
370.4489, 7320.068
370.9310, 7319.743
371.4131, 7327.595
371.8952, 7324.731
372.3773, 7290.625
372.8595, 7235.909
373.3416, 7193.576
373.8237, 7188.796
374.3058, 7213.729
374.7879, 7240.231
375.2701, 7273.103
375.7522, 7296.969
376.2343, 7297.933
376.7164, 7286.304
377.1985, 7278.659
377.6806, 7286.280
378.1628, 7293.940
378.6449, 7276.701
379.1270, 7232.514
379.6091, 7194.100
380.0912, 7178.891
380.5733, 7176.279
381.0555, 7169.495
381.5376, 7155.705
382.0197, 7142.684
382.5018, 7134.686
382.9839, 7131.450
383.4660, 7133.579
383.9482, 7143.962
384.4303, 7154.678
384.9124, 7152.966
385.3945, 7138.455
385.8766, 7123.491
386.3588, 7107.344
386.8409, 7094.381
387.3230, 7093.341
387.8051, 7105.604
388.2872, 7117.363
388.7693, 7115.225
389.2515, 7097.420
389.7336, 7081.299
390.2157, 7066.302
390.6978, 7053.338
391.1799, 7039.284
391.6620, 7026.875
392.1442, 7027.428
392.6263, 7051.012
393.1084, 7091.140
393.5905, 7105.560
394.0726, 7072.312
394.5547, 7041.780
395.0369, 7022.053
395.5190, 7010.340
396.0011, 7004.489
396.4832, 7003.460
396.9653, 7003.925
397.4474, 6998.859
397.9296, 6980.908
398.4117, 6971.104
398.8938, 6977.051
399.3759, 6984.413
399.8580, 6984.664
400.3401, 6976.471
400.8223, 6962.166
401.3044, 6942.228
401.7865, 6915.685
402.2686, 6895.745
402.7507, 6886.655
403.2328, 6880.421
403.7150, 6871.780
404.1971, 6864.143
404.6792, 6865.519
405.1613, 6883.852
405.6434, 6910.656
406.1255, 6921.141
406.6077, 6909.091
407.0898, 6896.131
407.5719, 6887.520
408.0540, 6882.832
408.5361, 6883.657
409.0182, 6891.598
409.5004, 6898.685
409.9825, 6894.555
410.4646, 6880.066
410.9467, 6870.342
411.4288, 6871.553
411.9109, 6875.661
412.3931, 6872.354
412.8752, 6861.875
413.3573, 6856.229
413.8394, 6866.935
414.3215, 6883.799
414.8036, 6888.449
415.2858, 6877.965
415.7679, 6863.777
416.2500, 6852.267
416.7321, 6844.623
417.2142, 6846.278
417.6964, 6876.202
418.1785, 6898.770
418.6606, 6882.706
419.1427, 6839.130
419.6248, 6804.771
420.1069, 6798.978
420.5891, 6813.143
421.0712, 6821.115
421.5533, 6816.888
422.0354, 6815.173
422.5175, 6819.813
422.9996, 6826.633
423.4818, 6832.313
423.9639, 6835.696
424.4460, 6835.617
424.9281, 6830.141
425.4102, 6817.579
425.8923, 6805.957
426.3745, 6786.812
426.8566, 6776.387
427.3387, 6791.671
427.8208, 6822.637
428.3029, 6842.973
428.7850, 6831.852
429.2672, 6797.093
429.7493, 6780.284
430.2314, 6799.327
430.7135, 6806.665
431.1956, 6777.106
431.6777, 6737.922
432.1599, 6720.187
432.6420, 6734.431
433.1241, 6759.482
433.6062, 6772.032
434.0883, 6772.113
434.5704, 6757.518
435.0526, 6712.940
435.5347, 6669.006
436.0168, 6649.455
436.4989, 6653.241
436.9810, 6666.049
437.4631, 6690.094
437.9453, 6715.927
438.4274, 6723.327
438.9095, 6708.896
439.3916, 6690.308
439.8737, 6677.587
440.3558, 6670.753
440.8380, 6668.138
441.3201, 6673.514
441.8022, 6679.465
442.2843, 6681.384
442.7664, 6680.631
443.2485, 6680.852
443.7307, 6683.631
444.2128, 6687.581
444.6949, 6689.690
445.1770, 6686.692
445.6591, 6688.534
446.1412, 6697.968
446.6234, 6710.854
447.1055, 6729.636
447.5876, 6751.060
448.0697, 6760.193
448.5518, 6739.848
449.0339, 6687.931
449.5161, 6657.162
449.9982, 6675.377
450.4803, 6685.169
450.9624, 6658.235
451.4445, 6617.890
451.9266, 6602.006
452.4088, 6629.715
452.8909, 6678.438
453.3730, 6703.739
453.8551, 6700.323
454.3372, 6690.925
454.8193, 6677.309
455.3015, 6660.426
455.7836, 6636.066
456.2657, 6605.819
456.7478, 6583.461
457.2299, 6582.463
457.7120, 6598.070
458.1942, 6615.312
458.6763, 6635.838
459.1584, 6650.839
459.6405, 6652.568
460.1226, 6644.170
460.6047, 6631.028
461.0869, 6603.157
461.5690, 6581.948
462.0511, 6592.452
462.5332, 6625.542
463.0153, 6643.876
463.4974, 6629.324
463.9796, 6600.380
464.4617, 6594.889
464.9438, 6626.960
465.4259, 6643.788
465.9080, 6627.518
466.3902, 6601.216
466.8723, 6582.483
467.3544, 6574.205
467.8365, 6573.882
468.3186, 6581.115
468.8008, 6595.866
469.2829, 6599.335
469.7650, 6580.083
470.2471, 6562.040
470.7292, 6547.292
471.2113, 6537.636
471.6935, 6536.442
472.1756, 6545.084
472.6577, 6557.671
473.1398, 6564.820
473.6219, 6566.213
474.1040, 6563.293
474.5862, 6552.288
475.0683, 6540.115
475.5504, 6527.792
476.0325, 6516.894
476.5146, 6513.215
476.9967, 6523.107
477.4789, 6542.100
477.9610, 6563.806
478.4431, 6590.886
478.9252, 6605.270
479.4073, 6591.431
479.8894, 6559.155
480.3716, 6530.693
480.8537, 6505.178
481.3358, 6486.769
481.8179, 6479.363
482.3000, 6480.270
482.7821, 6486.327
483.2643, 6497.224
483.7464, 6506.686
484.2285, 6505.901
484.7106, 6490.875
485.1927, 6482.425
485.6748, 6485.391
486.1570, 6489.918
486.6391, 6489.402
487.1212, 6485.992
487.6033, 6487.609
488.0854, 6500.056
488.5675, 6516.661
489.0497, 6512.844
489.5318, 6468.313
490.0139, 6440.410
490.4960, 6451.119
490.9781, 6468.157
491.4602, 6462.636
491.9424, 6433.022
492.4245, 6405.912
492.9066, 6412.196
493.3887, 6445.754
493.8708, 6457.878
494.3529, 6435.487
494.8351, 6416.088
495.3172, 6434.071
495.7993, 6468.296
496.2814, 6480.634
496.7635, 6449.235
497.2456, 6413.128
497.7278, 6409.449
498.2099, 6428.484
498.6920, 6432.587
499.1741, 6406.787
499.6562, 6371.499
500.1383, 6357.013
500.6205, 6369.368
501.1026, 6377.864
501.5847, 6371.057
502.0668, 6367.720
502.5489, 6391.343
503.0310, 6432.438
503.5132, 6455.555
503.9953, 6435.523
504.4774, 6384.262
504.9595, 6356.224
505.4416, 6369.607
505.9237, 6379.633
506.4059, 6381.198
506.8880, 6378.014
507.3701, 6371.556
507.8522, 6362.849
508.3343, 6355.135
508.8164, 6351.741
509.2986, 6352.399
509.7807, 6355.210
510.2628, 6364.473
510.7449, 6367.571
511.2270, 6348.690
511.7091, 6320.660
512.1913, 6305.677
512.6734, 6312.852
513.1555, 6327.743
513.6376, 6344.074
514.1198, 6359.281
514.6019, 6362.956
515.0840, 6349.999
515.5661, 6331.938
516.0482, 6325.107
516.5303, 6334.014
517.0125, 6332.579
517.4946, 6309.544
517.9767, 6285.334
518.4588, 6268.376
518.9409, 6260.725
519.4230, 6267.843
519.9052, 6294.421
520.3873, 6330.237
520.8694, 6341.846
521.3515, 6309.702
521.8336, 6289.928
522.3157, 6297.708
522.7979, 6310.159
523.2800, 6310.546
523.7621, 6298.679
524.2442, 6286.693
524.7263, 6289.940
525.2084, 6301.118
525.6906, 6284.543
526.1727, 6227.157
526.6548, 6186.797
527.1369, 6209.578
527.6190, 6261.254
528.1011, 6286.325
528.5833, 6273.377
529.0654, 6250.367
529.5475, 6221.965
530.0296, 6195.974
530.5117, 6191.279
530.9938, 6211.773
531.4760, 6234.608
531.9581, 6235.270
532.4402, 6211.184
532.9223, 6205.433
533.4044, 6236.401
533.8865, 6262.179
534.3687, 6268.372
534.8508, 6260.930
535.3329, 6248.268
535.8150, 6233.708
536.2971, 6217.792
536.7792, 6199.752
537.2614, 6177.710
537.7435, 6163.078
538.2256, 6156.492
538.7077, 6158.130
539.1898, 6170.721
539.6719, 6191.329
540.1541, 6213.227
540.6362, 6237.233
541.1183, 6257.220
541.6004, 6265.152
542.0825, 6261.435
542.5646, 6246.766
543.0468, 6212.292
543.5289, 6181.138
544.0110, 6197.779
544.4931, 6270.892
544.9752, 6329.252
545.4573, 6368.320
545.9395, 6384.841
546.4216, 6364.284
546.9037, 6316.458
547.3858, 6269.948
547.8679, 6241.275
548.3500, 6230.319
548.8322, 6239.806
549.3143, 6297.879
549.7964, 6325.994
550.2785, 6292.806
550.7606, 6250.635
551.2427, 6235.465
551.7249, 6248.711
552.2070, 6270.127
552.6891, 6291.287
553.1712, 6308.001
553.6533, 6301.452
554.1354, 6264.650
554.6176, 6239.083
555.0997, 6255.560
555.5818, 6288.379
556.0639, 6290.246
556.5460, 6248.708
557.0281, 6213.831
557.5103, 6215.555
557.9924, 6229.835
558.4745, 6223.236
558.9566, 6193.271
559.4387, 6160.982
559.9208, 6141.931
560.4030, 6135.915
560.8851, 6140.304
561.3672, 6176.095
561.8493, 6196.723
562.3314, 6187.399
562.8135, 6165.867
563.2957, 6145.105
563.7778, 6129.540
564.2599, 6122.782
564.7420, 6135.407
565.2241, 6164.188
565.7062, 6173.018
566.1884, 6154.275
566.6705, 6132.846
567.1526, 6114.937
567.6347, 6104.685
568.1168, 6111.279
568.5989, 6142.349
569.0811, 6174.382
569.5632, 6198.240
570.0453, 6213.210
570.5274, 6219.073
571.0095, 6215.693
571.4916, 6198.749
571.9738, 6158.598
572.4559, 6095.504
572.9380, 6069.194
573.4201, 6113.515
573.9022, 6151.389
574.3843, 6168.707
574.8665, 6170.023
575.3486, 6157.542
575.8307, 6133.363
576.3128, 6107.591
576.7949, 6092.774
577.2770, 6088.443
577.7592, 6078.674
578.2413, 6055.303
578.7234, 6041.729
579.2055, 6057.265
579.6876, 6089.235
580.1697, 6121.953
580.6519, 6161.059
581.1340, 6182.281
581.6161, 6155.984
582.0982, 6105.150
582.5803, 6072.633
583.0624, 6067.136
583.5446, 6076.473
584.0267, 6092.364
584.5088, 6114.885
584.9909, 6123.364
585.4730, 6102.938
585.9551, 6087.201
586.4373, 6085.085
