##NAMES=Lollingite
##RRUFFID=R060185
##IDEAL CHEMISTRY=FeAs_2_
##LOCALITY=MW Claim, Seagull Batholith, Cassiar Mountains, Yukon, Canada
##OWNER=RRUFF
##SOURCE=Lloyd Twaites
##DESCRIPTION=Steel-gray metallic fragments
##STATUS=The identification of this mineral has been confirmed by X-ray diffraction and chemical analysis
##URL=rruff.info/R060185
##MEASURED CHEMISTRY=Fe_1.00_(As_1.90_S_0.10_)_Î£=2_
92.02539, 117.1735
92.50751, 117.6059
92.98962, 118.6591
93.47174, 119.5408
93.95386, 120.0758
94.43597, 118.9419
94.91809, 115.4509
95.40021, 110.4632
95.88232, 106.4067
96.36444, 103.9871
96.84656, 101.5205
97.32867, 98.22676
97.81078, 94.63972
98.29290, 91.66219
98.77502, 89.97449
99.25713, 89.52178
99.73925, 89.27388
100.2214, 89.22793
100.7035, 89.35506
101.1856, 89.80383
101.6677, 90.49371
102.1498, 91.03429
102.6320, 90.83454
103.1141, 89.05557
103.5962, 88.81508
104.0783, 91.27723
104.5604, 94.77633
105.0425, 97.68899
105.5247, 99.65818
106.0068, 100.5068
106.4889, 99.85619
106.9710, 97.92044
107.4531, 94.73796
107.9352, 89.33556
108.4173, 82.23289
108.8995, 76.31321
109.3816, 73.11752
109.8637, 71.27169
110.3458, 69.27810
110.8279, 66.94313
111.3100, 64.58109
111.7922, 62.55430
112.2743, 60.92061
112.7564, 59.48069
113.2385, 58.15010
113.7206, 56.96798
114.2027, 56.03234
114.6849, 55.42046
115.1670, 54.99657
115.6491, 54.27639
116.1312, 52.66242
116.6133, 51.44826
117.0954, 51.06202
117.5776, 51.17599
118.0597, 51.27981
118.5418, 51.00774
119.0239, 50.35048
119.5060, 49.91256
119.9881, 49.76031
120.4703, 49.71032
120.9524, 49.64832
121.4345, 49.59876
121.9166, 49.72956
122.3987, 50.29583
122.8808, 51.39362
123.3630, 51.87577
123.8451, 51.37313
124.3272, 50.44468
124.8093, 49.65483
125.2914, 49.11720
125.7735, 48.54154
126.2557, 47.25911
126.7378, 45.45628
127.2199, 44.30037
127.7020, 44.72295
128.1841, 46.22235
128.6662, 47.18224
129.1483, 47.17200
129.6305, 46.72994
130.1126, 46.34270
130.5947, 45.99617
131.0768, 45.50694
131.5589, 44.55882
132.0410, 43.04319
132.5232, 41.96472
133.0053, 41.66243
133.4874, 41.69674
133.9695, 42.03236
134.4516, 42.60618
134.9337, 43.15186
135.4159, 43.26788
135.8980, 42.82666
136.3801, 42.12647
136.8622, 40.73439
137.3443, 39.36405
137.8264, 38.70188
138.3086, 38.99379
138.7907, 39.88871
139.2728, 40.41862
139.7549, 40.49469
140.2370, 40.27837
140.7191, 39.51619
141.2013, 38.50800
141.6834, 37.71704
142.1655, 37.41537
142.6476, 37.46946
143.1297, 37.28508
143.6118, 36.74547
144.0939, 36.15026
144.5761, 35.52208
145.0582, 34.90047
145.5403, 34.48958
146.0224, 34.54454
146.5045, 34.86557
146.9866, 34.84227
147.4688, 34.18667
147.9509, 33.39809
148.4330, 33.00648
148.9151, 33.07924
149.3972, 33.12346
149.8793, 32.79341
150.3615, 32.25929
150.8436, 31.68179
151.3257, 31.00945
151.8078, 30.38309
152.2899, 30.19306
152.7720, 30.73346
153.2542, 31.19834
153.7363, 31.22886
154.2184, 30.98871
154.7005, 30.71417
155.1826, 30.52957
155.6647, 30.43472
156.1469, 30.44531
156.6290, 30.96003
157.1111, 31.16850
157.5932, 30.57768
158.0753, 29.48749
158.5574, 28.54671
159.0396, 28.34328
159.5217, 28.99137
160.0038, 29.33134
160.4859, 29.08401
160.9680, 28.82538
161.4501, 28.82224
161.9323, 29.05775
162.4144, 29.34103
162.8965, 29.48271
163.3786, 29.45815
163.8607, 29.34669
164.3428, 29.00791
164.8250, 28.68524
165.3071, 28.65697
165.7892, 28.94423
166.2713, 29.17789
166.7534, 28.80753
167.2355, 27.70107
167.7177, 27.01231
168.1998, 27.10630
168.6819, 27.59684
169.1640, 28.04118
169.6461, 28.37475
170.1282, 28.56203
170.6104, 28.48739
171.0925, 28.18525
171.5746, 27.88328
172.0567, 27.63561
172.5388, 27.45255
173.0209, 27.36947
173.5031, 27.41257
173.9852, 27.54153
174.4673, 27.77204
174.9494, 28.08513
175.4315, 28.29545
175.9136, 28.22583
176.3958, 27.88605
176.8779, 27.55453
177.3600, 27.11045
177.8421, 26.83739
178.3242, 27.04114
178.8063, 27.67336
179.2885, 28.28008
179.7706, 28.32489
180.2527, 27.64176
180.7348, 27.11678
181.2169, 26.89919
181.6990, 26.78338
182.1812, 26.71457
182.6633, 26.66264
183.1454, 26.57897
183.6275, 26.36069
184.1096, 25.82332
184.5917, 25.56130
185.0738, 25.60309
185.5560, 25.84101
186.0381, 26.33668
186.5202, 27.05448
187.0023, 27.73458
187.4844, 27.92260
187.9665, 27.23631
188.4487, 26.61364
188.9308, 25.84159
189.4129, 25.23406
189.8950, 25.22786
190.3771, 25.95541
190.8592, 26.96471
191.3414, 27.35878
191.8235, 26.79498
192.3056, 26.25823
192.7877, 25.84487
193.2698, 25.51645
193.7519, 25.19500
194.2341, 24.83680
194.7162, 24.53573
195.1983, 24.53602
195.6804, 24.88699
196.1625, 25.24884
196.6446, 25.57678
197.1268, 25.84280
197.6089, 25.97568
198.0910, 25.93055
198.5731, 25.76736
199.0552, 25.58851
199.5373, 25.39769
200.0195, 25.17786
200.5016, 24.79218
200.9837, 24.31604
201.4658, 24.18303
201.9479, 24.76550
202.4300, 25.50586
202.9122, 25.75728
203.3943, 25.46981
203.8764, 25.06984
204.3585, 24.91289
204.8406, 24.99668
205.3227, 24.98554
205.8048, 24.61770
206.2870, 24.26906
206.7691, 24.28248
207.2512, 24.68906
207.7333, 25.11912
208.2154, 25.14713
208.6975, 24.69961
209.1797, 24.28539
209.6618, 23.94747
210.1439, 23.69621
210.6260, 23.55609
211.1081, 23.52765
211.5902, 23.57998
212.0724, 23.70628
212.5545, 23.97342
213.0366, 24.10231
213.5187, 23.87810
214.0008, 23.65933
214.4829, 23.71414
214.9651, 24.07260
215.4472, 24.52057
215.9293, 24.73521
216.4114, 24.57381
216.8935, 24.46302
217.3756, 24.40305
217.8578, 24.38513
218.3399, 24.43460
218.8220, 24.54310
219.3041, 24.64341
219.7862, 24.62478
220.2683, 24.38440
220.7505, 24.22216
221.2326, 24.16943
221.7147, 24.16494
222.1968, 24.14560
222.6789, 24.10195
223.1610, 24.09637
223.6432, 24.23718
224.1253, 24.70045
224.6074, 24.92594
225.0895, 24.74051
225.5716, 24.41765
226.0537, 24.18061
226.5358, 24.08453
227.0180, 24.08531
227.5001, 24.12186
227.9822, 24.17969
228.4643, 24.33960
228.9464, 24.71369
229.4285, 25.14321
229.9107, 25.45547
230.3928, 25.61099
230.8749, 25.68664
231.3570, 25.81321
231.8391, 26.02134
232.3212, 25.98482
232.8034, 25.33960
233.2855, 24.54127
233.7676, 24.22888
234.2497, 24.56673
234.7318, 25.09070
235.2139, 25.26033
235.6961, 25.12461
236.1782, 25.05523
236.6603, 25.16273
237.1424, 25.38668
237.6245, 25.67493
238.1066, 26.06095
238.5888, 26.37965
239.0709, 26.40127
239.5530, 26.21238
240.0351, 26.07148
240.5172, 26.13788
240.9993, 26.29445
241.4815, 26.28833
241.9636, 26.03668
242.4457, 25.80025
242.9278, 25.80086
243.4099, 25.95625
243.8920, 26.10973
244.3742, 26.27064
244.8563, 26.37368
245.3384, 26.23316
245.8205, 25.75004
246.3026, 25.24298
246.7847, 24.82411
247.2668, 24.50887
247.7490, 24.35365
248.2311, 24.47796
248.7132, 24.73301
249.1953, 24.71320
249.6774, 24.24318
250.1595, 23.85528
250.6417, 23.90301
251.1238, 24.12139
251.6059, 24.16662
252.0880, 23.86121
252.5701, 23.31560
253.0522, 22.78289
253.5344, 22.23386
254.0165, 21.76862
254.4986, 21.33901
254.9807, 21.02051
255.4628, 20.92367
255.9449, 21.11706
256.4271, 21.48504
256.9092, 21.78310
257.3913, 22.06756
257.8734, 22.14967
258.3555, 21.92620
258.8376, 21.55846
259.3198, 21.20190
259.8019, 20.51812
260.2840, 20.92247
260.7661, 21.13144
261.2482, 21.15553
261.7303, 20.44100
262.2125, 20.68023
262.6946, 20.53724
263.1767, 20.37858
263.6588, 20.75206
264.1409, 20.33274
264.6230, 20.29391
265.1052, 20.68956
265.5873, 20.85799
266.0694, 20.62889
266.5515, 20.29496
267.0336, 20.02603
267.5157, 19.87914
267.9979, 19.85965
268.4800, 20.00891
268.9621, 20.50746
269.4442, 20.76914
269.9263, 20.79938
270.4084, 20.64252
270.8906, 20.18745
271.3727, 19.49544
271.8548, 18.87654
272.3369, 18.75669
272.8190, 19.40965
273.3011, 19.64088
273.7833, 19.11437
274.2654, 18.53289
274.7475, 18.27740
275.2296, 18.36337
275.7117, 18.61101
276.1938, 18.86856
276.6760, 19.17083
277.1581, 19.24825
277.6402, 18.81939
278.1223, 18.47754
278.6044, 18.61757
279.0865, 19.12527
279.5686, 19.55308
280.0508, 19.51039
280.5329, 18.98136
281.0150, 18.76200
281.4971, 18.57912
281.9792, 19.06597
282.4613, 19.34883
282.9435, 19.43868
283.4256, 18.75737
283.9077, 19.07183
284.3898, 18.98724
284.8719, 18.88628
285.3540, 19.34090
285.8362, 18.77175
286.3183, 19.21756
286.8004, 19.25822
287.2825, 18.42116
287.7646, 17.93302
288.2467, 17.69711
288.7289, 17.55012
289.2110, 17.54458
289.6931, 17.55487
290.1752, 17.46788
290.6573, 17.41071
291.1394, 17.64535
291.6216, 18.29305
292.1037, 19.06715
292.5858, 19.35856
293.0679, 18.88928
293.5500, 18.47131
294.0321, 18.07726
294.5143, 17.81779
294.9964, 17.92395
295.4785, 18.45464
295.9606, 19.04438
296.4427, 19.15168
296.9248, 18.55527
297.4070, 18.11759
297.8891, 17.97521
298.3712, 17.93851
298.8533, 17.80173
299.3354, 17.54621
299.8175, 17.37321
300.2997, 17.54461
300.7818, 18.14887
301.2639, 18.38724
301.7460, 17.88681
302.2281, 17.31904
302.7102, 17.21294
303.1924, 17.53730
303.6745, 17.81513
304.1566, 17.64873
304.6387, 17.06656
305.1208, 16.73135
305.6029, 16.76177
306.0851, 16.89355
306.5672, 17.07638
307.0493, 17.26663
307.5314, 17.32958
308.0135, 17.15753
308.4956, 16.82491
308.9778, 16.66092
309.4599, 16.61522
309.9420, 16.33141
310.4241, 16.82042
310.9062, 17.11405
311.3883, 17.22279
311.8705, 16.59291
312.3526, 16.91680
312.8347, 16.47483
313.3168, 16.62104
313.7989, 16.79184
314.2810, 16.94173
314.7632, 17.02430
315.2453, 16.92350
315.7274, 16.59750
316.2095, 16.25100
316.6916, 16.18575
317.1737, 16.48333
317.6559, 16.70612
318.1380, 16.77004
318.6201, 16.77451
319.1022, 16.82385
319.5843, 16.92807
320.0664, 17.00020
320.5485, 16.93794
321.0306, 16.72804
321.5128, 16.63315
321.9949, 16.80693
322.4770, 16.96293
322.9591, 16.88403
323.4412, 16.60268
323.9233, 16.29680
324.4055, 16.05145
324.8876, 15.89206
325.3697, 15.97160
325.8518, 16.74119
326.3339, 17.23000
326.8160, 16.74023
327.2982, 15.70770
327.7803, 15.16288
328.2624, 15.66395
328.7445, 16.73501
329.2266, 17.05578
329.7087, 16.13787
330.1909, 15.46655
330.6730, 15.47101
331.1551, 15.81814
331.6372, 16.10851
332.1193, 16.22709
332.6014, 16.22630
333.0836, 16.17403
333.5657, 16.06081
334.0478, 15.91088
334.5299, 15.61014
335.0120, 15.34831
335.4941, 15.35222
335.9763, 15.61713
336.4584, 15.86353
336.9405, 15.80770
337.4226, 15.41173
337.9047, 15.18355
338.3868, 15.14926
338.8690, 15.23240
339.3511, 15.47532
339.8332, 15.81591
340.3153, 16.09189
340.7974, 16.20110
341.2795, 16.16077
341.7617, 16.06871
342.2438, 15.87541
342.7259, 15.69740
343.2080, 15.55889
343.6901, 15.45203
344.1722, 15.37413
344.6544, 15.32550
345.1365, 15.28269
345.6186, 15.19028
346.1007, 14.84196
346.5828, 14.78309
347.0649, 15.34494
347.5471, 16.00674
348.0292, 16.28423
348.5113, 16.09943
348.9934, 15.73154
349.4755, 15.51480
349.9576, 15.50517
350.4398, 15.41254
350.9219, 15.02052
351.4040, 14.75068
351.8861, 14.97392
352.3682, 15.54715
352.8503, 15.99767
353.3325, 15.94555
353.8146, 15.43113
354.2967, 15.08734
354.7788, 15.08228
355.2609, 15.05528
355.7430, 14.82010
356.2252, 14.54669
356.7073, 14.52895
357.1894, 14.91170
357.6715, 15.49138
358.1536, 15.74464
358.6357, 15.31309
359.1179, 15.09376
359.5999, 15.34238
360.0821, 15.65791
360.5642, 15.73283
361.0463, 15.49925
361.5284, 15.05724
362.0105, 14.46230
362.4926, 13.55613
362.9748, 13.12965
363.4569, 13.51091
363.9390, 14.02991
364.4211, 14.48332
364.9032, 14.83687
365.3853, 15.10596
365.8675, 15.32006
366.3496, 15.46108
366.8317, 15.33189
367.3138, 14.50984
367.7959, 13.96084
368.2780, 14.09768
368.7602, 14.54108
369.2423, 14.80517
369.7244, 14.67428
370.2065, 14.35272
370.6886, 14.27029
371.1707, 14.58091
371.6529, 14.73923
372.1350, 14.58569
372.6171, 14.32633
373.0992, 14.04061
373.5813, 13.76351
374.0634, 13.56079
374.5456, 13.49660
375.0277, 13.57188
375.5098, 13.77533
375.9919, 14.33125
376.4740, 14.75943
376.9561, 14.76826
377.4383, 14.48605
377.9204, 14.21871
378.4025, 14.16632
378.8846, 14.23336
379.3667, 14.12960
379.8488, 13.77350
380.3310, 13.45810
380.8131, 13.29637
381.2952, 13.23619
381.7773, 13.24131
382.2594, 13.30803
382.7415, 13.41340
383.2237, 13.52648
383.7058, 13.64764
384.1879, 13.84281
384.6700, 14.31631
385.1521, 14.65763
385.6342, 14.39145
386.1164, 13.56899
386.5985, 12.89459
387.0806, 12.86678
387.5627, 13.26031
388.0448, 13.54291
388.5269, 13.65415
389.0091, 13.71547
389.4912, 13.84088
389.9733, 13.98274
390.4554, 14.02051
390.9375, 13.81838
391.4196, 13.60576
391.9018, 13.66853
392.3839, 13.96572
392.8660, 14.08698
393.3481, 13.74261
393.8302, 13.22502
394.3123, 13.13329
394.7945, 13.58910
395.2766, 14.02364
395.7587, 14.27311
396.2408, 14.34219
396.7229, 14.17736
397.2050, 13.74399
397.6872, 13.27466
398.1693, 13.03592
398.6514, 13.05397
399.1335, 13.02011
399.6156, 12.85784
400.0977, 12.69012
400.5798, 12.58240
401.0620, 12.54317
401.5441, 12.58219
402.0262, 12.71022
402.5083, 12.91749
402.9904, 13.15639
403.4725, 13.63369
403.9547, 13.88576
404.4368, 13.65203
404.9189, 13.21061
405.4010, 12.88110
405.8831, 12.76836
406.3652, 12.83651
406.8474, 13.06624
407.3295, 13.60456
407.8116, 13.85411
408.2937, 13.61660
408.7758, 13.30288
409.2579, 13.10756
409.7401, 13.04170
410.2222, 13.03319
410.7043, 13.01906
411.1864, 13.01963
411.6685, 13.21715
412.1506, 13.95457
412.6328, 14.46342
413.1149, 14.55671
413.5970, 14.40256
414.0791, 14.12186
414.5612, 13.76988
415.0433, 13.47415
415.5255, 13.48742
416.0076, 13.95588
416.4897, 14.22660
416.9718, 13.98464
417.4539, 13.77055
417.9360, 13.93422
418.4182, 14.37883
418.9003, 14.71357
419.3824, 14.60406
419.8645, 14.16480
420.3466, 13.92505
420.8287, 13.99625
421.3109, 14.03798
421.7930, 13.78152
422.2751, 13.47759
422.7572, 13.46385
423.2393, 13.88518
423.7214, 14.35757
424.2036, 14.36535
424.6857, 13.93528
425.1678, 13.80641
425.6499, 14.35381
426.1320, 14.98429
426.6141, 15.11653
427.0963, 14.80752
427.5784, 14.48950
428.0605, 14.30405
428.5426, 14.23455
429.0247, 14.29800
429.5068, 14.50520
429.9890, 14.68184
430.4711, 14.69906
430.9532, 14.60495
431.4353, 14.57696
431.9174, 14.69927
432.3995, 14.76337
432.8817, 14.56129
433.3638, 14.23554
433.8459, 14.12662
434.3280, 14.36232
434.8101, 14.69393
435.2922, 14.73916
435.7744, 14.36416
436.2565, 14.27489
436.7386, 14.78048
437.2207, 15.35049
437.7028, 15.63104
438.1849, 15.62846
438.6671, 15.48112
439.1492, 15.25510
439.6313, 14.99014
440.1134, 14.92780
440.5955, 15.42809
441.0776, 15.68563
441.5598, 15.38632
442.0418, 14.91771
442.5240, 14.67405
443.0061, 14.75782
443.4882, 15.01335
443.9703, 15.26523
444.4524, 15.54177
444.9345, 15.68369
445.4167, 15.43682
445.8988, 15.30606
446.3809, 15.57145
446.8630, 16.07777
447.3451, 16.52452
447.8272, 16.74223
448.3094, 16.78532
448.7915, 16.78855
449.2736, 16.76284
449.7557, 16.66453
450.2378, 16.33587
450.7199, 16.02818
451.2021, 15.97118
451.6842, 16.17442
452.1663, 16.37930
452.6484, 16.27401
453.1305, 15.97366
453.6126, 16.05254
454.0948, 16.70249
454.5769, 17.35361
455.0590, 17.56409
455.5411, 17.51602
456.0232, 17.50943
456.5053, 17.63540
456.9875, 17.78532
457.4696, 17.87189
457.9517, 17.90416
458.4338, 17.92546
458.9159, 17.95107
459.3980, 17.96923
459.8802, 17.94075
460.3623, 17.85149
460.8444, 17.84203
461.3265, 18.05956
461.8086, 18.28381
462.2907, 18.28236
462.7729, 18.07140
463.2550, 17.83763
463.7371, 17.68876
464.2192, 17.63287
464.7013, 17.71924
465.1834, 18.28707
465.6656, 18.55721
466.1477, 18.06636
466.6298, 17.40162
467.1119, 17.28431
467.5940, 17.83868
468.0761, 18.54733
468.5583, 18.79249
469.0404, 18.51146
469.5225, 18.17755
470.0046, 17.49480
470.4867, 17.07079
470.9688, 17.34411
471.4510, 17.95098
471.9331, 18.27279
472.4152, 17.99653
472.8973, 17.43097
473.3794, 17.16479
473.8615, 17.26455
474.3437, 17.38112
474.8258, 17.47272
475.3079, 17.54607
475.7900, 17.57359
476.2721, 17.57328
476.7542, 17.63319
477.2364, 17.90133
477.7185, 18.24817
478.2006, 18.34642
478.6827, 18.15472
479.1648, 17.95806
479.6469, 17.94492
480.1291, 17.99585
480.6112, 17.85384
481.0933, 17.37464
481.5754, 17.07816
482.0575, 17.40192
482.5396, 18.04757
483.0217, 18.45835
483.5038, 18.52016
483.9860, 18.43530
484.4681, 18.36236
484.9502, 18.30402
485.4323, 18.34959
485.9144, 18.62668
486.3965, 18.86534
486.8787, 18.97277
487.3608, 18.95773
487.8429, 18.78835
488.3250, 18.45240
488.8071, 18.12220
489.2892, 18.13093
489.7714, 18.70825
490.2535, 19.06090
490.7356, 19.02675
491.2177, 18.95749
491.6998, 19.06737
492.1819, 19.29242
492.6641, 19.43606
493.1462, 19.36535
493.6283, 19.14860
494.1104, 18.95984
494.5925, 18.75126
495.0746, 18.70253
495.5568, 19.04842
496.0389, 19.43606
496.5210, 19.56598
497.0031, 19.44027
497.4852, 19.37367
497.9673, 19.72647
498.4495, 20.29649
498.9316, 20.48333
499.4137, 20.20262
499.8958, 19.84173
500.3779, 19.62795
500.8600, 19.47337
501.3422, 19.18102
501.8243, 18.64487
502.3064, 18.17931
502.7885, 17.95290
503.2706, 17.89715
503.7527, 17.87379
504.2349, 17.85250
504.7170, 17.93729
505.1991, 18.28501
505.6812, 18.92258
506.1633, 19.21875
506.6454, 18.91537
507.1276, 18.59854
507.6097, 18.48563
508.0918, 18.49779
508.5739, 18.50967
509.0560, 18.47287
509.5381, 18.40131
510.0203, 18.29877
510.5024, 18.11289
510.9845, 18.07616
511.4666, 18.46105
511.9487, 18.72472
512.4308, 18.54580
512.9130, 18.10042
513.3951, 17.74773
513.8772, 17.67243
514.3593, 17.76850
514.8414, 17.83550
515.3235, 17.85764
515.8057, 17.99160
516.2878, 18.46563
516.7699, 18.86329
517.2520, 18.73796
517.7341, 18.16951
518.2162, 17.74332
518.6984, 17.84058
519.1805, 18.13514
519.6626, 18.25742
520.1447, 17.67819
520.6268, 18.19523
521.1089, 18.50829
521.5911, 18.62834
522.0732, 17.97722
522.5553, 18.32188
523.0374, 18.26749
523.5195, 18.19672
524.0016, 18.85933
524.4838, 18.85456
524.9659, 18.61243
525.4480, 18.40867
525.9301, 18.45148
526.4122, 18.68398
526.8943, 18.81334
527.3765, 18.76780
527.8586, 18.71377
528.3407, 18.78307
528.8228, 18.31540
529.3049, 18.83905
529.7870, 19.15874
530.2692, 19.28541
530.7513, 18.64090
531.2334, 18.99219
531.7155, 18.94441
532.1976, 18.88025
532.6797, 19.37169
533.1619, 19.05264
533.6440, 18.57851
534.1261, 18.23636
534.6082, 18.08714
535.0903, 18.07785
535.5724, 18.21751
536.0546, 18.46297
536.5367, 18.73841
537.0188, 19.03783
537.5009, 19.33725
537.9830, 19.67245
538.4651, 19.98752
538.9473, 20.00463
539.4294, 19.30966
539.9115, 18.86460
540.3936, 19.19608
540.8757, 19.80153
541.3578, 19.99093
541.8400, 19.66656
542.3221, 19.33338
542.8042, 19.14826
543.2863, 19.61082
543.7684, 19.86938
544.2505, 19.93492
544.7326, 19.22931
545.2147, 19.47117
545.6968, 19.56009
546.1790, 19.47841
546.6611, 19.15271
547.1432, 18.85164
547.6253, 18.93740
548.1074, 19.36517
548.5895, 19.59229
549.0717, 19.51656
549.5538, 19.41423
550.0359, 19.55925
550.5180, 19.75390
551.0001, 19.64649
551.4822, 19.03614
551.9644, 18.47414
552.4465, 18.33485
552.9286, 18.48276
553.4107, 18.72372
553.8928, 19.02683
554.3749, 19.12550
554.8571, 18.70013
555.3392, 17.77314
555.8213, 17.25292
556.3034, 17.31367
556.7855, 17.50148
557.2676, 17.79953
557.7498, 18.11376
558.2319, 18.37298
558.7140, 18.54479
559.1961, 18.56743
559.6782, 18.34575
560.1603, 17.87809
560.6425, 17.43585
561.1246, 16.88851
561.6067, 16.58019
562.0888, 16.69421
562.5709, 17.03108
563.0530, 17.42202
563.5352, 17.83290
564.0173, 18.12078
564.4994, 18.11073
564.9815, 17.87740
565.4636, 17.61481
565.9457, 17.30235
566.4279, 17.17858
566.9100, 17.53468
567.3921, 18.18778
567.8742, 18.48345
568.3563, 18.26706
568.8384, 17.95641
569.3206, 17.51621
569.8027, 17.14766
570.2848, 17.21740
570.7669, 17.71007
571.2490, 18.12761
571.7311, 17.99805
572.2133, 17.39344
572.6954, 17.11953
573.1775, 17.57536
573.6596, 17.81581
574.1417, 17.43619
574.6238, 16.99159
575.1060, 17.05973
575.5881, 17.64602
576.0702, 18.20452
576.5523, 18.25761
577.0344, 17.92264
577.5165, 17.60740
577.9987, 17.29919
578.4808, 17.06977
578.9629, 16.98120
579.4450, 16.97357
579.9271, 16.95486
580.4092, 16.91772
580.8914, 16.91251
581.3735, 17.06002
581.8556, 17.18543
582.3377, 17.01781
582.8198, 16.60227
583.3019, 16.27068
583.7841, 16.22014
584.2662, 16.36745
584.7483, 16.48300
585.2304, 16.51930
585.7125, 16.60373
586.1946, 16.82016
586.6768, 17.00820
587.1589, 16.96156
587.6410, 16.79973
588.1231, 16.51517
588.6052, 17.02984
