##NAMES=Lomonosovite
##RRUFFID=R070465
##IDEAL CHEMISTRY=Na_6_Na_2_Ti^4+^_2_Na_2_Ti^4+^_2_(Si_2_O_7_)_2_(PO_4_)_2_O_4_
##LOCALITY=Apatitovyi Tsirk (Apatite Circus), Rasvumchorr Mountain, Khibiny Massif, Kola Peninsula, Murmanskaja Oblast', Northern Region, Russia
##OWNER=RRUFF
##SOURCE=Michael Scott
##DESCRIPTION=Light tan platy crystals associated with orthoclase and lamprophyllite
##STATUS=The identification of this mineral is confirmed by single-crystal X-ray diffraction and chemical analysis.
##URL=rruff.info/R070465
##MEASURED CHEMISTRY=(Na_4.77_Ca_0.20_Mn_0.03_)_Σ=5_(Ti_1.79_Fe^3+^_0.19_Mg_0.02_)_Σ=2_(Si_2.00_O_7_)(P_1.00_O_4_)O_2_
138.5845, 9944.661
139.0667, 10361.02
139.5488, 10772.73
140.0309, 11180.43
140.5130, 11592.85
140.9951, 12020.80
141.4772, 12450.07
141.9594, 12839.26
142.4415, 13181.68
142.9236, 13506.19
143.4057, 13833.95
143.8878, 14166.36
144.3699, 14492.17
144.8521, 14814.44
145.3342, 15130.51
145.8163, 15410.55
146.2984, 15643.65
146.7805, 15855.27
147.2626, 16066.17
147.7448, 16274.53
148.2269, 16482.60
148.7090, 16696.03
149.1911, 16917.07
149.6732, 17107.26
150.1553, 17249.23
150.6375, 17370.86
151.1196, 17492.10
151.6017, 17599.54
152.0838, 17722.62
152.5659, 17870.29
153.0480, 18049.68
153.5302, 18223.26
154.0123, 18378.44
154.4944, 18530.02
154.9765, 18695.81
155.4586, 18908.77
155.9408, 19109.18
156.4229, 19274.63
156.9050, 19313.05
157.3871, 19263.62
157.8692, 19220.11
158.3513, 19183.94
158.8335, 19139.58
159.3156, 19090.22
159.7977, 19029.54
160.2798, 18955.66
160.7619, 18871.86
161.2440, 18771.68
161.7262, 18640.93
162.2083, 18490.87
162.6904, 18352.38
163.1725, 18253.85
163.6546, 18162.15
164.1367, 18053.58
164.6189, 17894.10
165.1010, 17746.22
165.5831, 17641.22
166.0652, 17573.58
166.5473, 17515.62
167.0294, 17457.47
167.5116, 17400.13
167.9937, 17345.10
168.4758, 17303.97
168.9579, 17255.93
169.4400, 17176.05
169.9221, 17065.56
170.4043, 16969.09
170.8864, 16937.94
171.3685, 16935.44
171.8506, 16906.51
172.3327, 16785.73
172.8148, 16653.46
173.2970, 16595.76
173.7791, 16621.14
174.2612, 16650.98
174.7433, 16615.51
175.2254, 16536.19
175.7076, 16457.90
176.1897, 16406.05
176.6718, 16366.83
177.1539, 16322.89
177.6360, 16273.27
178.1181, 16218.14
178.6003, 16144.25
179.0824, 16059.79
179.5645, 15997.67
180.0466, 15997.42
180.5287, 16027.73
181.0108, 16027.93
181.4930, 15986.46
181.9751, 15923.28
182.4572, 15853.01
182.9393, 15778.19
183.4214, 15722.48
183.9035, 15719.96
184.3857, 15749.93
184.8678, 15752.65
185.3499, 15709.96
185.8320, 15645.40
186.3141, 15596.99
186.7962, 15564.01
187.2784, 15543.69
187.7605, 15535.01
188.2426, 15537.18
188.7247, 15549.11
189.2068, 15576.72
189.6889, 15609.46
190.1711, 15619.66
190.6532, 15605.95
191.1353, 15585.18
191.6174, 15571.30
192.0995, 15564.11
192.5816, 15559.49
193.0638, 15554.86
193.5459, 15552.35
194.0280, 15563.27
194.5101, 15590.44
194.9922, 15618.58
195.4743, 15631.85
195.9565, 15630.44
196.4386, 15621.63
196.9207, 15602.96
197.4028, 15577.43
197.8849, 15566.24
198.3671, 15570.23
198.8492, 15586.63
199.3313, 15616.80
199.8134, 15662.98
200.2955, 15702.40
200.7776, 15722.47
201.2598, 15723.53
201.7419, 15744.06
202.2240, 15795.88
202.7061, 15845.09
203.1882, 15823.53
203.6703, 15711.48
204.1525, 15624.64
204.6346, 15624.80
205.1167, 15724.24
205.5988, 15775.25
206.0809, 15763.72
206.5630, 15720.72
207.0452, 15709.21
207.5273, 15742.39
208.0094, 15762.38
208.4915, 15731.70
208.9736, 15635.49
209.4557, 15582.24
209.9379, 15585.94
210.4200, 15624.65
210.9021, 15649.09
211.3842, 15656.94
211.8663, 15657.54
212.3484, 15653.31
212.8306, 15641.38
213.3127, 15640.36
213.7948, 15660.25
214.2769, 15687.93
214.7590, 15679.69
215.2411, 15619.83
215.7233, 15557.17
216.2054, 15523.85
216.6875, 15533.86
217.1696, 15524.59
217.6517, 15485.92
218.1338, 15425.13
218.6160, 15370.28
219.0981, 15316.60
219.5802, 15275.58
220.0623, 15259.02
220.5444, 15280.42
221.0265, 15287.70
221.5087, 15272.10
221.9908, 15237.93
222.4729, 15209.28
222.9550, 15185.74
223.4371, 15168.40
223.9192, 15160.88
224.4014, 15173.74
224.8835, 15169.62
225.3656, 15133.00
225.8477, 15071.34
226.3298, 15052.58
226.8119, 15109.33
227.2941, 15165.61
227.7762, 15158.77
228.2583, 15050.35
228.7404, 14963.26
229.2225, 14915.65
229.7046, 14905.05
230.1868, 14905.54
230.6689, 14926.21
231.1510, 14946.55
231.6331, 14950.28
232.1152, 14933.17
232.5973, 14907.38
233.0795, 14869.59
233.5616, 14821.21
234.0437, 14789.72
234.5258, 14787.05
235.0079, 14789.47
235.4900, 14775.20
235.9722, 14733.06
236.4543, 14697.83
236.9364, 14674.59
237.4185, 14663.50
237.9006, 14664.42
238.3828, 14683.00
238.8649, 14707.46
239.3470, 14727.54
239.8291, 14742.12
240.3112, 14752.59
240.7933, 14756.09
241.2755, 14751.93
241.7576, 14757.05
242.2397, 14777.19
242.7218, 14799.94
243.2039, 14812.43
243.6860, 14807.03
244.1682, 14805.59
244.6503, 14814.80
245.1324, 14835.38
245.6145, 14844.90
246.0966, 14832.50
246.5787, 14820.34
247.0609, 14834.13
247.5430, 14895.77
248.0251, 14940.84
248.5072, 14948.90
248.9893, 14917.21
249.4714, 14910.28
249.9536, 14941.91
250.4357, 14984.14
250.9178, 15005.50
251.3999, 14989.17
251.8820, 14986.31
252.3641, 15014.27
252.8463, 15075.05
253.3284, 15114.80
253.8105, 15130.91
254.2926, 15128.81
254.7747, 15107.67
255.2568, 15044.80
255.7390, 15012.51
256.2211, 15035.32
256.7032, 15115.41
257.1853, 15174.91
257.6674, 15205.00
258.1495, 15224.29
258.6317, 15255.04
259.1138, 15309.02
259.5959, 15344.61
260.0780, 15345.03
260.5601, 15308.96
261.0422, 15294.72
261.5244, 15308.32
262.0065, 15335.45
262.4886, 15360.54
262.9707, 15380.97
263.4528, 15408.20
263.9349, 15452.04
264.4171, 15512.71
264.8992, 15537.01
265.3813, 15509.32
265.8634, 15469.66
266.3455, 15465.47
266.8276, 15514.46
267.3098, 15540.23
267.7919, 15515.16
268.2740, 15442.92
268.7561, 15408.51
269.2382, 15424.10
269.7203, 15456.55
270.2025, 15475.33
270.6846, 15479.30
271.1667, 15472.44
271.6488, 15451.46
272.1309, 15418.25
272.6130, 15397.90
273.0952, 15396.81
273.5773, 15394.39
274.0594, 15367.64
274.5415, 15312.22
275.0236, 15259.24
275.5057, 15213.08
275.9879, 15175.03
276.4700, 15156.88
276.9521, 15163.75
277.4342, 15175.98
277.9163, 15171.87
278.3984, 15148.72
278.8806, 15139.20
279.3627, 15157.37
279.8448, 15193.67
280.3269, 15197.86
280.8090, 15161.63
281.2911, 15124.30
281.7733, 15123.29
282.2554, 15159.24
282.7375, 15194.03
283.2196, 15221.79
283.7017, 15241.75
284.1838, 15247.80
284.6660, 15237.45
285.1481, 15228.32
285.6302, 15234.90
286.1123, 15256.65
286.5944, 15284.45
287.0765, 15318.69
287.5587, 15356.63
288.0408, 15393.83
288.5229, 15431.14
289.0050, 15460.33
289.4871, 15466.93
289.9692, 15456.36
290.4514, 15463.00
290.9335, 15498.24
291.4156, 15547.28
291.8977, 15571.87
292.3798, 15573.23
292.8619, 15588.19
293.3441, 15659.77
293.8262, 15770.20
294.3083, 15852.22
294.7904, 15895.05
295.2725, 15908.11
295.7546, 15888.00
296.2368, 15840.54
296.7189, 15813.63
297.2010, 15858.81
297.6831, 15947.17
298.1652, 16010.58
298.6474, 16036.46
299.1295, 16044.13
299.6116, 16052.98
300.0937, 16063.67
300.5758, 16079.60
301.0580, 16102.57
301.5401, 16131.92
302.0222, 16172.78
302.5043, 16231.08
302.9864, 16279.23
303.4685, 16274.61
303.9507, 16233.18
304.4328, 16201.11
304.9149, 16205.86
305.3970, 16232.24
305.8791, 16268.88
306.3612, 16317.99
306.8434, 16356.24
307.3255, 16359.55
307.8076, 16337.14
308.2897, 16307.27
308.7718, 16268.67
309.2539, 16232.17
309.7361, 16209.92
310.2182, 16203.72
310.7003, 16197.72
311.1824, 16175.07
311.6645, 16146.63
312.1466, 16128.88
312.6288, 16147.13
313.1109, 16164.03
313.5930, 16151.14
314.0751, 16106.97
314.5572, 16063.12
315.0393, 16033.36
315.5215, 16014.05
316.0036, 16001.14
316.4857, 15987.97
316.9678, 15985.92
317.4499, 16009.66
317.9320, 16057.18
318.4142, 16090.69
318.8963, 16094.05
319.3784, 16078.54
319.8605, 16053.26
320.3426, 15984.36
320.8247, 15942.17
321.3069, 15963.59
321.7890, 16037.83
322.2711, 16097.11
322.7532, 16119.36
323.2353, 16124.44
323.7174, 16124.36
324.1996, 16112.33
324.6817, 16104.59
325.1638, 16106.29
325.6459, 16114.68
326.1280, 16119.81
326.6101, 16112.76
327.0923, 16108.51
327.5744, 16114.96
328.0565, 16152.52
328.5386, 16171.42
329.0207, 16153.37
329.5028, 16117.63
329.9850, 16108.90
330.4671, 16143.17
330.9492, 16188.94
331.4313, 16238.97
331.9134, 16301.86
332.3955, 16347.84
332.8777, 16371.33
333.3598, 16380.36
333.8419, 16389.58
334.3240, 16406.98
334.8061, 16408.94
335.2882, 16373.02
335.7704, 16281.50
336.2525, 16276.37
336.7346, 16398.43
337.2167, 16559.60
337.6988, 16646.26
338.1809, 16633.64
338.6631, 16626.07
339.1452, 16651.15
339.6273, 16707.14
340.1094, 16761.02
340.5915, 16816.72
341.0736, 16862.31
341.5558, 16878.32
342.0379, 16861.34
342.5200, 16856.94
343.0021, 16877.40
343.4842, 16916.52
343.9663, 16952.63
344.4485, 16985.20
344.9306, 17018.37
345.4127, 17056.13
345.8948, 17097.96
346.3769, 17141.03
346.8590, 17191.59
347.3412, 17233.62
347.8233, 17218.73
348.3054, 17151.09
348.7875, 17095.77
349.2696, 17112.77
349.7517, 17175.64
350.2339, 17212.55
350.7160, 17212.33
351.1981, 17191.27
351.6802, 17157.47
352.1623, 17115.81
352.6444, 17085.46
353.1266, 17084.90
353.6087, 17098.04
354.0908, 17105.89
354.5729, 17107.65
355.0550, 17096.96
355.5371, 17058.88
356.0193, 17005.33
356.5014, 16958.79
356.9835, 16947.54
357.4656, 16935.91
357.9477, 16884.15
358.4298, 16793.77
358.9120, 16720.14
359.3941, 16715.06
359.8762, 16737.28
360.3583, 16742.82
360.8404, 16698.37
361.3225, 16651.94
361.8047, 16624.52
362.2868, 16613.71
362.7689, 16606.86
363.2510, 16618.36
363.7331, 16619.59
364.2152, 16587.98
364.6974, 16479.85
365.1795, 16395.54
365.6616, 16367.32
366.1437, 16379.14
366.6258, 16388.63
367.1079, 16381.94
367.5901, 16377.71
368.0722, 16388.14
368.5543, 16437.05
369.0364, 16450.36
369.5185, 16386.62
370.0006, 16298.20
370.4828, 16262.28
370.9649, 16324.40
371.4470, 16383.88
371.9291, 16415.57
372.4112, 16415.10
372.8933, 16419.20
373.3755, 16425.33
373.8576, 16437.57
374.3397, 16458.14
374.8218, 16481.42
375.3039, 16526.86
375.7860, 16610.14
376.2682, 16720.62
376.7503, 16785.27
377.2324, 16790.17
377.7145, 16783.10
378.1966, 16803.85
378.6787, 16856.21
379.1609, 16888.02
379.6430, 16886.91
380.1251, 16869.74
380.6072, 16874.15
381.0894, 16901.27
381.5715, 16940.27
382.0536, 16992.48
382.5357, 17054.55
383.0178, 17106.43
383.4999, 17148.63
383.9821, 17177.00
384.4642, 17172.69
384.9463, 17144.38
385.4284, 17133.09
385.9105, 17156.58
386.3926, 17207.83
386.8748, 17288.04
387.3569, 17397.98
387.8390, 17493.39
388.3211, 17519.42
388.8032, 17508.29
389.2853, 17514.82
389.7675, 17574.62
390.2496, 17640.44
390.7317, 17672.81
391.2138, 17676.29
391.6959, 17672.21
392.1780, 17660.52
392.6602, 17653.46
393.1423, 17663.88
393.6244, 17705.28
394.1065, 17743.18
394.5886, 17763.02
395.0707, 17769.61
395.5529, 17773.09
396.0350, 17768.03
396.5171, 17767.35
396.9992, 17780.42
397.4813, 17814.24
397.9634, 17834.25
398.4456, 17830.53
398.9277, 17812.08
399.4098, 17789.25
399.8919, 17749.66
400.3740, 17719.81
400.8561, 17708.60
401.3383, 17715.90
401.8204, 17714.75
402.3025, 17708.19
402.7846, 17690.63
403.2667, 17652.18
403.7488, 17568.58
404.2310, 17526.98
404.7131, 17548.34
405.1952, 17611.49
405.6773, 17654.37
406.1594, 17672.58
406.6415, 17684.24
407.1237, 17696.13
407.6058, 17707.71
408.0879, 17724.45
408.5700, 17746.05
409.0521, 17772.85
409.5342, 17809.90
410.0164, 17856.02
410.4985, 17892.14
410.9806, 17904.37
411.4627, 17902.65
411.9448, 17916.62
412.4269, 17946.40
412.9091, 17982.38
413.3912, 18031.27
413.8733, 18079.06
414.3554, 18086.78
414.8375, 18022.82
415.3196, 17949.36
415.8018, 17952.22
416.2839, 18011.11
416.7660, 18050.05
417.2481, 18001.38
417.7302, 17923.85
418.2123, 17870.65
418.6945, 17852.04
419.1766, 17848.53
419.6587, 17868.02
420.1408, 17892.26
420.6229, 17893.62
421.1050, 17837.22
421.5872, 17779.57
422.0693, 17744.62
422.5514, 17733.97
423.0335, 17724.13
423.5156, 17709.15
423.9977, 17693.09
424.4799, 17678.54
424.9620, 17660.88
425.4441, 17650.43
425.9262, 17650.17
426.4083, 17657.33
426.8904, 17663.76
427.3726, 17678.37
427.8547, 17680.54
428.3368, 17658.14
428.8189, 17598.31
429.3010, 17559.52
429.7831, 17552.20
430.2653, 17554.46
430.7474, 17529.62
431.2295, 17468.54
431.7116, 17424.37
432.1937, 17415.39
432.6758, 17437.01
433.1580, 17466.27
433.6401, 17505.88
434.1222, 17536.35
434.6043, 17528.37
435.0864, 17490.70
435.5685, 17479.02
436.0507, 17509.72
436.5328, 17554.70
437.0149, 17564.42
437.4970, 17546.62
437.9791, 17537.91
438.4612, 17571.20
438.9434, 17621.12
439.4255, 17652.48
439.9076, 17661.82
440.3897, 17664.14
440.8718, 17675.17
441.3539, 17686.10
441.8361, 17684.57
442.3182, 17653.55
442.8003, 17621.42
443.2824, 17596.62
443.7645, 17581.39
444.2466, 17586.78
444.7288, 17652.69
445.2109, 17716.43
445.6930, 17735.43
446.1751, 17666.72
446.6572, 17618.28
447.1393, 17611.41
447.6215, 17632.22
448.1036, 17655.21
448.5857, 17693.45
449.0678, 17717.09
449.5499, 17714.98
450.0320, 17684.59
450.5142, 17659.99
450.9963, 17641.59
451.4784, 17629.07
451.9605, 17626.16
452.4426, 17639.25
452.9247, 17634.94
453.4069, 17603.07
453.8890, 17554.82
454.3711, 17520.67
454.8532, 17500.40
455.3353, 17491.39
455.8174, 17503.07
456.2996, 17527.76
456.7817, 17520.30
457.2638, 17473.97
457.7459, 17418.89
458.2280, 17395.32
458.7101, 17391.46
459.1923, 17371.97
459.6744, 17315.35
460.1565, 17243.22
460.6386, 17180.16
461.1207, 17125.22
461.6028, 17075.70
462.0850, 17039.95
462.5671, 17004.56
463.0492, 16956.44
463.5313, 16888.32
464.0135, 16819.71
464.4956, 16750.65
464.9777, 16689.01
465.4598, 16649.19
465.9419, 16669.95
466.4240, 16679.59
466.9062, 16640.49
467.3883, 16543.81
467.8704, 16485.21
468.3525, 16501.29
468.8346, 16533.21
469.3167, 16541.55
469.7989, 16508.81
470.2810, 16483.83
470.7631, 16475.11
471.2452, 16473.54
471.7273, 16452.09
472.2094, 16402.69
472.6916, 16358.50
473.1737, 16337.70
473.6558, 16339.94
474.1379, 16329.02
474.6200, 16303.56
475.1021, 16273.29
475.5843, 16247.77
476.0664, 16227.02
476.5485, 16207.82
477.0306, 16186.08
477.5127, 16170.28
477.9948, 16173.58
478.4770, 16194.86
478.9591, 16228.95
479.4412, 16292.13
479.9233, 16356.89
480.4054, 16383.00
480.8875, 16360.04
481.3697, 16335.88
481.8518, 16331.58
482.3339, 16346.35
482.8160, 16379.28
483.2981, 16454.93
483.7802, 16524.53
484.2624, 16566.44
484.7445, 16584.14
485.2266, 16598.68
485.7087, 16611.81
486.1908, 16624.46
486.6729, 16637.05
487.1551, 16649.88
487.6372, 16663.41
488.1193, 16685.43
488.6014, 16703.80
489.0835, 16696.01
489.5656, 16641.15
490.0478, 16616.74
490.5299, 16658.50
491.0120, 16750.54
491.4941, 16767.63
491.9762, 16695.49
492.4583, 16618.02
492.9405, 16608.05
493.4226, 16654.43
493.9047, 16673.42
494.3868, 16652.68
494.8689, 16614.40
495.3510, 16579.12
495.8332, 16548.94
496.3153, 16531.03
496.7974, 16539.34
497.2795, 16554.47
497.7616, 16555.22
498.2437, 16542.16
498.7259, 16524.02
499.2080, 16506.80
499.6901, 16486.12
500.1722, 16455.70
500.6543, 16403.92
501.1364, 16364.58
501.6186, 16359.31
502.1007, 16372.36
502.5828, 16375.95
503.0649, 16358.71
503.5470, 16339.12
504.0291, 16321.49
504.5113, 16305.88
504.9934, 16291.80
505.4755, 16270.96
505.9576, 16262.06
506.4397, 16283.36
506.9218, 16349.98
507.4040, 16389.88
507.8861, 16390.88
508.3682, 16372.41
508.8503, 16367.83
509.3324, 16376.98
509.8145, 16396.23
510.2967, 16427.56
510.7788, 16466.67
511.2609, 16503.55
511.7430, 16537.94
512.2252, 16564.41
512.7073, 16574.71
513.1894, 16574.77
513.6715, 16570.85
514.1536, 16557.20
514.6357, 16559.62
515.1179, 16626.27
515.6000, 16721.68
516.0821, 16777.70
516.5642, 16728.46
517.0463, 16669.44
517.5284, 16645.07
518.0106, 16656.39
518.4927, 16673.17
518.9748, 16697.43
519.4569, 16719.13
519.9390, 16730.54
520.4211, 16711.00
520.9033, 16718.13
521.3854, 16769.41
521.8675, 16837.88
522.3496, 16874.40
522.8317, 16865.84
523.3138, 16864.93
523.7960, 16889.07
524.2781, 16933.94
524.7602, 16970.23
525.2423, 16997.31
525.7244, 17023.92
526.2065, 17051.62
526.6887, 17083.52
527.1708, 17137.61
527.6529, 17220.55
528.1350, 17305.71
528.6171, 17356.45
529.0992, 17387.12
529.5814, 17429.83
530.0635, 17504.26
530.5456, 17590.81
531.0277, 17682.75
531.5098, 17776.76
531.9919, 17858.18
532.4741, 17906.12
532.9562, 17949.71
533.4383, 18009.72
533.9204, 18099.22
534.4025, 18175.69
534.8846, 18222.55
535.3668, 18257.94
535.8489, 18302.10
536.3310, 18369.65
536.8131, 18422.90
537.2952, 18452.35
537.7773, 18464.11
538.2595, 18484.40
538.7416, 18514.78
539.2237, 18551.50
539.7058, 18595.14
540.1879, 18645.59
540.6700, 18693.16
541.1522, 18738.81
541.6343, 18774.31
542.1164, 18778.08
542.5985, 18762.46
543.0806, 18765.97
543.5627, 18810.17
544.0449, 18858.94
544.5270, 18871.95
545.0091, 18858.47
545.4912, 18845.04
545.9733, 18852.40
546.4554, 18857.88
546.9376, 18842.10
547.4197, 18802.00
547.9018, 18772.84
548.3839, 18788.09
548.8660, 18804.08
549.3481, 18787.80
549.8303, 18704.50
550.3124, 18636.32
550.7945, 18587.91
551.2766, 18554.76
551.7587, 18529.51
552.2408, 18517.59
552.7230, 18497.23
553.2051, 18453.48
553.6872, 18393.98
554.1693, 18380.35
554.6514, 18418.52
555.1335, 18447.60
555.6157, 18397.66
556.0978, 18299.22
556.5799, 18255.63
557.0620, 18288.50
557.5441, 18330.30
558.0262, 18306.72
558.5084, 18242.75
558.9905, 18185.30
559.4726, 18143.16
559.9547, 18120.80
560.4368, 18130.62
560.9189, 18165.46
561.4011, 18196.23
561.8832, 18211.09
562.3653, 18222.53
562.8474, 18237.44
563.3295, 18259.05
563.8116, 18272.96
564.2938, 18266.95
564.7759, 18263.91
565.2580, 18287.67
565.7401, 18351.09
566.2222, 18400.44
566.7043, 18426.14
567.1865, 18438.22
567.6686, 18454.45
568.1507, 18474.59
568.6328, 18510.11
569.1149, 18575.17
569.5970, 18657.34
570.0792, 18721.21
570.5613, 18767.55
571.0434, 18816.19
571.5255, 18890.49
572.0076, 18972.17
572.4897, 19041.44
572.9719, 19094.86
573.4540, 19132.57
573.9361, 19141.42
574.4182, 19138.01
574.9003, 19144.49
575.3824, 19200.00
575.8646, 19229.17
576.3467, 19198.04
576.8288, 19121.11
577.3109, 19066.79
577.7930, 19045.34
578.2751, 19032.85
578.7573, 19023.15
579.2394, 19017.56
579.7215, 18999.67
580.2036, 18967.16
580.6857, 18929.64
581.1678, 18898.90
581.6500, 18873.34
582.1321, 18838.08
582.6142, 18790.18
583.0963, 18733.58
583.5784, 18663.56
584.0605, 18587.95
584.5427, 18526.19
585.0248, 18504.20
585.5069, 18487.51
585.9890, 18448.85
586.4711, 18390.49
586.9532, 18328.68
587.4354, 18263.66
587.9175, 18201.58
588.3996, 18145.46
588.8817, 18095.10
589.3638, 18052.30
589.8459, 18024.93
590.3281, 17998.32
590.8102, 17957.21
591.2923, 17898.23
591.7744, 17832.42
592.2565, 17755.63
592.7386, 17677.36
593.2208, 17626.05
593.7029, 17602.34
594.1850, 17571.88
594.6671, 17511.21
595.1492, 17435.59
595.6313, 17381.97
596.1135, 17349.41
596.5956, 17323.00
597.0777, 17298.69
597.5598, 17271.42
598.0419, 17233.34
598.5240, 17179.42
599.0062, 17130.94
599.4883, 17106.84
599.9704, 17089.49
600.4525, 17058.79
600.9346, 16983.62
601.4167, 16927.40
601.8989, 16901.85
602.3810, 16900.05
602.8631, 16903.46
603.3452, 16915.00
603.8273, 16924.45
604.3094, 16930.18
604.7916, 16931.12
605.2737, 16915.76
605.7558, 16882.18
606.2379, 16844.10
606.7200, 16805.39
607.2021, 16770.17
607.6843, 16756.33
608.1664, 16770.13
608.6485, 16781.58
609.1306, 16757.46
609.6127, 16714.18
610.0948, 16675.76
610.5770, 16646.48
611.0591, 16628.96
611.5412, 16635.76
612.0233, 16656.07
612.5054, 16661.12
612.9875, 16633.29
613.4697, 16600.94
613.9518, 16565.77
614.4339, 16527.43
614.9160, 16522.76
615.3981, 16566.76
615.8802, 16614.98
616.3624, 16637.48
616.8445, 16633.51
617.3266, 16631.63
617.8087, 16634.34
618.2908, 16634.29
618.7729, 16613.57
619.2551, 16582.24
619.7372, 16571.87
620.2193, 16600.52
620.7014, 16637.43
621.1835, 16652.49
621.6656, 16653.28
622.1478, 16658.08
622.6299, 16682.89
623.1120, 16705.79
623.5941, 16714.40
624.0762, 16709.08
624.5583, 16708.67
625.0405, 16706.92
625.5226, 16719.03
626.0047, 16756.71
626.4868, 16830.21
626.9689, 16880.13
627.4510, 16899.25
627.9332, 16909.20
628.4153, 16935.74
628.8974, 16977.14
