##NAMES=Lomonosovite
##RRUFFID=R070465
##IDEAL CHEMISTRY=Na_6_Na_2_Ti^4+^_2_Na_2_Ti^4+^_2_(Si_2_O_7_)_2_(PO_4_)_2_O_4_
##LOCALITY=Apatitovyi Tsirk (Apatite Circus), Rasvumchorr Mountain, Khibiny Massif, Kola Peninsula, Murmanskaja Oblast', Northern Region, Russia
##OWNER=RRUFF
##SOURCE=Michael Scott
##DESCRIPTION=Light tan platy crystals associated with orthoclase and lamprophyllite
##STATUS=The identification of this mineral is confirmed by single-crystal X-ray diffraction and chemical analysis.
##URL=rruff.info/R070465
##MEASURED CHEMISTRY=(Na_4.77_Ca_0.20_Mn_0.03_)_Σ=5_(Ti_1.79_Fe^3+^_0.19_Mg_0.02_)_Σ=2_(Si_2.00_O_7_)(P_1.00_O_4_)O_2_
145.5055, 9101.281
145.9876, 9462.577
146.4697, 9789.598
146.9518, 10068.99
147.4340, 10331.05
147.9161, 10647.52
148.3982, 11050.28
148.8803, 11413.41
149.3624, 11703.58
149.8445, 11935.13
150.3267, 12129.17
150.8088, 12287.86
151.2909, 12424.22
151.7730, 12571.95
152.2551, 12749.68
152.7372, 12884.03
153.2194, 12927.18
153.7015, 12903.61
154.1836, 12874.36
154.6657, 12857.44
155.1478, 12847.26
155.6299, 12836.44
156.1121, 12827.47
156.5942, 12810.10
157.0763, 12763.60
157.5584, 12699.95
158.0405, 12666.89
158.5226, 12687.22
159.0048, 12739.97
159.4869, 12791.55
159.9690, 12840.33
160.4511, 12894.54
160.9332, 12960.10
161.4153, 13007.55
161.8975, 12982.51
162.3796, 12933.24
162.8617, 12874.78
163.3438, 12825.24
163.8259, 12787.13
164.3080, 12748.69
164.7902, 12705.82
165.2723, 12658.59
165.7544, 12598.29
166.2365, 12510.34
166.7186, 12421.56
167.2007, 12361.57
167.6829, 12334.99
168.1650, 12306.23
168.6471, 12246.90
169.1292, 12158.03
169.6113, 12059.27
170.0934, 11949.46
170.5756, 11836.81
171.0577, 11724.10
171.5398, 11611.84
172.0219, 11506.80
172.5040, 11414.59
172.9861, 11334.85
173.4683, 11265.53
173.9504, 11208.47
174.4325, 11159.25
174.9146, 11121.09
175.3967, 11092.86
175.8788, 11057.59
176.3610, 10988.67
176.8431, 10880.01
177.3252, 10796.19
177.8073, 10767.11
178.2894, 10751.89
178.7715, 10729.34
179.2537, 10696.85
179.7358, 10662.61
180.2179, 10636.89
180.7000, 10621.48
181.1821, 10598.85
181.6642, 10553.70
182.1464, 10510.37
182.6285, 10484.70
183.1106, 10476.43
183.5927, 10469.94
184.0748, 10446.45
184.5569, 10402.23
185.0391, 10367.37
185.5212, 10360.91
186.0033, 10351.82
186.4854, 10321.12
186.9675, 10270.42
187.4496, 10219.24
187.9318, 10185.49
188.4139, 10170.55
188.8960, 10165.33
189.3781, 10186.53
189.8602, 10203.77
190.3423, 10201.57
190.8245, 10181.45
191.3066, 10156.57
191.7887, 10141.25
192.2708, 10138.10
192.7529, 10125.64
193.2350, 10091.52
193.7172, 10058.05
194.1993, 10031.05
194.6814, 10011.95
195.1635, 10001.61
195.6456, 10003.53
196.1277, 10019.64
196.6099, 10028.26
197.0920, 10023.80
197.5741, 10016.65
198.0562, 10005.76
198.5383, 9994.414
199.0204, 9990.295
199.5026, 10002.57
199.9847, 10032.31
200.4668, 10050.16
200.9489, 10049.70
201.4310, 10042.37
201.9131, 10026.46
202.3953, 10005.78
202.8774, 9987.378
203.3595, 9976.551
203.8416, 9973.056
204.3237, 9971.566
204.8058, 9973.889
205.2880, 9976.414
205.7701, 9984.403
206.2522, 9991.473
206.7343, 9985.245
207.2164, 9954.647
207.6985, 9903.511
208.1807, 9866.879
208.6628, 9853.778
209.1449, 9846.321
209.6270, 9849.234
210.1091, 9853.424
210.5912, 9843.719
211.0734, 9808.723
211.5555, 9756.293
212.0376, 9725.243
212.5197, 9741.009
213.0018, 9746.336
213.4839, 9720.598
213.9661, 9681.873
214.4482, 9653.721
214.9303, 9648.373
215.4124, 9658.819
215.8945, 9663.893
216.3766, 9669.530
216.8587, 9659.158
217.3409, 9617.627
217.8230, 9566.401
218.3051, 9527.840
218.7872, 9511.243
219.2693, 9508.849
219.7514, 9505.299
220.2336, 9509.746
220.7157, 9494.986
221.1978, 9444.007
221.6799, 9383.808
222.1620, 9337.071
222.6441, 9310.560
223.1263, 9296.785
223.6084, 9284.283
224.0905, 9276.117
224.5726, 9261.999
225.0547, 9240.315
225.5368, 9214.189
226.0190, 9181.236
226.5011, 9142.968
226.9832, 9109.008
227.4653, 9096.340
227.9474, 9117.058
228.4296, 9121.653
228.9117, 9091.224
229.3938, 9059.263
229.8759, 9049.758
230.3580, 9060.836
230.8401, 9068.409
231.3223, 9041.745
231.8044, 8970.899
232.2865, 8919.762
232.7686, 8902.439
233.2507, 8893.427
233.7328, 8882.696
234.2150, 8871.310
234.6971, 8867.041
235.1792, 8881.486
235.6613, 8915.104
236.1434, 8924.277
236.6255, 8870.089
237.1077, 8830.908
237.5898, 8848.993
238.0719, 8900.805
238.5540, 8935.244
239.0361, 8911.755
239.5182, 8842.745
240.0004, 8807.008
240.4825, 8830.196
240.9646, 8853.755
241.4467, 8857.933
241.9288, 8852.188
242.4109, 8851.097
242.8931, 8863.486
243.3752, 8882.981
243.8573, 8889.318
244.3394, 8869.730
244.8215, 8862.875
245.3036, 8894.366
245.7858, 8935.276
246.2679, 8954.074
246.7500, 8938.077
247.2321, 8904.818
247.7142, 8879.558
248.1963, 8858.283
248.6785, 8858.420
249.1606, 8912.398
249.6427, 8971.484
250.1248, 8994.814
250.6069, 8972.920
251.0890, 8943.105
251.5712, 8955.173
252.0533, 9016.338
252.5354, 9055.221
253.0175, 9030.787
253.4996, 9003.102
253.9817, 9014.912
254.4639, 9066.213
254.9460, 9119.260
255.4281, 9137.674
255.9102, 9124.615
256.3923, 9126.163
256.8745, 9152.476
257.3566, 9187.507
257.8387, 9225.985
258.3208, 9265.188
258.8029, 9294.877
259.2850, 9301.549
259.7672, 9293.473
260.2493, 9300.915
260.7314, 9332.960
261.2135, 9362.493
261.6956, 9366.468
262.1777, 9356.772
262.6599, 9356.353
263.1420, 9378.883
263.6241, 9412.420
264.1062, 9442.014
264.5883, 9469.677
265.0704, 9483.164
265.5526, 9461.558
266.0347, 9425.958
266.5168, 9407.474
266.9989, 9419.490
267.4810, 9438.082
267.9631, 9441.590
268.4453, 9430.551
268.9274, 9414.685
269.4095, 9395.297
269.8916, 9374.625
270.3737, 9355.644
270.8558, 9338.022
271.3380, 9322.918
271.8201, 9312.340
272.3022, 9304.806
272.7843, 9297.216
273.2664, 9291.403
273.7485, 9279.729
274.2307, 9246.470
274.7128, 9190.522
275.1949, 9142.047
275.6770, 9117.896
276.1591, 9104.336
276.6412, 9077.089
277.1234, 9030.021
277.6055, 8987.926
278.0876, 8983.409
278.5697, 9016.128
279.0518, 9024.640
279.5339, 8974.351
280.0161, 8918.586
280.4982, 8908.989
280.9803, 8943.466
281.4624, 8976.681
281.9445, 8975.759
282.4266, 8943.872
282.9088, 8920.330
283.3909, 8912.174
283.8730, 8904.324
284.3551, 8882.805
284.8372, 8856.307
285.3193, 8849.324
285.8015, 8877.978
286.2836, 8926.133
286.7657, 8940.663
287.2478, 8882.679
287.7299, 8844.454
288.2120, 8853.669
288.6942, 8882.802
289.1763, 8896.404
289.6584, 8883.816
290.1405, 8864.369
290.6226, 8869.480
291.1047, 8916.331
291.5869, 8952.084
292.0690, 8966.795
292.5511, 8978.711
293.0332, 9007.000
293.5153, 9049.069
293.9974, 9080.504
294.4796, 9071.732
294.9617, 9013.222
295.4438, 8995.604
295.9259, 9064.015
296.4080, 9125.141
296.8901, 9138.981
297.3723, 9120.256
297.8544, 9103.128
298.3365, 9109.275
298.8186, 9135.035
299.3007, 9161.167
299.7828, 9186.962
300.2650, 9214.057
300.7471, 9246.452
301.2292, 9278.482
301.7113, 9303.505
302.1934, 9318.983
302.6755, 9328.458
303.1577, 9336.580
303.6398, 9341.046
304.1219, 9351.605
304.6040, 9384.153
305.0861, 9412.846
305.5682, 9417.193
306.0504, 9397.009
306.5325, 9373.498
307.0146, 9368.354
307.4967, 9381.038
307.9788, 9387.581
308.4609, 9383.313
308.9431, 9376.748
309.4252, 9376.819
309.9073, 9379.394
310.3894, 9372.747
310.8715, 9347.408
311.3536, 9309.877
311.8358, 9272.014
312.3179, 9231.240
312.8000, 9199.125
313.2821, 9190.043
313.7642, 9191.540
314.2463, 9186.276
314.7285, 9169.375
315.2106, 9147.473
315.6927, 9125.053
316.1748, 9102.336
316.6569, 9080.392
317.1390, 9059.284
317.6212, 9039.549
318.1033, 9019.416
318.5854, 8995.695
319.0675, 8984.954
319.5496, 9014.311
320.0317, 9055.309
320.5139, 9051.314
320.9960, 8986.971
321.4781, 8914.562
321.9602, 8893.099
322.4423, 8928.985
322.9244, 8953.408
323.4066, 8958.126
323.8887, 8954.394
324.3708, 8944.978
324.8529, 8932.799
325.3350, 8927.356
325.8171, 8935.814
326.2993, 8956.450
326.7814, 8975.951
327.2635, 9000.021
327.7456, 9016.645
328.2277, 9016.760
328.7098, 9009.502
329.1920, 9007.632
329.6741, 9016.145
330.1562, 9030.657
330.6383, 9042.955
331.1204, 9053.211
331.6025, 9060.771
332.0847, 9063.292
332.5668, 9065.446
333.0489, 9068.568
333.5310, 9073.948
334.0131, 9084.596
334.4952, 9104.623
334.9774, 9134.618
335.4595, 9161.685
335.9416, 9192.052
336.4237, 9212.087
336.9058, 9201.570
337.3879, 9180.767
337.8701, 9185.974
338.3522, 9241.104
338.8343, 9322.159
339.3164, 9370.433
339.7985, 9372.901
340.2806, 9380.536
340.7627, 9415.268
341.2448, 9457.343
341.7270, 9492.385
342.2091, 9517.780
342.6912, 9535.569
343.1733, 9538.423
343.6554, 9530.472
344.1375, 9548.559
344.6197, 9615.824
345.1018, 9682.852
345.5839, 9701.605
346.0660, 9681.298
346.5481, 9663.696
347.0302, 9670.750
347.5124, 9684.860
347.9945, 9677.265
348.4766, 9646.733
348.9587, 9626.993
349.4408, 9644.717
349.9229, 9688.402
350.4051, 9711.952
350.8872, 9705.615
351.3693, 9692.755
351.8514, 9687.571
352.3335, 9682.605
352.8156, 9658.059
353.2978, 9605.303
353.7799, 9545.417
354.2620, 9514.056
354.7441, 9532.211
355.2262, 9532.345
355.7083, 9501.444
356.1905, 9461.778
356.6726, 9428.969
357.1547, 9403.716
357.6368, 9378.979
358.1189, 9348.838
358.6010, 9313.378
359.0832, 9277.016
359.5653, 9234.460
360.0474, 9196.761
360.5295, 9171.918
361.0116, 9151.609
361.4937, 9125.383
361.9759, 9088.811
362.4580, 9044.229
362.9401, 8992.688
363.4222, 8927.279
363.9043, 8875.883
364.3864, 8854.010
364.8686, 8837.506
365.3507, 8810.781
365.8328, 8774.598
366.3149, 8742.052
366.7970, 8725.771
367.2791, 8722.567
367.7613, 8716.887
368.2434, 8710.191
368.7255, 8697.276
369.2076, 8670.974
369.6897, 8637.381
370.1718, 8605.514
370.6540, 8577.051
371.1361, 8551.885
371.6182, 8529.174
372.1003, 8509.289
372.5824, 8494.908
373.0645, 8487.521
373.5467, 8485.416
374.0288, 8485.605
374.5109, 8487.310
374.9930, 8493.928
375.4751, 8511.699
375.9572, 8532.097
376.4394, 8544.384
376.9215, 8547.691
377.4036, 8550.064
377.8857, 8558.615
378.3678, 8573.364
378.8499, 8584.115
379.3321, 8590.749
379.8142, 8594.261
380.2963, 8594.005
380.7784, 8591.002
381.2605, 8586.888
381.7426, 8582.366
382.2248, 8576.585
382.7069, 8566.128
383.1890, 8540.420
383.6711, 8533.087
384.1532, 8554.083
384.6353, 8583.516
385.1175, 8618.158
385.5996, 8652.117
386.0817, 8671.382
386.5638, 8659.471
387.0459, 8622.070
387.5280, 8595.265
388.0102, 8577.216
388.4923, 8574.049
388.9744, 8605.402
389.4565, 8645.367
389.9386, 8656.935
390.4207, 8622.403
390.9029, 8585.070
391.3850, 8598.871
391.8671, 8655.257
392.3492, 8687.356
392.8313, 8674.690
393.3134, 8639.879
393.7956, 8598.875
394.2777, 8552.210
394.7598, 8526.900
395.2419, 8543.979
395.7240, 8576.176
396.2061, 8602.664
396.6883, 8620.829
397.1704, 8625.487
397.6525, 8611.190
398.1346, 8582.074
398.6167, 8557.120
399.0988, 8529.813
399.5810, 8514.336
400.0631, 8529.149
400.5452, 8549.545
401.0273, 8543.371
401.5094, 8504.816
401.9915, 8459.376
402.4737, 8439.488
402.9558, 8452.232
403.4379, 8453.114
403.9200, 8427.476
404.4021, 8404.551
404.8842, 8398.274
405.3664, 8400.915
405.8485, 8396.101
406.3306, 8373.818
406.8127, 8344.007
407.2948, 8328.997
407.7769, 8332.720
408.2591, 8333.490
408.7412, 8319.032
409.2233, 8304.733
409.7054, 8305.044
410.1875, 8320.308
410.6696, 8334.689
411.1518, 8339.640
411.6339, 8337.251
412.1160, 8326.168
412.5981, 8303.790
413.0802, 8296.698
413.5623, 8334.740
414.0445, 8403.694
414.5266, 8437.334
415.0087, 8412.143
415.4908, 8379.738
415.9729, 8358.635
416.4550, 8345.498
416.9372, 8333.512
417.4193, 8320.474
417.9014, 8311.903
418.3835, 8317.199
418.8656, 8344.783
419.3477, 8356.723
419.8299, 8340.162
420.3120, 8322.820
420.7941, 8327.935
421.2762, 8342.380
421.7583, 8332.357
422.2404, 8274.654
422.7226, 8191.341
423.2047, 8144.424
423.6868, 8148.394
424.1689, 8154.176
424.6510, 8159.304
425.1331, 8158.375
425.6153, 8140.514
426.0974, 8107.567
426.5795, 8083.933
427.0616, 8100.277
427.5437, 8139.357
428.0258, 8145.131
428.5080, 8108.324
428.9901, 8067.346
429.4722, 8048.170
429.9543, 8041.179
430.4364, 8020.912
430.9185, 7969.107
431.4007, 7929.506
431.8828, 7936.500
432.3649, 7968.818
432.8470, 7987.139
433.3291, 7980.858
433.8112, 7960.455
434.2934, 7935.900
434.7755, 7903.688
435.2576, 7888.357
435.7397, 7903.020
436.2218, 7919.041
436.7039, 7924.014
437.1861, 7921.193
437.6682, 7918.769
438.1503, 7920.934
438.6324, 7924.504
439.1145, 7921.129
439.5966, 7905.909
440.0788, 7898.205
440.5609, 7917.115
441.0430, 7930.393
441.5251, 7910.074
442.0072, 7864.099
442.4893, 7831.125
442.9715, 7846.772
443.4536, 7887.137
443.9357, 7896.474
444.4178, 7870.517
444.8999, 7849.375
445.3820, 7856.914
445.8642, 7876.984
446.3463, 7878.252
446.8284, 7855.807
447.3105, 7830.251
447.7926, 7806.469
448.2747, 7785.324
448.7569, 7769.125
449.2390, 7757.868
449.7211, 7746.749
450.2032, 7730.305
450.6853, 7709.162
451.1674, 7701.453
451.6496, 7729.241
452.1317, 7743.275
452.6138, 7723.595
453.0959, 7689.465
453.5780, 7664.535
454.0602, 7655.075
454.5423, 7648.091
455.0244, 7620.440
455.5065, 7567.132
455.9886, 7548.086
456.4707, 7601.334
456.9529, 7639.393
457.4350, 7605.562
457.9171, 7532.505
458.3992, 7481.084
458.8813, 7475.620
459.3634, 7490.992
459.8456, 7510.633
460.3277, 7531.343
460.8098, 7534.046
461.2919, 7511.809
461.7740, 7473.653
462.2561, 7423.485
462.7383, 7358.912
463.2204, 7317.327
463.7025, 7320.431
464.1846, 7331.341
464.6667, 7329.629
465.1488, 7316.352
465.6310, 7296.582
466.1131, 7272.400
466.5952, 7247.515
467.0773, 7230.105
467.5594, 7220.891
468.0415, 7218.466
468.5237, 7231.698
469.0058, 7243.249
469.4879, 7247.549
469.9700, 7242.023
470.4521, 7220.858
470.9342, 7172.417
471.4164, 7113.785
471.8985, 7089.985
472.3806, 7106.892
472.8627, 7120.209
473.3448, 7114.634
473.8269, 7098.315
474.3091, 7078.295
474.7912, 7053.286
475.2733, 7040.423
475.7554, 7061.791
476.2375, 7089.627
476.7196, 7087.017
477.2018, 7055.078
477.6839, 7022.741
478.1660, 7007.184
478.6481, 7005.608
479.1302, 7006.994
479.6123, 7017.303
480.0945, 7022.575
480.5766, 7019.013
481.0587, 7012.493
481.5408, 7006.839
482.0229, 7002.905
482.5050, 7000.455
482.9872, 6999.164
483.4693, 6999.201
483.9514, 7002.771
484.4335, 7013.982
484.9156, 7019.042
485.3977, 7004.921
485.8799, 6986.764
486.3620, 6978.339
486.8441, 6981.701
487.3262, 6990.528
487.8083, 7005.846
488.2904, 7022.691
488.7726, 7032.839
489.2547, 7035.473
489.7368, 7028.803
490.2189, 7006.167
490.7010, 6974.545
491.1831, 6970.242
491.6653, 7027.115
492.1474, 7062.968
492.6295, 7054.033
493.1116, 7025.054
493.5937, 6996.743
494.0758, 6973.657
494.5580, 6950.439
495.0401, 6918.816
495.5222, 6881.893
496.0043, 6877.208
496.4864, 6931.158
496.9685, 6969.132
497.4507, 6959.195
497.9328, 6928.939
498.4149, 6901.834
498.8970, 6881.695
499.3791, 6868.100
499.8612, 6862.085
500.3434, 6862.049
500.8255, 6868.588
501.3076, 6882.470
501.7897, 6885.167
502.2718, 6857.506
502.7539, 6810.391
503.2361, 6793.631
503.7182, 6831.937
504.2003, 6861.273
504.6824, 6863.745
505.1645, 6855.319
505.6466, 6849.807
506.1288, 6849.991
506.6109, 6854.099
507.0930, 6861.981
507.5751, 6872.204
508.0572, 6871.944
508.5393, 6850.558
509.0215, 6838.946
509.5036, 6858.644
509.9857, 6882.558
510.4678, 6882.963
510.9499, 6856.649
511.4320, 6832.914
511.9142, 6836.357
512.3963, 6853.736
512.8784, 6858.465
513.3605, 6848.991
513.8427, 6837.086
514.3248, 6829.759
514.8069, 6824.485
515.2890, 6812.223
515.7711, 6778.632
516.2532, 6764.485
516.7354, 6792.255
517.2175, 6828.737
517.6996, 6847.959
518.1817, 6848.580
518.6638, 6840.007
519.1459, 6826.634
519.6281, 6813.087
520.1102, 6818.133
520.5923, 6849.192
521.0744, 6879.679
521.5565, 6904.040
522.0386, 6925.433
522.5208, 6949.159
523.0029, 6973.789
523.4850, 6986.380
523.9671, 6965.127
524.4492, 6937.248
524.9313, 6938.136
525.4135, 6966.608
525.8956, 7010.540
526.3777, 7069.010
526.8598, 7129.856
527.3419, 7169.624
527.8240, 7176.524
528.3062, 7189.157
528.7883, 7200.467
529.2704, 7223.963
529.7525, 7278.606
530.2346, 7350.695
530.7167, 7409.706
531.1989, 7439.632
531.6810, 7454.833
532.1631, 7482.459
532.6452, 7524.679
533.1273, 7562.465
533.6094, 7590.167
534.0916, 7616.894
534.5737, 7650.369
535.0558, 7688.405
535.5379, 7723.772
536.0200, 7751.899
536.5021, 7779.716
536.9843, 7815.997
537.4664, 7855.083
537.9485, 7880.686
538.4306, 7887.943
538.9127, 7896.364
539.3948, 7931.179
539.8770, 7996.977
540.3591, 8039.274
540.8412, 8031.030
541.3233, 8031.203
541.8054, 8064.063
542.2875, 8107.481
542.7697, 8136.976
543.2518, 8145.859
543.7339, 8141.234
544.2160, 8119.768
544.6981, 8088.796
545.1802, 8087.966
545.6624, 8127.917
546.1445, 8157.104
546.6266, 8141.738
547.1087, 8097.623
547.5908, 8064.678
548.0729, 8043.030
548.5551, 8030.962
549.0372, 8040.466
549.5193, 8050.731
550.0014, 8038.927
550.4835, 8006.675
550.9656, 7970.855
551.4478, 7941.879
551.9299, 7919.691
552.4120, 7905.484
552.8941, 7905.527
553.3762, 7897.754
553.8583, 7868.950
554.3405, 7839.404
554.8226, 7823.868
555.3047, 7818.877
555.7868, 7808.497
556.2689, 7787.616
556.7510, 7756.365
557.2332, 7706.149
557.7153, 7643.716
558.1974, 7597.550
558.6795, 7577.151
559.1616, 7571.237
559.6437, 7566.338
560.1259, 7561.973
560.6080, 7562.802
561.0901, 7578.341
561.5722, 7587.629
562.0543, 7580.780
562.5364, 7565.222
563.0186, 7545.481
563.5007, 7524.435
563.9828, 7515.532
564.4649, 7543.566
564.9470, 7600.646
565.4291, 7630.848
565.9113, 7626.158
566.3934, 7618.800
566.8755, 7622.583
567.3576, 7635.871
567.8397, 7654.509
568.3218, 7679.821
568.8040, 7706.174
569.2861, 7734.433
569.7682, 7760.954
570.2503, 7780.755
570.7324, 7795.293
571.2145, 7809.840
571.6967, 7827.358
572.1788, 7848.206
572.6609, 7874.977
573.1430, 7912.704
573.6251, 7940.226
574.1072, 7949.705
574.5894, 7953.943
575.0715, 7957.297
575.5536, 7961.049
576.0357, 7968.607
576.5178, 7986.019
576.9999, 7999.780
577.4821, 7997.422
577.9642, 7982.845
578.4463, 7966.060
578.9284, 7949.242
579.4105, 7926.252
579.8926, 7889.058
580.3748, 7838.875
580.8569, 7803.831
581.3390, 7797.123
581.8211, 7789.818
582.3032, 7778.308
582.7853, 7765.180
583.2675, 7756.552
583.7496, 7750.565
584.2317, 7734.184
584.7138, 7691.005
585.1959, 7634.984
585.6780, 7596.836
586.1602, 7576.391
586.6422, 7557.728
587.1243, 7538.109
587.6064, 7512.829
588.0886, 7474.548
588.5707, 7421.132
589.0528, 7365.440
589.5349, 7302.137
590.0170, 7242.313
590.4991, 7187.972
590.9813, 7141.888
591.4634, 7112.140
591.9455, 7099.954
592.4276, 7087.911
592.9097, 7052.660
593.3918, 6996.293
593.8740, 6945.345
594.3561, 6898.477
594.8382, 6861.252
595.3203, 6849.148
595.8024, 6840.951
596.2845, 6798.126
596.7667, 6709.565
597.2488, 6630.436
597.7309, 6580.238
598.2130, 6542.780
598.6951, 6504.020
599.1772, 6465.236
599.6594, 6436.138
600.1415, 6421.898
600.6236, 6413.419
601.1057, 6393.606
601.5878, 6360.635
602.0699, 6326.022
602.5521, 6288.140
603.0342, 6251.726
603.5163, 6218.007
603.9984, 6187.661
604.4805, 6160.817
604.9626, 6136.335
605.4448, 6119.217
605.9269, 6120.431
606.4090, 6126.660
606.8911, 6119.575
607.3732, 6097.640
607.8553, 6066.396
608.3375, 6028.433
608.8196, 5986.906
609.3017, 5950.398
609.7838, 5915.792
610.2659, 5893.245
610.7480, 5888.871
611.2302, 5891.749
611.7123, 5903.854
612.1944, 5918.726
612.6765, 5921.590
613.1586, 5903.950
613.6407, 5880.217
614.1229, 5861.373
614.6050, 5846.185
615.0871, 5831.289
615.5692, 5816.188
616.0513, 5803.086
616.5334, 5794.418
617.0156, 5788.833
617.4977, 5778.546
617.9798, 5753.599
618.4619, 5739.657
618.9440, 5741.024
619.4261, 5750.724
619.9083, 5770.212
620.3904, 5794.368
620.8725, 5809.787
621.3546, 5807.158
621.8367, 5797.501
622.3188, 5796.070
622.8010, 5799.179
623.2831, 5788.567
623.7652, 5758.754
624.2473, 5733.935
624.7294, 5738.028
625.2115, 5767.716
625.6937, 5784.346
626.1758, 5771.299
626.6579, 5766.994
627.1400, 5783.462
627.6221, 5803.309
628.1042, 5812.501
628.5864, 5811.706
629.0685, 5809.722
629.5506, 5810.223
630.0327, 5814.143
630.5148, 5823.370
630.9969, 5837.496
631.4791, 5854.934
631.9612, 5876.203
632.4433, 5895.820
632.9254, 5908.767
633.4075, 5915.151
633.8896, 5917.126
634.3718, 5908.801
634.8539, 5904.048
635.3360, 5911.862
635.8181, 5918.955
