##NAMES=Lorandite
##RRUFFID=R110055
##IDEAL CHEMISTRY=Tl^1+^As^3+^S^2-^_2_
##LOCALITY=Xingren County, Qianxi'nan Autonomous Prefecture, Guizhou Province, China
##OWNER=RRUFF
##SOURCE=Don Doell
##DESCRIPTION=Red platy crystals and cleavages
##STATUS=The identification of this mineral has been confirmed by single-crystal X-ray diffraction.
##URL=rruff.info/R110055
88.13672, 62.42682
88.61884, 62.76818
89.10095, 63.37970
89.58307, 64.67194
90.06519, 66.40527
90.54730, 68.16105
91.02942, 70.07711
91.51154, 71.73852
91.99365, 72.53761
92.47577, 72.61994
92.95789, 72.65020
93.44000, 73.11256
93.92212, 73.82595
94.40424, 74.44267
94.88635, 74.94624
95.36847, 75.46355
95.85059, 76.25573
96.33270, 77.32944
96.81482, 78.47787
97.29694, 79.40150
97.77905, 80.11217
98.26117, 81.11880
98.74329, 82.54855
99.22540, 84.36637
99.70752, 86.45943
100.1896, 88.82645
100.6718, 91.39083
101.1539, 94.04575
101.6360, 96.82249
102.1181, 99.62875
102.6002, 102.3737
103.0823, 105.0011
103.5645, 107.9465
104.0466, 111.4976
104.5287, 115.2022
105.0108, 118.3237
105.4929, 120.8506
105.9750, 122.8317
106.4572, 124.2749
106.9393, 125.1712
107.4214, 125.6042
107.9035, 125.4656
108.3856, 124.8690
108.8677, 124.1998
109.3499, 123.2245
109.8320, 122.3516
110.3141, 121.7568
110.7962, 121.5821
111.2783, 121.5194
111.7604, 121.5525
112.2426, 121.6797
112.7247, 121.8907
113.2068, 122.1571
113.6889, 122.5188
114.1710, 123.0006
114.6531, 123.7290
115.1353, 124.4573
115.6174, 125.0515
116.0995, 125.5088
116.5816, 126.1478
117.0637, 127.4159
117.5458, 128.8172
118.0280, 129.8279
118.5101, 129.5887
118.9922, 129.3533
119.4743, 130.0253
119.9564, 131.7655
120.4385, 133.4450
120.9207, 134.0768
121.4028, 134.1745
121.8849, 134.6464
122.3670, 136.4433
122.8491, 138.6160
123.3312, 140.1289
123.8134, 140.7804
124.2955, 141.1199
124.7776, 141.4120
125.2597, 141.7503
125.7418, 142.4406
126.2239, 143.7550
126.7061, 145.5627
127.1882, 147.6195
127.6703, 150.0099
128.1524, 152.4581
128.6345, 154.4972
129.1166, 156.1632
129.5988, 157.8515
130.0809, 159.9113
130.5630, 162.2570
131.0451, 164.5479
131.5272, 166.7210
132.0093, 168.7546
132.4915, 170.6250
132.9736, 172.3219
133.4557, 173.8844
133.9378, 175.4332
134.4199, 176.9596
134.9020, 177.9887
135.3842, 178.3046
135.8663, 178.0030
136.3484, 177.6595
136.8305, 177.3037
137.3126, 176.7927
137.7947, 176.0356
138.2769, 175.0613
138.7590, 173.6320
139.2411, 171.6410
139.7232, 169.0533
140.2053, 166.3096
140.6874, 163.3312
141.1696, 160.2506
141.6517, 157.2357
142.1338, 154.1573
142.6159, 151.4075
143.0980, 149.0553
143.5801, 147.1074
144.0623, 145.6815
144.5444, 145.0215
145.0265, 144.7569
145.5086, 144.2396
145.9907, 143.0760
146.4728, 142.1921
146.9550, 141.9682
147.4371, 142.9096
147.9192, 143.3528
148.4013, 142.8975
148.8834, 141.9880
149.3655, 141.5949
149.8477, 142.0239
150.3298, 142.7110
150.8119, 143.4547
151.2940, 144.2246
151.7761, 145.0948
152.2583, 146.0911
152.7404, 147.1810
153.2225, 148.2850
153.7046, 149.4921
154.1867, 150.6344
154.6688, 151.6241
155.1510, 152.2105
155.6331, 152.9596
156.1152, 154.0158
156.5973, 155.3204
157.0794, 156.6207
157.5615, 157.9188
158.0437, 159.1770
158.5258, 160.3745
159.0079, 161.3674
159.4900, 162.4448
159.9721, 163.6362
160.4542, 164.9569
160.9364, 166.4967
161.4185, 168.5454
161.9006, 170.7030
162.3827, 172.6478
162.8648, 173.8112
163.3469, 175.1588
163.8291, 177.1695
164.3112, 179.7881
164.7933, 182.6082
165.2754, 185.7319
165.7575, 188.8475
166.2396, 191.6274
166.7218, 193.7766
167.2039, 195.6881
167.6860, 197.5325
168.1681, 199.3035
168.6502, 201.1773
169.1323, 203.8027
169.6145, 206.4730
170.0966, 208.2034
170.5787, 208.2037
171.0608, 207.3374
171.5429, 206.3348
172.0250, 205.2110
172.5072, 203.7348
172.9893, 201.5876
173.4714, 198.9488
173.9535, 196.1491
174.4356, 193.2940
174.9177, 190.3796
175.3999, 187.2591
175.8820, 183.8659
176.3641, 180.6489
176.8462, 177.9685
177.3283, 175.7222
177.8104, 173.6397
178.2926, 171.6551
178.7747, 169.7505
179.2568, 167.7739
179.7389, 165.6674
180.2210, 163.9154
180.7031, 163.4091
181.1853, 163.8510
181.6674, 164.1866
182.1495, 163.6541
182.6316, 162.6416
183.1137, 162.0450
183.5958, 161.9106
184.0780, 162.1880
184.5601, 163.0192
185.0422, 164.3101
185.5243, 165.5250
186.0064, 166.1972
186.4885, 166.5325
186.9707, 167.2105
187.4528, 168.2778
187.9349, 169.7086
188.4170, 171.6765
188.8991, 174.1432
189.3812, 176.4242
189.8634, 178.1016
190.3455, 179.2490
190.8276, 180.4233
191.3097, 181.7371
191.7918, 182.9404
192.2739, 183.6196
192.7561, 183.7721
193.2382, 183.5451
193.7203, 182.8388
194.2024, 181.7050
194.6845, 180.8302
195.1666, 180.2958
195.6488, 179.9976
196.1309, 179.7437
196.6130, 179.5280
197.0951, 179.3920
197.5772, 179.4548
198.0593, 179.7227
198.5415, 179.6665
199.0236, 179.1612
199.5057, 178.4237
199.9878, 177.9019
200.4699, 177.5858
200.9520, 177.5354
201.4342, 177.7217
201.9163, 178.1185
202.3984, 179.0800
202.8805, 180.7049
203.3626, 182.8396
203.8447, 185.1513
204.3269, 187.6714
204.8090, 190.2644
205.2911, 192.7946
205.7732, 195.2372
206.2553, 197.9378
206.7374, 201.1329
207.2196, 204.4600
207.7017, 206.9788
208.1838, 208.6916
208.6659, 209.5947
209.1480, 209.7769
209.6301, 209.3710
210.1123, 207.5999
210.5944, 204.2551
211.0765, 199.6010
211.5586, 194.1782
212.0407, 187.5765
212.5228, 181.1091
213.0050, 175.5958
213.4871, 171.2794
213.9692, 167.0523
214.4513, 162.7060
214.9334, 158.4778
215.4155, 154.9836
215.8977, 152.3685
216.3798, 150.1893
216.8619, 148.2425
217.3440, 146.5294
217.8261, 145.0490
218.3082, 143.8008
218.7904, 142.7929
219.2725, 142.1502
219.7546, 142.1487
220.2367, 142.0277
220.7188, 141.3157
221.2009, 139.6295
221.6831, 138.3986
222.1652, 137.8500
222.6473, 137.7315
223.1294, 137.2842
223.6115, 136.2639
224.0936, 135.3187
224.5758, 134.7984
225.0579, 134.9724
225.5400, 134.9037
226.0221, 134.4700
226.5042, 133.8125
226.9863, 133.3575
227.4685, 133.2791
227.9506, 133.1247
228.4327, 132.6556
228.9148, 131.6433
229.3969, 130.8373
229.8790, 130.3148
230.3612, 129.9773
230.8433, 129.5609
231.3254, 128.9305
231.8075, 128.4140
232.2896, 128.1526
232.7717, 128.1966
233.2539, 128.3949
233.7360, 128.9065
234.2181, 129.5113
234.7002, 129.6524
235.1823, 128.9692
235.6644, 128.3631
236.1466, 128.2417
236.6287, 128.8885
237.1108, 129.2267
237.5929, 129.0765
238.0750, 128.6881
238.5571, 128.5905
239.0393, 128.9413
239.5214, 129.3344
240.0035, 129.6008
240.4856, 129.6413
240.9677, 129.8808
241.4498, 130.4059
241.9320, 131.0882
242.4141, 131.7002
242.8962, 132.1624
243.3783, 132.6921
243.8604, 133.3999
244.3425, 134.3856
244.8247, 135.1772
245.3068, 135.6750
245.7889, 136.0423
246.2710, 136.5108
246.7531, 136.9497
247.2352, 137.7171
247.7174, 139.0068
248.1995, 140.9434
248.6816, 142.6852
249.1637, 144.0722
249.6458, 145.3893
250.1279, 147.0425
250.6101, 149.2287
251.0922, 151.3982
251.5743, 153.3105
252.0564, 154.8899
252.5385, 156.8836
253.0206, 159.4797
253.5028, 162.3384
253.9849, 164.9507
254.4670, 167.1649
254.9491, 169.5211
255.4312, 172.1350
255.9133, 174.9827
256.3955, 178.1149
256.8776, 181.6157
257.3597, 185.3250
257.8418, 189.0926
258.3239, 192.9858
258.8061, 196.8503
259.2882, 200.6837
259.7703, 204.5013
260.2524, 208.2518
260.7345, 211.9433
261.2166, 215.6008
261.6988, 219.2560
262.1809, 222.6922
262.6630, 226.5744
263.1451, 231.0919
263.6272, 236.2016
264.1093, 241.0641
264.5915, 245.5526
265.0736, 250.0955
265.5557, 255.1763
266.0378, 260.8628
266.5199, 266.5371
267.0020, 272.0813
267.4842, 277.5436
267.9663, 282.9293
268.4484, 288.2711
268.9305, 293.4322
269.4126, 298.1527
269.8947, 302.3411
270.3769, 306.8480
270.8590, 312.0851
271.3411, 317.5840
271.8232, 321.7985
272.3053, 324.7735
272.7874, 326.3233
273.2696, 326.2211
273.7517, 324.3282
274.2338, 321.6471
274.7159, 318.3925
275.1980, 314.2269
275.6801, 308.2860
276.1623, 300.3605
276.6444, 291.6103
277.1265, 282.6689
277.6086, 273.4531
278.0907, 263.3821
278.5728, 252.0442
279.0550, 240.3798
279.5371, 230.0200
280.0192, 221.0369
280.5013, 212.7561
280.9834, 204.7723
281.4655, 197.1035
281.9477, 190.5513
282.4298, 185.2556
282.9119, 180.8707
283.3940, 177.0838
283.8761, 173.8999
284.3582, 171.0144
284.8404, 168.2229
285.3225, 165.6031
285.8046, 163.7100
286.2867, 162.6317
286.7688, 161.9403
287.2509, 161.2720
287.7331, 160.6189
288.2152, 159.8703
288.6973, 159.0204
289.1794, 158.0411
289.6615, 156.7716
290.1436, 155.1760
290.6258, 153.6229
291.1079, 152.5535
291.5900, 151.8640
292.0721, 150.9319
292.5542, 149.4339
293.0363, 147.7718
293.5185, 146.7970
294.0006, 146.5006
294.4827, 146.5315
294.9648, 146.6938
295.4469, 146.9702
295.9290, 147.2695
296.4112, 147.5036
296.8933, 147.8784
297.3754, 148.7465
297.8575, 150.0597
298.3396, 151.5677
298.8217, 152.9722
299.3039, 154.4670
299.7860, 156.4749
300.2681, 159.1610
300.7502, 162.0560
301.2323, 164.4436
301.7144, 166.5359
302.1966, 168.9163
302.6787, 172.0857
303.1608, 175.6936
303.6429, 179.4207
304.1250, 183.2417
304.6071, 186.9301
305.0893, 190.2551
305.5714, 193.2864
306.0535, 196.0432
306.5356, 198.9729
307.0177, 201.4218
307.4998, 202.5352
307.9820, 202.3015
308.4641, 201.6741
308.9462, 201.2211
309.4283, 200.8217
309.9104, 200.3145
310.3925, 199.2599
310.8747, 198.3864
311.3568, 198.1940
311.8389, 198.6502
312.3210, 199.5019
312.8031, 200.5576
313.2852, 201.9757
313.7674, 203.9255
314.2495, 206.5187
314.7316, 209.5286
315.2137, 212.8426
315.6958, 216.4663
316.1779, 220.4195
316.6601, 224.7512
317.1422, 229.3909
317.6243, 234.2984
318.1064, 239.5106
318.5885, 244.7784
319.0706, 250.5293
319.5528, 256.2411
320.0349, 260.9043
320.5170, 264.4531
320.9991, 266.7084
321.4812, 267.7280
321.9633, 267.7113
322.4455, 265.6954
322.9276, 261.0610
323.4097, 254.4725
323.8918, 246.7469
324.3739, 237.1814
324.8560, 227.3103
325.3382, 217.2750
325.8203, 206.9574
326.3024, 197.4230
326.7845, 188.6679
327.2666, 180.6920
327.7487, 173.4761
328.2309, 167.2644
328.7130, 161.6001
329.1951, 156.3344
329.6772, 151.5131
330.1593, 147.6181
330.6414, 145.1409
331.1236, 143.1650
331.6057, 141.1791
332.0878, 139.0057
332.5699, 137.1338
333.0520, 135.6512
333.5341, 134.4735
334.0163, 133.3869
334.4984, 132.3752
334.9805, 131.4972
335.4626, 130.7858
335.9447, 130.2734
336.4268, 129.7952
336.9090, 129.3339
337.3911, 128.9206
337.8732, 128.6010
338.3553, 128.3695
338.8374, 128.2560
339.3195, 128.2666
339.8017, 128.4021
340.2838, 128.6810
340.7659, 129.1190
341.2480, 129.6674
341.7301, 130.2991
342.2122, 131.0148
342.6944, 131.7547
343.1765, 132.4645
343.6586, 133.2085
344.1407, 134.1767
344.6228, 135.3666
345.1049, 136.7418
345.5871, 138.1517
346.0692, 139.6736
346.5513, 141.6868
347.0334, 144.2564
347.5155, 147.3150
347.9977, 150.7554
348.4798, 154.5899
348.9619, 158.6665
349.4440, 162.8543
349.9261, 167.2318
350.4082, 171.8989
350.8904, 176.8234
351.3725, 182.2685
351.8546, 188.7318
352.3367, 195.9956
352.8188, 203.5502
353.3009, 211.7858
353.7831, 219.8757
354.2652, 227.0994
354.7473, 233.4305
355.2294, 238.4014
355.7115, 240.4492
356.1936, 241.3032
356.6758, 243.2395
357.1579, 247.3724
357.6400, 252.2374
358.1221, 256.2182
358.6042, 259.8708
359.0863, 265.3315
359.5685, 274.6522
360.0506, 285.5748
360.5327, 296.4863
361.0148, 307.0513
361.4969, 317.7572
361.9790, 327.1091
362.4612, 336.9345
362.9433, 350.4810
363.4254, 373.2075
363.9075, 395.9119
364.3896, 415.3218
364.8717, 431.1469
365.3539, 443.9522
365.8360, 451.6750
366.3181, 457.3965
366.8002, 464.1380
367.2823, 475.9921
367.7644, 484.7264
368.2466, 489.3050
368.7287, 489.7025
369.2108, 486.4730
369.6929, 478.1502
370.1750, 467.4390
370.6571, 455.7364
371.1393, 442.5739
371.6214, 428.7969
372.1035, 412.0924
372.5856, 395.4099
373.0677, 386.1091
373.5498, 387.0213
374.0320, 389.7745
374.5141, 391.4330
374.9962, 391.7608
375.4783, 393.1420
375.9604, 395.8981
376.4425, 399.1539
376.9247, 402.4310
377.4068, 406.1060
377.8889, 407.4626
378.3710, 406.3904
378.8531, 402.3877
379.3352, 392.6092
379.8174, 376.7804
380.2995, 357.6346
380.7816, 336.2541
381.2637, 312.8767
381.7458, 290.9809
382.2279, 270.5328
382.7101, 252.2142
383.1922, 236.6741
383.6743, 223.7347
384.1564, 213.1849
384.6385, 205.5892
385.1206, 200.0551
385.6028, 194.6401
386.0849, 189.2085
386.5670, 184.5222
387.0491, 181.5547
387.5312, 179.7981
388.0133, 178.2019
388.4955, 176.0967
388.9776, 174.2229
389.4597, 173.3383
389.9418, 173.3593
390.4239, 173.7847
390.9060, 174.3597
391.3882, 175.1795
391.8703, 176.3150
392.3524, 177.7655
392.8345, 179.5937
393.3166, 182.0598
393.7987, 184.9265
394.2809, 187.6761
394.7630, 190.1797
395.2451, 192.5118
395.7272, 194.9718
396.2093, 197.7580
396.6914, 199.3715
397.1736, 200.4460
397.6557, 199.7777
398.1378, 196.2442
398.6199, 186.7307
399.1020, 177.7767
399.5841, 170.1011
400.0663, 163.6271
400.5484, 157.8187
401.0305, 152.5115
401.5126, 148.0485
401.9947, 144.6702
402.4768, 142.8651
402.9590, 141.0672
403.4411, 139.2249
403.9232, 137.4317
404.4053, 135.9767
404.8874, 135.1299
405.3695, 133.7818
405.8517, 131.4324
406.3338, 128.1743
406.8159, 124.9860
407.2980, 121.8034
407.7801, 118.9008
408.2622, 116.6552
408.7444, 115.0316
409.2265, 113.4715
409.7086, 111.7726
410.1907, 110.2010
410.6728, 109.4434
411.1549, 109.4293
411.6371, 109.4272
412.1192, 108.9708
412.6013, 108.2071
413.0834, 107.3758
413.5655, 106.4654
414.0476, 105.7372
414.5298, 105.6646
415.0119, 105.9441
415.4940, 105.9593
415.9761, 105.1964
416.4582, 104.2681
416.9403, 103.6969
417.4225, 103.4432
417.9046, 103.2820
418.3867, 103.2028
418.8688, 103.1006
419.3509, 102.8723
419.8330, 102.4213
420.3152, 102.0080
420.7973, 101.8225
421.2794, 101.7295
421.7615, 101.4811
422.2436, 100.7534
422.7257, 100.1075
423.2079, 99.77195
423.6900, 99.80463
424.1721, 99.78073
424.6542, 99.55568
425.1363, 99.33049
425.6184, 99.26575
426.1006, 99.66272
426.5827, 99.73731
427.0648, 99.24158
427.5469, 98.38650
428.0290, 97.94957
428.5111, 98.11300
428.9933, 98.33585
429.4754, 98.39882
429.9575, 98.29255
430.4396, 98.07602
430.9217, 97.74387
431.4038, 97.31119
431.8860, 96.73129
432.3681, 95.99284
432.8502, 95.44856
433.3323, 95.28689
433.8144, 95.31921
434.2965, 94.98701
434.7787, 94.29737
435.2608, 93.59188
435.7429, 93.07047
436.2250, 92.72049
436.7071, 92.55008
437.1892, 92.59676
437.6714, 92.66653
438.1535, 92.59866
438.6356, 92.39690
439.1177, 92.06754
439.5998, 91.46288
440.0819, 90.83621
440.5641, 90.36476
441.0462, 90.05128
441.5283, 89.90034
442.0104, 90.17018
442.4925, 90.46270
442.9746, 90.40601
443.4568, 89.66226
443.9389, 89.03748
444.4210, 88.91979
444.9031, 89.07531
445.3852, 89.05736
445.8673, 88.79102
446.3495, 88.32809
446.8316, 87.52558
447.3137, 86.26488
447.7958, 85.55962
448.2779, 85.74086
448.7600, 86.20840
449.2422, 86.55521
449.7243, 86.85503
450.2064, 86.85146
450.6885, 86.38724
451.1706, 85.66926
451.6527, 85.32882
452.1349, 85.49425
452.6170, 85.56512
453.0991, 85.14512
453.5812, 84.26463
454.0633, 83.99796
454.5454, 84.44759
455.0276, 84.99178
455.5097, 84.87979
455.9918, 84.22522
456.4739, 83.70879
456.9560, 83.51447
457.4381, 83.48904
457.9203, 83.41125
458.4024, 83.29150
458.8845, 83.17558
459.3666, 83.04395
459.8488, 82.95492
460.3309, 83.03856
460.8130, 83.32497
461.2951, 83.52898
461.7772, 83.40147
462.2593, 83.09485
462.7415, 82.78867
463.2236, 82.44285
463.7057, 82.20971
464.1878, 82.27424
464.6699, 82.53078
465.1520, 82.60561
465.6342, 82.17247
466.1163, 81.72750
466.5984, 81.46589
467.0805, 81.40687
467.5626, 81.53928
468.0447, 82.09289
468.5269, 82.69216
469.0090, 82.94573
469.4911, 82.65809
469.9732, 82.38937
470.4553, 82.23553
470.9374, 82.16139
471.4196, 81.99271
471.9017, 81.68849
472.3838, 81.41567
472.8659, 81.24461
473.3480, 81.17461
473.8301, 81.28310
474.3123, 81.61259
474.7944, 81.95594
475.2765, 82.04388
475.7586, 81.91447
476.2407, 81.75959
476.7228, 81.60604
477.2050, 81.49174
477.6871, 81.53548
478.1692, 81.69846
478.6513, 81.78862
479.1334, 81.56313
479.6155, 81.26768
480.0977, 81.18391
480.5798, 81.36532
481.0619, 81.59694
481.5440, 81.75359
482.0261, 81.88647
482.5082, 82.05628
482.9904, 82.63734
483.4725, 82.88544
483.9546, 82.29797
484.4367, 81.09949
484.9188, 80.29272
485.4009, 80.38042
485.8831, 80.56333
486.3652, 80.49277
486.8473, 80.02732
487.3294, 79.83452
487.8115, 80.07146
488.2936, 80.43240
488.7758, 80.61585
489.2579, 80.60477
489.7400, 80.44470
490.2221, 80.08016
490.7042, 79.60859
491.1863, 79.33240
491.6685, 79.25781
492.1506, 79.29659
492.6327, 79.51673
493.1148, 79.83864
493.5969, 79.82139
494.0790, 79.43431
494.5612, 78.98514
495.0433, 78.76730
495.5254, 78.71452
496.0075, 78.67699
496.4896, 78.61314
496.9717, 78.55313
497.4539, 78.59172
497.9360, 78.66488
498.4181, 78.60358
498.9002, 78.08213
499.3823, 77.58873
499.8644, 77.46801
500.3466, 77.76704
500.8287, 78.06370
501.3108, 78.34415
501.7929, 78.50256
502.2750, 78.45848
502.7571, 77.83924
503.2393, 77.47683
503.7214, 77.52442
504.2035, 77.81820
504.6856, 78.00790
505.1677, 77.99533
505.6498, 78.07303
506.1320, 78.44314
506.6141, 79.07891
507.0962, 79.06725
507.5783, 78.23891
508.0604, 77.33195
508.5425, 77.00148
509.0247, 77.19973
509.5068, 77.31081
509.9889, 76.58394
510.4710, 77.26722
510.9531, 77.58942
511.4352, 77.57026
511.9174, 76.16892
512.3995, 76.56644
512.8816, 76.25166
513.3637, 75.91356
513.8458, 76.58179
514.3279, 75.41310
514.8101, 76.07772
515.2922, 76.01913
515.7743, 76.30048
516.2564, 75.86512
516.7385, 75.65916
517.2206, 76.18243
517.7028, 76.31145
518.1849, 75.81742
518.6670, 76.15683
519.1491, 75.02425
519.6312, 75.19489
520.1133, 75.93128
520.5955, 75.50428
521.0776, 75.88759
521.5597, 75.97076
522.0418, 74.66821
522.5239, 75.79240
523.0060, 75.87589
523.4882, 74.89065
523.9703, 75.95030
524.4524, 75.12552
524.9345, 74.98170
525.4166, 75.35186
525.8987, 75.19874
526.3809, 75.88645
526.8630, 75.77618
527.3451, 75.60021
527.8272, 75.74390
528.3093, 75.00530
528.7914, 75.92105
529.2736, 75.71709
529.7557, 76.19649
530.2378, 76.50249
530.7199, 76.70496
531.2020, 76.76738
531.6841, 76.61475
532.1663, 76.05447
532.6484, 75.68065
533.1305, 75.74167
533.6126, 76.04455
534.0947, 76.31474
534.5768, 76.53761
535.0590, 76.71689
535.5411, 76.85824
536.0232, 76.95942
536.5053, 76.98174
536.9874, 76.88469
537.4695, 76.80276
537.9517, 76.82347
538.4338, 76.95548
538.9159, 76.97287
539.3980, 76.82372
539.8801, 76.76245
540.3622, 77.27502
540.8444, 78.18548
541.3265, 78.61433
541.8086, 78.18942
542.2907, 77.57228
542.7728, 77.70793
543.2549, 78.36893
543.7371, 78.90279
544.2192, 78.79485
544.7013, 78.56799
545.1834, 78.72717
545.6655, 79.24510
546.1476, 79.49593
546.6298, 78.83223
547.1119, 78.07719
547.5940, 77.81016
548.0761, 78.44411
548.5582, 78.23788
549.0403, 79.14490
549.5225, 79.68472
550.0046, 79.87701
550.4867, 78.68103
550.9688, 79.27773
551.4509, 79.15601
551.9330, 79.00481
552.4152, 79.85384
552.8973, 78.85978
553.3794, 79.69293
553.8615, 79.79670
554.3436, 80.23428
554.8257, 79.94900
555.3079, 79.88701
555.7900, 80.54809
556.2721, 80.80879
556.7542, 80.44031
557.2363, 80.89911
557.7184, 80.27007
558.2006, 80.44742
558.6827, 80.67316
559.1648, 80.90873
559.6469, 81.09328
560.1290, 81.27364
560.6111, 81.32889
561.0933, 81.10900
561.5754, 80.67216
562.0575, 80.40279
562.5396, 80.52662
563.0217, 80.66788
563.5038, 80.66272
563.9860, 80.45052
564.4681, 80.39714
564.9502, 80.59646
565.4323, 80.80883
565.9144, 80.77299
566.3965, 80.46522
566.8787, 80.16380
567.3608, 79.85418
567.8429, 79.67671
568.3250, 80.09315
568.8071, 80.96262
569.2892, 81.48499
569.7714, 80.95723
570.2535, 80.11057
570.7356, 80.01701
571.2177, 80.56373
571.6998, 81.09422
572.1819, 81.25014
572.6641, 81.22490
573.1462, 81.14848
573.6283, 81.02664
574.1104, 80.90559
574.5925, 80.81745
575.0746, 80.72477
575.5568, 80.59012
576.0389, 80.33549
576.5210, 80.14847
577.0031, 80.05970
577.4852, 80.03212
577.9673, 79.97400
578.4495, 79.84716
578.9316, 79.81870
579.4137, 79.97491
579.8958, 80.26351
580.3779, 80.51942
580.8600, 80.74742
581.3422, 80.79666
581.8243, 80.39883
582.3064, 79.77124
582.7885, 79.45779
583.2706, 79.51272
583.7527, 79.62199
584.2349, 79.52849
584.7170, 79.33767
585.1991, 79.16924
585.6812, 78.99265
