##NAMES=Lorenzenite
##RRUFFID=R060960
##IDEAL CHEMISTRY=Na_2_Ti^4+^_2_O_3_(Si_2_O_6_)
##LOCALITY=Khibiny Massif, Kola Peninsula, Russia
##OWNER=RRUFF
##SOURCE=Michael Scott
##DESCRIPTION=Dark brown prismatic single crystal
##STATUS=The identification of this mineral has been confirmed by X-ray diffraction and chemical analysis
##URL=rruff.info/R060960
##MEASURED CHEMISTRY=Na_2.00_(Ti_1.93_Nb^5+^_0.04_Fe^3+^_0.03_)_Σ=2_O_3_((Si_1.99_Al_0.01_)_Σ=2_O_6_) ; trace amounts of Ca
144.6696, 6361.893
145.1517, 6615.221
145.6339, 6906.713
146.1160, 7202.547
146.5981, 7478.114
147.0802, 7725.194
147.5623, 7946.670
148.0444, 8149.753
148.5266, 8332.306
149.0087, 8492.860
149.4908, 8632.164
149.9729, 8750.459
150.4550, 8846.063
150.9371, 8919.470
151.4193, 8972.965
151.9014, 9012.101
152.3835, 9048.690
152.8656, 9052.437
153.3477, 9011.370
153.8298, 8939.626
154.3120, 8848.379
154.7941, 8740.762
155.2762, 8627.033
155.7583, 8533.929
156.2404, 8469.373
156.7225, 8410.154
157.2047, 8339.486
157.6868, 8274.672
158.1689, 8237.913
158.6510, 8236.290
159.1331, 8272.854
159.6152, 8363.984
160.0974, 8528.137
160.5795, 8701.592
161.0616, 8867.661
161.5437, 9032.668
162.0258, 9207.153
162.5079, 9394.699
162.9901, 9595.626
163.4722, 9816.696
163.9543, 10062.42
164.4364, 10311.18
164.9185, 10545.02
165.4007, 10775.24
165.8828, 11029.02
166.3649, 11325.71
166.8470, 11641.60
167.3291, 11926.54
167.8112, 12169.28
168.2933, 12409.05
168.7755, 12652.85
169.2576, 12904.48
169.7397, 13173.42
170.2218, 13463.44
170.7039, 13776.93
171.1860, 14117.13
171.6682, 14487.22
172.1503, 14870.77
172.6324, 15288.30
173.1145, 15720.21
173.5966, 16117.06
174.0787, 16496.25
174.5609, 16781.76
175.0430, 16881.01
175.5251, 16803.65
176.0072, 16545.38
176.4893, 16047.73
176.9714, 15347.64
177.4536, 14586.10
177.9357, 13757.50
178.4178, 12946.41
178.8999, 12267.03
179.3820, 11728.17
179.8641, 11285.70
180.3463, 10921.66
180.8284, 10635.31
181.3105, 10422.30
181.7926, 10303.95
182.2747, 10243.80
182.7568, 10181.06
183.2390, 10112.54
183.7211, 10052.83
184.2032, 10011.63
184.6853, 9987.844
185.1674, 9974.487
185.6495, 9970.190
186.1317, 9976.313
186.6138, 9992.035
187.0959, 10017.88
187.5780, 10050.60
188.0601, 10097.38
188.5422, 10153.92
189.0244, 10189.05
189.5065, 10179.87
189.9886, 10159.35
190.4707, 10163.89
190.9528, 10195.74
191.4349, 10234.84
191.9170, 10270.09
192.3992, 10301.56
192.8813, 10328.22
193.3634, 10341.61
193.8455, 10359.45
194.3276, 10402.22
194.8097, 10471.10
195.2919, 10537.28
195.7740, 10575.41
196.2561, 10590.50
196.7382, 10618.61
197.2203, 10679.19
197.7024, 10740.51
198.1846, 10777.59
198.6667, 10790.50
199.1488, 10786.98
199.6309, 10757.90
200.1130, 10710.42
200.5951, 10691.41
201.0773, 10722.32
201.5594, 10767.19
202.0415, 10794.92
202.5236, 10807.07
203.0057, 10818.83
203.4878, 10833.59
203.9700, 10853.89
204.4521, 10892.52
204.9342, 10952.11
205.4163, 11030.61
205.8984, 11127.13
206.3805, 11239.11
206.8627, 11354.24
207.3448, 11460.31
207.8269, 11562.47
208.3090, 11682.14
208.7911, 11823.55
209.2732, 11979.59
209.7554, 12147.69
210.2375, 12325.98
210.7196, 12507.20
211.2017, 12671.55
211.6838, 12834.59
212.1659, 13043.80
212.6480, 13305.77
213.1302, 13605.67
213.6123, 13977.81
214.0944, 14381.21
214.5765, 14707.64
215.0586, 14942.20
215.5407, 15063.31
216.0229, 15002.27
216.5050, 14714.77
216.9871, 14348.38
217.4692, 13935.77
217.9513, 13516.63
218.4334, 13166.38
218.9156, 12927.88
219.3977, 12771.35
219.8798, 12646.05
220.3619, 12551.26
220.8440, 12490.97
221.3261, 12464.19
221.8083, 12473.38
222.2904, 12531.58
222.7725, 12654.62
223.2546, 12818.14
223.7367, 12986.85
224.2188, 13159.27
224.7010, 13350.63
225.1831, 13559.99
225.6652, 13796.87
226.1473, 14077.07
226.6294, 14413.41
227.1115, 14782.04
227.5937, 15151.31
228.0758, 15518.48
228.5579, 15918.25
229.0400, 16378.18
229.5221, 16873.46
230.0042, 17363.91
230.4864, 17835.05
230.9685, 18324.98
231.4506, 18879.59
231.9327, 19493.86
232.4148, 20109.83
232.8969, 20758.86
233.3791, 21347.96
233.8612, 21814.91
234.3433, 22186.93
234.8254, 22315.61
235.3075, 22047.67
235.7896, 21425.22
236.2717, 20658.59
236.7539, 19715.51
237.2360, 18753.97
237.7181, 17919.88
238.2002, 17210.82
238.6823, 16654.89
239.1644, 16313.22
239.6466, 16140.27
240.1287, 16015.73
240.6108, 15913.50
241.0929, 15857.94
241.5750, 15881.60
242.0571, 15977.35
242.5393, 16111.57
243.0214, 16284.13
243.5035, 16484.55
243.9856, 16688.21
244.4677, 16885.55
244.9498, 17111.38
245.4320, 17410.44
245.9141, 17773.25
246.3962, 18157.75
246.8783, 18547.15
247.3604, 18958.88
247.8425, 19423.81
248.3247, 19950.90
248.8068, 20474.40
249.2889, 20931.04
249.7710, 21334.33
250.2531, 21790.51
250.7352, 22330.87
251.2174, 22910.06
251.6995, 23468.98
252.1816, 24014.41
252.6637, 24633.05
253.1458, 25378.83
253.6279, 26250.03
254.1101, 27169.96
254.5922, 28129.88
255.0743, 29141.88
255.5564, 30257.58
256.0385, 31437.06
256.5206, 32584.70
257.0027, 33670.74
257.4849, 34663.09
257.9670, 35443.19
258.4491, 35920.20
258.9312, 36367.13
259.4133, 36756.08
259.8954, 37184.85
260.3776, 37804.65
260.8597, 38669.90
261.3418, 39772.22
261.8239, 41140.19
262.3060, 42830.45
262.7881, 44647.95
263.2703, 46619.33
263.7524, 48678.48
264.2345, 50747.39
264.7166, 52812.24
265.1987, 54933.79
265.6808, 57179.65
266.1630, 59528.98
266.6451, 62153.53
267.1272, 65035.97
267.6093, 68200.52
268.0914, 71693.57
268.5735, 75512.79
269.0557, 79580.99
269.5378, 83857.89
270.0199, 88389.99
270.5020, 92932.52
270.9841, 97708.90
271.4662, 102282.6
271.9484, 106717.2
272.4305, 110845.6
272.9126, 114318.1
273.3947, 116976.2
273.8768, 118764.3
274.3589, 119052.1
274.8411, 117532.4
275.3232, 114758.5
275.8053, 110365.4
276.2874, 104856.8
276.7695, 98789.92
277.2516, 92398.00
277.7338, 85842.76
278.2159, 79644.91
278.6980, 73674.62
279.1801, 68348.57
279.6622, 63721.39
280.1443, 59670.25
280.6265, 56150.96
281.1086, 53137.55
281.5907, 50555.51
282.0728, 48322.00
282.5549, 46462.76
283.0370, 44886.17
283.5192, 43617.59
284.0013, 42592.30
284.4834, 41797.75
284.9655, 41224.48
285.4476, 40832.09
285.9297, 40572.81
286.4119, 40441.32
286.8940, 40528.49
287.3761, 40926.14
287.8582, 41471.47
288.3403, 42082.29
288.8224, 42773.00
289.3046, 43597.90
289.7867, 44588.07
290.2688, 45737.45
290.7509, 47021.48
291.2330, 48449.71
291.7151, 50018.28
292.1972, 51716.65
292.6794, 53544.09
293.1615, 55512.27
293.6436, 57653.13
294.1257, 59917.34
294.6078, 62309.55
295.0899, 64857.25
295.5721, 67319.27
296.0542, 69614.76
296.5363, 71747.25
297.0184, 73687.11
297.5005, 75427.88
297.9826, 77011.55
298.4648, 78436.91
298.9469, 79719.88
299.4290, 80964.52
299.9111, 82176.22
300.3932, 83390.75
300.8753, 84687.03
301.3575, 86067.55
301.8396, 87371.16
302.3217, 88625.82
302.8038, 89730.03
303.2859, 90551.74
303.7680, 91078.41
304.2502, 91261.81
304.7323, 91053.03
305.2144, 90429.63
305.6965, 89397.93
306.1786, 87906.94
306.6607, 86049.53
307.1429, 83823.72
307.6250, 81269.66
308.1071, 78477.12
308.5892, 75486.55
309.0713, 72322.40
309.5534, 69188.38
310.0356, 66017.36
310.5177, 62945.74
310.9998, 59985.22
311.4819, 57145.69
311.9640, 54434.29
312.4461, 51827.68
312.9283, 49355.35
313.4104, 47059.29
313.8925, 44999.95
314.3746, 43062.10
314.8567, 41240.38
315.3388, 39532.86
315.8210, 37944.96
316.3031, 36472.47
316.7852, 35092.03
317.2673, 33778.43
317.7494, 32522.30
318.2315, 31353.69
318.7137, 30266.41
319.1958, 29269.14
319.6779, 28390.48
320.1600, 27608.51
320.6421, 26869.33
321.1242, 26133.19
321.6064, 25409.63
322.0885, 24783.07
322.5706, 24290.79
323.0527, 23844.20
323.5348, 23399.16
324.0169, 22988.60
324.4991, 22663.23
324.9812, 22447.66
325.4633, 22292.16
325.9454, 22112.10
326.4275, 21894.37
326.9096, 21720.84
327.3918, 21631.05
327.8739, 21581.46
328.3560, 21549.35
328.8381, 21531.88
329.3202, 21516.92
329.8023, 21507.01
330.2845, 21495.32
330.7666, 21447.96
331.2487, 21352.98
331.7308, 21236.37
332.2129, 21108.82
332.6950, 20974.82
333.1772, 20852.00
333.6593, 20748.83
334.1414, 20656.85
334.6235, 20555.59
335.1056, 20444.93
335.5877, 20364.66
336.0698, 20325.99
336.5519, 20343.84
337.0341, 20443.81
337.5162, 20629.72
337.9983, 20887.86
338.4804, 21226.42
338.9625, 21632.36
339.4446, 22078.71
339.9268, 22557.21
340.4089, 23066.67
340.8910, 23608.71
341.3731, 24196.72
341.8552, 24783.44
342.3373, 25347.25
342.8195, 25921.46
343.3016, 26532.82
343.7837, 27183.02
344.2658, 27852.26
344.7479, 28525.00
345.2300, 29198.79
345.7122, 29870.14
346.1943, 30612.81
346.6764, 31272.51
347.1585, 31847.71
347.6406, 32294.50
348.1227, 32564.98
348.6049, 32640.27
349.0870, 32496.74
349.5691, 32055.41
350.0512, 31233.69
350.5333, 30261.69
351.0154, 29092.47
351.4976, 27862.21
351.9797, 26639.39
352.4618, 25448.83
352.9439, 24319.97
353.4260, 23280.32
353.9081, 22327.84
354.3903, 21488.55
354.8724, 20797.26
355.3545, 20187.11
355.8366, 19600.54
356.3187, 19051.03
356.8008, 18570.10
357.2830, 18186.81
357.7651, 17874.33
358.2472, 17588.51
358.7293, 17329.68
359.2114, 17102.77
359.6935, 16918.12
360.1757, 16765.19
360.6578, 16616.49
361.1399, 16461.57
361.6220, 16329.83
362.1041, 16245.94
362.5862, 16196.21
363.0684, 16147.69
363.5505, 16089.49
364.0326, 16038.95
364.5147, 16023.06
364.9968, 16052.58
365.4789, 16073.67
365.9611, 16066.80
366.4432, 16063.20
366.9253, 16088.47
367.4074, 16140.31
367.8895, 16200.74
368.3716, 16258.10
368.8538, 16311.73
369.3359, 16353.79
369.8180, 16374.13
370.3001, 16394.19
370.7822, 16427.88
371.2643, 16458.74
371.7465, 16460.11
372.2286, 16423.54
372.7107, 16377.80
373.1928, 16379.33
373.6749, 16458.80
374.1570, 16486.22
374.6392, 16387.70
375.1213, 16290.35
375.6034, 16262.73
376.0855, 16296.34
376.5676, 16335.96
377.0497, 16337.81
377.5319, 16315.12
378.0140, 16320.66
378.4961, 16367.45
378.9782, 16408.58
379.4603, 16418.68
379.9424, 16409.27
380.4246, 16394.05
380.9066, 16379.24
381.3888, 16351.53
381.8709, 16299.50
382.3530, 16225.00
382.8351, 16135.31
383.3172, 16031.28
383.7993, 15914.78
384.2815, 15785.76
384.7636, 15643.93
385.2457, 15500.97
385.7278, 15353.34
386.2099, 15209.19
386.6920, 15078.34
387.1742, 14960.14
387.6563, 14844.64
388.1384, 14722.48
388.6205, 14597.07
389.1026, 14494.89
389.5847, 14414.73
390.0669, 14357.49
390.5490, 14337.57
391.0311, 14334.60
391.5132, 14324.44
391.9953, 14299.21
392.4774, 14268.66
392.9596, 14245.37
393.4417, 14226.01
393.9238, 14224.46
394.4059, 14259.56
394.8880, 14295.73
395.3701, 14312.47
395.8523, 14316.53
396.3344, 14329.26
396.8165, 14365.42
397.2986, 14418.41
397.7807, 14472.93
398.2628, 14532.15
398.7450, 14581.10
399.2271, 14596.79
399.7092, 14607.35
400.1913, 14634.71
400.6734, 14673.87
401.1555, 14764.38
401.6377, 14978.49
402.1198, 15262.36
402.6019, 15487.23
403.0840, 15629.69
403.5661, 15693.45
404.0482, 15650.86
404.5304, 15499.07
405.0125, 15416.18
405.4946, 15445.93
405.9767, 15515.88
406.4588, 15594.56
406.9409, 15677.89
407.4231, 15763.33
407.9052, 15850.40
408.3873, 15937.56
408.8694, 16020.19
409.3515, 16081.65
409.8336, 16164.12
410.3158, 16284.81
410.7979, 16413.38
411.2800, 16520.43
411.7621, 16607.95
412.2442, 16705.15
412.7263, 16844.35
413.2085, 17022.77
413.6906, 17184.31
414.1727, 17318.02
414.6548, 17451.15
415.1369, 17593.75
415.6190, 17741.63
416.1012, 17888.62
416.5833, 18032.21
417.0654, 18175.81
417.5475, 18317.55
418.0296, 18459.47
418.5117, 18617.66
418.9939, 18798.59
419.4760, 18992.48
419.9581, 19189.88
420.4402, 19391.19
420.9223, 19593.31
421.4044, 19776.88
421.8866, 19975.02
422.3687, 20217.32
422.8508, 20501.96
423.3329, 20819.59
423.8150, 21172.54
424.2971, 21541.85
424.7793, 21864.24
425.2614, 22138.10
425.7435, 22366.76
426.2256, 22477.89
426.7077, 22587.97
427.1898, 22808.60
427.6719, 23151.52
428.1541, 23549.15
428.6362, 23929.92
429.1183, 24291.51
429.6004, 24719.83
430.0825, 25265.00
430.5646, 25817.43
431.0468, 26318.64
431.5289, 26815.04
432.0110, 27371.20
432.4931, 28010.74
432.9752, 28710.97
433.4573, 29456.34
433.9395, 30249.16
434.4216, 31041.74
434.9037, 31809.57
435.3858, 32602.67
435.8679, 33466.79
436.3500, 34396.55
436.8322, 35389.89
437.3143, 36485.94
437.7964, 37615.91
438.2785, 38725.71
438.7606, 39815.37
439.2427, 40920.57
439.7249, 42064.05
440.2070, 43229.05
440.6891, 44370.50
441.1712, 45512.69
441.6533, 46611.55
442.1354, 47659.98
442.6176, 48667.94
443.0997, 49665.24
443.5818, 50641.20
444.0639, 51526.03
444.5460, 52251.87
445.0281, 52829.36
445.5103, 53383.80
445.9924, 53961.73
446.4745, 54432.34
446.9566, 54796.67
447.4387, 55032.48
447.9208, 55114.70
448.4030, 55038.75
448.8851, 54808.61
449.3672, 54403.75
449.8493, 53841.41
450.3314, 53218.59
450.8135, 52568.80
451.2957, 51808.49
451.7778, 50816.77
452.2599, 49634.86
452.7420, 48475.55
453.2241, 47406.88
453.7062, 46326.46
454.1884, 45134.02
454.6705, 43885.17
455.1526, 42700.74
455.6347, 41627.13
456.1168, 40621.41
456.5989, 39614.92
457.0811, 38589.55
457.5632, 37598.00
458.0453, 36618.95
458.5274, 35692.48
459.0095, 34848.81
459.4916, 34074.29
459.9738, 33330.29
460.4559, 32593.18
460.9380, 31884.47
461.4201, 31274.65
461.9022, 30782.92
462.3843, 30302.83
462.8665, 29798.05
463.3486, 29305.26
463.8307, 28836.74
464.3128, 28398.09
464.7949, 28032.96
465.2770, 27804.61
465.7592, 27647.29
466.2413, 27458.36
466.7234, 27235.71
467.2055, 27048.25
467.6876, 26937.81
468.1697, 26888.69
468.6519, 26847.13
469.1340, 26786.80
469.6161, 26772.38
470.0982, 26808.27
470.5803, 26896.63
471.0624, 27040.26
471.5445, 27239.24
472.0266, 27489.63
472.5088, 27789.28
472.9909, 28138.67
473.4730, 28535.07
473.9551, 28981.71
474.4372, 29476.75
474.9193, 30019.32
475.4015, 30604.66
475.8836, 31225.99
476.3657, 31881.97
476.8478, 32574.94
477.3299, 33330.24
477.8120, 34128.70
478.2942, 34886.57
478.7763, 35591.61
479.2584, 36273.99
479.7405, 36960.75
480.2226, 37643.83
480.7047, 38279.84
481.1869, 38894.00
481.6690, 39428.17
482.1511, 39893.25
482.6332, 40252.76
483.1153, 40446.75
483.5974, 40460.51
484.0796, 40334.14
484.5617, 40120.66
485.0438, 39830.89
485.5259, 39360.33
486.0080, 38589.70
486.4901, 37755.28
486.9723, 36906.03
487.4544, 36034.38
487.9365, 35106.14
488.4186, 34107.72
488.9007, 33101.96
489.3828, 32147.49
489.8650, 31246.24
490.3471, 30428.90
490.8292, 29705.31
491.3113, 29047.70
491.7934, 28444.93
492.2755, 27889.38
492.7577, 27373.48
493.2398, 26893.35
493.7219, 26449.22
494.2040, 26038.75
494.6861, 25665.21
495.1682, 25342.05
495.6504, 25072.57
496.1325, 24846.02
496.6146, 24650.79
497.0967, 24494.49
497.5788, 24338.88
498.0609, 24229.33
498.5431, 24072.32
499.0252, 23825.32
499.5073, 23511.87
499.9894, 23168.46
500.4715, 22808.89
500.9536, 22434.96
501.4358, 22031.68
501.9179, 21600.37
502.4000, 21211.51
502.8821, 20866.67
503.3642, 20581.54
503.8463, 20391.83
504.3285, 20274.40
504.8106, 20154.37
505.2927, 19991.72
505.7748, 19847.68
506.2569, 19764.29
506.7390, 19730.02
507.2212, 19729.66
507.7033, 19758.72
508.1854, 19791.70
508.6675, 19796.34
509.1496, 19774.20
509.6317, 19714.71
510.1139, 19623.84
510.5960, 19491.55
511.0781, 19297.38
511.5602, 19063.35
512.0423, 18819.32
512.5244, 18576.22
513.0065, 18332.88
513.4886, 18083.28
513.9708, 17827.61
514.4529, 17587.83
514.9350, 17363.55
515.4171, 17164.20
515.8992, 17004.09
516.3813, 16876.41
516.8635, 16762.72
517.3456, 16656.52
517.8277, 16568.03
518.3098, 16505.45
518.7919, 16463.01
519.2740, 16430.56
519.7562, 16405.18
520.2383, 16391.66
520.7204, 16396.57
521.2025, 16421.31
521.6846, 16449.37
522.1667, 16462.19
522.6489, 16500.09
523.1310, 16576.72
523.6131, 16681.94
524.0952, 16798.69
524.5773, 16921.25
525.0594, 17075.05
525.5416, 17291.10
526.0237, 17561.22
526.5058, 17843.45
526.9879, 18130.99
527.4700, 18448.00
527.9521, 18805.62
528.4343, 19210.61
528.9164, 19677.70
529.3985, 20215.30
529.8806, 20803.17
530.3627, 21435.55
530.8448, 22113.77
531.3270, 22845.60
531.8091, 23625.26
532.2912, 24423.67
532.7733, 25209.65
533.2554, 25988.85
533.7375, 26844.36
534.2197, 27849.21
534.7018, 28799.43
535.1839, 29659.36
535.6660, 30436.57
536.1481, 31163.58
536.6302, 31834.31
537.1124, 32347.21
537.5945, 32662.29
538.0766, 32762.97
538.5587, 32598.70
539.0408, 32172.42
539.5229, 31565.42
540.0051, 30802.34
540.4872, 29914.80
540.9693, 28984.55
541.4514, 27981.10
541.9335, 26995.71
542.4156, 25994.68
542.8978, 25054.05
543.3799, 24228.27
543.8620, 23508.61
544.3441, 22845.91
544.8262, 22214.25
545.3083, 21622.93
545.7905, 21091.56
546.2726, 20620.67
546.7547, 20210.43
547.2368, 19881.51
547.7189, 19589.61
548.2010, 19285.88
548.6832, 18980.11
549.1653, 18720.49
549.6474, 18541.07
550.1295, 18391.07
550.6116, 18233.94
551.0938, 18076.42
551.5759, 17933.45
552.0580, 17810.78
552.5401, 17703.52
553.0222, 17610.08
553.5043, 17534.72
553.9865, 17442.42
554.4686, 17310.32
554.9507, 17185.93
555.4328, 17068.74
555.9149, 16971.59
556.3970, 16916.98
556.8792, 16912.09
557.3613, 16920.48
557.8434, 16910.26
558.3255, 16886.45
558.8076, 16864.91
559.2897, 16847.31
559.7719, 16829.18
560.2540, 16807.43
560.7361, 16782.91
561.2182, 16758.56
561.7003, 16738.03
562.1824, 16711.53
562.6646, 16662.53
563.1467, 16617.46
563.6288, 16605.87
564.1109, 16621.84
564.5930, 16632.60
565.0751, 16614.13
565.5573, 16578.08
566.0394, 16556.94
566.5215, 16551.80
567.0036, 16556.74
567.4857, 16573.01
567.9678, 16596.96
568.4500, 16624.61
568.9321, 16656.28
569.4142, 16693.99
569.8963, 16754.69
570.3784, 16806.85
570.8605, 16806.63
571.3427, 16781.92
571.8248, 16806.70
572.3069, 16904.25
572.7890, 17014.32
573.2711, 17053.46
573.7532, 17008.88
574.2354, 17011.66
574.7175, 17106.78
575.1996, 17194.39
575.6817, 17243.90
576.1638, 17273.16
576.6459, 17306.14
577.1281, 17348.30
577.6102, 17378.96
578.0923, 17367.71
578.5744, 17337.72
579.0565, 17341.92
579.5386, 17383.11
580.0208, 17425.86
580.5029, 17453.97
580.9850, 17465.86
581.4671, 17456.26
581.9492, 17393.17
582.4313, 17362.72
582.9134, 17380.71
583.3955, 17416.65
583.8776, 17469.91
584.3597, 17524.14
584.8419, 17541.95
585.3240, 17497.57
585.8061, 17437.02
586.2882, 17438.38
586.7703, 17499.03
587.2524, 17551.58
587.7346, 17585.17
588.2167, 17608.70
588.6988, 17622.27
589.1809, 17630.05
589.6630, 17655.69
590.1451, 17720.67
590.6273, 17778.21
591.1094, 17812.37
591.5915, 17831.62
592.0736, 17840.71
592.5557, 17843.53
593.0378, 17848.93
593.5200, 17862.66
594.0021, 17886.29
594.4842, 17934.22
594.9663, 18021.74
595.4484, 18078.49
595.9305, 18063.13
596.4127, 18029.11
596.8948, 18028.21
597.3769, 18058.62
597.8590, 18089.20
598.3411, 18108.78
598.8232, 18127.62
599.3054, 18147.69
599.7875, 18173.86
600.2696, 18214.79
600.7517, 18273.40
601.2338, 18351.59
601.7159, 18457.47
602.1981, 18594.52
602.6802, 18696.90
603.1623, 18731.79
603.6444, 18783.24
604.1265, 18884.06
604.6086, 19009.54
605.0908, 19130.56
605.5729, 19242.14
606.0550, 19373.65
606.5371, 19557.04
607.0192, 19759.66
607.5013, 19936.14
607.9835, 20090.20
608.4656, 20256.62
608.9477, 20452.26
609.4298, 20666.84
609.9119, 20881.30
610.3940, 21089.39
610.8762, 21314.62
611.3583, 21560.38
611.8404, 21818.45
612.3225, 22091.32
612.8046, 22372.59
613.2867, 22649.19
613.7689, 22912.92
614.2510, 23200.37
614.7331, 23545.19
615.2152, 23933.32
615.6973, 24336.52
616.1794, 24754.18
616.6616, 25179.94
617.1437, 25610.13
617.6258, 26051.20
618.1079, 26526.12
618.5900, 27037.32
619.0721, 27582.03
619.5543, 28151.50
620.0364, 28756.65
620.5185, 29405.92
621.0006, 30097.72
621.4827, 30823.19
621.9648, 31577.72
622.4470, 32368.37
622.9291, 33214.85
623.4112, 34105.42
623.8933, 35011.75
624.3754, 35922.92
624.8575, 36864.95
625.3397, 37859.88
625.8218, 38895.90
626.3039, 39933.91
626.7860, 40928.61
627.2681, 41980.12
627.7502, 43136.51
628.2324, 44309.93
628.7145, 45480.30
629.1966, 46621.93
629.6787, 47706.45
630.1608, 48708.84
630.6429, 49660.13
631.1251, 50596.49
631.6072, 51514.24
632.0893, 52402.36
632.5714, 53270.63
633.0535, 54027.36
633.5356, 54600.58
634.0178, 54998.33
634.4999, 55261.59
634.9820, 55365.10
635.4641, 55375.32
635.9462, 55339.97
636.4283, 55179.88
636.9105, 54822.63
637.3926, 54281.27
637.8747, 53618.05
638.3568, 52850.91
638.8389, 52004.95
639.3210, 51109.23
