##NAMES=Lorenzenite
##RRUFFID=R060960
##IDEAL CHEMISTRY=Na_2_Ti^4+^_2_O_3_(Si_2_O_6_)
##LOCALITY=Khibiny Massif, Kola Peninsula, Russia
##OWNER=RRUFF
##SOURCE=Michael Scott
##DESCRIPTION=Dark brown prismatic single crystal
##STATUS=The identification of this mineral has been confirmed by X-ray diffraction and chemical analysis
##URL=rruff.info/R060960
##MEASURED CHEMISTRY=Na_2.00_(Ti_1.93_Nb^5+^_0.04_Fe^3+^_0.03_)_Σ=2_O_3_((Si_1.99_Al_0.01_)_Σ=2_O_6_) ; trace amounts of Ca
122.9694, 1261.889
123.4515, 1346.093
123.9336, 1429.383
124.4157, 1513.099
124.8979, 1589.926
125.3800, 1648.660
125.8621, 1684.147
126.3442, 1706.362
126.8263, 1723.376
127.3084, 1735.799
127.7905, 1749.593
128.2727, 1768.470
128.7548, 1792.050
129.2369, 1819.024
129.7190, 1848.530
130.2011, 1881.506
130.6832, 1922.662
131.1654, 1973.039
131.6475, 2022.722
132.1296, 2057.163
132.6117, 2078.391
133.0938, 2106.807
133.5759, 2152.631
134.0581, 2213.538
134.5402, 2267.538
135.0223, 2310.882
135.5044, 2357.395
135.9865, 2431.715
136.4686, 2536.783
136.9508, 2643.490
137.4329, 2747.398
137.9150, 2851.085
138.3971, 2914.240
138.8792, 2926.716
139.3613, 2904.949
139.8434, 2889.708
140.3256, 2884.063
140.8077, 2877.449
141.2898, 2867.100
141.7719, 2859.528
142.2540, 2825.755
142.7361, 2748.949
143.2183, 2639.859
143.7004, 2573.313
144.1825, 2562.745
144.6646, 2578.424
145.1467, 2599.457
145.6288, 2626.459
146.1110, 2658.744
146.5931, 2704.381
147.0752, 2766.238
147.5573, 2793.719
148.0394, 2761.852
148.5215, 2709.927
149.0037, 2676.522
149.4858, 2670.490
149.9679, 2673.865
150.4500, 2684.621
150.9321, 2704.389
151.4142, 2726.010
151.8964, 2753.092
152.3785, 2781.361
152.8606, 2804.776
153.3427, 2829.375
153.8248, 2844.353
154.3069, 2845.772
154.7890, 2829.717
155.2712, 2808.597
155.7533, 2780.058
156.2354, 2747.708
156.7175, 2718.977
157.1996, 2684.031
157.6817, 2660.517
158.1639, 2657.861
158.6460, 2687.988
159.1281, 2724.625
159.6102, 2760.110
160.0923, 2796.088
160.5744, 2839.097
161.0566, 2891.528
161.5387, 2951.505
162.0208, 3017.635
162.5029, 3089.017
162.9850, 3166.662
163.4671, 3250.125
163.9493, 3338.990
164.4314, 3436.872
164.9135, 3546.344
165.3956, 3665.168
165.8777, 3791.065
166.3598, 3930.732
166.8420, 4071.700
167.3241, 4205.937
167.8062, 4333.833
168.2883, 4460.270
168.7704, 4588.683
169.2525, 4718.885
169.7346, 4851.108
170.2168, 4974.220
170.6989, 5104.538
171.1810, 5256.542
171.6631, 5432.929
172.1452, 5623.269
172.6273, 5832.795
173.1095, 6051.640
173.5916, 6262.568
174.0737, 6497.708
174.5558, 6705.411
175.0379, 6828.674
175.5201, 6870.086
176.0022, 6801.033
176.4843, 6555.448
176.9664, 6164.027
177.4485, 5727.934
177.9306, 5259.443
178.4128, 4796.360
178.8949, 4396.339
179.3770, 4069.579
179.8591, 3805.195
180.3412, 3595.210
180.8233, 3435.857
181.3055, 3314.273
181.7876, 3231.184
182.2697, 3178.771
182.7518, 3133.496
183.2339, 3089.736
183.7160, 3052.344
184.1982, 3028.843
184.6803, 3019.288
185.1624, 3025.890
185.6445, 3054.738
186.1266, 3102.592
186.6087, 3157.052
187.0908, 3215.652
187.5730, 3278.072
188.0551, 3342.182
188.5372, 3408.870
189.0193, 3476.395
189.5014, 3524.041
189.9835, 3559.332
190.4657, 3653.580
190.9478, 3857.654
191.4299, 4137.631
191.9120, 4343.542
192.3941, 4466.278
192.8762, 4558.563
193.3584, 4693.666
193.8405, 4870.229
194.3226, 5002.508
194.8047, 5032.336
195.2868, 4976.875
195.7689, 4993.785
196.2511, 5100.345
196.7332, 5234.462
197.2153, 5323.946
197.6974, 5371.320
198.1795, 5353.916
198.6616, 5240.688
199.1438, 5030.340
199.6259, 4846.290
200.1080, 4688.386
200.5901, 4556.390
201.0722, 4449.466
201.5543, 4365.203
202.0364, 4315.202
202.5186, 4299.284
203.0007, 4315.129
203.4828, 4392.050
203.9649, 4536.306
204.4470, 4736.093
204.9291, 4966.907
205.4113, 5231.262
205.8934, 5520.498
206.3755, 5835.496
206.8576, 6180.687
207.3397, 6522.042
207.8218, 6852.774
208.3040, 7182.246
208.7861, 7535.796
209.2682, 7911.871
209.7503, 8306.450
210.2324, 8707.550
210.7145, 9095.150
211.1967, 9558.424
211.6788, 10103.73
212.1609, 10728.46
212.6430, 11432.89
213.1251, 12228.82
213.6072, 13069.44
214.0894, 14015.72
214.5715, 15240.93
215.0536, 16018.66
215.5357, 16296.56
216.0178, 16077.05
216.4999, 15275.68
216.9820, 13662.68
217.4642, 11868.76
217.9463, 10248.30
218.4284, 8785.146
218.9105, 7589.366
219.3926, 6701.829
219.8747, 6104.824
220.3569, 5644.837
220.8390, 5350.185
221.3211, 5153.119
221.8032, 5001.027
222.2853, 4894.605
222.7674, 4835.720
223.2496, 4829.074
223.7317, 4872.832
224.2138, 4947.725
224.6959, 5061.066
225.1780, 5197.467
225.6601, 5350.585
226.1423, 5526.283
226.6244, 5702.826
227.1065, 5871.605
227.5886, 6035.029
228.0707, 6216.108
228.5528, 6419.136
229.0350, 6638.417
229.5171, 6866.432
229.9992, 7107.097
230.4813, 7355.643
230.9634, 7607.643
231.4455, 7865.243
231.9276, 8145.975
232.4098, 8464.250
232.8919, 8792.163
233.3740, 9110.307
233.8561, 9483.049
234.3382, 9727.463
234.8203, 9813.850
235.3025, 9740.475
235.7846, 9522.692
236.2667, 9096.313
236.7488, 8587.112
237.2309, 8114.600
237.7130, 7663.897
238.1952, 7286.006
238.6773, 6991.192
239.1594, 6780.107
239.6415, 6643.320
240.1236, 6594.808
240.6057, 6606.950
241.0879, 6649.660
241.5700, 6710.027
242.0521, 6823.939
242.5342, 7003.843
243.0163, 7252.889
243.4984, 7524.662
243.9806, 7796.965
244.4627, 8111.655
244.9448, 8511.893
245.4269, 8999.785
245.9090, 9571.637
246.3911, 10231.88
246.8732, 10981.46
247.3554, 11806.17
247.8375, 12722.82
248.3196, 13697.92
248.8017, 14706.59
249.2838, 15771.77
249.7659, 16806.90
250.2481, 17781.69
250.7302, 18685.48
251.2123, 19651.44
251.6944, 20677.91
252.1765, 21768.90
252.6586, 22936.22
253.1408, 24159.06
253.6229, 25507.52
254.1050, 27010.69
254.5871, 28656.54
255.0692, 30471.19
255.5513, 32578.59
256.0334, 34730.20
256.5156, 36779.07
256.9977, 39044.81
257.4798, 40533.70
257.9619, 41001.93
258.4440, 40430.63
258.9261, 39106.32
259.4083, 36700.02
259.8904, 33895.07
260.3725, 31429.17
260.8546, 29216.74
261.3367, 27500.59
261.8188, 26387.57
262.3010, 25880.06
262.7831, 25616.63
263.2652, 25635.79
263.7473, 25844.59
264.2294, 26161.34
264.7115, 26608.47
265.1937, 27089.68
265.6758, 27565.47
266.1579, 28031.14
266.6400, 28616.99
267.1221, 29319.20
267.6042, 30140.57
268.0864, 31077.38
268.5685, 32149.92
269.0506, 33301.76
269.5327, 34521.21
270.0148, 35809.28
270.4969, 37196.73
270.9791, 38715.24
271.4612, 40266.45
271.9433, 41782.36
272.4254, 43306.84
272.9075, 44586.62
273.3896, 45603.65
273.8718, 46329.87
274.3539, 46594.87
274.8360, 46403.51
275.3181, 45741.46
275.8002, 44514.15
276.2823, 42661.18
276.7645, 40649.04
277.2466, 38477.89
277.7287, 36200.82
278.2108, 34150.03
278.6929, 32314.15
279.1750, 30698.70
279.6572, 29314.09
280.1393, 28162.10
280.6214, 27216.45
281.1035, 26484.09
281.5856, 25951.02
282.0677, 25572.28
282.5499, 25353.27
283.0320, 25261.15
283.5141, 25271.91
283.9962, 25385.64
284.4783, 25605.40
284.9604, 25937.10
285.4425, 26374.38
285.9247, 26894.92
286.4068, 27496.96
286.8889, 28172.70
287.3710, 28955.80
287.8531, 29830.73
288.3352, 30660.39
288.8174, 31440.27
289.2995, 32140.30
289.7816, 32683.04
290.2637, 33058.84
290.7458, 33345.04
291.2279, 33564.76
291.7101, 33730.20
292.1922, 33886.29
292.6743, 34013.13
293.1564, 34174.13
293.6385, 34473.21
294.1206, 34907.99
294.6028, 35451.83
295.0849, 36133.90
295.5670, 36918.29
296.0491, 37708.27
296.5312, 38487.45
297.0133, 39258.30
297.4955, 40043.61
297.9776, 40822.91
298.4597, 41558.57
298.9418, 42178.79
299.4239, 42738.98
299.9060, 43345.48
300.3882, 44012.65
300.8703, 44703.86
301.3524, 45409.75
301.8345, 46106.12
302.3166, 46710.24
302.7987, 47191.57
303.2809, 47548.65
303.7630, 47809.32
304.2451, 47986.79
304.7272, 47984.55
305.2093, 47733.64
305.6914, 47228.85
306.1736, 46479.07
306.6557, 45385.61
307.1378, 44090.90
307.6199, 42727.22
308.1020, 41291.34
308.5841, 39801.59
309.0663, 38245.18
309.5484, 36633.60
310.0305, 35038.24
310.5126, 33455.31
310.9947, 31902.45
311.4768, 30389.22
311.9590, 28920.51
312.4411, 27550.87
312.9232, 26343.60
313.4053, 25254.53
313.8874, 24248.22
314.3695, 23287.53
314.8517, 22400.92
315.3337, 21598.79
315.8159, 20881.32
316.2980, 20250.53
316.7801, 19707.54
317.2622, 19245.35
317.7443, 18853.21
318.2264, 18522.27
318.7086, 18272.23
319.1907, 18117.07
319.6728, 18053.27
320.1549, 18054.43
320.6370, 18118.88
321.1191, 18242.01
321.6013, 18421.45
322.0834, 18667.09
322.5655, 18954.63
323.0476, 19271.16
323.5297, 19623.04
324.0118, 20036.89
324.4940, 20558.06
324.9761, 21111.89
325.4582, 21659.10
325.9403, 22142.60
326.4224, 22697.01
326.9045, 23364.82
327.3867, 24114.14
327.8688, 24858.62
328.3509, 25659.97
328.8330, 26399.90
329.3151, 27046.75
329.7972, 27603.75
330.2794, 28067.13
330.7615, 28509.34
331.2436, 28839.28
331.7257, 28892.02
332.2078, 28614.88
332.6899, 28137.12
333.1721, 27481.17
333.6542, 26636.55
334.1363, 25671.57
334.6184, 24530.64
335.1005, 23312.35
335.5826, 22107.41
336.0648, 20872.35
336.5469, 19745.32
337.0290, 18748.12
337.5111, 17877.24
337.9932, 17142.08
338.4753, 16559.79
338.9575, 16081.89
339.4396, 15654.76
339.9217, 15270.43
340.4038, 14976.37
340.8859, 14792.65
341.3680, 14704.46
341.8502, 14626.31
342.3323, 14550.76
342.8144, 14525.81
343.2965, 14597.13
343.7786, 14764.42
344.2607, 14975.05
344.7429, 15228.43
345.2250, 15516.32
345.7071, 15840.23
346.1892, 16205.57
346.6713, 16539.71
347.1534, 16834.98
347.6355, 17072.38
348.1176, 17187.03
348.5998, 17178.00
349.0819, 17027.67
349.5640, 16703.40
350.0461, 16206.96
350.5282, 15583.61
351.0103, 14781.02
351.4925, 13884.52
351.9746, 13017.64
352.4567, 12189.39
352.9388, 11418.75
353.4209, 10726.36
353.9030, 10106.15
354.3852, 9544.271
354.8673, 9045.017
355.3494, 8595.723
355.8315, 8182.676
356.3136, 7807.443
356.7957, 7476.513
357.2779, 7209.943
357.7600, 6989.139
358.2421, 6793.509
358.7242, 6619.661
359.2063, 6462.972
359.6884, 6316.652
360.1706, 6182.899
360.6527, 6075.629
361.1348, 6018.785
361.6169, 5980.834
362.0990, 5937.604
362.5811, 5875.071
363.0633, 5818.400
363.5454, 5775.312
364.0275, 5743.886
364.5096, 5718.805
364.9917, 5694.792
365.4738, 5679.843
365.9560, 5678.820
366.4381, 5698.057
366.9202, 5718.780
367.4023, 5743.279
367.8844, 5767.514
368.3665, 5784.870
368.8487, 5797.750
369.3308, 5801.171
369.8129, 5795.935
370.2950, 5784.401
370.7771, 5751.548
371.2592, 5686.660
371.7414, 5608.150
372.2235, 5534.209
372.7056, 5471.495
373.1877, 5399.676
373.6698, 5310.318
374.1519, 5206.275
374.6341, 5116.652
375.1162, 5041.965
375.5983, 4982.139
376.0804, 4941.455
376.5625, 4925.265
377.0446, 4902.195
377.5267, 4867.049
378.0089, 4824.077
378.4910, 4785.391
378.9731, 4751.312
379.4552, 4720.714
379.9373, 4693.420
380.4194, 4669.327
380.9016, 4650.380
381.3837, 4638.173
381.8658, 4626.904
382.3479, 4609.237
382.8300, 4585.356
383.3121, 4555.066
383.7943, 4520.320
384.2764, 4479.172
384.7585, 4422.095
385.2406, 4348.566
385.7227, 4274.007
386.2048, 4221.285
386.6870, 4179.576
387.1691, 4124.504
387.6512, 4033.388
388.1333, 3939.111
388.6154, 3878.876
389.0975, 3848.790
389.5797, 3821.410
390.0618, 3775.938
390.5439, 3725.893
391.0260, 3686.696
391.5081, 3666.739
391.9902, 3648.908
392.4724, 3620.274
392.9545, 3586.501
393.4366, 3560.529
393.9187, 3544.516
394.4008, 3540.234
394.8829, 3553.399
395.3651, 3591.762
395.8472, 3618.442
396.3293, 3612.399
396.8114, 3593.423
397.2935, 3585.294
397.7756, 3597.979
398.2578, 3615.521
398.7399, 3634.371
399.2220, 3654.242
399.7041, 3678.408
400.1862, 3708.519
400.6683, 3741.551
401.1505, 3774.903
401.6326, 3802.966
402.1147, 3842.145
402.5968, 3901.401
403.0789, 3972.377
403.5610, 4022.055
404.0432, 4037.498
404.5253, 4057.461
405.0074, 4105.018
405.4895, 4188.716
405.9716, 4255.001
406.4537, 4297.394
406.9359, 4331.847
407.4180, 4385.707
407.9001, 4461.217
408.3822, 4532.138
408.8643, 4585.719
409.3464, 4626.812
409.8285, 4677.583
410.3106, 4737.731
410.7928, 4808.487
411.2749, 4897.635
411.7570, 5000.782
412.2391, 5098.428
412.7212, 5184.628
413.2033, 5266.261
413.6855, 5351.354
414.1676, 5439.330
414.6497, 5529.896
415.1318, 5620.710
415.6139, 5714.017
416.0960, 5811.075
416.5782, 5912.792
417.0603, 6017.791
417.5424, 6121.303
418.0245, 6226.934
418.5066, 6340.606
418.9887, 6479.659
419.4709, 6616.111
419.9530, 6728.474
420.4351, 6814.069
420.9172, 6916.646
421.3993, 7057.232
421.8814, 7217.920
422.3636, 7383.904
422.8457, 7545.529
423.3278, 7720.078
423.8099, 7914.443
424.2920, 8126.162
424.7741, 8334.727
425.2563, 8528.429
425.7384, 8730.157
426.2205, 8946.326
426.7026, 9182.885
427.1847, 9419.118
427.6668, 9642.135
428.1490, 9871.743
428.6311, 10136.40
429.1132, 10441.03
429.5953, 10777.24
430.0774, 11145.16
430.5595, 11542.29
431.0417, 11940.11
431.5238, 12333.19
432.0059, 12736.93
432.4880, 13161.96
432.9701, 13608.39
433.4522, 14081.57
433.9344, 14593.89
434.4165, 15126.68
434.8986, 15648.41
435.3807, 16162.80
435.8628, 16709.79
436.3449, 17327.60
436.8271, 17992.75
437.3092, 18661.62
437.7913, 19325.09
438.2734, 19991.56
438.7555, 20663.42
439.2376, 21342.23
439.7197, 22030.88
440.2018, 22756.21
440.6840, 23471.81
441.1661, 24147.46
441.6482, 24778.73
442.1303, 25381.61
442.6124, 25965.85
443.0945, 26524.02
443.5767, 27042.49
444.0588, 27511.17
444.5409, 27960.84
445.0230, 28418.22
445.5051, 28863.05
445.9872, 29247.73
446.4694, 29595.86
446.9515, 29853.62
447.4336, 30001.79
447.9157, 30037.15
448.3978, 29989.29
448.8799, 29841.80
449.3621, 29625.06
449.8442, 29371.01
450.3263, 29097.18
450.8084, 28745.59
451.2905, 28295.48
451.7726, 27765.12
452.2548, 27204.76
452.7369, 26608.13
453.2190, 25995.79
453.7011, 25369.90
454.1832, 24732.91
454.6653, 24079.40
455.1475, 23394.05
455.6296, 22723.38
456.1117, 22120.93
456.5938, 21584.66
457.0759, 21068.72
457.5580, 20561.82
458.0402, 20067.31
458.5223, 19588.67
459.0044, 19122.98
459.4865, 18684.97
459.9686, 18263.89
460.4507, 17880.53
460.9329, 17555.83
461.4150, 17309.46
461.8971, 17103.21
462.3792, 16909.57
462.8613, 16738.63
463.3434, 16605.66
463.8256, 16515.61
464.3077, 16468.13
464.7898, 16467.67
465.2719, 16517.18
465.7540, 16588.97
466.2361, 16646.30
466.7183, 16740.87
467.2004, 16914.36
467.6825, 17227.38
468.1646, 17544.01
468.6467, 17841.46
469.1288, 18138.97
469.6110, 18499.24
470.0930, 18931.98
470.5752, 19410.89
471.0573, 19929.46
471.5394, 20484.01
472.0215, 21087.21
472.5036, 21741.11
472.9857, 22438.10
473.4679, 23173.31
473.9500, 23940.41
474.4321, 24744.01
474.9142, 25591.77
475.3963, 26470.54
475.8784, 27352.85
476.3606, 28239.27
476.8427, 29134.87
477.3248, 30020.82
477.8069, 30917.37
478.2890, 31870.00
478.7711, 32899.32
479.2533, 33911.62
479.7354, 34858.12
480.2175, 35728.19
480.6996, 36506.09
481.1817, 37189.35
481.6638, 37764.32
482.1460, 38232.92
482.6281, 38586.27
483.1102, 38796.46
483.5923, 38892.08
484.0744, 38810.67
484.5565, 38509.91
485.0387, 37956.61
485.5208, 37228.43
486.0029, 36258.36
486.4850, 35131.68
486.9671, 33969.85
487.4492, 32772.24
487.9314, 31560.00
488.4135, 30312.13
488.8956, 29038.42
489.3777, 27872.93
489.8598, 26808.21
490.3419, 25849.83
490.8241, 24996.39
491.3062, 24246.64
491.7883, 23574.71
492.2704, 22963.97
492.7525, 22444.40
493.2346, 22066.91
493.7168, 21829.48
494.1989, 21664.86
494.6810, 21532.05
495.1631, 21455.42
495.6452, 21499.35
496.1273, 21660.48
496.6095, 21848.31
497.0916, 22047.69
497.5737, 22208.53
498.0558, 22278.28
498.5379, 22272.53
499.0201, 22118.35
499.5022, 21782.64
499.9843, 21268.37
500.4664, 20584.11
500.9485, 19645.15
501.4306, 18625.28
501.9127, 17567.80
502.3948, 16468.16
502.8770, 15440.31
503.3591, 14487.42
503.8412, 13623.81
504.3233, 12850.85
504.8054, 12171.95
505.2875, 11587.46
505.7697, 11108.13
506.2518, 10711.56
506.7339, 10361.68
507.2160, 10064.20
507.6981, 9791.015
508.1802, 9537.347
508.6624, 9300.567
509.1445, 9057.700
509.6266, 8807.902
510.1087, 8559.773
510.5908, 8330.432
511.0729, 8110.588
511.5551, 7866.442
512.0372, 7581.489
512.5193, 7289.959
513.0014, 7027.764
513.4835, 6792.081
513.9656, 6578.728
514.4478, 6394.343
514.9299, 6224.992
515.4120, 6055.541
515.8941, 5885.229
516.3762, 5740.146
516.8583, 5643.154
517.3405, 5569.903
517.8226, 5502.407
518.3047, 5430.746
518.7868, 5373.729
519.2689, 5330.072
519.7510, 5302.763
520.2332, 5298.659
520.7153, 5318.661
521.1974, 5360.595
521.6795, 5426.935
522.1616, 5517.628
522.6437, 5612.528
523.1259, 5707.299
523.6080, 5815.511
524.0901, 5948.426
524.5722, 6107.251
525.0543, 6279.837
525.5364, 6465.181
526.0186, 6667.979
526.5007, 6894.285
526.9828, 7142.731
527.4649, 7416.523
527.9470, 7731.212
528.4291, 8062.754
528.9113, 8378.428
529.3934, 8680.995
529.8755, 9024.963
530.3576, 9467.691
530.8397, 9952.124
531.3218, 10431.78
531.8040, 10877.46
532.2861, 11357.01
532.7682, 11896.07
533.2503, 12476.47
533.7324, 13057.67
534.2145, 13657.33
534.6967, 14238.45
535.1788, 14814.10
535.6609, 15374.61
536.1430, 15877.25
536.6251, 16343.90
537.1072, 16701.77
537.5894, 16907.59
538.0715, 16959.81
538.5536, 16873.51
539.0357, 16647.79
539.5178, 16286.49
539.9999, 15754.42
540.4821, 15070.06
540.9642, 14343.69
541.4463, 13578.98
541.9284, 12809.95
542.4105, 12078.99
542.8926, 11389.40
543.3748, 10738.40
543.8569, 10121.64
544.3390, 9553.852
544.8211, 9047.013
545.3032, 8600.009
545.7853, 8194.456
546.2675, 7822.756
546.7495, 7486.428
547.2316, 7186.972
547.7137, 6940.037
548.1959, 6713.425
548.6780, 6497.177
549.1601, 6295.460
549.6422, 6117.830
550.1243, 5972.049
550.6064, 5839.295
551.0886, 5714.820
551.5707, 5598.692
552.0528, 5488.253
552.5349, 5384.211
553.0170, 5286.808
553.4991, 5195.500
553.9813, 5110.553
554.4634, 5037.751
554.9455, 4979.685
555.4276, 4928.888
555.9097, 4875.777
556.3918, 4821.606
556.8740, 4769.520
557.3561, 4722.259
557.8382, 4677.056
558.3203, 4630.808
558.8024, 4583.730
559.2845, 4538.723
559.7667, 4488.713
560.2488, 4446.720
560.7309, 4424.177
561.2130, 4431.309
561.6951, 4432.405
562.1772, 4418.707
562.6594, 4396.211
563.1415, 4371.126
563.6236, 4335.042
564.1057, 4310.533
564.5878, 4303.233
565.0699, 4308.893
565.5521, 4311.145
566.0342, 4307.495
566.5163, 4309.666
566.9984, 4328.532
567.4805, 4360.700
567.9626, 4373.205
568.4448, 4364.042
568.9269, 4357.188
569.4090, 4379.321
569.8911, 4420.159
570.3732, 4457.787
570.8553, 4487.539
571.3375, 4512.295
571.8196, 4526.399
572.3017, 4537.625
572.7838, 4560.269
573.2659, 4618.115
573.7480, 4671.927
574.2302, 4699.104
574.7123, 4701.494
575.1944, 4713.301
575.6765, 4752.345
576.1586, 4792.032
576.6407, 4818.586
577.1229, 4824.257
577.6050, 4843.090
578.0871, 4883.040
578.5692, 4926.180
579.0513, 4951.227
579.5334, 4957.238
580.0156, 4951.732
580.4977, 4929.714
580.9798, 4905.506
581.4619, 4915.329
581.9440, 4954.440
582.4261, 4989.218
582.9083, 5003.257
583.3904, 5000.804
583.8725, 4980.560
584.3546, 4943.940
584.8367, 4914.955
585.3188, 4909.675
585.8010, 4917.770
586.2831, 4930.462
586.7652, 4946.547
587.2473, 4966.055
587.7294, 4993.822
588.2115, 5023.578
588.6937, 5046.186
589.1758, 5052.366
589.6579, 5064.798
590.1400, 5088.886
590.6221, 5121.830
591.1042, 5150.437
591.5864, 5171.716
592.0685, 5198.406
592.5506, 5240.243
593.0327, 5294.887
593.5148, 5341.041
593.9969, 5378.476
594.4791, 5411.788
594.9612, 5439.562
595.4433, 5467.311
595.9254, 5506.384
596.4075, 5560.493
596.8896, 5622.569
597.3718, 5687.171
597.8539, 5755.352
598.3360, 5828.452
598.8181, 5905.224
599.3002, 5989.160
599.7823, 6085.253
600.2645, 6191.618
600.7466, 6293.250
601.2287, 6379.694
601.7108, 6469.983
602.1929, 6568.082
602.6750, 6670.887
603.1572, 6803.727
603.6393, 6975.587
604.1214, 7160.035
604.6035, 7334.679
605.0856, 7500.700
605.5677, 7667.544
606.0499, 7836.041
606.5320, 8012.157
607.0141, 8205.148
607.4962, 8412.590
607.9783, 8631.708
608.4604, 8859.860
608.9425, 9098.006
609.4246, 9335.063
609.9067, 9578.656
610.3889, 9852.510
610.8710, 10185.80
611.3531, 10536.43
611.8352, 10879.16
612.3173, 11208.91
612.7994, 11558.79
613.2816, 11930.70
613.7637, 12326.03
614.2458, 12744.85
614.7279, 13182.29
615.2100, 13663.79
615.6921, 14197.35
616.1743, 14765.02
616.6564, 15317.82
617.1385, 15858.93
617.6206, 16442.54
