##NAMES=Lotharmeyerite
##RRUFFID=R060862
##IDEAL CHEMISTRY=CaZn^2+^_2_(As^5+^O_4_)_2_&#183;2H_2_O
##LOCALITY=Mapimi, Durango, Mexico
##OWNER=RRUFF
##SOURCE=Michael Scott
##DESCRIPTION=Dark reddish brown bladed crystals, crystal structure is reported by Yang et al (2012)
##STATUS=The identification of this mineral is confirmed by single-crystal X-ray diffraction and chemical analysis.
##URL=rruff.info/R060862
##MEASURED CHEMISTRY=Ca_0.99_(Zn_1.01_Mn^+3^_0.85_)_Σ=1.86_(As_1.03_O_4_)_2_·[(OH)_0.85_ (H_2_O)_1.17_] ; (Total low,  mineral unstable under electron beam, blades are lotharmeyerite, botryoidal material is Mn oxide?)
90.49219, 42.12738
90.97430, 42.29142
91.45642, 42.26795
91.93854, 42.06886
92.42065, 41.79374
92.90277, 41.39381
93.38489, 40.96861
93.86700, 40.76825
94.34912, 41.09402
94.83124, 41.63789
95.31335, 41.69569
95.79547, 41.22064
96.27759, 40.59143
96.75970, 40.35047
97.24182, 40.45362
97.72394, 40.28782
98.20605, 39.34475
98.68817, 37.71777
99.17029, 36.62884
99.65240, 36.14084
100.1345, 36.09916
100.6166, 36.36908
101.0988, 37.08009
101.5809, 37.54572
102.0630, 37.25856
102.5451, 35.99588
103.0272, 35.10276
103.5093, 34.77077
103.9915, 34.85755
104.4736, 34.77242
104.9557, 34.53468
105.4378, 34.09538
105.9199, 33.34819
106.4020, 31.86475
106.8842, 30.86735
107.3663, 30.65827
107.8484, 31.25192
108.3305, 31.61380
108.8126, 31.70684
109.2947, 31.58514
109.7769, 31.29733
110.2590, 30.74967
110.7411, 30.12989
111.2232, 29.41412
111.7053, 28.53672
112.1874, 27.86139
112.6696, 27.61279
113.1517, 27.53363
113.6338, 27.29047
114.1159, 26.47351
114.5980, 25.78136
115.0801, 25.52575
115.5623, 25.98716
116.0444, 26.29676
116.5265, 26.07748
117.0086, 25.54151
117.4907, 25.13737
117.9728, 25.19652
118.4550, 25.32867
118.9371, 25.27793
119.4192, 24.89831
119.9013, 24.47126
120.3834, 24.02038
120.8655, 23.60142
121.3477, 23.43219
121.8298, 23.99869
122.3119, 24.74942
122.7940, 25.09418
123.2761, 24.70670
123.7582, 23.98008
124.2404, 23.15304
124.7225, 22.23527
125.2046, 21.34266
125.6867, 20.46221
126.1688, 19.67954
126.6509, 19.15962
127.1331, 19.14308
127.6152, 19.36551
128.0973, 19.38721
128.5794, 19.18692
129.0615, 19.04345
129.5436, 19.28874
130.0258, 19.86243
130.5079, 20.48880
130.9900, 21.27445
131.4721, 22.03690
131.9542, 22.10935
132.4363, 21.33610
132.9185, 20.29413
133.4006, 19.90732
133.8827, 20.17252
134.3648, 20.41910
134.8469, 20.22866
135.3290, 19.63690
135.8112, 19.12570
136.2933, 18.67782
136.7754, 18.39594
137.2575, 18.68646
137.7396, 19.71143
138.2217, 20.58218
138.7039, 20.66297
139.1860, 19.83186
139.6681, 19.03844
140.1502, 18.31712
140.6323, 17.71905
141.1144, 17.49788
141.5966, 17.80509
142.0787, 18.20068
142.5608, 18.39118
143.0429, 18.41278
143.5250, 18.10129
144.0071, 17.24190
144.4893, 15.88303
144.9714, 15.13178
145.4535, 15.33164
145.9356, 15.81157
146.4177, 15.94296
146.8998, 15.55392
147.3820, 15.08460
147.8641, 14.51569
148.3462, 13.77970
148.8283, 13.45220
149.3104, 13.75593
149.7925, 14.36105
150.2747, 14.90385
150.7568, 15.67861
151.2389, 16.07613
151.7210, 15.83060
152.2031, 14.62399
152.6852, 13.79309
153.1674, 13.43260
153.6495, 13.43639
154.1316, 13.64490
154.6137, 14.25895
155.0958, 14.89367
155.5779, 15.44235
156.0601, 15.90639
156.5422, 16.25932
157.0243, 16.57863
157.5064, 16.77815
157.9885, 16.69101
158.4706, 15.54694
158.9528, 14.64552
159.4349, 14.67380
159.9170, 16.32582
160.3991, 17.86427
160.8812, 18.85316
161.3633, 19.37486
161.8455, 19.64574
162.3276, 19.15914
162.8097, 18.79941
163.2918, 19.17186
163.7739, 20.95431
164.2560, 22.74509
164.7382, 23.89848
165.2203, 24.54177
165.7024, 25.16219
166.1845, 26.02161
166.6666, 26.95247
167.1487, 27.79237
167.6309, 28.43408
168.1130, 29.05160
168.5951, 29.63177
169.0772, 30.21814
169.5593, 31.06763
170.0414, 32.54937
170.5236, 34.32363
171.0057, 35.96618
171.4878, 37.38512
171.9699, 38.60489
172.4520, 39.57651
172.9341, 40.31745
173.4163, 40.98653
173.8984, 41.76015
174.3805, 42.53729
174.8626, 43.12886
175.3447, 43.19754
175.8268, 43.19851
176.3090, 43.60495
176.7911, 44.41436
177.2732, 45.55580
177.7553, 47.18000
178.2374, 48.89374
178.7195, 50.02122
179.2017, 49.79508
179.6838, 49.03124
180.1659, 49.03556
180.6480, 49.85081
181.1301, 50.85866
181.6122, 51.42540
182.0944, 51.68284
182.5765, 52.04884
183.0586, 52.77167
183.5407, 53.71544
184.0228, 54.63930
184.5049, 55.52975
184.9871, 56.40418
185.4692, 57.22173
185.9513, 58.01067
186.4334, 58.88353
186.9155, 60.02822
187.3976, 61.31787
187.8798, 62.24092
188.3619, 62.68073
188.8440, 63.12076
189.3261, 64.48959
189.8082, 66.70569
190.2903, 68.52081
190.7725, 69.26398
191.2546, 69.05502
191.7367, 68.29990
192.2188, 66.78980
192.7009, 65.31911
193.1830, 65.46776
193.6652, 67.23518
194.1473, 69.06826
194.6294, 70.07260
195.1115, 70.31528
195.5936, 70.64204
196.0757, 71.13793
196.5579, 71.67394
197.0400, 71.97399
197.5221, 72.01891
198.0042, 72.04109
198.4863, 72.16898
198.9684, 72.40319
199.4506, 72.66138
199.9327, 72.95375
200.4148, 73.24514
200.8969, 73.39733
201.3790, 73.36291
201.8611, 73.45123
202.3433, 73.89622
202.8254, 74.73244
203.3075, 75.54394
203.7896, 76.36759
204.2717, 77.08515
204.7538, 77.29403
205.2360, 76.86861
205.7181, 76.39775
206.2002, 76.16676
206.6823, 76.15529
207.1644, 76.54590
207.6465, 77.51334
208.1287, 78.80013
208.6108, 79.66515
209.0929, 80.04747
209.5750, 80.18115
210.0571, 80.16840
210.5392, 79.97717
211.0214, 79.77424
211.5035, 79.50741
211.9856, 79.26050
212.4677, 79.40250
212.9498, 80.14674
213.4319, 80.80900
213.9141, 80.85989
214.3962, 80.00051
214.8783, 79.63814
215.3604, 80.05080
215.8425, 81.02715
216.3246, 81.72866
216.8067, 82.15529
217.2889, 82.32308
217.7710, 82.15824
218.2531, 81.44224
218.7352, 81.04433
219.2173, 81.09224
219.6994, 81.51163
220.1816, 82.00595
220.6637, 82.75315
221.1458, 83.28210
221.6279, 83.21062
222.1100, 82.20786
222.5921, 81.48403
223.0743, 81.19089
223.5564, 81.25136
224.0385, 81.29056
224.5206, 81.26073
225.0027, 81.28566
225.4848, 81.47319
225.9670, 81.95369
226.4491, 82.28738
226.9312, 82.45496
227.4133, 82.45540
227.8954, 82.24635
228.3775, 81.68503
228.8597, 81.12996
229.3418, 80.81949
229.8239, 80.87766
230.3060, 80.89992
230.7881, 80.90197
231.2702, 80.84905
231.7524, 80.54721
232.2345, 79.83069
232.7166, 79.10213
233.1987, 78.59280
233.6808, 78.32643
234.1629, 78.23190
234.6451, 78.37327
235.1272, 78.68674
235.6093, 78.88908
236.0914, 78.90679
236.5735, 78.91434
237.0556, 79.02576
237.5378, 79.35000
238.0199, 79.54996
238.5020, 79.63583
238.9841, 79.58918
239.4662, 79.28732
239.9483, 78.49374
240.4305, 77.77237
240.9126, 77.42610
241.3947, 77.59489
241.8768, 77.85497
242.3589, 78.32040
242.8410, 78.85831
243.3232, 78.94218
243.8053, 78.20980
244.2874, 77.51981
244.7695, 77.38955
245.2516, 78.33073
245.7337, 78.64217
246.2159, 77.96040
246.6980, 76.65067
247.1801, 75.90604
247.6622, 75.91358
248.1443, 76.18764
248.6264, 76.52711
249.1086, 76.99509
249.5907, 77.38738
250.0728, 77.72871
250.5549, 77.98586
251.0370, 78.03930
251.5191, 77.73779
252.0013, 77.47540
252.4834, 77.43441
252.9655, 77.70089
253.4476, 77.98705
253.9297, 78.38691
254.4118, 78.76578
254.8940, 78.77255
255.3761, 78.14351
255.8582, 77.60872
256.3403, 77.53970
256.8224, 78.17740
257.3046, 78.46526
257.7867, 78.29436
258.2688, 77.83933
258.7509, 77.40079
259.2330, 76.91007
259.7151, 76.58223
260.1973, 76.53857
260.6794, 76.85853
261.1615, 77.11749
261.6436, 77.33309
262.1257, 77.47144
262.6078, 77.47769
263.0900, 77.35852
263.5721, 77.08827
264.0542, 76.55598
264.5363, 75.64414
265.0184, 75.27151
265.5005, 75.59269
265.9827, 76.26206
266.4648, 76.81411
266.9469, 77.23351
267.4290, 77.57365
267.9111, 77.88276
268.3932, 78.17062
268.8754, 78.16316
269.3575, 77.71358
269.8396, 77.19137
270.3217, 77.17434
270.8038, 77.86576
271.2859, 78.24596
271.7681, 77.87210
272.2502, 76.78590
272.7323, 76.28748
273.2144, 76.54285
273.6965, 77.06606
274.1786, 77.34684
274.6608, 77.34738
275.1429, 77.32526
275.6250, 77.34935
276.1071, 77.40700
276.5892, 77.38122
277.0714, 77.24387
277.5535, 77.10514
278.0356, 77.07528
278.5177, 77.16317
278.9998, 77.27012
279.4819, 77.40031
279.9641, 77.52940
280.4462, 77.49003
280.9283, 77.22536
281.4104, 77.03542
281.8925, 77.28331
282.3746, 77.97944
282.8568, 78.38638
283.3389, 78.34634
283.8210, 77.97523
284.3031, 77.51453
284.7852, 76.94093
285.2673, 76.47979
285.7495, 76.42432
286.2316, 76.72562
286.7137, 76.65955
287.1958, 76.00945
287.6779, 75.13701
288.1600, 74.87357
288.6422, 75.22893
289.1243, 75.55633
289.6064, 75.26630
290.0885, 74.52687
290.5706, 74.27523
291.0527, 74.67042
291.5349, 75.38925
292.0170, 76.01365
292.4991, 76.53268
292.9812, 76.89822
293.4633, 76.96105
293.9454, 76.83504
294.4276, 76.87244
294.9097, 77.09341
295.3918, 77.47038
295.8739, 78.04006
296.3560, 78.76163
296.8381, 79.46841
297.3203, 80.11776
297.8024, 80.68452
298.2845, 81.10561
298.7666, 81.37436
299.2487, 81.56818
299.7308, 81.78845
300.2130, 82.00399
300.6951, 82.11715
301.1772, 81.88036
301.6593, 81.62070
302.1414, 81.82206
302.6235, 82.47735
303.1057, 83.37868
303.5878, 84.67696
304.0699, 86.06705
304.5520, 86.92647
305.0341, 86.66299
305.5162, 86.14555
305.9984, 86.31142
306.4805, 87.08595
306.9626, 87.96988
307.4447, 88.68935
307.9268, 89.29090
308.4089, 89.79404
308.8911, 90.07985
309.3732, 90.46262
309.8553, 91.35771
310.3374, 92.60186
310.8195, 93.66155
311.3016, 94.10452
311.7838, 94.28016
312.2659, 94.52355
312.7480, 94.97066
313.2301, 95.31046
313.7122, 95.21460
314.1943, 94.87766
314.6765, 94.71175
315.1586, 95.05290
315.6407, 95.51655
316.1228, 95.79405
316.6049, 95.74098
317.0870, 95.95965
317.5692, 97.25860
318.0513, 98.86919
318.5334, 99.70619
319.0155, 98.69501
319.4976, 97.46066
319.9797, 96.60449
320.4619, 96.16927
320.9440, 96.12441
321.4261, 97.00529
321.9082, 98.03806
322.3903, 98.48550
322.8724, 97.50664
323.3546, 96.61486
323.8367, 96.30542
324.3188, 96.55927
324.8009, 96.61201
325.2830, 96.10204
325.7651, 95.50233
326.2473, 95.12052
326.7294, 95.04678
327.2115, 95.12379
327.6936, 95.37625
328.1757, 95.78380
328.6578, 96.25015
329.1400, 96.89309
329.6221, 97.49910
330.1042, 97.98371
330.5863, 98.31105
331.0684, 98.56654
331.5505, 98.56387
332.0327, 98.52009
332.5148, 98.95773
332.9969, 100.3344
333.4790, 101.5760
333.9611, 102.3223
334.4432, 102.4701
334.9254, 102.5113
335.4075, 102.4306
335.8896, 102.2504
336.3717, 101.9270
336.8538, 101.2479
337.3359, 100.9636
337.8180, 101.4328
338.3001, 102.6353
338.7823, 103.3910
339.2644, 103.6160
339.7465, 103.5522
340.2286, 103.3018
340.7107, 102.7698
341.1928, 102.7012
341.6750, 103.4598
342.1571, 104.7233
342.6392, 105.0130
343.1213, 104.1409
343.6034, 103.3149
344.0855, 103.6450
344.5677, 105.0629
345.0498, 105.8656
345.5319, 105.7226
346.0140, 105.0792
346.4961, 104.7376
346.9782, 104.6901
347.4604, 104.7333
347.9425, 104.8571
348.4246, 104.9950
348.9067, 104.8580
349.3888, 104.3958
349.8709, 103.8346
350.3531, 103.3461
350.8352, 102.9625
351.3173, 102.8034
351.7994, 103.1026
352.2815, 103.5955
352.7636, 103.8814
353.2458, 103.9585
353.7279, 103.8342
354.2100, 103.4495
354.6921, 102.8755
355.1742, 102.2245
355.6563, 101.4081
356.1385, 100.6498
356.6206, 100.2627
357.1027, 100.1647
357.5848, 99.96055
358.0669, 99.42590
358.5490, 98.66547
359.0312, 97.77235
359.5133, 96.73849
359.9954, 95.61698
360.4775, 94.16091
360.9596, 92.63428
361.4417, 91.61643
361.9239, 92.09571
362.4060, 92.55641
362.8881, 92.06934
363.3702, 90.36874
363.8523, 88.64045
364.3344, 87.04273
364.8166, 85.69875
365.2987, 84.74147
365.7808, 84.70021
366.2629, 84.57690
366.7450, 84.08743
367.2271, 83.22651
367.7093, 82.32063
368.1914, 81.25786
368.6735, 80.25410
369.1556, 79.44488
369.6377, 79.02483
370.1198, 78.58236
370.6020, 78.08911
371.0841, 77.55979
371.5662, 77.03878
372.0483, 76.45183
372.5304, 75.97032
373.0125, 75.71646
373.4947, 75.88523
373.9768, 75.70760
374.4589, 75.05936
374.9410, 74.16221
375.4231, 73.33279
375.9052, 72.49938
376.3874, 71.92899
376.8695, 71.78106
377.3516, 72.04280
377.8337, 72.21118
378.3158, 72.34013
378.7979, 72.24581
379.2801, 71.59647
379.7622, 70.34863
380.2443, 69.41207
380.7264, 69.01834
381.2085, 68.99017
381.6906, 68.87190
382.1728, 68.66222
382.6549, 68.43077
383.1370, 68.18823
383.6191, 67.95423
384.1012, 67.82785
384.5833, 67.82835
385.0655, 67.89561
385.5476, 68.02100
386.0297, 68.16501
386.5118, 68.17845
386.9939, 67.88676
387.4760, 67.46354
387.9582, 67.12986
388.4403, 66.88843
388.9224, 66.76534
389.4045, 66.96426
389.8866, 67.25022
390.3687, 67.28201
390.8509, 66.80695
391.3330, 66.19743
391.8151, 65.60689
392.2972, 65.07092
392.7793, 64.71958
393.2614, 64.71883
393.7436, 64.86279
394.2257, 64.99439
394.7078, 65.03830
395.1899, 65.18578
395.6720, 65.63770
396.1541, 66.21206
396.6363, 66.61660
397.1184, 66.65301
397.6005, 66.62624
398.0826, 66.63618
398.5647, 66.69582
399.0468, 66.72561
399.5290, 66.54864
400.0111, 66.43430
400.4932, 66.60400
400.9753, 67.38377
401.4574, 68.01238
401.9395, 68.39342
402.4217, 68.56550
402.9038, 68.70857
403.3859, 68.89476
403.8680, 68.94630
404.3501, 68.67492
404.8322, 67.82472
405.3144, 67.62589
405.7965, 68.32607
406.2786, 69.38428
406.7607, 69.86264
407.2428, 69.62843
407.7249, 69.55095
408.2071, 70.01695
408.6892, 70.90636
409.1713, 71.43688
409.6534, 71.58176
410.1355, 71.52461
410.6176, 71.33815
411.0998, 71.05996
411.5819, 70.96355
412.0640, 71.20657
412.5461, 71.47616
413.0282, 71.11532
413.5103, 70.23869
413.9925, 69.51653
414.4746, 69.44533
414.9567, 69.73652
415.4388, 69.94322
415.9209, 70.02185
416.4030, 70.10920
416.8852, 70.40756
417.3673, 70.77890
417.8494, 70.99995
418.3315, 70.87562
418.8136, 70.66737
419.2957, 70.61531
419.7779, 70.67178
420.2600, 70.51270
420.7421, 69.76317
421.2242, 68.88039
421.7063, 68.19501
422.1884, 67.71873
422.6706, 67.50680
423.1527, 67.74551
423.6348, 68.23624
424.1169, 68.60456
424.5990, 68.76946
425.0811, 68.83327
425.5633, 68.81159
426.0454, 68.69772
426.5275, 68.54812
427.0096, 68.33423
427.4917, 68.10301
427.9738, 67.89320
428.4560, 67.71940
428.9381, 67.52893
429.4202, 67.28549
429.9023, 67.02927
430.3844, 66.90945
430.8665, 66.97636
431.3487, 67.03881
431.8308, 66.95798
432.3129, 66.71897
432.7950, 66.69328
433.2771, 66.94872
433.7592, 67.24774
434.2414, 67.27151
434.7235, 67.03885
435.2056, 66.76104
435.6877, 66.45739
436.1698, 66.18507
436.6519, 66.02415
437.1341, 65.98158
437.6162, 66.13919
438.0983, 66.73769
438.5804, 67.53599
439.0625, 68.09837
439.5446, 68.31214
440.0268, 68.42387
440.5089, 68.59211
440.9910, 68.82304
441.4731, 69.12538
441.9552, 69.69840
442.4373, 70.19207
442.9195, 70.30827
443.4016, 70.05019
443.8837, 69.85587
444.3658, 69.79079
444.8479, 69.92564
445.3300, 70.32176
445.8122, 71.21303
446.2943, 72.07579
446.7764, 72.83036
447.2585, 73.49673
447.7406, 74.12687
448.2227, 74.86943
448.7049, 75.42900
449.1870, 75.67352
449.6691, 75.52979
450.1512, 75.50148
450.6333, 75.61324
451.1154, 75.81514
451.5976, 76.09204
452.0797, 76.50225
452.5618, 76.78091
453.0439, 76.85212
453.5260, 76.78515
454.0081, 76.76632
454.4903, 76.78564
454.9724, 76.92445
455.4545, 77.30664
455.9366, 77.88187
456.4187, 78.32860
456.9008, 78.63410
457.3830, 78.80253
457.8651, 78.77590
458.3472, 78.60034
458.8293, 78.41484
459.3114, 78.18497
459.7935, 78.04534
460.2757, 78.27470
460.7578, 78.79372
461.2399, 79.20866
461.7220, 79.12527
462.2041, 78.90548
462.6862, 78.92407
463.1684, 79.29259
463.6505, 79.63924
464.1326, 79.77870
464.6147, 79.78183
465.0968, 79.74077
465.5789, 79.51854
466.0611, 79.42542
466.5432, 79.68119
467.0253, 80.23742
467.5074, 80.54613
467.9895, 80.19073
468.4716, 79.86172
468.9538, 79.94116
469.4359, 80.87088
469.9180, 81.18666
470.4001, 80.42635
470.8822, 79.37188
471.3643, 79.31869
471.8465, 80.72050
472.3286, 81.78278
472.8107, 81.92591
473.2928, 81.33558
473.7749, 81.06792
474.2570, 81.13599
474.7392, 81.47072
475.2213, 82.22887
475.7034, 83.30149
476.1855, 83.86122
476.6676, 83.72421
477.1497, 83.40123
477.6319, 83.68005
478.1140, 84.36987
478.5961, 84.84126
479.0782, 84.52206
479.5603, 84.02661
480.0424, 84.09506
480.5246, 84.67876
481.0067, 85.37223
481.4888, 86.10950
481.9709, 86.73742
482.4530, 87.06365
482.9352, 86.88577
483.4173, 86.81995
483.8994, 87.25618
484.3815, 87.92526
484.8636, 88.41316
485.3457, 88.23396
485.8279, 88.26393
486.3100, 88.79308
486.7921, 89.83370
487.2742, 90.88314
487.7563, 92.08601
488.2384, 93.16592
488.7206, 93.93015
489.2027, 94.20940
489.6848, 94.61012
490.1669, 95.10125
490.6490, 95.76009
491.1311, 96.79700
491.6133, 98.26637
492.0954, 99.66267
492.5775, 100.7558
493.0596, 101.6769
493.5417, 103.0107
494.0238, 104.7571
494.5060, 106.4847
494.9881, 107.7455
495.4702, 108.7367
495.9523, 109.9737
496.4344, 111.5135
496.9165, 113.3056
497.3987, 115.4267
497.8808, 117.7588
498.3629, 120.0378
498.8450, 122.2079
499.3271, 124.2507
499.8092, 126.0870
500.2914, 127.7651
500.7735, 129.3920
501.2556, 130.8402
501.7377, 132.4189
502.2198, 134.3634
502.7019, 136.9390
503.1841, 139.3112
503.6662, 141.2588
504.1483, 143.0075
504.6304, 144.7856
505.1125, 146.5243
505.5946, 148.3841
506.0768, 150.5430
506.5589, 152.8633
507.0410, 154.6614
507.5231, 155.8169
508.0052, 156.7806
508.4873, 157.8319
508.9695, 158.9588
509.4516, 159.7696
509.9337, 160.2127
510.4158, 160.5380
510.8979, 161.0407
511.3800, 161.6807
511.8622, 162.2995
512.3443, 162.9827
512.8264, 163.4364
513.3085, 163.0672
513.7906, 162.0819
514.2728, 161.2199
514.7549, 161.2863
515.2370, 161.4060
515.7191, 160.6751
516.2012, 158.9773
516.6833, 157.4375
517.1655, 156.8532
517.6476, 156.4998
518.1297, 155.7542
518.6118, 154.0277
519.0939, 152.4765
519.5760, 151.4089
520.0582, 150.6359
520.5403, 149.6660
521.0224, 148.3837
521.5045, 147.0748
521.9866, 145.7699
522.4688, 144.4638
522.9509, 143.4188
523.4330, 142.7392
523.9151, 142.0587
524.3972, 141.0092
524.8793, 139.5815
525.3615, 138.4665
525.8436, 137.8018
526.3257, 137.2264
526.8078, 136.1189
527.2899, 134.5940
527.7720, 133.2225
528.2542, 132.3623
528.7363, 131.6887
529.2184, 130.7093
529.7005, 129.4919
530.1826, 128.3563
530.6647, 127.6078
531.1469, 126.9669
531.6290, 126.1685
532.1111, 125.1503
532.5932, 124.1350
533.0753, 123.1743
533.5574, 122.2764
534.0396, 121.4659
534.5217, 120.9695
535.0038, 120.2908
535.4859, 119.1804
535.9680, 117.8248
536.4501, 116.8410
536.9323, 116.5633
537.4144, 116.0839
537.8965, 114.9565
538.3786, 113.1598
538.8607, 111.8929
539.3428, 111.3008
539.8250, 110.8178
540.3071, 109.8863
540.7892, 108.5678
541.2713, 107.3590
541.7534, 106.3881
542.2355, 105.4196
542.7177, 104.0035
543.1998, 102.2848
543.6819, 100.7643
544.1640, 99.94958
544.6461, 99.26287
545.1282, 98.06767
545.6104, 96.45554
546.0925, 94.97051
546.5746, 94.00555
547.0567, 93.19143
547.5388, 92.27242
548.0209, 91.18523
548.5031, 90.09810
548.9852, 88.99002
549.4673, 87.91731
549.9494, 86.93761
550.4315, 86.07857
550.9136, 85.27016
551.3958, 84.51768
551.8779, 83.80415
552.3600, 83.11779
552.8421, 82.49089
553.3242, 81.76096
553.8063, 80.79961
554.2885, 79.65285
554.7706, 78.64810
555.2527, 77.77790
555.7348, 77.12949
556.2169, 77.02567
556.6990, 77.19687
557.1812, 76.86544
557.6633, 75.80456
558.1454, 74.64000
558.6275, 73.94852
559.1096, 73.58276
559.5917, 73.26755
560.0739, 72.82401
560.5560, 72.47531
561.0381, 72.46484
561.5202, 72.68673
562.0023, 72.67541
562.4844, 72.04042
562.9666, 71.37898
563.4487, 70.99812
563.9308, 70.99405
564.4129, 70.79268
564.8950, 70.20180
565.3771, 69.62257
565.8593, 69.41589
566.3414, 69.68302
566.8235, 69.88396
567.3056, 69.95223
567.7877, 69.95641
568.2698, 70.04250
568.7520, 70.20339
569.2341, 70.30125
569.7162, 70.27221
570.1983, 70.15836
570.6804, 69.91774
571.1625, 69.60094
571.6447, 69.54208
572.1268, 70.34437
572.6089, 71.28929
573.0910, 71.60349
573.5731, 71.13240
574.0552, 70.60781
574.5374, 70.19130
575.0195, 69.96143
575.5016, 69.98841
575.9837, 70.58777
576.4658, 71.06777
576.9479, 71.30169
577.4301, 71.39228
577.9122, 71.54456
578.3943, 71.80034
578.8764, 72.03617
579.3585, 72.23778
579.8406, 72.39356
580.3228, 72.41714
580.8049, 72.29885
581.2870, 72.11015
