##NAMES=Lourenswalsite
##RRUFFID=R060468
##IDEAL CHEMISTRY=(K,Ba)_2_Ti^4+^_4_(Si,Al)_6_O_14_(OH)_12_
##LOCALITY=Diamond Jo Quarry, Magnet Cove, Hot Spring County, Arkansas, USA
##OWNER=RRUFF
##SOURCE=Michael Scott
##DESCRIPTION=Rosettes of gray platy crystals
##STATUS=The identification of this mineral is not yet confirmed.
##URL=rruff.info/R060468
8.813672e+001, 2.237196e+002
8.861884e+001, 2.256318e+002
8.910095e+001, 2.283128e+002
8.958307e+001, 2.323721e+002
9.006519e+001, 2.371707e+002
9.054730e+001, 2.422434e+002
9.102942e+001, 2.478260e+002
9.151154e+001, 2.527110e+002
9.199365e+001, 2.557949e+002
9.247577e+001, 2.574026e+002
9.295789e+001, 2.583330e+002
9.344000e+001, 2.582931e+002
9.392212e+001, 2.577495e+002
9.440424e+001, 2.585292e+002
9.488635e+001, 2.612380e+002
9.536847e+001, 2.642594e+002
9.585059e+001, 2.648401e+002
9.633270e+001, 2.630927e+002
9.681482e+001, 2.615209e+002
9.729694e+001, 2.615368e+002
9.777905e+001, 2.630382e+002
9.826117e+001, 2.647849e+002
9.874329e+001, 2.666639e+002
9.922540e+001, 2.687067e+002
9.970752e+001, 2.712828e+002
1.001896e+002, 2.746127e+002
1.006718e+002, 2.774706e+002
1.011539e+002, 2.786964e+002
1.016360e+002, 2.777719e+002
1.021181e+002, 2.777233e+002
1.026002e+002, 2.790127e+002
1.030823e+002, 2.814987e+002
1.035645e+002, 2.842325e+002
1.040466e+002, 2.872991e+002
1.045287e+002, 2.905445e+002
1.050108e+002, 2.937693e+002
1.054929e+002, 2.962147e+002
1.059750e+002, 2.999970e+002
1.064572e+002, 3.060849e+002
1.069393e+002, 3.149435e+002
1.074214e+002, 3.218952e+002
1.079035e+002, 3.265353e+002
1.083856e+002, 3.296215e+002
1.088677e+002, 3.319117e+002
1.093499e+002, 3.320869e+002
1.098320e+002, 3.328266e+002
1.103141e+002, 3.346971e+002
1.107962e+002, 3.379329e+002
1.112783e+002, 3.416761e+002
1.117604e+002, 3.461580e+002
1.122426e+002, 3.511054e+002
1.127247e+002, 3.560195e+002
1.132068e+002, 3.606907e+002
1.136889e+002, 3.654332e+002
1.141710e+002, 3.703893e+002
1.146531e+002, 3.758536e+002
1.151353e+002, 3.809917e+002
1.156174e+002, 3.858015e+002
1.160995e+002, 3.901874e+002
1.165816e+002, 3.939775e+002
1.170637e+002, 3.969850e+002
1.175458e+002, 3.994148e+002
1.180280e+002, 4.014191e+002
1.185101e+002, 4.029388e+002
1.189922e+002, 4.041110e+002
1.194743e+002, 4.045426e+002
1.199564e+002, 4.044808e+002
1.204385e+002, 4.050411e+002
1.209207e+002, 4.069309e+002
1.214028e+002, 4.097679e+002
1.218849e+002, 4.131307e+002
1.223670e+002, 4.173903e+002
1.228491e+002, 4.217928e+002
1.233312e+002, 4.258854e+002
1.238134e+002, 4.296440e+002
1.242955e+002, 4.325368e+002
1.247776e+002, 4.336650e+002
1.252597e+002, 4.335811e+002
1.257418e+002, 4.334170e+002
1.262239e+002, 4.335026e+002
1.267061e+002, 4.338141e+002
1.271882e+002, 4.341805e+002
1.276703e+002, 4.345627e+002
1.281524e+002, 4.354087e+002
1.286345e+002, 4.375687e+002
1.291166e+002, 4.407719e+002
1.295988e+002, 4.437992e+002
1.300809e+002, 4.458576e+002
1.305630e+002, 4.472492e+002
1.310451e+002, 4.491165e+002
1.315272e+002, 4.516263e+002
1.320093e+002, 4.541860e+002
1.324915e+002, 4.557686e+002
1.329736e+002, 4.563732e+002
1.334557e+002, 4.570649e+002
1.339378e+002, 4.584770e+002
1.344199e+002, 4.605638e+002
1.349020e+002, 4.625570e+002
1.353842e+002, 4.643470e+002
1.358663e+002, 4.660479e+002
1.363484e+002, 4.680681e+002
1.368305e+002, 4.704661e+002
1.373126e+002, 4.728040e+002
1.377947e+002, 4.745059e+002
1.382769e+002, 4.753257e+002
1.387590e+002, 4.773946e+002
1.392411e+002, 4.816305e+002
1.397232e+002, 4.870891e+002
1.402053e+002, 4.897078e+002
1.406874e+002, 4.887627e+002
1.411696e+002, 4.865494e+002
1.416517e+002, 4.845226e+002
1.421338e+002, 4.825480e+002
1.426159e+002, 4.811967e+002
1.430980e+002, 4.807144e+002
1.435801e+002, 4.810423e+002
1.440623e+002, 4.812600e+002
1.445444e+002, 4.813061e+002
1.450265e+002, 4.813598e+002
1.455086e+002, 4.815608e+002
1.459907e+002, 4.819493e+002
1.464728e+002, 4.824665e+002
1.469550e+002, 4.832661e+002
1.474371e+002, 4.843961e+002
1.479192e+002, 4.849694e+002
1.484013e+002, 4.845526e+002
1.488834e+002, 4.838311e+002
1.493655e+002, 4.834252e+002
1.498477e+002, 4.833776e+002
1.503298e+002, 4.835888e+002
1.508119e+002, 4.841576e+002
1.512940e+002, 4.851888e+002
1.517761e+002, 4.859320e+002
1.522583e+002, 4.862718e+002
1.527404e+002, 4.863329e+002
1.532225e+002, 4.862480e+002
1.537046e+002, 4.855443e+002
1.541867e+002, 4.851496e+002
1.546688e+002, 4.856118e+002
1.551510e+002, 4.874323e+002
1.556331e+002, 4.882335e+002
1.561152e+002, 4.870860e+002
1.565973e+002, 4.848484e+002
1.570794e+002, 4.826774e+002
1.575615e+002, 4.803954e+002
1.580437e+002, 4.785515e+002
1.585258e+002, 4.773823e+002
1.590079e+002, 4.769916e+002
1.594900e+002, 4.770443e+002
1.599721e+002, 4.777502e+002
1.604542e+002, 4.788098e+002
1.609364e+002, 4.796971e+002
1.614185e+002, 4.798872e+002
1.619006e+002, 4.800798e+002
1.623827e+002, 4.807236e+002
1.628648e+002, 4.820994e+002
1.633469e+002, 4.834077e+002
1.638291e+002, 4.842069e+002
1.643112e+002, 4.846547e+002
1.647933e+002, 4.851459e+002
1.652754e+002, 4.856625e+002
1.657575e+002, 4.863997e+002
1.662396e+002, 4.875537e+002
1.667218e+002, 4.893375e+002
1.672039e+002, 4.912202e+002
1.676860e+002, 4.926984e+002
1.681681e+002, 4.939604e+002
1.686502e+002, 4.956425e+002
1.691323e+002, 4.983631e+002
1.696145e+002, 5.015555e+002
1.700966e+002, 5.046801e+002
1.705787e+002, 5.077060e+002
1.710608e+002, 5.104898e+002
1.715429e+002, 5.126777e+002
1.720250e+002, 5.144274e+002
1.725072e+002, 5.163671e+002
1.729893e+002, 5.188952e+002
1.734714e+002, 5.218816e+002
1.739535e+002, 5.252292e+002
1.744356e+002, 5.292948e+002
1.749177e+002, 5.332380e+002
1.753999e+002, 5.359817e+002
1.758820e+002, 5.376725e+002
1.763641e+002, 5.393251e+002
1.768462e+002, 5.418549e+002
1.773283e+002, 5.448964e+002
1.778104e+002, 5.477843e+002
1.782926e+002, 5.503493e+002
1.787747e+002, 5.526255e+002
1.792568e+002, 5.546087e+002
1.797389e+002, 5.562952e+002
1.802210e+002, 5.578282e+002
1.807031e+002, 5.591442e+002
1.811853e+002, 5.603643e+002
1.816674e+002, 5.618046e+002
1.821495e+002, 5.637379e+002
1.826316e+002, 5.658346e+002
1.831137e+002, 5.674557e+002
1.835958e+002, 5.686102e+002
1.840780e+002, 5.693958e+002
1.845601e+002, 5.697122e+002
1.850422e+002, 5.696711e+002
1.855243e+002, 5.698251e+002
1.860064e+002, 5.706210e+002
1.864885e+002, 5.716355e+002
1.869707e+002, 5.715858e+002
1.874528e+002, 5.703904e+002
1.879349e+002, 5.689576e+002
1.884170e+002, 5.683358e+002
1.888991e+002, 5.684146e+002
1.893812e+002, 5.682969e+002
1.898634e+002, 5.677769e+002
1.903455e+002, 5.668409e+002
1.908276e+002, 5.653075e+002
1.913097e+002, 5.630878e+002
1.917918e+002, 5.606799e+002
1.922739e+002, 5.586028e+002
1.927561e+002, 5.568226e+002
1.932382e+002, 5.551793e+002
1.937203e+002, 5.535817e+002
1.942024e+002, 5.520476e+002
1.946845e+002, 5.507565e+002
1.951666e+002, 5.497802e+002
1.956488e+002, 5.487628e+002
1.961309e+002, 5.471751e+002
1.966130e+002, 5.449462e+002
1.970951e+002, 5.428385e+002
1.975772e+002, 5.410582e+002
1.980593e+002, 5.395978e+002
1.985415e+002, 5.383928e+002
1.990236e+002, 5.374767e+002
1.995057e+002, 5.367704e+002
1.999878e+002, 5.362045e+002
2.004699e+002, 5.357980e+002
2.009520e+002, 5.355369e+002
2.014342e+002, 5.355069e+002
2.019163e+002, 5.357117e+002
2.023984e+002, 5.357043e+002
2.028805e+002, 5.354177e+002
2.033626e+002, 5.350945e+002
2.038447e+002, 5.350134e+002
2.043269e+002, 5.351669e+002
2.048090e+002, 5.356287e+002
2.052911e+002, 5.365108e+002
2.057732e+002, 5.378243e+002
2.062553e+002, 5.388661e+002
2.067374e+002, 5.394360e+002
2.072196e+002, 5.400115e+002
2.077017e+002, 5.412800e+002
2.081838e+002, 5.433466e+002
2.086659e+002, 5.457065e+002
2.091480e+002, 5.483240e+002
2.096301e+002, 5.512740e+002
2.101123e+002, 5.535035e+002
2.105944e+002, 5.547415e+002
2.110765e+002, 5.556219e+002
2.115586e+002, 5.570219e+002
2.120407e+002, 5.590237e+002
2.125228e+002, 5.613275e+002
2.130050e+002, 5.640308e+002
2.134871e+002, 5.672507e+002
2.139692e+002, 5.695437e+002
2.144513e+002, 5.706777e+002
2.149334e+002, 5.711359e+002
2.154155e+002, 5.716666e+002
2.158977e+002, 5.724974e+002
2.163798e+002, 5.728568e+002
2.168619e+002, 5.725201e+002
2.173440e+002, 5.714817e+002
2.178261e+002, 5.698093e+002
2.183082e+002, 5.672591e+002
2.187904e+002, 5.643587e+002
2.192725e+002, 5.618755e+002
2.197546e+002, 5.600522e+002
2.202367e+002, 5.581727e+002
2.207188e+002, 5.559225e+002
2.212009e+002, 5.531246e+002
2.216831e+002, 5.511371e+002
2.221652e+002, 5.501971e+002
2.226473e+002, 5.498563e+002
2.231294e+002, 5.494996e+002
2.236115e+002, 5.489512e+002
2.240936e+002, 5.487363e+002
2.245758e+002, 5.489821e+002
2.250579e+002, 5.496951e+002
2.255400e+002, 5.508668e+002
2.260221e+002, 5.526448e+002
2.265042e+002, 5.547480e+002
2.269863e+002, 5.568030e+002
2.274685e+002, 5.588795e+002
2.279506e+002, 5.608021e+002
2.284327e+002, 5.625106e+002
2.289148e+002, 5.640021e+002
2.293969e+002, 5.653340e+002
2.298790e+002, 5.664063e+002
2.303612e+002, 5.673839e+002
2.308433e+002, 5.685381e+002
2.313254e+002, 5.702733e+002
2.318075e+002, 5.714586e+002
2.322896e+002, 5.718770e+002
2.327717e+002, 5.715430e+002
2.332539e+002, 5.702991e+002
2.337360e+002, 5.680300e+002
2.342181e+002, 5.649965e+002
2.347002e+002, 5.613655e+002
2.351823e+002, 5.567374e+002
2.356644e+002, 5.523067e+002
2.361466e+002, 5.484171e+002
2.366287e+002, 5.451550e+002
2.371108e+002, 5.416826e+002
2.375929e+002, 5.380466e+002
2.380750e+002, 5.342547e+002
2.385571e+002, 5.302038e+002
2.390393e+002, 5.252626e+002
2.395214e+002, 5.212557e+002
2.400035e+002, 5.186446e+002
2.404856e+002, 5.174608e+002
2.409677e+002, 5.167480e+002
2.414498e+002, 5.167885e+002
2.419320e+002, 5.170189e+002
2.424141e+002, 5.168951e+002
2.428962e+002, 5.162617e+002
2.433783e+002, 5.155255e+002
2.438604e+002, 5.146971e+002
2.443425e+002, 5.137656e+002
2.448247e+002, 5.129293e+002
2.453068e+002, 5.121415e+002
2.457889e+002, 5.114698e+002
2.462710e+002, 5.109773e+002
2.467531e+002, 5.107409e+002
2.472352e+002, 5.105086e+002
2.477174e+002, 5.101906e+002
2.481995e+002, 5.098077e+002
2.486816e+002, 5.097090e+002
2.491637e+002, 5.100889e+002
2.496458e+002, 5.105529e+002
2.501279e+002, 5.107186e+002
2.506101e+002, 5.102168e+002
2.510922e+002, 5.102784e+002
2.515743e+002, 5.111513e+002
2.520564e+002, 5.127774e+002
2.525385e+002, 5.146315e+002
2.530206e+002, 5.168303e+002
2.535028e+002, 5.191349e+002
2.539849e+002, 5.213260e+002
2.544670e+002, 5.233785e+002
2.549491e+002, 5.254246e+002
2.554312e+002, 5.274987e+002
2.559133e+002, 5.295506e+002
2.563955e+002, 5.314576e+002
2.568776e+002, 5.331729e+002
2.573597e+002, 5.347741e+002
2.578418e+002, 5.363755e+002
2.583239e+002, 5.382117e+002
2.588061e+002, 5.393869e+002
2.592882e+002, 5.397592e+002
2.597703e+002, 5.394350e+002
2.602524e+002, 5.388079e+002
2.607345e+002, 5.378411e+002
2.612166e+002, 5.366528e+002
2.616988e+002, 5.353206e+002
2.621809e+002, 5.339581e+002
2.626630e+002, 5.321700e+002
2.631451e+002, 5.297486e+002
2.636272e+002, 5.270132e+002
2.641093e+002, 5.249164e+002
2.645915e+002, 5.236282e+002
2.650736e+002, 5.225923e+002
2.655557e+002, 5.216129e+002
2.660378e+002, 5.208114e+002
2.665199e+002, 5.196235e+002
2.670020e+002, 5.178505e+002
2.674842e+002, 5.158533e+002
2.679663e+002, 5.144171e+002
2.684484e+002, 5.136151e+002
2.689305e+002, 5.131530e+002
2.694126e+002, 5.130308e+002
2.698947e+002, 5.133599e+002
2.703769e+002, 5.132913e+002
2.708590e+002, 5.127648e+002
2.713411e+002, 5.118942e+002
2.718232e+002, 5.107290e+002
2.723053e+002, 5.090751e+002
2.727874e+002, 5.078335e+002
2.732696e+002, 5.074687e+002
2.737517e+002, 5.080397e+002
2.742338e+002, 5.082574e+002
2.747159e+002, 5.080231e+002
2.751980e+002, 5.076129e+002
2.756801e+002, 5.074109e+002
2.761623e+002, 5.074500e+002
2.766444e+002, 5.075300e+002
2.771265e+002, 5.076582e+002
2.776086e+002, 5.078232e+002
2.780907e+002, 5.077016e+002
2.785728e+002, 5.072595e+002
2.790550e+002, 5.066691e+002
2.795371e+002, 5.059284e+002
2.800192e+002, 5.049856e+002
2.805013e+002, 5.047339e+002
2.809834e+002, 5.056595e+002
2.814655e+002, 5.074825e+002
2.819477e+002, 5.086827e+002
2.824298e+002, 5.091521e+002
2.829119e+002, 5.094695e+002
2.833940e+002, 5.102388e+002
2.838761e+002, 5.114463e+002
2.843582e+002, 5.124104e+002
2.848404e+002, 5.128649e+002
2.853225e+002, 5.130328e+002
2.858046e+002, 5.135038e+002
2.862867e+002, 5.142534e+002
2.867688e+002, 5.154689e+002
2.872509e+002, 5.176996e+002
2.877331e+002, 5.207674e+002
2.882152e+002, 5.230029e+002
2.886973e+002, 5.238997e+002
2.891794e+002, 5.241224e+002
2.896615e+002, 5.251973e+002
2.901436e+002, 5.271237e+002
2.906258e+002, 5.288782e+002
2.911079e+002, 5.295561e+002
2.915900e+002, 5.294354e+002
2.920721e+002, 5.297436e+002
2.925542e+002, 5.306796e+002
2.930363e+002, 5.319505e+002
2.935185e+002, 5.332335e+002
2.940006e+002, 5.345176e+002
2.944827e+002, 5.355883e+002
2.949648e+002, 5.363207e+002
2.954469e+002, 5.367700e+002
2.959290e+002, 5.371025e+002
2.964112e+002, 5.373555e+002
2.968933e+002, 5.373805e+002
2.973754e+002, 5.368112e+002
2.978575e+002, 5.358030e+002
2.983396e+002, 5.349212e+002
2.988217e+002, 5.345034e+002
2.993039e+002, 5.343739e+002
2.997860e+002, 5.343604e+002
3.002681e+002, 5.344832e+002
3.007502e+002, 5.343588e+002
3.012323e+002, 5.334222e+002
3.017144e+002, 5.319318e+002
3.021966e+002, 5.305525e+002
3.026787e+002, 5.294720e+002
3.031608e+002, 5.286593e+002
3.036429e+002, 5.280657e+002
3.041250e+002, 5.276969e+002
3.046071e+002, 5.275416e+002
3.050893e+002, 5.278507e+002
3.055714e+002, 5.283252e+002
3.060535e+002, 5.284415e+002
3.065356e+002, 5.276520e+002
3.070177e+002, 5.268489e+002
3.074998e+002, 5.268607e+002
3.079820e+002, 5.276025e+002
3.084641e+002, 5.286318e+002
3.089462e+002, 5.298499e+002
3.094283e+002, 5.311361e+002
3.099104e+002, 5.323200e+002
3.103925e+002, 5.332308e+002
3.108747e+002, 5.342392e+002
3.113568e+002, 5.356164e+002
3.118389e+002, 5.372876e+002
3.123210e+002, 5.390352e+002
3.128031e+002, 5.408104e+002
3.132852e+002, 5.426083e+002
3.137674e+002, 5.443359e+002
3.142495e+002, 5.457743e+002
3.147316e+002, 5.477177e+002
3.152137e+002, 5.510755e+002
3.156958e+002, 5.551326e+002
3.161779e+002, 5.586656e+002
3.166601e+002, 5.602659e+002
3.171422e+002, 5.619690e+002
3.176243e+002, 5.649589e+002
3.181064e+002, 5.694916e+002
3.185885e+002, 5.741172e+002
3.190706e+002, 5.783105e+002
3.195528e+002, 5.823411e+002
3.200349e+002, 5.865147e+002
3.205170e+002, 5.904361e+002
3.209991e+002, 5.949660e+002
3.214812e+002, 6.006385e+002
3.219633e+002, 6.074960e+002
3.224455e+002, 6.141617e+002
3.229276e+002, 6.198752e+002
3.234097e+002, 6.255988e+002
3.238918e+002, 6.320532e+002
3.243739e+002, 6.401888e+002
3.248560e+002, 6.481180e+002
3.253382e+002, 6.552962e+002
3.258203e+002, 6.619160e+002
3.263024e+002, 6.690365e+002
3.267845e+002, 6.771109e+002
3.272666e+002, 6.854697e+002
3.277487e+002, 6.938171e+002
3.282309e+002, 7.017736e+002
3.287130e+002, 7.101042e+002
3.291951e+002, 7.188515e+002
3.296772e+002, 7.279688e+002
3.301593e+002, 7.373749e+002
3.306414e+002, 7.468781e+002
3.311236e+002, 7.567659e+002
3.316057e+002, 7.671494e+002
3.320878e+002, 7.779316e+002
3.325699e+002, 7.896500e+002
3.330520e+002, 8.028663e+002
3.335341e+002, 8.165559e+002
3.340163e+002, 8.291550e+002
3.344984e+002, 8.400944e+002
3.349805e+002, 8.508812e+002
3.354626e+002, 8.620753e+002
3.359447e+002, 8.737741e+002
3.364268e+002, 8.847949e+002
3.369090e+002, 8.953118e+002
3.373911e+002, 9.050678e+002
3.378732e+002, 9.138060e+002
3.383553e+002, 9.216090e+002
3.388374e+002, 9.280544e+002
3.393195e+002, 9.332216e+002
3.398017e+002, 9.369567e+002
3.402838e+002, 9.387957e+002
3.407659e+002, 9.386896e+002
3.412480e+002, 9.367625e+002
3.417301e+002, 9.328262e+002
3.422122e+002, 9.268342e+002
3.426944e+002, 9.200336e+002
3.431765e+002, 9.126695e+002
3.436586e+002, 9.043927e+002
3.441407e+002, 8.942989e+002
3.446228e+002, 8.824041e+002
3.451049e+002, 8.702637e+002
3.455871e+002, 8.589636e+002
3.460692e+002, 8.482031e+002
3.465513e+002, 8.370092e+002
3.470334e+002, 8.252103e+002
3.475155e+002, 8.135810e+002
3.479977e+002, 8.034261e+002
3.484798e+002, 7.944913e+002
3.489619e+002, 7.858916e+002
3.494440e+002, 7.768635e+002
3.499261e+002, 7.680433e+002
3.504082e+002, 7.608326e+002
3.508904e+002, 7.552203e+002
3.513725e+002, 7.504010e+002
3.518546e+002, 7.456000e+002
3.523367e+002, 7.410322e+002
3.528188e+002, 7.371686e+002
3.533009e+002, 7.344381e+002
3.537831e+002, 7.320694e+002
3.542652e+002, 7.289893e+002
3.547473e+002, 7.254169e+002
3.552294e+002, 7.223779e+002
3.557115e+002, 7.209459e+002
3.561936e+002, 7.202032e+002
3.566758e+002, 7.190670e+002
3.571579e+002, 7.171012e+002
3.576400e+002, 7.154450e+002
3.581221e+002, 7.151271e+002
3.586042e+002, 7.157069e+002
3.590863e+002, 7.162806e+002
3.595685e+002, 7.162782e+002
3.600506e+002, 7.162970e+002
3.605327e+002, 7.167157e+002
3.610148e+002, 7.175914e+002
3.614969e+002, 7.186602e+002
3.619790e+002, 7.199133e+002
3.624612e+002, 7.212529e+002
3.629433e+002, 7.225876e+002
3.634254e+002, 7.240843e+002
3.639075e+002, 7.253514e+002
3.643896e+002, 7.262979e+002
3.648717e+002, 7.269015e+002
3.653539e+002, 7.270994e+002
3.658360e+002, 7.272648e+002
3.663181e+002, 7.267244e+002
3.668002e+002, 7.250706e+002
3.672823e+002, 7.213818e+002
3.677644e+002, 7.176721e+002
3.682466e+002, 7.142767e+002
3.687287e+002, 7.109423e+002
3.692108e+002, 7.070424e+002
3.696929e+002, 7.023673e+002
3.701750e+002, 6.973088e+002
3.706571e+002, 6.920257e+002
3.711393e+002, 6.864470e+002
3.716214e+002, 6.807574e+002
3.721035e+002, 6.748525e+002
3.725856e+002, 6.688718e+002
3.730677e+002, 6.630252e+002
3.735498e+002, 6.571461e+002
3.740320e+002, 6.517213e+002
3.745141e+002, 6.470717e+002
3.749962e+002, 6.431505e+002
3.754783e+002, 6.387514e+002
3.759604e+002, 6.337587e+002
3.764425e+002, 6.286676e+002
3.769247e+002, 6.236755e+002
3.774068e+002, 6.187141e+002
3.778889e+002, 6.148292e+002
3.783710e+002, 6.124860e+002
3.788531e+002, 6.110170e+002
3.793352e+002, 6.086762e+002
3.798174e+002, 6.054003e+002
3.802995e+002, 6.021880e+002
3.807816e+002, 5.996046e+002
3.812637e+002, 5.975750e+002
3.817458e+002, 5.958395e+002
3.822279e+002, 5.943774e+002
3.827101e+002, 5.931049e+002
3.831922e+002, 5.919532e+002
3.836743e+002, 5.908814e+002
3.841564e+002, 5.897668e+002
3.846385e+002, 5.883148e+002
3.851206e+002, 5.868913e+002
3.856028e+002, 5.862264e+002
3.860849e+002, 5.862953e+002
3.865670e+002, 5.866030e+002
3.870491e+002, 5.871047e+002
3.875312e+002, 5.875234e+002
3.880133e+002, 5.873558e+002
3.884955e+002, 5.862805e+002
3.889776e+002, 5.849718e+002
3.894597e+002, 5.838140e+002
3.899418e+002, 5.828866e+002
3.904239e+002, 5.824057e+002
3.909060e+002, 5.829711e+002
3.913882e+002, 5.837210e+002
3.918703e+002, 5.838621e+002
3.923524e+002, 5.831503e+002
3.928345e+002, 5.826887e+002
3.933166e+002, 5.830429e+002
3.937987e+002, 5.839444e+002
3.942809e+002, 5.850451e+002
3.947630e+002, 5.870369e+002
3.952451e+002, 5.884326e+002
3.957272e+002, 5.883615e+002
3.962093e+002, 5.869124e+002
3.966914e+002, 5.859150e+002
3.971736e+002, 5.860385e+002
3.976557e+002, 5.865262e+002
3.981378e+002, 5.869159e+002
3.986199e+002, 5.867965e+002
3.991020e+002, 5.870374e+002
3.995841e+002, 5.880123e+002
4.000663e+002, 5.893445e+002
4.005484e+002, 5.901145e+002
4.010305e+002, 5.898953e+002
4.015126e+002, 5.896471e+002
4.019947e+002, 5.897011e+002
4.024768e+002, 5.901329e+002
4.029590e+002, 5.904510e+002
4.034411e+002, 5.906136e+002
4.039232e+002, 5.907154e+002
4.044053e+002, 5.908245e+002
4.048874e+002, 5.908868e+002
4.053695e+002, 5.911593e+002
4.058517e+002, 5.916674e+002
4.063338e+002, 5.924358e+002
4.068159e+002, 5.937366e+002
4.072980e+002, 5.957140e+002
4.077801e+002, 5.975561e+002
4.082622e+002, 5.985878e+002
4.087444e+002, 5.988730e+002
4.092265e+002, 5.991329e+002
4.097086e+002, 5.993210e+002
4.101907e+002, 5.997836e+002
4.106728e+002, 6.012193e+002
4.111549e+002, 6.035021e+002
4.116371e+002, 6.058284e+002
4.121192e+002, 6.078202e+002
4.126013e+002, 6.095752e+002
4.130834e+002, 6.111627e+002
4.135655e+002, 6.125699e+002
4.140476e+002, 6.141533e+002
