##NAMES=Lovozerite
##RRUFFID=R120159
##IDEAL CHEMISTRY=Na_3_CaZr^4+^Si_6_O_15_(OH)_3_
##LOCALITY=Poudrette quarry, Mont Saint-Hilaire, Rouville RCM, Montérégie, Québec, Canada
##OWNER=RRUFF
##SOURCE=Donald Doell
##DESCRIPTION=Yellow massive on ussingite (R140806).
##STATUS=The identification of this mineral has been confirmed only by single crystal X-ray diffraction.
##URL=rruff.info/R120159
111.4785, 543.6619
111.9606, 548.3057
112.4427, 551.9276
112.9248, 555.5745
113.4069, 559.4213
113.8890, 563.3314
114.3712, 567.2422
114.8533, 571.8697
115.3354, 575.8126
115.8175, 578.3448
116.2996, 579.3659
116.7817, 580.4638
117.2639, 582.9221
117.7460, 585.6265
118.2281, 587.1598
118.7102, 585.3856
119.1923, 583.4116
119.6744, 583.1695
120.1566, 585.0587
120.6387, 587.6943
121.1208, 590.6391
121.6029, 593.6953
122.0850, 596.4437
122.5671, 598.7606
123.0493, 600.6025
123.5314, 601.9138
124.0135, 602.6542
124.4956, 602.8863
124.9777, 602.2590
125.4598, 601.0048
125.9420, 600.0563
126.4241, 600.1405
126.9062, 600.9151
127.3883, 601.7424
127.8704, 602.4008
128.3525, 603.1589
128.8347, 604.6887
129.3168, 606.9405
129.7989, 608.9347
130.2810, 609.6493
130.7631, 609.3748
131.2452, 609.3731
131.7274, 610.1741
132.2095, 611.3600
132.6916, 611.6385
133.1737, 610.9000
133.6558, 610.0693
134.1379, 610.1042
134.6201, 610.9974
135.1022, 611.9428
135.5843, 612.4948
136.0664, 612.8170
136.5485, 614.3809
137.0306, 617.5863
137.5128, 621.1076
137.9949, 623.2764
138.4770, 623.8213
138.9591, 624.3867
139.4412, 625.7991
139.9233, 628.2053
140.4055, 629.0123
140.8876, 627.5851
141.3697, 625.1794
141.8518, 623.8987
142.3339, 624.1449
142.8160, 624.5900
143.2982, 624.6611
143.7803, 623.9939
144.2624, 624.1914
144.7445, 625.7668
145.2266, 628.0506
145.7087, 629.4133
146.1909, 629.3577
146.6730, 629.0594
147.1551, 628.9581
147.6372, 629.0237
148.1193, 629.3759
148.6014, 630.3699
149.0836, 631.7089
149.5657, 632.3727
150.0478, 631.5848
150.5299, 630.7360
151.0120, 630.4274
151.4941, 631.0995
151.9763, 631.7789
152.4584, 632.4688
152.9405, 633.1523
153.4226, 633.7763
153.9047, 634.2558
154.3868, 634.7195
154.8690, 635.2365
155.3511, 636.5420
155.8332, 637.1223
156.3153, 636.3688
156.7974, 634.4543
157.2795, 632.7762
157.7617, 631.6208
158.2438, 630.8275
158.7259, 630.2819
159.2080, 630.2897
159.6901, 630.2418
160.1722, 629.8633
160.6544, 629.1804
161.1365, 628.6774
161.6186, 628.8082
162.1007, 629.0810
162.5828, 629.0425
163.0649, 628.4048
163.5471, 627.5306
164.0292, 626.4376
164.5113, 625.1224
164.9934, 624.0258
165.4755, 623.5994
165.9576, 623.4457
166.4398, 623.0811
166.9219, 622.1660
167.4040, 621.0710
167.8861, 620.0619
168.3682, 619.1550
168.8503, 618.1805
169.3325, 616.9954
169.8146, 615.6741
170.2967, 614.3566
170.7788, 613.3154
171.2609, 612.1778
171.7430, 610.4633
172.2252, 608.0622
172.7073, 605.7797
173.1894, 604.3532
173.6715, 603.5286
174.1536, 602.7781
174.6357, 601.8644
175.1179, 600.8574
175.6000, 599.8294
176.0821, 598.7937
176.5642, 597.7501
177.0463, 596.7639
177.5284, 595.7830
178.0106, 594.6662
178.4927, 593.3887
178.9748, 591.9120
179.4569, 590.0822
179.9390, 587.7607
180.4211, 585.5148
180.9033, 584.2446
181.3854, 583.7303
181.8675, 582.9570
182.3496, 581.0377
182.8317, 578.4490
183.3138, 576.1971
183.7960, 574.4061
184.2781, 572.9695
184.7602, 571.9056
185.2423, 571.1630
185.7244, 570.4125
186.2065, 569.3914
186.6887, 568.1746
187.1708, 567.0593
187.6529, 566.1120
188.1350, 565.1937
188.6171, 564.1063
189.0992, 562.8397
189.5814, 561.4551
190.0635, 559.7145
190.5456, 557.7397
191.0277, 556.6830
191.5098, 556.9755
191.9919, 557.7582
192.4741, 557.1683
192.9562, 555.1632
193.4383, 552.8434
193.9204, 550.8474
194.4025, 549.1702
194.8846, 547.7709
195.3668, 546.7019
195.8489, 545.8417
196.3310, 544.8822
196.8131, 543.8001
197.2952, 542.7880
197.7773, 542.0831
198.2595, 541.7053
198.7416, 540.9703
199.2237, 539.7410
199.7058, 538.1667
200.1879, 536.6426
200.6700, 535.1561
201.1522, 533.7332
201.6343, 532.3784
202.1164, 531.0901
202.5985, 529.9288
203.0806, 528.9601
203.5627, 528.1027
204.0449, 527.1243
204.5270, 526.0240
205.0091, 524.7923
205.4912, 523.3611
205.9733, 521.6726
206.4554, 520.1091
206.9376, 518.6915
207.4197, 517.4398
207.9018, 516.4706
208.3839, 515.9431
208.8660, 515.2952
209.3481, 513.9382
209.8303, 511.5279
210.3124, 510.0486
210.7945, 510.1200
211.2766, 511.2294
211.7587, 511.1447
212.2408, 509.4388
212.7230, 507.4372
213.2051, 505.9329
213.6872, 504.9469
214.1693, 504.4172
214.6514, 504.5319
215.1335, 505.0852
215.6157, 505.1029
216.0978, 504.3789
216.5799, 503.4697
217.0620, 502.7719
217.5441, 502.4555
218.0262, 501.7784
218.5084, 500.4346
218.9905, 498.6471
219.4726, 497.6822
219.9547, 497.9367
220.4368, 498.3218
220.9189, 498.0713
221.4011, 496.8040
221.8832, 495.9559
222.3653, 495.8162
222.8474, 496.1965
223.3295, 496.1843
223.8116, 495.5588
224.2938, 494.8992
224.7759, 494.5442
225.2580, 494.5515
225.7401, 494.7543
226.2222, 495.3152
226.7043, 496.0590
227.1865, 496.2365
227.6686, 495.5891
228.1507, 494.7475
228.6328, 494.0683
229.1149, 493.6196
229.5970, 493.1386
230.0792, 492.3993
230.5613, 491.6215
231.0434, 491.8148
231.5255, 493.6846
232.0076, 495.5007
232.4897, 496.3100
232.9719, 495.7866
233.4540, 494.9598
233.9361, 493.5291
234.4182, 491.8495
234.9003, 491.2156
235.3824, 492.2377
235.8646, 493.4332
236.3467, 494.0424
236.8288, 493.7028
237.3109, 493.5531
237.7930, 493.5705
238.2751, 493.7927
238.7573, 494.4194
239.2394, 495.8885
239.7215, 497.1076
240.2036, 497.5089
240.6857, 496.5409
241.1678, 496.0152
241.6500, 496.2213
242.1321, 496.7855
242.6142, 496.6516
243.0963, 495.0973
243.5784, 493.9168
244.0605, 494.0135
244.5427, 496.1636
245.0248, 497.5963
245.5069, 498.1520
245.9890, 498.0617
246.4711, 497.7729
246.9532, 497.1087
247.4354, 496.5490
247.9175, 496.3032
248.3996, 496.4713
248.8817, 496.6708
249.3638, 497.0238
249.8459, 497.3522
250.3281, 497.3382
250.8102, 496.9926
251.2923, 496.2848
251.7744, 495.0010
252.2565, 492.7886
252.7386, 491.5944
253.2208, 491.7509
253.7029, 492.6822
254.1850, 493.5740
254.6671, 494.6093
255.1492, 495.2251
255.6313, 495.1231
256.1135, 494.1528
256.5956, 493.4341
257.0777, 493.0154
257.5598, 492.7911
258.0419, 492.7005
258.5240, 492.9542
259.0062, 492.8267
259.4883, 491.9279
259.9704, 490.1824
260.4525, 489.1081
260.9346, 489.0334
261.4167, 489.2407
261.8989, 488.8917
262.3810, 487.8235
262.8631, 486.6501
263.3452, 485.4574
263.8273, 484.2402
264.3094, 483.4067
264.7916, 483.1915
265.2737, 482.9881
265.7558, 482.0479
266.2379, 479.9995
266.7200, 478.5451
267.2021, 478.3744
267.6843, 479.2429
268.1664, 478.5129
268.6485, 475.5709
269.1306, 472.3013
269.6127, 470.3841
270.0948, 470.1007
270.5770, 469.9047
271.0591, 469.5915
271.5412, 469.1635
272.0233, 468.6414
272.5054, 468.0294
272.9875, 467.3098
273.4697, 466.4699
273.9518, 465.4958
274.4339, 464.4124
274.9160, 463.1809
275.3981, 461.8737
275.8802, 460.6451
276.3624, 459.4931
276.8445, 458.5205
277.3266, 457.9354
277.8087, 457.7910
278.2908, 457.2227
278.7729, 456.0364
279.2551, 454.5435
279.7372, 453.5029
280.2193, 452.9704
280.7014, 452.5228
281.1835, 451.8858
281.6656, 451.0654
282.1478, 450.4586
282.6299, 450.1216
283.1120, 449.9219
283.5941, 449.6789
284.0762, 449.3937
284.5583, 449.0036
285.0405, 448.5137
285.5226, 447.9102
286.0047, 446.9998
286.4868, 445.7102
286.9689, 444.3481
287.4510, 443.2337
287.9332, 442.3713
288.4153, 441.8810
288.8974, 442.0271
289.3795, 442.5964
289.8616, 442.8174
290.3438, 442.6816
290.8259, 442.2463
291.3080, 441.4156
291.7901, 440.2704
292.2722, 439.2340
292.7543, 438.3551
293.2365, 437.7246
293.7186, 437.7238
294.2007, 438.3625
294.6828, 439.0512
295.1649, 439.3428
295.6470, 439.2682
296.1292, 438.8838
296.6113, 438.0132
297.0934, 437.0598
297.5755, 436.7574
298.0576, 437.0542
298.5397, 437.3923
299.0219, 437.5167
299.5040, 437.3774
299.9861, 436.7422
300.4682, 435.3104
300.9503, 433.9117
301.4324, 433.7552
301.9146, 434.5906
302.3967, 435.3505
302.8788, 435.1968
303.3609, 434.6133
303.8430, 434.3495
304.3251, 434.5920
304.8073, 434.8326
305.2894, 434.3898
305.7715, 433.5546
306.2536, 433.0280
306.7357, 433.3801
307.2178, 434.1067
307.7000, 434.7756
308.1821, 435.3653
308.6642, 435.7086
309.1463, 435.6496
309.6284, 435.2631
310.1105, 434.6645
310.5927, 433.6600
311.0748, 432.6396
311.5569, 431.7626
312.0390, 431.0457
312.5211, 430.7393
313.0032, 431.3824
313.4854, 432.3617
313.9675, 433.0170
314.4496, 432.8330
314.9317, 432.5535
315.4138, 432.5347
315.8959, 432.7455
316.3781, 432.9662
316.8602, 433.2704
317.3423, 433.4574
317.8244, 433.3690
318.3065, 432.8294
318.7886, 432.2160
319.2708, 431.5471
319.7529, 430.8843
320.2350, 430.4005
320.7171, 430.0352
321.1992, 429.9439
321.6813, 430.3279
322.1635, 431.6740
322.6456, 432.4178
323.1277, 431.8574
323.6098, 430.5645
324.0919, 429.4950
324.5740, 428.9064
325.0562, 428.4703
325.5383, 428.0514
326.0204, 427.5721
326.5025, 427.4085
326.9846, 427.9419
327.4667, 428.6635
327.9489, 429.0413
328.4310, 429.0939
328.9131, 428.7834
329.3952, 427.8075
329.8773, 426.1335
330.3594, 425.3554
330.8416, 426.2258
331.3237, 427.3644
331.8058, 427.7875
332.2879, 427.1020
332.7700, 426.3242
333.2521, 425.2823
333.7343, 424.1650
334.2164, 424.0101
334.6985, 425.4220
335.1806, 426.8454
335.6627, 427.3894
336.1448, 426.6887
336.6270, 426.2148
337.1091, 426.0851
337.5912, 426.1436
338.0733, 426.0689
338.5554, 425.8331
339.0375, 425.5634
339.5197, 425.2852
340.0018, 424.9958
340.4839, 424.8050
340.9660, 424.7038
341.4481, 424.7280
341.9302, 425.0455
342.4124, 425.6992
342.8945, 426.0398
343.3766, 425.7148
343.8587, 424.9270
344.3408, 424.6854
344.8229, 425.0621
345.3051, 425.4950
345.7872, 425.4269
346.2693, 424.9299
346.7514, 424.4464
347.2335, 424.0085
347.7156, 423.7177
348.1978, 423.8956
348.6799, 424.5093
349.1620, 425.1069
349.6441, 425.4043
350.1262, 425.4662
350.6083, 425.4069
351.0905, 425.2129
351.5726, 425.0099
352.0547, 424.8679
352.5368, 424.8210
353.0189, 424.9727
353.5010, 425.6098
353.9832, 426.3609
354.4653, 426.7437
354.9474, 426.7303
355.4295, 426.6076
355.9116, 426.5158
356.3937, 426.4760
356.8759, 426.5222
357.3580, 426.7194
357.8401, 426.9609
358.3222, 427.1236
358.8043, 427.2405
359.2864, 427.4977
359.7686, 428.1904
360.2507, 428.9663
360.7328, 429.4995
361.2149, 429.5721
361.6970, 429.6442
362.1791, 429.9062
362.6613, 430.2966
363.1434, 430.6798
363.6255, 430.8629
364.1076, 431.1402
364.5897, 431.7218
365.0718, 432.7674
365.5540, 433.5892
366.0361, 433.9921
366.5182, 434.1327
367.0003, 434.1998
367.4824, 433.9514
367.9645, 433.9107
368.4467, 434.3571
368.9288, 435.3255
369.4109, 435.8941
369.8930, 435.7154
370.3751, 435.4189
370.8572, 435.4497
371.3394, 436.1757
371.8215, 436.6172
372.3036, 436.6455
372.7857, 436.3402
373.2678, 435.8759
373.7499, 434.8194
374.2321, 434.3559
374.7142, 435.3654
375.1963, 438.5406
375.6784, 440.0470
376.1605, 439.2162
376.6426, 437.5435
377.1248, 437.5123
377.6069, 439.4127
378.0890, 441.1710
378.5711, 442.0414
379.0532, 442.1607
379.5353, 442.5260
380.0175, 443.2122
380.4996, 443.7905
380.9817, 443.6432
381.4638, 442.8932
381.9459, 442.5982
382.4280, 443.0793
382.9102, 443.9850
383.3923, 444.7418
383.8744, 445.3464
384.3565, 445.7317
384.8386, 445.6364
385.3207, 445.3207
385.8029, 445.3405
386.2850, 445.7779
386.7671, 446.3993
387.2492, 447.1672
387.7313, 447.9470
388.2134, 448.4151
388.6956, 448.1332
389.1777, 447.6670
389.6598, 447.5586
390.1419, 447.8015
390.6240, 448.0587
391.1061, 448.1974
391.5883, 448.2235
392.0704, 448.1239
392.5525, 447.7066
393.0346, 447.4362
393.5167, 447.4465
393.9988, 447.7594
394.4810, 448.4266
394.9631, 450.1604
395.4452, 451.7145
395.9273, 452.3451
396.4094, 451.6159
396.8915, 451.0861
397.3737, 451.0665
397.8558, 451.3829
398.3379, 451.8207
398.8200, 452.3494
399.3021, 452.9960
399.7842, 453.7846
400.2664, 454.7096
400.7485, 455.6734
401.2306, 456.8793
401.7127, 457.9028
402.1948, 458.4164
402.6769, 458.0548
403.1591, 457.9767
403.6412, 458.3418
404.1233, 458.9819
404.6054, 459.5220
405.0875, 459.9837
405.5696, 460.2690
406.0518, 460.2531
406.5339, 459.9245
407.0160, 459.8620
407.4981, 460.0896
407.9802, 460.5402
408.4623, 461.2998
408.9445, 462.3636
409.4266, 463.0353
409.9087, 462.9515
410.3908, 462.5257
410.8729, 462.7668
411.3550, 463.6661
411.8372, 464.7386
412.3193, 465.8477
412.8014, 466.8642
413.2835, 467.3747
413.7656, 467.2014
414.2477, 467.0200
414.7299, 467.6907
415.2120, 468.9232
415.6941, 470.0083
416.1762, 470.4344
416.6583, 470.6764
417.1404, 471.1908
417.6226, 471.9720
418.1047, 472.6845
418.5868, 473.0275
419.0689, 473.2523
419.5510, 473.6105
420.0331, 474.2553
420.5153, 474.9188
420.9974, 475.5209
421.4795, 476.0684
421.9616, 476.5505
422.4437, 477.0545
422.9258, 477.4378
423.4080, 477.6283
423.8901, 477.5878
424.3722, 477.5253
424.8543, 477.3230
425.3364, 477.1875
425.8185, 477.3249
426.3007, 477.8990
426.7828, 478.5351
427.2649, 479.3152
427.7470, 480.1564
428.2291, 480.4619
428.7112, 479.9367
429.1934, 479.3756
429.6755, 479.1844
430.1576, 479.3897
430.6397, 479.9093
431.1218, 480.9343
431.6039, 481.9488
432.0861, 481.9012
432.5682, 480.6932
433.0503, 479.9511
433.5324, 480.5902
434.0145, 482.0596
434.4966, 482.1726
434.9788, 480.8874
435.4609, 479.6581
435.9430, 479.9124
436.4251, 481.1949
436.9072, 482.2541
437.3893, 482.8946
437.8715, 483.1987
438.3536, 483.0196
438.8357, 482.5431
439.3178, 482.2874
439.7999, 482.5801
440.2820, 483.1694
440.7642, 484.0262
441.2463, 485.1490
441.7284, 485.8070
442.2105, 485.0668
442.6926, 483.9111
443.1747, 483.2947
443.6569, 483.9385
444.1390, 484.5858
444.6211, 484.8788
445.1032, 484.8823
445.5853, 484.7769
446.0674, 484.3995
446.5496, 484.1034
447.0317, 484.1146
447.5138, 484.6770
447.9959, 484.7623
448.4780, 483.9218
448.9601, 482.9378
449.4423, 482.6104
449.9244, 483.3456
450.4065, 483.9064
450.8886, 484.0253
451.3707, 483.8385
451.8528, 484.0361
452.3350, 484.8351
452.8171, 485.3373
453.2992, 484.6749
453.7813, 482.8100
454.2634, 482.3715
454.7455, 483.6672
455.2277, 485.5268
455.7098, 486.5523
456.1919, 486.8039
456.6740, 486.7456
457.1561, 486.2750
457.6382, 485.7955
458.1204, 486.1472
458.6025, 487.2415
459.0846, 488.3969
459.5667, 489.3563
460.0488, 490.0417
460.5309, 490.2902
461.0131, 490.0117
461.4952, 489.6402
461.9773, 489.2602
462.4594, 489.0327
462.9415, 489.1906
463.4236, 489.9672
463.9058, 491.0092
464.3879, 492.4337
464.8700, 494.1280
465.3521, 495.3112
465.8342, 495.3908
466.3163, 495.2068
466.7985, 495.1869
467.2806, 495.2188
467.7627, 495.6930
468.2448, 496.7463
468.7269, 498.1785
469.2090, 499.7839
469.6912, 501.9269
470.1733, 503.5686
470.6554, 504.2268
471.1375, 504.0658
471.6196, 504.8142
472.1017, 506.7747
472.5839, 508.7938
473.0660, 510.0544
473.5481, 510.5430
474.0302, 511.1223
474.5123, 511.8385
474.9944, 512.7307
475.4766, 513.9536
475.9587, 515.4592
476.4408, 516.9155
476.9229, 518.1832
477.4050, 519.3239
477.8871, 520.3740
478.3693, 521.3528
478.8514, 522.3928
479.3335, 523.5981
479.8156, 524.9204
480.2977, 526.1616
480.7798, 527.0739
481.2620, 528.6093
481.7441, 531.8124
482.2262, 535.8708
482.7083, 539.5881
483.1904, 542.4758
483.6725, 545.0412
484.1547, 547.3167
484.6368, 549.3217
485.1189, 551.4175
485.6010, 553.2839
486.0831, 555.5527
486.5652, 558.5717
487.0474, 562.9061
487.5295, 566.7740
488.0116, 569.7365
488.4937, 572.5112
488.9758, 576.3656
489.4579, 581.9652
489.9401, 586.5720
490.4222, 589.2214
490.9043, 590.4232
491.3864, 592.6224
491.8685, 595.8855
492.3506, 599.7873
492.8328, 604.2763
493.3149, 609.2024
493.7970, 614.0946
494.2791, 619.0074
494.7612, 623.5068
495.2433, 626.9119
495.7255, 629.5588
496.2076, 632.3222
496.6897, 635.3542
497.1718, 638.8112
497.6539, 643.0004
498.1360, 647.7558
498.6182, 652.5294
499.1003, 657.1060
499.5824, 661.5237
500.0645, 665.7184
500.5466, 669.7702
501.0287, 673.5070
501.5109, 676.4650
501.9930, 679.2742
502.4751, 682.5276
502.9572, 687.2072
503.4393, 691.2390
503.9214, 694.4346
504.4036, 696.7938
504.8857, 698.3070
505.3678, 698.4697
505.8499, 698.6882
506.3320, 699.5868
506.8141, 701.2260
507.2963, 702.7653
507.7784, 704.3270
508.2605, 705.5157
508.7426, 705.8014
509.2247, 705.2398
509.7068, 704.6946
510.1890, 704.3442
510.6711, 704.0394
511.1532, 703.6593
511.6353, 703.1481
512.1174, 702.2753
512.5995, 700.6027
513.0817, 698.6607
513.5638, 697.3366
514.0459, 696.5895
514.5280, 695.2665
515.0101, 691.8730
515.4922, 687.9499
515.9744, 685.0485
516.4565, 684.0339
516.9386, 682.9559
517.4207, 680.9512
517.9028, 678.5329
518.3849, 676.5375
518.8671, 675.5222
519.3492, 674.4932
519.8313, 673.2502
520.3134, 671.8066
520.7955, 670.1768
521.2776, 668.1642
521.7598, 666.2353
522.2419, 664.6880
522.7240, 663.5755
523.2061, 662.5359
523.6882, 661.6334
524.1703, 660.6395
524.6525, 659.1062
525.1346, 657.0782
525.6167, 655.3861
526.0988, 654.4910
526.5809, 653.8212
527.0630, 652.1655
527.5452, 649.7020
528.0273, 647.3961
528.5094, 645.9503
528.9915, 644.8941
529.4736, 643.6523
529.9557, 642.1688
530.4379, 640.7667
530.9200, 639.8155
531.4021, 638.9296
531.8842, 637.7132
532.3663, 635.8168
532.8484, 633.9299
533.3306, 632.1537
533.8127, 630.5016
534.2948, 629.0621
534.7769, 628.2263
535.2590, 627.1309
535.7411, 625.4989
536.2233, 623.3617
536.7054, 621.3372
537.1875, 619.3264
537.6696, 617.6768
538.1517, 616.8155
538.6339, 616.8585
539.1160, 616.2445
539.5981, 614.7844
540.0802, 612.9817
540.5623, 611.3986
541.0444, 610.0152
541.5266, 608.6905
542.0087, 607.4342
542.4908, 606.1445
542.9729, 604.6794
543.4550, 603.0697
543.9371, 601.4052
544.4193, 599.2839
544.9014, 597.4075
545.3835, 596.5814
545.8656, 596.9291
546.3477, 597.0321
546.8298, 596.3174
547.3120, 595.0959
547.7941, 593.6201
548.2762, 591.4567
548.7583, 589.6776
549.2404, 588.7213
549.7225, 588.0822
550.2047, 586.8841
550.6868, 584.8836
551.1689, 582.7527
551.6510, 580.5019
552.1331, 578.2411
552.6152, 577.0085
553.0974, 577.0734
553.5795, 576.8698
554.0616, 574.9449
554.5437, 571.7097
555.0258, 569.6350
555.5079, 568.9554
555.9901, 568.7136
556.4722, 568.2003
556.9543, 567.3467
557.4364, 565.9209
557.9185, 563.4528
558.4006, 561.0419
558.8828, 559.6878
559.3649, 559.0385
559.8470, 558.2537
560.3291, 556.8118
560.8112, 555.3047
561.2933, 553.9977
561.7755, 552.8956
562.2576, 551.6984
562.7397, 550.4769
563.2218, 549.0538
563.7039, 547.2918
564.1860, 544.9702
564.6682, 542.8417
565.1503, 540.7975
565.6324, 539.0711
566.1145, 538.2000
566.5966, 538.3276
567.0787, 537.9338
567.5609, 536.5633
568.0430, 534.6769
568.5251, 533.2448
569.0072, 532.2255
569.4893, 531.3577
569.9714, 530.5392
570.4536, 529.7552
570.9357, 528.9017
571.4178, 527.9972
571.8999, 527.3134
572.3820, 527.2193
572.8641, 527.3159
573.3463, 527.2778
573.8284, 527.0648
574.3105, 526.6423
574.7926, 525.6708
575.2747, 524.5946
575.7568, 523.9808
576.2390, 524.1255
576.7211, 524.3823
577.2032, 524.6941
577.6853, 525.0656
578.1674, 525.5866
578.6495, 526.4381
579.1317, 526.8968
579.6138, 526.4473
580.0959, 525.2590
580.5780, 524.8004
581.0601, 525.1183
581.5422, 525.6411
582.0244, 526.0472
582.5065, 526.2814
582.9886, 526.0111
583.4707, 525.0393
583.9528, 524.4100
584.4349, 525.3807
584.9171, 527.2151
585.3992, 528.8259
585.8813, 530.1124
586.3634, 530.7919
586.8455, 530.2017
587.3276, 528.8598
587.8098, 528.2136
588.2919, 529.2662
588.7740, 530.3068
589.2561, 530.8454
589.7382, 530.8729
590.2203, 530.7491
590.7025, 530.3576
591.1846, 530.0226
591.6667, 530.0134
592.1488, 530.3656
592.6309, 530.5516
593.1130, 530.5473
593.5952, 530.4238
594.0773, 530.3744
594.5594, 530.3068
595.0415, 529.8068
595.5236, 528.6111
596.0057, 527.2570
596.4879, 526.1558
596.9700, 525.3652
597.4521, 525.0344
597.9342, 526.0449
598.4163, 526.8141
598.8984, 526.3408
599.3806, 524.7167
599.8627, 523.0071
600.3448, 521.1201
600.8269, 519.4854
601.3090, 518.3404
601.7911, 517.8461
602.2733, 517.1761
602.7554, 516.2884
603.2375, 515.2831
603.7196, 514.2235
604.2017, 513.0818
604.6838, 512.0641
605.1660, 511.1452
605.6481, 510.4573
606.1302, 510.2780
606.6123, 510.5469
607.0944, 511.0284
607.5765, 512.1458
608.0587, 512.9180
