##NAMES=Lovozerite
##RRUFFID=R080107
##IDEAL CHEMISTRY=Na_3_CaZr^4+^Si_6_O_15_(OH)_3_
##LOCALITY=Mont Saint-Hilaire, Quebec, Canada
##OWNER=RRUFF
##SOURCE=William W. Pinch
##DESCRIPTION=Small tan blocky crystals associated with sodalite and microcline
##STATUS=The identification of this mineral has been confirmed only by single crystal X-ray diffraction.
##URL=rruff.info/R080107
92.52344, 776.0532
93.00555, 768.6677
93.48767, 770.0440
93.96979, 798.4781
94.45190, 826.5251
94.93402, 850.4732
95.41614, 860.5012
95.89825, 861.7060
96.38037, 861.6039
96.86249, 860.0217
97.34460, 856.7664
97.82672, 852.1506
98.30884, 847.6454
98.79095, 843.8535
99.27307, 839.3594
99.75519, 833.0230
100.2373, 826.7631
100.7194, 821.2580
101.2015, 816.4854
101.6837, 811.6458
102.1658, 807.5867
102.6479, 805.2438
103.1300, 804.6873
103.6121, 804.3787
104.0942, 802.8115
104.5764, 800.5936
105.0585, 798.7839
105.5406, 797.6692
106.0227, 797.1584
106.5048, 797.0352
106.9869, 797.0889
107.4691, 797.3948
107.9512, 798.3487
108.4333, 799.6055
108.9154, 800.3438
109.3975, 799.5740
109.8796, 796.8978
110.3618, 795.1392
110.8439, 794.5873
111.3260, 794.6165
111.8081, 795.1403
112.2902, 796.0584
112.7723, 797.2035
113.2544, 798.3961
113.7366, 800.0344
114.2187, 800.8743
114.7008, 800.3311
115.1829, 799.3461
115.6650, 798.6449
116.1471, 798.4763
116.6293, 798.8351
117.1114, 799.8670
117.5935, 802.0677
118.0756, 803.8973
118.5577, 805.0279
119.0398, 805.5176
119.5220, 805.3930
120.0041, 804.3244
120.4862, 802.9359
120.9683, 802.5143
121.4504, 803.2265
121.9325, 804.5532
122.4147, 806.4710
122.8968, 809.0771
123.3789, 811.0311
123.8610, 810.8453
124.3431, 809.8906
124.8252, 809.4723
125.3074, 810.1526
125.7895, 811.3818
126.2716, 811.9226
126.7537, 811.1428
127.2358, 810.8049
127.7179, 811.7051
128.2001, 813.2426
128.6822, 814.6475
129.1643, 815.4308
129.6464, 815.6435
130.1285, 815.8798
130.6107, 816.2944
131.0928, 816.5916
131.5749, 816.5943
132.0570, 816.4099
132.5391, 816.2771
133.0212, 816.4131
133.5034, 816.8679
133.9855, 817.3192
134.4676, 817.4271
134.9497, 817.7999
135.4318, 819.0472
135.9139, 821.1173
136.3960, 823.2010
136.8782, 824.3578
137.3603, 824.3946
137.8424, 824.2968
138.3245, 823.9440
138.8066, 823.5471
139.2887, 823.3623
139.7709, 823.4576
140.2530, 823.7120
140.7351, 823.9209
141.2172, 824.0771
141.6993, 824.4876
142.1814, 825.6381
142.6636, 827.2344
143.1457, 828.1291
143.6278, 827.6589
144.1099, 826.8472
144.5920, 826.6149
145.0741, 826.9704
145.5563, 827.4113
146.0384, 827.4212
146.5205, 826.9219
147.0026, 826.6813
147.4847, 826.9324
147.9668, 827.4329
148.4490, 828.1847
148.9311, 829.1544
149.4132, 830.1308
149.8953, 830.7968
150.3774, 831.0873
150.8595, 831.1510
151.3417, 830.9401
151.8238, 830.5881
152.3059, 830.0892
152.7880, 829.4627
153.2701, 828.8846
153.7522, 828.8197
154.2344, 830.0966
154.7165, 830.9625
155.1986, 831.1631
155.6807, 830.9719
156.1628, 830.7203
156.6449, 830.5709
157.1271, 830.4860
157.6092, 830.3060
158.0913, 830.0170
158.5734, 829.6774
159.0555, 829.1335
159.5376, 828.5270
160.0198, 828.2664
160.5019, 828.6774
160.9840, 829.5670
161.4661, 830.1589
161.9482, 830.4948
162.4303, 830.5222
162.9125, 830.0223
163.3946, 829.0209
163.8767, 828.1476
164.3588, 827.8830
164.8409, 827.9670
165.3230, 827.9472
165.8052, 827.6767
166.2873, 827.3406
166.7694, 827.2443
167.2515, 827.4990
167.7336, 827.6091
168.2157, 827.2440
168.6979, 826.6314
169.1800, 826.0008
169.6621, 825.4194
170.1442, 824.9066
170.6263, 824.4810
171.1084, 823.9971
171.5906, 823.8873
172.0727, 824.6911
172.5548, 825.8185
173.0369, 826.4203
173.5190, 825.9070
174.0011, 824.4234
174.4833, 823.2019
174.9654, 822.4896
175.4475, 821.8092
175.9296, 820.7185
176.4117, 819.5917
176.8938, 819.2276
177.3760, 820.3944
177.8581, 823.1741
178.3402, 824.1959
178.8223, 821.9911
179.3044, 819.6914
179.7865, 818.2344
180.2687, 817.6241
180.7508, 817.5717
181.2329, 817.9414
181.7150, 818.8068
182.1971, 818.9566
182.6792, 817.6798
183.1614, 816.3901
183.6435, 815.8964
184.1256, 816.2289
184.6077, 816.9594
185.0898, 817.8547
185.5719, 818.8997
186.0541, 819.4119
186.5362, 818.9304
187.0183, 818.1575
187.5004, 817.7430
187.9825, 817.7619
188.4646, 817.9045
188.9468, 817.9171
189.4289, 817.8224
189.9110, 817.7053
190.3931, 817.6152
190.8752, 817.5051
191.3573, 817.3261
191.8395, 817.1046
192.3216, 816.7250
192.8037, 815.8463
193.2858, 814.7238
193.7679, 813.9777
194.2500, 814.0928
194.7322, 814.8250
195.2143, 814.2820
195.6964, 815.8356
196.1785, 816.6957
196.6606, 816.8994
197.1427, 814.4810
197.6249, 815.4485
198.1070, 815.0591
198.5891, 814.6141
199.0712, 816.0581
199.5533, 814.0211
200.0354, 815.4352
200.5176, 815.4716
200.9997, 816.1385
201.4818, 814.1014
201.9639, 815.6661
202.4460, 816.5372
202.9281, 816.7521
203.4103, 814.3447
203.8924, 815.3234
204.3745, 814.9450
204.8566, 814.5110
205.3387, 815.9662
205.8208, 813.9402
206.3030, 815.3654
206.7851, 815.4129
207.2672, 816.0909
207.7493, 815.4037
208.2314, 816.2097
208.7135, 816.9144
209.1957, 817.0909
209.6778, 816.4256
210.1599, 814.7014
210.6420, 813.9168
211.1241, 814.6454
211.6062, 815.6049
212.0884, 816.2518
212.5705, 816.5206
213.0526, 816.5162
213.5347, 816.2858
214.0168, 815.7902
214.4989, 815.4351
214.9811, 815.3154
215.4632, 815.2471
215.9453, 815.0349
216.4274, 814.6959
216.9095, 814.4949
217.3916, 814.6237
217.8737, 815.1411
218.3559, 816.0234
218.8380, 817.9589
219.3201, 819.8333
219.8022, 820.6743
220.2843, 820.4128
220.7664, 819.5712
221.2486, 818.1059
221.7307, 816.3203
222.2128, 815.5331
222.6949, 816.7786
223.1770, 818.6739
223.6591, 819.6010
224.1413, 819.4037
224.6234, 819.0180
225.1055, 819.0690
225.5876, 819.4033
226.0697, 819.7755
226.5518, 820.0695
227.0340, 820.3868
227.5161, 820.9637
227.9982, 821.9218
228.4803, 822.6974
228.9624, 822.6263
229.4445, 822.2410
229.9267, 822.2752
230.4088, 823.1443
230.8909, 824.4555
231.3730, 825.5827
231.8551, 826.7161
232.3372, 827.1374
232.8194, 825.5970
233.3015, 823.5438
233.7836, 822.8167
234.2657, 824.4557
234.7478, 827.4020
235.2299, 829.2374
235.7121, 829.4836
236.1942, 829.5448
236.6763, 830.0441
237.1584, 830.5382
237.6405, 830.3576
238.1227, 829.0870
238.6048, 827.4612
239.0869, 827.5212
239.5690, 830.6833
240.0511, 833.0677
240.5332, 833.6817
241.0154, 833.4040
241.4975, 832.9849
241.9796, 832.7402
242.4617, 832.6741
242.9438, 832.7972
243.4259, 833.0993
243.9081, 833.6508
244.3902, 834.8330
244.8723, 836.0607
245.3544, 836.7213
245.8365, 836.5878
246.3186, 835.9793
246.8008, 835.6032
247.2829, 835.4151
247.7650, 835.5832
248.2471, 836.5648
248.7292, 837.6454
249.2113, 838.0310
249.6935, 837.4825
250.1756, 836.5541
250.6577, 836.3505
251.1398, 837.7064
251.6219, 838.5952
252.1040, 838.4338
252.5862, 836.4481
253.0683, 838.0796
253.5504, 839.0174
254.0325, 839.2989
254.5146, 836.9583
254.9967, 838.0036
255.4789, 837.6920
255.9610, 837.3248
256.4431, 838.8466
256.9252, 836.8874
257.4073, 838.3793
257.8894, 838.4937
258.3716, 839.2385
258.8537, 838.4470
259.3358, 838.3542
259.8179, 838.5879
260.3000, 838.8896
260.7821, 839.0140
261.2643, 838.9247
261.7464, 838.7882
262.2285, 838.7924
262.7106, 838.9783
263.1927, 839.0958
263.6748, 839.2545
264.1570, 839.2629
264.6391, 838.7639
265.1212, 837.7637
265.6033, 836.9382
266.0854, 837.0593
266.5675, 838.1721
267.0497, 838.7100
267.5318, 838.0164
268.0139, 837.1641
268.4960, 837.1806
268.9781, 838.0726
269.4602, 838.8285
269.9424, 838.6084
270.4245, 837.5246
270.9066, 836.7106
271.3887, 836.2947
271.8708, 836.0826
272.3529, 836.0654
272.8351, 836.2111
273.3172, 836.1630
273.7993, 835.6571
274.2814, 834.7872
274.7635, 833.9429
275.2456, 833.1073
275.7278, 832.3348
276.2099, 831.6019
276.6920, 830.9307
277.1741, 830.4895
277.6562, 830.3212
278.1383, 830.5028
278.6205, 831.1672
279.1026, 832.6984
279.5847, 833.8928
280.0668, 833.7115
280.5489, 832.3682
281.0310, 831.1205
281.5132, 830.3438
281.9953, 829.9479
282.4774, 829.7634
282.9595, 829.8096
283.4416, 829.9283
283.9237, 829.7853
284.4059, 829.5621
284.8880, 830.2181
285.3701, 832.6394
285.8522, 835.0836
286.3343, 835.6749
286.8164, 834.5063
287.2986, 832.9855
287.7807, 831.4924
288.2628, 830.1866
288.7449, 829.7269
289.2270, 830.5869
289.7091, 831.6166
290.1913, 831.8331
290.6734, 831.4122
291.1555, 830.9528
291.6376, 830.6064
292.1197, 830.4288
292.6018, 830.5631
293.0840, 831.0511
293.5661, 831.7838
294.0482, 832.9334
294.5303, 834.2485
295.0124, 835.2581
295.4945, 835.6747
295.9767, 835.7275
296.4588, 835.8958
296.9409, 836.3158
297.4230, 836.3824
297.9051, 835.2327
298.3872, 833.7117
298.8694, 832.8718
299.3515, 833.1926
299.8336, 833.9932
300.3157, 834.4984
300.7978, 834.7318
301.2799, 834.5170
301.7621, 833.0241
302.2442, 831.4440
302.7263, 831.0005
303.2084, 832.0506
303.6905, 833.4089
304.1726, 833.7731
304.6548, 833.0910
305.1369, 832.6508
305.6190, 832.9967
306.1011, 833.5092
306.5832, 833.6240
307.0653, 833.3246
307.5475, 833.1567
308.0296, 833.8027
308.5117, 835.1568
308.9938, 835.8691
309.4759, 835.3153
309.9580, 834.6033
310.4402, 834.3963
310.9223, 834.6552
311.4044, 835.1849
311.8865, 836.1800
312.3686, 837.4182
312.8507, 837.8366
313.3329, 836.9217
313.8150, 836.0295
314.2971, 835.9319
314.7792, 836.3521
315.2613, 836.8063
315.7434, 837.1275
316.2256, 837.3105
316.7077, 837.2233
317.1898, 836.6110
317.6719, 836.4449
318.1540, 837.5947
318.6361, 839.2344
319.1183, 840.5371
319.6004, 841.2928
320.0825, 841.5578
320.5646, 841.2509
321.0467, 840.2564
321.5288, 839.4285
322.0110, 838.9664
322.4931, 838.8450
322.9752, 839.2370
323.4573, 840.1841
323.9394, 841.0509
324.4215, 841.1052
324.9037, 840.3676
325.3858, 839.8705
325.8679, 839.7850
326.3500, 840.0350
326.8321, 840.6216
327.3142, 841.5012
327.7964, 842.4335
328.2785, 843.4275
328.7606, 844.3912
329.2427, 844.8778
329.7248, 844.8113
330.2069, 844.3268
330.6891, 843.3757
331.1712, 842.1233
331.6533, 840.8787
332.1354, 839.5509
332.6175, 838.4344
333.0996, 838.2992
333.5818, 839.4678
334.0639, 840.5724
334.5460, 840.7717
335.0281, 840.5705
335.5102, 840.4979
335.9923, 840.7014
336.4745, 841.0361
336.9566, 841.3806
337.4387, 841.7391
337.9208, 841.9975
338.4029, 842.1151
338.8850, 842.1038
339.3671, 841.8699
339.8492, 841.3742
340.3314, 841.1014
340.8135, 841.7360
341.2956, 843.0622
341.7777, 843.5788
342.2598, 842.5060
342.7419, 841.3039
343.2241, 841.3515
343.7062, 842.4265
344.1883, 843.4483
344.6704, 843.7649
345.1525, 843.6927
345.6346, 844.0696
346.1168, 845.1818
346.5989, 845.9519
347.0810, 844.9032
347.5631, 843.0168
348.0452, 842.0822
348.5273, 843.1605
349.0095, 844.8368
349.4916, 845.5596
349.9737, 845.3141
350.4558, 844.7021
350.9379, 843.5290
351.4200, 842.4545
351.9022, 842.6396
352.3843, 844.6406
352.8664, 846.5000
353.3485, 846.6351
353.8306, 845.4703
354.3127, 844.6530
354.7949, 844.5983
355.2770, 845.1154
355.7591, 846.0863
356.2412, 847.4940
356.7233, 848.8541
357.2054, 850.4168
357.6876, 851.6902
358.1697, 851.6884
358.6518, 850.1581
359.1339, 848.2454
359.6160, 846.7767
360.0981, 845.7452
360.5803, 845.1428
361.0624, 845.0572
361.5445, 845.3431
362.0266, 846.0427
362.5087, 847.0963
362.9908, 848.0654
363.4730, 848.6801
363.9551, 849.0547
364.4372, 849.5707
364.9193, 850.3088
365.4014, 851.0354
365.8835, 851.7918
366.3657, 852.4513
366.8478, 852.7071
367.3299, 852.4138
367.8120, 851.8467
368.2941, 851.3367
368.7762, 850.7589
369.2584, 850.7437
369.7405, 851.8417
370.2226, 853.2717
370.7047, 854.4457
371.1868, 855.2462
371.6689, 855.4392
372.1511, 852.8068
372.6332, 854.6021
373.1153, 855.7038
373.5974, 856.1492
374.0795, 853.9724
374.5616, 855.1815
375.0438, 855.0338
375.5259, 854.8304
376.0080, 856.5161
376.4901, 854.7206
376.9722, 856.3764
377.4543, 856.6545
377.9365, 857.5631
378.4186, 857.1064
378.9007, 857.0714
379.3828, 858.4022
379.8649, 858.9767
380.3470, 858.3628
380.8292, 859.3115
381.3113, 857.4684
381.7934, 858.0751
382.2755, 859.7388
382.7576, 859.1936
383.2397, 859.9247
383.7219, 860.0516
384.2040, 860.1654
384.6861, 860.6531
385.1682, 861.4944
385.6503, 862.3070
386.1324, 863.4667
386.6146, 864.1677
387.0967, 863.9210
387.5788, 863.2477
388.0609, 862.7216
388.5430, 862.5919
389.0251, 862.8685
389.5073, 863.6633
389.9894, 865.4500
390.4715, 866.7411
390.9536, 867.1799
391.4357, 867.3788
391.9178, 867.7221
392.4000, 868.2347
392.8821, 868.7057
393.3642, 868.9271
393.8463, 868.8900
394.3284, 868.7693
394.8105, 868.2134
395.2927, 867.9971
395.7748, 868.4241
396.2569, 869.3428
396.7390, 870.5674
397.2211, 872.1013
397.7032, 873.6859
398.1854, 874.6699
398.6675, 874.8595
399.1496, 875.0576
399.6317, 875.7642
400.1138, 876.4043
400.5959, 876.4085
401.0781, 875.6970
401.5602, 874.9245
402.0423, 874.6611
402.5244, 874.8800
403.0065, 875.3489
403.4886, 876.3514
403.9708, 877.1315
404.4529, 876.6799
404.9350, 875.5424
405.4171, 875.3161
405.8992, 877.4935
406.3813, 880.5586
406.8635, 881.9510
407.3456, 881.4867
407.8277, 881.0437
408.3098, 881.5825
408.7919, 882.7038
409.2740, 883.7176
409.7562, 884.5873
410.2383, 885.3542
410.7204, 886.1166
411.2025, 886.8073
411.6846, 887.2208
412.1667, 887.2849
412.6489, 887.1264
413.1310, 886.7659
413.6131, 886.2031
414.0952, 885.9698
414.5773, 886.3870
415.0594, 887.0193
415.5416, 887.2625
416.0237, 887.1940
416.5058, 887.7675
416.9879, 889.8976
417.4700, 893.0956
417.9521, 894.6866
418.4343, 893.6042
418.9164, 892.4897
419.3985, 891.7805
419.8806, 891.5529
420.3627, 892.1036
420.8448, 893.5153
421.3270, 895.1750
421.8091, 896.1454
422.2912, 896.0496
422.7733, 896.3071
423.2554, 897.0844
423.7375, 898.0333
424.2197, 899.1232
424.7018, 900.2217
425.1839, 901.0603
425.6660, 901.4529
426.1481, 901.4159
426.6302, 901.0320
427.1124, 899.7349
427.5945, 898.7977
428.0766, 898.3581
428.5587, 898.3560
429.0408, 898.8250
429.5229, 899.7428
430.0051, 900.8386
430.4872, 901.9151
430.9693, 903.2232
431.4514, 903.4648
431.9335, 900.6698
432.4156, 898.5270
432.8978, 899.0997
433.3799, 900.5615
433.8620, 902.2344
434.3441, 903.2138
434.8262, 903.5368
435.3083, 901.2377
435.7905, 902.3246
436.2726, 902.0545
436.7547, 901.7288
437.2368, 903.2921
437.7189, 901.3744
438.2010, 902.9078
438.6832, 903.0635
439.1653, 903.8499
439.6474, 904.3203
440.1295, 905.2796
440.6116, 905.5826
441.0938, 903.2635
441.5759, 904.3303
442.0580, 904.0402
442.5401, 903.6943
443.0222, 905.2377
443.5043, 903.2999
443.9865, 904.8133
444.4686, 904.9490
444.9507, 905.7152
445.4328, 905.1161
445.9149, 904.9388
446.3970, 906.1271
446.8792, 906.5593
447.3613, 905.8030
447.8434, 906.6093
448.3255, 904.6238
448.8076, 905.0882
449.2897, 906.6095
449.7719, 905.9219
450.2540, 906.7532
450.7361, 908.8699
451.2182, 910.2988
451.7003, 909.4254
452.1824, 908.5980
452.6646, 908.9152
453.1467, 909.8060
453.6288, 910.1541
454.1109, 909.4683
454.5930, 908.3569
455.0751, 908.0721
455.5573, 909.2377
456.0394, 910.0176
456.5215, 910.1906
457.0036, 910.2274
457.4857, 910.5053
457.9678, 910.9261
458.4500, 911.0168
458.9321, 910.2489
459.4142, 908.9059
459.8963, 908.7685
460.3784, 910.6975
460.8605, 912.3087
461.3427, 913.0385
461.8248, 913.1703
462.3069, 912.8008
462.7890, 911.9590
463.2711, 911.1835
463.7532, 911.0949
464.2354, 911.6488
464.7175, 912.2718
465.1996, 913.1418
465.6817, 913.6746
466.1638, 913.0292
466.6459, 911.7274
467.1281, 911.1257
467.6102, 911.9807
468.0923, 913.4424
468.5744, 914.7480
469.0565, 915.8916
469.5386, 916.7196
470.0208, 917.1050
470.5029, 917.2197
470.9850, 917.2924
471.4671, 917.2568
471.9492, 917.4773
472.4313, 918.3144
472.9135, 919.2967
473.3956, 919.8713
473.8777, 920.0201
474.3598, 920.1258
474.8419, 920.4601
475.3240, 921.0181
475.8062, 921.7119
476.2883, 923.0140
476.7704, 923.8771
477.2525, 923.9611
477.7346, 923.5536
478.2167, 922.7910
478.6989, 921.7881
479.1810, 921.0026
479.6631, 921.0550
480.1452, 922.1046
480.6273, 923.1767
481.1094, 924.2833
481.5916, 925.3857
482.0737, 926.8685
482.5558, 928.2540
483.0379, 928.5351
483.5200, 927.0741
484.0021, 925.0668
484.4843, 924.9566
484.9664, 927.1877
485.4485, 929.2667
485.9306, 930.7064
486.4127, 931.8535
486.8948, 932.8384
487.3770, 933.7126
487.8591, 934.6385
488.3412, 935.9970
488.8233, 937.3829
489.3054, 937.7344
489.7875, 936.9007
490.2697, 936.4701
490.7518, 937.2943
491.2339, 939.0518
491.7160, 941.0956
492.1981, 943.7211
492.6802, 945.7421
493.1624, 946.2660
493.6445, 946.0033
494.1266, 945.8591
494.6087, 946.0037
495.0908, 946.6123
495.5729, 947.9895
496.0551, 950.1127
496.5372, 951.5424
497.0193, 951.7286
497.5014, 951.9714
497.9835, 952.6740
498.4656, 953.6732
498.9478, 954.7958
499.4299, 955.9639
499.9120, 957.0349
500.3941, 957.7200
500.8762, 957.7863
501.3583, 958.4106
501.8405, 960.1696
502.3226, 961.8953
502.8047, 963.3115
503.2868, 964.3693
503.7689, 964.9615
504.2510, 964.9880
504.7331, 964.7567
505.2152, 964.8213
505.6974, 965.2156
506.1795, 965.7111
506.6616, 966.3942
507.1437, 967.0416
507.6258, 967.6288
508.1079, 968.0963
508.5901, 968.1228
509.0722, 967.3066
509.5543, 966.0880
510.0364, 964.9671
510.5185, 963.9572
511.0006, 963.4043
511.4828, 963.6652
511.9649, 964.3132
512.4470, 964.4793
512.9291, 964.1727
513.4113, 963.4911
513.8934, 962.0515
514.3755, 960.4912
514.8576, 959.5380
515.3397, 959.2034
515.8218, 959.0187
516.3040, 958.6584
516.7861, 958.1264
517.2682, 957.4651
517.7503, 956.3297
518.2324, 955.5002
518.7145, 955.3281
519.1967, 955.3177
519.6788, 955.0133
520.1609, 954.3350
520.6430, 953.4691
521.1251, 952.5314
521.6072, 951.5281
522.0894, 950.9090
522.5715, 951.1060
523.0536, 950.9882
523.5357, 949.8812
524.0178, 948.4227
524.4999, 947.3079
524.9821, 946.7095
525.4642, 946.4795
525.9463, 946.6918
526.4284, 947.2070
526.9105, 947.3817
527.3926, 947.0964
527.8748, 946.5720
528.3569, 945.9771
528.8390, 945.2786
529.3211, 944.3410
529.8032, 942.8875
530.2853, 941.5004
530.7675, 940.4688
531.2496, 939.7377
531.7317, 939.2440
532.2138, 938.9686
532.6959, 938.7937
533.1780, 938.5895
533.6602, 938.3630
534.1423, 938.0380
534.6244, 937.5829
535.1065, 937.0731
535.5886, 936.6595
536.0707, 936.1730
536.5529, 935.2614
537.0350, 933.8053
537.5171, 932.2050
537.9992, 931.0709
538.4813, 930.4099
538.9634, 930.2071
539.4456, 930.8670
539.9277, 931.5657
540.4098, 932.0828
540.8919, 932.3442
541.3740, 932.2206
541.8561, 931.6240
542.3383, 930.7062
542.8204, 929.4658
543.3025, 927.9671
543.7846, 926.8527
544.2667, 926.3214
544.7488, 926.1353
545.2310, 926.2346
545.7131, 926.5629
546.1952, 926.4801
546.6773, 925.4584
547.1594, 924.3977
547.6415, 923.9179
548.1237, 923.8682
548.6058, 923.8271
549.0879, 923.6275
549.5700, 923.3732
550.0521, 923.2327
550.5342, 923.2376
551.0164, 923.2810
551.4985, 923.5179
551.9806, 923.6354
552.4627, 923.4299
552.9448, 923.0139
553.4269, 922.5985
553.9091, 922.2811
554.3912, 922.0214
554.8733, 921.7904
555.3554, 921.6135
555.8375, 921.2075
556.3196, 920.0280
556.8018, 919.2159
557.2839, 920.0878
557.7660, 921.8995
558.2481, 922.4686
558.7302, 920.0897
559.2123, 917.2612
559.6945, 916.6452
560.1766, 917.8477
560.6587, 919.3192
561.1408, 920.8055
561.6229, 921.6740
562.1050, 920.8661
562.5872, 918.0104
563.0693, 916.1849
563.5514, 916.4406
564.0335, 916.7187
564.5156, 915.5878
564.9977, 913.8160
565.4799, 912.9454
565.9620, 913.5798
566.4441, 914.9252
566.9262, 915.8105
567.4083, 916.2654
567.8904, 916.1125
568.3726, 914.1500
568.8547, 912.8270
569.3368, 913.6370
569.8189, 915.4791
570.3010, 916.4377
570.7831, 915.7018
571.2653, 914.4963
571.7474, 914.2921
572.2295, 914.9673
572.7116, 915.5160
573.1937, 915.7493
573.6758, 915.9169
574.1580, 916.4166
574.6401, 917.0515
575.1222, 917.0276
575.6043, 915.6426
576.0864, 914.3017
576.5685, 913.7455
577.0507, 913.6844
577.5328, 913.6318
578.0149, 913.4701
578.4970, 913.3989
578.9791, 913.6336
579.4612, 914.1830
579.9434, 914.8564
580.4255, 916.1682
580.9076, 916.9905
581.3897, 916.7377
581.8718, 916.0944
582.3539, 915.7416
582.8361, 915.8549
583.3182, 916.2831
583.8003, 917.0618
584.2824, 918.0983
584.7645, 918.6599
585.2466, 918.6082
585.7288, 918.4618
586.2108, 918.5007
586.6929, 918.5717
587.1750, 918.3660
587.6572, 917.7178
588.1393, 917.4083
588.6214, 918.1459
589.1035, 919.2420
589.5856, 919.5808
