##NAMES=Lovozerite
##RRUFFID=R120159
##IDEAL CHEMISTRY=Na_3_CaZr^4+^Si_6_O_15_(OH)_3_
##LOCALITY=Poudrette quarry, Mont Saint-Hilaire, Rouville RCM, Montérégie, Québec, Canada
##OWNER=RRUFF
##SOURCE=Donald Doell
##DESCRIPTION=Yellow massive on ussingite (R140806).
##STATUS=The identification of this mineral has been confirmed only by single crystal X-ray diffraction.
##URL=rruff.info/R120159
115.6658, 756.6516
116.1479, 755.5357
116.6300, 754.0646
117.1121, 752.1503
117.5942, 750.3281
118.0763, 750.1580
118.5584, 752.5435
119.0406, 754.3199
119.5227, 754.2603
120.0048, 752.8375
120.4869, 751.2595
120.9690, 749.8067
121.4511, 748.7657
121.9333, 748.5569
122.4154, 749.5821
122.8975, 750.7331
123.3796, 751.0858
123.8617, 750.5920
124.3438, 749.6854
124.8260, 748.0705
125.3081, 746.3105
125.7902, 744.8596
126.2723, 743.8050
126.7544, 743.2473
127.2365, 743.5643
127.7187, 745.4894
128.2008, 747.0771
128.6829, 747.8465
129.1650, 747.9766
129.6471, 747.6726
130.1292, 747.0240
130.6114, 746.0554
131.0935, 745.0924
131.5756, 743.6790
132.0577, 742.7261
132.5398, 742.5847
133.0219, 743.1301
133.5041, 744.0664
133.9862, 745.2013
134.4683, 746.6453
134.9504, 747.4805
135.4325, 747.2208
135.9146, 746.8652
136.3968, 747.0227
136.8789, 747.7326
137.3610, 748.6052
137.8431, 749.2218
138.3252, 749.5443
138.8073, 749.6913
139.2895, 749.3076
139.7716, 748.8879
140.2537, 749.1752
140.7358, 750.4711
141.2179, 751.9222
141.7000, 752.3347
142.1821, 751.8192
142.6643, 751.1810
143.1464, 750.6054
143.6285, 750.1367
144.1106, 749.9612
144.5927, 750.2891
145.0748, 750.7481
145.5570, 751.0127
146.0391, 751.0773
146.5212, 751.0521
147.0033, 750.9908
147.4854, 750.8812
147.9675, 750.8504
148.4497, 750.8294
148.9318, 750.9623
149.4139, 751.4266
149.8960, 752.2385
150.3781, 753.1541
150.8602, 753.8582
151.3424, 754.4730
151.8245, 754.5546
152.3066, 753.5754
152.7887, 752.4345
153.2708, 751.9345
153.7529, 752.3616
154.2351, 753.2815
154.7172, 753.6063
155.1993, 752.6815
155.6814, 751.8859
156.1635, 751.1893
156.6456, 750.6820
157.1278, 750.5293
157.6099, 750.8313
158.0920, 751.4521
158.5741, 751.8138
159.0562, 752.0699
159.5383, 751.9476
160.0205, 751.1657
160.5026, 749.9308
160.9847, 748.6777
161.4668, 747.6108
161.9489, 746.7624
162.4310, 746.1949
162.9131, 745.9024
163.3953, 745.8580
163.8774, 746.3226
164.3595, 747.2164
164.8416, 747.7040
165.3237, 747.0597
165.8058, 745.6633
166.2880, 744.4426
166.7701, 743.4100
167.2522, 742.6522
167.7343, 742.5205
168.2164, 743.2409
168.6985, 743.5126
169.1807, 741.8222
169.6628, 739.3965
170.1449, 737.8109
170.6270, 738.0929
171.1091, 739.3226
171.5912, 739.2431
172.0734, 736.9965
172.5555, 734.9911
173.0376, 734.2164
173.5197, 734.2156
174.0018, 734.3865
174.4839, 734.4539
174.9661, 734.3998
175.4482, 734.0849
175.9303, 733.2220
176.4124, 732.4108
176.8945, 731.8552
177.3766, 731.4654
177.8588, 731.0609
178.3409, 730.4869
178.8230, 729.7390
179.3051, 729.2317
179.7872, 729.4854
180.2693, 729.4676
180.7515, 728.7035
181.2336, 727.3673
181.7157, 725.9245
182.1978, 724.7302
182.6799, 723.7659
183.1620, 723.3041
183.6441, 723.7420
184.1263, 724.2027
184.6084, 724.2947
185.0905, 723.9989
185.5726, 723.4673
186.0547, 722.8083
186.5368, 721.9968
187.0190, 721.2827
187.5011, 720.7737
187.9832, 720.2921
188.4653, 719.6970
188.9474, 718.9796
189.4296, 718.2432
189.9117, 717.6224
190.3938, 717.1107
190.8759, 716.4395
191.3580, 715.1377
191.8401, 713.8713
192.3223, 713.6890
192.8044, 714.9336
193.2865, 716.0727
193.7686, 715.0627
194.2507, 712.5798
194.7328, 710.6837
195.2150, 710.2874
195.6971, 710.8456
196.1792, 711.3685
196.6613, 711.8800
197.1434, 712.1088
197.6255, 711.6398
198.1077, 710.7194
198.5898, 709.9935
199.0719, 710.1235
199.5540, 710.8027
200.0361, 710.5756
200.5182, 708.5186
201.0004, 706.8145
201.4825, 706.8482
201.9646, 708.1348
202.4467, 709.4755
202.9288, 710.1962
203.4109, 710.3022
203.8930, 709.7453
204.3752, 707.7120
204.8573, 705.8428
205.3394, 704.9535
205.8215, 704.7655
206.3036, 704.5032
206.7857, 703.3799
207.2679, 701.3044
207.7500, 700.1672
208.2321, 700.9282
208.7142, 701.8079
209.1963, 702.4745
209.6784, 702.8112
210.1606, 702.6834
210.6427, 701.8336
211.1248, 700.0737
211.6069, 699.3210
212.0890, 700.6003
212.5711, 701.8293
213.0533, 702.1537
213.5354, 701.6534
214.0175, 700.8777
214.4996, 700.2977
214.9817, 699.9191
215.4638, 699.7420
215.9460, 700.1293
216.4281, 700.3588
216.9102, 699.8713
217.3923, 698.7989
217.8744, 697.8337
218.3565, 697.6803
218.8387, 698.4884
219.3208, 698.6700
219.8029, 697.5847
220.2850, 696.4695
220.7671, 696.0662
221.2492, 696.3917
221.7314, 697.0554
222.2135, 697.7907
222.6956, 698.5965
223.1777, 699.2501
223.6598, 699.8329
224.1419, 700.2116
224.6240, 700.1771
225.1062, 699.7449
225.5883, 699.3019
226.0704, 699.2107
226.5525, 699.4141
227.0346, 699.4091
227.5167, 698.8109
227.9989, 698.2149
228.4810, 698.2909
228.9631, 699.0896
229.4452, 699.9051
229.9273, 700.1549
230.4094, 700.0209
230.8916, 700.0172
231.3737, 700.4389
231.8558, 700.9075
232.3379, 700.8510
232.8200, 700.1648
233.3021, 699.6889
233.7843, 700.2839
234.2664, 701.3831
234.7485, 702.1082
235.2306, 701.9933
235.7127, 701.6166
236.1948, 701.8663
236.6770, 702.9273
237.1591, 703.8499
237.6412, 703.9528
238.1233, 703.7058
238.6054, 703.6166
239.0875, 703.8929
239.5697, 704.3187
240.0518, 704.5930
240.5339, 704.7469
241.0160, 704.6400
241.4981, 703.9350
241.9802, 703.0725
242.4624, 702.4055
242.9445, 702.0093
243.4266, 701.9979
243.9087, 702.6934
244.3908, 704.4097
244.8729, 705.9685
245.3550, 707.2332
245.8372, 708.1213
246.3193, 708.4418
246.8014, 708.1072
247.2835, 707.4494
247.7656, 707.0729
248.2477, 707.1961
248.7299, 707.0649
249.2120, 706.3685
249.6941, 705.5079
250.1762, 704.6705
250.6583, 703.9325
251.1404, 703.4786
251.6226, 703.7782
252.1047, 705.5340
252.5868, 706.4147
253.0689, 705.5374
253.5510, 704.3063
254.0331, 703.7361
254.5153, 704.0716
254.9974, 704.8245
255.4795, 705.3096
255.9616, 705.6082
256.4437, 705.4047
256.9258, 704.1031
257.4080, 702.8245
257.8901, 702.3151
258.3722, 702.7007
258.8543, 703.5938
259.3364, 704.5414
259.8185, 705.7492
260.3007, 706.4450
260.7828, 706.6671
261.2649, 706.4777
261.7470, 705.6720
262.2291, 704.3651
262.7112, 703.0781
263.1934, 702.4017
263.6755, 702.4562
264.1576, 702.7495
264.6397, 703.5780
265.1218, 704.3477
265.6039, 704.8101
266.0861, 704.9114
266.5682, 704.6180
267.0503, 703.8080
267.5324, 702.3015
268.0145, 701.5073
268.4966, 701.9404
268.9788, 702.4610
269.4609, 702.6823
269.9430, 702.5201
270.4251, 701.8318
270.9072, 700.3284
271.3893, 697.9448
271.8715, 697.1415
272.3536, 699.2460
272.8357, 701.2683
273.3178, 701.9069
273.7999, 701.3970
274.2820, 700.5527
274.7642, 699.8605
275.2463, 699.3295
275.7284, 699.1218
276.2105, 699.6650
276.6926, 699.9907
277.1747, 699.5837
277.6568, 698.7067
278.1389, 697.9832
278.6211, 697.7789
279.1032, 697.9443
279.5853, 697.8269
280.0674, 696.9979
280.5495, 696.4444
281.0316, 696.6307
281.5138, 697.2355
281.9959, 697.7094
282.4780, 697.8251
282.9601, 697.6589
283.4422, 697.3629
283.9243, 696.8145
284.4065, 696.3886
284.8886, 696.2322
285.3707, 696.2275
285.8528, 696.1600
286.3349, 695.9406
286.8170, 695.7667
287.2992, 696.0783
287.7813, 697.1451
288.2634, 697.7468
288.7455, 697.2127
289.2276, 696.3011
289.7097, 696.0207
290.1919, 696.6179
290.6740, 697.4396
291.1561, 697.6537
291.6382, 697.1560
292.1203, 696.8461
292.6024, 696.9754
293.0846, 697.2363
293.5667, 697.2133
294.0488, 696.8642
294.5309, 696.7255
295.0130, 697.4448
295.4951, 699.0265
295.9773, 700.0593
296.4594, 700.1888
296.9415, 699.9703
297.4236, 699.7054
297.9057, 699.4363
298.3878, 699.3304
298.8700, 699.5890
299.3521, 700.1207
299.8342, 700.3485
300.3163, 699.8318
300.7984, 699.4120
301.2805, 699.7194
301.7627, 700.6066
302.2448, 701.3941
302.7269, 701.7369
303.2090, 701.7255
303.6911, 701.6710
304.1732, 701.5363
304.6554, 701.4294
305.1375, 701.5164
305.6196, 701.6811
306.1017, 701.5372
306.5838, 700.8203
307.0659, 699.9598
307.5481, 699.8773
308.0302, 700.7291
308.5123, 701.5242
308.9944, 701.8796
309.4765, 701.9863
309.9586, 702.2043
310.4408, 702.6570
310.9229, 703.0832
311.4050, 703.0185
311.8871, 702.4344
312.3692, 702.1037
312.8513, 702.2207
313.3335, 702.6447
313.8156, 703.3387
314.2977, 704.3106
314.7798, 705.1510
315.2619, 705.3720
315.7440, 705.0208
316.2262, 704.9384
316.7083, 705.4582
317.1904, 706.0803
317.6725, 706.3807
318.1546, 706.3605
318.6367, 706.2507
319.1188, 706.1187
319.6010, 706.0430
320.0831, 706.2889
320.5652, 707.2713
321.0473, 708.1579
321.5294, 708.4536
322.0115, 708.2645
322.4937, 707.9216
322.9758, 707.4997
323.4579, 707.1160
323.9400, 707.1207
324.4221, 707.7629
324.9042, 708.1983
325.3864, 707.8648
325.8685, 707.1614
326.3506, 706.9147
326.8327, 707.4551
327.3148, 708.2610
327.7969, 708.5011
328.2791, 708.1190
328.7612, 707.6857
329.2433, 707.3965
329.7254, 707.0688
330.2075, 706.2385
330.6896, 704.8251
331.1718, 703.8088
331.6539, 704.4684
332.1360, 706.9641
332.6181, 708.2728
333.1002, 707.1869
333.5823, 705.7230
334.0645, 705.0891
334.5466, 705.3934
335.0287, 706.7021
335.5108, 709.4312
335.9929, 713.2069
336.4750, 715.3292
336.9572, 714.9840
337.4393, 714.0808
337.9214, 712.9192
338.4035, 711.7903
338.8856, 711.5690
339.3677, 712.8541
339.8499, 714.8325
340.3320, 715.1574
340.8141, 712.7590
341.2962, 710.9102
341.7783, 710.4783
342.2604, 710.8424
342.7426, 711.1901
343.2247, 711.2877
343.7068, 711.5032
344.1889, 712.4529
344.6710, 714.6871
345.1531, 715.9588
345.6353, 715.7246
346.1174, 714.8871
346.5995, 713.8180
347.0816, 712.7065
347.5637, 712.0703
348.0458, 712.5030
348.5280, 714.0873
349.0101, 714.9254
349.4922, 714.2613
349.9743, 713.7463
350.4564, 714.4568
350.9385, 715.8858
351.4207, 716.7383
351.9028, 716.1964
352.3849, 714.6409
352.8670, 713.6998
353.3491, 713.8033
353.8312, 713.9871
354.3134, 714.1727
354.7955, 714.3669
355.2776, 714.5910
355.7597, 714.8515
356.2418, 715.1186
356.7239, 715.3289
357.2061, 715.3379
357.6882, 715.6072
358.1703, 716.4551
358.6524, 717.2977
359.1345, 717.5837
359.6166, 717.3678
360.0987, 717.2321
360.5808, 717.7939
361.0630, 719.1597
361.5451, 720.1649
362.0272, 720.6891
362.5093, 721.0016
362.9914, 721.0676
363.4735, 720.9955
363.9557, 720.9389
364.4378, 720.9837
364.9199, 721.1393
365.4020, 721.4326
365.8841, 721.6965
366.3662, 722.3802
366.8484, 723.9222
367.3305, 725.6893
367.8126, 727.0839
368.2947, 727.9081
368.7768, 728.3679
369.2589, 728.8597
369.7411, 729.6853
370.2232, 729.6707
370.7053, 727.6324
371.1874, 725.7537
371.6695, 725.3827
372.1516, 726.3717
372.6338, 727.5598
373.1159, 727.9288
373.5980, 727.5034
374.0801, 727.1231
374.5622, 726.3771
375.0443, 726.2385
375.5265, 727.5458
376.0086, 729.5111
376.4907, 730.9144
376.9728, 731.1269
377.4549, 730.5508
377.9370, 729.9362
378.4192, 729.0529
378.9013, 728.8051
379.3834, 730.1777
379.8655, 731.8304
380.3476, 732.6288
380.8297, 732.3578
381.3119, 731.8847
381.7940, 732.2220
382.2761, 733.3470
382.7582, 733.9703
383.2403, 733.6414
383.7224, 733.0953
384.2046, 732.6169
384.6867, 732.3059
385.1688, 732.4846
385.6509, 733.7073
386.1330, 735.4736
386.6151, 736.5298
387.0973, 736.6328
387.5794, 736.8839
388.0615, 738.2559
388.5436, 740.0749
389.0257, 741.3613
389.5078, 741.7610
389.9900, 741.8942
390.4721, 742.3376
390.9542, 743.0341
391.4363, 743.4915
391.9184, 743.3953
392.4005, 743.1826
392.8827, 743.5319
393.3648, 744.4891
393.8469, 745.3230
394.3290, 745.6867
394.8111, 745.7746
395.2932, 745.8623
395.7754, 745.9894
396.2575, 746.1624
396.7396, 746.4281
397.2217, 746.7712
397.7038, 746.9926
398.1859, 746.7786
398.6681, 746.7144
399.1501, 747.3857
399.6323, 748.5837
400.1144, 749.5269
400.5965, 749.7928
401.0786, 749.5997
401.5607, 749.5676
402.0428, 749.7896
402.5250, 749.9720
403.0071, 749.7421
403.4892, 749.5883
403.9713, 750.2087
404.4534, 751.7195
404.9355, 753.5197
405.4177, 754.9680
405.8998, 756.0773
406.3819, 756.5939
406.8640, 756.0170
407.3461, 755.4058
407.8282, 755.1494
408.3104, 755.2896
408.7925, 755.8704
409.2746, 756.9821
409.7567, 758.4220
410.2388, 759.2590
410.7209, 758.6526
411.2031, 758.5226
411.6852, 759.3105
412.1673, 760.4788
412.6494, 761.6139
413.1315, 762.5677
413.6136, 763.2873
414.0958, 763.6483
414.5779, 763.5363
415.0600, 763.5335
415.5421, 763.4794
416.0242, 763.6966
416.5063, 764.3570
416.9885, 765.4056
417.4706, 766.6998
417.9527, 768.2036
418.4348, 769.8463
418.9169, 771.5007
419.3990, 773.4631
419.8812, 774.7362
420.3633, 774.3835
420.8454, 773.5798
421.3275, 773.4590
421.8096, 774.3041
422.2917, 775.3690
422.7739, 775.7612
423.2560, 775.5294
423.7381, 775.8340
424.2202, 777.2148
424.7023, 778.6515
425.1844, 779.2654
425.6666, 779.2567
426.1487, 779.3614
426.6308, 779.8244
427.1129, 780.6050
427.5950, 781.8608
428.0771, 783.6511
428.5593, 784.9991
429.0414, 785.2800
429.5235, 784.8019
430.0056, 784.3116
430.4877, 783.6597
430.9698, 783.3528
431.4520, 783.9846
431.9341, 785.0922
432.4162, 785.6438
432.8983, 785.3232
433.3804, 784.8603
433.8625, 785.1576
434.3447, 786.3499
434.8268, 787.2333
435.3089, 787.5993
435.7910, 787.7852
436.2731, 787.7861
436.7552, 787.7571
437.2374, 788.3080
437.7195, 789.9552
438.2016, 792.1221
438.6837, 792.5658
439.1658, 788.9949
439.6479, 786.6238
440.1301, 786.2930
440.6122, 787.0371
441.0943, 788.2615
441.5764, 789.6927
442.0585, 790.9301
442.5406, 791.4392
443.0227, 791.0793
443.5049, 791.0551
443.9870, 791.4440
444.4691, 792.1035
444.9512, 793.3719
445.4333, 794.8093
445.9154, 795.6935
446.3976, 795.6094
446.8797, 794.9591
447.3618, 794.5758
447.8439, 794.4321
448.3260, 794.6360
448.8081, 795.7505
449.2903, 796.8209
449.7724, 797.1049
450.2545, 796.6335
450.7366, 796.1561
451.2187, 796.2265
451.7008, 796.7592
452.1830, 797.4689
452.6651, 798.4737
453.1472, 799.3300
453.6293, 799.5739
454.1114, 799.5472
454.5935, 799.7532
455.0757, 800.3963
455.5578, 801.0910
456.0399, 801.5494
456.5220, 801.7933
457.0041, 801.8704
457.4862, 801.6962
457.9684, 801.5720
458.4505, 802.0593
458.9326, 803.1656
459.4147, 803.8834
459.8968, 803.7570
460.3789, 803.3738
460.8611, 803.1566
461.3432, 803.1466
461.8253, 803.3546
462.3074, 803.8347
462.7895, 804.4955
463.2716, 804.9556
463.7538, 804.9513
464.2359, 805.1088
464.7180, 805.5092
465.2001, 806.0994
465.6822, 806.9485
466.1643, 808.0078
466.6465, 808.9222
467.1286, 809.2255
467.6107, 808.7932
468.0928, 808.9421
468.5749, 810.2189
469.0570, 811.4931
469.5392, 812.6689
470.0213, 813.5897
470.5034, 813.9144
470.9855, 813.4630
471.4676, 812.8265
471.9497, 813.0795
472.4319, 814.3805
472.9140, 815.8930
473.3961, 818.2059
473.8782, 820.0765
474.3603, 820.6453
474.8424, 820.0816
475.3246, 819.2230
475.8067, 818.4264
476.2888, 817.7207
476.7709, 817.1052
477.2530, 816.5468
477.7351, 816.3135
478.2173, 816.5516
478.6994, 817.2135
479.1815, 818.2507
479.6636, 819.7904
480.1457, 821.2216
480.6278, 822.0156
481.1100, 822.5470
481.5920, 823.5156
482.0742, 825.0488
482.5563, 826.8666
483.0384, 828.8727
483.5205, 831.0234
484.0026, 832.5284
484.4847, 833.0177
484.9669, 833.2999
485.4490, 833.5432
485.9311, 833.8370
486.4132, 834.2968
486.8953, 834.9664
487.3774, 835.8333
487.8596, 836.8635
488.3417, 838.0290
488.8238, 839.4816
489.3059, 841.6740
489.7880, 843.6755
490.2701, 844.8774
490.7523, 845.5228
491.2344, 846.2077
491.7165, 847.2859
492.1986, 848.6453
492.6807, 849.9428
493.1628, 851.0546
493.6450, 852.4467
494.1271, 854.6571
494.6092, 856.8553
495.0913, 858.3492
495.5734, 859.1719
496.0555, 860.0773
496.5377, 861.5344
497.0198, 863.4631
497.5019, 865.8633
497.9840, 868.9532
498.4661, 871.4669
498.9482, 872.4990
499.4304, 872.5705
499.9125, 872.6537
500.3946, 872.6324
500.8767, 873.0305
501.3588, 874.4699
501.8409, 876.4133
502.3231, 877.7919
502.8052, 878.3772
503.2873, 879.0599
503.7694, 880.8873
504.2515, 883.9285
504.7336, 885.4990
505.2158, 884.5338
505.6979, 883.4691
506.1800, 882.9220
506.6621, 882.9051
507.1442, 883.5168
507.6263, 884.7605
508.1085, 886.2197
508.5906, 887.3043
509.0727, 888.0735
509.5548, 888.2391
510.0369, 886.8900
510.5190, 885.8408
511.0012, 886.3132
511.4833, 887.5173
511.9654, 887.7664
512.4475, 886.0272
512.9296, 883.5775
513.4117, 882.8909
513.8939, 884.2318
514.3760, 885.3071
514.8581, 885.7109
515.3402, 885.5797
515.8223, 884.7800
516.3044, 883.4647
516.7866, 882.5888
517.2687, 883.1071
517.7508, 883.9642
518.2329, 883.7122
518.7150, 882.4030
519.1971, 880.9957
519.6793, 879.9133
520.1614, 879.0334
520.6435, 878.0525
521.1256, 876.7702
521.6077, 875.9452
522.0898, 876.4150
522.5720, 876.8989
523.0541, 875.9431
523.5362, 873.7470
524.0183, 871.7350
524.5004, 870.9137
524.9825, 871.1638
525.4647, 871.9356
525.9468, 874.2645
526.4289, 875.5896
526.9110, 875.0770
527.3931, 873.9669
527.8752, 873.3053
528.3574, 873.1758
528.8395, 872.9221
529.3216, 871.7992
529.8037, 870.0256
530.2858, 868.9820
530.7679, 868.9449
531.2501, 869.0060
531.7322, 868.8428
532.2143, 868.5458
532.6964, 868.1238
533.1785, 867.5328
533.6606, 867.1320
534.1428, 867.5046
534.6249, 868.1654
535.1070, 867.9594
535.5891, 866.6894
536.0712, 865.2005
536.5533, 864.0529
537.0355, 863.2322
537.5176, 862.5963
537.9997, 862.1439
538.4818, 861.8547
538.9639, 861.7029
539.4460, 861.7196
539.9282, 862.0961
540.4103, 862.8005
540.8924, 863.3547
541.3745, 863.2166
541.8566, 862.3620
542.3387, 861.6516
542.8209, 861.4169
543.3029, 860.9271
543.7850, 859.7084
544.2672, 858.3210
544.7493, 857.3850
545.2314, 857.0645
545.7135, 857.1137
546.1956, 857.5494
546.6777, 858.2832
547.1599, 858.1227
547.6420, 856.6103
548.1241, 855.0497
548.6062, 854.0403
549.0883, 853.5706
549.5704, 853.8510
550.0526, 855.4630
550.5347, 856.6615
551.0168, 855.9217
551.4989, 854.0582
551.9810, 852.7183
552.4631, 852.2454
552.9453, 852.2669
553.4274, 852.5013
553.9095, 852.9496
554.3916, 853.3297
554.8737, 853.3214
555.3558, 853.6291
555.8380, 855.1201
556.3201, 856.7294
556.8022, 856.9421
557.2843, 855.4733
557.7664, 853.5068
558.2485, 852.4069
558.7307, 852.2146
559.2128, 851.8391
559.6949, 851.0070
560.1770, 850.3995
560.6591, 850.4504
561.1412, 850.7343
561.6234, 850.6899
562.1055, 850.1522
562.5876, 849.5785
563.0697, 849.4456
563.5518, 849.6046
564.0339, 849.4614
564.5161, 848.8527
564.9982, 848.4717
565.4803, 849.1450
565.9624, 850.4412
566.4445, 850.4905
566.9266, 847.8419
567.4088, 846.0141
567.8909, 847.0200
568.3730, 849.1229
568.8551, 850.0856
569.3372, 849.5640
569.8193, 848.6645
570.3015, 848.3796
570.7836, 848.6859
571.2657, 849.1862
571.7478, 850.2894
572.2299, 851.0217
572.7120, 850.7421
573.1942, 850.3469
573.6763, 850.8381
574.1584, 852.2778
574.6405, 853.6866
575.1226, 854.1309
575.6047, 853.8238
576.0869, 853.6475
576.5690, 853.6287
577.0511, 853.6119
577.5332, 853.4254
578.0153, 853.2616
578.4974, 853.4449
578.9796, 854.0555
579.4617, 854.6755
579.9438, 855.3052
580.4259, 855.7721
580.9080, 855.8582
581.3901, 855.5720
581.8723, 855.0092
582.3544, 854.1555
582.8365, 853.2194
583.3186, 852.8935
583.8007, 853.2927
584.2828, 854.2021
584.7650, 856.2894
585.2471, 858.3016
585.7292, 859.5055
586.2113, 859.8903
586.6934, 859.6129
587.1755, 858.5341
587.6577, 857.3027
588.1398, 857.6691
588.6219, 859.9363
589.1040, 861.7270
589.5861, 862.4281
590.0682, 862.4913
590.5504, 862.0706
591.0325, 861.2961
591.5146, 861.0607
591.9967, 862.2253
592.4788, 863.5353
592.9609, 863.7471
593.4431, 863.2005
593.9252, 862.9715
594.4073, 863.4613
594.8894, 864.2557
595.3715, 864.7474
595.8536, 864.7712
596.3358, 865.2672
596.8179, 867.0070
597.3000, 868.2963
597.7821, 868.4051
598.2642, 867.7411
598.7463, 866.6962
599.2285, 865.4425
599.7106, 864.5573
600.1927, 864.9871
600.6748, 866.6696
601.1569, 867.8990
601.6390, 868.6152
602.1212, 868.8367
602.6033, 868.1371
603.0854, 867.0687
603.5675, 866.5032
604.0496, 866.6616
604.5317, 866.9581
605.0139, 867.4213
605.4960, 867.6995
605.9781, 866.8085
606.4602, 864.8500
606.9423, 863.7300
607.4244, 864.9991
607.9066, 868.0204
608.3887, 869.9239
608.8708, 870.4398
609.3529, 870.1142
609.8350, 867.9158
610.3171, 865.7750
610.7993, 865.2669
611.2814, 866.1237
611.7635, 866.9930
612.2456, 867.0592
