##NAMES=Ludlamite
##RRUFFID=R040152
##IDEAL CHEMISTRY=Fe^2+^_3_(PO_4_)_2_&#183;4H_2_O
##LOCALITY=Cobalt, Lemhi County, Idaho, USA
##OWNER=RRUFF
##SOURCE=University of Arizona Mineral Museum
##DESCRIPTION=Green tabular single crystals
##STATUS=The identification of this mineral has been confirmed by X-ray diffraction and chemical analysis
##URL=rruff.info/R040152
##MEASURED CHEMISTRY=Fe_3.01_(P_1.00_O_4_)_2_Â·4H_2_O
132.3056, 606.0958
132.7877, 646.5085
133.2699, 705.6663
133.7520, 784.4407
134.2341, 869.4092
134.7162, 952.6853
135.1983, 1034.564
135.6804, 1130.361
136.1626, 1238.310
136.6447, 1360.974
137.1268, 1504.299
137.6089, 1668.808
138.0910, 1848.618
138.5731, 2035.946
139.0553, 2230.969
139.5374, 2445.452
140.0195, 2690.273
140.5016, 2953.208
140.9837, 3185.463
141.4658, 3410.520
141.9480, 3571.556
142.4301, 3617.706
142.9122, 3493.043
143.3943, 3371.962
143.8764, 3272.059
144.3585, 3193.893
144.8407, 3124.132
145.3228, 3063.888
145.8049, 3011.712
146.2870, 2968.164
146.7691, 2950.687
147.2512, 2920.152
147.7334, 2876.826
148.2155, 2828.198
148.6976, 2730.114
149.1797, 2559.522
149.6618, 2345.465
150.1439, 2128.276
150.6261, 1881.833
151.1082, 1658.212
151.5903, 1472.922
152.0724, 1333.489
152.5545, 1217.130
153.0366, 1129.347
153.5188, 1064.136
154.0009, 1009.918
154.4830, 967.1823
154.9651, 932.9948
155.4472, 905.6935
155.9293, 885.8391
156.4115, 871.8052
156.8936, 861.4896
157.3757, 856.2597
157.8578, 860.4822
158.3399, 877.3249
158.8221, 902.9341
159.3042, 934.9369
159.7863, 974.5819
160.2684, 1018.756
160.7505, 1063.672
161.2326, 1110.807
161.7148, 1168.578
162.1969, 1242.928
162.6790, 1329.119
163.1611, 1421.527
163.6432, 1509.829
164.1253, 1611.419
164.6075, 1748.360
165.0896, 1921.898
165.5717, 2078.093
166.0538, 2197.104
166.5359, 2277.866
167.0180, 2319.864
167.5002, 2301.125
167.9823, 2257.800
168.4644, 2206.214
168.9465, 2142.773
169.4286, 2104.382
169.9107, 2117.097
170.3929, 2174.751
170.8750, 2264.850
171.3571, 2410.319
171.8392, 2571.442
172.3213, 2715.387
172.8034, 2846.050
173.2856, 2928.212
173.7677, 2924.342
174.2498, 2842.165
174.7319, 2709.326
175.2140, 2511.145
175.6961, 2280.330
176.1783, 2062.731
176.6604, 1861.229
177.1425, 1689.625
177.6246, 1571.756
178.1067, 1504.740
178.5888, 1462.253
179.0710, 1430.922
179.5531, 1410.942
180.0352, 1404.932
180.5173, 1418.164
180.9994, 1440.989
181.4815, 1463.719
181.9637, 1486.122
182.4458, 1494.856
182.9279, 1475.141
183.4100, 1431.336
183.8921, 1379.569
184.3742, 1323.413
184.8564, 1262.585
185.3385, 1194.471
185.8206, 1117.549
186.3027, 1044.704
186.7848, 987.4717
187.2669, 945.3226
187.7491, 911.8748
188.2312, 884.7380
188.7133, 864.6270
189.1954, 855.0604
189.6775, 857.0651
190.1596, 865.4121
190.6418, 872.5340
191.1239, 878.6367
191.6060, 892.0449
192.0881, 916.1915
192.5702, 950.7199
193.0524, 993.0428
193.5345, 1043.456
194.0166, 1100.516
194.4987, 1161.331
194.9808, 1225.856
195.4629, 1295.129
195.9451, 1366.734
196.4272, 1441.715
196.9093, 1528.465
197.3914, 1628.254
197.8735, 1738.249
198.3556, 1858.273
198.8378, 1990.796
199.3199, 2115.151
199.8020, 2223.419
200.2841, 2315.423
200.7662, 2380.863
201.2483, 2419.959
201.7305, 2431.385
202.2126, 2406.542
202.6947, 2339.145
203.1768, 2258.921
203.6589, 2181.344
204.1410, 2107.205
204.6232, 2033.655
205.1053, 1956.320
205.5874, 1881.231
206.0695, 1831.533
206.5516, 1813.932
207.0337, 1804.120
207.5159, 1787.339
207.9980, 1764.140
208.4801, 1733.053
208.9622, 1693.849
209.4443, 1646.632
209.9264, 1591.606
210.4086, 1528.141
210.8907, 1457.818
211.3728, 1381.707
211.8549, 1297.515
212.3370, 1212.698
212.8191, 1125.588
213.3013, 1037.995
213.7834, 958.3836
214.2655, 886.5807
214.7476, 822.8025
215.2297, 768.5037
215.7118, 724.6528
216.1940, 686.1154
216.6761, 651.8101
217.1582, 621.6777
217.6403, 599.2356
218.1224, 588.2343
218.6045, 580.2479
219.0867, 566.5656
219.5688, 543.7823
220.0509, 523.5651
220.5330, 508.8153
221.0151, 499.4137
221.4972, 492.0237
221.9794, 487.6435
222.4615, 484.0876
222.9436, 478.1674
223.4257, 466.3858
223.9078, 459.6187
224.3899, 461.8950
224.8721, 474.2182
225.3542, 482.6135
225.8363, 485.6478
226.3184, 486.1893
226.8005, 487.3646
227.2827, 488.4762
227.7648, 491.5887
228.2469, 497.4987
228.7290, 506.4826
229.2111, 515.8867
229.6932, 525.5811
230.1754, 535.6866
230.6575, 546.7427
231.1396, 559.8463
231.6217, 571.8082
232.1038, 581.5641
232.5859, 588.6982
233.0681, 595.9492
233.5502, 603.9523
234.0323, 611.5917
234.5144, 616.5533
234.9965, 614.5663
235.4786, 617.1601
235.9608, 628.8508
236.4429, 651.7361
236.9250, 673.1968
237.4071, 692.7687
237.8892, 711.0474
238.3713, 729.0132
238.8535, 747.0366
239.3356, 764.0744
239.8177, 779.0767
240.2998, 790.5566
240.7819, 806.1237
241.2640, 827.9297
241.7462, 852.8178
242.2283, 875.5264
242.7104, 895.2023
243.1925, 914.1336
243.6746, 933.6160
244.1567, 955.2261
244.6389, 971.5246
245.1210, 978.5109
245.6031, 982.5291
246.0852, 995.0739
246.5673, 1019.704
247.0494, 1046.865
247.5316, 1074.138
248.0137, 1102.994
248.4958, 1127.432
248.9779, 1148.856
249.4600, 1164.907
249.9421, 1171.136
250.4243, 1168.118
250.9064, 1154.327
251.3885, 1126.471
251.8706, 1077.455
252.3527, 1037.094
252.8348, 1004.408
253.3170, 980.9615
253.7991, 971.3868
254.2812, 980.8948
254.7633, 994.4051
255.2454, 1005.357
255.7275, 1010.302
256.2097, 1026.065
256.6918, 1057.224
257.1739, 1095.867
257.6560, 1127.911
258.1381, 1152.047
258.6202, 1172.350
259.1024, 1190.159
259.5845, 1204.829
260.0666, 1219.115
260.5487, 1233.692
261.0308, 1247.334
261.5129, 1258.282
261.9951, 1265.978
262.4772, 1272.014
262.9593, 1275.013
263.4414, 1272.248
263.9235, 1280.587
264.4056, 1303.989
264.8878, 1334.945
265.3699, 1360.477
265.8520, 1378.858
266.3341, 1397.353
266.8162, 1418.990
267.2983, 1443.935
267.7805, 1470.970
268.2626, 1503.019
268.7447, 1533.617
269.2268, 1551.485
269.7089, 1555.264
270.1910, 1551.308
270.6732, 1544.715
271.1553, 1537.317
271.6374, 1505.840
272.1195, 1443.795
272.6016, 1367.067
273.0837, 1302.823
273.5659, 1252.407
274.0480, 1205.921
274.5301, 1157.660
275.0122, 1107.467
275.4943, 1067.028
275.9764, 1036.628
276.4586, 1015.449
276.9407, 1003.482
277.4228, 1001.392
277.9049, 1003.604
278.3870, 1006.615
278.8691, 1010.817
279.3513, 1026.362
279.8334, 1054.923
280.3155, 1090.530
280.7976, 1125.666
281.2798, 1159.918
281.7619, 1196.241
282.2440, 1236.162
282.7261, 1279.286
283.2082, 1322.397
283.6903, 1365.242
284.1725, 1409.014
284.6546, 1461.233
285.1367, 1520.607
285.6188, 1564.308
286.1009, 1579.250
286.5830, 1571.436
287.0652, 1567.216
287.5473, 1567.651
288.0294, 1565.599
288.5115, 1555.481
288.9936, 1536.822
289.4757, 1506.229
289.9579, 1455.758
290.4400, 1394.127
290.9221, 1343.911
291.4042, 1305.510
291.8863, 1273.538
292.3684, 1242.982
292.8506, 1214.396
293.3327, 1189.601
293.8148, 1168.675
294.2969, 1151.988
294.7790, 1140.383
295.2611, 1133.836
295.7433, 1130.418
296.2254, 1127.256
296.7075, 1125.704
297.1896, 1129.602
297.6717, 1140.984
298.1538, 1157.602
298.6360, 1176.863
299.1181, 1198.789
299.6002, 1221.563
300.0823, 1245.930
300.5644, 1270.149
301.0465, 1291.238
301.5287, 1308.593
302.0108, 1322.275
302.4929, 1333.586
302.9750, 1341.898
303.4571, 1342.986
303.9392, 1332.729
304.4214, 1314.002
304.9035, 1290.206
305.3856, 1262.341
305.8677, 1230.096
306.3498, 1190.818
306.8319, 1146.610
307.3141, 1103.982
307.7962, 1068.240
308.2783, 1035.879
308.7604, 1002.704
309.2425, 967.6160
309.7246, 933.7446
310.2068, 902.4010
310.6889, 873.6575
311.1710, 847.3118
311.6531, 825.4859
312.1352, 804.6214
312.6173, 781.3108
313.0995, 753.1462
313.5816, 728.7783
314.0637, 714.1274
314.5458, 705.8904
315.0279, 697.6907
315.5100, 686.6271
315.9922, 675.3043
316.4743, 665.2686
316.9564, 657.0634
317.4385, 648.6260
317.9206, 639.3735
318.4027, 629.4594
318.8849, 619.0988
319.3670, 606.4160
319.8491, 594.9961
320.3312, 586.4024
320.8133, 581.0639
321.2954, 576.4772
321.7776, 573.5030
322.2597, 570.4893
322.7418, 565.6758
323.2239, 556.0295
323.7060, 547.3351
324.1881, 541.4690
324.6703, 538.7761
325.1524, 535.1259
325.6345, 530.9212
326.1166, 525.3304
326.5987, 517.6277
327.0808, 505.8559
327.5630, 494.2296
328.0451, 481.4239
328.5272, 467.7785
329.0093, 460.9272
329.4914, 465.0750
329.9735, 472.3169
330.4557, 477.8960
330.9378, 482.9217
331.4199, 483.9207
331.9020, 477.2345
332.3841, 465.7500
332.8662, 464.3777
333.3484, 478.1868
333.8305, 494.4410
334.3126, 506.6814
334.7947, 514.3217
335.2768, 518.8519
335.7589, 518.2382
336.2411, 515.7067
336.7232, 520.1021
337.2053, 533.3434
337.6874, 547.8310
338.1695, 560.8413
338.6516, 572.4447
339.1338, 580.5345
339.6159, 584.0492
340.0980, 585.5529
340.5801, 589.9270
341.0622, 597.7276
341.5443, 603.6697
342.0265, 604.8838
342.5086, 601.9245
342.9907, 600.2870
343.4728, 600.2871
343.9549, 600.4244
344.4370, 599.2400
344.9192, 596.7216
345.4013, 592.4952
345.8834, 585.8260
346.3655, 577.5655
346.8476, 569.8039
347.3297, 562.5438
347.8119, 556.4243
348.2940, 552.7544
348.7761, 550.8546
349.2582, 548.8425
349.7403, 546.4230
350.2225, 543.3408
350.7046, 538.7483
351.1867, 532.8157
351.6688, 527.1763
352.1509, 521.0480
352.6331, 516.4459
353.1152, 516.8633
353.5973, 524.6347
354.0794, 534.6627
354.5615, 542.0282
355.0436, 547.8275
355.5258, 555.3969
356.0079, 568.1221
356.4900, 582.5588
356.9721, 595.6317
357.4542, 606.5050
357.9363, 617.2516
358.4185, 629.2020
358.9006, 641.7943
359.3827, 654.0563
359.8648, 664.2614
360.3469, 675.1068
360.8290, 689.6981
361.3112, 709.5324
361.7933, 724.1124
362.2754, 725.1412
362.7575, 721.1930
363.2396, 721.5889
363.7217, 733.2890
364.2039, 744.6678
364.6860, 754.4540
365.1681, 762.5907
365.6502, 764.1097
366.1323, 753.4160
366.6144, 739.0322
367.0966, 726.7498
367.5787, 716.5628
368.0608, 708.9857
368.5429, 706.9409
369.0250, 708.4322
369.5071, 703.0333
369.9893, 685.6703
370.4714, 667.3791
370.9535, 653.8657
371.4356, 648.9746
371.9177, 640.2300
372.3998, 626.0338
372.8820, 608.5776
373.3641, 592.5534
373.8462, 577.7206
374.3283, 565.0900
374.8104, 556.5145
375.2925, 552.6577
375.7747, 543.2490
376.2568, 526.3809
376.7389, 507.5851
377.2210, 494.7075
377.7031, 488.0928
378.1852, 482.6182
378.6674, 477.6143
379.1495, 472.4413
379.6316, 462.5786
380.1137, 447.4535
380.5958, 433.5793
381.0779, 428.5458
381.5601, 430.6500
382.0422, 432.0217
382.5243, 431.3708
383.0064, 428.5257
383.4885, 421.7955
383.9706, 411.7237
384.4528, 402.7874
384.9349, 398.8986
385.4170, 397.8530
385.8991, 395.7914
386.3812, 391.8303
386.8633, 387.7581
387.3455, 385.6800
387.8276, 384.7935
388.3097, 383.2216
388.7918, 379.0244
389.2739, 374.4166
389.7560, 371.4111
390.2382, 370.3045
390.7203, 369.0701
391.2024, 365.2780
391.6845, 361.2150
392.1666, 359.4814
392.6487, 362.8803
393.1309, 366.9897
393.6130, 370.5779
394.0951, 373.5673
394.5772, 375.3629
395.0593, 376.3666
395.5414, 375.7848
396.0236, 373.0916
396.5057, 363.6911
396.9878, 357.5334
397.4699, 358.7501
397.9520, 364.3276
398.4341, 364.6371
398.9163, 352.1902
399.3984, 342.2682
399.8805, 341.3983
400.3626, 354.4139
400.8447, 361.9117
401.3268, 361.4281
401.8090, 357.2351
402.2911, 355.3225
402.7732, 356.4688
403.2553, 357.8983
403.7374, 358.8005
404.2195, 359.2416
404.7017, 360.6792
405.1838, 363.5523
405.6659, 366.2495
406.1480, 366.8324
406.6301, 365.2572
407.1122, 364.9346
407.5944, 367.0478
408.0765, 370.1769
408.5586, 370.8697
409.0407, 369.1643
409.5228, 366.5475
410.0049, 362.3545
410.4871, 357.9908
410.9692, 358.4886
411.4513, 365.4878
411.9334, 372.7880
412.4155, 371.4384
412.8976, 364.3567
413.3798, 359.9999
413.8619, 364.1586
414.3440, 371.7789
414.8261, 378.2851
415.3082, 383.5599
415.7903, 387.4316
416.2725, 388.6914
416.7546, 388.9439
417.2367, 390.0634
417.7188, 393.7559
418.2009, 397.1650
418.6830, 398.3370
419.1652, 397.9654
419.6473, 398.5486
420.1294, 402.0234
420.6115, 405.8667
421.0937, 408.4945
421.5758, 408.2184
422.0579, 409.8333
422.5400, 416.0243
423.0221, 424.0500
423.5042, 429.5111
423.9864, 429.4819
424.4685, 429.9600
424.9506, 432.5580
425.4327, 437.4657
425.9148, 441.6348
426.3969, 444.9467
426.8791, 447.6559
427.3612, 449.7349
427.8433, 450.7068
428.3254, 452.4803
428.8075, 455.1848
429.2896, 458.9292
429.7718, 464.9120
430.2539, 473.9362
430.7360, 481.0766
431.2181, 480.7592
431.7002, 473.9164
432.1823, 475.4876
432.6645, 487.7711
433.1466, 503.3080
433.6287, 511.7527
434.1108, 514.2065
434.5929, 516.0441
435.0750, 518.3779
435.5572, 521.9193
436.0393, 529.2920
436.5214, 540.2592
437.0035, 549.8275
437.4856, 551.7540
437.9677, 550.4615
438.4499, 552.4127
438.9320, 561.1469
439.4141, 570.2641
439.8962, 573.9741
440.3783, 574.3741
440.8604, 576.9818
441.3426, 584.8094
441.8247, 595.0564
442.3068, 605.8420
442.7889, 616.4618
443.2710, 630.0442
443.7531, 650.1574
444.2353, 672.5552
444.7174, 692.8927
445.1995, 709.8875
445.6816, 725.2041
446.1637, 737.5348
446.6458, 747.3475
447.1280, 761.1079
447.6101, 780.6931
448.0922, 802.2451
448.5743, 822.9131
449.0564, 840.4109
449.5385, 864.2096
450.0207, 896.5132
450.5028, 933.3049
450.9849, 965.7322
451.4670, 991.7666
451.9491, 1022.391
452.4312, 1064.348
452.9134, 1115.479
453.3955, 1159.001
453.8776, 1193.784
454.3597, 1227.976
454.8418, 1268.704
455.3239, 1315.352
455.8061, 1364.057
456.2882, 1415.675
456.7703, 1467.256
457.2524, 1515.480
457.7345, 1560.249
458.2166, 1602.283
458.6988, 1636.481
459.1809, 1670.533
459.6630, 1714.658
460.1451, 1772.118
460.6272, 1826.314
461.1093, 1872.158
461.5915, 1906.833
462.0736, 1925.736
462.5557, 1911.187
463.0378, 1896.558
463.5199, 1897.233
464.0020, 1910.750
464.4842, 1917.377
464.9663, 1918.044
465.4484, 1906.948
465.9305, 1880.736
466.4126, 1834.504
466.8947, 1780.754
467.3769, 1713.850
467.8590, 1642.149
468.3411, 1578.868
468.8232, 1528.681
469.3053, 1477.974
469.7874, 1421.075
470.2696, 1358.749
470.7517, 1304.547
471.2338, 1258.275
471.7159, 1221.030
472.1980, 1197.709
472.6801, 1187.852
473.1623, 1174.405
473.6444, 1153.489
474.1265, 1130.626
474.6086, 1114.390
475.0907, 1104.503
475.5728, 1099.150
476.0550, 1098.681
476.5371, 1101.696
477.0192, 1105.302
477.5013, 1109.365
477.9834, 1116.942
478.4655, 1130.747
478.9477, 1149.453
479.4298, 1171.100
479.9119, 1195.189
480.3940, 1222.313
480.8761, 1253.131
481.3582, 1287.156
481.8404, 1322.665
482.3225, 1359.093
482.8046, 1396.860
483.2867, 1435.556
483.7688, 1473.438
484.2509, 1518.172
484.7331, 1573.573
485.2152, 1634.356
485.6973, 1697.106
486.1794, 1762.416
486.6615, 1828.393
487.1436, 1892.013
487.6258, 1956.250
488.1079, 2037.493
488.5900, 2140.136
489.0721, 2246.469
489.5542, 2348.685
490.0363, 2447.282
490.5185, 2534.213
491.0006, 2604.669
491.4827, 2676.382
491.9648, 2778.544
492.4470, 2904.829
492.9291, 3019.227
493.4112, 3106.674
493.8933, 3175.550
494.3754, 3234.138
494.8575, 3283.172
495.3397, 3323.759
495.8218, 3365.474
496.3039, 3395.497
496.7860, 3398.425
497.2681, 3369.270
497.7502, 3324.903
498.2324, 3276.946
498.7145, 3218.409
499.1966, 3138.812
499.6787, 3011.468
500.1608, 2887.030
500.6429, 2785.264
501.1251, 2704.550
501.6072, 2614.218
502.0893, 2498.194
502.5714, 2383.226
503.0535, 2281.232
503.5356, 2194.712
504.0178, 2116.743
504.4999, 2052.180
504.9820, 1992.395
505.4641, 1920.543
505.9462, 1832.997
506.4283, 1753.556
506.9105, 1690.539
507.3926, 1641.084
507.8747, 1595.724
508.3568, 1554.505
508.8389, 1513.427
509.3210, 1465.979
509.8032, 1415.718
510.2853, 1372.436
510.7674, 1338.117
511.2495, 1307.525
511.7316, 1275.153
512.2137, 1242.427
512.6959, 1212.751
513.1780, 1183.422
513.6601, 1160.661
514.1422, 1152.811
514.6243, 1157.485
515.1064, 1158.443
515.5886, 1143.762
516.0707, 1127.270
516.5528, 1117.610
517.0349, 1118.345
517.5170, 1120.541
517.9991, 1123.655
518.4813, 1127.671
518.9634, 1132.774
519.4455, 1140.403
519.9276, 1146.379
520.4097, 1148.015
520.8918, 1146.822
521.3740, 1154.221
521.8561, 1172.429
522.3382, 1191.886
522.8203, 1204.720
523.3024, 1211.551
523.7845, 1225.821
524.2667, 1249.445
524.7488, 1276.462
525.2309, 1301.057
525.7130, 1323.696
526.1951, 1345.211
526.6772, 1363.435
527.1594, 1383.391
527.6415, 1410.813
528.1236, 1444.884
528.6057, 1482.868
529.0878, 1525.412
529.5699, 1569.491
530.0521, 1612.739
530.5342, 1655.650
531.0163, 1695.905
531.4984, 1731.547
531.9805, 1765.088
532.4626, 1799.363
532.9448, 1834.907
533.4269, 1870.957
533.9090, 1906.575
534.3911, 1942.537
534.8732, 1980.065
535.3553, 2018.314
535.8375, 2060.719
536.3196, 2109.248
536.8017, 2164.884
537.2838, 2216.228
537.7659, 2260.618
538.2480, 2311.174
538.7302, 2384.795
539.2123, 2479.354
539.6944, 2576.275
540.1765, 2673.123
540.6586, 2767.767
541.1407, 2854.007
541.6229, 2936.123
542.1050, 3030.611
542.5871, 3156.124
543.0692, 3291.696
543.5513, 3417.845
544.0334, 3532.540
544.5156, 3646.168
544.9977, 3761.158
545.4798, 3878.458
545.9619, 3999.177
546.4440, 4147.503
546.9261, 4263.660
547.4083, 4324.255
547.8904, 4350.476
548.3725, 4381.644
548.8546, 4439.547
549.3367, 4466.729
549.8188, 4445.209
550.3010, 4378.159
550.7831, 4300.699
551.2652, 4211.481
551.7473, 4115.950
552.2294, 4018.094
552.7115, 3917.631
553.1937, 3813.143
553.6758, 3702.264
554.1579, 3596.742
554.6400, 3509.588
555.1221, 3439.165
555.6042, 3382.458
556.0864, 3341.034
556.5685, 3309.120
557.0506, 3283.802
557.5327, 3264.131
558.0148, 3247.050
558.4969, 3235.411
558.9791, 3222.561
559.4612, 3203.705
559.9433, 3177.101
560.4254, 3151.473
560.9075, 3133.076
561.3896, 3113.671
561.8718, 3086.323
562.3539, 3052.750
562.8360, 3007.718
563.3181, 2948.531
563.8002, 2879.267
564.2823, 2808.506
564.7645, 2737.425
565.2466, 2662.127
565.7287, 2581.552
566.2108, 2495.988
566.6929, 2407.808
567.1750, 2317.731
567.6572, 2224.787
568.1393, 2124.986
568.6214, 2023.707
569.1035, 1936.679
569.5856, 1867.890
570.0677, 1803.646
570.5499, 1731.033
571.0320, 1654.934
571.5141, 1582.602
571.9962, 1515.089
572.4783, 1453.420
572.9604, 1399.479
573.4426, 1352.790
573.9247, 1309.444
574.4068, 1268.887
574.8889, 1232.110
575.3710, 1200.326
575.8531, 1174.985
576.3353, 1148.837
576.8174, 1121.114
577.2995, 1094.098
577.7816, 1069.867
578.2637, 1048.747
578.7458, 1028.267
579.2280, 1008.249
579.7101, 988.3902
580.1922, 966.8082
580.6743, 944.2855
581.1564, 925.2406
581.6385, 913.0892
582.1207, 904.8038
582.6028, 897.7144
583.0849, 891.6277
583.5670, 884.5682
584.0491, 872.1686
584.5313, 860.3947
585.0134, 854.4458
585.4955, 856.8437
585.9776, 859.3615
586.4597, 860.2577
586.9418, 860.0695
587.4240, 859.1931
587.9061, 854.1581
588.3882, 854.1066
588.8703, 862.4735
589.3524, 875.7820
589.8345, 882.6879
590.3167, 880.8597
590.7988, 881.7041
591.2809, 891.0919
591.7630, 907.3415
592.2451, 922.4105
592.7272, 936.3538
593.2094, 947.7678
593.6915, 953.1924
594.1736, 955.7208
594.6557, 961.5527
595.1378, 972.0599
595.6199, 983.8052
596.1021, 994.8137
596.5842, 1005.243
597.0663, 1015.359
597.5485, 1033.343
598.0306, 1042.323
598.5127, 1030.432
598.9948, 1003.274
599.4769, 985.3467
599.9590, 986.6771
600.4412, 986.7833
600.9233, 978.4121
601.4054, 960.8385
601.8875, 946.0901
602.3696, 935.3708
602.8517, 924.7593
603.3339, 911.2660
603.8160, 894.9542
604.2981, 877.3709
604.7802, 858.3735
605.2623, 839.7906
605.7444, 823.9822
606.2266, 810.5717
606.7087, 799.3683
607.1908, 791.7820
607.6729, 784.4909
608.1550, 773.5054
608.6371, 760.3591
609.1193, 749.6556
609.6014, 743.8915
610.0835, 740.5485
610.5656, 739.8038
611.0477, 742.4326
611.5298, 740.8948
612.0120, 729.8824
612.4941, 719.7372
612.9762, 718.6693
613.4583, 731.0234
613.9404, 735.7782
614.4225, 729.4423
614.9047, 719.9812
615.3868, 718.8549
615.8689, 725.5825
616.3510, 733.8875
616.8331, 741.7618
617.3152, 750.4622
617.7974, 764.4488
618.2795, 781.6612
618.7616, 794.8621
619.2437, 794.1506
619.7258, 792.2487
620.2079, 800.3044
620.6901, 818.7589
621.1722, 835.1036
621.6543, 841.6270
622.1364, 847.0368
622.6185, 857.2565
623.1006, 876.1474
623.5828, 891.9050
624.0649, 902.3016
624.5470, 911.6088
625.0291, 925.5372
625.5112, 945.2507
625.9933, 963.5297
626.4755, 979.1221
626.9576, 992.2476
627.4397, 1001.316
627.9218, 1007.129
628.4039, 1015.815
