##NAMES=Ludlamite
##RRUFFID=R060485
##IDEAL CHEMISTRY=Fe^2+^_3_(PO_4_)_2_&#183;4H_2_O
##LOCALITY=Blackbird District, Lehmi County, Idaho, USA
##OWNER=RRUFF
##SOURCE=Michael Scott
##DESCRIPTION=Green tabular crystals associated with siderite, pyrite and quartz
##STATUS=The identification of this mineral is confirmed by single-crystal X-ray diffraction and chemical analysis.
##URL=rruff.info/R060485
##MEASURED CHEMISTRY=Fe^2+^_3.00_(P_1.00_O_4_)_2_Â·4H_2_O
9.112140e+001, 0.000000e+000
9.160352e+001, 1.142081e+003
9.208563e+001, 1.114861e+003
9.256775e+001, 1.111818e+003
9.304987e+001, 1.146515e+003
9.353198e+001, 1.187420e+003
9.401410e+001, 1.211050e+003
9.449622e+001, 1.219011e+003
9.497833e+001, 1.219062e+003
9.546045e+001, 1.217421e+003
9.594257e+001, 1.214105e+003
9.642468e+001, 1.208166e+003
9.690680e+001, 1.198118e+003
9.738892e+001, 1.188980e+003
9.787103e+001, 1.182428e+003
9.835315e+001, 1.177025e+003
9.883527e+001, 1.171167e+003
9.931738e+001, 1.166535e+003
9.979950e+001, 1.163537e+003
1.002816e+002, 1.162210e+003
1.007637e+002, 1.161391e+003
1.012458e+002, 1.162137e+003
1.017280e+002, 1.166303e+003
1.022101e+002, 1.174631e+003
1.026922e+002, 1.183928e+003
1.031743e+002, 1.190313e+003
1.036564e+002, 1.195270e+003
1.041385e+002, 1.193349e+003
1.046207e+002, 1.180222e+003
1.051028e+002, 1.158163e+003
1.055849e+002, 1.134203e+003
1.060670e+002, 1.108333e+003
1.065491e+002, 1.083123e+003
1.070313e+002, 1.060962e+003
1.075134e+002, 1.041912e+003
1.079955e+002, 1.025341e+003
1.084776e+002, 1.011003e+003
1.089597e+002, 9.991370e+002
1.094418e+002, 9.882548e+002
1.099240e+002, 9.775820e+002
1.104061e+002, 9.677910e+002
1.108882e+002, 9.596279e+002
1.113703e+002, 9.533900e+002
1.118524e+002, 9.487126e+002
1.123345e+002, 9.447325e+002
1.128167e+002, 9.423297e+002
1.132988e+002, 9.394717e+002
1.137809e+002, 9.336143e+002
1.142630e+002, 9.276010e+002
1.147451e+002, 9.262459e+002
1.152272e+002, 9.332755e+002
1.157094e+002, 9.477692e+002
1.161915e+002, 9.503475e+002
1.166736e+002, 9.318907e+002
1.171557e+002, 9.125880e+002
1.176378e+002, 8.983909e+002
1.181199e+002, 8.891742e+002
1.186021e+002, 8.825032e+002
1.190842e+002, 8.766268e+002
1.195663e+002, 8.716651e+002
1.200484e+002, 8.673762e+002
1.205305e+002, 8.641202e+002
1.210126e+002, 8.612614e+002
1.214948e+002, 8.581545e+002
1.219769e+002, 8.546631e+002
1.224590e+002, 8.513990e+002
1.229411e+002, 8.492800e+002
1.234232e+002, 8.480018e+002
1.239053e+002, 8.466805e+002
1.243875e+002, 8.452591e+002
1.248696e+002, 8.435917e+002
1.253517e+002, 8.411317e+002
1.258338e+002, 8.371058e+002
1.263159e+002, 8.332797e+002
1.267980e+002, 8.309909e+002
1.272802e+002, 8.300153e+002
1.277623e+002, 8.293025e+002
1.282444e+002, 8.280140e+002
1.287265e+002, 8.260979e+002
1.292086e+002, 8.242355e+002
1.296907e+002, 8.218464e+002
1.301729e+002, 8.200064e+002
1.306550e+002, 8.193316e+002
1.311371e+002, 8.198617e+002
1.316192e+002, 8.211638e+002
1.321013e+002, 8.226559e+002
1.325834e+002, 8.242998e+002
1.330656e+002, 8.263078e+002
1.335477e+002, 8.281975e+002
1.340298e+002, 8.306409e+002
1.345119e+002, 8.339974e+002
1.349940e+002, 8.384122e+002
1.354761e+002, 8.440257e+002
1.359583e+002, 8.511564e+002
1.364404e+002, 8.587590e+002
1.369225e+002, 8.693836e+002
1.374046e+002, 8.837514e+002
1.378867e+002, 9.011716e+002
1.383688e+002, 9.208724e+002
1.388510e+002, 9.428793e+002
1.393331e+002, 9.664260e+002
1.398152e+002, 9.892442e+002
1.402973e+002, 1.015311e+003
1.407794e+002, 1.035828e+003
1.412615e+002, 1.048433e+003
1.417437e+002, 1.052854e+003
1.422258e+002, 1.047469e+003
1.427079e+002, 1.028314e+003
1.431900e+002, 9.993066e+002
1.436721e+002, 9.701195e+002
1.441542e+002, 9.388842e+002
1.446364e+002, 9.103130e+002
1.451185e+002, 8.892672e+002
1.456006e+002, 8.763348e+002
1.460827e+002, 8.674636e+002
1.465648e+002, 8.632902e+002
1.470469e+002, 8.612341e+002
1.475291e+002, 8.592091e+002
1.480112e+002, 8.572516e+002
1.484933e+002, 8.541093e+002
1.489754e+002, 8.467159e+002
1.494575e+002, 8.332639e+002
1.499396e+002, 8.181330e+002
1.504218e+002, 8.012597e+002
1.509039e+002, 7.841718e+002
1.513860e+002, 7.688710e+002
1.518681e+002, 7.564237e+002
1.523502e+002, 7.466951e+002
1.528323e+002, 7.391285e+002
1.533145e+002, 7.347727e+002
1.537966e+002, 7.318764e+002
1.542787e+002, 7.306130e+002
1.547608e+002, 7.305657e+002
1.552429e+002, 7.312466e+002
1.557250e+002, 7.324879e+002
1.562072e+002, 7.344725e+002
1.566893e+002, 7.339275e+002
1.571714e+002, 7.281836e+002
1.576535e+002, 7.228613e+002
1.581356e+002, 7.202830e+002
1.586177e+002, 7.204037e+002
1.590999e+002, 7.218154e+002
1.595820e+002, 7.231885e+002
1.600641e+002, 7.244403e+002
1.605462e+002, 7.272435e+002
1.610283e+002, 7.320934e+002
1.615104e+002, 7.380313e+002
1.619926e+002, 7.442496e+002
1.624747e+002, 7.506334e+002
1.629568e+002, 7.578512e+002
1.634389e+002, 7.668419e+002
1.639210e+002, 7.775431e+002
1.644031e+002, 7.883266e+002
1.648853e+002, 8.001684e+002
1.653674e+002, 8.115812e+002
1.658495e+002, 8.205456e+002
1.663316e+002, 8.271504e+002
1.668137e+002, 8.301837e+002
1.672958e+002, 8.276996e+002
1.677780e+002, 8.207405e+002
1.682601e+002, 8.121207e+002
1.687422e+002, 8.020964e+002
1.692243e+002, 7.912020e+002
1.697064e+002, 7.816388e+002
1.701885e+002, 7.731822e+002
1.706707e+002, 7.670323e+002
1.711528e+002, 7.645143e+002
1.716349e+002, 7.649357e+002
1.721170e+002, 7.654380e+002
1.725991e+002, 7.638209e+002
1.730812e+002, 7.600064e+002
1.735634e+002, 7.557513e+002
1.740455e+002, 7.516910e+002
1.745276e+002, 7.466029e+002
1.750097e+002, 7.392734e+002
1.754918e+002, 7.300732e+002
1.759739e+002, 7.207187e+002
1.764561e+002, 7.131873e+002
1.769382e+002, 7.079453e+002
1.774203e+002, 7.028254e+002
1.779024e+002, 6.971553e+002
1.783845e+002, 6.920965e+002
1.788666e+002, 6.883989e+002
1.793488e+002, 6.861098e+002
1.798309e+002, 6.846937e+002
1.803130e+002, 6.834887e+002
1.807951e+002, 6.824844e+002
1.812772e+002, 6.817835e+002
1.817593e+002, 6.815378e+002
1.822415e+002, 6.814564e+002
1.827236e+002, 6.817073e+002
1.832057e+002, 6.822109e+002
1.836878e+002, 6.821573e+002
1.841699e+002, 6.801960e+002
1.846520e+002, 6.747287e+002
1.851342e+002, 6.704687e+002
1.856163e+002, 6.681762e+002
1.860984e+002, 6.668543e+002
1.865805e+002, 6.654273e+002
1.870626e+002, 6.635662e+002
1.875447e+002, 6.617132e+002
1.880269e+002, 6.608082e+002
1.885090e+002, 6.611902e+002
1.889911e+002, 6.610013e+002
1.894732e+002, 6.590974e+002
1.899553e+002, 6.564625e+002
1.904374e+002, 6.548445e+002
1.909196e+002, 6.548196e+002
1.914017e+002, 6.557927e+002
1.918838e+002, 6.570763e+002
1.923659e+002, 6.587043e+002
1.928480e+002, 6.601136e+002
1.933301e+002, 6.609337e+002
1.938123e+002, 6.612906e+002
1.942944e+002, 6.616044e+002
1.947765e+002, 6.617529e+002
1.952586e+002, 6.622004e+002
1.957407e+002, 6.632608e+002
1.962228e+002, 6.649317e+002
1.967050e+002, 6.671768e+002
1.971871e+002, 6.701846e+002
1.976692e+002, 6.739200e+002
1.981513e+002, 6.776057e+002
1.986334e+002, 6.815388e+002
1.991155e+002, 6.849395e+002
1.995977e+002, 6.873194e+002
2.000798e+002, 6.886561e+002
2.005619e+002, 6.892363e+002
2.010440e+002, 6.891027e+002
2.015261e+002, 6.880971e+002
2.020082e+002, 6.874543e+002
2.024904e+002, 6.877795e+002
2.029725e+002, 6.881960e+002
2.034546e+002, 6.881738e+002
2.039367e+002, 6.876959e+002
2.044188e+002, 6.872113e+002
2.049009e+002, 6.873807e+002
2.053831e+002, 6.885684e+002
2.058652e+002, 6.892776e+002
2.063473e+002, 6.889401e+002
2.068294e+002, 6.885342e+002
2.073115e+002, 6.889412e+002
2.077936e+002, 6.901376e+002
2.082758e+002, 6.911578e+002
2.087579e+002, 6.905704e+002
2.092400e+002, 6.875455e+002
2.097221e+002, 6.846121e+002
2.102042e+002, 6.820535e+002
2.106863e+002, 6.793896e+002
2.111685e+002, 6.761627e+002
2.116506e+002, 6.723370e+002
2.121327e+002, 6.683494e+002
2.126148e+002, 6.648238e+002
2.130969e+002, 6.621874e+002
2.135790e+002, 6.591772e+002
2.140612e+002, 6.552083e+002
2.145433e+002, 6.512582e+002
2.150254e+002, 6.480499e+002
2.155075e+002, 6.457780e+002
2.159896e+002, 6.441248e+002
2.164717e+002, 6.426998e+002
2.169539e+002, 6.415998e+002
2.174360e+002, 6.405154e+002
2.179181e+002, 6.393934e+002
2.184002e+002, 6.383058e+002
2.188823e+002, 6.373350e+002
2.193644e+002, 6.365046e+002
2.198466e+002, 6.357222e+002
2.203287e+002, 6.348000e+002
2.208108e+002, 6.336376e+002
2.212929e+002, 6.328914e+002
2.217750e+002, 6.330759e+002
2.222571e+002, 6.335647e+002
2.227393e+002, 6.334857e+002
2.232214e+002, 6.325948e+002
2.237035e+002, 6.315262e+002
2.241856e+002, 6.311684e+002
2.246677e+002, 6.314620e+002
2.251498e+002, 6.316126e+002
2.256320e+002, 6.311214e+002
2.261141e+002, 6.304350e+002
2.265962e+002, 6.303129e+002
2.270783e+002, 6.309479e+002
2.275604e+002, 6.319541e+002
2.280425e+002, 6.333947e+002
2.285247e+002, 6.350710e+002
2.290068e+002, 6.358857e+002
2.294889e+002, 6.348173e+002
2.299710e+002, 6.326345e+002
2.304531e+002, 6.310956e+002
2.309352e+002, 6.305980e+002
2.314174e+002, 6.302869e+002
2.318995e+002, 6.290732e+002
2.323816e+002, 6.274166e+002
2.328637e+002, 6.266888e+002
2.333458e+002, 6.285842e+002
2.338279e+002, 6.320243e+002
2.343101e+002, 6.332561e+002
2.347922e+002, 6.309014e+002
2.352743e+002, 6.284563e+002
2.357564e+002, 6.281924e+002
2.362385e+002, 6.293058e+002
2.367206e+002, 6.301522e+002
2.372028e+002, 6.294505e+002
2.376849e+002, 6.277164e+002
2.381670e+002, 6.273053e+002
2.386491e+002, 6.293532e+002
2.391312e+002, 6.310534e+002
2.396133e+002, 6.308444e+002
2.400955e+002, 6.296035e+002
2.405776e+002, 6.288915e+002
2.410597e+002, 6.298800e+002
2.415418e+002, 6.320655e+002
2.420239e+002, 6.328656e+002
2.425060e+002, 6.307881e+002
2.429882e+002, 6.293517e+002
2.434703e+002, 6.299208e+002
2.439524e+002, 6.316523e+002
2.444345e+002, 6.333080e+002
2.449166e+002, 6.341637e+002
2.453987e+002, 6.344119e+002
2.458809e+002, 6.349827e+002
2.463630e+002, 6.365262e+002
2.468451e+002, 6.375195e+002
2.473272e+002, 6.371504e+002
2.478093e+002, 6.362204e+002
2.482914e+002, 6.359001e+002
2.487736e+002, 6.368907e+002
2.492557e+002, 6.386860e+002
2.497378e+002, 6.391592e+002
2.502199e+002, 6.362719e+002
2.507020e+002, 6.345842e+002
2.511841e+002, 6.352673e+002
2.516663e+002, 6.372512e+002
2.521484e+002, 6.393915e+002
2.526305e+002, 6.411563e+002
2.531126e+002, 6.425239e+002
2.535947e+002, 6.434325e+002
2.540768e+002, 6.425319e+002
2.545590e+002, 6.428575e+002
2.550411e+002, 6.456660e+002
2.555232e+002, 6.493675e+002
2.560053e+002, 6.520841e+002
2.564874e+002, 6.530195e+002
2.569695e+002, 6.530127e+002
2.574517e+002, 6.540929e+002
2.579338e+002, 6.580774e+002
2.584159e+002, 6.610079e+002
2.588980e+002, 6.623519e+002
2.593801e+002, 6.628499e+002
2.598622e+002, 6.633594e+002
2.603444e+002, 6.641664e+002
2.608265e+002, 6.648194e+002
2.613086e+002, 6.644170e+002
2.617907e+002, 6.615157e+002
2.622728e+002, 6.598474e+002
2.627549e+002, 6.604478e+002
2.632371e+002, 6.618127e+002
2.637192e+002, 6.623571e+002
2.642013e+002, 6.616725e+002
2.646834e+002, 6.606171e+002
2.651655e+002, 6.605252e+002
2.656476e+002, 6.621073e+002
2.661298e+002, 6.629238e+002
2.666119e+002, 6.623810e+002
2.670940e+002, 6.613613e+002
2.675761e+002, 6.605367e+002
2.680582e+002, 6.600630e+002
2.685403e+002, 6.600526e+002
2.690225e+002, 6.608694e+002
2.695046e+002, 6.629349e+002
2.699867e+002, 6.635755e+002
2.704688e+002, 6.612853e+002
2.709509e+002, 6.584457e+002
2.714330e+002, 6.573696e+002
2.719152e+002, 6.582608e+002
2.723973e+002, 6.592970e+002
2.728794e+002, 6.586917e+002
2.733615e+002, 6.562748e+002
2.738436e+002, 6.542237e+002
2.743257e+002, 6.522423e+002
2.748079e+002, 6.508552e+002
2.752900e+002, 6.507592e+002
2.757721e+002, 6.519045e+002
2.762542e+002, 6.532099e+002
2.767363e+002, 6.536945e+002
2.772184e+002, 6.535851e+002
2.777006e+002, 6.545919e+002
2.781827e+002, 6.576869e+002
2.786648e+002, 6.611230e+002
2.791469e+002, 6.635126e+002
2.796290e+002, 6.649798e+002
2.801111e+002, 6.666735e+002
2.805933e+002, 6.691570e+002
2.810754e+002, 6.724994e+002
2.815575e+002, 6.765809e+002
2.820396e+002, 6.822649e+002
2.825217e+002, 6.876327e+002
2.830038e+002, 6.913342e+002
2.834860e+002, 6.936105e+002
2.839681e+002, 6.957913e+002
2.844502e+002, 6.985685e+002
2.849323e+002, 7.015064e+002
2.854144e+002, 7.038223e+002
2.858965e+002, 7.056045e+002
2.863787e+002, 7.066379e+002
2.868608e+002, 7.064322e+002
2.873429e+002, 7.052888e+002
2.878250e+002, 7.043655e+002
2.883071e+002, 7.042311e+002
2.887892e+002, 7.041953e+002
2.892714e+002, 7.032664e+002
2.897535e+002, 7.014073e+002
2.902356e+002, 6.992424e+002
2.907177e+002, 6.969939e+002
2.911998e+002, 6.946549e+002
2.916819e+002, 6.920568e+002
2.921641e+002, 6.889100e+002
2.926462e+002, 6.860020e+002
2.931283e+002, 6.843246e+002
2.936104e+002, 6.837334e+002
2.940925e+002, 6.832982e+002
2.945746e+002, 6.823560e+002
2.950568e+002, 6.813751e+002
2.955389e+002, 6.814172e+002
2.960210e+002, 6.828252e+002
2.965031e+002, 6.846055e+002
2.969852e+002, 6.859361e+002
2.974673e+002, 6.869608e+002
2.979495e+002, 6.880667e+002
2.984316e+002, 6.892361e+002
2.989137e+002, 6.906080e+002
2.993958e+002, 6.926741e+002
2.998779e+002, 6.956950e+002
3.003600e+002, 6.981693e+002
3.008422e+002, 6.982491e+002
3.013243e+002, 6.972041e+002
3.018064e+002, 6.973160e+002
3.022885e+002, 7.000897e+002
3.027706e+002, 7.032490e+002
3.032527e+002, 7.039522e+002
3.037349e+002, 7.020392e+002
3.042170e+002, 6.999755e+002
3.046991e+002, 6.990443e+002
3.051812e+002, 6.985621e+002
3.056633e+002, 6.976106e+002
3.061454e+002, 6.960180e+002
3.066276e+002, 6.941088e+002
3.071097e+002, 6.920953e+002
3.075918e+002, 6.899871e+002
3.080739e+002, 6.877917e+002
3.085560e+002, 6.851281e+002
3.090381e+002, 6.827962e+002
3.095203e+002, 6.818727e+002
3.100024e+002, 6.825277e+002
3.104845e+002, 6.830414e+002
3.109666e+002, 6.820231e+002
3.114487e+002, 6.797820e+002
3.119308e+002, 6.777988e+002
3.124130e+002, 6.762200e+002
3.128951e+002, 6.752227e+002
3.133772e+002, 6.750414e+002
3.138593e+002, 6.755770e+002
3.143414e+002, 6.762576e+002
3.148235e+002, 6.769212e+002
3.153057e+002, 6.775144e+002
3.157878e+002, 6.780391e+002
3.162699e+002, 6.787403e+002
3.167520e+002, 6.787510e+002
3.172341e+002, 6.763009e+002
3.177162e+002, 6.726541e+002
3.181984e+002, 6.707364e+002
3.186805e+002, 6.730467e+002
3.191626e+002, 6.770361e+002
3.196447e+002, 6.784387e+002
3.201268e+002, 6.767675e+002
3.206089e+002, 6.749514e+002
3.210911e+002, 6.743835e+002
3.215732e+002, 6.747916e+002
3.220553e+002, 6.760742e+002
3.225374e+002, 6.787914e+002
3.230195e+002, 6.814382e+002
3.235016e+002, 6.822021e+002
3.239838e+002, 6.810721e+002
3.244659e+002, 6.800264e+002
3.249480e+002, 6.800324e+002
3.254301e+002, 6.803365e+002
3.259122e+002, 6.798561e+002
3.263943e+002, 6.783313e+002
3.268765e+002, 6.770761e+002
3.273586e+002, 6.771490e+002
3.278407e+002, 6.783644e+002
3.283228e+002, 6.797830e+002
3.288049e+002, 6.814852e+002
3.292870e+002, 6.828945e+002
3.297692e+002, 6.833699e+002
3.302513e+002, 6.829836e+002
3.307334e+002, 6.824391e+002
3.312155e+002, 6.819064e+002
3.316976e+002, 6.814718e+002
3.321797e+002, 6.813807e+002
3.326619e+002, 6.817347e+002
3.331440e+002, 6.822189e+002
3.336261e+002, 6.825011e+002
3.341082e+002, 6.827002e+002
3.345903e+002, 6.831462e+002
3.350724e+002, 6.842814e+002
3.355546e+002, 6.855420e+002
3.360367e+002, 6.859789e+002
3.365188e+002, 6.854785e+002
3.370009e+002, 6.853398e+002
3.374830e+002, 6.866703e+002
3.379651e+002, 6.887604e+002
3.384473e+002, 6.902308e+002
3.389294e+002, 6.906656e+002
3.394115e+002, 6.908850e+002
3.398936e+002, 6.914982e+002
3.403757e+002, 6.924713e+002
3.408578e+002, 6.935921e+002
3.413400e+002, 6.950436e+002
3.418221e+002, 6.963192e+002
3.423042e+002, 6.966387e+002
3.427863e+002, 6.958660e+002
3.432684e+002, 6.949905e+002
3.437505e+002, 6.946633e+002
3.442327e+002, 6.945850e+002
3.447148e+002, 6.938626e+002
3.451969e+002, 6.920584e+002
3.456790e+002, 6.902496e+002
3.461611e+002, 6.902555e+002
3.466432e+002, 6.917357e+002
3.471254e+002, 6.921013e+002
3.476075e+002, 6.895466e+002
3.480896e+002, 6.860647e+002
3.485717e+002, 6.843629e+002
3.490538e+002, 6.847198e+002
3.495359e+002, 6.851946e+002
3.500181e+002, 6.843439e+002
3.505002e+002, 6.823831e+002
3.509823e+002, 6.805356e+002
3.514644e+002, 6.782246e+002
3.519465e+002, 6.766049e+002
3.524286e+002, 6.769531e+002
3.529108e+002, 6.788732e+002
3.533929e+002, 6.805038e+002
3.538750e+002, 6.809880e+002
3.543571e+002, 6.805585e+002
3.548392e+002, 6.797304e+002
3.553214e+002, 6.781183e+002
3.558035e+002, 6.769987e+002
3.562856e+002, 6.773945e+002
3.567677e+002, 6.784921e+002
3.572498e+002, 6.787122e+002
3.577319e+002, 6.775180e+002
3.582141e+002, 6.758463e+002
3.586962e+002, 6.749959e+002
3.591783e+002, 6.751112e+002
3.596604e+002, 6.751223e+002
3.601425e+002, 6.750680e+002
3.606246e+002, 6.747621e+002
3.611068e+002, 6.737440e+002
3.615889e+002, 6.720618e+002
3.620710e+002, 6.707353e+002
3.625531e+002, 6.707663e+002
3.630352e+002, 6.721285e+002
3.635173e+002, 6.726820e+002
3.639995e+002, 6.717989e+002
3.644816e+002, 6.708138e+002
3.649637e+002, 6.705414e+002
3.654458e+002, 6.706882e+002
3.659279e+002, 6.703350e+002
3.664100e+002, 6.689009e+002
3.668922e+002, 6.668816e+002
3.673743e+002, 6.659525e+002
3.678564e+002, 6.669651e+002
3.683385e+002, 6.677750e+002
3.688206e+002, 6.682273e+002
3.693027e+002, 6.682842e+002
3.697849e+002, 6.677233e+002
3.702670e+002, 6.665206e+002
3.707491e+002, 6.651995e+002
3.712312e+002, 6.645567e+002
3.717133e+002, 6.650818e+002
3.721954e+002, 6.647461e+002
3.726776e+002, 6.626172e+002
3.731597e+002, 6.604761e+002
3.736418e+002, 6.595387e+002
3.741239e+002, 6.596829e+002
3.746060e+002, 6.599083e+002
3.750881e+002, 6.593397e+002
3.755703e+002, 6.580328e+002
3.760524e+002, 6.578190e+002
3.765345e+002, 6.600618e+002
3.770166e+002, 6.618207e+002
3.774987e+002, 6.624948e+002
3.779808e+002, 6.622610e+002
3.784630e+002, 6.612651e+002
3.789451e+002, 6.595668e+002
3.794272e+002, 6.575638e+002
3.799093e+002, 6.561993e+002
3.803914e+002, 6.557214e+002
3.808735e+002, 6.555317e+002
3.813557e+002, 6.559498e+002
3.818378e+002, 6.563713e+002
3.823199e+002, 6.561659e+002
3.828020e+002, 6.553537e+002
3.832841e+002, 6.546249e+002
3.837662e+002, 6.548060e+002
3.842484e+002, 6.560468e+002
3.847305e+002, 6.571428e+002
3.852126e+002, 6.583137e+002
3.856947e+002, 6.591035e+002
3.861768e+002, 6.593118e+002
3.866589e+002, 6.590155e+002
3.871411e+002, 6.582921e+002
3.876232e+002, 6.570647e+002
3.881053e+002, 6.556288e+002
3.885874e+002, 6.552164e+002
3.890695e+002, 6.568188e+002
3.895516e+002, 6.575470e+002
3.900338e+002, 6.561522e+002
3.905159e+002, 6.540370e+002
3.909980e+002, 6.523550e+002
3.914801e+002, 6.514348e+002
3.919622e+002, 6.511328e+002
3.924443e+002, 6.515525e+002
3.929265e+002, 6.528428e+002
3.934086e+002, 6.534358e+002
3.938907e+002, 6.528597e+002
3.943728e+002, 6.517442e+002
3.948549e+002, 6.500652e+002
3.953370e+002, 6.480784e+002
3.958192e+002, 6.466199e+002
3.963013e+002, 6.464983e+002
3.967834e+002, 6.473096e+002
3.972655e+002, 6.477123e+002
3.977476e+002, 6.475955e+002
3.982297e+002, 6.473536e+002
3.987119e+002, 6.474246e+002
3.991940e+002, 6.474249e+002
3.996761e+002, 6.467281e+002
4.001582e+002, 6.449391e+002
4.006403e+002, 6.429401e+002
4.011224e+002, 6.415884e+002
4.016046e+002, 6.408511e+002
4.020867e+002, 6.403955e+002
4.025688e+002, 6.402698e+002
4.030509e+002, 6.402238e+002
4.035330e+002, 6.398705e+002
4.040151e+002, 6.391956e+002
4.044973e+002, 6.387551e+002
4.049794e+002, 6.391935e+002
4.054615e+002, 6.399125e+002
4.059436e+002, 6.398007e+002
4.064257e+002, 6.386752e+002
4.069078e+002, 6.371761e+002
4.073900e+002, 6.355935e+002
4.078721e+002, 6.340478e+002
4.083542e+002, 6.330372e+002
4.088363e+002, 6.327922e+002
4.093184e+002, 6.329269e+002
4.098005e+002, 6.334071e+002
4.102827e+002, 6.341110e+002
4.107648e+002, 6.346150e+002
4.112469e+002, 6.347190e+002
4.117290e+002, 6.345480e+002
4.122111e+002, 6.343775e+002
4.126932e+002, 6.342943e+002
4.131754e+002, 6.340062e+002
4.136575e+002, 6.330750e+002
4.141396e+002, 6.321186e+002
4.146217e+002, 6.317582e+002
4.151038e+002, 6.321047e+002
