##NAMES=Ludlamite
##RRUFFID=R090071
##IDEAL CHEMISTRY=Fe^2+^_3_(PO_4_)_2_&#183;4H_2_O
##LOCALITY=Cigana Mine (ex-Jocão Mine), Galiléia, Minas Gerais  Brazil
##OWNER=RRUFF
##SOURCE=Royal Ontario Museum 
##DESCRIPTION=Groups of colorless tabular crystals on reddish-brown reddingite R090069, associated with pink hureaulite R090070.
##STATUS=The identification of this mineral has been confirmed only by single crystal X-ray diffraction.
##URL=rruff.info/R090071
91.82715, 173.6835
92.30927, 173.6186
92.79138, 173.7309
93.27350, 172.3746
93.75562, 170.4841
94.23773, 169.1570
94.71985, 168.5035
95.20197, 167.2859
95.68408, 164.9931
96.16620, 162.2000
96.64832, 159.5781
97.13043, 157.2981
97.61255, 155.0311
98.09467, 152.1321
98.57678, 148.0466
99.05890, 144.5276
99.54102, 143.0096
100.0231, 142.2520
100.5052, 141.1445
100.9874, 139.1448
101.4695, 136.2984
101.9516, 132.9074
102.4337, 127.7010
102.9158, 123.1241
103.3979, 119.4564
103.8801, 116.6664
104.3622, 114.7558
104.8443, 113.8363
105.3264, 114.0493
105.8085, 113.3762
106.2906, 111.8544
106.7728, 109.6186
107.2549, 106.2688
107.7370, 101.9200
108.2191, 97.69347
108.7012, 94.86274
109.1833, 93.49271
109.6655, 92.68649
110.1476, 92.66532
110.6297, 93.06405
111.1118, 93.35653
111.5939, 93.43523
112.0760, 93.37892
112.5582, 93.03056
113.0403, 92.42747
113.5224, 92.36185
114.0045, 93.86362
114.4866, 96.82119
114.9688, 98.76553
115.4509, 98.40669
115.9330, 97.39304
116.4151, 96.40060
116.8972, 95.57799
117.3793, 95.29226
117.8615, 96.22666
118.3436, 99.08536
118.8257, 101.4534
119.3078, 102.1659
119.7899, 102.8328
120.2720, 104.8615
120.7542, 108.7986
121.2363, 113.9633
121.7184, 118.4516
122.2005, 122.2066
122.6826, 125.1628
123.1647, 126.9225
123.6468, 127.9400
124.1290, 128.8836
124.6111, 130.1881
125.0932, 131.7190
125.5753, 132.3232
126.0574, 130.9373
126.5395, 129.9032
127.0217, 130.1745
127.5038, 131.6683
127.9859, 133.9032
128.4680, 137.0726
128.9501, 140.7354
129.4323, 142.8051
129.9144, 141.6198
130.3965, 139.6607
130.8786, 139.6488
131.3607, 141.9837
131.8428, 144.8052
132.3250, 146.8027
132.8071, 148.2889
133.2892, 149.7150
133.7713, 150.9497
134.2534, 152.2199
134.7355, 154.4543
135.2177, 158.4329
135.6998, 162.3481
136.1819, 165.7763
136.6640, 168.5129
137.1461, 170.1000
137.6282, 169.9450
138.1104, 167.8873
138.5925, 165.8510
139.0746, 164.6402
139.5567, 162.7685
140.0388, 159.1384
140.5209, 154.0340
141.0031, 148.7587
141.4852, 144.9867
141.9673, 143.7801
142.4494, 141.2474
142.9315, 136.4389
143.4136, 131.2405
143.8958, 126.9765
144.3779, 123.9487
144.8600, 121.3161
145.3421, 117.6761
145.8242, 112.0385
146.3063, 107.2449
146.7885, 103.5047
147.2706, 100.6149
147.7527, 98.53852
148.2348, 97.38928
148.7169, 96.57258
149.1990, 94.49755
149.6812, 90.41478
150.1633, 87.61905
150.6454, 88.30410
151.1275, 91.45123
151.6096, 93.71769
152.0917, 93.36602
152.5739, 92.01569
153.0560, 92.43192
153.5381, 95.20013
154.0202, 97.88387
154.5023, 98.07387
154.9844, 95.63516
155.4665, 93.78861
155.9487, 94.31809
156.4308, 95.70063
156.9129, 96.81335
157.3950, 97.37978
157.8771, 97.70150
158.3592, 98.16882
158.8414, 98.71265
159.3235, 99.61240
159.8056, 101.3293
160.2877, 103.1970
160.7698, 104.6257
161.2519, 105.3451
161.7341, 105.5507
162.2162, 105.8207
162.6983, 106.4172
163.1804, 106.6990
163.6625, 106.2847
164.1446, 105.6050
164.6268, 105.2318
165.1089, 105.5089
165.5910, 106.2897
166.0731, 106.6257
166.5552, 106.0446
167.0373, 105.5361
167.5195, 105.6117
168.0016, 105.9049
168.4837, 105.6438
168.9658, 104.2625
169.4479, 101.8429
169.9300, 99.87751
170.4122, 98.70445
170.8943, 97.56031
171.3764, 96.37368
171.8585, 95.02180
172.3406, 92.93418
172.8227, 89.29374
173.3049, 84.45855
173.7870, 81.23830
174.2691, 80.39279
174.7512, 80.59413
175.2333, 81.00244
175.7154, 81.59508
176.1976, 82.13635
176.6797, 82.63613
177.1618, 82.93899
177.6439, 82.61061
178.1260, 80.68580
178.6081, 78.39636
179.0903, 77.76176
179.5724, 79.29433
180.0545, 80.99763
180.5366, 81.61458
181.0187, 81.56287
181.5008, 81.42810
181.9830, 81.39757
182.4651, 81.48564
182.9472, 81.68127
183.4293, 81.71384
183.9114, 82.35665
184.3935, 83.91843
184.8757, 86.19715
185.3578, 88.93487
185.8399, 92.20933
186.3220, 95.89219
186.8041, 98.55824
187.2862, 100.1842
187.7684, 100.6278
188.2505, 98.41909
188.7326, 94.97924
189.2147, 93.05187
189.6968, 95.06564
190.1789, 101.2165
190.6611, 106.1081
191.1432, 109.6292
191.6253, 112.0585
192.1074, 112.8996
192.5895, 112.5908
193.0716, 112.1167
193.5538, 112.3598
194.0359, 113.4598
194.5180, 114.1041
195.0001, 114.4473
195.4822, 114.3313
195.9643, 113.6178
196.4465, 112.3507
196.9286, 110.6605
197.4107, 108.5839
197.8928, 106.0311
198.3749, 104.0132
198.8570, 102.7930
199.3392, 101.8476
199.8213, 101.0447
200.3034, 100.3067
200.7855, 99.22946
201.2676, 97.27440
201.7497, 94.38778
202.2319, 92.05266
202.7140, 91.24586
203.1961, 90.47539
203.6782, 87.89999
204.1603, 83.22466
204.6424, 78.72778
205.1246, 76.82964
205.6067, 76.98796
206.0888, 76.76989
206.5709, 75.32867
207.0530, 73.39670
207.5351, 72.09175
208.0173, 71.67002
208.4994, 71.15876
208.9815, 69.49619
209.4636, 67.15396
209.9457, 65.09434
210.4278, 63.84314
210.9100, 63.08749
211.3921, 62.04342
211.8742, 60.44132
212.3563, 59.13945
212.8384, 58.98555
213.3205, 59.44076
213.8027, 59.49868
214.2848, 58.35620
214.7669, 56.43375
215.2490, 55.35845
215.7311, 55.79914
216.2132, 56.06053
216.6954, 55.11538
217.1775, 53.55008
217.6596, 52.40955
218.1417, 52.47895
218.6238, 53.49351
219.1059, 53.84644
219.5881, 52.85376
220.0702, 52.00929
220.5523, 51.82740
221.0344, 52.07886
221.5165, 52.37743
221.9986, 52.47564
222.4808, 52.39548
222.9629, 52.33838
223.4450, 52.11301
223.9271, 52.13592
224.4092, 52.75515
224.8913, 53.65884
225.3735, 54.29183
225.8556, 54.24572
226.3377, 53.61077
226.8198, 53.43003
227.3019, 54.43988
227.7840, 55.14356
228.2662, 54.95216
228.7483, 54.24609
229.2304, 53.73373
229.7125, 53.89068
230.1946, 54.63763
230.6767, 55.10297
231.1589, 55.32698
231.6410, 55.25864
232.1231, 54.44438
232.6052, 53.33709
233.0873, 52.85496
233.5694, 53.62982
234.0516, 55.42947
234.5337, 56.55574
235.0158, 56.79030
235.4979, 56.75692
235.9800, 56.44344
236.4621, 55.99337
236.9443, 55.72483
237.4264, 55.85814
237.9085, 56.25969
238.3906, 56.30338
238.8727, 55.52778
239.3548, 54.97965
239.8370, 55.22615
240.3191, 55.98774
240.8012, 56.56548
241.2833, 56.58425
241.7654, 56.22795
242.2475, 56.03162
242.7297, 55.90573
243.2118, 56.03334
243.6939, 56.72171
244.1760, 57.76767
244.6581, 58.67994
245.1402, 59.50603
245.6224, 59.72554
246.1045, 58.14608
246.5866, 53.96382
247.0687, 50.38063
247.5508, 49.26617
248.0329, 50.13631
248.5151, 51.36505
248.9972, 52.75895
249.4793, 53.84578
249.9614, 53.85136
250.4435, 52.59964
250.9256, 51.49562
251.4078, 51.37390
251.8899, 52.07520
252.3720, 52.97664
252.8541, 54.21111
253.3362, 55.19867
253.8183, 55.30158
254.3005, 54.53304
254.7826, 53.58809
255.2647, 52.43980
255.7468, 51.31343
256.2289, 51.61835
256.7110, 54.83309
257.1931, 57.88279
257.6753, 57.92021
258.1574, 55.36869
258.6395, 52.92845
259.1216, 52.63956
259.6037, 54.06147
260.0858, 54.64339
260.5680, 53.51381
261.0501, 52.39408
261.5322, 52.62273
262.0143, 53.79238
262.4964, 54.65702
262.9785, 54.05187
263.4607, 52.31721
263.9428, 51.50848
264.4249, 52.16944
264.9070, 53.04079
265.3891, 53.30958
265.8712, 53.30934
266.3534, 53.81366
266.8355, 55.81667
267.3176, 58.63247
267.7997, 59.05457
268.2818, 55.08126
268.7639, 51.71467
269.2461, 50.87406
269.7282, 51.68032
270.2103, 52.99703
270.6924, 54.46360
271.1745, 55.77155
271.6566, 55.66966
272.1388, 52.76436
272.6209, 50.84006
273.1030, 51.85454
273.5851, 53.88911
274.0672, 54.48387
274.5493, 52.37928
275.0315, 49.01635
275.5136, 48.19857
275.9957, 51.87844
276.4778, 54.44942
276.9599, 54.39498
277.4420, 53.24499
277.9242, 52.28009
278.4063, 51.95848
278.8884, 52.09760
279.3705, 52.41183
279.8526, 53.07714
280.3347, 53.53092
280.8169, 53.60157
281.2990, 53.55391
281.7811, 53.60615
282.2632, 53.80125
282.7453, 53.99177
283.2274, 53.99483
283.7096, 53.88029
284.1917, 53.36765
284.6738, 52.22036
285.1559, 50.91206
285.6380, 49.54771
286.1201, 48.23907
286.6023, 47.22608
287.0844, 46.87105
287.5665, 47.43496
288.0486, 47.62328
288.5307, 46.75282
289.0128, 46.14014
289.4950, 46.83015
289.9771, 48.46824
290.4592, 49.68401
290.9413, 49.04914
291.4234, 46.32684
291.9055, 44.92850
292.3877, 46.44502
292.8698, 47.67393
293.3519, 47.29995
293.8340, 45.80996
294.3161, 44.39252
294.7982, 43.88974
295.2804, 44.23481
295.7625, 44.58993
296.2446, 45.18357
296.7267, 45.53474
297.2088, 45.53305
297.6909, 45.23220
298.1731, 44.63220
298.6552, 43.71223
299.1373, 42.63544
299.6194, 42.04185
300.1015, 42.77316
300.5836, 42.97324
301.0658, 41.98449
301.5479, 40.60611
302.0300, 39.70821
302.5121, 39.63279
302.9942, 40.07402
303.4763, 40.41230
303.9585, 40.61247
304.4406, 40.74165
304.9227, 40.73665
305.4048, 40.70680
305.8869, 40.81131
306.3690, 41.05484
306.8512, 41.21354
307.3333, 40.91191
307.8154, 39.72838
308.2975, 39.23929
308.7796, 40.39303
309.2617, 41.36408
309.7439, 40.97387
310.2260, 39.23089
310.7081, 36.79976
311.1902, 34.12849
311.6723, 30.87110
312.1544, 29.94062
312.6366, 33.41141
313.1187, 36.80596
313.6008, 38.58381
314.0829, 38.83416
314.5650, 38.12045
315.0471, 36.74297
315.5293, 34.78983
316.0114, 33.43904
316.4935, 32.91914
316.9756, 32.74075
317.4577, 33.23568
317.9398, 33.92573
318.4220, 33.91113
318.9041, 32.68510
319.3862, 30.92280
319.8683, 30.80895
320.3504, 35.00297
320.8326, 37.50996
321.3147, 37.06928
321.7968, 35.31293
322.2789, 33.67356
322.7610, 32.66977
323.2431, 32.11223
323.7253, 31.71225
324.2074, 31.58546
324.6895, 31.39313
325.1716, 30.87401
325.6537, 30.48514
326.1358, 30.61988
326.6180, 31.27037
327.1001, 32.06922
327.5822, 32.60936
328.0643, 32.80755
328.5464, 33.18241
329.0285, 34.15424
329.5107, 34.88244
329.9928, 34.95943
330.4749, 34.48384
330.9570, 33.70198
331.4391, 32.71346
331.9212, 31.58261
332.4034, 31.28325
332.8855, 32.91725
333.3676, 34.22081
333.8497, 34.65439
334.3318, 34.52230
334.8139, 34.34554
335.2961, 34.39579
335.7782, 34.42012
336.2603, 33.60085
336.7424, 30.64342
337.2245, 28.80777
337.7066, 28.97154
338.1888, 29.88300
338.6709, 30.47525
339.1530, 30.44900
339.6351, 30.17395
340.1172, 30.13939
340.5993, 30.21080
341.0815, 30.90886
341.5636, 33.51472
342.0457, 35.60521
342.5278, 35.23111
343.0099, 32.80340
343.4920, 30.52027
343.9742, 30.62815
344.4563, 33.31844
344.9384, 34.82060
345.4205, 33.77802
345.9026, 32.79785
346.3847, 32.80575
346.8669, 33.33730
347.3490, 33.40549
347.8311, 32.32581
348.3132, 30.50286
348.7953, 29.61130
349.2774, 30.30048
349.7596, 30.95047
350.2417, 31.07852
350.7238, 31.10811
351.2059, 31.60335
351.6880, 32.74485
352.1701, 33.95669
352.6523, 34.07810
353.1344, 32.46102
353.6165, 31.75874
354.0986, 33.40562
354.5807, 35.12637
355.0628, 35.52875
355.5450, 34.57664
356.0271, 33.21686
356.5092, 32.21294
356.9913, 31.56692
357.4734, 31.35264
357.9555, 31.96032
358.4377, 32.59037
358.9198, 33.07240
359.4019, 33.32460
359.8840, 33.17151
360.3661, 32.36465
360.8482, 31.18904
361.3304, 30.50536
361.8125, 30.43315
362.2946, 30.61776
362.7767, 31.16986
363.2588, 31.78894
363.7409, 32.21884
364.2231, 32.40868
364.7052, 32.25097
365.1873, 31.34304
365.6694, 29.52887
366.1515, 28.39504
366.6336, 28.74036
367.1158, 29.57128
367.5979, 30.33508
368.0800, 30.96654
368.5621, 31.28644
369.0442, 31.16302
369.5263, 30.61812
370.0085, 29.59460
370.4906, 27.59439
370.9727, 26.04031
371.4548, 26.14667
371.9369, 27.37745
372.4190, 28.61508
372.9012, 29.82528
373.3833, 30.56189
373.8654, 29.78800
374.3475, 27.28913
374.8296, 25.14002
375.3117, 24.46707
375.7939, 24.74158
376.2760, 25.11313
376.7581, 25.41413
377.2402, 26.06842
377.7223, 27.86244
378.2044, 30.41438
378.6866, 32.04890
379.1687, 32.23970
379.6508, 31.44918
380.1329, 30.08975
380.6150, 28.19571
381.0971, 26.24690
381.5793, 23.98663
382.0614, 21.91766
382.5435, 20.80879
383.0256, 20.76118
383.5077, 21.26783
383.9898, 22.07252
384.4720, 23.14398
384.9541, 24.18383
385.4362, 25.48238
385.9183, 26.47121
386.4004, 26.70011
386.8825, 26.30438
387.3647, 25.65664
387.8468, 24.80376
388.3289, 24.01942
388.8110, 24.15506
389.2931, 25.79383
389.7752, 26.91763
390.2574, 26.59631
390.7395, 25.77024
391.2216, 25.62246
391.7037, 26.40042
392.1858, 27.49401
392.6679, 28.25829
393.1501, 28.68702
393.6322, 28.62684
394.1143, 27.63066
394.5964, 26.59420
395.0785, 26.09472
395.5606, 26.00070
396.0428, 25.74068
396.5249, 24.86721
397.0070, 23.64176
397.4891, 23.47873
397.9712, 26.38705
398.4533, 27.92657
398.9355, 26.65685
399.4176, 24.22541
399.8997, 22.35308
400.3818, 21.59255
400.8639, 21.41725
401.3460, 21.00687
401.8282, 20.08631
402.3103, 19.72245
402.7924, 19.99156
403.2745, 20.65958
403.7566, 22.11716
404.2387, 23.94295
404.7209, 25.01701
405.2030, 24.30260
405.6851, 22.13247
406.1672, 21.11826
406.6493, 22.05660
407.1314, 23.08120
407.6136, 23.89871
408.0957, 24.50575
408.5778, 24.88377
409.0599, 25.02295
409.5420, 25.01828
410.0241, 25.25202
410.5063, 26.00235
410.9884, 25.43695
411.4705, 20.84801
411.9526, 16.95413
412.4347, 17.23083
412.9168, 21.01298
413.3990, 24.59190
413.8811, 25.09005
414.3632, 23.31228
414.8453, 22.18091
415.3274, 21.72668
415.8095, 21.85572
416.2917, 23.06999
416.7738, 24.67158
417.2559, 25.72873
417.7380, 25.94807
418.2201, 25.71651
418.7022, 25.33829
419.1844, 24.81751
419.6665, 24.14150
420.1486, 23.14001
420.6307, 22.21266
421.1128, 21.90740
421.5949, 22.20596
422.0771, 22.57870
422.5592, 22.93365
423.0413, 23.20895
423.5234, 23.13367
424.0055, 22.67388
424.4876, 22.62793
424.9698, 23.83449
425.4519, 26.02057
425.9340, 27.33002
426.4161, 27.12003
426.8982, 26.74557
427.3803, 26.87683
427.8625, 27.27517
428.3446, 27.32907
428.8267, 26.76532
429.3088, 26.10938
429.7909, 26.34494
430.2730, 28.29189
430.7552, 29.21920
431.2373, 28.11118
431.7194, 26.72470
432.2015, 26.36834
432.6836, 27.02584
433.1657, 27.90184
433.6479, 28.36555
434.1300, 28.45714
434.6121, 28.72448
435.0942, 29.81223
435.5763, 30.31685
436.0584, 29.22457
436.5406, 27.76674
437.0227, 27.39687
437.5048, 28.60139
437.9869, 30.69784
438.4690, 32.90034
438.9511, 35.71068
439.4333, 36.96637
439.9154, 34.98738
440.3975, 32.91770
440.8796, 32.11574
441.3617, 32.41606
441.8438, 33.04707
442.3260, 33.54335
442.8081, 33.97152
443.2902, 34.47279
443.7723, 34.89716
444.2544, 35.78997
444.7365, 38.17500
445.2187, 40.66863
445.7008, 41.93353
446.1829, 41.67824
446.6650, 40.73033
447.1471, 39.24249
447.6292, 37.48580
448.1114, 37.13483
448.5935, 38.92276
449.0756, 41.19883
449.5577, 42.78032
450.0398, 43.76035
450.5219, 44.28176
451.0041, 43.71343
451.4862, 43.18121
451.9683, 44.03720
452.4504, 46.07294
452.9325, 47.88511
453.4146, 48.91340
453.8968, 49.26994
454.3789, 49.09541
454.8610, 48.30431
455.3431, 47.42284
455.8252, 46.35926
456.3073, 45.37935
456.7895, 44.78465
457.2716, 44.60691
457.7537, 44.68616
458.2358, 44.94722
458.7179, 45.39057
459.2000, 45.43575
459.6822, 44.66588
460.1643, 44.04652
460.6464, 43.88054
461.1285, 44.01500
461.6106, 44.36204
462.0927, 44.86261
462.5748, 45.19570
463.0569, 44.81705
463.5391, 43.59925
464.0212, 41.99448
464.5033, 39.14308
464.9854, 36.73115
465.4675, 35.79269
465.9496, 35.97065
466.4318, 36.22762
466.9139, 35.87261
467.3960, 35.15765
467.8781, 34.90962
468.3602, 35.31567
468.8423, 35.69996
469.3245, 35.92144
469.8066, 36.01170
470.2887, 35.95736
470.7708, 35.76061
471.2529, 35.51842
471.7350, 35.18472
472.2172, 34.84867
472.6993, 34.96758
473.1814, 35.78393
473.6635, 36.45282
474.1456, 35.98712
474.6277, 34.95558
475.1099, 34.69326
475.5920, 36.05133
476.0741, 37.39667
476.5562, 37.39642
477.0383, 36.45171
477.5204, 35.69221
478.0026, 35.45457
478.4847, 35.66676
478.9668, 36.38705
479.4489, 37.84632
479.9310, 38.62027
480.4131, 37.62537
480.8953, 36.76788
481.3774, 37.70936
481.8595, 39.99223
482.3416, 41.93840
482.8237, 42.54316
483.3058, 42.17138
483.7880, 42.07964
484.2701, 42.54368
484.7522, 42.90414
485.2343, 43.12904
485.7164, 43.25620
486.1985, 43.31750
486.6807, 43.31435
487.1628, 43.19521
487.6449, 42.79627
488.1270, 42.18457
488.6091, 42.39701
489.0912, 44.32166
489.5734, 45.64203
490.0555, 45.36555
490.5376, 44.34054
491.0197, 43.41429
491.5018, 42.80455
491.9839, 42.52587
492.4661, 42.94574
492.9482, 43.90760
493.4303, 43.89272
493.9124, 42.33139
494.3945, 40.45764
494.8766, 39.15863
495.3588, 38.31908
495.8409, 37.73589
496.3230, 37.69399
496.8051, 37.57880
497.2872, 36.55647
497.7693, 34.95559
498.2515, 34.05633
498.7336, 34.41454
499.2157, 35.47039
499.6978, 36.53184
500.1799, 37.89382
500.6620, 38.04842
501.1442, 35.66771
501.6263, 33.07232
502.1084, 32.13514
502.5905, 32.47865
503.0726, 32.35089
503.5547, 30.57590
504.0369, 27.90806
504.5190, 27.02586
505.0011, 29.69758
505.4832, 31.38565
505.9653, 31.36572
506.4474, 30.74711
506.9296, 30.19536
507.4117, 29.83579
507.8938, 29.56684
508.3759, 29.27960
508.8580, 29.01108
509.3401, 29.11358
509.8223, 30.05086
510.3044, 30.32940
510.7865, 28.45744
511.2686, 26.17734
511.7507, 25.25843
512.2328, 26.07010
512.7150, 27.40544
513.1971, 28.74848
513.6792, 29.90807
514.1613, 30.13666
514.6434, 29.14220
515.1255, 28.20053
515.6077, 28.32215
516.0898, 29.31140
516.5719, 30.17789
517.0540, 31.12952
517.5361, 31.66361
518.0182, 31.08429
518.5004, 30.05960
518.9825, 29.89462
519.4646, 30.92830
519.9467, 32.13026
520.4288, 32.20423
520.9109, 30.89303
521.3931, 30.18171
521.8752, 29.99932
522.3573, 30.37922
522.8394, 31.99000
523.3215, 33.97390
523.8036, 34.87265
524.2858, 34.12609
524.7679, 32.90179
525.2500, 33.31748
525.7321, 35.88789
526.2142, 37.46882
526.6964, 36.93745
527.1785, 36.37735
527.6606, 36.94703
528.1427, 38.21422
528.6248, 39.13843
529.1069, 39.15068
529.5891, 38.85358
530.0712, 39.21515
530.5533, 40.16808
531.0354, 40.43858
531.5175, 39.30918
531.9996, 37.94641
532.4818, 37.95816
532.9639, 39.21726
533.4460, 40.14528
533.9281, 39.84356
534.4102, 39.58021
534.8923, 40.71028
535.3745, 42.79237
535.8566, 44.25745
536.3387, 44.33299
536.8208, 43.57777
537.3029, 43.11733
537.7850, 43.06286
538.2672, 43.09382
538.7493, 43.19669
539.2314, 43.38916
539.7135, 43.58380
540.1956, 43.87746
540.6777, 44.60057
541.1599, 46.03643
541.6420, 47.70478
542.1241, 48.20966
542.6062, 47.01299
543.0883, 46.39833
543.5704, 47.42297
544.0526, 48.63464
544.5347, 49.11045
545.0168, 48.93196
545.4989, 48.72997
545.9810, 48.97201
546.4631, 49.31064
546.9453, 48.91735
547.4274, 47.82927
547.9095, 47.60878
548.3916, 49.31617
548.8737, 51.69619
549.3558, 52.35357
549.8380, 51.06337
550.3201, 50.08266
550.8022, 49.97979
551.2843, 50.22903
551.7664, 50.62793
552.2485, 51.02118
552.7307, 51.03910
553.2128, 50.45388
553.6949, 49.42698
554.1770, 48.35707
554.6591, 46.78785
555.1412, 46.03939
555.6234, 46.74510
556.1055, 47.63591
556.5876, 47.90264
557.0697, 47.66169
557.5518, 47.57290
558.0339, 48.20683
558.5161, 48.98494
558.9982, 48.43264
559.4803, 46.33820
559.9624, 44.13460
560.4445, 41.56195
560.9266, 39.69692
561.4088, 39.82964
561.8909, 41.78308
562.3730, 43.45362
562.8551, 44.34756
563.3372, 44.39169
563.8193, 42.95133
564.3015, 40.38253
564.7836, 38.60298
565.2657, 38.62731
565.7478, 39.33817
566.2299, 38.54673
566.7120, 35.00440
567.1942, 33.08576
567.6763, 34.19807
568.1584, 35.62530
568.6405, 35.85732
569.1226, 35.13616
569.6047, 34.24025
570.0869, 33.55500
570.5690, 33.17175
571.0511, 33.48965
571.5332, 34.92932
572.0153, 35.42871
572.4974, 33.88968
572.9796, 32.24885
573.4617, 31.54259
573.9438, 31.54808
574.4259, 31.57689
574.9080, 31.20921
575.3901, 30.95868
575.8723, 31.92622
576.3544, 33.73801
576.8365, 33.94942
577.3186, 31.40911
577.8007, 28.55854
578.2828, 28.45537
578.7650, 31.29606
579.2471, 32.81824
579.7292, 32.04879
580.2113, 30.84674
580.6934, 29.72602
581.1755, 28.87163
581.6577, 28.60825
582.1398, 29.01624
582.6219, 29.64470
583.1040, 29.89539
583.5861, 29.73007
584.0682, 29.49543
584.5504, 29.32829
585.0325, 28.90503
585.5146, 27.43164
585.9967, 25.94567
586.4788, 25.96408
586.9609, 27.96735
