##NAMES=Ludlamite
##RRUFFID=R040152
##IDEAL CHEMISTRY=Fe^2+^_3_(PO_4_)_2_&#183;4H_2_O
##LOCALITY=Cobalt, Lemhi County, Idaho, USA
##OWNER=RRUFF
##SOURCE=University of Arizona Mineral Museum
##DESCRIPTION=Green tabular single crystals
##STATUS=The identification of this mineral has been confirmed by X-ray diffraction and chemical analysis
##URL=rruff.info/R040152
##MEASURED CHEMISTRY=Fe_3.01_(P_1.00_O_4_)_2_Â·4H_2_O
137.4114, 1670.286
137.8935, 1686.819
138.3756, 1711.783
138.8577, 1744.302
139.3398, 1784.586
139.8220, 1832.831
140.3041, 1877.673
140.7862, 1921.684
141.2683, 1960.885
141.7504, 1989.004
142.2325, 2009.150
142.7147, 2030.894
143.1968, 2060.382
143.6789, 2098.320
144.1610, 2150.563
144.6431, 2219.164
145.1252, 2298.056
145.6074, 2392.332
146.0895, 2498.167
146.5716, 2597.937
147.0537, 2683.799
147.5358, 2750.925
148.0179, 2772.052
148.5001, 2721.906
148.9822, 2645.720
149.4643, 2571.125
149.9464, 2499.857
150.4285, 2430.711
150.9106, 2368.024
151.3928, 2308.223
151.8749, 2223.189
152.3570, 2093.254
152.8391, 1948.353
153.3212, 1809.404
153.8033, 1677.849
154.2855, 1560.028
154.7676, 1459.760
155.2497, 1377.673
155.7318, 1317.499
156.2139, 1286.981
156.6960, 1275.333
157.1782, 1271.154
157.6603, 1273.820
158.1424, 1284.501
158.6245, 1301.964
159.1066, 1328.053
159.5887, 1370.851
160.0709, 1446.276
160.5530, 1534.372
161.0351, 1603.639
161.5172, 1648.549
161.9993, 1691.626
162.4814, 1749.125
162.9636, 1815.951
163.4457, 1885.456
163.9278, 1964.088
164.4099, 2041.238
164.8920, 2095.457
165.3741, 2122.254
165.8563, 2137.928
166.3384, 2153.222
166.8205, 2164.999
167.3026, 2165.941
167.7847, 2143.049
168.2668, 2110.612
168.7490, 2099.805
169.2311, 2114.494
169.7132, 2143.310
170.1953, 2184.646
170.6774, 2234.066
171.1595, 2286.688
171.6417, 2349.371
172.1238, 2410.077
172.6059, 2440.991
173.0880, 2445.505
173.5701, 2408.972
174.0522, 2310.434
174.5344, 2174.982
175.0165, 2037.310
175.4986, 1909.575
175.9807, 1792.612
176.4628, 1686.699
176.9449, 1590.472
177.4271, 1509.615
177.9092, 1445.993
178.3913, 1396.414
178.8734, 1357.242
179.3555, 1326.630
179.8376, 1304.806
180.3197, 1293.913
180.8019, 1303.203
181.2840, 1306.967
181.7661, 1296.630
182.2482, 1277.280
182.7303, 1255.267
183.2124, 1233.932
183.6946, 1211.434
184.1767, 1181.139
184.6588, 1135.655
185.1409, 1095.807
185.6230, 1066.989
186.1051, 1045.967
186.5873, 1028.984
187.0694, 1014.361
187.5515, 1002.691
188.0336, 995.6160
188.5157, 995.3674
188.9978, 996.3557
189.4800, 994.4536
189.9621, 994.0151
190.4442, 1000.526
190.9263, 1016.798
191.4084, 1038.755
191.8905, 1055.591
192.3727, 1060.076
192.8548, 1072.958
193.3369, 1095.106
193.8190, 1126.858
194.3011, 1169.562
194.7832, 1223.837
195.2654, 1286.917
195.7475, 1353.670
196.2296, 1430.984
196.7117, 1499.394
197.1938, 1553.947
197.6759, 1601.705
198.1581, 1650.464
198.6402, 1702.748
199.1223, 1751.252
199.6044, 1781.841
200.0865, 1788.371
200.5686, 1787.563
201.0508, 1787.482
201.5329, 1778.555
202.0150, 1751.025
202.4971, 1702.842
202.9792, 1643.164
203.4613, 1585.719
203.9435, 1530.390
204.4256, 1478.168
204.9077, 1423.442
205.3898, 1374.834
205.8719, 1342.556
206.3540, 1326.657
206.8362, 1314.091
207.3183, 1285.082
207.8004, 1229.742
208.2825, 1183.723
208.7646, 1155.578
209.2467, 1129.122
209.7289, 1093.996
210.2110, 1049.860
210.6931, 1004.158
211.1752, 966.4163
211.6573, 940.4888
212.1395, 909.0140
212.6216, 867.0339
213.1037, 824.3380
213.5858, 783.9820
214.0679, 747.1913
214.5500, 715.0276
215.0322, 689.2037
215.5143, 670.7651
215.9964, 652.2974
216.4785, 629.3177
216.9606, 610.3451
217.4427, 600.7451
217.9249, 598.4389
218.4070, 597.1365
218.8891, 591.5999
219.3712, 581.6990
219.8533, 572.2690
220.3354, 564.1654
220.8176, 555.7011
221.2997, 543.9979
221.7818, 531.5992
222.2639, 523.7040
222.7460, 524.6179
223.2281, 533.3444
223.7103, 539.1237
224.1924, 542.6988
224.6745, 541.9338
225.1566, 530.9888
225.6387, 516.4855
226.1208, 508.4963
226.6030, 513.3776
227.0851, 527.9053
227.5672, 538.5487
228.0493, 542.7141
228.5314, 546.1798
229.0135, 548.0294
229.4957, 550.4306
229.9778, 556.7568
230.4599, 568.7095
230.9420, 582.9407
231.4241, 590.8200
231.9062, 587.4455
232.3884, 585.8657
232.8705, 589.5697
233.3526, 594.5391
233.8347, 596.6936
234.3168, 594.7932
234.7989, 591.7567
235.2811, 591.9651
235.7632, 594.2078
236.2453, 603.1409
236.7274, 625.6310
237.2095, 649.6301
237.6916, 668.0227
238.1738, 679.1111
238.6559, 684.8506
239.1380, 685.7601
239.6201, 678.7191
240.1022, 678.6371
240.5843, 690.7601
241.0665, 706.0622
241.5486, 721.9227
242.0307, 737.4133
242.5128, 751.4458
242.9949, 763.0860
243.4770, 772.3199
243.9592, 779.3172
244.4413, 777.9189
244.9234, 780.3603
245.4055, 796.0773
245.8876, 820.0226
246.3697, 838.6584
246.8519, 839.5675
247.3340, 825.5950
247.8161, 823.0451
248.2982, 842.2693
248.7803, 859.4797
249.2624, 865.5662
249.7446, 864.5304
250.2267, 862.8265
250.7088, 863.6238
251.1909, 866.3149
251.6730, 868.7385
252.1551, 869.1951
252.6373, 873.1053
253.1194, 883.1620
253.6015, 896.6842
254.0836, 910.7704
254.5657, 924.2037
255.0478, 938.4698
255.5300, 956.8763
256.0121, 980.8843
256.4942, 1003.293
256.9763, 1018.689
257.4584, 1033.607
257.9406, 1054.429
258.4227, 1082.690
258.9048, 1110.839
259.3869, 1131.402
259.8690, 1144.226
260.3511, 1153.261
260.8333, 1156.412
261.3154, 1158.354
261.7975, 1163.931
262.2796, 1172.813
262.7617, 1178.643
263.2438, 1173.717
263.7260, 1160.517
264.2081, 1154.884
264.6902, 1164.310
265.1723, 1172.286
265.6544, 1164.652
266.1365, 1145.410
266.6187, 1127.697
267.1008, 1117.638
267.5829, 1113.294
268.0650, 1112.287
268.5471, 1116.620
269.0292, 1117.567
269.5114, 1107.025
269.9935, 1089.121
270.4756, 1069.857
270.9577, 1051.426
271.4398, 1031.733
271.9219, 1005.293
272.4041, 971.6777
272.8862, 945.1986
273.3683, 935.6690
273.8504, 937.0664
274.3325, 936.3951
274.8146, 930.9698
275.2968, 927.3208
275.7789, 929.8862
276.2610, 937.9202
276.7431, 948.2996
277.2252, 959.6266
277.7073, 973.4395
278.1895, 992.6370
278.6716, 1017.622
279.1537, 1044.109
279.6358, 1068.520
280.1179, 1093.876
280.6000, 1125.880
281.0822, 1166.331
281.5643, 1210.690
282.0464, 1255.368
282.5285, 1300.507
283.0106, 1341.136
283.4927, 1375.468
283.9749, 1405.769
284.4570, 1435.865
284.9391, 1465.503
285.4212, 1488.979
285.9033, 1501.692
286.3854, 1503.062
286.8676, 1497.235
287.3497, 1482.681
287.8318, 1463.195
288.3139, 1437.414
288.7960, 1407.818
289.2781, 1380.878
289.7603, 1360.474
290.2424, 1344.898
290.7245, 1327.407
291.2066, 1301.842
291.6887, 1282.002
292.1708, 1273.546
292.6530, 1270.681
293.1351, 1266.043
293.6172, 1257.071
294.0993, 1246.495
294.5814, 1238.789
295.0635, 1231.510
295.5457, 1232.841
296.0278, 1247.853
296.5099, 1267.080
296.9920, 1283.394
297.4741, 1296.401
297.9562, 1310.426
298.4384, 1330.110
298.9205, 1356.121
299.4026, 1383.662
299.8847, 1422.416
300.3668, 1453.043
300.8489, 1467.871
301.3310, 1469.289
301.8131, 1462.491
302.2953, 1449.886
302.7774, 1432.939
303.2595, 1419.787
303.7416, 1417.795
304.2237, 1408.267
304.7058, 1385.711
305.1880, 1355.332
305.6701, 1321.842
306.1522, 1286.878
306.6343, 1251.379
307.1164, 1217.897
307.5985, 1188.564
308.0807, 1153.739
308.5628, 1102.903
309.0449, 1052.243
309.5270, 1012.394
310.0091, 983.8948
310.4912, 959.7906
310.9734, 935.9263
311.4555, 911.9854
311.9376, 883.9561
312.4197, 846.8502
312.9018, 812.7982
313.3839, 788.3839
313.8661, 772.2587
314.3482, 761.7087
314.8303, 760.2401
315.3124, 761.5136
315.7945, 753.0861
316.2766, 733.3873
316.7588, 713.3008
317.2409, 699.5983
317.7230, 689.0186
318.2051, 675.6215
318.6872, 655.9630
319.1693, 638.4039
319.6515, 630.6320
320.1336, 630.8773
320.6157, 631.2750
321.0978, 629.5555
321.5799, 626.2932
322.0620, 621.7679
322.5442, 615.5516
323.0263, 610.8243
323.5084, 610.0549
323.9905, 610.5926
324.4726, 609.4173
324.9547, 606.0035
325.4369, 599.9810
325.9190, 589.4731
326.4011, 573.8075
326.8832, 566.5158
327.3653, 575.2184
327.8474, 584.9254
328.3296, 586.9949
328.8117, 582.8956
329.2938, 577.7855
329.7759, 574.2289
330.2580, 572.7490
330.7401, 575.8688
331.2223, 587.1714
331.7044, 598.7064
332.1865, 611.0601
332.6686, 622.6487
333.1507, 631.5872
333.6328, 637.3605
334.1150, 641.2621
334.5971, 645.0508
335.0792, 648.2904
335.5613, 652.6208
336.0434, 658.2906
336.5255, 664.6712
337.0077, 671.4832
337.4898, 678.6974
337.9719, 686.3558
338.4540, 694.2482
338.9361, 702.5512
339.4182, 713.6940
339.9004, 734.6232
340.3825, 747.4540
340.8646, 741.6032
341.3467, 727.6656
341.8288, 719.7320
342.3109, 723.8659
342.7931, 731.8607
343.2752, 731.2422
343.7573, 720.9141
344.2394, 709.6928
344.7215, 700.1305
345.2036, 689.8423
345.6858, 675.6051
346.1679, 657.4634
346.6500, 641.4642
347.1321, 633.6948
347.6142, 630.9540
348.0963, 623.4681
348.5785, 608.7147
349.0606, 594.1039
349.5427, 587.5087
350.0248, 585.9874
350.5069, 580.7148
350.9890, 563.4517
351.4712, 547.1591
351.9533, 543.8923
352.4354, 551.6881
352.9175, 560.5671
353.3996, 566.6795
353.8817, 570.0172
354.3639, 569.7839
354.8460, 563.7999
355.3281, 559.6124
355.8102, 558.6016
356.2923, 560.3953
356.7744, 565.8668
357.2566, 574.8777
357.7387, 583.5359
358.2208, 586.8922
358.7029, 583.0548
359.1850, 584.8126
359.6671, 595.9750
360.1493, 608.0302
360.6314, 618.8964
361.1135, 627.6003
361.5956, 632.7870
362.0777, 633.5247
362.5598, 630.6998
363.0420, 627.3859
363.5241, 622.3047
364.0062, 618.8981
364.4883, 622.5277
364.9704, 624.7825
365.4525, 615.6434
365.9347, 594.2557
366.4168, 572.5225
366.8989, 566.4936
367.3810, 577.5284
367.8631, 580.4904
368.3452, 569.9629
368.8274, 556.1554
369.3095, 543.0787
369.7916, 530.9727
370.2737, 520.1923
370.7558, 510.8917
371.2379, 502.9979
371.7201, 496.6625
372.2022, 491.9843
372.6843, 488.0931
373.1664, 485.5420
373.6485, 483.0175
374.1306, 478.2962
374.6128, 470.5453
375.0949, 463.3772
375.5770, 460.8565
376.0591, 459.9191
376.5412, 453.7279
377.0233, 440.4770
377.5055, 425.0725
377.9876, 411.6997
378.4697, 400.5930
378.9518, 392.9954
379.4339, 391.6191
379.9160, 391.3693
380.3982, 388.4866
380.8803, 384.1583
381.3624, 382.9343
381.8445, 387.8237
382.3266, 395.5656
382.8087, 396.1651
383.2909, 379.6643
383.7730, 368.9234
384.2551, 368.5476
384.7372, 371.3660
385.2193, 371.7102
385.7014, 368.6289
386.1836, 364.5094
386.6657, 362.0029
387.1478, 361.2834
387.6299, 359.0744
388.1120, 355.7797
388.5941, 350.2458
389.0763, 338.5077
389.5584, 325.2173
390.0405, 318.0758
390.5226, 321.0943
391.0047, 329.2515
391.4868, 335.4318
391.9690, 339.6371
392.4511, 341.5239
392.9332, 339.9475
393.4153, 336.7910
393.8974, 333.0289
394.3795, 328.7427
394.8617, 326.7964
395.3438, 330.9687
395.8259, 337.5602
396.3080, 340.2280
396.7901, 338.2944
397.2722, 334.6959
397.7544, 330.8026
398.2365, 326.9327
398.7186, 324.3975
399.2007, 324.9620
399.6828, 324.8853
400.1649, 321.2505
400.6471, 316.3655
401.1292, 313.9477
401.6113, 315.2203
402.0934, 319.3886
402.5755, 325.9109
403.0576, 337.3636
403.5398, 342.8101
404.0219, 339.4124
404.5040, 333.5952
404.9861, 326.5048
405.4682, 319.7389
405.9503, 316.2501
406.4325, 318.2171
406.9146, 324.1003
407.3967, 328.3261
407.8788, 329.6685
408.3609, 331.8721
408.8430, 338.2119
409.3252, 343.9818
409.8073, 344.2316
410.2894, 338.6136
410.7715, 333.1661
411.2536, 333.9128
411.7357, 339.5623
412.2179, 343.1926
412.7000, 343.4439
413.1821, 343.8512
413.6642, 346.9723
414.1463, 351.9940
414.6284, 357.7499
415.1106, 367.2494
415.5927, 373.5193
416.0748, 367.7016
416.5569, 354.0338
417.0390, 346.5708
417.5211, 350.9809
418.0033, 360.0386
418.4854, 362.7364
418.9675, 356.2917
419.4496, 352.8470
419.9317, 353.2864
420.4138, 356.4728
420.8960, 363.6714
421.3781, 373.2234
421.8602, 380.5703
422.3423, 382.6098
422.8244, 380.5740
423.3065, 379.2911
423.7887, 373.4073
424.2708, 377.3517
424.7529, 405.5385
425.2350, 434.5688
425.7171, 442.7939
426.1992, 428.6790
426.6814, 409.7323
427.1635, 402.6448
427.6456, 406.3003
428.1277, 407.6314
428.6098, 404.6938
429.0919, 403.1947
429.5741, 407.5525
430.0562, 414.7892
430.5383, 420.3462
431.0204, 422.2691
431.5025, 424.2318
431.9846, 430.6640
432.4668, 439.9029
432.9489, 445.1197
433.4310, 443.5376
433.9131, 441.1039
434.3952, 445.8164
434.8773, 458.7008
435.3595, 467.3012
435.8416, 465.9391
436.3237, 464.6138
436.8058, 469.8940
437.2879, 480.2912
437.7701, 491.8368
438.2522, 502.7042
438.7343, 512.0878
439.2164, 517.5698
439.6985, 515.3890
440.1806, 515.9878
440.6628, 516.6854
441.1449, 522.1667
441.6270, 537.7919
442.1091, 561.6338
442.5912, 586.3473
443.0733, 606.9332
443.5555, 623.7722
444.0376, 637.7490
444.5197, 647.6578
445.0018, 658.0700
445.4839, 668.0059
445.9660, 680.9692
446.4482, 701.9347
446.9303, 732.2961
447.4124, 763.7347
447.8945, 793.1455
448.3766, 819.6653
448.8587, 838.8370
449.3409, 849.4330
449.8230, 862.7593
450.3051, 888.0637
450.7872, 924.6888
451.2693, 962.0577
451.7514, 1000.654
452.2336, 1039.327
452.7157, 1075.340
453.1978, 1111.958
453.6799, 1155.143
454.1620, 1206.095
454.6441, 1258.177
455.1263, 1303.457
455.6084, 1342.073
456.0905, 1372.805
456.5726, 1382.595
457.0547, 1397.512
457.5368, 1430.983
458.0190, 1473.507
458.5011, 1509.942
458.9832, 1533.992
459.4653, 1549.554
459.9474, 1560.790
460.4295, 1567.591
460.9117, 1575.654
461.3938, 1590.925
461.8759, 1600.826
462.3580, 1591.343
462.8401, 1565.863
463.3222, 1541.224
463.8044, 1526.554
464.2865, 1510.927
464.7686, 1485.218
465.2507, 1450.184
465.7328, 1408.618
466.2149, 1361.008
466.6971, 1310.139
467.1792, 1262.037
467.6613, 1217.015
468.1434, 1174.309
468.6255, 1133.489
469.1076, 1095.222
469.5898, 1061.288
470.0719, 1030.556
470.5540, 1000.236
471.0361, 968.0990
471.5182, 935.9335
472.0003, 908.0484
472.4825, 884.5479
472.9646, 865.5834
473.4467, 852.8389
473.9288, 843.7944
474.4109, 838.0061
474.8930, 835.0640
475.3752, 832.6983
475.8573, 829.5973
476.3394, 826.2565
476.8215, 822.0495
477.3036, 816.9491
477.7857, 817.5154
478.2679, 829.3580
478.7500, 847.0285
479.2321, 856.4890
479.7142, 852.9249
480.1963, 854.2652
480.6784, 865.2108
481.1606, 881.6343
481.6427, 900.7230
482.1248, 921.7740
482.6069, 944.1528
483.0890, 967.5385
483.5711, 991.8842
484.0533, 1017.511
484.5354, 1045.033
485.0175, 1072.980
485.4996, 1099.441
485.9817, 1127.347
486.4638, 1160.226
486.9460, 1197.833
487.4281, 1234.619
487.9102, 1264.632
488.3923, 1290.603
488.8744, 1320.787
489.3565, 1355.462
489.8387, 1393.168
490.3208, 1435.723
490.8029, 1479.400
491.2850, 1516.082
491.7671, 1543.174
492.2492, 1571.084
492.7314, 1607.025
493.2135, 1643.259
493.6956, 1671.474
494.1777, 1690.645
494.6598, 1703.566
495.1419, 1712.326
495.6241, 1716.606
496.1062, 1714.416
496.5883, 1702.571
497.0704, 1688.241
497.5525, 1676.294
498.0346, 1659.436
498.5168, 1628.707
498.9989, 1585.017
499.4810, 1540.245
499.9631, 1504.169
500.4452, 1474.775
500.9273, 1445.876
501.4095, 1418.148
501.8916, 1387.716
502.3737, 1351.194
502.8558, 1311.715
503.3379, 1274.390
503.8200, 1239.615
504.3022, 1206.283
504.7843, 1175.760
505.2664, 1145.546
505.7485, 1111.709
506.2306, 1074.749
506.7127, 1040.368
507.1949, 1012.098
507.6770, 989.4552
508.1591, 970.7300
508.6412, 959.4935
509.1233, 946.9526
509.6054, 929.7967
510.0876, 913.4000
510.5697, 903.2992
511.0518, 898.4396
511.5339, 892.3962
512.0161, 880.3233
512.4982, 863.9307
512.9803, 845.9561
513.4624, 825.1622
513.9445, 811.4137
514.4266, 811.4313
514.9088, 817.5878
515.3909, 819.2546
515.8730, 815.9229
516.3551, 814.8082
516.8372, 818.5055
517.3193, 825.0499
517.8015, 832.7205
518.2836, 841.5618
518.7657, 853.0801
519.2478, 868.3984
519.7299, 885.1898
520.2120, 897.7758
520.6942, 903.8356
521.1763, 910.0714
521.6584, 911.6815
522.1405, 917.8337
522.6226, 935.6706
523.1047, 962.2003
523.5869, 989.2182
524.0690, 1012.786
524.5511, 1034.189
525.0332, 1055.183
525.5153, 1075.771
525.9974, 1096.172
526.4796, 1115.597
526.9617, 1136.261
527.4438, 1161.010
527.9259, 1189.426
528.4080, 1218.138
528.8901, 1244.287
529.3723, 1273.037
529.8544, 1310.166
530.3365, 1351.663
530.8186, 1388.929
531.3007, 1419.283
531.7828, 1446.931
532.2650, 1476.856
532.7471, 1508.376
533.2292, 1547.340
533.7113, 1603.263
534.1934, 1656.055
534.6755, 1695.246
535.1577, 1729.368
535.6398, 1771.598
536.1219, 1826.636
536.6040, 1882.710
537.0861, 1921.915
537.5682, 1952.989
538.0504, 2007.316
538.5325, 2090.509
539.0146, 2179.366
539.4967, 2257.158
539.9788, 2326.652
540.4609, 2400.162
540.9431, 2477.787
541.4252, 2559.655
541.9073, 2647.747
542.3894, 2738.731
542.8715, 2829.899
543.3536, 2921.093
543.8358, 3014.384
544.3179, 3113.561
544.8000, 3214.323
545.2821, 3297.262
545.7642, 3359.009
546.2463, 3412.049
546.7285, 3463.016
547.2106, 3502.677
547.6926, 3525.856
548.1747, 3531.889
548.6569, 3518.355
549.1390, 3476.658
549.6211, 3420.072
550.1032, 3365.480
550.5853, 3309.747
551.0674, 3237.579
551.5496, 3140.865
552.0317, 3031.035
552.5138, 2925.008
552.9959, 2820.520
553.4780, 2726.940
553.9601, 2650.356
554.4423, 2576.054
554.9244, 2490.244
555.4065, 2405.186
555.8886, 2343.704
556.3707, 2314.458
556.8528, 2294.130
557.3350, 2255.305
557.8171, 2199.793
558.2992, 2139.951
558.7813, 2073.141
559.2634, 2014.082
559.7455, 1975.355
560.2277, 1951.858
560.7098, 1926.258
561.1919, 1900.639
561.6740, 1868.900
562.1561, 1827.661
562.6382, 1780.275
563.1204, 1726.320
563.6025, 1668.418
564.0846, 1616.518
564.5667, 1578.835
565.0488, 1549.926
565.5309, 1505.887
566.0131, 1437.299
566.4952, 1377.498
566.9773, 1340.889
567.4594, 1307.672
567.9415, 1265.270
568.4236, 1214.908
568.9058, 1165.134
569.3879, 1116.141
569.8700, 1072.085
570.3521, 1040.288
570.8342, 1017.089
571.3163, 989.7431
571.7985, 954.1467
572.2806, 915.2411
572.7627, 878.3246
573.2448, 842.7892
573.7269, 814.0679
574.2090, 795.7652
574.6912, 779.2299
575.1733, 764.1131
575.6554, 748.7242
576.1375, 729.4769
576.6196, 706.2911
577.1017, 686.3239
577.5839, 679.2642
578.0660, 680.5569
578.5481, 674.2511
579.0302, 659.4160
579.5123, 642.9866
579.9944, 626.3873
580.4766, 611.5827
580.9587, 603.8188
581.4408, 605.2135
581.9229, 603.3322
582.4050, 593.5034
582.8871, 582.6296
583.3693, 574.6237
583.8514, 569.3435
584.3335, 566.2574
584.8156, 565.1999
585.2977, 563.6394
585.7798, 556.1146
586.2620, 541.7069
586.7441, 532.3300
587.2262, 528.9774
587.7083, 529.9389
588.1904, 538.0314
588.6725, 548.7679
589.1547, 554.5262
589.6368, 553.0874
590.1189, 549.9256
590.6010, 545.5308
591.0831, 542.0529
591.5652, 543.3348
592.0474, 548.8578
592.5295, 553.6803
593.0116, 554.2069
593.4937, 552.6373
593.9758, 557.2411
594.4579, 575.7121
594.9401, 581.9846
595.4222, 559.1878
595.9043, 537.0350
596.3864, 530.4652
596.8685, 536.4338
597.3506, 546.5939
597.8328, 561.8312
598.3149, 572.4826
598.7970, 566.4617
599.2791, 549.3299
599.7612, 534.9066
600.2433, 525.7998
600.7255, 519.3971
601.2076, 513.0862
601.6897, 507.5079
602.1718, 508.0717
602.6539, 527.8818
603.1360, 535.6105
603.6182, 518.9250
604.1003, 497.4219
604.5824, 485.2384
605.0645, 482.2798
605.5466, 481.0105
606.0287, 477.1432
606.5109, 472.5228
606.9930, 471.6489
607.4751, 473.4844
607.9572, 468.0856
608.4393, 450.8614
608.9214, 434.1443
609.4036, 431.0635
609.8857, 441.7090
610.3678, 449.4833
610.8499, 454.3627
611.3320, 456.6946
611.8141, 455.5423
612.2963, 452.5152
612.7784, 449.3696
613.2605, 446.1590
613.7426, 441.1264
614.2247, 430.6752
614.7068, 419.3393
615.1890, 419.5853
615.6711, 431.8883
616.1532, 445.6817
616.6353, 459.3711
617.1174, 470.8517
617.5995, 477.4745
618.0817, 479.1279
618.5638, 478.7927
619.0459, 472.3094
619.5280, 468.7843
620.0101, 474.1595
620.4922, 483.2754
620.9744, 488.9227
621.4565, 490.2249
621.9386, 492.6014
622.4207, 501.6454
622.9028, 515.3612
623.3849, 525.9012
623.8671, 533.0086
624.3492, 538.0966
624.8313, 539.7740
625.3134, 541.6740
625.7955, 549.1429
626.2776, 561.8123
626.7598, 572.5887
627.2419, 582.1192
627.7240, 587.7598
628.2061, 584.1435
628.6882, 577.3405
629.1703, 577.1344
629.6525, 585.1371
630.1346, 594.0704
630.6167, 596.2833
631.0988, 593.3800
631.5809, 595.0568
632.0630, 602.9772
632.5452, 608.9937
633.0273, 610.2747
633.5094, 608.9486
