##NAMES=Ludlockite
##RRUFFID=R100176
##IDEAL CHEMISTRY=Pb^2+^Fe^3+^_4_As^3+^_10_O_22_
##LOCALITY=Tsumeb, Namibia
##OWNER=RRUFF
##SOURCE=William W. Pinch
##DESCRIPTION=Red fibrous crystals that display significant flexibility
##STATUS=The identification of this mineral has been confirmed by single-crystal X-ray diffraction.
##URL=rruff.info/R100176
176.8520, 74.15395
177.3341, 74.96281
177.8163, 75.65932
178.2984, 75.61684
178.7805, 75.19519
179.2626, 74.93879
179.7447, 74.87534
180.2268, 74.79563
180.7090, 74.35355
181.1911, 73.69176
181.6732, 73.26186
182.1553, 73.34191
182.6374, 73.78394
183.1195, 74.29603
183.6017, 74.88034
184.0838, 75.51210
184.5659, 76.12744
185.0480, 76.75085
185.5301, 77.54656
186.0123, 78.87331
186.4944, 80.46040
186.9765, 81.31140
187.4586, 81.29482
187.9407, 80.94824
188.4228, 80.89355
188.9050, 81.12685
189.3871, 81.66460
189.8692, 82.81349
190.3513, 84.36958
190.8334, 85.25790
191.3155, 85.33104
191.7977, 84.97559
192.2798, 84.65639
192.7619, 84.37267
193.2440, 84.35340
193.7261, 84.86370
194.2082, 85.84435
194.6904, 86.56790
195.1725, 86.91518
195.6546, 87.15691
196.1367, 87.96060
196.6188, 89.40124
197.1009, 90.49141
197.5831, 90.34788
198.0652, 88.97757
198.5473, 88.58981
199.0294, 89.52557
199.5115, 91.17847
199.9937, 92.32640
200.4758, 92.89502
200.9579, 93.35242
201.4400, 93.92781
201.9221, 94.62730
202.4042, 95.39192
202.8864, 96.32602
203.3685, 97.21577
203.8506, 97.44925
204.3327, 96.87161
204.8148, 96.26009
205.2969, 95.90775
205.7791, 95.75413
206.2612, 96.37539
206.7433, 98.07539
207.2254, 100.3605
207.7075, 101.9637
208.1896, 102.7689
208.6718, 103.2468
209.1539, 104.0098
209.6360, 105.5140
210.1181, 104.6369
210.6002, 99.99680
211.0823, 93.54394
211.5645, 91.26331
212.0466, 94.73206
212.5287, 98.62662
213.0108, 99.84007
213.4929, 97.47749
213.9750, 95.99753
214.4572, 95.72060
214.9393, 96.44206
215.4214, 97.82826
215.9035, 100.5397
216.3856, 102.5799
216.8678, 102.4899
217.3499, 99.22480
217.8320, 97.29369
218.3141, 97.22457
218.7962, 98.52877
219.2783, 99.71537
219.7605, 100.6432
220.2426, 101.6851
220.7247, 102.8653
221.2068, 103.7498
221.6889, 106.1420
222.1710, 110.9197
222.6532, 117.0620
223.1353, 121.1659
223.6174, 122.6490
224.0995, 123.1484
224.5816, 123.5098
225.0637, 124.0044
225.5459, 123.6065
226.0280, 121.8519
226.5101, 119.2803
226.9922, 117.6242
227.4743, 117.2332
227.9564, 117.1788
228.4386, 116.9809
228.9207, 116.4115
229.4028, 116.2549
229.8849, 116.5625
230.3670, 117.2742
230.8492, 118.2394
231.3313, 119.4223
231.8134, 120.8937
232.2955, 122.7447
232.7776, 125.1107
233.2597, 127.4876
233.7419, 129.9211
234.2240, 132.3605
234.7061, 134.5758
235.1882, 136.3866
235.6703, 138.2455
236.1524, 140.3296
236.6346, 142.5365
237.1167, 145.2231
237.5988, 148.5679
238.0809, 152.3278
238.5630, 156.0039
239.0451, 159.5120
239.5273, 163.0206
240.0094, 166.5433
240.4915, 169.9156
240.9736, 173.8334
241.4557, 178.8463
241.9378, 184.1815
242.4200, 188.1311
242.9021, 189.9632
243.3842, 191.6156
243.8663, 194.0080
244.3484, 197.9044
244.8306, 200.2254
245.3127, 200.6088
245.7948, 199.5990
246.2769, 198.1788
246.7590, 196.5505
247.2411, 194.2011
247.7233, 190.8335
248.2054, 186.1380
248.6875, 181.6050
249.1696, 177.5186
249.6517, 173.4546
250.1338, 168.7063
250.6160, 162.9566
251.0981, 157.0570
251.5802, 151.1606
252.0623, 145.0408
252.5444, 139.9518
253.0265, 136.2734
253.5087, 133.3497
253.9908, 130.3136
254.4729, 126.9579
254.9550, 123.8677
255.4371, 121.2034
255.9192, 119.0116
256.4014, 117.0531
256.8835, 115.3298
257.3656, 113.8383
257.8477, 112.5565
258.3298, 111.5720
258.8120, 110.5840
259.2941, 109.4454
259.7762, 108.1218
260.2583, 107.1799
260.7404, 106.7121
261.2225, 106.4963
261.7047, 106.3097
262.1868, 106.1830
262.6689, 105.9920
263.1510, 105.6748
263.6331, 105.2391
264.1152, 104.8937
264.5974, 104.6188
265.0795, 104.4687
265.5616, 104.5542
266.0437, 104.9940
266.5258, 105.2792
267.0079, 105.2849
267.4901, 105.0454
267.9722, 104.8937
268.4543, 104.9342
268.9364, 104.8567
269.4185, 104.2057
269.9006, 102.6655
270.3828, 102.0282
270.8649, 102.9638
271.3470, 104.9715
271.8291, 105.5740
272.3112, 104.4009
272.7933, 102.7977
273.2755, 101.6610
273.7576, 101.0016
274.2397, 100.7477
274.7218, 101.1099
275.2039, 101.7485
275.6860, 101.4346
276.1682, 99.87035
276.6503, 98.46301
277.1324, 98.38917
277.6145, 99.81250
278.0966, 100.2495
278.5787, 99.12884
279.0609, 97.37881
279.5430, 97.17687
280.0251, 98.74001
280.5072, 100.5433
280.9893, 101.8794
281.4715, 102.7407
281.9536, 103.1985
282.4357, 103.1716
282.9178, 102.9051
283.3999, 102.7433
283.8820, 102.6787
284.3642, 102.8204
284.8463, 103.4202
285.3284, 104.4008
285.8105, 104.7983
286.2926, 104.5212
286.7747, 103.9385
287.2569, 103.5154
287.7390, 103.2461
288.2211, 103.0157
288.7032, 102.9815
289.1853, 102.9796
289.6674, 102.1310
290.1496, 100.3340
290.6317, 98.34919
291.1138, 97.05055
291.5959, 96.35233
292.0780, 95.69680
292.5602, 94.91763
293.0423, 94.04574
293.5244, 93.17104
294.0065, 92.30109
294.4886, 91.35882
294.9707, 90.08066
295.4529, 88.61691
295.9350, 87.55344
296.4171, 87.13456
296.8992, 87.09394
297.3813, 87.05051
297.8634, 86.99852
298.3456, 86.86366
298.8277, 86.50332
299.3098, 86.02319
299.7919, 85.70386
300.2740, 85.72257
300.7561, 85.71351
301.2383, 84.98105
301.7204, 83.69954
302.2025, 82.71375
302.6846, 82.83361
303.1667, 83.49918
303.6488, 83.85093
304.1310, 83.69746
304.6131, 83.40164
305.0952, 83.31139
305.5773, 83.36578
306.0594, 83.40014
306.5415, 83.23685
307.0237, 83.05370
307.5058, 83.07356
307.9879, 83.34460
308.4700, 83.62587
308.9521, 83.77103
309.4343, 83.79685
309.9164, 83.73880
310.3985, 83.54066
310.8806, 83.31176
311.3627, 83.07108
311.8448, 82.81577
312.3270, 82.75597
312.8091, 83.13853
313.2912, 83.74815
313.7733, 84.33057
314.2554, 84.84238
314.7375, 85.26447
315.2197, 85.52729
315.7018, 85.65682
316.1839, 85.84583
316.6660, 86.22889
317.1481, 86.68571
317.6302, 87.13029
318.1124, 87.81876
318.5945, 88.15372
319.0766, 87.55134
319.5587, 86.34341
320.0408, 85.67022
320.5229, 86.19394
321.0051, 87.13583
321.4872, 88.09718
321.9693, 89.07247
322.4514, 89.93852
322.9335, 90.67741
323.4156, 91.28971
323.8978, 91.77621
324.3799, 91.80229
324.8620, 91.99380
325.3441, 92.66318
325.8262, 94.06873
326.3083, 95.18269
326.7905, 95.64783
327.2726, 95.87300
327.7547, 96.35471
328.2368, 97.61466
328.7189, 98.61013
329.2010, 99.07006
329.6832, 98.93686
330.1653, 98.87415
330.6474, 98.92723
331.1295, 99.01848
331.6116, 99.07678
332.0938, 98.99590
332.5759, 99.05772
333.0580, 99.36332
333.5401, 99.86922
334.0222, 100.2339
334.5043, 100.4442
334.9865, 100.5359
335.4686, 100.5415
335.9507, 100.4962
336.4328, 100.2405
336.9149, 99.65310
337.3970, 98.89937
337.8792, 98.45315
338.3613, 98.38046
338.8434, 98.40949
339.3255, 98.47518
339.8076, 98.61174
340.2898, 98.47057
340.7719, 97.93700
341.2540, 97.32380
341.7361, 97.09705
342.2182, 97.28781
342.7003, 97.61245
343.1825, 98.01897
343.6646, 98.48947
344.1467, 98.86419
344.6288, 99.13251
345.1109, 99.37334
345.5930, 99.56815
346.0752, 99.74732
346.5573, 100.2814
347.0394, 101.4273
347.5215, 102.8389
348.0036, 103.7192
348.4857, 104.0740
348.9679, 104.3561
349.4500, 104.9870
349.9321, 105.8194
350.4142, 106.3965
350.8963, 106.5963
351.3784, 106.6651
351.8606, 106.9627
352.3427, 107.4144
352.8248, 107.7490
353.3069, 107.6158
353.7890, 107.3478
354.2711, 107.4197
354.7533, 107.8880
355.2354, 108.5012
355.7175, 109.3298
356.1996, 110.1225
356.6817, 110.4404
357.1638, 109.4193
357.6460, 108.3473
358.1281, 108.3242
358.6102, 109.2865
359.0923, 110.3000
359.5744, 110.8891
360.0565, 111.2429
360.5387, 111.5367
361.0208, 111.7367
361.5029, 111.9902
361.9850, 112.2972
362.4671, 112.6955
362.9492, 113.3010
363.4314, 114.6370
363.9135, 115.8405
364.3956, 116.2914
364.8777, 115.3389
365.3598, 115.0069
365.8419, 116.4411
366.3241, 118.5926
366.8062, 119.8786
367.2883, 119.3567
367.7704, 118.6456
368.2526, 118.0447
368.7347, 117.5009
369.2168, 117.4655
369.6989, 118.6106
370.1810, 119.8488
370.6631, 120.2743
371.1453, 119.2500
371.6274, 118.3585
372.1095, 117.8345
372.5916, 117.6092
373.0737, 117.2381
373.5558, 116.6556
374.0380, 116.0199
374.5201, 115.4595
375.0022, 115.1144
375.4843, 114.3340
375.9664, 112.8569
376.4485, 111.1462
376.9307, 110.1773
377.4128, 110.1342
377.8949, 110.0893
378.3770, 109.6926
378.8591, 108.9582
379.3412, 108.0495
379.8234, 106.9221
380.3055, 105.8038
380.7876, 105.1094
381.2697, 104.7931
381.7518, 104.0963
382.2339, 102.6062
382.7161, 100.7790
383.1982, 99.79417
383.6803, 99.63169
384.1624, 99.45509
384.6445, 98.37093
385.1266, 96.81002
385.6088, 95.95251
386.0909, 96.14381
386.5730, 96.54154
387.0551, 96.01901
387.5372, 94.87888
388.0193, 93.97886
388.5015, 94.01382
388.9836, 94.39299
389.4657, 94.44884
389.9478, 94.13486
390.4299, 93.86053
390.9120, 94.16443
391.3942, 94.58935
391.8763, 94.56236
392.3584, 93.42406
392.8405, 92.22901
393.3226, 91.44261
393.8047, 91.03613
394.2869, 90.87812
394.7690, 90.96369
395.2511, 91.25044
395.7332, 91.75317
396.2154, 92.64907
396.6975, 93.39146
397.1796, 93.90771
397.6617, 94.19823
398.1438, 94.26502
398.6259, 93.65258
399.1081, 93.26168
399.5902, 93.47563
400.0723, 94.43620
400.5544, 95.00859
401.0365, 94.92862
401.5186, 94.65427
402.0008, 94.55448
402.4829, 94.68761
402.9650, 94.88145
403.4471, 95.12841
403.9292, 95.42217
404.4113, 95.71899
404.8935, 95.98859
405.3756, 96.33327
405.8577, 96.90382
406.3398, 97.78098
406.8219, 98.18726
407.3040, 97.98130
407.7862, 97.56285
408.2683, 97.52113
408.7504, 97.86723
409.2325, 98.24660
409.7146, 98.48499
410.1967, 98.67836
410.6789, 99.36237
411.1610, 100.5691
411.6431, 101.4754
412.1252, 100.8266
412.6073, 99.26877
413.0894, 98.81961
413.5716, 100.2492
414.0537, 102.0871
414.5358, 102.3330
415.0179, 101.4180
415.5000, 100.7607
415.9821, 101.2765
416.4643, 102.3655
416.9464, 103.5490
417.4285, 104.8028
417.9106, 105.8125
418.3927, 106.1405
418.8748, 106.1868
419.3570, 106.4204
419.8391, 107.0444
420.3212, 107.8445
420.8033, 108.9511
421.2854, 110.2389
421.7675, 111.1465
422.2497, 111.2705
422.7318, 111.1471
423.2139, 111.0499
423.6960, 111.0431
424.1781, 110.9971
424.6602, 110.9123
425.1424, 110.7787
425.6245, 110.5810
426.1066, 110.3198
426.5887, 109.9959
427.0709, 109.5580
427.5530, 109.0057
428.0351, 108.6531
428.5172, 108.6110
428.9993, 108.6091
429.4814, 108.3912
429.9636, 107.8128
430.4457, 107.6299
430.9278, 108.0741
431.4099, 108.7773
431.8920, 108.9277
432.3741, 108.4839
432.8563, 107.8092
433.3384, 106.8743
433.8205, 105.7780
434.3026, 105.2556
434.7847, 105.3339
435.2668, 105.7324
435.7490, 106.3639
436.2311, 107.1198
436.7132, 107.5844
437.1953, 107.6075
437.6774, 107.3494
438.1595, 106.9410
438.6417, 106.4140
439.1238, 105.8996
439.6059, 105.3987
440.0880, 104.9911
440.5701, 104.7798
441.0522, 104.7909
441.5344, 104.8933
442.0165, 105.0863
442.4986, 105.2963
442.9807, 105.4318
443.4628, 105.3552
443.9449, 105.3031
444.4271, 105.3484
444.9092, 105.4904
445.3913, 105.7196
445.8734, 105.8524
446.3555, 106.2042
446.8376, 107.0368
447.3198, 109.0680
447.8019, 110.1620
448.2840, 109.5892
448.7661, 108.3466
449.2482, 107.8218
449.7303, 108.3860
450.2125, 109.0632
450.6946, 109.7514
451.1767, 110.4286
451.6588, 110.6080
452.1409, 109.9827
452.6230, 109.5753
453.1052, 110.3132
453.5873, 112.3233
454.0694, 113.8153
454.5515, 114.5347
455.0337, 114.9215
455.5158, 115.7001
455.9979, 116.8499
456.4800, 117.9670
456.9621, 118.7463
457.4442, 119.4221
457.9264, 120.7210
458.4085, 122.6102
458.8906, 124.3583
459.3727, 125.0414
459.8548, 125.2596
460.3369, 126.0104
460.8191, 127.6981
461.3012, 129.5335
461.7833, 130.7920
462.2654, 131.7356
462.7475, 132.9028
463.2296, 134.6427
463.7118, 136.5923
464.1939, 138.6746
464.6760, 140.9049
465.1581, 142.8367
465.6402, 144.0478
466.1223, 145.0631
466.6045, 146.2341
467.0866, 147.7630
467.5687, 149.2464
468.0508, 150.6335
468.5329, 151.9688
469.0150, 153.3728
469.4972, 154.8447
469.9793, 156.3667
470.4614, 157.9986
470.9435, 159.7657
471.4256, 161.1108
471.9077, 161.9242
472.3899, 162.5400
472.8720, 163.2099
473.3541, 163.9404
473.8362, 164.8494
474.3183, 166.1078
474.8004, 167.3231
475.2826, 167.4083
475.7647, 166.4652
476.2468, 165.9490
476.7289, 167.0265
477.2110, 168.9741
477.6931, 170.1401
478.1753, 170.5171
478.6574, 170.6847
479.1395, 171.1559
479.6216, 171.7127
480.1037, 171.9999
480.5858, 171.7760
481.0680, 171.5497
481.5501, 171.8752
482.0322, 172.4515
482.5143, 172.6450
482.9964, 171.8749
483.4786, 170.9571
483.9607, 170.3438
484.4428, 170.1071
484.9249, 169.5960
485.4070, 168.2884
485.8892, 166.9192
486.3713, 166.0324
486.8534, 166.4180
487.3355, 166.1231
487.8176, 164.7585
488.2997, 162.8034
488.7819, 161.2493
489.2640, 160.2179
489.7461, 159.3071
490.2282, 158.4456
490.7103, 157.6119
491.1924, 156.5807
491.6746, 155.3279
492.1567, 153.9461
492.6388, 152.3992
493.1209, 150.7214
493.6030, 149.4295
494.0851, 148.6259
494.5673, 148.0713
495.0494, 147.5855
495.5315, 147.0972
496.0136, 146.3698
496.4957, 145.0238
496.9778, 143.5381
497.4600, 142.4157
497.9421, 141.6414
498.4242, 140.9764
498.9063, 140.5369
499.3884, 139.9922
499.8705, 138.9613
500.3527, 137.0975
500.8348, 135.4486
501.3169, 134.6275
501.7990, 134.2061
502.2811, 133.5754
502.7632, 132.5462
503.2454, 131.3978
503.7275, 130.0012
504.2096, 128.4247
504.6917, 127.3763
505.1738, 127.1345
505.6559, 127.0589
506.1381, 126.8410
506.6202, 126.4628
507.1023, 126.0143
507.5844, 125.4845
508.0665, 124.9088
508.5486, 124.3105
509.0308, 123.6845
509.5129, 123.1540
509.9950, 122.7402
510.4771, 122.4423
510.9592, 122.3417
511.4413, 122.4076
511.9235, 122.3627
512.4056, 121.9036
512.8877, 121.2689
513.3698, 120.7640
513.8519, 120.4052
514.3340, 120.2661
514.8162, 120.7365
515.2983, 121.3350
515.7804, 121.4617
516.2625, 120.4690
516.7446, 119.5753
517.2267, 119.2562
517.7089, 119.4021
518.1910, 119.7503
518.6731, 120.4734
519.1552, 121.1808
519.6373, 121.6539
520.1194, 121.8420
520.6016, 122.3894
521.0837, 123.7088
521.5658, 124.9189
522.0479, 125.2923
522.5300, 124.5227
523.0121, 124.0059
523.4943, 123.8337
523.9764, 123.9530
524.4585, 124.3127
524.9406, 124.9093
525.4227, 125.6367
525.9048, 126.6428
526.3870, 127.6598
526.8691, 127.8869
527.3513, 127.3734
527.8334, 126.8540
528.3155, 126.8463
528.7976, 127.1649
529.2797, 127.5582
529.7618, 128.0029
530.2440, 128.4818
530.7261, 129.0619
531.2082, 129.6411
531.6903, 130.0783
532.1724, 130.2628
532.6545, 130.3721
533.1367, 130.2807
533.6188, 130.1250
534.1009, 130.3850
534.5830, 131.8509
535.0651, 133.0440
535.5472, 133.3669
536.0294, 132.6577
536.5115, 132.2556
536.9936, 132.1812
537.4757, 132.3862
537.9578, 132.9586
538.4399, 134.0291
538.9221, 134.5941
539.4042, 134.3951
539.8863, 133.9319
540.3684, 134.1013
540.8505, 134.8642
541.3326, 135.7861
541.8148, 137.0229
542.2969, 138.1074
542.7790, 137.8298
543.2611, 136.3829
543.7432, 135.2947
544.2253, 136.0267
544.7075, 137.4162
545.1896, 138.2778
545.6717, 138.4008
546.1538, 138.2775
546.6359, 138.1306
547.1180, 137.8716
547.6002, 137.4077
548.0823, 136.3782
548.5644, 135.5315
549.0465, 135.3280
549.5286, 135.4144
550.0107, 134.7276
550.4929, 132.6676
550.9750, 130.7375
551.4571, 129.4762
551.9392, 128.8831
552.4213, 128.0565
552.9034, 126.9405
553.3856, 125.7519
553.8677, 124.6425
554.3498, 123.6108
554.8319, 122.7034
555.3140, 121.9913
555.7961, 121.1533
556.2783, 119.6140
556.7604, 117.6017
557.2425, 115.7684
557.7246, 114.3063
558.2067, 113.1750
558.6888, 112.6051
559.1710, 112.4021
559.6531, 111.9063
560.1352, 110.3675
560.6173, 108.7849
561.0994, 107.8284
561.5815, 107.6255
562.0637, 107.3442
562.5458, 106.7334
563.0279, 106.0449
563.5100, 105.4530
563.9921, 104.9656
564.4742, 104.5621
564.9564, 104.2649
565.4385, 104.0312
565.9206, 103.8009
566.4027, 103.5810
566.8848, 103.3378
567.3669, 103.0871
567.8491, 102.7937
568.3312, 102.2413
568.8133, 101.4483
569.2954, 100.8593
569.7775, 100.8142
570.2596, 101.1585
570.7418, 101.7967
571.2239, 102.7481
571.7060, 103.3375
572.1881, 102.5961
572.6702, 101.4198
573.1523, 100.8369
573.6345, 101.4738
574.1166, 102.0692
574.5987, 102.0003
575.0808, 101.6160
575.5629, 101.4953
576.0450, 102.2843
576.5272, 102.7100
577.0093, 102.3223
577.4914, 101.2950
577.9735, 100.7898
578.4556, 100.9832
578.9377, 101.3489
579.4199, 101.7776
579.9020, 102.2757
580.3841, 102.0582
580.8662, 101.0270
581.3483, 99.82478
581.8304, 98.90672
582.3126, 98.33337
582.7947, 98.45717
583.2768, 99.55997
583.7589, 100.7094
584.2410, 100.7575
584.7231, 100.1342
585.2053, 99.69009
585.6874, 99.96262
586.1696, 100.3416
586.6517, 100.5579
587.1338, 100.6151
587.6159, 100.5528
588.0980, 99.96632
588.5801, 99.62836
589.0623, 100.0985
589.5444, 101.6258
590.0265, 102.2066
590.5086, 101.2548
590.9907, 100.1072
591.4728, 99.98220
591.9550, 101.1683
592.4371, 101.3729
592.9192, 100.1343
593.4013, 98.58043
593.8834, 98.54163
594.3655, 99.78336
594.8477, 100.8118
595.3298, 101.0386
595.8119, 100.9444
596.2940, 101.1923
596.7761, 101.6721
597.2582, 102.0207
597.7404, 101.8024
598.2225, 101.5693
598.7046, 101.8745
599.1867, 102.7307
599.6688, 103.1659
600.1509, 102.3811
600.6331, 101.4535
601.1152, 101.1109
601.5973, 101.8103
602.0794, 102.0177
602.5615, 101.3616
603.0436, 100.5679
603.5258, 100.5420
604.0079, 101.4554
604.4900, 102.2046
604.9721, 102.5798
605.4542, 102.7469
605.9363, 103.0890
606.4185, 103.5668
606.9006, 103.8382
607.3827, 103.5323
607.8648, 103.0611
608.3469, 103.1138
608.8290, 103.5989
609.3112, 103.9971
609.7933, 103.6713
610.2754, 103.3724
610.7575, 103.8932
611.2396, 105.4819
611.7217, 106.4640
612.2039, 105.6273
612.6860, 104.4653
613.1681, 104.1418
613.6502, 105.4341
614.1323, 106.2573
614.6144, 106.4852
615.0966, 106.3225
615.5787, 105.9848
616.0608, 105.4200
616.5429, 105.0110
617.0250, 104.8001
617.5071, 104.8520
617.9893, 105.5340
618.4714, 106.7495
618.9535, 107.7100
619.4356, 107.7167
619.9177, 107.4125
620.3998, 107.8177
620.8820, 108.8293
621.3641, 109.4349
621.8462, 108.2429
622.3283, 107.0018
622.8104, 107.1388
623.2925, 109.2150
623.7747, 111.0834
624.2568, 112.5508
624.7389, 113.5232
625.2210, 113.8562
625.7031, 113.0527
626.1852, 112.6910
626.6674, 112.8762
627.1495, 113.5123
627.6316, 114.7507
628.1137, 116.6494
628.5958, 117.6254
629.0779, 116.8140
629.5601, 115.2896
630.0422, 115.2791
630.5243, 116.5189
631.0064, 117.7578
631.4885, 118.1902
631.9706, 118.3768
632.4528, 118.9709
632.9349, 119.9227
633.4170, 120.5198
633.8991, 119.8641
634.3812, 119.2009
634.8633, 119.3961
635.3455, 120.9795
635.8276, 121.9792
636.3097, 122.0736
636.7918, 121.8215
637.2739, 121.6541
637.7560, 121.5671
638.2382, 121.6339
638.7203, 121.9663
639.2024, 122.2442
639.6845, 121.7829
640.1666, 120.6993
640.6487, 119.9849
641.1309, 120.0046
641.6130, 120.4306
642.0951, 121.0562
642.5772, 121.7429
643.0594, 122.0746
643.5415, 121.5294
644.0236, 120.8517
644.5057, 120.5409
644.9879, 120.5568
645.4700, 120.3942
645.9521, 119.4910
646.4342, 118.8022
646.9163, 118.8580
647.3984, 119.8523
647.8806, 120.2320
648.3627, 119.7086
648.8448, 119.1258
649.3269, 119.1944
649.8090, 119.9181
650.2911, 120.7308
650.7733, 121.6573
651.2554, 122.4207
651.7375, 122.4017
652.2196, 121.9793
652.7017, 122.1375
653.1838, 123.3978
653.6660, 124.8217
654.1481, 125.7390
654.6302, 126.3022
655.1123, 126.7931
655.5944, 126.9305
656.0765, 127.3934
656.5587, 128.5970
657.0408, 130.3543
657.5229, 131.8111
658.0050, 132.8128
658.4871, 133.7245
658.9692, 134.6544
659.4514, 135.5992
659.9335, 136.5431
660.4156, 137.4869
660.8977, 138.3944
661.3798, 139.1407
661.8619, 139.8284
662.3441, 140.8974
662.8262, 142.3895
663.3083, 143.6263
663.7904, 143.8090
664.2725, 143.5719
664.7546, 143.6337
665.2368, 144.2668
665.7189, 144.8640
666.2010, 145.2031
666.6831, 145.4167
667.1652, 145.6560
667.6473, 145.9902
668.1295, 146.2527
668.6116, 146.4090
669.0937, 146.5095
669.5758, 146.7141
670.0579, 147.0642
670.5400, 147.1198
671.0222, 146.6883
671.5043, 145.9478
671.9864, 145.1851
672.4685, 144.4143
672.9506, 143.7101
673.4327, 143.1988
673.9149, 142.7160
674.3970, 142.1589
674.8791, 141.5069
