##NAMES=Ludlockite
##RRUFFID=R100176
##IDEAL CHEMISTRY=Pb^2+^Fe^3+^_4_As^3+^_10_O_22_
##LOCALITY=Tsumeb, Namibia
##OWNER=RRUFF
##SOURCE=William W. Pinch
##DESCRIPTION=Red fibrous crystals that display significant flexibility
##STATUS=The identification of this mineral has been confirmed by single-crystal X-ray diffraction.
##URL=rruff.info/R100176
116.6397, 1287.505
117.1219, 1287.142
117.6040, 1290.288
118.0861, 1293.958
118.5682, 1297.765
119.0503, 1302.224
119.5324, 1307.497
120.0146, 1313.661
120.4967, 1320.911
120.9788, 1329.574
121.4609, 1341.224
121.9430, 1352.003
122.4251, 1362.145
122.9073, 1371.366
123.3894, 1379.292
123.8715, 1385.851
124.3536, 1390.941
124.8357, 1393.795
125.3178, 1393.651
125.8000, 1393.601
126.2821, 1394.476
126.7642, 1396.293
127.2463, 1399.138
127.7284, 1403.298
128.2105, 1408.504
128.6927, 1414.085
129.1748, 1420.198
129.6569, 1426.418
130.1390, 1432.199
130.6211, 1437.402
131.1032, 1443.011
131.5854, 1449.831
132.0675, 1457.197
132.5496, 1464.496
133.0317, 1471.467
133.5138, 1478.311
133.9959, 1485.588
134.4781, 1493.517
134.9602, 1501.643
135.4423, 1507.759
135.9244, 1514.352
136.4065, 1524.873
136.8886, 1541.820
137.3708, 1564.796
137.8529, 1586.740
138.3350, 1605.517
138.8171, 1625.438
139.2992, 1648.244
139.7813, 1673.172
140.2635, 1698.731
140.7456, 1723.881
141.2277, 1749.062
141.7098, 1769.357
142.1919, 1786.543
142.6740, 1798.671
143.1561, 1804.373
143.6383, 1803.662
144.1204, 1797.753
144.6025, 1787.296
145.0846, 1771.498
145.5667, 1754.217
146.0488, 1734.316
146.5310, 1713.608
147.0131, 1693.841
147.4952, 1675.244
147.9773, 1657.867
148.4594, 1641.508
148.9415, 1626.065
149.4237, 1612.198
149.9058, 1600.732
150.3879, 1591.080
150.8700, 1581.626
151.3521, 1571.264
151.8342, 1562.309
152.3164, 1556.418
152.7985, 1553.385
153.2806, 1551.489
153.7627, 1549.192
154.2448, 1546.440
154.7269, 1545.498
155.2091, 1546.479
155.6912, 1549.789
156.1733, 1556.094
156.6554, 1565.316
157.1375, 1576.355
157.6196, 1588.131
158.1018, 1600.920
158.5839, 1613.650
159.0660, 1627.885
159.5481, 1641.016
160.0302, 1652.529
160.5123, 1661.841
160.9945, 1667.152
161.4766, 1665.252
161.9587, 1653.571
162.4408, 1637.066
162.9229, 1615.619
163.4050, 1590.014
163.8871, 1560.219
164.3693, 1526.208
164.8514, 1489.688
165.3335, 1454.632
165.8156, 1420.050
166.2977, 1388.510
166.7798, 1360.469
167.2620, 1335.484
167.7441, 1312.994
168.2262, 1292.734
168.7083, 1274.932
169.1904, 1260.713
169.6725, 1250.536
170.1547, 1241.965
170.6368, 1234.334
171.1189, 1227.640
171.6010, 1221.911
172.0831, 1217.277
172.5652, 1213.664
173.0474, 1210.456
173.5295, 1207.515
174.0116, 1205.240
174.4937, 1204.329
174.9758, 1204.778
175.4579, 1204.916
175.9401, 1203.610
176.4222, 1201.817
176.9043, 1200.422
177.3864, 1199.436
177.8685, 1199.230
178.3506, 1200.553
178.8328, 1203.884
179.3149, 1207.058
179.7970, 1209.247
180.2791, 1211.000
180.7612, 1212.776
181.2433, 1214.778
181.7255, 1216.765
182.2076, 1217.974
182.6897, 1217.072
183.1718, 1217.976
183.6539, 1221.764
184.1360, 1227.269
184.6181, 1233.414
185.1003, 1239.706
185.5824, 1246.159
186.0645, 1252.815
186.5466, 1260.839
187.0287, 1267.561
187.5108, 1271.972
187.9930, 1275.063
188.4751, 1277.881
188.9572, 1280.952
189.4393, 1284.395
189.9214, 1288.904
190.4035, 1297.044
190.8857, 1303.405
191.3678, 1306.468
191.8499, 1307.082
192.3320, 1306.605
192.8141, 1305.716
193.2962, 1304.524
193.7784, 1303.879
194.2605, 1303.319
194.7426, 1303.601
195.2247, 1305.832
195.7068, 1309.272
196.1889, 1311.820
196.6711, 1312.069
197.1532, 1310.374
197.6353, 1309.033
198.1174, 1307.445
198.5995, 1306.669
199.0816, 1307.154
199.5638, 1308.903
200.0459, 1311.985
200.5280, 1316.886
201.0101, 1323.161
201.4922, 1329.124
201.9743, 1334.931
202.4565, 1340.239
202.9386, 1344.756
203.4207, 1348.494
203.9028, 1351.636
204.3849, 1354.055
204.8670, 1355.973
205.3492, 1357.859
205.8313, 1360.473
206.3134, 1362.207
206.7955, 1360.860
207.2776, 1356.041
207.7597, 1349.945
208.2419, 1343.155
208.7240, 1335.728
209.2061, 1327.586
209.6882, 1318.593
210.1703, 1309.085
210.6524, 1299.304
211.1346, 1288.632
211.6167, 1279.519
212.0988, 1272.815
212.5809, 1267.822
213.0630, 1264.124
213.5451, 1261.687
214.0273, 1260.027
214.5094, 1257.875
214.9915, 1253.992
215.4736, 1252.036
215.9557, 1253.184
216.4378, 1256.010
216.9200, 1259.255
217.4021, 1262.367
217.8842, 1265.408
218.3663, 1268.530
218.8484, 1272.003
219.3305, 1275.140
219.8127, 1276.940
220.2948, 1278.764
220.7769, 1282.440
221.2590, 1288.806
221.7411, 1296.618
222.2232, 1302.174
222.7054, 1302.794
223.1875, 1304.197
223.6696, 1307.405
224.1517, 1311.325
224.6338, 1314.497
225.1159, 1316.274
225.5980, 1317.336
226.0802, 1319.682
226.5623, 1324.793
227.0444, 1329.455
227.5265, 1332.690
228.0086, 1335.562
228.4907, 1339.555
228.9729, 1345.334
229.4550, 1352.139
229.9371, 1357.891
230.4192, 1361.508
230.9013, 1365.828
231.3834, 1370.896
231.8656, 1377.000
232.3477, 1385.121
232.8298, 1395.949
233.3119, 1407.671
233.7940, 1415.981
234.2761, 1419.566
234.7583, 1423.802
235.2404, 1430.349
235.7225, 1438.348
236.2046, 1446.400
236.6867, 1454.113
237.1688, 1461.645
237.6510, 1469.209
238.1331, 1476.547
238.6152, 1484.737
239.0973, 1494.425
239.5794, 1505.215
240.0615, 1516.310
240.5437, 1527.735
241.0258, 1539.038
241.5079, 1549.860
241.9900, 1560.318
242.4721, 1569.772
242.9542, 1577.328
243.4364, 1583.643
243.9185, 1590.495
244.4006, 1598.508
244.8827, 1606.588
245.3648, 1614.161
245.8469, 1621.177
246.3290, 1626.436
246.8112, 1629.113
247.2933, 1629.554
247.7754, 1629.042
248.2575, 1628.385
248.7396, 1625.422
249.2217, 1618.382
249.7039, 1607.946
250.1860, 1596.159
250.6681, 1584.224
251.1502, 1571.856
251.6323, 1557.388
252.1144, 1539.207
252.5966, 1521.589
253.0787, 1507.013
253.5608, 1494.820
254.0429, 1483.418
254.5250, 1472.279
255.0071, 1461.321
255.4893, 1449.915
255.9714, 1437.221
256.4535, 1425.607
256.9356, 1415.955
257.4177, 1407.903
257.8998, 1400.869
258.3820, 1394.759
258.8641, 1389.379
259.3462, 1383.917
259.8283, 1377.600
260.3104, 1372.605
260.7925, 1369.820
261.2747, 1368.429
261.7568, 1367.383
262.2389, 1366.151
262.7210, 1364.944
263.2031, 1364.417
263.6852, 1364.948
264.1674, 1365.559
264.6495, 1366.309
265.1316, 1366.894
265.6137, 1366.873
266.0958, 1366.022
266.5779, 1364.780
267.0601, 1364.323
267.5422, 1365.700
268.0243, 1365.918
268.5064, 1364.346
268.9885, 1361.755
269.4706, 1358.621
269.9528, 1355.143
270.4349, 1351.601
270.9170, 1348.472
271.3991, 1345.649
271.8812, 1343.578
272.3633, 1343.518
272.8455, 1343.319
273.3276, 1340.916
273.8097, 1335.989
274.2918, 1330.281
274.7739, 1326.563
275.2560, 1326.215
275.7382, 1324.945
276.2202, 1322.295
276.7024, 1319.262
277.1845, 1316.332
277.6666, 1313.631
278.1487, 1311.125
278.6308, 1308.660
279.1129, 1305.893
279.5951, 1304.470
280.0772, 1304.742
280.5593, 1305.761
281.0414, 1307.616
281.5235, 1309.924
282.0056, 1311.713
282.4878, 1311.984
282.9699, 1310.520
283.4520, 1309.085
283.9341, 1307.356
284.4162, 1305.962
284.8983, 1305.448
285.3805, 1305.538
285.8626, 1305.462
286.3447, 1304.575
286.8268, 1302.908
287.3089, 1301.825
287.7910, 1302.617
288.2732, 1302.590
288.7553, 1300.485
289.2374, 1297.018
289.7195, 1293.660
290.2016, 1291.335
290.6837, 1289.756
291.1659, 1287.228
291.6480, 1283.419
292.1301, 1279.061
292.6122, 1273.949
293.0943, 1268.422
293.5764, 1262.934
294.0586, 1257.662
294.5407, 1252.535
295.0228, 1247.326
295.5049, 1241.306
295.9870, 1236.132
296.4691, 1231.885
296.9513, 1228.510
297.4334, 1226.407
297.9155, 1225.644
298.3976, 1225.027
298.8797, 1222.472
299.3618, 1216.188
299.8440, 1211.274
300.3261, 1208.327
300.8082, 1206.371
301.2903, 1204.400
301.7724, 1202.320
302.2545, 1201.103
302.7367, 1202.208
303.2188, 1206.883
303.7009, 1208.698
304.1830, 1205.795
304.6651, 1201.839
305.1472, 1198.834
305.6294, 1196.956
306.1115, 1195.542
306.5936, 1194.001
307.0757, 1192.293
307.5578, 1191.410
308.0399, 1191.940
308.5221, 1192.549
309.0042, 1192.823
309.4863, 1192.717
309.9684, 1192.180
310.4505, 1191.125
310.9326, 1189.656
311.4148, 1188.523
311.8969, 1187.691
312.3790, 1187.172
312.8611, 1186.785
313.3432, 1186.754
313.8253, 1187.795
314.3075, 1190.349
314.7896, 1193.381
315.2717, 1194.158
315.7538, 1190.395
316.2359, 1187.681
316.7180, 1186.590
317.2001, 1186.705
317.6823, 1188.050
318.1644, 1190.564
318.6465, 1193.100
319.1286, 1193.907
319.6107, 1192.129
320.0928, 1190.434
320.5750, 1188.251
321.0571, 1186.512
321.5392, 1186.140
322.0213, 1187.120
322.5034, 1188.539
322.9855, 1189.492
323.4677, 1189.889
323.9498, 1190.443
324.4319, 1191.572
324.9140, 1192.440
325.3961, 1192.226
325.8782, 1191.310
326.3604, 1190.922
326.8425, 1192.023
327.3246, 1194.432
327.8067, 1196.080
328.2888, 1196.347
328.7709, 1196.698
329.2531, 1197.609
329.7352, 1198.842
330.2173, 1199.954
330.6994, 1200.729
331.1815, 1201.347
331.6636, 1202.290
332.1458, 1204.071
332.6279, 1205.559
333.1100, 1206.347
333.5921, 1207.006
334.0742, 1208.323
334.5563, 1210.440
335.0385, 1212.567
335.5206, 1213.500
336.0027, 1212.632
336.4848, 1212.031
336.9669, 1211.735
337.4490, 1211.626
337.9312, 1211.560
338.4133, 1211.570
338.8954, 1211.901
339.3775, 1212.873
339.8596, 1214.603
340.3417, 1215.477
340.8239, 1215.108
341.3060, 1214.412
341.7881, 1213.268
342.2702, 1212.054
342.7523, 1211.527
343.2344, 1212.210
343.7166, 1213.795
344.1987, 1214.793
344.6808, 1213.760
345.1629, 1213.815
345.6450, 1216.095
346.1271, 1219.259
346.6093, 1221.814
347.0914, 1223.200
347.5735, 1223.960
348.0556, 1225.130
348.5377, 1227.389
349.0198, 1228.815
349.5020, 1229.645
349.9841, 1229.631
350.4662, 1228.391
350.9483, 1226.019
351.4304, 1223.083
351.9125, 1220.233
352.3947, 1217.589
352.8768, 1214.261
353.3589, 1209.366
353.8410, 1204.679
354.3231, 1200.915
354.8052, 1197.849
355.2874, 1194.994
355.7695, 1192.142
356.2516, 1189.131
356.7337, 1184.834
357.2158, 1177.029
357.6979, 1171.029
358.1800, 1168.512
358.6621, 1167.838
359.1443, 1167.472
359.6264, 1166.812
360.1085, 1165.732
360.5906, 1163.771
361.0727, 1160.189
361.5548, 1157.707
362.0370, 1156.454
362.5191, 1156.404
363.0012, 1158.416
363.4833, 1162.116
363.9654, 1165.372
364.4475, 1165.673
364.9297, 1162.789
365.4118, 1160.811
365.8939, 1160.810
366.3760, 1160.555
366.8581, 1158.741
367.3402, 1156.030
367.8224, 1153.872
368.3045, 1153.304
368.7866, 1153.722
369.2687, 1153.511
369.7508, 1152.991
370.2329, 1151.027
370.7151, 1145.984
371.1972, 1140.036
371.6793, 1135.620
372.1614, 1133.685
372.6435, 1131.744
373.1256, 1126.183
373.6078, 1116.687
374.0899, 1108.336
374.5720, 1102.611
375.0541, 1098.075
375.5362, 1093.792
376.0183, 1089.684
376.5005, 1085.774
376.9826, 1081.953
377.4647, 1078.304
377.9468, 1075.183
378.4289, 1072.773
378.9110, 1070.521
379.3932, 1068.485
379.8753, 1066.309
380.3574, 1063.160
380.8395, 1058.265
381.3216, 1052.743
381.8037, 1047.830
382.2859, 1043.516
382.7680, 1039.782
383.2501, 1036.745
383.7322, 1034.267
384.2143, 1032.057
384.6964, 1030.192
385.1786, 1028.367
385.6607, 1026.425
386.1428, 1024.417
386.6249, 1022.316
387.1070, 1019.948
387.5891, 1018.004
388.0713, 1017.543
388.5534, 1018.417
389.0355, 1019.403
389.5176, 1020.887
389.9997, 1021.979
390.4818, 1021.496
390.9640, 1019.468
391.4461, 1017.176
391.9282, 1015.101
392.4103, 1013.576
392.8924, 1013.930
393.3745, 1018.369
393.8567, 1022.100
394.3388, 1022.644
394.8209, 1021.216
395.3030, 1020.141
395.7851, 1020.281
396.2672, 1021.052
396.7494, 1021.397
397.2315, 1020.924
397.7136, 1020.959
398.1957, 1021.724
398.6778, 1022.899
399.1599, 1024.413
399.6420, 1026.152
400.1241, 1027.753
400.6063, 1028.909
401.0884, 1029.622
401.5705, 1029.969
402.0526, 1028.688
402.5347, 1028.489
403.0168, 1031.056
403.4990, 1035.096
403.9811, 1038.533
404.4632, 1040.366
404.9453, 1041.079
405.4274, 1041.763
405.9095, 1042.068
406.3917, 1042.996
406.8738, 1045.348
407.3559, 1047.712
407.8380, 1048.762
408.3201, 1048.559
408.8022, 1048.454
409.2844, 1049.869
409.7665, 1052.899
410.2486, 1055.851
410.7307, 1059.275
411.2128, 1061.937
411.6949, 1062.989
412.1771, 1063.135
412.6592, 1063.479
413.1413, 1064.562
413.6234, 1066.145
414.1055, 1067.826
414.5876, 1069.779
415.0698, 1071.317
415.5519, 1071.549
416.0340, 1071.805
416.5161, 1073.076
416.9982, 1075.464
417.4803, 1078.220
417.9625, 1080.850
418.4446, 1083.348
418.9267, 1085.648
419.4088, 1087.494
419.8909, 1089.594
420.3730, 1093.181
420.8552, 1097.290
421.3373, 1099.787
421.8194, 1099.353
422.3015, 1097.628
422.7836, 1096.346
423.2657, 1095.508
423.7479, 1095.097
424.2300, 1095.544
424.7121, 1096.011
425.1942, 1095.155
425.6763, 1092.760
426.1584, 1090.254
426.6406, 1088.388
427.1227, 1086.771
427.6048, 1084.763
428.0869, 1082.237
428.5690, 1079.426
429.0511, 1076.518
429.5333, 1073.498
430.0154, 1070.419
430.4975, 1066.604
430.9796, 1063.359
431.4617, 1061.514
431.9438, 1060.837
432.4260, 1060.749
432.9081, 1061.018
433.3902, 1061.564
433.8723, 1062.224
434.3544, 1063.365
434.8365, 1063.969
435.3187, 1063.600
435.8008, 1062.940
436.2829, 1062.570
436.7650, 1062.531
437.2471, 1062.496
437.7292, 1062.159
438.2114, 1061.515
438.6935, 1060.780
439.1756, 1058.641
439.6577, 1057.907
440.1398, 1060.496
440.6219, 1064.480
441.1040, 1067.106
441.5862, 1067.216
442.0683, 1066.213
442.5504, 1066.822
443.0325, 1069.912
443.5146, 1071.965
443.9967, 1071.519
444.4789, 1070.943
444.9610, 1071.430
445.4431, 1072.916
445.9252, 1074.743
446.4073, 1076.641
446.8894, 1078.468
447.3716, 1079.413
447.8537, 1078.761
448.3358, 1079.010
448.8179, 1082.272
449.3000, 1086.569
449.7821, 1089.630
450.2643, 1090.727
450.7464, 1091.803
451.2285, 1094.641
451.7106, 1098.952
452.1927, 1103.352
452.6748, 1107.752
453.1570, 1111.760
453.6391, 1114.460
454.1212, 1116.207
454.6033, 1118.795
455.0854, 1123.328
455.5675, 1128.349
456.0497, 1132.206
456.5318, 1135.162
457.0139, 1139.182
457.4960, 1145.564
457.9781, 1153.300
458.4602, 1159.657
458.9424, 1164.265
459.4245, 1168.574
459.9066, 1172.530
460.3887, 1176.458
460.8708, 1180.589
461.3529, 1185.003
461.8351, 1189.837
462.3172, 1195.273
462.7993, 1201.290
463.2814, 1207.604
463.7635, 1214.770
464.2456, 1221.569
464.7278, 1227.241
465.2099, 1232.567
465.6920, 1238.642
466.1741, 1245.912
466.6562, 1253.824
467.1383, 1261.577
467.6205, 1269.423
468.1026, 1276.502
468.5847, 1281.327
469.0668, 1286.709
469.5489, 1294.727
470.0310, 1304.453
470.5132, 1313.218
470.9953, 1319.370
471.4774, 1323.512
471.9595, 1327.000
472.4416, 1329.668
472.9237, 1332.321
473.4059, 1335.878
473.8880, 1339.119
474.3701, 1340.685
474.8522, 1340.368
475.3343, 1339.819
475.8164, 1340.558
476.2986, 1341.808
476.7807, 1341.173
477.2628, 1337.958
477.7449, 1335.216
478.2270, 1335.803
478.7091, 1338.846
479.1913, 1340.490
479.6734, 1339.363
480.1555, 1338.102
480.6376, 1338.458
481.1197, 1339.613
481.6018, 1339.696
482.0839, 1338.048
482.5660, 1335.790
483.0482, 1334.551
483.5303, 1334.865
484.0124, 1334.206
484.4945, 1331.839
484.9766, 1329.257
485.4587, 1327.259
485.9409, 1325.693
486.4230, 1324.253
486.9051, 1322.839
487.3872, 1320.955
487.8693, 1317.098
488.3514, 1310.170
488.8336, 1303.193
489.3157, 1296.680
489.7978, 1289.994
490.2799, 1282.474
490.7620, 1274.295
491.2441, 1266.419
491.7263, 1259.827
492.2084, 1254.195
492.6905, 1247.934
493.1726, 1240.950
493.6547, 1233.613
494.1368, 1225.905
494.6190, 1218.059
495.1011, 1210.143
495.5832, 1202.103
496.0653, 1194.596
496.5474, 1188.400
497.0295, 1183.190
497.5117, 1178.011
497.9938, 1172.676
498.4759, 1167.527
498.9580, 1162.792
499.4401, 1158.449
499.9222, 1154.346
500.4044, 1149.918
500.8865, 1146.277
501.3686, 1144.629
501.8507, 1144.082
502.3328, 1142.655
502.8149, 1139.653
503.2971, 1136.124
503.7792, 1133.574
504.2613, 1132.340
504.7434, 1130.866
505.2255, 1128.961
505.7076, 1127.045
506.1898, 1125.279
506.6719, 1123.668
507.1540, 1122.147
507.6361, 1120.671
508.1182, 1119.388
508.6003, 1118.778
509.0825, 1119.328
509.5646, 1119.234
510.0467, 1117.901
510.5288, 1116.239
511.0109, 1114.410
511.4930, 1112.624
511.9752, 1111.357
512.4573, 1110.838
512.9394, 1111.081
513.4215, 1112.662
513.9036, 1116.036
514.3857, 1117.814
514.8679, 1115.742
515.3500, 1112.056
515.8321, 1109.358
516.3142, 1107.646
516.7963, 1107.430
517.2784, 1110.348
517.7606, 1114.234
518.2427, 1115.800
518.7248, 1114.853
519.2069, 1113.637
519.6890, 1113.635
520.1711, 1114.576
520.6533, 1115.124
521.1354, 1115.224
521.6175, 1115.079
522.0996, 1114.595
522.5817, 1113.952
523.0638, 1113.220
523.5460, 1112.478
524.0281, 1111.943
524.5102, 1111.802
524.9923, 1112.054
525.4744, 1112.822
525.9565, 1115.052
526.4387, 1116.526
526.9208, 1116.363
527.4029, 1115.496
527.8850, 1115.000
528.3671, 1115.118
528.8492, 1115.078
529.3314, 1113.806
529.8135, 1111.479
530.2956, 1110.001
530.7777, 1110.096
531.2598, 1109.774
531.7419, 1106.387
532.2241, 1102.072
532.7062, 1100.697
533.1883, 1104.509
533.6704, 1108.211
534.1525, 1107.654
534.6346, 1104.340
535.1168, 1101.831
535.5989, 1100.965
536.0810, 1100.538
536.5631, 1099.400
537.0452, 1097.504
537.5273, 1095.503
538.0095, 1092.787
538.4916, 1090.641
538.9737, 1089.687
539.4558, 1089.545
539.9379, 1089.892
540.4200, 1090.545
540.9022, 1090.918
541.3843, 1090.029
541.8664, 1087.519
542.3485, 1085.805
542.8306, 1085.782
543.3127, 1085.629
543.7948, 1084.135
544.2769, 1082.340
544.7590, 1082.113
545.2411, 1084.317
545.7233, 1086.941
546.2054, 1087.185
546.6875, 1085.239
547.1696, 1084.046
547.6517, 1084.403
548.1339, 1084.900
548.6160, 1084.424
549.0981, 1083.151
549.5802, 1081.415
550.0623, 1078.627
550.5444, 1076.083
551.0266, 1075.419
551.5087, 1075.555
551.9908, 1073.705
552.4729, 1068.969
552.9550, 1063.309
553.4371, 1059.278
553.9193, 1057.367
554.4014, 1053.974
554.8835, 1048.093
555.3656, 1042.088
555.8477, 1036.693
556.3298, 1031.730
556.8120, 1026.964
557.2941, 1022.272
557.7762, 1017.656
558.2583, 1012.924
558.7404, 1007.988
559.2225, 1003.942
559.7047, 1001.564
560.1868, 999.1490
560.6689, 995.3838
561.1510, 991.1630
561.6331, 988.2012
562.1152, 987.5256
562.5974, 986.7819
563.0795, 982.9644
563.5616, 977.1456
564.0437, 973.5261
564.5258, 973.2482
565.0079, 973.7471
565.4901, 972.7351
565.9722, 970.2579
566.4543, 968.1055
566.9364, 967.2764
567.4185, 965.6467
567.9006, 961.0461
568.3828, 955.6815
568.8649, 952.8574
569.3470, 953.3378
569.8291, 955.2432
570.3112, 956.6263
570.7933, 957.5329
571.2755, 957.1550
571.7576, 954.3531
572.2397, 951.6416
572.7218, 949.4558
573.2039, 947.7424
573.6860, 946.3842
574.1682, 945.3474
574.6503, 944.7789
575.1324, 945.2448
575.6145, 946.3755
576.0966, 946.4091
576.5787, 945.0154
577.0609, 943.4137
577.5430, 942.6104
578.0251, 942.0081
578.5072, 940.1688
578.9893, 936.4584
579.4714, 932.8801
579.9536, 929.8070
580.4357, 927.4927
580.9178, 926.7901
581.3999, 927.4930
581.8820, 927.6436
582.3641, 925.5934
582.8463, 921.8612
583.3284, 919.4824
583.8105, 920.0646
584.2926, 919.6814
584.7747, 917.3830
585.2568, 914.5652
585.7390, 912.2516
586.2211, 910.4897
586.7032, 908.7517
587.1853, 906.5787
587.6674, 904.2198
588.1495, 902.5112
588.6317, 901.6046
589.1138, 900.3514
589.5959, 898.0368
590.0780, 895.5328
590.5601, 893.9544
591.0422, 893.2785
591.5244, 892.5275
592.0065, 891.2396
592.4886, 889.8782
592.9707, 888.8495
593.4528, 888.1217
593.9349, 887.5965
594.4171, 887.2623
594.8992, 886.8594
595.3813, 885.8137
595.8634, 883.4503
596.3455, 882.4833
596.8276, 885.0233
597.3098, 886.5468
597.7919, 884.1927
598.2740, 879.7643
598.7561, 876.4762
599.2382, 875.6617
599.7203, 875.8112
600.2025, 874.7712
600.6846, 872.5894
601.1667, 871.1835
601.6488, 870.9744
602.1309, 871.1132
602.6130, 871.0752
603.0952, 870.9759
603.5773, 871.1163
604.0594, 871.9066
604.5415, 872.2485
605.0236, 871.0594
605.5057, 869.2709
605.9879, 868.3876
606.4700, 868.6104
606.9521, 869.1525
607.4342, 869.4153
607.9163, 869.4016
608.3984, 869.1300
608.8806, 868.1308
609.3627, 867.5153
609.8448, 868.1149
610.3269, 868.5596
610.8090, 867.4437
611.2911, 864.9921
611.7733, 862.7818
612.2554, 862.0975
612.7375, 862.2170
613.2196, 861.3696
613.7017, 859.4523
614.1838, 857.5842
614.6660, 855.9929
