##NAMES=Ludwigite
##RRUFFID=R060010
##IDEAL CHEMISTRY=Mg_2_Fe^3+^O_2_(BO_3_)
##LOCALITY=Victoria Quarry, Riverside, California, USA
##OWNER=RRUFF
##SOURCE=University of Arizona Mineral Museum
##DESCRIPTION=Black elongated prismatic crystals, associated with pale yellow clinohumite on white calcite matrix
##STATUS=The identification of this mineral has been confirmed by X-ray diffraction and chemical analysis
##URL=rruff.info/R060010
##MEASURED CHEMISTRY=(Mg_1.68_Fe^2+^_0.32_)_Σ=2_(Fe^3+^_0.74_Al_0.23_Cr_0.03_)_Σ=1_O_5_ ; B not measured but estimated by difference and charge balance
199.6115, 410.4151
200.0936, 410.7272
200.5757, 411.3534
201.0578, 411.9386
201.5400, 411.9512
202.0221, 410.9646
202.5042, 409.3646
202.9863, 408.2287
203.4684, 407.5380
203.9505, 407.4390
204.4327, 408.4279
204.9148, 409.8296
205.3969, 410.7149
205.8790, 410.5200
206.3611, 409.4319
206.8432, 408.3823
207.3254, 407.2248
207.8075, 406.3083
208.2896, 405.7473
208.7717, 405.4589
209.2538, 405.3570
209.7359, 405.4176
210.2181, 405.6017
210.7002, 405.5370
211.1823, 404.9985
211.6644, 404.4296
212.1465, 404.1016
212.6286, 403.7893
213.1108, 403.0022
213.5929, 401.3361
214.0750, 398.9070
214.5571, 397.4878
215.0392, 398.3409
215.5213, 398.7587
216.0035, 397.7165
216.4856, 395.6379
216.9677, 393.5219
217.4498, 392.0117
217.9319, 391.0703
218.4140, 390.0410
218.8962, 388.8869
219.3783, 387.7149
219.8604, 386.6590
220.3425, 385.6372
220.8246, 384.3460
221.3067, 382.4707
221.7889, 380.1769
222.2710, 378.5571
222.7531, 378.1491
223.2352, 377.8147
223.7173, 376.9405
224.1994, 375.6123
224.6816, 374.3244
225.1637, 373.5010
225.6458, 372.8864
226.1279, 371.5800
226.6100, 368.9077
227.0921, 366.2230
227.5743, 364.3936
228.0564, 363.3831
228.5385, 362.7763
229.0206, 362.5808
229.5027, 362.5653
229.9848, 362.2303
230.4670, 361.4061
230.9491, 360.4434
231.4312, 359.6158
231.9133, 358.9222
232.3954, 358.2865
232.8775, 357.7476
233.3597, 357.2138
233.8418, 356.5995
234.3239, 355.9356
234.8060, 355.0853
235.2881, 353.6540
235.7702, 351.5199
236.2524, 349.9717
236.7345, 350.2928
237.2166, 351.0496
237.6987, 350.9406
238.1808, 349.6117
238.6629, 347.7977
239.1451, 346.3232
239.6272, 345.2135
240.1093, 344.2991
240.5914, 343.5144
241.0735, 342.9329
241.5556, 342.7090
242.0378, 342.8842
242.5199, 343.1781
243.0020, 343.2894
243.4841, 343.2594
243.9662, 342.8598
244.4483, 341.3134
244.9305, 339.8614
245.4126, 339.5971
245.8947, 340.6885
246.3768, 341.9936
246.8589, 341.8752
247.3410, 339.8492
247.8232, 337.8806
248.3053, 335.6300
248.7874, 333.8388
249.2695, 333.2429
249.7516, 333.8507
250.2337, 334.8115
250.7159, 334.9904
251.1980, 334.1176
251.6801, 333.1704
252.1622, 331.6552
252.6443, 330.4639
253.1264, 330.3501
253.6086, 331.2706
254.0907, 332.4286
254.5728, 332.7921
255.0549, 331.9902
255.5370, 331.5184
256.0191, 331.9659
256.5013, 332.2132
256.9834, 331.3515
257.4655, 329.5046
257.9476, 327.6639
258.4297, 326.9698
258.9118, 327.7970
259.3940, 328.2473
259.8761, 328.1325
260.3582, 327.8864
260.8403, 327.7552
261.3224, 327.7219
261.8045, 327.5616
262.2867, 326.9852
262.7688, 325.8212
263.2509, 325.4957
263.7330, 326.7812
264.2151, 328.0038
264.6972, 328.2976
265.1794, 327.7806
265.6615, 327.1187
266.1436, 326.8524
266.6257, 327.0016
267.1078, 327.1190
267.5899, 327.2398
268.0721, 327.3083
268.5542, 327.2190
269.0363, 327.0440
269.5184, 327.0260
270.0005, 327.3986
270.4826, 328.0977
270.9648, 328.1530
271.4469, 327.0170
271.9290, 325.9596
272.4111, 325.4142
272.8932, 325.3117
273.3753, 325.5094
273.8575, 326.0112
274.3396, 326.6748
274.8217, 326.7294
275.3038, 325.3178
275.7859, 324.3925
276.2680, 325.1030
276.7502, 326.7193
277.2323, 327.6610
277.7144, 327.1052
278.1965, 325.5829
278.6786, 324.6562
279.1607, 324.4941
279.6429, 324.4522
280.1250, 324.4791
280.6071, 324.4936
281.0892, 324.2787
281.5713, 323.6959
282.0534, 323.0331
282.5356, 323.0032
283.0177, 323.9196
283.4998, 324.3158
283.9819, 323.4369
284.4640, 321.9169
284.9461, 320.7288
285.4283, 320.1498
285.9104, 319.8543
286.3925, 319.3286
286.8746, 318.5072
287.3567, 318.0508
287.8388, 318.5076
288.3210, 319.2391
288.8031, 319.3694
289.2852, 318.7131
289.7673, 317.7681
290.2494, 317.0196
290.7315, 316.4554
291.2137, 315.9312
291.6958, 315.1118
292.1779, 314.4888
292.6600, 314.8954
293.1421, 316.4417
293.6242, 317.7951
294.1064, 317.7269
294.5885, 316.4557
295.0706, 315.3181
295.5527, 314.3765
296.0348, 313.6576
296.5169, 313.2407
296.9991, 313.1173
297.4812, 313.0992
297.9633, 313.1639
298.4454, 313.2183
298.9275, 313.0216
299.4096, 312.4213
299.8918, 311.7277
300.3739, 311.0733
300.8560, 310.4763
301.3381, 310.1000
301.8202, 310.1168
302.3023, 310.3297
302.7845, 310.3380
303.2666, 310.1122
303.7487, 309.7655
304.2308, 309.1559
304.7129, 308.4330
305.1950, 308.2298
305.6772, 309.0301
306.1593, 310.0337
306.6414, 310.0099
307.1235, 308.8883
307.6056, 307.7402
308.0877, 306.8668
308.5699, 306.3082
309.0520, 306.2278
309.5341, 306.7758
310.0162, 307.5204
310.4983, 308.0212
310.9804, 308.3127
311.4626, 308.4693
311.9447, 308.4468
312.4268, 308.3241
312.9089, 308.1758
313.3910, 307.9795
313.8731, 307.9089
314.3553, 308.3364
314.8374, 309.0446
315.3195, 309.3063
315.8016, 308.5191
316.2837, 307.4852
316.7658, 307.1193
317.2480, 307.4523
317.7301, 307.9056
318.2122, 308.2672
318.6943, 308.4584
319.1764, 308.3209
319.6585, 307.6706
320.1407, 306.9100
320.6228, 306.2187
321.1049, 305.6288
321.5870, 305.4340
322.0691, 306.0526
322.5512, 306.8866
323.0334, 306.7248
323.5155, 305.1222
323.9976, 303.9598
324.4797, 304.7440
324.9618, 306.8283
325.4439, 308.2245
325.9261, 308.3253
326.4082, 307.6785
326.8903, 306.8184
327.3724, 305.7362
327.8545, 304.9002
328.3366, 304.4868
328.8188, 304.4211
329.3009, 304.6793
329.7830, 305.3277
330.2651, 305.9619
330.7472, 306.2022
331.2293, 306.0897
331.7115, 305.7770
332.1936, 304.9632
332.6757, 304.1526
333.1578, 304.0533
333.6399, 304.6943
334.1220, 305.1456
334.6042, 304.6973
335.0863, 303.5607
335.5684, 302.6674
336.0505, 301.9720
336.5326, 301.5994
337.0147, 301.8047
337.4969, 302.4667
337.9790, 303.0235
338.4611, 303.1941
338.9432, 303.1377
339.4253, 303.2461
339.9074, 303.6410
340.3896, 303.8763
340.8717, 303.8925
341.3538, 303.6139
341.8359, 302.6563
342.3180, 300.7073
342.8001, 298.7868
343.2823, 298.6349
343.7644, 300.4164
344.2465, 301.7418
344.7286, 301.9508
345.2107, 301.5956
345.6928, 301.2948
346.1750, 301.1326
346.6571, 300.7941
347.1392, 299.8730
347.6213, 298.3617
348.1034, 297.4169
348.5855, 297.2645
349.0677, 297.4837
349.5498, 297.9200
350.0319, 298.5197
350.5140, 299.1320
350.9961, 299.6996
351.4782, 300.1935
351.9604, 300.4774
352.4425, 300.3520
352.9246, 300.2979
353.4067, 300.5193
353.8888, 300.9044
354.3709, 301.3185
354.8531, 301.7374
355.3352, 302.0018
355.8173, 301.7433
356.2994, 300.5916
356.7815, 299.7852
357.2636, 299.7843
357.7458, 299.9799
358.2279, 299.5439
358.7100, 298.4163
359.1921, 297.5847
359.6742, 298.2908
360.1563, 300.9806
360.6385, 302.4247
361.1206, 301.7935
361.6027, 300.8102
362.0848, 300.3381
362.5669, 300.3296
363.0490, 300.3218
363.5312, 299.9614
364.0133, 299.3466
364.4954, 299.3148
364.9775, 300.3813
365.4596, 301.3779
365.9417, 302.2710
366.4239, 302.8985
366.9060, 302.9775
367.3881, 302.3963
367.8702, 301.4391
368.3523, 300.6639
368.8344, 299.8919
369.3166, 299.6598
369.7987, 300.5128
370.2808, 301.4794
370.7629, 301.6479
371.2450, 301.0183
371.7271, 300.4447
372.2093, 300.9339
372.6914, 302.7498
373.1735, 303.9395
373.6556, 304.4783
374.1377, 304.4614
374.6198, 303.3369
375.1020, 301.6902
375.5841, 300.6683
376.0662, 301.0410
376.5483, 302.5439
377.0304, 303.9704
377.5125, 305.8234
377.9947, 306.7907
378.4768, 306.0980
378.9589, 304.7729
379.4410, 303.7835
379.9231, 303.4567
380.4052, 303.5482
380.8874, 303.7582
381.3695, 304.1933
381.8516, 304.3841
382.3337, 303.9116
382.8158, 303.5003
383.2979, 303.5899
383.7801, 304.1315
384.2622, 304.7513
384.7443, 305.1744
385.2264, 305.4059
385.7085, 305.4933
386.1906, 305.2391
386.6728, 305.1369
387.1549, 305.4867
387.6370, 306.0694
388.1191, 306.5938
388.6012, 306.9974
389.0833, 307.1592
389.5655, 306.6916
390.0476, 305.3744
390.5297, 304.4405
391.0118, 304.6542
391.4939, 305.1980
391.9760, 305.3958
392.4582, 305.1487
392.9403, 304.9282
393.4224, 305.1457
393.9045, 305.7393
394.3866, 306.3644
394.8687, 307.0645
395.3509, 307.6277
395.8330, 307.7795
396.3151, 307.6429
396.7972, 307.6220
397.2793, 308.1216
397.7614, 308.7079
398.2436, 308.7347
398.7257, 308.1723
399.2078, 307.3785
399.6899, 306.3202
400.1720, 305.2708
400.6541, 304.7682
401.1363, 304.9726
401.6184, 305.4725
402.1005, 306.2735
402.5826, 307.1978
403.0647, 307.7198
403.5468, 307.6332
404.0290, 307.2126
404.5111, 306.7408
404.9932, 306.1797
405.4753, 305.8790
405.9574, 306.1573
406.4395, 306.5645
406.9217, 306.5599
407.4038, 306.1436
407.8859, 305.8975
408.3680, 306.3943
408.8501, 307.5175
409.3322, 307.7976
409.8144, 306.7888
410.2965, 305.5792
410.7786, 304.3407
411.2607, 303.2006
411.7428, 302.3082
412.2249, 301.7264
412.7071, 301.4949
413.1892, 301.7318
413.6713, 302.9812
414.1534, 303.7153
414.6355, 303.6233
415.1176, 303.2709
415.5998, 303.0300
416.0819, 302.9425
416.5640, 302.8553
417.0461, 302.6009
417.5282, 302.1723
418.0103, 302.0547
418.4925, 302.8598
418.9746, 303.3087
419.4567, 302.7684
419.9388, 301.8063
420.4209, 301.2533
420.9030, 301.4937
421.3852, 302.1217
421.8673, 302.3151
422.3494, 301.9505
422.8315, 301.4557
423.3136, 300.4625
423.7957, 299.6736
424.2779, 299.7568
424.7600, 300.5858
425.2421, 301.2968
425.7242, 301.0052
426.2063, 299.8480
426.6884, 299.1833
427.1706, 299.2130
427.6527, 299.4212
428.1348, 299.6535
428.6169, 299.8799
429.0990, 300.1132
429.5811, 300.4522
430.0633, 300.5648
430.5454, 299.7290
431.0275, 297.9120
431.5096, 296.8011
431.9917, 297.1955
432.4738, 298.1982
432.9560, 298.8599
433.4381, 299.1834
433.9202, 299.3799
434.4023, 299.6042
434.8844, 299.7493
435.3665, 299.5550
435.8487, 298.9632
436.3308, 298.3590
436.8129, 298.0696
437.2950, 297.9991
437.7771, 297.7286
438.2592, 296.9859
438.7414, 296.3189
439.2235, 296.1484
439.7056, 296.2801
440.1877, 296.2070
440.6698, 295.7163
441.1519, 295.0826
441.6341, 294.7711
442.1162, 294.9554
442.5983, 294.9558
443.0804, 294.5143
443.5625, 294.0502
444.0446, 293.9861
444.5268, 294.2515
445.0089, 294.3610
445.4910, 293.9058
445.9731, 292.9743
446.4552, 292.4206
446.9373, 292.9315
447.4195, 292.9893
447.9016, 291.6979
448.3837, 290.1509
448.8658, 289.7153
449.3479, 290.7426
449.8300, 292.3222
450.3122, 293.1973
450.7943, 293.2728
451.2764, 292.9921
451.7585, 291.8877
452.2406, 290.8581
452.7227, 290.2910
453.2049, 290.0788
453.6870, 289.9245
454.1691, 289.6539
454.6512, 289.3265
455.1333, 289.0803
455.6154, 288.9077
456.0976, 288.8421
456.5797, 289.1644
457.0618, 289.4335
457.5439, 289.1858
458.0260, 288.3638
458.5081, 287.5939
458.9903, 287.6078
459.4724, 288.0953
459.9545, 287.7911
460.4366, 286.2773
460.9187, 284.7661
461.4008, 284.4092
461.8830, 284.7651
462.3651, 284.7584
462.8472, 283.9059
463.3293, 282.9552
463.8114, 282.4917
464.2935, 282.4088
464.7756, 282.3286
465.2578, 282.1197
465.7399, 281.8356
466.2220, 281.5669
466.7041, 281.3208
467.1862, 281.0543
467.6683, 280.8138
468.1505, 280.5119
468.6326, 280.0484
469.1147, 279.4397
469.5968, 278.7895
470.0789, 278.1523
470.5610, 277.5426
471.0432, 277.0738
471.5253, 276.6067
472.0074, 276.4604
472.4895, 277.1919
472.9716, 277.9821
473.4537, 277.9557
473.9359, 276.9485
474.4180, 275.4720
474.9001, 273.9797
475.3822, 272.3684
475.8643, 271.6825
476.3464, 273.2223
476.8286, 274.3123
477.3107, 273.8399
477.7928, 272.4083
478.2749, 270.9492
478.7570, 269.8051
479.2391, 269.0678
479.7213, 269.1193
480.2034, 270.1087
480.6855, 270.5944
481.1676, 270.1100
481.6497, 269.1186
482.1318, 267.8048
482.6140, 266.2528
483.0961, 265.0526
483.5782, 264.6475
484.0603, 264.6921
484.5424, 264.6290
485.0245, 264.4335
485.5067, 264.4275
485.9888, 265.0749
486.4709, 265.8540
486.9530, 265.3506
487.4351, 262.7661
487.9172, 260.7368
488.3994, 260.7005
488.8815, 261.5088
489.3636, 261.5732
489.8457, 260.6092
490.3278, 259.4073
490.8099, 258.7319
491.2921, 258.6192
491.7742, 258.2253
492.2563, 257.4421
492.7384, 256.5569
493.2205, 255.4938
493.7026, 254.4380
494.1848, 253.6441
494.6669, 253.2068
495.1490, 253.0070
495.6311, 252.8650
496.1132, 252.7774
496.5953, 252.7615
497.0775, 253.2106
497.5596, 253.3511
498.0417, 252.5066
498.5238, 251.1262
499.0059, 250.2264
499.4880, 250.4550
499.9702, 251.2378
500.4523, 251.4795
500.9344, 251.1476
501.4165, 250.4501
501.8986, 249.0008
502.3807, 247.5994
502.8629, 247.1826
503.3450, 247.7117
503.8271, 247.9223
504.3092, 246.8461
504.7913, 245.2409
505.2734, 244.3385
505.7556, 244.2013
506.2377, 244.1109
506.7198, 243.6283
507.2019, 242.9137
507.6840, 242.4807
508.1661, 242.4838
508.6483, 242.4366
509.1304, 242.1601
509.6125, 241.7947
510.0946, 241.5455
510.5767, 241.4236
511.0588, 241.2123
511.5410, 240.6798
512.0231, 239.8289
512.5052, 239.2155
512.9873, 239.1122
513.4694, 238.9206
513.9515, 238.5660
514.4337, 238.0462
514.9158, 237.2114
515.3979, 236.0716
515.8800, 235.0972
516.3621, 235.1254
516.8442, 236.3354
517.3264, 236.5887
517.8085, 235.1401
518.2906, 233.6497
518.7727, 232.8327
519.2548, 232.4821
519.7369, 232.2984
520.2191, 232.2785
520.7012, 232.1362
521.1833, 231.2490
521.6654, 229.7874
522.1475, 229.2199
522.6296, 230.2159
523.1118, 231.5430
523.5939, 231.8281
524.0760, 231.2065
524.5581, 230.4855
525.0402, 229.7106
525.5223, 228.9535
526.0045, 228.1955
526.4866, 227.4942
526.9687, 227.0255
527.4508, 226.8830
527.9329, 226.9170
528.4150, 226.8674
528.8972, 226.8000
529.3793, 226.4650
529.8614, 225.6648
530.3435, 224.8011
530.8256, 224.0291
531.3077, 223.3817
531.7899, 222.8408
532.2720, 222.3823
532.7541, 222.0806
533.2362, 222.2070
533.7183, 223.0068
534.2004, 223.5386
534.6826, 223.9180
535.1647, 223.7492
535.6468, 222.3534
536.1289, 220.0206
536.6110, 218.0902
537.0931, 217.5142
537.5753, 217.7622
538.0574, 218.0232
538.5395, 218.3162
539.0216, 218.1783
539.5037, 217.1379
539.9858, 215.8158
540.4680, 215.3240
540.9501, 215.7974
541.4322, 216.1342
541.9143, 215.9404
542.3964, 215.5233
542.8785, 215.2265
543.3607, 215.0302
543.8428, 214.5892
544.3249, 213.6007
544.8070, 212.3557
545.2891, 211.9465
545.7712, 213.6513
546.2534, 214.4306
546.7355, 213.7038
547.2176, 212.4224
547.6997, 210.9630
548.1818, 209.5817
548.6639, 208.7473
549.1461, 208.9960
549.6282, 209.9734
550.1103, 210.1112
550.5924, 209.0213
551.0745, 208.0972
551.5566, 207.7510
552.0388, 207.7484
552.5209, 208.1678
553.0030, 208.9660
553.4851, 209.2961
553.9672, 208.3315
554.4493, 206.7007
554.9315, 205.4362
555.4136, 204.5917
555.8957, 204.1407
556.3778, 204.1181
556.8599, 204.4478
557.3420, 205.0242
557.8242, 206.2178
558.3063, 206.7714
558.7884, 206.0571
559.2705, 204.8659
559.7526, 203.7410
560.2347, 202.8205
560.7169, 202.2050
561.1990, 201.9947
561.6811, 202.1059
562.1632, 202.1826
562.6453, 202.3227
563.1274, 202.2384
563.6096, 201.7076
564.0917, 201.1179
564.5738, 200.6616
565.0559, 200.3966
565.5380, 200.4119
566.0201, 200.9929
566.5023, 201.7936
566.9844, 201.7901
567.4665, 200.8451
567.9486, 199.9921
568.4307, 199.6438
568.9128, 199.5765
569.3950, 199.4981
569.8771, 199.4151
570.3592, 199.2724
570.8413, 198.9825
571.3234, 198.6730
571.8055, 198.6206
572.2877, 198.7271
572.7698, 198.4161
573.2519, 197.3017
573.7340, 195.7846
574.2161, 194.9121
574.6982, 195.1918
575.1804, 195.2469
575.6625, 194.9156
576.1446, 194.5126
576.6267, 194.0576
577.1088, 193.6941
577.5909, 193.7734
578.0731, 194.5885
578.5552, 195.6972
579.0373, 196.0806
579.5194, 195.6179
580.0015, 195.0880
580.4836, 194.5387
580.9658, 194.0756
581.4479, 193.8392
581.9300, 193.7684
582.4121, 193.5924
582.8942, 192.8552
583.3763, 192.2644
583.8585, 192.9638
584.3406, 194.4951
584.8227, 194.9935
585.3048, 193.7036
585.7869, 191.7431
586.2690, 190.6169
586.7512, 190.5060
587.2333, 190.4393
587.7154, 190.5495
588.1975, 190.5606
588.6796, 190.1449
589.1617, 189.6155
589.6439, 189.5633
590.1260, 190.1817
590.6081, 190.9456
591.0902, 191.0875
591.5723, 190.5441
592.0544, 189.9402
592.5366, 189.0184
593.0187, 188.4411
593.5008, 188.7409
593.9829, 189.4700
594.4650, 190.0143
594.9471, 190.2670
595.4293, 190.1655
595.9114, 189.3954
596.3935, 188.2700
596.8756, 187.5287
597.3577, 187.2872
597.8398, 187.3518
598.3220, 187.7360
598.8041, 188.3067
599.2862, 188.1184
599.7683, 186.2045
600.2504, 184.9378
600.7325, 185.1556
601.2147, 185.8699
601.6968, 186.2533
602.1789, 186.1788
602.6610, 185.8354
603.1431, 185.3038
603.6252, 184.6961
604.1074, 184.6161
604.5895, 185.4160
605.0716, 185.8134
605.5537, 184.8510
606.0358, 183.8475
606.5179, 183.9215
607.0001, 184.9831
607.4822, 185.9036
607.9643, 186.2265
608.4464, 186.0702
608.9285, 185.3271
609.4106, 184.1319
609.8928, 183.2866
610.3749, 183.1265
610.8570, 183.3562
611.3391, 183.5904
611.8212, 183.8957
612.3033, 183.8936
612.7855, 183.1259
613.2676, 182.5500
613.7497, 182.7881
614.2318, 183.4491
614.7139, 183.8909
615.1960, 183.8795
615.6782, 183.6117
616.1603, 183.2636
616.6424, 182.8197
617.1245, 182.6953
617.6066, 183.1669
618.0887, 183.4799
618.5709, 182.9624
619.0530, 182.1712
619.5351, 181.9213
620.0172, 182.4512
620.4993, 183.0405
620.9814, 183.4589
621.4636, 183.6035
621.9457, 183.0789
622.4278, 181.9396
622.9099, 181.1490
623.3920, 181.4285
623.8741, 182.3920
624.3563, 182.6702
624.8384, 181.4551
625.3205, 180.7234
625.8026, 180.6796
626.2847, 180.9350
626.7668, 181.4247
627.2490, 181.9962
627.7311, 182.3309
628.2132, 182.2086
628.6953, 181.9003
629.1774, 182.0923
629.6595, 182.8310
630.1417, 182.5690
630.6238, 180.2937
631.1059, 178.1535
631.5880, 178.4669
632.0701, 180.4975
632.5522, 182.0067
633.0344, 182.5764
633.5165, 182.6632
633.9986, 182.3379
634.4807, 181.7347
634.9628, 180.9367
635.4449, 180.0138
635.9271, 179.2755
636.4092, 179.0085
636.8913, 179.1896
637.3734, 179.6324
637.8555, 180.8084
638.3376, 181.4699
638.8198, 181.4273
639.3019, 180.8698
639.7840, 179.5099
640.2661, 177.6245
640.7482, 176.4330
641.2303, 177.0640
641.7125, 178.5243
642.1946, 179.2323
642.6767, 179.2506
643.1588, 179.4001
643.6409, 180.0732
644.1230, 180.6028
644.6052, 179.9929
645.0873, 178.0261
645.5694, 176.8695
646.0515, 177.0975
646.5336, 177.4821
647.0157, 177.8160
647.4979, 177.8978
647.9800, 177.3470
648.4621, 176.1470
648.9442, 174.8862
649.4263, 174.1599
649.9084, 173.9240
650.3906, 173.8020
650.8727, 173.8063
651.3548, 173.9000
651.8369, 174.3212
652.3190, 174.6487
652.8011, 174.2782
653.2833, 173.1805
653.7654, 172.4314
654.2475, 172.5770
654.7296, 173.1329
655.2117, 173.9762
655.6938, 174.8560
656.1760, 174.9321
656.6581, 173.8516
657.1402, 172.3977
657.6223, 171.7301
658.1044, 172.0053
658.5865, 172.1258
659.0687, 171.9686
659.5508, 171.7880
660.0329, 171.6504
660.5150, 171.5191
660.9971, 171.3588
661.4792, 171.1607
661.9614, 170.9069
662.4435, 170.5506
662.9256, 170.1379
663.4077, 169.6729
663.8898, 169.1580
664.3719, 169.1557
664.8541, 170.2124
665.3362, 171.4368
665.8183, 171.1241
666.3004, 168.6045
666.7825, 166.9226
667.2646, 166.8441
667.7468, 166.8710
668.2289, 166.1383
668.7110, 165.0456
669.1931, 164.2687
669.6752, 164.0356
670.1573, 164.1564
670.6395, 164.5130
671.1216, 165.0770
671.6037, 165.4772
672.0858, 165.7509
672.5679, 165.7340
673.0500, 165.2157
673.5322, 164.4338
674.0143, 163.7097
674.4964, 163.0262
674.9785, 162.5296
675.4606, 162.2257
675.9427, 162.1568
676.4249, 162.6391
676.9070, 163.3679
677.3891, 163.5134
677.8712, 162.7520
678.3533, 161.7331
678.8354, 161.4729
679.3176, 162.0960
679.7997, 162.2363
680.2818, 161.4812
680.7639, 160.8674
681.2460, 160.8829
681.7281, 161.1416
682.2103, 161.2944
682.6924, 161.2945
683.1745, 161.0225
683.6566, 160.0714
684.1387, 159.0328
684.6208, 158.7261
685.1030, 159.0482
685.5851, 159.4754
686.0672, 159.8288
686.5493, 159.8599
687.0314, 159.0558
687.5135, 157.0821
687.9957, 156.0979
688.4778, 157.2188
688.9599, 158.0454
689.4420, 157.6930
689.9241, 156.8911
690.4063, 156.4953
690.8884, 156.6540
691.3705, 156.8652
