##NAMES=Ludwigite
##RRUFFID=R060844
##IDEAL CHEMISTRY=Mg_2_Fe^3+^O_2_(BO_3_)
##LOCALITY=Crestmore, California, USA
##OWNER=RRUFF
##SOURCE=Bob Jenkins
##DESCRIPTION=Black elongated prismatic crystals
##STATUS=The identification of this mineral has been confirmed only by single crystal X-ray diffraction.
##URL=rruff.info/R060844
205.8934, 1012.367
206.3755, 1005.495
206.8576, 1004.811
207.3397, 1003.523
207.8218, 999.2033
208.3040, 991.9107
208.7861, 988.0247
209.2682, 988.0034
209.7503, 990.7795
210.2324, 996.9093
210.7145, 1009.345
211.1967, 1015.242
211.6788, 1008.039
212.1609, 985.8944
212.6430, 974.5685
213.1251, 978.8099
213.6072, 988.6058
214.0893, 988.5991
214.5715, 973.9548
215.0536, 961.7136
215.5357, 958.9504
216.0178, 968.2945
216.4999, 971.2121
216.9820, 964.6708
217.4642, 954.1143
217.9463, 948.8147
218.4284, 950.8729
218.9105, 953.7356
219.3926, 955.1489
219.8747, 954.8739
220.3569, 953.4932
220.8390, 948.9440
221.3211, 944.5182
221.8032, 947.7164
222.2853, 963.5657
222.7674, 977.8144
223.2496, 983.3862
223.7317, 974.8973
224.2138, 973.7415
224.6959, 984.5261
225.1780, 1000.802
225.6601, 1007.094
226.1423, 997.9617
226.6244, 987.6805
227.1065, 982.5563
227.5886, 984.4680
228.0707, 986.9855
228.5528, 990.0012
229.0349, 993.6072
229.5171, 998.1830
229.9992, 1004.595
230.4813, 1010.773
230.9634, 1016.258
231.4455, 1023.375
231.9276, 1024.608
232.4098, 1018.399
232.8919, 1006.129
233.3740, 992.8126
233.8561, 976.5040
234.3382, 961.8131
234.8203, 951.4757
235.3025, 948.8052
235.7846, 943.6068
236.2667, 934.3979
236.7488, 922.2260
237.2309, 911.5012
237.7130, 901.1180
238.1952, 893.7996
238.6773, 891.9958
239.1594, 900.6791
239.6415, 904.2948
240.1236, 899.6015
240.6057, 888.6872
241.0879, 882.2386
241.5700, 883.8514
242.0521, 885.4272
242.5342, 882.2980
243.0163, 873.7463
243.4984, 861.4661
243.9805, 842.5800
244.4627, 819.2775
244.9448, 803.9732
245.4269, 797.5380
245.9090, 798.0214
246.3911, 805.8566
246.8732, 828.8605
247.3554, 842.4796
247.8375, 841.3271
248.3196, 827.9319
248.8017, 819.2347
249.2838, 817.7247
249.7659, 817.8096
250.2481, 815.2460
250.7302, 806.4592
251.2123, 803.4615
251.6944, 811.2341
252.1765, 826.9574
252.6586, 831.3046
253.1408, 818.5128
253.6229, 802.2219
254.1050, 791.5281
254.5871, 788.8048
255.0692, 786.4849
255.5513, 784.5126
256.0334, 782.5189
256.5156, 777.4496
256.9977, 767.0323
257.4798, 756.7032
257.9619, 749.4518
258.4440, 743.4886
258.9261, 745.7601
259.4083, 761.2476
259.8904, 786.8016
260.3725, 799.5809
260.8546, 793.6028
261.3367, 784.4105
261.8188, 784.1739
262.3010, 797.8187
262.7831, 805.6983
263.2652, 802.9810
263.7473, 792.2462
264.2294, 788.4319
264.7115, 792.9726
265.1937, 801.8952
265.6758, 815.0550
266.1579, 836.7480
266.6400, 845.4059
267.1221, 832.6779
267.6042, 804.8533
268.0864, 795.1345
268.5685, 809.9943
269.0506, 828.9138
269.5327, 837.2072
270.0148, 832.7849
270.4969, 826.7650
270.9791, 819.3541
271.4612, 811.5677
271.9433, 808.2357
272.4254, 810.3039
272.9075, 814.2354
273.3896, 818.4097
273.8718, 823.3065
274.3539, 824.8520
274.8360, 821.5426
275.3181, 814.9902
275.8002, 810.7401
276.2823, 809.0954
276.7645, 808.6168
277.2466, 808.1392
277.7287, 807.5050
278.2108, 808.6895
278.6929, 812.5249
279.1750, 817.8396
279.6572, 820.9044
280.1393, 821.2014
280.6214, 821.9224
281.1035, 825.9346
281.5856, 833.2933
282.0677, 839.0319
282.5498, 842.7201
283.0320, 844.3569
283.5141, 843.0941
283.9962, 838.5981
284.4783, 834.4460
284.9604, 834.7973
285.4425, 839.0917
285.9247, 836.9390
286.4068, 825.5474
286.8889, 810.1849
287.3710, 800.7593
287.8531, 797.3162
288.3352, 796.7898
288.8174, 798.6559
289.2995, 802.3633
289.7816, 803.9481
290.2637, 802.1501
290.7458, 800.0422
291.2279, 805.4686
291.7101, 817.6046
292.1922, 824.7742
292.6743, 813.8424
293.1564, 791.5218
293.6385, 782.1870
294.1206, 789.8661
294.6028, 804.7355
295.0849, 815.9101
295.5670, 823.4127
296.0491, 827.2861
296.5312, 825.1171
297.0133, 819.5516
297.4955, 816.6332
297.9776, 817.0154
298.4597, 819.1812
298.9418, 820.7665
299.4239, 822.4975
299.9060, 826.8785
300.3882, 840.4338
300.8703, 855.9354
301.3524, 859.8171
301.8345, 850.3513
302.3166, 837.4877
302.7987, 827.5950
303.2809, 821.3488
303.7630, 820.1299
304.2451, 829.2408
304.7272, 841.5637
305.2093, 848.0837
305.6914, 848.2725
306.1736, 847.3185
306.6557, 848.4508
307.1378, 851.4249
307.6199, 855.7894
308.1020, 865.4208
308.5841, 873.8212
309.0663, 873.3749
309.5484, 864.1346
310.0305, 856.3167
310.5126, 857.0990
310.9947, 862.9537
311.4768, 869.4906
311.9590, 877.6993
312.4411, 884.0621
312.9232, 885.6378
313.4053, 882.7256
313.8874, 878.9622
314.3695, 872.0247
314.8516, 866.8797
315.3337, 868.3329
315.8159, 889.4877
316.2980, 906.0139
316.7801, 903.0184
317.2622, 884.2039
317.7443, 870.5728
318.2264, 873.1198
318.7086, 882.3625
319.1907, 891.9679
319.6728, 904.2197
320.1549, 912.1163
320.6370, 911.6515
321.1191, 904.7888
321.6013, 898.4167
322.0834, 892.4289
322.5655, 888.7126
323.0476, 888.6115
323.5297, 896.0790
324.0118, 901.2216
324.4940, 899.9899
324.9761, 895.2923
325.4582, 894.4140
325.9403, 904.9371
326.4224, 913.7558
326.9045, 915.1991
327.3867, 902.4539
327.8688, 895.4345
328.3509, 898.5659
328.8330, 906.9104
329.3151, 912.0442
329.7972, 909.6772
330.2794, 908.8113
330.7615, 912.5646
331.2436, 922.8547
331.7257, 930.9274
332.2078, 936.7239
332.6899, 940.4297
333.1721, 941.7336
333.6542, 937.4647
334.1363, 936.3734
334.6184, 941.5839
335.1005, 953.6038
335.5826, 963.4493
336.0648, 971.4218
336.5469, 976.8510
337.0290, 977.9739
337.5111, 972.1743
337.9932, 970.4414
338.4753, 976.8632
338.9575, 989.8122
339.4396, 995.9484
339.9217, 993.0492
340.4038, 989.0167
340.8859, 991.4547
341.3680, 1001.226
341.8502, 1007.730
342.3323, 1007.147
342.8144, 1003.367
343.2965, 1009.102
343.7786, 1025.332
344.2607, 1043.588
344.7428, 1060.776
345.2249, 1076.230
345.7071, 1082.385
346.1892, 1075.603
346.6713, 1064.437
347.1534, 1062.984
347.6355, 1070.943
348.1176, 1083.518
348.5998, 1100.319
349.0819, 1119.697
349.5640, 1137.510
350.0461, 1153.841
350.5282, 1167.574
351.0103, 1177.193
351.4925, 1183.198
351.9746, 1187.466
352.4567, 1191.875
352.9388, 1194.620
353.4209, 1189.864
353.9030, 1176.646
354.3852, 1168.641
354.8673, 1184.705
355.3494, 1213.005
355.8315, 1233.278
356.3136, 1232.160
356.7957, 1223.619
357.2779, 1217.845
357.7600, 1214.755
358.2421, 1212.277
358.7242, 1208.697
359.2063, 1205.286
359.6884, 1203.330
360.1706, 1203.377
360.6527, 1204.744
361.1348, 1210.279
361.6169, 1217.950
362.0990, 1219.150
362.5811, 1204.814
363.0633, 1186.813
363.5454, 1172.185
364.0275, 1160.938
364.5096, 1155.210
364.9917, 1160.613
365.4738, 1171.870
365.9560, 1177.349
366.4381, 1170.650
366.9202, 1161.451
367.4023, 1152.644
367.8844, 1143.286
368.3665, 1137.313
368.8487, 1138.575
369.3308, 1142.191
369.8129, 1141.437
370.2950, 1129.588
370.7771, 1122.041
371.2592, 1125.163
371.7414, 1140.822
372.2235, 1144.589
372.7056, 1127.349
373.1877, 1107.250
373.6698, 1102.915
374.1519, 1122.693
374.6340, 1136.453
375.1161, 1137.357
375.5983, 1127.971
376.0804, 1123.335
376.5625, 1124.665
377.0446, 1127.685
377.5267, 1129.514
378.0089, 1130.062
378.4910, 1130.540
378.9731, 1130.974
379.4552, 1131.575
379.9373, 1134.257
380.4194, 1139.385
380.9016, 1140.627
381.3837, 1130.932
381.8658, 1113.160
382.3479, 1102.273
382.8300, 1098.987
383.3121, 1102.467
383.7943, 1116.865
384.2764, 1138.933
384.7585, 1154.996
385.2406, 1153.679
385.7227, 1143.933
386.2048, 1141.941
386.6870, 1147.593
387.1691, 1154.589
387.6512, 1158.839
388.1333, 1160.574
388.6154, 1160.448
389.0975, 1160.980
389.5797, 1157.131
390.0618, 1141.349
390.5439, 1116.073
391.0260, 1092.899
391.5081, 1077.681
391.9902, 1067.707
392.4724, 1061.466
392.9545, 1061.514
393.4366, 1059.480
393.9187, 1047.369
394.4008, 1030.919
394.8829, 1021.225
395.3651, 1029.274
395.8472, 1038.739
396.3293, 1042.568
396.8114, 1039.106
397.2935, 1034.243
397.7756, 1027.054
398.2578, 1019.628
398.7399, 1014.194
399.2220, 1009.652
399.7041, 1008.555
400.1862, 1014.334
400.6683, 1026.783
401.1505, 1030.003
401.6326, 1015.156
402.1147, 999.9584
402.5968, 996.7857
403.0789, 1010.803
403.5610, 1025.377
404.0432, 1041.472
404.5253, 1056.532
405.0074, 1060.713
405.4895, 1049.740
405.9716, 1040.007
406.4537, 1040.649
406.9358, 1052.368
407.4179, 1063.164
407.9001, 1073.275
408.3822, 1081.520
408.8643, 1084.262
409.3464, 1081.709
409.8285, 1083.086
410.3106, 1094.200
410.7928, 1111.360
411.2749, 1123.321
411.7570, 1129.941
412.2391, 1136.198
412.7212, 1149.612
413.2033, 1166.286
413.6855, 1175.237
414.1676, 1169.376
414.6497, 1161.019
415.1318, 1165.281
415.6139, 1179.817
416.0960, 1195.057
416.5782, 1211.606
417.0603, 1222.990
417.5424, 1219.665
418.0245, 1195.859
418.5066, 1174.363
418.9887, 1170.431
419.4709, 1176.678
419.9530, 1181.428
420.4351, 1181.302
420.9172, 1178.065
421.3993, 1171.380
421.8814, 1161.127
422.3636, 1151.864
422.8457, 1144.597
423.3278, 1138.766
423.8099, 1134.053
424.2920, 1134.959
424.7741, 1131.565
425.2563, 1119.335
425.7384, 1101.176
426.2205, 1090.142
426.7026, 1090.901
427.1847, 1092.879
427.6668, 1090.906
428.1490, 1082.018
428.6311, 1079.400
429.1132, 1087.166
429.5953, 1097.148
430.0774, 1094.264
430.5595, 1074.611
431.0417, 1059.801
431.5238, 1058.253
432.0059, 1067.929
432.4880, 1074.052
432.9701, 1076.240
433.4522, 1076.983
433.9344, 1078.502
434.4165, 1080.604
434.8986, 1082.489
435.3807, 1084.846
435.8628, 1085.539
436.3449, 1079.214
436.8270, 1067.142
437.3091, 1056.342
437.7913, 1050.512
438.2734, 1048.801
438.7555, 1052.294
439.2376, 1062.214
439.7197, 1068.646
440.2018, 1058.997
440.6840, 1041.619
441.1661, 1029.388
441.6482, 1032.394
442.1303, 1037.763
442.6124, 1037.073
443.0945, 1031.230
443.5767, 1029.428
444.0588, 1038.862
444.5409, 1051.018
445.0230, 1060.441
445.5051, 1066.973
445.9872, 1069.665
446.4694, 1067.184
446.9515, 1060.881
447.4336, 1053.504
447.9157, 1040.397
448.3978, 1031.562
448.8799, 1031.343
449.3621, 1041.832
449.8442, 1047.349
450.3263, 1044.808
450.8084, 1041.013
451.2905, 1043.903
451.7726, 1056.368
452.2548, 1063.950
452.7369, 1063.418
453.2190, 1056.640
453.7011, 1047.740
454.1832, 1035.802
454.6653, 1029.093
455.1475, 1036.961
455.6296, 1056.047
456.1117, 1066.966
456.5938, 1067.382
457.0759, 1063.230
457.5580, 1059.836
458.0402, 1057.663
458.5223, 1058.228
459.0044, 1064.313
459.4865, 1072.174
459.9686, 1078.571
460.4507, 1083.271
460.9329, 1084.496
461.4150, 1075.255
461.8971, 1064.654
462.3792, 1062.571
462.8613, 1076.308
463.3434, 1089.456
463.8256, 1094.515
464.3077, 1093.586
464.7898, 1090.947
465.2719, 1082.460
465.7540, 1077.316
466.2361, 1081.250
466.7183, 1096.992
467.2004, 1106.375
467.6825, 1100.571
468.1646, 1092.760
468.6467, 1093.910
469.1288, 1115.236
469.6109, 1125.521
470.0930, 1116.583
470.5752, 1095.298
471.0573, 1086.730
471.5394, 1095.349
472.0215, 1105.100
472.5036, 1107.255
472.9857, 1101.291
473.4679, 1098.814
473.9500, 1100.339
474.4321, 1103.778
474.9142, 1107.476
475.3963, 1111.221
475.8784, 1113.150
476.3606, 1111.694
476.8427, 1109.038
477.3248, 1109.308
477.8069, 1112.196
478.2890, 1115.394
478.7711, 1117.946
479.2533, 1119.688
479.7354, 1120.290
480.2175, 1119.549
480.6996, 1118.277
481.1817, 1117.921
481.6638, 1117.195
482.1460, 1114.125
482.6281, 1105.558
483.1102, 1096.717
483.5923, 1087.620
484.0744, 1078.637
484.5565, 1076.332
485.0387, 1092.094
485.5208, 1107.857
486.0029, 1112.595
486.4850, 1094.767
486.9671, 1083.985
487.4492, 1082.116
487.9314, 1086.604
488.4135, 1093.791
488.8956, 1106.486
489.3777, 1115.329
489.8598, 1116.979
490.3419, 1111.875
490.8241, 1104.795
491.3062, 1094.217
491.7883, 1087.481
492.2704, 1096.495
492.7525, 1118.414
493.2346, 1124.889
493.7168, 1106.397
494.1989, 1082.105
494.6810, 1084.096
495.1631, 1106.743
495.6452, 1126.736
496.1273, 1129.974
496.6095, 1124.687
497.0916, 1119.596
497.5737, 1115.031
498.0558, 1111.216
498.5379, 1109.292
499.0200, 1107.801
499.5021, 1104.947
499.9843, 1095.991
500.4664, 1091.728
500.9485, 1099.835
501.4306, 1115.482
501.9127, 1127.103
502.3948, 1131.268
502.8770, 1132.305
503.3591, 1130.427
503.8412, 1124.816
504.3233, 1122.343
504.8054, 1125.063
505.2875, 1128.850
505.7697, 1130.818
506.2518, 1131.673
506.7339, 1127.266
507.2160, 1113.853
507.6981, 1097.600
508.1802, 1095.843
508.6624, 1109.736
509.1445, 1123.809
509.6266, 1132.390
510.1087, 1135.234
510.5908, 1128.057
511.0729, 1110.100
511.5551, 1094.231
512.0372, 1096.302
512.5193, 1108.677
513.0014, 1115.801
513.4835, 1111.055
513.9656, 1104.560
514.4478, 1106.406
514.9299, 1113.149
515.4120, 1116.164
515.8941, 1105.825
516.3762, 1095.311
516.8583, 1093.273
517.3405, 1101.284
517.8226, 1106.690
518.3047, 1103.288
518.7868, 1098.169
519.2689, 1096.958
519.7510, 1102.066
520.2332, 1108.165
520.7153, 1116.955
521.1974, 1125.960
521.6795, 1128.092
522.1616, 1120.217
522.6437, 1113.431
523.1259, 1112.210
523.6080, 1116.220
524.0901, 1120.928
524.5722, 1127.201
525.0543, 1130.147
525.5364, 1121.646
526.0186, 1104.880
526.5007, 1095.389
526.9828, 1097.595
527.4649, 1104.384
527.9470, 1107.783
528.4291, 1108.393
528.9113, 1108.180
529.3934, 1105.890
529.8755, 1104.735
530.3576, 1108.571
530.8397, 1117.201
531.3218, 1124.635
531.8040, 1129.484
532.2861, 1131.162
532.7682, 1128.390
533.2503, 1113.239
533.7324, 1106.394
534.2145, 1119.806
534.6967, 1141.130
535.1788, 1148.533
535.6609, 1128.786
536.1430, 1115.708
536.6251, 1120.695
537.1072, 1141.712
537.5894, 1149.656
538.0715, 1141.293
538.5536, 1129.444
539.0357, 1120.631
539.5178, 1115.096
539.9999, 1120.476
540.4821, 1139.652
540.9642, 1161.696
541.4463, 1173.290
541.9284, 1175.865
542.4105, 1174.790
542.8926, 1171.170
543.3748, 1165.636
543.8569, 1157.580
544.3390, 1147.768
544.8210, 1139.651
545.3032, 1132.887
545.7853, 1129.956
546.2674, 1134.515
546.7495, 1149.877
547.2316, 1160.800
547.7137, 1158.169
548.1959, 1151.209
548.6780, 1149.594
549.1601, 1161.115
549.6422, 1169.046
550.1243, 1171.743
550.6064, 1169.774
551.0886, 1163.811
551.5707, 1150.512
552.0528, 1141.359
552.5349, 1142.690
553.0170, 1154.119
553.4991, 1164.581
553.9813, 1174.495
554.4634, 1181.245
554.9455, 1180.238
555.4276, 1173.455
555.9097, 1168.298
556.3918, 1165.942
556.8740, 1166.366
557.3561, 1172.402
557.8382, 1181.397
558.3203, 1186.847
558.8024, 1179.819
559.2845, 1172.927
559.7667, 1177.705
560.2488, 1193.251
560.7309, 1202.158
561.2130, 1191.215
561.6951, 1177.036
562.1772, 1169.765
562.6594, 1174.224
563.1415, 1178.589
563.6236, 1183.582
564.1057, 1187.794
564.5878, 1188.927
565.0699, 1185.325
565.5521, 1183.368
566.0342, 1184.988
566.5163, 1188.950
566.9984, 1190.411
567.4805, 1189.132
567.9626, 1188.435
568.4448, 1191.410
568.9269, 1196.459
569.4090, 1198.612
569.8911, 1197.516
570.3732, 1195.976
570.8553, 1196.372
571.3375, 1197.989
571.8196, 1199.741
572.3017, 1201.323
572.7838, 1203.045
573.2659, 1205.292
573.7480, 1207.786
574.2302, 1210.019
574.7123, 1214.549
575.1944, 1216.114
575.6765, 1211.014
576.1586, 1199.199
576.6407, 1192.023
577.1229, 1191.769
577.6050, 1193.280
578.0871, 1193.772
578.5692, 1193.064
579.0513, 1191.939
579.5334, 1189.844
580.0156, 1188.569
580.4977, 1190.845
580.9798, 1196.446
581.4619, 1203.503
581.9440, 1214.049
582.4261, 1222.520
582.9083, 1216.007
583.3904, 1197.991
583.8725, 1182.932
584.3546, 1181.614
584.8367, 1185.120
585.3188, 1185.278
585.8010, 1181.385
586.2831, 1180.047
586.7652, 1188.044
587.2473, 1197.308
587.7294, 1201.687
588.2115, 1196.390
588.6937, 1191.966
589.1758, 1188.615
589.6579, 1186.522
590.1400, 1186.757
590.6221, 1192.057
591.1042, 1192.254
591.5864, 1182.093
592.0685, 1165.732
592.5506, 1161.258
593.0327, 1169.350
593.5148, 1180.728
593.9969, 1193.805
594.4791, 1205.457
594.9612, 1204.605
595.4433, 1190.236
595.9254, 1175.134
596.4075, 1168.122
596.8896, 1167.816
597.3718, 1173.567
597.8539, 1191.076
598.3360, 1203.724
598.8181, 1197.959
599.3002, 1182.714
599.7823, 1174.356
600.2645, 1186.342
600.7466, 1194.622
601.2287, 1189.259
601.7108, 1172.560
602.1929, 1169.413
602.6750, 1188.686
603.1572, 1205.514
603.6393, 1205.173
604.1214, 1186.336
604.6035, 1170.873
605.0856, 1158.387
605.5677, 1150.779
606.0498, 1153.683
606.5319, 1163.753
607.0140, 1167.890
607.4962, 1161.031
607.9783, 1152.329
608.4604, 1150.439
608.9425, 1154.155
609.4246, 1160.880
609.9067, 1174.787
610.3889, 1186.634
610.8710, 1191.497
611.3531, 1189.680
611.8352, 1185.019
612.3173, 1175.187
612.7994, 1165.340
613.2816, 1156.624
613.7637, 1147.451
614.2458, 1147.859
614.7279, 1163.863
615.2100, 1180.277
615.6921, 1179.920
616.1743, 1161.689
616.6564, 1146.942
617.1385, 1138.190
617.6206, 1135.264
618.1027, 1141.086
618.5848, 1153.372
619.0670, 1163.265
619.5491, 1170.724
620.0312, 1171.064
620.5133, 1150.747
620.9954, 1115.822
621.4775, 1094.490
621.9597, 1115.203
622.4418, 1141.801
622.9239, 1151.645
623.4060, 1138.231
623.8881, 1131.552
624.3702, 1139.791
624.8524, 1151.922
625.3345, 1160.343
625.8166, 1163.954
626.2987, 1166.549
626.7808, 1167.526
627.2629, 1168.763
627.7451, 1174.759
628.2272, 1185.343
628.7093, 1192.737
629.1914, 1194.611
629.6735, 1191.875
630.1556, 1183.297
630.6378, 1170.616
631.1199, 1161.416
631.6020, 1161.577
632.0841, 1165.986
632.5662, 1170.776
633.0483, 1175.696
633.5305, 1181.762
634.0126, 1191.732
634.4947, 1201.206
634.9768, 1207.086
635.4589, 1207.191
635.9410, 1207.705
636.4232, 1208.953
636.9053, 1210.293
637.3874, 1210.356
637.8695, 1208.348
638.3516, 1209.619
638.8337, 1216.086
639.3159, 1224.870
639.7980, 1231.458
640.2801, 1235.686
640.7622, 1236.316
641.2443, 1227.229
641.7264, 1217.461
642.2086, 1221.073
642.6907, 1235.871
643.1728, 1248.334
643.6549, 1250.259
644.1370, 1248.292
644.6191, 1246.271
645.1013, 1244.443
645.5834, 1243.628
646.0655, 1242.580
646.5476, 1243.598
647.0297, 1249.222
647.5118, 1263.609
647.9940, 1270.673
648.4761, 1266.323
648.9582, 1258.890
649.4403, 1263.826
649.9224, 1280.584
650.4045, 1292.486
650.8867, 1293.224
651.3688, 1288.590
651.8509, 1286.403
652.3330, 1286.751
652.8151, 1290.053
653.2972, 1299.736
653.7794, 1309.962
654.2615, 1315.077
654.7436, 1315.372
655.2257, 1318.693
655.7078, 1331.754
656.1899, 1345.182
656.6721, 1353.215
657.1542, 1353.614
657.6363, 1356.353
658.1184, 1361.698
658.6005, 1368.966
659.0826, 1377.218
659.5648, 1386.331
660.0469, 1399.104
660.5290, 1417.512
661.0111, 1435.434
661.4932, 1442.817
661.9753, 1441.919
662.4575, 1439.209
662.9396, 1432.609
663.4217, 1430.303
663.9038, 1443.640
664.3859, 1467.684
664.8680, 1487.555
665.3502, 1491.405
665.8323, 1496.035
666.3144, 1512.158
666.7965, 1540.652
667.2786, 1554.343
667.7607, 1542.488
668.2428, 1530.294
668.7249, 1532.379
669.2070, 1550.855
669.6891, 1561.522
670.1713, 1562.933
670.6534, 1562.596
671.1355, 1570.289
671.6176, 1582.777
672.0997, 1588.811
672.5818, 1585.692
673.0640, 1578.700
673.5461, 1570.380
674.0282, 1562.040
674.5103, 1555.530
674.9924, 1553.116
675.4745, 1551.022
675.9567, 1549.866
676.4388, 1548.299
676.9209, 1542.300
677.4030, 1530.526
677.8851, 1516.086
678.3672, 1497.027
678.8494, 1475.434
679.3315, 1469.381
679.8136, 1482.128
680.2957, 1489.900
680.7778, 1472.543
681.2599, 1438.951
681.7421, 1416.559
682.2242, 1405.678
682.7063, 1400.060
683.1884, 1402.618
683.6705, 1403.747
684.1526, 1391.318
684.6348, 1359.711
685.1169, 1328.098
685.5990, 1300.054
686.0811, 1277.240
686.5632, 1261.760
687.0453, 1260.250
687.5275, 1254.695
688.0096, 1243.728
688.4917, 1228.798
688.9738, 1209.995
689.4559, 1186.663
689.9380, 1169.367
690.4202, 1163.787
690.9023, 1162.553
691.3844, 1149.883
691.8665, 1128.417
692.3486, 1108.925
692.8307, 1096.483
693.3129, 1088.582
693.7950, 1085.123
694.2771, 1085.242
694.7592, 1083.291
695.2413, 1073.766
695.7234, 1064.820
696.2056, 1062.177
696.6877, 1067.624
697.1698, 1065.014
697.6519, 1050.900
698.1340, 1034.915
698.6161, 1024.179
699.0983, 1018.659
699.5804, 1014.475
700.0625, 1011.825
700.5446, 1008.486
701.0267, 1000.214
701.5089, 989.7881
701.9910, 983.3311
702.4731, 984.3345
702.9552, 984.7150
703.4373, 976.6030
703.9194, 965.3113
704.4016, 958.5275
