##NAMES=Lueshite
##RRUFFID=R090025
##IDEAL CHEMISTRY=NaNb^5+^O_3_
##LOCALITY=Lueshe carbonatite, Kivu Province, Democratic Republic of the Congo
##OWNER=RRUFF
##SOURCE=Karl Russ
##DESCRIPTION=Black cubes
##STATUS=The identification of this mineral is confirmed by single-crystal X-ray diffraction and chemical analysis.
##URL=rruff.info/R090025
##MEASURED CHEMISTRY=(Na_0.87_Ca_0.03_Ce_0.01_La_0.01_Th_0.01_)(Nb_0.94_Ta_0.06_)O_3_; = bright. (Na_0.91_Ca_0.03_Ce_0.01_La_0.01_)(Nb_0.95_Ta_0.05_)O_3_ = dark
90.92609, 0.0000000E+00
91.40820, 51.81276
91.89032, 51.48817
92.37244, 51.61169
92.85455, 52.12495
93.33667, 52.67855
93.81879, 53.06673
94.30090, 53.30293
94.78302, 53.42757
95.26514, 53.41017
95.74725, 53.31649
96.22937, 53.21519
96.71149, 53.08966
97.19360, 53.15295
97.67572, 53.74659
98.15784, 54.85004
98.63995, 55.82742
99.12207, 56.55157
99.60419, 57.01052
100.0863, 56.98680
100.5684, 56.21840
101.0505, 55.49304
101.5327, 55.97679
102.0148, 58.04341
102.4969, 60.02435
102.9790, 60.98059
103.4611, 60.30394
103.9432, 62.17388
104.4253, 67.91005
104.9075, 75.47502
105.3896, 80.41174
105.8717, 80.32630
106.3538, 80.92631
106.8359, 84.46170
107.3180, 92.38857
107.8002, 100.6649
108.2823, 109.0723
108.7644, 117.7682
109.2465, 127.6988
109.7286, 138.8752
110.2107, 151.1507
110.6929, 164.6729
111.1750, 179.0103
111.6571, 194.9046
112.1392, 211.8448
112.6213, 230.0730
113.1034, 251.7144
113.5856, 278.0166
114.0677, 307.6909
114.5498, 339.5496
115.0319, 371.6273
115.5140, 407.7555
115.9961, 449.4272
116.4783, 496.6226
116.9604, 546.1920
117.4425, 599.7263
117.9246, 654.8216
118.4067, 708.3533
118.8888, 758.6777
119.3710, 808.1027
119.8531, 858.8952
120.3352, 911.3973
120.8173, 961.1976
121.2994, 1003.898
121.7815, 1041.669
122.2637, 1078.444
122.7458, 1114.454
123.2279, 1150.776
123.7100, 1187.528
124.1921, 1224.067
124.6742, 1263.794
125.1564, 1310.251
125.6385, 1362.617
126.1206, 1418.533
126.6027, 1475.477
127.0848, 1534.785
127.5669, 1598.937
128.0491, 1669.281
128.5312, 1742.546
129.0133, 1814.967
129.4954, 1885.992
129.9775, 1956.578
130.4596, 2028.815
130.9418, 2101.049
131.4239, 2169.317
131.9060, 2232.140
132.3881, 2291.438
132.8702, 2351.280
133.3523, 2412.206
133.8345, 2470.366
134.3166, 2522.169
134.7987, 2568.035
135.2808, 2610.628
135.7629, 2650.922
136.2450, 2689.100
136.7272, 2724.556
137.2093, 2757.007
137.6914, 2788.263
138.1735, 2819.891
138.6556, 2851.532
139.1377, 2884.451
139.6199, 2919.234
140.1020, 2955.577
140.5841, 2993.530
141.0662, 3032.191
141.5483, 3073.055
142.0304, 3118.606
142.5126, 3170.414
142.9947, 3221.028
143.4768, 3256.913
143.9589, 3269.106
144.4410, 3286.573
144.9231, 3311.064
145.4053, 3339.573
145.8874, 3368.510
146.3695, 3400.120
146.8516, 3429.044
147.3337, 3452.990
147.8158, 3471.031
148.2980, 3487.971
148.7801, 3502.732
149.2622, 3516.729
149.7443, 3532.419
150.2264, 3554.391
150.7085, 3574.273
151.1907, 3588.959
151.6728, 3596.233
152.1549, 3602.810
152.6370, 3608.418
153.1191, 3613.362
153.6012, 3618.297
154.0834, 3623.102
154.5655, 3627.858
155.0476, 3632.639
155.5297, 3637.359
156.0118, 3641.936
156.4939, 3646.418
156.9761, 3650.741
157.4582, 3654.597
157.9403, 3656.844
158.4224, 3659.293
158.9045, 3663.027
159.3866, 3668.788
159.8688, 3675.213
160.3509, 3681.562
160.8330, 3688.120
161.3151, 3696.161
161.7972, 3708.042
162.2793, 3720.648
162.7615, 3731.603
163.2436, 3739.461
163.7257, 3746.337
164.2078, 3752.924
164.6899, 3759.237
165.1720, 3765.474
165.6541, 3771.730
166.1363, 3777.894
166.6184, 3783.859
167.1005, 3790.559
167.5826, 3796.220
168.0647, 3798.498
168.5468, 3797.737
169.0290, 3798.685
169.5111, 3806.500
169.9932, 3817.250
170.4753, 3825.785
170.9574, 3828.108
171.4395, 3828.637
171.9217, 3830.799
172.4038, 3834.640
172.8859, 3839.524
173.3680, 3845.959
173.8501, 3853.050
174.3322, 3859.312
174.8144, 3863.217
175.2965, 3866.442
175.7786, 3870.719
176.2607, 3876.093
176.7428, 3882.428
177.2249, 3890.307
177.7071, 3899.055
178.1892, 3907.248
178.6713, 3913.915
179.1534, 3919.661
179.6355, 3925.630
180.1176, 3931.939
180.5998, 3937.827
181.0819, 3941.586
181.5640, 3943.958
182.0461, 3947.859
182.5282, 3956.929
183.0103, 3968.244
183.4925, 3974.551
183.9746, 3975.031
184.4567, 3973.181
184.9388, 3973.189
185.4209, 3974.749
185.9030, 3975.893
186.3852, 3975.353
186.8673, 3973.650
187.3494, 3972.560
187.8315, 3972.286
188.3136, 3972.378
188.7957, 3971.880
189.2779, 3970.925
189.7600, 3970.906
190.2421, 3973.282
190.7242, 3977.506
191.2063, 3980.485
191.6884, 3981.994
192.1706, 3982.330
192.6527, 3981.458
193.1348, 3979.300
193.6169, 3977.550
194.0990, 3976.923
194.5811, 3977.344
195.0633, 3978.742
195.5454, 3981.467
196.0275, 3984.364
196.5096, 3985.071
196.9917, 3983.445
197.4738, 3981.384
197.9560, 3980.140
198.4381, 3979.769
198.9202, 3978.032
199.4023, 3974.458
199.8844, 3970.226
200.3665, 3967.650
200.8487, 3966.905
201.3308, 3967.100
201.8129, 3968.106
202.2950, 3970.048
202.7771, 3971.505
203.2592, 3972.238
203.7414, 3972.677
204.2235, 3973.663
204.7056, 3975.116
205.1877, 3977.165
205.6698, 3980.037
206.1519, 3983.867
206.6341, 3987.211
207.1162, 3989.793
207.5983, 3991.918
208.0804, 3994.228
208.5625, 3996.642
209.0446, 3999.325
209.5268, 4002.650
210.0089, 4007.028
210.4910, 4010.061
210.9731, 4011.304
211.4552, 4011.510
211.9373, 4012.461
212.4195, 4014.431
212.9016, 4016.575
213.3837, 4018.347
213.8658, 4019.405
214.3479, 4021.651
214.8300, 4025.755
215.3121, 4030.718
215.7943, 4033.818
216.2764, 4033.926
216.7585, 4034.369
217.2406, 4036.940
217.7227, 4042.663
218.2048, 4046.905
218.6870, 4049.491
219.1691, 4050.538
219.6512, 4050.455
220.1333, 4049.289
220.6154, 4046.797
221.0975, 4042.158
221.5797, 4033.413
222.0618, 4028.697
222.5439, 4029.798
223.0260, 4034.186
223.5081, 4036.412
223.9902, 4036.688
224.4724, 4034.629
224.9545, 4029.718
225.4366, 4020.459
225.9187, 4012.821
226.4008, 4007.460
226.8829, 4003.427
227.3651, 3998.624
227.8472, 3992.653
228.3293, 3986.459
228.8114, 3980.484
229.2935, 3975.104
229.7757, 3968.594
230.2578, 3960.377
230.7399, 3951.277
231.2220, 3942.724
231.7041, 3934.552
232.1862, 3927.150
232.6684, 3920.956
233.1505, 3916.833
233.6326, 3910.934
234.1147, 3902.861
234.5968, 3893.186
235.0789, 3883.129
235.5611, 3873.007
236.0432, 3862.055
236.5253, 3849.396
237.0074, 3834.103
237.4895, 3821.459
237.9716, 3812.707
238.4538, 3805.883
238.9359, 3798.065
239.4180, 3789.765
239.9001, 3779.473
240.3822, 3765.865
240.8643, 3747.685
241.3465, 3732.986
241.8286, 3724.094
242.3107, 3717.027
242.7928, 3705.742
243.2749, 3687.065
243.7570, 3669.602
244.2392, 3656.117
244.7213, 3647.428
245.2034, 3637.421
245.6855, 3625.667
246.1676, 3612.917
246.6497, 3599.985
247.1319, 3586.457
247.6140, 3573.657
248.0961, 3562.352
248.5782, 3552.852
249.0603, 3541.735
249.5424, 3527.998
250.0246, 3513.582
250.5067, 3500.456
250.9888, 3489.158
251.4709, 3478.084
251.9530, 3466.728
252.4351, 3454.909
252.9173, 3444.374
253.3994, 3436.103
253.8815, 3427.636
254.3636, 3416.145
254.8457, 3399.731
255.3278, 3384.595
255.8100, 3372.517
256.2921, 3363.283
256.7742, 3351.558
257.2563, 3336.485
257.7384, 3320.091
258.2205, 3304.113
258.7026, 3288.176
259.1848, 3273.553
259.6669, 3261.437
260.1490, 3251.229
260.6311, 3238.090
261.1132, 3220.694
261.5953, 3202.713
262.0775, 3187.426
262.5596, 3176.077
263.0417, 3163.302
263.5238, 3147.546
264.0059, 3129.847
264.4880, 3115.025
264.9702, 3104.791
265.4523, 3094.171
265.9344, 3079.479
266.4165, 3058.926
266.8986, 3040.337
267.3807, 3024.585
267.8629, 3010.967
268.3450, 2997.256
268.8271, 2983.532
269.3092, 2969.233
269.7913, 2953.617
270.2734, 2936.549
270.7556, 2919.375
271.2377, 2901.530
271.7198, 2884.064
272.2019, 2870.055
272.6840, 2860.977
273.1661, 2850.504
273.6483, 2834.067
274.1304, 2810.332
274.6125, 2792.755
275.0946, 2783.560
275.5767, 2777.915
276.0588, 2766.754
276.5410, 2748.942
277.0231, 2731.266
277.5052, 2717.296
277.9873, 2706.992
278.4694, 2694.445
278.9515, 2678.713
279.4337, 2662.553
279.9158, 2650.806
280.3979, 2644.084
280.8800, 2635.580
281.3621, 2622.709
281.8442, 2605.851
282.3264, 2588.748
282.8085, 2571.470
283.2906, 2553.927
283.7727, 2535.237
284.2548, 2515.403
284.7369, 2498.031
285.2191, 2485.236
285.7012, 2475.686
286.1833, 2462.867
286.6654, 2446.349
287.1475, 2429.414
287.6296, 2416.114
288.1118, 2405.929
288.5939, 2394.008
289.0760, 2378.493
289.5581, 2361.069
290.0402, 2345.397
290.5223, 2331.425
291.0045, 2318.593
291.4866, 2306.977
291.9687, 2296.206
292.4508, 2284.532
292.9329, 2271.522
293.4150, 2257.645
293.8972, 2242.836
294.3793, 2227.203
294.8614, 2211.723
295.3435, 2197.290
295.8256, 2183.638
296.3077, 2169.991
296.7899, 2156.226
297.2720, 2142.962
297.7541, 2131.748
298.2362, 2122.216
298.7183, 2112.462
299.2004, 2100.878
299.6826, 2088.509
300.1647, 2077.292
300.6468, 2067.598
301.1289, 2057.863
301.6110, 2046.064
302.0931, 2032.849
302.5753, 2019.598
303.0574, 2006.446
303.5395, 1993.919
304.0216, 1983.352
304.5037, 1974.721
304.9858, 1966.348
305.4680, 1956.971
305.9501, 1946.874
306.4322, 1936.568
306.9143, 1925.871
307.3964, 1915.285
307.8785, 1905.382
308.3607, 1896.112
308.8428, 1886.458
309.3249, 1875.075
309.8070, 1863.176
310.2891, 1852.231
310.7712, 1842.754
311.2534, 1833.991
311.7355, 1825.847
312.2176, 1818.016
312.6997, 1809.673
313.1818, 1800.044
313.6639, 1789.990
314.1461, 1780.076
314.6282, 1770.407
315.1103, 1761.056
315.5924, 1752.218
316.0745, 1743.762
316.5566, 1735.270
317.0388, 1725.999
317.5209, 1717.191
318.0030, 1709.740
318.4851, 1704.178
318.9672, 1698.264
319.4493, 1691.338
319.9315, 1683.641
320.4136, 1675.389
320.8957, 1666.426
321.3778, 1657.202
321.8599, 1647.666
322.3420, 1637.771
322.8242, 1628.160
323.3063, 1619.291
323.7884, 1610.603
324.2705, 1601.605
324.7526, 1590.952
325.2347, 1581.248
325.7169, 1573.536
326.1990, 1567.595
326.6811, 1561.586
327.1632, 1555.917
327.6453, 1549.781
328.1274, 1542.729
328.6096, 1533.389
329.0917, 1524.787
329.5738, 1517.541
330.0559, 1511.205
330.5380, 1504.214
331.0201, 1496.155
331.5023, 1487.888
331.9844, 1479.593
332.4665, 1470.898
332.9486, 1463.374
333.4307, 1458.100
333.9128, 1453.458
334.3950, 1446.619
334.8771, 1436.131
335.3592, 1426.058
335.8413, 1417.867
336.3234, 1411.732
336.8055, 1405.269
337.2877, 1398.526
337.7698, 1391.471
338.2519, 1383.732
338.7340, 1374.994
339.2161, 1367.115
339.6982, 1360.867
340.1803, 1355.868
340.6624, 1350.162
341.1446, 1343.631
341.6267, 1336.576
342.1088, 1328.870
342.5909, 1320.554
343.0730, 1312.302
343.5551, 1304.121
344.0373, 1296.244
344.5194, 1289.735
345.0015, 1284.602
345.4836, 1279.368
345.9657, 1273.001
346.4478, 1265.705
346.9300, 1258.598
347.4121, 1251.687
347.8942, 1244.979
348.3763, 1238.405
348.8584, 1231.982
349.3405, 1225.596
349.8227, 1219.410
350.3048, 1213.204
350.7869, 1206.368
351.2690, 1198.926
351.7511, 1191.438
352.2332, 1184.409
352.7154, 1177.796
353.1975, 1171.565
353.6796, 1166.142
354.1617, 1160.620
354.6438, 1153.199
355.1259, 1144.356
355.6081, 1136.740
356.0902, 1133.412
356.5723, 1131.586
357.0544, 1127.783
357.5365, 1120.531
358.0186, 1113.111
358.5008, 1108.316
358.9829, 1105.026
359.4650, 1100.848
359.9471, 1093.676
360.4292, 1086.004
360.9113, 1079.335
361.3935, 1073.948
361.8756, 1069.159
362.3577, 1065.474
362.8398, 1062.009
363.3219, 1057.760
363.8040, 1051.698
364.2862, 1045.586
364.7683, 1040.093
365.2504, 1035.177
365.7325, 1030.077
366.2146, 1024.074
366.6967, 1018.168
367.1789, 1012.979
367.6610, 1009.514
368.1431, 1005.650
368.6252, 1001.257
369.1073, 996.3231
369.5894, 990.8724
370.0716, 982.8190
370.5537, 976.3595
371.0358, 973.4726
371.5179, 976.2054
372.0000, 976.1352
372.4821, 971.8527
372.9643, 965.7313
373.4464, 960.8177
373.9285, 957.1778
374.4106, 954.7676
374.8927, 954.2023
375.3748, 955.3284
375.8570, 953.9501
376.3391, 949.2286
376.8212, 943.7057
377.3033, 939.3698
377.7854, 936.3561
378.2675, 933.7689
378.7497, 931.6108
379.2318, 929.6762
379.7139, 927.4517
380.1960, 924.9732
380.6781, 922.0943
381.1602, 918.4099
381.6424, 914.1418
382.1245, 910.9041
382.6066, 908.9694
383.0887, 907.1594
383.5708, 903.4607
384.0529, 898.3617
384.5351, 894.0281
385.0172, 891.5500
385.4993, 890.3367
385.9814, 889.6653
386.4635, 889.4977
386.9456, 888.9417
387.4278, 886.9578
387.9099, 884.1823
388.3920, 881.5214
388.8741, 878.9605
389.3562, 877.0270
389.8383, 876.8744
390.3205, 877.8059
390.8026, 877.8740
391.2847, 875.3338
391.7668, 871.9954
392.2489, 869.2734
392.7310, 867.4982
393.2132, 865.5491
393.6953, 862.3754
394.1774, 858.9108
394.6595, 856.2654
395.1416, 855.8564
395.6237, 855.3270
396.1059, 853.3171
396.5880, 849.9812
397.0701, 848.0106
397.5522, 849.7196
398.0343, 851.8040
398.5164, 852.3056
398.9986, 849.3985
399.4807, 847.0701
399.9628, 845.3637
400.4449, 844.3193
400.9270, 844.1029
401.4091, 845.5721
401.8913, 846.7584
402.3734, 846.8743
402.8555, 845.6090
403.3376, 845.0900
403.8197, 845.6874
404.3018, 846.5877
404.7840, 846.7979
405.2661, 845.9702
405.7482, 845.6773
406.2303, 846.4217
406.7124, 847.8669
407.1945, 848.4889
407.6767, 848.0910
408.1588, 847.7848
408.6409, 848.5604
409.1230, 850.3055
409.6051, 851.3167
410.0872, 851.2766
410.5694, 851.0209
411.0515, 851.9820
411.5336, 853.9736
412.0157, 855.7936
412.4978, 856.6798
412.9799, 857.1204
413.4621, 858.0564
413.9442, 859.4998
414.4263, 861.2625
414.9084, 863.4245
415.3905, 865.7733
415.8727, 867.9941
416.3548, 869.9821
416.8369, 871.8860
417.3190, 873.6564
417.8011, 875.4185
418.2832, 877.5418
418.7654, 880.4064
419.2475, 883.5284
419.7296, 886.5161
420.2117, 889.3109
420.6938, 892.2068
421.1759, 895.5953
421.6581, 899.0118
422.1402, 902.0067
422.6223, 903.3097
423.1044, 905.3585
423.5865, 909.3162
424.0686, 914.8397
424.5508, 919.4055
425.0329, 922.1434
425.5150, 924.3562
425.9971, 926.5582
426.4792, 928.4688
426.9613, 930.9955
427.4435, 934.5187
427.9256, 938.4493
428.4077, 941.9234
428.8898, 945.1567
429.3719, 947.4641
429.8540, 948.1251
430.3362, 947.3717
430.8183, 949.2288
431.3004, 954.6317
431.7825, 959.9379
432.2646, 961.4987
432.7467, 959.2958
433.2289, 958.5653
433.7110, 960.3732
434.1931, 963.3238
434.6752, 964.8356
435.1573, 965.0193
435.6394, 965.1433
436.1216, 966.5216
436.6036, 968.1879
437.0858, 967.6389
437.5679, 964.7831
438.0500, 961.5388
438.5321, 959.5768
439.0142, 958.3781
439.4963, 957.0890
439.9785, 955.5411
440.4606, 953.7106
440.9427, 951.2635
441.4248, 948.4844
441.9069, 946.2325
442.3890, 945.8242
442.8712, 945.4587
443.3533, 943.8809
443.8354, 940.7480
444.3175, 937.4408
444.7996, 934.3246
445.2817, 931.3307
445.7639, 928.3582
446.2460, 925.2674
446.7281, 922.2968
447.2102, 919.3141
447.6923, 916.3881
448.1744, 914.1793
448.6566, 913.1389
449.1387, 912.3008
449.6208, 911.1191
450.1029, 909.0927
450.5850, 908.3134
451.0671, 909.4672
451.5493, 911.1678
452.0314, 911.3458
452.5135, 909.6805
452.9956, 907.9032
453.4777, 906.4571
453.9598, 905.2779
454.4420, 903.9903
454.9241, 902.5827
455.4062, 901.3193
455.8883, 900.3702
456.3704, 899.7365
456.8525, 899.4716
457.3347, 899.6236
457.8168, 900.0179
458.2989, 900.7719
458.7810, 901.6485
459.2631, 901.9210
459.7452, 900.2718
460.2274, 898.4651
460.7095, 898.9515
461.1916, 901.4191
461.6737, 903.4230
462.1558, 902.5957
462.6379, 901.1104
463.1201, 901.0521
463.6022, 903.3618
464.0843, 905.8382
464.5664, 907.5997
465.0485, 908.9453
465.5306, 910.3545
466.0128, 912.1097
466.4949, 913.7633
466.9770, 915.0307
467.4591, 915.8861
467.9412, 917.1481
468.4233, 918.9895
468.9055, 921.1263
469.3876, 923.4994
469.8697, 926.5405
470.3518, 928.8222
470.8339, 929.9168
471.3160, 930.5740
471.7982, 932.1791
472.2803, 934.8381
472.7624, 938.1072
473.2445, 942.1058
473.7266, 946.6131
474.2087, 949.9301
474.6909, 951.8752
475.1730, 954.0026
475.6551, 958.3810
476.1372, 964.2101
476.6193, 967.8093
477.1014, 968.0452
477.5836, 967.6229
478.0657, 970.0626
478.5478, 974.6056
479.0299, 979.0262
479.5120, 981.9756
479.9941, 984.5853
480.4763, 987.8759
480.9584, 991.8307
481.4405, 995.9615
481.9226, 1000.200
482.4047, 1004.401
482.8868, 1008.476
483.3690, 1012.407
483.8511, 1016.132
484.3332, 1019.264
484.8153, 1022.241
485.2974, 1025.845
485.7795, 1031.210
486.2617, 1036.062
486.7438, 1039.397
487.2259, 1041.283
487.7080, 1044.852
488.1901, 1050.897
488.6722, 1057.635
489.1544, 1064.313
489.6365, 1071.177
490.1186, 1076.596
490.6007, 1079.970
491.0828, 1082.708
491.5649, 1087.250
492.0471, 1093.634
492.5292, 1100.103
493.0113, 1106.182
493.4934, 1111.805
493.9755, 1116.516
494.4576, 1120.327
494.9398, 1124.630
495.4219, 1130.653
495.9040, 1137.804
496.3861, 1144.865
496.8682, 1151.812
497.3503, 1158.504
497.8325, 1164.718
498.3146, 1170.680
498.7967, 1176.877
499.2788, 1183.424
499.7609, 1190.279
500.2430, 1197.766
500.7252, 1205.653
501.2073, 1213.060
501.6894, 1219.097
502.1715, 1225.044
502.6536, 1231.535
503.1357, 1238.602
503.6179, 1246.235
504.1000, 1254.887
504.5821, 1263.786
505.0642, 1272.113
505.5463, 1279.417
506.0284, 1287.004
506.5106, 1294.771
506.9927, 1302.963
507.4748, 1312.843
507.9569, 1324.861
508.4390, 1336.281
508.9211, 1345.291
509.4033, 1352.241
509.8854, 1360.002
510.3675, 1368.575
510.8496, 1377.903
511.3317, 1388.311
511.8138, 1399.490
512.2960, 1410.401
512.7781, 1421.068
513.2602, 1431.314
513.7423, 1440.202
514.2244, 1448.525
514.7065, 1458.200
515.1887, 1472.276
515.6708, 1486.402
516.1529, 1496.785
516.6350, 1503.518
517.1171, 1511.678
517.5992, 1523.880
518.0814, 1537.451
518.5635, 1550.656
519.0456, 1563.159
519.5277, 1575.557
520.0098, 1587.793
520.4919, 1599.896
520.9741, 1611.744
521.4562, 1622.493
521.9383, 1634.481
522.4204, 1648.632
522.9025, 1664.502
523.3846, 1679.315
523.8668, 1692.809
524.3489, 1705.885
524.8310, 1718.693
525.3131, 1731.470
525.7952, 1746.100
526.2773, 1762.998
526.7595, 1780.236
527.2416, 1795.583
527.7237, 1809.359
528.2058, 1822.599
528.6879, 1835.286
529.1700, 1847.791
529.6522, 1860.027
530.1343, 1872.240
530.6164, 1885.506
531.0985, 1900.780
531.5806, 1916.840
532.0627, 1933.033
532.5449, 1949.278
533.0270, 1965.176
533.5091, 1979.678
533.9912, 1994.255
534.4733, 2009.739
534.9554, 2027.588
535.4376, 2044.686
535.9197, 2060.597
536.4018, 2075.827
536.8839, 2090.640
537.3660, 2104.760
537.8481, 2119.525
538.3303, 2135.820
538.8124, 2153.116
539.2945, 2168.889
539.7766, 2183.023
540.2587, 2196.624
540.7408, 2209.745
541.2230, 2222.946
541.7051, 2238.379
542.1872, 2256.505
542.6693, 2274.435
543.1514, 2289.281
543.6335, 2302.011
544.1157, 2314.753
544.5978, 2327.928
545.0799, 2341.632
545.5620, 2355.755
546.0441, 2370.355
546.5262, 2385.562
547.0084, 2401.979
547.4905, 2418.429
547.9726, 2434.966
548.4547, 2451.565
548.9368, 2467.013
549.4189, 2480.356
549.9011, 2493.177
550.3832, 2506.366
550.8653, 2520.177
551.3474, 2533.688
551.8295, 2546.610
552.3116, 2559.302
552.7938, 2572.510
553.2759, 2586.405
553.7580, 2598.994
554.2401, 2609.452
554.7222, 2618.523
555.2043, 2628.015
555.6865, 2637.831
556.1686, 2647.677
556.6507, 2657.496
557.1328, 2667.180
557.6149, 2676.507
558.0970, 2685.485
558.5792, 2695.063
559.0613, 2707.164
559.5434, 2719.547
560.0255, 2729.782
560.5076, 2735.971
560.9897, 2742.229
561.4719, 2749.333
561.9540, 2757.487
562.4361, 2766.895
562.9182, 2780.544
563.4003, 2792.091
563.8824, 2799.741
564.3646, 2804.014
564.8467, 2809.203
565.3288, 2815.524
565.8109, 2822.226
566.2930, 2829.303
566.7751, 2836.753
567.2573, 2842.632
567.7394, 2846.714
568.2215, 2850.351
568.7036, 2855.485
569.1857, 2861.479
569.6678, 2865.972
570.1500, 2868.004
570.6321, 2869.464
571.1142, 2872.469
571.5963, 2876.551
572.0784, 2880.621
572.5605, 2884.898
573.0427, 2888.493
573.5248, 2891.368
574.0069, 2893.342
574.4890, 2893.382
574.9711, 2888.658
575.4532, 2884.009
575.9354, 2882.039
576.4175, 2883.704
576.8996, 2885.177
577.3817, 2886.409
577.8638, 2887.483
578.3459, 2888.493
578.8281, 2889.445
579.3102, 2890.208
579.7923, 2890.841
580.2744, 2891.110
580.7565, 2890.759
581.2386, 2889.741
581.7208, 2887.524
582.2029, 2883.453
582.6850, 2878.321
583.1671, 2873.215
583.6492, 2868.180
584.1313, 2863.483
584.6134, 2859.598
