##NAMES=Lueshite
##RRUFFID=R090025
##IDEAL CHEMISTRY=NaNb^5+^O_3_
##LOCALITY=Lueshe carbonatite, Kivu Province, Democratic Republic of the Congo
##OWNER=RRUFF
##SOURCE=Karl Russ
##DESCRIPTION=Black cubes
##STATUS=The identification of this mineral is confirmed by single-crystal X-ray diffraction and chemical analysis.
##URL=rruff.info/R090025
##MEASURED CHEMISTRY=(Na_0.87_Ca_0.03_Ce_0.01_La_0.01_Th_0.01_)(Nb_0.94_Ta_0.06_)O_3_; = bright. (Na_0.91_Ca_0.03_Ce_0.01_La_0.01_)(Nb_0.95_Ta_0.05_)O_3_ = dark
92.37695, 2051.231
92.85907, 2034.068
93.34119, 2038.982
93.82330, 2049.174
94.30542, 2051.296
94.78754, 2044.539
95.26965, 2032.960
95.75177, 2018.347
96.23389, 2001.896
96.71600, 1984.001
97.19812, 1966.436
97.68024, 1949.934
98.16235, 1933.906
98.64447, 1916.980
99.12659, 1897.957
99.60870, 1877.070
100.0908, 1859.842
100.5729, 1845.791
101.0551, 1833.918
101.5372, 1823.423
102.0193, 1814.032
102.5014, 1805.744
102.9835, 1799.061
103.4656, 1792.595
103.9478, 1785.943
104.4299, 1779.133
104.9120, 1772.347
105.3941, 1765.678
105.8762, 1758.952
106.3583, 1753.017
106.8405, 1747.676
107.3226, 1742.529
107.8047, 1737.422
108.2868, 1732.318
108.7689, 1727.054
109.2510, 1721.098
109.7332, 1714.258
110.2153, 1709.172
110.6974, 1707.672
111.1795, 1707.732
111.6616, 1706.188
112.1437, 1702.044
112.6259, 1696.882
113.1080, 1692.370
113.5901, 1688.483
114.0722, 1684.707
114.5543, 1680.735
115.0364, 1676.560
115.5185, 1672.527
116.0007, 1668.253
116.4828, 1664.516
116.9649, 1661.957
117.4470, 1660.656
117.9291, 1659.830
118.4112, 1658.359
118.8934, 1655.776
119.3755, 1653.685
119.8576, 1652.580
120.3397, 1651.760
120.8218, 1650.704
121.3039, 1649.196
121.7861, 1647.332
122.2682, 1645.390
122.7503, 1642.576
123.2324, 1637.573
123.7145, 1640.623
124.1966, 1642.072
124.6788, 1642.008
125.1609, 1635.894
125.6430, 1637.591
126.1251, 1636.159
126.6072, 1634.597
127.0893, 1637.394
127.5715, 1632.160
128.0536, 1634.888
128.5357, 1634.438
129.0178, 1635.442
129.4999, 1633.297
129.9821, 1632.124
130.4642, 1634.102
130.9463, 1634.335
131.4284, 1631.827
131.9105, 1632.924
132.3926, 1627.580
132.8748, 1627.888
133.3569, 1630.634
133.8390, 1628.284
134.3211, 1629.439
134.8032, 1629.258
135.2853, 1623.013
135.7674, 1627.316
136.2496, 1627.056
136.7317, 1622.114
137.2138, 1626.055
137.6959, 1621.758
138.1780, 1620.401
138.6601, 1621.257
139.1423, 1621.093
139.6244, 1620.951
140.1065, 1620.722
140.5886, 1620.478
141.0707, 1620.154
141.5528, 1619.533
142.0350, 1618.239
142.5171, 1615.630
142.9992, 1614.069
143.4813, 1614.068
143.9634, 1614.537
144.4455, 1614.716
144.9277, 1614.429
145.4098, 1614.086
145.8919, 1614.421
146.3740, 1616.369
146.8561, 1617.182
147.3382, 1615.579
147.8204, 1613.149
148.3025, 1611.989
148.7846, 1612.960
149.2667, 1615.017
149.7488, 1616.055
150.2309, 1616.035
150.7131, 1615.666
151.1952, 1615.113
151.6773, 1614.403
152.1594, 1613.591
152.6415, 1612.601
153.1236, 1611.626
153.6058, 1610.875
154.0879, 1610.331
154.5700, 1610.083
155.0521, 1610.410
155.5342, 1611.347
156.0163, 1611.985
156.4985, 1611.437
156.9806, 1610.698
157.4627, 1610.578
157.9448, 1611.298
158.4269, 1612.513
158.9090, 1613.931
159.3912, 1615.975
159.8733, 1617.031
160.3554, 1616.149
160.8375, 1614.502
161.3196, 1612.957
161.8017, 1611.867
162.2839, 1611.268
162.7660, 1611.320
163.2481, 1612.622
163.7302, 1613.826
164.2123, 1614.961
164.6944, 1615.838
165.1766, 1616.100
165.6587, 1615.499
166.1408, 1614.268
166.6229, 1613.969
167.1050, 1615.954
167.5871, 1617.413
168.0693, 1617.655
168.5514, 1616.955
169.0335, 1615.864
169.5156, 1614.701
169.9977, 1613.478
170.4798, 1612.466
170.9620, 1611.532
171.4441, 1610.883
171.9262, 1610.672
172.4083, 1610.859
172.8904, 1611.264
173.3725, 1611.799
173.8547, 1612.460
174.3368, 1613.119
174.8189, 1614.129
175.3010, 1614.901
175.7831, 1614.776
176.2652, 1613.707
176.7474, 1612.555
177.2295, 1611.639
177.7116, 1611.137
178.1937, 1611.584
178.6758, 1614.369
179.1579, 1617.713
179.6401, 1618.631
180.1222, 1616.286
180.6043, 1613.930
181.0864, 1613.674
181.5685, 1614.763
182.0506, 1616.143
182.5328, 1617.569
183.0149, 1618.911
183.4970, 1619.760
183.9791, 1620.014
184.4612, 1619.859
184.9433, 1618.711
185.4255, 1617.320
185.9076, 1617.080
186.3897, 1619.382
186.8718, 1623.874
187.3539, 1626.549
187.8360, 1625.503
188.3182, 1624.512
188.8003, 1624.623
189.2824, 1625.641
189.7645, 1627.015
190.2466, 1628.331
190.7287, 1629.589
191.2109, 1630.936
191.6930, 1632.675
192.1751, 1634.221
192.6572, 1635.233
193.1393, 1635.851
193.6214, 1636.479
194.1036, 1637.488
194.5857, 1638.959
195.0678, 1640.157
195.5499, 1640.223
196.0320, 1640.825
196.5141, 1643.694
196.9963, 1648.228
197.4784, 1651.746
197.9605, 1651.374
198.4426, 1646.300
198.9247, 1643.995
199.4068, 1646.215
199.8890, 1649.560
200.3711, 1651.960
200.8532, 1653.216
201.3353, 1654.072
201.8174, 1655.067
202.2995, 1656.234
202.7817, 1657.947
203.2638, 1661.438
203.7459, 1664.783
204.2280, 1665.544
204.7101, 1663.338
205.1922, 1661.313
205.6744, 1663.111
206.1565, 1667.855
206.6386, 1671.283
207.1207, 1671.548
207.6028, 1670.439
208.0849, 1670.590
208.5671, 1672.547
209.0492, 1674.397
209.5313, 1674.280
210.0134, 1672.899
210.4955, 1671.628
210.9776, 1670.663
211.4598, 1670.186
211.9419, 1670.875
212.4240, 1673.482
212.9061, 1675.654
213.3882, 1675.421
213.8703, 1673.828
214.3525, 1672.845
214.8346, 1674.250
215.3167, 1677.029
215.7988, 1677.171
216.2809, 1672.645
216.7630, 1668.546
217.2451, 1667.428
217.7273, 1668.136
218.2094, 1668.682
218.6915, 1667.894
219.1736, 1665.940
219.6557, 1663.744
220.1378, 1660.625
220.6200, 1658.162
221.1021, 1657.278
221.5842, 1657.281
222.0663, 1657.044
222.5484, 1655.802
223.0305, 1653.666
223.5127, 1651.686
223.9948, 1650.408
224.4769, 1648.721
224.9590, 1646.396
225.4411, 1643.499
225.9232, 1640.073
226.4054, 1636.036
226.8875, 1631.526
227.3696, 1627.876
227.8517, 1626.462
228.3338, 1624.523
228.8159, 1621.141
229.2981, 1616.839
229.7802, 1612.676
230.2623, 1609.359
230.7444, 1606.756
231.2265, 1603.392
231.7086, 1597.737
232.1908, 1593.041
232.6729, 1590.723
233.1550, 1589.937
233.6371, 1589.077
234.1192, 1587.216
234.6013, 1584.402
235.0835, 1580.897
235.5656, 1576.048
236.0477, 1571.332
236.5298, 1567.311
237.0119, 1563.757
237.4940, 1559.984
237.9762, 1555.478
238.4583, 1550.602
238.9404, 1547.104
239.4225, 1546.706
239.9046, 1545.521
240.3867, 1541.908
240.8689, 1536.482
241.3510, 1530.633
241.8331, 1524.823
242.3152, 1519.288
242.7973, 1514.713
243.2794, 1511.806
243.7616, 1508.594
244.2437, 1503.712
244.7258, 1497.786
245.2079, 1492.811
245.6900, 1489.904
246.1721, 1488.099
246.6543, 1485.444
247.1364, 1481.944
247.6185, 1477.807
248.1006, 1472.746
248.5827, 1467.051
249.0648, 1461.742
249.5470, 1457.367
250.0291, 1453.237
250.5112, 1448.177
250.9933, 1441.961
251.4754, 1436.121
251.9576, 1431.890
252.4397, 1428.866
252.9218, 1425.152
253.4039, 1420.224
253.8860, 1414.439
254.3681, 1408.055
254.8503, 1401.055
255.3324, 1394.467
255.8145, 1389.043
256.2966, 1384.627
256.7787, 1380.502
257.2608, 1376.830
257.7430, 1373.054
258.2251, 1368.682
258.7072, 1363.797
259.1893, 1358.908
259.6714, 1354.260
260.1535, 1349.870
260.6357, 1345.824
261.1178, 1342.571
261.5999, 1339.084
262.0820, 1334.542
262.5641, 1329.228
263.0462, 1324.013
263.5284, 1319.608
264.0105, 1315.855
264.4926, 1311.630
264.9747, 1306.495
265.4568, 1301.549
265.9389, 1297.644
266.4211, 1294.283
266.9032, 1290.465
267.3853, 1285.489
267.8674, 1279.595
268.3495, 1273.658
268.8316, 1267.076
269.3138, 1261.443
269.7959, 1257.939
270.2780, 1255.489
270.7601, 1252.397
271.2422, 1247.560
271.7243, 1241.684
272.2065, 1237.362
272.6886, 1236.021
273.1707, 1233.864
273.6528, 1229.351
274.1349, 1223.776
274.6170, 1218.678
275.0992, 1214.753
275.5813, 1211.548
276.0634, 1207.979
276.5455, 1203.861
277.0276, 1199.689
277.5097, 1195.511
277.9919, 1191.358
278.4740, 1187.315
278.9561, 1183.394
279.4382, 1179.436
279.9203, 1174.954
280.4024, 1169.254
280.8846, 1164.609
281.3667, 1161.756
281.8488, 1159.525
282.3309, 1157.162
282.8130, 1154.449
283.2951, 1151.550
283.7773, 1148.851
284.2594, 1146.920
284.7415, 1143.687
285.2236, 1137.431
285.7057, 1131.306
286.1878, 1127.493
286.6700, 1126.057
287.1521, 1125.289
287.6342, 1123.140
288.1163, 1119.107
288.5984, 1115.714
289.0805, 1113.113
289.5627, 1110.956
290.0448, 1109.631
290.5269, 1108.750
291.0090, 1107.220
291.4911, 1103.872
291.9732, 1098.495
292.4554, 1094.059
292.9375, 1091.450
293.4196, 1088.867
293.9017, 1085.690
294.3838, 1082.075
294.8659, 1078.399
295.3481, 1074.875
295.8302, 1071.536
296.3123, 1069.044
296.7944, 1068.144
297.2765, 1067.345
297.7586, 1066.748
298.2408, 1066.007
298.7229, 1064.600
299.2050, 1062.224
299.6871, 1059.121
300.1692, 1056.229
300.6513, 1053.844
301.1335, 1051.346
301.6156, 1048.533
302.0977, 1045.668
302.5798, 1042.991
303.0619, 1040.609
303.5440, 1038.520
304.0262, 1036.700
304.5083, 1035.411
304.9904, 1034.035
305.4725, 1032.655
305.9546, 1031.142
306.4367, 1029.304
306.9189, 1027.133
307.4010, 1024.867
307.8831, 1022.810
308.3652, 1020.910
308.8473, 1019.412
309.3294, 1018.833
309.8116, 1018.160
310.2937, 1016.609
310.7758, 1014.255
311.2579, 1011.814
311.7400, 1009.991
312.2221, 1008.825
312.7043, 1007.947
313.1864, 1007.918
313.6685, 1007.586
314.1506, 1006.338
314.6327, 1004.391
315.1148, 1002.356
315.5970, 1000.700
316.0791, 999.3782
316.5612, 997.7194
317.0433, 995.4626
317.5254, 993.1558
318.0075, 990.4843
318.4897, 987.9306
318.9718, 986.2687
319.4539, 985.9196
319.9360, 986.5098
320.4181, 986.8575
320.9002, 987.1789
321.3824, 986.9017
321.8645, 985.6790
322.3466, 984.0103
322.8287, 982.1560
323.3108, 980.2733
323.7929, 978.7213
324.2751, 978.2736
324.7572, 980.2961
325.2393, 980.7178
325.7214, 978.2311
326.2035, 975.3417
326.6856, 973.9352
327.1678, 974.1121
327.6499, 974.5018
328.1320, 973.5011
328.6141, 970.6212
329.0962, 968.7836
329.5783, 969.0887
330.0605, 969.2422
330.5426, 968.0355
331.0247, 965.8100
331.5068, 963.6869
331.9889, 962.5457
332.4710, 962.3066
332.9532, 961.6769
333.4353, 960.1793
333.9174, 958.7833
334.3995, 958.0978
334.8816, 957.5298
335.3637, 956.0358
335.8459, 953.0645
336.3280, 949.3091
336.8101, 946.9301
337.2922, 946.8206
337.7743, 946.8743
338.2564, 947.0671
338.7386, 947.2568
339.2206, 947.4001
339.7028, 947.4597
340.1849, 947.2988
340.6670, 946.6589
341.1491, 945.2918
341.6312, 944.0623
342.1133, 942.9009
342.5955, 941.9167
343.0776, 941.3668
343.5597, 941.1218
344.0418, 940.6962
344.5239, 939.5770
345.0060, 937.7131
345.4882, 936.0566
345.9703, 935.0351
346.4524, 933.8054
346.9345, 931.4349
347.4166, 928.7613
347.8987, 927.3665
348.3809, 928.3672
348.8630, 931.1193
349.3451, 933.0726
349.8272, 934.6000
350.3093, 934.5687
350.7914, 931.5295
351.2736, 927.6282
351.7557, 925.1962
352.2378, 925.0198
352.7199, 925.7606
353.2020, 925.0380
353.6841, 922.1176
354.1663, 919.9716
354.6484, 919.6124
355.1305, 919.5651
355.6126, 918.8452
356.0947, 917.4687
356.5768, 916.2830
357.0590, 916.3849
357.5411, 917.8601
358.0232, 918.4621
358.5053, 917.4062
358.9874, 916.3111
359.4695, 916.2416
359.9517, 916.6409
360.4338, 916.2193
360.9159, 913.8106
361.3980, 910.3330
361.8801, 908.7393
362.3622, 909.8588
362.8444, 911.0844
363.3265, 911.6866
363.8086, 911.8270
364.2907, 911.6193
364.7728, 911.0791
365.2549, 910.2845
365.7371, 909.3137
366.2192, 908.1536
366.7013, 906.8640
367.1834, 905.2242
367.6655, 903.6531
368.1476, 902.3905
368.6298, 901.4586
369.1119, 900.9045
369.5940, 900.9999
370.0761, 901.5754
370.5582, 901.7731
371.0403, 901.3613
371.5225, 900.8662
372.0046, 900.7577
372.4867, 900.8516
372.9688, 900.7023
373.4509, 900.0289
373.9330, 899.0909
374.4152, 898.2504
374.8973, 897.5160
375.3794, 896.8272
375.8615, 896.2838
376.3436, 895.6985
376.8257, 894.7229
377.3079, 893.1177
377.7900, 891.6269
378.2721, 890.9857
378.7542, 890.9733
379.2363, 890.5248
379.7184, 889.0618
380.2006, 887.5301
380.6827, 887.3844
381.1648, 888.5922
381.6469, 889.4033
382.1290, 889.2201
382.6111, 888.3333
383.0933, 886.8695
383.5754, 884.7928
384.0575, 883.1130
384.5396, 882.9244
385.0217, 883.9821
385.5038, 884.1427
385.9860, 882.3096
386.4681, 880.5076
386.9502, 880.2841
387.4323, 881.2059
387.9144, 881.7031
388.3965, 880.9742
388.8787, 879.4520
389.3608, 878.2469
389.8429, 877.4633
390.3250, 876.6899
390.8071, 875.7007
391.2892, 874.7371
391.7714, 874.2808
392.2535, 874.4057
392.7356, 874.3786
393.2177, 873.2235
393.6998, 870.5343
394.1819, 868.7531
394.6641, 868.7419
395.1462, 868.7681
395.6283, 867.6484
396.1104, 865.6903
396.5925, 863.9017
397.0746, 862.8612
397.5568, 862.6217
398.0389, 863.5038
398.5210, 868.0596
399.0031, 870.6354
399.4852, 869.1913
399.9673, 866.1061
400.4495, 863.8243
400.9316, 863.1610
401.4137, 863.5247
401.8958, 864.1385
402.3779, 865.3578
402.8600, 865.8229
403.3422, 864.7353
403.8243, 863.7097
404.3064, 863.6031
404.7885, 864.3043
405.2706, 865.2641
405.7527, 866.1406
406.2349, 866.8901
406.7170, 867.0823
407.1991, 866.1496
407.6812, 865.4592
408.1633, 865.6846
408.6454, 866.1485
409.1276, 865.8919
409.6097, 864.5465
410.0918, 863.1155
410.5739, 863.3840
411.0560, 865.8292
411.5381, 867.4168
412.0203, 866.8623
412.5024, 865.9929
412.9845, 865.7045
413.4666, 866.0330
413.9487, 866.7330
414.4308, 864.9258
414.9130, 868.8625
415.3951, 871.1992
415.8772, 872.0215
416.3593, 866.7947
416.8414, 869.3792
417.3235, 868.8333
417.8057, 868.1591
418.2878, 871.8430
418.7699, 867.4960
419.2520, 871.1108
419.7341, 871.5474
420.2162, 873.4385
420.6984, 872.1801
421.1805, 871.8943
421.6626, 874.7594
422.1447, 875.8799
422.6268, 874.2587
423.1089, 876.2424
423.5911, 871.7855
424.0732, 872.9803
424.5553, 876.6135
425.0374, 875.1508
425.5195, 877.1920
426.0016, 874.2961
426.4838, 874.3817
426.9659, 874.9541
427.4480, 875.2591
427.9301, 874.7182
428.4122, 873.6816
428.8943, 873.0746
429.3765, 873.3259
429.8586, 873.5779
430.3407, 872.1776
430.8228, 867.5247
431.3049, 864.8297
431.7870, 865.9944
432.2692, 867.7520
432.7513, 867.5605
433.2334, 865.5049
433.7155, 863.3622
434.1976, 862.6438
434.6797, 863.1959
435.1619, 862.7282
435.6440, 860.0668
436.1261, 857.6981
436.6082, 856.1989
437.0903, 855.1223
437.5724, 854.0146
438.0546, 852.6966
438.5367, 851.0905
439.0188, 848.9160
439.5009, 845.7545
439.9830, 843.3766
440.4651, 842.3967
440.9473, 841.6857
441.4294, 840.7755
441.9115, 839.7062
442.3936, 838.7730
442.8757, 838.3232
443.3578, 838.0654
443.8400, 836.9490
444.3221, 834.6578
444.8042, 832.2899
445.2863, 829.8593
445.7684, 827.7324
446.2505, 826.4503
446.7327, 826.1687
447.2148, 826.0674
447.6969, 825.3901
448.1790, 824.2526
448.6611, 823.2946
449.1432, 822.6575
449.6254, 822.1327
450.1075, 821.5085
450.5896, 820.8387
451.0717, 820.3080
451.5538, 820.3076
452.0359, 820.2195
452.5181, 819.1791
453.0002, 817.3538
453.4823, 815.9455
453.9644, 815.5424
454.4465, 815.8269
454.9286, 816.2005
455.4108, 816.8497
455.8929, 817.0553
456.3750, 816.3095
456.8571, 815.2228
457.3392, 814.4452
457.8214, 814.0693
458.3035, 813.8288
458.7856, 813.4834
459.2677, 813.0299
459.7498, 812.7383
460.2319, 812.8170
460.7141, 812.7943
461.1962, 812.5409
461.6783, 812.1049
462.1604, 811.5325
462.6425, 810.8472
463.1246, 810.1180
463.6068, 809.4693
464.0889, 808.9606
464.5710, 808.3874
465.0531, 807.2674
465.5352, 806.5332
466.0173, 807.1100
466.4995, 808.4810
466.9816, 809.2325
467.4637, 808.2623
467.9458, 806.2348
468.4279, 805.3881
468.9100, 806.2815
469.3922, 806.9012
469.8743, 806.0762
470.3564, 805.0919
470.8385, 805.1305
471.3206, 806.3502
471.8027, 807.6652
472.2849, 808.0900
472.7670, 807.8942
473.2491, 808.0552
473.7312, 808.6177
474.2133, 809.6649
474.6954, 812.0349
475.1776, 814.9015
475.6597, 816.1766
476.1418, 814.5118
476.6239, 812.4178
477.1060, 811.5172
477.5881, 811.5859
478.0703, 811.9957
478.5524, 812.5743
479.0345, 813.3018
479.5166, 814.2344
479.9987, 815.5226
480.4808, 816.2859
480.9630, 815.9294
481.4451, 815.4949
481.9272, 815.6109
482.4093, 816.2780
482.8914, 817.4518
483.3735, 819.2217
483.8557, 821.1532
484.3378, 821.6514
484.8199, 818.7511
485.3020, 817.2166
485.7841, 817.9993
486.2662, 819.5932
486.7484, 821.0255
487.2305, 822.0742
487.7126, 822.8085
488.1947, 823.1892
488.6768, 823.2632
489.1589, 823.8838
489.6411, 825.7244
490.1232, 827.0218
490.6053, 826.8766
491.0874, 826.1374
491.5695, 825.9027
492.0516, 826.5328
492.5338, 827.0121
493.0159, 825.6506
493.4980, 822.8085
493.9801, 821.9429
494.4622, 824.2148
494.9443, 827.2858
495.4265, 829.6075
495.9086, 831.2478
496.3907, 832.1676
496.8728, 831.5861
497.3549, 830.9681
497.8370, 831.8198
498.3192, 833.7370
498.8013, 835.0367
499.2834, 834.8654
499.7655, 834.4108
500.2476, 835.8461
500.7297, 840.0550
501.2119, 842.9318
501.6940, 842.7292
502.1761, 842.3400
502.6582, 844.4698
503.1403, 848.3669
503.6224, 851.0013
504.1045, 850.3232
504.5866, 847.4982
505.0688, 846.7789
505.5509, 849.9041
506.0330, 852.4807
506.5151, 853.6646
506.9972, 854.7043
507.4793, 856.8342
507.9615, 859.9050
508.4436, 862.5433
508.9257, 863.3018
509.4078, 862.6299
509.8899, 863.3670
510.3720, 866.1833
510.8542, 868.9545
511.3363, 870.5096
511.8184, 871.8210
512.3005, 874.1101
512.7827, 877.7170
513.2648, 880.9246
513.7469, 881.9340
514.2290, 881.5399
514.7111, 882.1789
515.1932, 884.3026
515.6754, 886.7606
516.1575, 888.6995
516.6396, 890.2459
517.1217, 892.0095
517.6038, 893.9706
518.0859, 896.1933
518.5681, 898.9543
519.0502, 901.9372
519.5323, 904.6945
520.0144, 907.1051
520.4965, 908.9586
520.9786, 909.7471
521.4608, 908.9368
521.9429, 910.4456
522.4250, 916.5106
522.9071, 922.0973
523.3892, 925.4148
523.8713, 927.0770
524.3535, 927.8849
524.8356, 928.1827
525.3177, 928.5613
525.7998, 930.0815
526.2819, 932.9690
526.7640, 935.8311
527.2462, 938.3137
527.7283, 941.0445
528.2104, 944.7585
528.6925, 948.9207
529.1746, 952.2692
529.6567, 953.9540
530.1389, 955.0847
530.6210, 956.9865
531.1031, 959.6472
531.5852, 963.0446
532.0673, 967.7715
532.5494, 972.3046
533.0316, 974.2687
533.5137, 973.8492
533.9958, 974.1564
534.4779, 976.1211
534.9600, 978.7800
535.4421, 981.6012
535.9243, 984.4914
536.4064, 987.3998
536.8885, 990.3077
537.3706, 993.1042
537.8527, 995.4793
538.3348, 996.9371
538.8170, 999.0351
539.2991, 1002.615
539.7812, 1006.022
540.2633, 1008.146
540.7454, 1009.277
541.2275, 1010.416
541.7097, 1012.179
542.1918, 1014.318
542.6739, 1016.154
543.1560, 1017.567
543.6381, 1019.098
544.1202, 1020.828
544.6024, 1022.729
545.0845, 1024.933
545.5666, 1027.360
546.0487, 1029.560
546.5308, 1031.221
547.0129, 1032.571
547.4951, 1033.936
547.9772, 1035.318
548.4593, 1036.645
548.9414, 1037.807
549.4235, 1038.982
549.9056, 1040.481
550.3878, 1042.284
550.8699, 1044.312
551.3520, 1046.995
551.8341, 1049.545
552.3162, 1051.146
552.7983, 1051.975
553.2805, 1052.857
553.7626, 1054.291
554.2447, 1056.028
554.7268, 1057.347
555.2089, 1057.958
555.6910, 1058.643
556.1732, 1059.661
556.6553, 1060.547
557.1374, 1060.621
557.6195, 1060.263
558.1016, 1060.695
558.5837, 1062.899
559.0659, 1066.070
559.5480, 1068.432
560.0301, 1069.969
560.5122, 1070.695
560.9943, 1070.214
561.4764, 1069.249
561.9586, 1068.398
562.4407, 1067.683
562.9228, 1067.289
563.4049, 1067.290
563.8870, 1067.645
564.3691, 1068.429
564.8513, 1069.575
565.3334, 1070.953
565.8155, 1072.709
566.2976, 1074.052
566.7797, 1073.283
567.2618, 1068.643
567.7440, 1066.033
568.2261, 1066.934
568.7082, 1068.502
569.1903, 1069.493
569.6724, 1069.769
570.1545, 1069.335
570.6367, 1068.145
571.1188, 1066.663
571.6009, 1065.932
572.0830, 1066.145
572.5651, 1066.339
573.0472, 1066.553
573.5294, 1066.567
574.0115, 1066.362
574.4936, 1065.868
574.9757, 1064.836
575.4578, 1062.681
575.9399, 1060.605
576.4221, 1060.484
576.9042, 1061.886
577.3863, 1062.304
577.8684, 1060.964
578.3505, 1058.586
578.8326, 1055.605
579.3148, 1051.932
579.7969, 1049.744
580.2790, 1050.602
580.7611, 1051.407
581.2432, 1050.808
581.7253, 1049.112
582.2075, 1046.701
582.6896, 1043.778
583.1717, 1040.812
583.6538, 1038.345
584.1359, 1036.275
584.6180, 1035.497
585.1002, 1037.929
585.5823, 1039.343
586.0643, 1038.144
586.5464, 1035.299
