##NAMES=Lulzacite
##RRUFFID=R110147
##IDEAL CHEMISTRY=Sr_2_Fe^2+^_3_Al_4_(PO_4_)_4_(OH)_10_
##LOCALITY=Saint-Aubin-des-Ch√¢teaux, Loire-Atlantique, France
##OWNER=RRUFF
##SOURCE=Olivier Pourret
##DESCRIPTION=Gray glassy and massive, associated with siderite and pyrite
##STATUS=The identification of this mineral has been confirmed only by single crystal X-ray diffraction.
##URL=rruff.info/R110147
113.2988, 86.59042
113.7809, 86.33583
114.2630, 86.22787
114.7451, 86.44617
115.2272, 87.13680
115.7094, 88.25785
116.1915, 88.87967
116.6736, 88.54642
117.1557, 88.25098
117.6378, 88.40655
118.1199, 88.92625
118.6021, 89.41935
119.0842, 89.51987
119.5663, 89.19400
120.0484, 89.15234
120.5305, 89.56418
121.0126, 90.14687
121.4948, 90.65247
121.9769, 91.04263
122.4590, 91.43693
122.9411, 92.16697
123.4232, 93.08857
123.9053, 93.54346
124.3875, 93.09196
124.8696, 91.98888
125.3517, 90.93204
125.8338, 90.00169
126.3159, 89.12709
126.7980, 88.19736
127.2802, 87.24218
127.7623, 86.40968
128.2444, 85.84812
128.7265, 85.58469
129.2086, 85.33015
129.6907, 85.24479
130.1729, 85.02557
130.6550, 84.49746
131.1371, 83.65207
131.6192, 82.62296
132.1013, 81.59820
132.5834, 80.62220
133.0656, 79.52947
133.5477, 78.13749
134.0298, 76.75301
134.5119, 75.61406
134.9940, 74.80070
135.4761, 74.21719
135.9583, 73.65967
136.4404, 73.05296
136.9225, 72.57674
137.4046, 72.25931
137.8867, 72.07348
138.3688, 71.99759
138.8510, 72.02953
139.3331, 72.14741
139.8152, 72.29642
140.2973, 72.63128
140.7794, 72.78748
141.2615, 72.45692
141.7437, 71.75288
142.2258, 71.19053
142.7079, 71.10310
143.1900, 71.31314
143.6721, 71.41609
144.1542, 71.42224
144.6364, 71.28168
145.1185, 70.86193
145.6006, 70.10265
146.0827, 69.43331
146.5648, 69.16405
147.0469, 69.07462
147.5291, 68.97411
148.0112, 68.83054
148.4933, 68.60152
148.9754, 68.15192
149.4575, 67.27776
149.9396, 66.53458
150.4218, 66.16438
150.9039, 65.99153
151.3860, 65.77731
151.8681, 65.36217
152.3502, 64.78211
152.8323, 64.37306
153.3145, 64.23738
153.7966, 64.19669
154.2787, 64.33607
154.7608, 64.54727
155.2429, 64.62496
155.7250, 64.38160
156.2072, 63.77958
156.6893, 63.43245
157.1714, 63.57788
157.6535, 63.70454
158.1356, 63.57720
158.6177, 63.21398
159.0999, 62.77345
159.5820, 62.37055
160.0641, 61.99776
160.5462, 61.88115
161.0283, 62.27301
161.5104, 62.73643
161.9926, 62.93473
162.4747, 62.82408
162.9568, 62.58395
163.4389, 62.33614
163.9210, 62.08676
164.4031, 62.01492
164.8853, 62.29864
165.3674, 62.73627
165.8495, 63.04378
166.3316, 63.18446
166.8137, 63.18255
167.2958, 63.02768
167.7780, 62.74971
168.2601, 62.43283
168.7422, 62.02301
169.2243, 61.58181
169.7064, 61.36972
170.1885, 61.46703
170.6707, 61.76191
171.1528, 62.31188
171.6349, 63.02582
172.1170, 63.55289
172.5991, 63.52911
173.0812, 62.92434
173.5634, 62.41709
174.0455, 62.00200
174.5276, 61.73445
175.0097, 61.74560
175.4918, 61.97868
175.9739, 62.20800
176.4561, 62.17237
176.9382, 61.78335
177.4203, 61.41975
177.9024, 61.03667
178.3845, 60.70897
178.8666, 60.48964
179.3488, 60.37987
179.8309, 60.33775
180.3130, 60.31486
180.7951, 60.33646
181.2772, 60.31634
181.7593, 60.23078
182.2415, 60.12520
182.7236, 60.04123
183.2057, 59.98616
183.6878, 59.92599
184.1699, 59.80542
184.6520, 59.57130
185.1342, 59.38276
185.6163, 59.21505
186.0984, 59.10649
186.5805, 59.16988
187.0626, 59.45454
187.5447, 59.73339
188.0269, 59.54081
188.5090, 58.73686
188.9911, 58.11746
189.4732, 57.91074
189.9553, 57.99436
190.4374, 58.20325
190.9196, 58.54688
191.4017, 58.87885
191.8838, 58.97997
192.3659, 58.85107
192.8480, 58.65970
193.3301, 58.45484
193.8123, 58.24215
194.2944, 58.04058
194.7765, 57.85133
195.2586, 57.68149
195.7407, 57.52983
196.2228, 57.39661
196.7050, 57.28734
197.1871, 57.22092
197.6692, 57.19475
198.1513, 57.14306
198.6334, 56.99224
199.1155, 56.86809
199.5977, 56.88031
200.0798, 57.02812
200.5619, 57.18892
201.0440, 57.24010
201.5261, 57.16638
202.0082, 57.08746
202.4904, 57.05114
202.9725, 56.98809
203.4546, 56.83258
203.9367, 56.58994
204.4188, 56.34537
204.9009, 56.20601
205.3831, 56.19701
205.8652, 56.22146
206.3473, 56.35434
206.8294, 56.45889
207.3115, 56.44002
207.7936, 56.29053
208.2758, 56.08017
208.7579, 55.89151
209.2400, 55.67010
209.7221, 55.60932
210.2042, 55.78954
210.6863, 56.04270
211.1685, 56.29676
211.6506, 56.51966
212.1327, 56.66975
212.6148, 56.67078
213.0969, 56.36259
213.5790, 56.25432
214.0612, 56.51549
214.5433, 56.85580
215.0254, 57.02171
215.5075, 56.96059
215.9896, 56.83868
216.4718, 56.89449
216.9539, 57.22862
217.4360, 57.51833
217.9181, 57.82166
218.4002, 58.04785
218.8823, 58.06718
219.3645, 57.84651
219.8466, 57.54655
220.3287, 57.37670
220.8108, 57.34818
221.2929, 57.37702
221.7750, 57.51241
222.2572, 57.67721
222.7393, 57.74914
223.2214, 57.68734
223.7035, 57.62641
224.1856, 57.80870
224.6677, 58.21528
225.1499, 58.45905
225.6320, 58.32096
226.1141, 57.98799
226.5962, 57.75348
227.0783, 57.66283
227.5604, 57.67736
228.0426, 57.86488
228.5247, 58.16763
229.0068, 58.30072
229.4889, 57.99926
229.9710, 57.46401
230.4531, 57.18065
230.9353, 57.31362
231.4174, 57.45278
231.8995, 57.30719
232.3816, 56.92971
232.8637, 56.43325
233.3458, 55.73533
233.8280, 54.94633
234.3101, 54.43292
234.7922, 54.30579
235.2743, 54.30707
235.7564, 54.33543
236.2385, 54.36601
236.7207, 54.34421
237.2028, 54.21372
237.6849, 54.00464
238.1670, 53.85169
238.6491, 53.81438
239.1312, 53.74308
239.6134, 53.61205
240.0955, 53.40796
240.5776, 53.08730
241.0597, 52.56813
241.5418, 51.92699
242.0239, 51.55419
242.5061, 51.60057
242.9882, 51.73393
243.4703, 51.89970
243.9524, 52.07024
244.4345, 52.21401
244.9166, 52.31313
245.3988, 52.37132
245.8809, 52.40473
246.3630, 52.41779
246.8451, 52.39417
247.3272, 52.28263
247.8093, 52.14780
248.2915, 52.08180
248.7736, 52.13933
249.2557, 52.28210
249.7378, 52.35096
250.2199, 52.23185
250.7020, 52.18052
251.1842, 52.31200
251.6663, 52.50090
252.1484, 52.58674
252.6305, 52.49092
253.1126, 52.27511
253.5947, 52.13314
254.0769, 52.23756
254.5590, 52.20494
255.0411, 51.84492
255.5232, 51.40210
256.0053, 51.15532
256.4874, 51.22285
256.9695, 51.49814
257.4517, 51.72418
257.9338, 51.97311
258.4159, 52.06839
258.8980, 51.91211
259.3801, 51.64373
259.8622, 51.39050
260.3444, 51.19820
260.8265, 51.05960
261.3086, 50.96040
261.7907, 50.87535
262.2728, 50.88359
262.7549, 51.07600
263.2371, 51.31823
263.7192, 51.45518
264.2013, 51.44912
264.6834, 51.41135
265.1655, 51.51439
265.6476, 51.84788
266.1298, 52.10966
266.6119, 52.34154
267.0940, 52.47483
267.5761, 52.38243
268.0582, 52.05083
268.5403, 51.68773
269.0225, 51.53285
269.5046, 51.63663
269.9867, 51.78284
270.4688, 52.02485
270.9509, 52.27208
271.4330, 52.43940
271.9152, 52.51876
272.3973, 52.56451
272.8794, 52.59663
273.3615, 52.61919
273.8436, 52.80099
274.3257, 53.41942
274.8079, 54.00540
275.2900, 54.04847
275.7721, 53.56812
276.2542, 53.20061
276.7363, 53.51566
277.2184, 54.41544
277.7006, 54.91160
278.1827, 54.63712
278.6648, 54.24491
279.1469, 54.18502
279.6290, 54.43449
280.1111, 54.76154
280.5933, 55.09312
281.0754, 55.37082
281.5575, 55.45288
282.0396, 55.20547
282.5217, 54.92837
283.0038, 54.76430
283.4860, 54.71436
283.9681, 54.79332
284.4502, 55.05001
284.9323, 55.41125
285.4144, 55.72562
285.8965, 56.00800
286.3787, 56.21540
286.8608, 56.24351
287.3429, 56.15738
287.8250, 56.24609
288.3071, 56.74493
288.7892, 57.25569
289.2714, 57.14407
289.7535, 56.34337
290.2356, 55.58315
290.7177, 55.20697
291.1998, 55.12806
291.6819, 55.15055
292.1641, 55.30193
292.6462, 55.40546
293.1283, 55.21256
293.6104, 54.76231
294.0925, 54.35091
294.5746, 54.08355
295.0568, 53.93702
295.5389, 53.91417
296.0210, 54.07872
296.5031, 54.17712
296.9852, 53.87331
297.4673, 53.30902
297.9495, 52.86760
298.4316, 52.75018
298.9137, 52.79770
299.3958, 52.80925
299.8779, 52.79464
300.3600, 52.66940
300.8422, 52.26807
301.3243, 51.73042
301.8064, 51.29234
302.2885, 50.96136
302.7706, 50.78773
303.2527, 50.91155
303.7349, 51.35976
304.2170, 51.71954
304.6991, 51.67366
305.1812, 51.48601
305.6633, 51.54291
306.1454, 51.98013
306.6276, 52.44248
307.1097, 52.54892
307.5918, 52.32610
308.0739, 52.26937
308.5560, 52.70644
309.0381, 53.22817
309.5203, 53.36792
310.0024, 53.08963
310.4845, 52.69080
310.9666, 52.26589
311.4487, 51.85513
311.9308, 51.68897
312.4130, 51.91008
312.8951, 52.25458
313.3772, 52.53461
313.8593, 52.74358
314.3414, 52.79956
314.8235, 52.47313
315.3057, 51.97063
315.7878, 51.88821
316.2699, 52.43453
316.7520, 53.01709
317.2341, 53.12568
317.7162, 52.93894
318.1984, 52.83487
318.6805, 52.99135
319.1626, 53.28827
319.6447, 53.53838
320.1268, 53.73061
320.6089, 53.93333
321.0911, 54.24195
321.5732, 54.56990
322.0553, 54.78037
322.5374, 54.79899
323.0195, 54.77238
323.5016, 54.82923
323.9838, 54.96957
324.4659, 55.21407
324.9480, 55.73579
325.4301, 56.23984
325.9122, 56.32430
326.3943, 55.89516
326.8765, 55.43803
327.3586, 55.36813
327.8407, 55.60293
328.3228, 55.69139
328.8049, 55.53619
329.2870, 55.18321
329.7692, 54.58024
330.2513, 53.76091
330.7334, 53.14775
331.2155, 53.18988
331.6976, 53.56433
332.1797, 53.43770
332.6619, 52.56289
333.1440, 51.63974
333.6261, 51.28693
334.1082, 51.32840
334.5903, 51.39222
335.0724, 51.42875
335.5546, 51.39930
336.0367, 51.22996
336.5188, 50.91080
337.0009, 50.55848
337.4831, 50.17122
337.9652, 49.82008
338.4473, 49.63591
338.9294, 49.66689
339.4115, 49.81400
339.8936, 50.11785
340.3758, 50.53332
340.8579, 50.68758
341.3400, 50.34487
341.8221, 49.76385
342.3042, 49.32294
342.7863, 49.01356
343.2685, 48.84831
343.7506, 48.90304
344.2327, 49.10376
344.7148, 49.28434
345.1969, 49.42023
345.6790, 49.50163
346.1612, 49.52844
346.6433, 49.50472
347.1254, 49.36279
347.6075, 48.90796
348.0896, 48.41135
348.5717, 48.28972
349.0539, 48.59161
349.5360, 48.86287
350.0181, 48.71233
350.5002, 48.24134
350.9823, 47.94902
351.4644, 47.89979
351.9466, 48.00548
352.4287, 48.33211
352.9108, 48.81039
353.3929, 49.10561
353.8750, 49.02559
354.3571, 48.68547
354.8393, 48.38218
355.3214, 48.15194
355.8035, 47.87591
356.2856, 47.38209
356.7677, 46.83813
357.2498, 46.60116
357.7320, 46.80774
358.2141, 47.14293
358.6962, 47.13611
359.1783, 46.70601
359.6604, 46.45840
360.1425, 46.71771
360.6247, 47.03022
361.1068, 46.85900
361.5889, 46.19368
362.0710, 45.60253
362.5531, 45.60082
363.0352, 46.18232
363.5174, 46.51357
363.9995, 46.41541
364.4816, 46.27243
364.9637, 46.34713
365.4458, 46.52877
365.9279, 46.47598
366.4101, 45.97148
366.8922, 45.20661
367.3743, 44.82339
367.8564, 45.17650
368.3385, 45.38022
368.8206, 45.24419
369.3028, 44.93401
369.7849, 44.58950
370.2670, 44.26102
370.7491, 44.02381
371.2312, 44.01464
371.7133, 44.40149
372.1955, 44.48217
372.6776, 44.07428
373.1597, 43.54061
373.6418, 43.06569
374.1239, 42.66930
374.6060, 42.28699
375.0882, 41.84080
375.5703, 41.34313
376.0524, 41.15475
376.5345, 41.70234
377.0166, 42.06404
377.4987, 41.94359
377.9809, 41.53140
378.4630, 41.06693
378.9451, 40.65875
379.4272, 40.35892
379.9093, 40.32129
380.3914, 40.88784
380.8736, 41.13519
381.3557, 40.76594
381.8378, 40.28815
382.3199, 40.07750
382.8020, 40.18169
383.2841, 40.40367
383.7663, 40.51471
384.2484, 40.48264
384.7305, 40.56845
385.2126, 40.90700
385.6947, 41.23849
386.1768, 41.52385
386.6590, 41.73640
387.1411, 41.82367
387.6232, 41.72733
388.1053, 41.52533
388.5874, 41.50349
389.0695, 41.73463
389.5517, 42.01799
390.0338, 42.38379
390.5159, 42.73294
390.9980, 42.95273
391.4801, 43.01421
391.9622, 43.02560
392.4444, 43.13237
392.9265, 43.34947
393.4086, 43.51725
393.8907, 43.59951
394.3728, 43.63897
394.8549, 43.65168
395.3371, 43.64238
395.8192, 43.62022
396.3013, 43.54665
396.7834, 43.46581
397.2655, 43.55648
397.7477, 43.90091
398.2298, 44.20221
398.7119, 44.25431
399.1940, 44.18554
399.6761, 44.14891
400.1582, 44.18251
400.6404, 44.25817
401.1225, 44.36187
401.6046, 44.49181
402.0867, 44.59765
402.5688, 44.62618
403.0509, 44.66973
403.5331, 44.82706
404.0152, 45.09665
404.4973, 45.43579
404.9794, 45.92848
405.4615, 46.44992
405.9436, 46.73263
406.4258, 46.71529
406.9079, 46.70182
407.3900, 46.98889
407.8721, 47.50425
408.3542, 47.85988
408.8363, 47.93365
409.3185, 47.92625
409.8006, 47.91078
410.2827, 47.90967
410.7648, 48.01674
411.2469, 48.30088
411.7290, 48.66067
412.2112, 48.83702
412.6933, 48.70161
413.1754, 48.72655
413.6575, 49.12481
414.1396, 49.65071
414.6217, 50.05093
415.1039, 50.28234
415.5860, 50.44099
416.0681, 50.59405
416.5502, 50.72392
417.0323, 51.09052
417.5144, 51.94914
417.9966, 52.73812
418.4787, 53.22334
418.9608, 53.47194
419.4429, 53.65319
419.9250, 53.85609
420.4071, 54.02558
420.8893, 54.00270
421.3714, 53.64177
421.8535, 53.29733
422.3356, 53.00129
422.8177, 52.70937
423.2998, 52.39703
423.7820, 52.05521
424.2641, 51.68073
424.7462, 51.26464
425.2283, 50.80170
425.7104, 50.35375
426.1925, 50.06203
426.6747, 49.62237
427.1568, 48.80250
427.6389, 47.81181
428.1210, 46.96708
428.6031, 46.41689
429.0852, 46.09346
429.5674, 45.89360
430.0495, 45.85468
430.5316, 45.80275
431.0137, 45.72839
431.4958, 45.60575
431.9779, 45.37691
432.4601, 45.05301
432.9422, 44.76447
433.4243, 44.58915
433.9064, 44.52721
434.3885, 44.59597
434.8706, 44.84231
435.3528, 45.11294
435.8349, 45.34234
436.3170, 45.52520
436.7991, 45.63737
437.2812, 45.62818
437.7633, 45.60838
438.2455, 45.66341
438.7276, 45.79338
439.2097, 46.00502
439.6918, 46.31568
440.1739, 46.68593
440.6560, 47.10386
441.1382, 47.59585
441.6203, 47.91948
442.1024, 47.93135
442.5845, 47.78114
443.0666, 47.61979
443.5487, 47.46519
444.0309, 47.29851
444.5130, 47.09990
444.9951, 46.87589
445.4772, 46.67973
445.9593, 46.37382
446.4414, 46.24865
446.9236, 46.49830
447.4057, 46.95406
447.8878, 47.42168
448.3699, 47.82866
448.8520, 48.07518
449.3341, 47.94933
449.8163, 47.10907
450.2984, 46.90462
450.7805, 47.88412
451.2626, 48.89334
451.7447, 49.33327
452.2268, 49.28686
452.7090, 49.13001
453.1911, 49.10992
453.6732, 49.18087
454.1553, 49.14641
454.6374, 48.93990
455.1195, 48.73670
455.6017, 48.53596
456.0838, 48.36815
456.5659, 48.27406
457.0480, 48.25434
457.5301, 48.25470
458.0122, 48.28271
458.4944, 48.33315
458.9765, 48.10018
459.4586, 47.37990
459.9407, 46.66389
460.4228, 46.18057
460.9049, 45.88082
461.3871, 45.69896
461.8692, 45.66826
462.3513, 45.65337
462.8334, 45.44795
463.3155, 45.06227
463.7976, 44.77439
464.2798, 44.71867
464.7619, 44.74059
465.2440, 44.63251
465.7261, 44.39271
466.2082, 44.17657
466.6903, 44.02622
467.1725, 43.93194
467.6546, 43.92234
468.1367, 43.98941
468.6188, 43.98839
469.1009, 43.79338
469.5830, 43.45973
470.0652, 43.26379
470.5473, 43.25215
471.0294, 43.29796
471.5115, 43.44959
471.9936, 43.60767
472.4757, 43.60023
472.9579, 43.39793
473.4400, 43.19871
473.9221, 43.26852
474.4042, 43.69822
474.8863, 43.86187
475.3684, 43.53038
475.8506, 43.21016
476.3327, 42.99899
476.8148, 42.94546
477.2969, 43.17430
477.7790, 43.75725
478.2611, 44.44537
478.7433, 44.64923
479.2254, 44.13093
479.7075, 43.80233
480.1896, 43.94864
480.6717, 44.15770
481.1538, 44.14091
481.6360, 43.95776
482.1181, 43.91952
482.6002, 44.26054
483.0823, 44.88892
483.5644, 45.59783
484.0465, 46.43140
484.5287, 47.16969
485.0108, 47.69450
485.4929, 48.07512
485.9750, 48.37896
486.4571, 48.59838
486.9392, 48.79955
487.4214, 48.98446
487.9035, 49.18541
488.3856, 49.46447
488.8677, 49.83091
489.3498, 50.30146
489.8319, 50.94141
490.3141, 51.72767
490.7962, 52.34827
491.2783, 52.62526
491.7604, 52.93205
492.2425, 53.49099
492.7246, 54.19192
493.2068, 54.83882
493.6889, 55.36096
494.1710, 55.79317
494.6531, 56.17353
495.1352, 56.47754
495.6173, 56.80632
496.0995, 57.27643
496.5816, 57.65584
497.0637, 57.73812
497.5458, 57.64629
498.0279, 57.65442
498.5100, 57.92324
498.9922, 58.35274
499.4743, 58.69443
499.9564, 58.91044
500.4385, 59.13146
500.9206, 59.26476
501.4027, 59.49761
501.8849, 59.98531
502.3670, 60.70417
502.8491, 61.48129
503.3312, 62.29128
503.8133, 63.05356
504.2954, 63.54571
504.7776, 63.75486
505.2597, 63.74482
505.7418, 63.49964
506.2239, 63.06054
506.7060, 62.49038
507.1881, 61.78184
507.6703, 60.98935
508.1524, 60.11552
508.6345, 59.18341
509.1166, 58.24274
509.5987, 57.29714
510.0808, 56.28265
510.5630, 55.09357
511.0451, 53.77102
511.5272, 52.72124
512.0093, 52.14999
512.4914, 51.56162
512.9735, 50.72323
513.4556, 49.81816
513.9377, 49.12160
514.4199, 48.69690
514.9020, 48.32371
515.3841, 47.70990
515.8662, 46.79346
516.3483, 46.07161
516.8304, 45.72185
517.3126, 45.38677
517.7947, 44.95928
518.2768, 44.48911
518.7589, 44.07497
519.2410, 43.76032
519.7231, 43.44579
520.2053, 42.90178
520.6874, 42.09278
521.1695, 41.61658
521.6516, 41.74006
522.1337, 41.97994
522.6158, 42.05510
523.0980, 41.97998
523.5801, 41.78007
524.0622, 41.30115
524.5443, 40.86292
525.0264, 40.87455
525.5085, 41.26475
525.9907, 41.64011
526.4728, 41.90594
526.9549, 42.00845
527.4370, 41.81841
527.9191, 41.28356
528.4012, 40.80455
528.8834, 40.34096
529.3655, 40.01335
529.8476, 39.96341
530.3297, 40.12527
530.8118, 40.33332
531.2939, 40.50706
531.7761, 40.61758
532.2582, 40.58350
532.7403, 40.31104
533.2224, 40.06072
533.7045, 39.89624
534.1866, 39.70122
534.6688, 39.31891
535.1509, 38.83342
535.6330, 38.51928
536.1151, 38.62214
536.5972, 38.92951
537.0793, 38.82589
537.5615, 38.20030
538.0436, 37.62059
538.5257, 37.20880
539.0078, 36.95222
539.4899, 36.88971
539.9720, 37.00792
540.4542, 37.10085
540.9363, 37.06413
541.4184, 36.94584
541.9005, 36.74562
542.3826, 36.47896
542.8647, 36.39836
543.3469, 36.69204
543.8290, 37.19844
544.3111, 37.51714
544.7932, 37.68327
545.2753, 37.62133
545.7574, 37.01579
546.2396, 36.39363
546.7217, 36.27698
547.2038, 36.61498
547.6859, 36.96230
548.1680, 36.98750
548.6501, 36.80907
549.1323, 36.97771
549.6144, 37.79531
550.0965, 38.43736
550.5786, 38.84858
551.0607, 39.05496
551.5428, 38.91877
552.0250, 38.53729
552.5071, 38.33396
552.9892, 38.69457
553.4713, 39.43476
553.9534, 40.04045
554.4355, 40.50154
554.9177, 40.86612
555.3998, 41.08247
555.8819, 41.26287
556.3640, 41.57755
556.8461, 42.04960
557.3282, 42.48138
557.8104, 42.83385
558.2925, 43.08621
558.7746, 43.10839
559.2567, 42.94812
559.7388, 42.96815
560.2209, 43.41294
560.7031, 44.15305
561.1852, 44.77576
561.6673, 45.18510
562.1494, 45.61638
562.6315, 46.08205
563.1136, 46.56324
563.5958, 46.98751
564.0779, 47.40551
564.5600, 47.98589
565.0421, 48.88044
565.5242, 49.96998
566.0063, 50.86346
566.4885, 51.53279
566.9706, 52.07498
567.4527, 52.46661
567.9348, 52.76141
568.4169, 53.01931
568.8990, 53.22505
569.3812, 53.27403
569.8633, 52.97992
570.3454, 52.56520
570.8275, 52.31908
571.3096, 52.24442
571.7917, 52.32914
572.2739, 52.58068
572.7560, 52.97402
573.2381, 53.51466
573.7202, 54.29765
574.2023, 54.85856
574.6844, 55.00293
575.1666, 55.04674
575.6487, 55.12214
576.1308, 55.28139
576.6129, 55.63893
577.0950, 56.26778
577.5771, 56.99128
578.0593, 57.42183
578.5414, 57.50003
579.0235, 57.44456
579.5056, 57.37048
579.9877, 57.05641
580.4698, 56.10199
580.9520, 54.84074
581.4341, 54.04948
581.9162, 54.21279
582.3983, 54.70558
582.8804, 54.72326
583.3625, 54.29762
583.8447, 53.73388
584.3268, 53.03858
584.8090, 52.36769
585.2911, 51.82538
585.7732, 51.42768
586.2553, 51.36953
586.7374, 52.00371
587.2195, 52.63072
587.7017, 52.80125
588.1838, 52.73948
588.6659, 52.83526
589.1480, 53.20741
589.6301, 53.74458
590.1122, 54.34827
590.5944, 55.04905
591.0765, 55.51241
591.5586, 55.62581
592.0407, 55.61763
592.5228, 55.39230
593.0049, 55.14516
593.4871, 55.07707
593.9692, 55.24205
594.4513, 55.61511
594.9334, 56.34376
595.4155, 57.29277
595.8976, 57.77315
596.3798, 57.62170
596.8619, 57.57677
597.3440, 58.19784
597.8261, 59.16966
598.3082, 59.73074
598.7903, 59.82637
599.2725, 59.65455
599.7546, 59.11314
600.2367, 58.43837
600.7188, 57.92005
601.2009, 57.54652
601.6830, 57.07539
602.1652, 56.32496
602.6473, 55.38873
603.1294, 54.63322
603.6115, 54.29978
604.0936, 53.69348
604.5757, 52.29990
605.0579, 51.05879
605.5400, 50.65297
606.0221, 50.92912
606.5042, 51.26131
606.9863, 51.31604
607.4684, 51.22044
607.9506, 51.13654
608.4327, 51.06696
608.9148, 51.10162
609.3969, 51.24069
609.8790, 51.53566
