##NAMES=Luzonite
##RRUFFID=R070247
##IDEAL CHEMISTRY=Cu_3_AsS^2-^_4_
##LOCALITY=Huaron Mining District, San Jose de Huayllay district, Cerro de Pasco, Alcides Carrión Province, Pasco department, Peru
##OWNER=RRUFF
##SOURCE=Michael Scott
##DESCRIPTION=Black metallic crystals with pinkish hue. The electron microscope image shows three distinct fine-scale phases related to As and Sb content
##STATUS=The identification of this mineral is confirmed by single-crystal X-ray diffraction and chemical analysis.
##URL=rruff.info/R070247
##MEASURED CHEMISTRY=Cu_3.01_(As_0.67_Sb_0.31_)_Σ=0.98_S_4_; (Light), Cu_3.00_(As_0.74_Sb_0.22_)_Σ=0.96_S_4_ (Inter. gray), Cu_3.01_(As_0.84_Sb_0.16_)_Σ=1.00_S_4_ (Dark)
141.9480, 1279.334
142.4301, 1289.184
142.9122, 1294.645
143.3943, 1298.419
143.8764, 1298.903
144.3585, 1296.283
144.8407, 1301.207
145.3228, 1319.600
145.8049, 1341.009
146.2870, 1355.574
146.7691, 1359.821
147.2512, 1361.486
147.7334, 1359.608
148.2155, 1351.260
148.6976, 1352.673
149.1797, 1373.437
149.6618, 1401.250
150.1439, 1419.696
150.6261, 1415.177
151.1082, 1413.287
151.5903, 1421.352
152.0724, 1444.966
152.5545, 1466.304
153.0366, 1484.933
153.5188, 1500.322
154.0009, 1511.382
154.4830, 1514.887
154.9651, 1516.421
155.4472, 1518.533
155.9293, 1522.667
156.4115, 1525.737
156.8936, 1526.218
157.3757, 1524.930
157.8578, 1524.722
158.3399, 1530.097
158.8221, 1534.692
159.3042, 1534.358
159.7863, 1518.131
160.2684, 1506.594
160.7505, 1509.921
161.2326, 1526.168
161.7148, 1540.099
162.1969, 1546.408
162.6790, 1546.908
163.1611, 1543.329
163.6432, 1528.601
164.1253, 1516.007
164.6075, 1514.579
165.0896, 1524.711
165.5717, 1534.529
166.0538, 1536.079
166.5359, 1533.376
167.0180, 1532.182
167.5002, 1534.241
167.9823, 1539.086
168.4644, 1546.968
168.9465, 1558.221
169.4286, 1570.308
169.9107, 1585.864
170.3929, 1601.026
170.8750, 1608.047
171.3571, 1592.126
171.8392, 1570.639
172.3213, 1564.271
172.8034, 1579.149
173.2856, 1597.663
173.7677, 1603.460
174.2498, 1599.134
174.7319, 1593.524
175.2140, 1592.251
175.6961, 1593.023
176.1783, 1591.986
176.6604, 1587.472
177.1425, 1582.729
177.6246, 1581.822
178.1067, 1584.430
178.5888, 1588.415
179.0710, 1594.003
179.5531, 1599.797
180.0352, 1601.999
180.5173, 1597.488
180.9994, 1591.223
181.4815, 1592.034
181.9637, 1599.755
182.4458, 1608.971
182.9279, 1617.670
183.4100, 1624.743
183.8921, 1625.415
184.3742, 1612.659
184.8564, 1595.112
185.3385, 1595.416
185.8206, 1614.623
186.3027, 1638.917
186.7848, 1658.139
187.2669, 1671.770
187.7491, 1676.496
188.2312, 1665.700
188.7133, 1644.903
189.1954, 1635.254
189.6775, 1638.146
190.1596, 1646.308
190.6418, 1651.929
191.1239, 1655.016
191.6060, 1657.088
192.0881, 1657.640
192.5702, 1657.120
193.0524, 1660.253
193.5345, 1668.029
194.0166, 1676.857
194.4987, 1679.898
194.9808, 1676.653
195.4629, 1675.141
195.9451, 1681.661
196.4272, 1696.017
196.9093, 1702.199
197.3914, 1698.013
197.8735, 1688.311
198.3556, 1680.885
198.8378, 1675.443
199.3199, 1674.149
199.8020, 1681.333
200.2841, 1698.046
200.7662, 1705.590
201.2483, 1700.095
201.7305, 1687.410
202.2126, 1682.061
202.6947, 1685.302
203.1768, 1691.200
203.6589, 1695.939
204.1410, 1698.926
204.6232, 1705.407
205.1053, 1718.172
205.5874, 1733.717
206.0695, 1739.260
206.5516, 1732.009
207.0337, 1722.087
207.5159, 1716.339
207.9980, 1715.753
208.4801, 1714.862
208.9622, 1711.974
209.4443, 1708.295
209.9264, 1710.816
210.4086, 1722.368
210.8907, 1734.469
211.3728, 1739.784
211.8549, 1735.959
212.3370, 1733.750
212.8191, 1735.777
213.3013, 1741.151
213.7834, 1741.700
214.2655, 1734.759
214.7476, 1727.267
215.2297, 1725.899
215.7118, 1733.364
216.1940, 1739.169
216.6761, 1740.029
217.1582, 1736.402
217.6403, 1739.658
218.1224, 1753.617
218.6045, 1769.299
219.0867, 1778.874
219.5688, 1783.027
220.0509, 1778.538
220.5330, 1760.537
221.0151, 1728.202
221.4972, 1710.667
221.9794, 1710.949
222.4615, 1722.446
222.9436, 1740.362
223.4257, 1771.898
223.9078, 1794.896
224.3899, 1801.749
224.8721, 1790.930
225.3542, 1785.287
225.8363, 1785.987
226.3184, 1790.694
226.8005, 1797.538
227.2827, 1809.544
227.7648, 1817.714
228.2469, 1818.900
228.7290, 1812.027
229.2111, 1805.972
229.6932, 1798.270
230.1754, 1793.441
230.6575, 1798.279
231.1396, 1818.089
231.6217, 1838.240
232.1038, 1855.294
232.5859, 1869.281
233.0681, 1879.648
233.5502, 1884.395
234.0323, 1886.931
234.5144, 1892.699
234.9965, 1904.783
235.4786, 1914.748
235.9608, 1919.148
236.4429, 1915.939
236.9250, 1916.113
237.4071, 1918.569
237.8892, 1925.128
238.3713, 1939.921
238.8535, 1969.763
239.3356, 1996.374
239.8177, 2012.728
240.2998, 2015.008
240.7819, 2022.113
241.2640, 2036.880
241.7462, 2054.933
242.2283, 2067.951
242.7104, 2070.096
243.1925, 2076.876
243.6746, 2094.650
244.1567, 2127.838
244.6389, 2157.541
245.1210, 2184.148
245.6031, 2207.016
246.0852, 2224.225
246.5673, 2233.024
247.0494, 2240.827
247.5316, 2250.057
248.0137, 2260.926
248.4958, 2272.471
248.9779, 2284.062
249.4600, 2296.640
249.9421, 2311.646
250.4243, 2329.408
250.9064, 2349.277
251.3885, 2373.350
251.8706, 2407.450
252.3527, 2424.863
252.8348, 2417.263
253.3170, 2398.160
253.7991, 2394.334
254.2812, 2413.735
254.7633, 2433.194
255.2454, 2442.680
255.7275, 2437.221
256.2097, 2440.898
256.6918, 2458.821
257.1739, 2482.328
257.6560, 2494.719
258.1381, 2491.154
258.6202, 2486.450
259.1024, 2486.183
259.5845, 2491.402
260.0666, 2496.067
260.5487, 2497.605
261.0308, 2500.558
261.5129, 2516.760
261.9951, 2555.201
262.4772, 2584.999
262.9593, 2590.979
263.4414, 2566.747
263.9235, 2548.973
264.4056, 2537.429
264.8878, 2532.409
265.3699, 2535.583
265.8520, 2549.952
266.3341, 2564.039
266.8162, 2573.299
267.2983, 2576.844
267.7805, 2580.140
268.2626, 2581.758
268.7447, 2584.713
269.2268, 2596.234
269.7089, 2619.742
270.1910, 2639.421
270.6732, 2646.950
271.1553, 2640.304
271.6374, 2642.079
272.1195, 2655.093
272.6016, 2672.410
273.0837, 2683.627
273.5659, 2689.006
274.0480, 2687.250
274.5301, 2672.893
275.0122, 2645.056
275.4943, 2635.901
275.9764, 2651.537
276.4586, 2674.364
276.9407, 2677.736
277.4228, 2660.093
277.9049, 2636.622
278.3870, 2610.396
278.8691, 2581.813
279.3513, 2561.184
279.8334, 2550.237
280.3155, 2542.807
280.7976, 2533.029
281.2798, 2521.253
281.7619, 2500.915
282.2440, 2464.190
282.7261, 2414.458
283.2082, 2379.066
283.6903, 2360.208
284.1725, 2347.616
284.6546, 2326.937
285.1367, 2298.844
285.6188, 2276.667
286.1009, 2268.468
286.5830, 2270.351
287.0652, 2263.976
287.5473, 2248.076
288.0294, 2231.825
288.5115, 2229.032
288.9936, 2237.482
289.4757, 2238.607
289.9579, 2219.402
290.4400, 2190.084
290.9221, 2181.550
291.4042, 2195.168
291.8863, 2212.486
292.3684, 2212.312
292.8506, 2198.962
293.3327, 2191.249
293.8148, 2196.825
294.2969, 2210.620
294.7790, 2224.287
295.2611, 2237.877
295.7433, 2249.686
296.2254, 2258.298
296.7075, 2264.123
297.1896, 2267.707
297.6717, 2267.065
298.1538, 2266.249
298.6360, 2270.850
299.1181, 2280.812
299.6002, 2294.928
300.0823, 2314.647
300.5644, 2337.730
301.0465, 2360.445
301.5287, 2383.153
302.0108, 2403.403
302.4929, 2413.417
302.9750, 2415.787
303.4571, 2424.790
303.9392, 2454.486
304.4214, 2495.324
304.9035, 2535.640
305.3856, 2572.713
305.8677, 2607.013
306.3498, 2636.449
306.8319, 2662.236
307.3141, 2689.345
307.7962, 2720.912
308.2783, 2754.703
308.7604, 2787.985
309.2425, 2816.684
309.7246, 2851.115
310.2068, 2901.837
310.6889, 2964.099
311.1710, 3026.045
311.6531, 3078.843
312.1352, 3131.128
312.6173, 3189.676
313.0995, 3257.145
313.5816, 3324.319
314.0637, 3384.989
314.5458, 3442.790
315.0279, 3505.035
315.5100, 3580.156
315.9922, 3656.214
316.4743, 3725.160
316.9564, 3783.138
317.4385, 3846.180
317.9206, 3920.852
318.4027, 4003.461
318.8849, 4088.848
319.3670, 4185.508
319.8491, 4276.028
320.3312, 4353.063
320.8133, 4414.903
321.2954, 4471.896
321.7776, 4529.416
322.2597, 4582.283
322.7418, 4624.979
323.2239, 4663.907
323.7060, 4685.402
324.1881, 4685.451
324.6703, 4663.397
325.1524, 4626.618
325.6345, 4573.827
326.1166, 4507.756
326.5987, 4430.184
327.0808, 4344.658
327.5630, 4243.487
328.0451, 4119.790
328.5272, 3974.822
329.0093, 3834.741
329.4914, 3704.187
329.9735, 3577.561
330.4557, 3451.538
330.9378, 3321.000
331.4199, 3199.403
331.9020, 3085.726
332.3841, 2980.941
332.8662, 2889.139
333.3484, 2809.885
333.8305, 2745.640
334.3126, 2700.342
334.7947, 2682.878
335.2768, 2657.318
335.7589, 2617.205
336.2411, 2570.677
336.7232, 2536.813
337.2053, 2516.969
337.6874, 2506.616
338.1695, 2506.537
338.6516, 2518.542
339.1338, 2524.771
339.6159, 2524.003
340.0980, 2518.765
340.5801, 2509.153
341.0622, 2493.338
341.5443, 2489.791
342.0265, 2512.473
342.5086, 2557.518
342.9907, 2589.906
343.4728, 2607.887
343.9549, 2618.976
344.4370, 2630.093
344.9192, 2641.372
345.4013, 2654.593
345.8834, 2668.023
346.3655, 2684.327
346.8476, 2714.350
347.3297, 2758.526
347.8119, 2800.476
348.2940, 2817.462
348.7761, 2818.631
349.2582, 2832.144
349.7403, 2874.445
350.2225, 2924.431
350.7046, 2951.186
351.1867, 2956.980
351.6688, 2957.442
352.1509, 2964.497
352.6331, 2973.301
353.1152, 2975.814
353.5973, 2967.563
354.0794, 2957.689
354.5615, 2952.446
355.0436, 2951.886
355.5258, 2956.169
356.0079, 2974.092
356.4900, 2992.068
356.9721, 2996.688
357.4542, 2982.499
357.9363, 2966.487
358.4185, 2955.505
358.9006, 2949.423
359.3827, 2948.021
359.8648, 2957.811
360.3469, 2967.029
360.8290, 2968.542
361.3112, 2960.621
361.7933, 2953.271
362.2754, 2952.196
362.7575, 2952.352
363.2396, 2948.241
363.7217, 2937.625
364.2039, 2923.673
364.6860, 2907.277
365.1681, 2888.385
365.6502, 2866.101
366.1323, 2833.099
366.6144, 2800.871
367.0966, 2777.372
367.5787, 2777.556
368.0608, 2768.653
368.5429, 2745.637
369.0250, 2710.851
369.5071, 2676.978
369.9893, 2645.288
370.4714, 2613.200
370.9535, 2578.646
371.4356, 2537.889
371.9177, 2504.093
372.3998, 2478.643
372.8820, 2459.544
373.3641, 2444.228
373.8462, 2435.961
374.3283, 2422.968
374.8104, 2397.180
375.2925, 2356.108
375.7747, 2331.194
376.2568, 2326.791
376.7389, 2329.487
377.2210, 2320.320
377.7031, 2298.349
378.1852, 2278.292
378.6674, 2265.743
379.1495, 2258.628
379.6316, 2246.216
380.1137, 2227.915
380.5958, 2210.621
381.0779, 2204.501
381.5601, 2206.371
382.0422, 2200.113
382.5243, 2178.608
383.0064, 2151.600
383.4885, 2135.622
383.9706, 2129.440
384.4528, 2125.056
384.9349, 2117.243
385.4170, 2107.550
385.8991, 2097.702
386.3812, 2087.051
386.8633, 2078.933
387.3455, 2078.934
387.8276, 2083.947
388.3097, 2086.856
388.7918, 2086.484
389.2739, 2080.971
389.7560, 2065.324
390.2382, 2037.899
390.7203, 2015.760
391.2024, 2014.004
391.6845, 2020.628
392.1666, 2021.781
392.6487, 2001.781
393.1309, 1985.892
393.6130, 1989.662
394.0951, 2010.840
394.5772, 2022.230
395.0593, 2007.528
395.5414, 1986.812
396.0236, 1972.745
396.5057, 1967.745
396.9878, 1968.642
397.4699, 1983.352
397.9520, 2004.895
398.4341, 2011.021
398.9163, 1985.800
399.3984, 1961.658
399.8805, 1950.797
400.3626, 1958.328
400.8447, 1964.473
401.3268, 1971.357
401.8090, 1975.267
402.2911, 1968.891
402.7732, 1945.850
403.2553, 1929.483
403.7374, 1927.299
404.2195, 1938.525
404.7017, 1950.421
405.1838, 1964.588
405.6659, 1975.141
406.1480, 1973.074
406.6301, 1958.065
407.1122, 1952.584
407.5944, 1964.523
408.0765, 1984.325
408.5586, 1988.057
409.0407, 1976.006
409.5228, 1960.736
410.0049, 1946.044
410.4871, 1934.551
410.9692, 1936.172
411.4513, 1954.583
411.9334, 1975.392
412.4155, 1983.061
412.8976, 1980.012
413.3798, 1973.212
413.8619, 1960.742
414.3440, 1949.050
414.8261, 1946.464
415.3082, 1953.091
415.7903, 1959.530
416.2725, 1957.656
416.7546, 1952.955
417.2367, 1951.901
417.7188, 1965.352
418.2009, 1973.128
418.6830, 1957.489
419.1652, 1926.155
419.6473, 1908.059
420.1294, 1925.622
420.6115, 1949.389
421.0937, 1963.721
421.5758, 1963.313
422.0579, 1959.819
422.5400, 1953.619
423.0221, 1945.472
423.5042, 1936.358
423.9864, 1920.142
424.4685, 1909.993
424.9506, 1909.850
425.4327, 1920.425
425.9148, 1932.490
426.3969, 1948.692
426.8791, 1963.369
427.3612, 1971.634
427.8433, 1973.050
428.3254, 1968.603
428.8075, 1955.277
429.2896, 1937.359
429.7718, 1930.388
430.2539, 1935.690
430.7360, 1944.538
431.2181, 1954.278
431.7002, 1964.424
432.1823, 1966.636
432.6645, 1959.087
433.1466, 1948.290
433.6287, 1942.095
434.1108, 1940.208
434.5929, 1941.434
435.0750, 1947.243
435.5572, 1955.027
436.0393, 1960.710
436.5214, 1964.292
437.0035, 1965.774
437.4856, 1963.636
437.9677, 1959.833
438.4499, 1956.893
438.9320, 1954.798
439.4141, 1954.839
439.8962, 1960.229
440.3783, 1968.680
440.8604, 1974.454
441.3426, 1973.387
441.8247, 1970.084
442.3068, 1966.934
442.7889, 1964.247
443.2710, 1961.501
443.7531, 1957.768
444.2353, 1954.223
444.7174, 1952.101
445.1995, 1952.004
445.6816, 1952.922
446.1637, 1955.510
446.6458, 1959.459
447.1280, 1961.492
447.6101, 1959.018
448.0922, 1957.492
448.5743, 1960.490
449.0564, 1971.035
449.5385, 1978.248
450.0207, 1981.866
450.5028, 1982.025
450.9849, 1977.172
451.4670, 1965.635
451.9491, 1957.889
452.4312, 1959.523
452.9134, 1969.098
453.3955, 1974.977
453.8776, 1976.718
454.3597, 1977.807
454.8418, 1984.314
455.3239, 1993.814
455.8061, 1994.696
456.2882, 1980.285
456.7703, 1962.474
457.2524, 1958.907
457.7345, 1967.090
458.2166, 1976.870
458.6988, 1983.260
459.1809, 1987.515
459.6630, 1991.310
460.1451, 1995.154
460.6272, 1996.278
461.1093, 1989.657
461.5915, 1980.302
462.0736, 1974.578
462.5557, 1982.127
463.0378, 1986.273
463.5199, 1975.540
464.0020, 1952.940
464.4842, 1940.966
464.9663, 1957.137
465.4484, 1975.747
465.9305, 1982.376
466.4126, 1962.132
466.8947, 1955.763
467.3769, 1972.917
467.8590, 1999.688
468.3411, 2012.734
468.8232, 2004.422
469.3053, 1997.409
469.7874, 1998.212
470.2696, 2006.324
470.7517, 2012.469
471.2338, 2016.452
471.7159, 2019.036
472.1980, 2021.390
472.6801, 2023.438
473.1623, 2021.465
473.6444, 2013.630
474.1265, 2004.137
474.6086, 2000.177
475.0907, 2001.223
475.5728, 2003.875
476.0550, 2009.014
476.5371, 2013.687
477.0192, 2010.801
477.5013, 1999.980
477.9834, 1991.672
478.4655, 1998.127
478.9477, 2010.648
479.4298, 2017.499
479.9119, 2010.251
480.3940, 2002.894
480.8761, 2004.276
481.3582, 2011.531
481.8404, 2016.415
482.3225, 2011.785
482.8046, 2007.855
483.2867, 2010.790
483.7688, 2024.959
484.2509, 2032.586
484.7331, 2028.147
485.2152, 2018.535
485.6973, 2009.595
486.1794, 1999.422
486.6615, 1993.279
487.1436, 1992.646
487.6258, 1996.601
488.1079, 2001.594
488.5900, 2008.854
489.0721, 2013.639
489.5542, 2011.443
490.0363, 2002.156
490.5185, 1998.846
491.0006, 2002.974
491.4827, 2009.413
491.9648, 2010.118
492.4470, 2006.551
492.9291, 2007.336
493.4112, 2019.699
493.8933, 2034.257
494.3754, 2034.781
494.8575, 2023.008
495.3397, 2009.856
495.8218, 1998.993
496.3039, 1992.067
496.7860, 1992.571
497.2681, 2003.389
497.7502, 2012.034
498.2324, 2008.400
498.7145, 1999.609
499.1966, 1995.278
499.6787, 2003.674
500.1608, 2011.515
500.6429, 2013.980
501.1251, 2011.399
501.6072, 2010.497
502.0893, 2016.322
502.5714, 2019.863
503.0535, 2015.913
503.5356, 1998.129
504.0178, 1988.310
504.4999, 1988.803
504.9820, 1995.260
505.4641, 2001.755
505.9462, 2008.468
506.4283, 2014.194
506.9105, 2018.499
507.3926, 2021.528
507.8747, 2024.733
508.3568, 2028.301
508.8389, 2028.530
509.3210, 2018.993
509.8032, 2004.002
510.2853, 1995.541
510.7674, 1995.591
511.2495, 2000.107
511.7316, 2007.723
512.2137, 2016.628
512.6959, 2023.037
513.1780, 2026.244
513.6601, 2025.793
514.1422, 2016.861
514.6243, 2001.654
515.1064, 1994.869
515.5886, 2011.593
516.0707, 2032.008
516.5528, 2043.328
517.0349, 2038.121
517.5170, 2036.235
517.9991, 2045.617
518.4813, 2056.949
518.9634, 2058.038
519.4455, 2043.390
519.9276, 2027.544
520.4097, 2011.072
520.8918, 1995.419
521.3740, 1989.905
521.8561, 1997.154
522.3382, 2005.852
522.8203, 2007.134
523.3024, 2001.714
523.7845, 2003.862
524.2667, 2016.251
524.7488, 2029.026
525.2309, 2027.084
525.7130, 2014.869
526.1951, 2008.253
526.6772, 2017.631
527.1594, 2030.546
527.6415, 2030.421
528.1236, 2020.144
528.6057, 2012.398
529.0878, 2015.874
529.5699, 2023.756
530.0521, 2031.901
530.5342, 2040.615
531.0163, 2046.011
531.4984, 2047.124
531.9805, 2044.231
532.4626, 2037.666
532.9448, 2013.102
533.4269, 2002.562
533.9090, 2017.549
534.3911, 2050.018
534.8732, 2067.873
535.3553, 2066.698
535.8375, 2059.260
536.3196, 2048.754
536.8017, 2034.520
537.2838, 2029.853
537.7659, 2036.977
538.2480, 2046.197
538.7302, 2046.048
539.2123, 2037.960
539.6944, 2031.702
540.1765, 2029.323
540.6586, 2029.808
541.1407, 2032.748
541.6229, 2037.562
542.1050, 2042.198
542.5871, 2045.079
543.0692, 2047.605
543.5513, 2052.927
544.0334, 2061.057
544.5156, 2063.542
544.9977, 2046.318
545.4798, 2027.624
545.9619, 2022.624
546.4440, 2047.187
546.9261, 2066.121
547.4083, 2071.533
547.8904, 2068.939
548.3725, 2068.270
548.8546, 2071.492
549.3367, 2073.264
549.8188, 2071.204
550.3010, 2065.947
550.7831, 2066.534
551.2652, 2075.512
551.7473, 2081.826
552.2294, 2074.233
552.7115, 2054.659
553.1937, 2042.758
553.6758, 2040.443
554.1579, 2044.330
554.6400, 2054.817
555.1221, 2068.618
555.6042, 2075.731
556.0864, 2065.940
556.5685, 2054.785
557.0506, 2060.100
557.5327, 2077.620
558.0148, 2091.433
558.4969, 2094.279
558.9791, 2090.643
559.4612, 2080.994
559.9433, 2063.269
560.4254, 2051.030
560.9075, 2047.263
561.3896, 2049.926
561.8718, 2057.523
562.3539, 2077.675
562.8360, 2089.250
563.3181, 2086.681
563.8002, 2076.427
564.2823, 2074.791
564.7645, 2083.762
565.2466, 2092.504
565.7287, 2096.782
566.2108, 2097.305
566.6929, 2096.193
567.1750, 2093.287
567.6572, 2092.559
568.1393, 2100.761
568.6214, 2112.983
569.1035, 2117.751
569.5856, 2111.391
570.0677, 2105.465
570.5499, 2115.023
571.0320, 2130.208
571.5141, 2135.505
571.9962, 2113.934
572.4783, 2092.659
572.9604, 2082.523
573.4426, 2082.213
573.9247, 2083.898
574.4068, 2089.697
574.8889, 2094.160
575.3710, 2093.772
575.8531, 2086.113
576.3353, 2086.953
576.8174, 2099.888
577.2995, 2115.980
577.7816, 2128.397
578.2637, 2137.392
578.7458, 2137.534
579.2280, 2125.168
579.7101, 2108.875
580.1922, 2103.501
580.6743, 2107.985
581.1564, 2116.321
581.6385, 2132.467
582.1207, 2147.309
582.6028, 2143.818
583.0849, 2124.690
583.5670, 2110.752
584.0491, 2118.614
584.5313, 2133.831
585.0134, 2145.934
585.4955, 2153.484
585.9776, 2157.313
586.4597, 2153.153
586.9418, 2147.197
587.4240, 2147.048
587.9061, 2164.372
588.3882, 2168.951
588.8703, 2150.668
589.3524, 2119.447
589.8345, 2104.937
590.3167, 2109.814
590.7988, 2121.605
591.2809, 2139.289
591.7630, 2159.968
592.2451, 2164.693
592.7272, 2152.858
593.2094, 2139.844
593.6915, 2141.780
594.1736, 2150.964
594.6557, 2150.196
595.1378, 2133.457
595.6199, 2120.785
596.1021, 2132.461
596.5842, 2156.333
597.0663, 2175.140
597.5485, 2184.145
598.0306, 2185.822
598.5127, 2173.873
598.9948, 2153.279
599.4769, 2145.602
599.9590, 2164.365
600.4412, 2181.130
600.9233, 2186.054
601.4054, 2178.372
601.8875, 2171.469
602.3696, 2165.610
602.8517, 2159.992
603.3339, 2152.845
603.8160, 2144.534
604.2981, 2142.093
604.7802, 2147.653
605.2623, 2154.512
605.7444, 2151.517
606.2266, 2142.667
606.7087, 2138.901
607.1908, 2147.623
607.6729, 2159.350
608.1550, 2166.992
608.6371, 2171.476
609.1193, 2176.083
609.6014, 2186.381
610.0835, 2193.383
610.5656, 2191.131
611.0477, 2177.770
611.5298, 2167.178
612.0120, 2160.369
612.4941, 2155.978
612.9762, 2153.115
613.4583, 2151.491
613.9404, 2152.529
614.4225, 2156.558
614.9047, 2162.820
615.3868, 2172.241
615.8689, 2184.339
616.3510, 2191.087
616.8331, 2187.552
617.3152, 2180.884
617.7974, 2184.035
618.2795, 2194.251
618.7616, 2200.990
619.2437, 2194.009
619.7258, 2184.638
620.2079, 2181.229
620.6901, 2184.257
621.1722, 2188.921
621.6543, 2194.569
622.1364, 2200.624
622.6185, 2206.595
623.1006, 2212.057
623.5828, 2218.909
624.0649, 2230.853
624.5470, 2240.786
625.0291, 2237.286
625.5112, 2216.159
625.9933, 2205.511
626.4755, 2214.369
626.9576, 2231.146
627.4397, 2228.462
627.9218, 2209.166
628.4039, 2194.982
628.8860, 2198.610
629.3682, 2212.498
629.8503, 2229.598
630.3324, 2249.069
630.8145, 2264.705
