##NAMES=Luzonite
##RRUFFID=R070247
##IDEAL CHEMISTRY=Cu_3_AsS^2-^_4_
##LOCALITY=Huaron Mining District, San Jose de Huayllay district, Cerro de Pasco, Alcides Carrión Province, Pasco department, Peru
##OWNER=RRUFF
##SOURCE=Michael Scott
##DESCRIPTION=Black metallic crystals with pinkish hue. The electron microscope image shows three distinct fine-scale phases related to As and Sb content
##STATUS=The identification of this mineral is confirmed by single-crystal X-ray diffraction and chemical analysis.
##URL=rruff.info/R070247
##MEASURED CHEMISTRY=Cu_3.01_(As_0.67_Sb_0.31_)_Σ=0.98_S_4_; (Light), Cu_3.00_(As_0.74_Sb_0.22_)_Σ=0.96_S_4_ (Inter. gray), Cu_3.01_(As_0.84_Sb_0.16_)_Σ=1.00_S_4_ (Dark)
152.3570, 446.8517
152.8391, 442.7122
153.3212, 444.6629
153.8033, 453.3853
154.2855, 460.9671
154.7676, 459.0471
155.2497, 450.1624
155.7318, 445.3366
156.2139, 449.5024
156.6960, 456.9712
157.1782, 460.9087
157.6603, 460.5161
158.1424, 459.8734
158.6245, 462.5422
159.1066, 467.4174
159.5887, 471.9699
160.0709, 475.5208
160.5530, 478.4052
161.0351, 481.1493
161.5172, 483.8743
161.9993, 485.9931
162.4814, 485.5000
162.9636, 484.0794
163.4457, 485.1640
163.9278, 491.3893
164.4099, 500.4478
164.8920, 508.1185
165.3741, 513.9871
165.8563, 519.5718
166.3384, 525.6414
166.8205, 532.0901
167.3026, 538.8137
167.7847, 545.8564
168.2668, 553.1469
168.7490, 561.2930
169.2311, 572.0760
169.7132, 579.5109
170.1953, 577.3260
170.6774, 570.4554
171.1595, 566.8801
171.6417, 572.4315
172.1238, 582.7064
172.6059, 585.4539
173.0880, 575.5408
173.5701, 568.4914
174.0522, 573.1252
174.5344, 584.2505
175.0165, 594.6237
175.4986, 600.8396
175.9807, 604.0132
176.4628, 607.4668
176.9449, 612.2827
177.4271, 615.2072
177.9092, 613.3003
178.3913, 609.4467
178.8734, 607.6929
179.3555, 610.4408
179.8376, 616.1530
180.3197, 620.2899
180.8019, 622.1005
181.2840, 623.5593
181.7661, 625.8585
182.2482, 628.0999
182.7303, 628.6804
183.2124, 626.1871
183.6946, 622.5649
184.1767, 623.8114
184.6588, 633.0811
185.1409, 641.8786
185.6230, 648.0300
186.1051, 652.4760
186.5873, 656.2912
187.0694, 659.9546
187.5515, 663.3109
188.0336, 666.1968
188.5157, 669.4781
188.9978, 670.4835
189.4800, 665.9793
189.9621, 660.3891
190.4442, 658.7922
190.9263, 663.7036
191.4084, 672.1995
191.8905, 677.0392
192.3727, 675.8066
192.8548, 675.0809
193.3369, 675.9949
193.8190, 677.8560
194.3011, 679.9977
194.7832, 682.1544
195.2654, 684.5385
195.7475, 687.7144
196.2296, 692.5476
196.7117, 696.5632
197.1938, 698.7754
197.6759, 700.5444
198.1581, 703.5233
198.6402, 708.2086
199.1223, 712.9082
199.6044, 714.3394
200.0865, 711.0287
200.5686, 707.1415
201.0508, 702.4689
201.5329, 697.8331
202.0150, 693.3745
202.4971, 689.2707
202.9792, 686.5792
203.4613, 687.1783
203.9435, 692.2972
204.4256, 698.1401
204.9077, 707.9389
205.3898, 716.0115
205.8719, 717.1036
206.3540, 710.8119
206.8362, 702.2801
207.3183, 698.7631
207.8004, 702.7989
208.2825, 705.5632
208.7646, 705.6076
209.2467, 705.5939
209.7289, 707.8516
210.2110, 712.1783
210.6931, 715.9320
211.1752, 715.4609
211.6573, 708.8589
212.1395, 705.0959
212.6216, 706.8221
213.1037, 708.9282
213.5858, 708.8741
214.0679, 706.7200
214.5500, 703.9744
215.0322, 701.6664
215.5143, 699.3548
215.9964, 700.6476
216.4785, 712.8733
216.9606, 721.8901
217.4427, 718.5797
217.9249, 706.6039
218.4070, 697.2048
218.8891, 700.7759
219.3712, 717.8315
219.8533, 729.1306
220.3354, 730.2323
220.8176, 729.5117
221.2997, 728.1982
221.7818, 726.7553
222.2639, 725.3919
222.7460, 724.0998
223.2281, 723.0231
223.7103, 723.8461
224.1924, 729.3275
224.6745, 733.7798
225.1566, 735.3151
225.6387, 735.2297
226.1208, 735.2628
226.6030, 736.2700
227.0851, 738.4734
227.5672, 743.2479
228.0493, 756.8979
228.5314, 764.2264
229.0135, 757.3137
229.4957, 745.1019
229.9778, 738.1373
230.4599, 741.2802
230.9420, 750.5691
231.4241, 755.8841
231.9062, 752.4663
232.3884, 753.4077
232.8705, 764.6841
233.3526, 778.0134
233.8347, 785.5981
234.3168, 784.9707
234.7989, 780.6895
235.2811, 780.1383
235.7632, 783.3809
236.2453, 790.6007
236.7274, 805.4001
237.2095, 821.2079
237.6916, 834.2441
238.1738, 843.5618
238.6559, 850.0229
239.1380, 853.4929
239.6201, 851.9113
240.1022, 855.1551
240.5843, 868.5328
241.0665, 882.7322
241.5486, 893.0641
242.0307, 899.6433
242.5128, 905.7292
242.9949, 915.0952
243.4770, 928.2853
243.9592, 938.2469
244.4413, 939.4168
244.9234, 942.6940
245.4055, 954.2420
245.8876, 971.5388
246.3697, 987.4521
246.8519, 995.9562
247.3340, 998.2551
247.8161, 1004.876
248.2982, 1018.889
248.7803, 1033.443
249.2624, 1046.674
249.7446, 1058.764
250.2267, 1069.895
250.7088, 1079.977
251.1909, 1089.485
251.6730, 1100.338
252.1551, 1114.629
252.6373, 1125.897
253.1194, 1131.720
253.6015, 1134.009
254.0836, 1133.548
254.5657, 1129.726
255.0478, 1126.680
255.5300, 1132.873
256.0121, 1151.802
256.4942, 1166.591
256.9763, 1171.229
257.4584, 1170.433
257.9406, 1166.227
258.4227, 1158.903
258.9048, 1150.765
259.3869, 1142.796
259.8690, 1134.785
260.3511, 1132.309
260.8333, 1143.434
261.3154, 1154.176
261.7975, 1153.325
262.2796, 1141.085
262.7617, 1127.540
263.2438, 1119.803
263.7260, 1116.963
264.2081, 1113.960
264.6902, 1110.675
265.1723, 1106.506
265.6544, 1100.091
266.1365, 1092.269
266.6187, 1086.003
267.1008, 1081.463
267.5829, 1079.636
268.0650, 1085.223
268.5471, 1101.964
269.0292, 1114.209
269.5114, 1103.725
269.9935, 1081.849
270.4756, 1067.892
270.9577, 1070.674
271.4398, 1080.242
271.9219, 1086.045
272.4041, 1087.997
272.8862, 1089.460
273.3683, 1093.304
273.8504, 1096.934
274.3325, 1095.061
274.8146, 1083.524
275.2968, 1073.605
275.7789, 1074.967
276.2610, 1084.952
276.7431, 1092.384
277.2252, 1092.553
277.7073, 1089.459
278.1895, 1090.719
278.6716, 1097.946
279.1537, 1101.524
279.6358, 1095.442
280.1179, 1084.011
280.6000, 1075.658
281.0822, 1072.857
281.5643, 1069.122
282.0464, 1054.036
282.5285, 1026.092
283.0106, 1007.182
283.4927, 1006.427
283.9749, 1011.540
284.4570, 1012.822
284.9391, 1009.149
285.4212, 1001.356
285.9033, 988.9276
286.3854, 972.1056
286.8676, 959.9226
287.3497, 952.5694
287.8318, 949.1350
288.3139, 951.1758
288.7960, 956.9706
289.2781, 962.0245
289.7603, 963.5936
290.2424, 962.9631
290.7245, 965.5876
291.2066, 976.3596
291.6887, 984.1385
292.1708, 983.0657
292.6530, 979.5814
293.1351, 982.4646
293.6172, 994.7076
294.0993, 1011.613
294.5814, 1024.951
295.0635, 1033.723
295.5457, 1040.338
296.0278, 1041.094
296.5099, 1042.464
296.9920, 1050.034
297.4741, 1063.750
297.9562, 1078.333
298.4384, 1087.229
298.9205, 1088.050
299.4026, 1100.423
299.8847, 1139.474
300.3668, 1174.617
300.8489, 1190.487
301.3311, 1194.290
301.8131, 1202.176
302.2953, 1224.853
302.7774, 1260.121
303.2595, 1296.995
303.7416, 1336.399
304.2237, 1376.163
304.7058, 1415.945
305.1880, 1455.734
305.6701, 1493.923
306.1522, 1529.687
306.6343, 1568.298
307.1164, 1620.395
307.5985, 1690.071
308.0807, 1757.220
308.5628, 1811.781
309.0449, 1867.280
309.5270, 1931.935
310.0091, 2006.455
310.4912, 2084.257
310.9734, 2160.487
311.4555, 2235.356
311.9376, 2309.191
312.4197, 2379.371
312.9018, 2452.161
313.3839, 2530.271
313.8661, 2613.700
314.3482, 2701.973
314.8303, 2797.634
315.3124, 2896.873
315.7945, 2991.910
316.2766, 3081.377
316.7588, 3174.043
317.2409, 3275.792
317.7230, 3382.693
318.2051, 3487.404
318.6872, 3585.762
319.1693, 3686.589
319.6515, 3798.779
320.1336, 3919.217
320.6157, 4037.491
321.0978, 4152.077
321.5799, 4258.426
322.0620, 4351.337
322.5442, 4432.299
323.0263, 4497.742
323.5084, 4545.385
323.9905, 4577.737
324.4726, 4603.453
324.9547, 4623.908
325.4369, 4619.523
325.9190, 4570.323
326.4011, 4471.240
326.8832, 4354.474
327.3653, 4214.389
327.8474, 4062.159
328.3296, 3905.568
328.8117, 3741.947
329.2938, 3561.921
329.7759, 3357.743
330.2580, 3134.894
330.7401, 2924.776
331.2223, 2725.623
331.7044, 2540.405
332.1865, 2371.221
332.6686, 2214.757
333.1507, 2065.637
333.6328, 1923.124
334.1150, 1792.971
334.5971, 1683.243
335.0792, 1597.225
335.5613, 1525.486
336.0434, 1478.563
336.5255, 1434.910
337.0077, 1380.698
337.4898, 1319.368
337.9719, 1264.433
338.4540, 1227.578
338.9361, 1207.062
339.4182, 1187.102
339.9004, 1165.724
340.3825, 1148.372
340.8646, 1136.446
341.3467, 1128.876
341.8288, 1124.691
342.3109, 1123.735
342.7931, 1124.870
343.2752, 1126.485
343.7573, 1128.524
344.2394, 1131.374
344.7215, 1133.548
345.2036, 1138.084
345.6858, 1147.650
346.1679, 1162.329
346.6500, 1179.237
347.1321, 1196.942
347.6142, 1215.460
348.0963, 1235.342
348.5785, 1257.200
349.0606, 1278.815
349.5427, 1298.931
350.0248, 1317.487
350.5069, 1333.823
350.9890, 1351.378
351.4712, 1363.916
351.9533, 1363.806
352.4354, 1353.097
352.9175, 1342.754
353.3996, 1338.469
353.8817, 1337.110
354.3639, 1330.046
354.8460, 1315.616
355.3281, 1300.582
355.8102, 1286.214
356.2923, 1272.133
356.7744, 1258.318
357.2566, 1244.638
357.7387, 1230.561
358.2208, 1215.361
358.7029, 1198.646
359.1850, 1182.838
359.6671, 1167.798
360.1493, 1153.698
360.6314, 1139.333
361.1135, 1126.013
361.5956, 1117.077
362.0777, 1114.898
362.5598, 1117.006
363.0420, 1114.538
363.5241, 1107.360
364.0062, 1095.161
364.4883, 1071.824
364.9704, 1047.852
365.4525, 1033.690
365.9347, 1030.877
366.4168, 1030.228
366.8989, 1021.174
367.3810, 1003.091
367.8631, 985.6784
368.3452, 968.8835
368.8274, 953.3138
369.3095, 938.9232
369.7916, 925.7889
370.2737, 914.4245
370.7558, 906.9108
371.2379, 899.7759
371.7201, 884.9193
372.2022, 861.0268
372.6843, 842.5911
373.1664, 839.3025
373.6485, 843.0732
374.1306, 841.2472
374.6128, 832.2719
375.0949, 821.9988
375.5770, 812.5936
376.0591, 804.2227
376.5412, 797.8311
377.0233, 793.8726
377.5055, 789.8188
377.9876, 782.6674
378.4697, 772.0131
378.9518, 763.3277
379.4339, 758.8386
379.9160, 754.4131
380.3982, 747.1038
380.8803, 737.7906
381.3624, 729.1149
381.8445, 722.4275
382.3266, 717.6078
382.8087, 714.2095
383.2909, 711.8909
383.7730, 711.7628
384.2551, 716.5179
384.7372, 721.6986
385.2193, 724.0829
385.7014, 722.9586
386.1836, 718.9796
386.6657, 712.1635
387.1478, 702.2896
387.6299, 694.2807
388.1120, 687.6387
388.5941, 683.6960
389.0763, 685.2182
389.5584, 689.0667
390.0405, 690.0582
390.5226, 685.4037
391.0047, 678.6987
391.4868, 676.4089
391.9690, 679.2654
392.4511, 679.4954
392.9332, 673.2823
393.4153, 665.1852
393.8974, 659.0805
394.3795, 655.0347
394.8617, 652.9322
395.3438, 652.4961
395.8259, 654.0295
396.3080, 659.7344
396.7901, 670.1663
397.2722, 677.9705
397.7544, 677.4186
398.2365, 669.6710
398.7186, 662.6406
399.2007, 655.0539
399.6828, 649.6287
400.1649, 648.1138
400.6471, 649.3033
401.1292, 651.9927
401.6113, 655.8165
402.0934, 658.7083
402.5755, 657.2486
403.0576, 648.9228
403.5398, 643.9669
404.0219, 644.1757
404.5040, 645.5382
404.9861, 645.4593
405.4682, 644.7677
405.9503, 646.2141
406.4325, 651.8632
406.9146, 660.1879
407.3967, 665.9518
407.8788, 669.5624
408.3609, 669.5434
408.8430, 662.4261
409.3252, 653.9818
409.8073, 649.1992
410.2894, 648.6641
410.7715, 648.3766
411.2536, 643.1357
411.7357, 634.6316
412.2179, 632.4161
412.7000, 638.9550
413.1821, 647.3605
413.6642, 655.6848
414.1463, 662.3026
414.6284, 662.5799
415.1106, 650.2474
415.5927, 637.9835
416.0748, 637.5927
416.5569, 645.1504
417.0390, 647.2879
417.5211, 638.3211
418.0033, 626.6533
418.4854, 625.8539
418.9675, 641.2623
419.4496, 649.1976
419.9317, 641.8679
420.4138, 632.5390
420.8960, 630.1702
421.3781, 633.9233
421.8602, 638.5923
422.3423, 640.9210
422.8244, 641.3517
423.3065, 641.7819
423.7887, 642.2122
424.2708, 642.6427
424.7529, 644.7686
425.2350, 645.7851
425.7171, 642.3473
426.1992, 634.5472
426.6814, 626.6545
427.1635, 622.2029
427.6456, 621.1038
428.1277, 623.2070
428.6098, 630.4001
429.0919, 637.1656
429.5741, 641.9894
430.0562, 644.2917
430.5383, 642.2342
431.0204, 633.4864
431.5025, 624.4194
431.9846, 619.4608
432.4668, 618.4203
432.9489, 621.7905
433.4310, 630.9547
433.9131, 640.2415
434.3952, 642.3699
434.8773, 636.4744
435.3595, 631.9224
435.8416, 629.7310
436.3237, 628.5367
436.8058, 627.4681
437.2879, 626.6956
437.7701, 627.2567
438.2522, 629.8609
438.7343, 632.9273
439.2164, 631.8252
439.6985, 619.4446
440.1806, 615.9335
440.6628, 629.8448
441.1449, 644.8762
441.6270, 649.3106
442.1091, 644.4140
442.5912, 639.7287
443.0733, 643.1013
443.5555, 652.0059
444.0376, 656.2450
444.5197, 654.0873
445.0018, 652.1397
445.4839, 655.7899
445.9660, 659.3210
446.4482, 655.4596
446.9303, 642.1904
447.4124, 630.6738
447.8945, 628.5249
448.3766, 632.8204
448.8587, 638.5162
449.3409, 645.1857
449.8230, 650.3444
450.3051, 652.0588
450.7872, 650.3846
451.2693, 647.2840
451.7514, 640.1748
452.2336, 634.7435
452.7157, 634.2045
453.1978, 635.9911
453.6799, 636.3868
454.1620, 634.3704
454.6441, 631.7432
455.1263, 630.8228
455.6084, 631.8558
456.0905, 633.1987
456.5726, 635.2614
457.0547, 637.2106
457.5368, 639.9043
458.0190, 642.0438
458.5011, 640.9056
458.9832, 634.7220
459.4653, 627.8860
459.9474, 627.0997
460.4295, 632.4509
460.9117, 638.4681
461.3938, 646.1944
461.8759, 651.3695
462.3580, 648.0180
462.8401, 638.0161
463.3222, 631.3634
463.8044, 633.8336
464.2865, 638.3516
464.7686, 638.3915
465.2507, 634.8790
465.7328, 631.8501
466.2149, 631.0021
466.6971, 631.7513
467.1792, 633.0915
467.6613, 635.8575
468.1434, 637.3838
468.6255, 637.1187
469.1076, 636.1252
469.5898, 635.0269
470.0719, 633.7818
470.5540, 631.6296
471.0361, 627.6694
471.5182, 623.5874
472.0003, 625.4509
472.4825, 637.1196
472.9646, 644.1450
473.4467, 639.9763
473.9288, 632.5256
474.4109, 625.4748
474.8930, 619.4567
475.3752, 615.5762
475.8573, 615.0629
476.3394, 616.8519
476.8215, 620.0833
477.3036, 624.7452
477.7857, 627.1736
478.2679, 624.4719
478.7500, 619.2510
479.2321, 618.3854
479.7142, 624.5311
480.1963, 627.7696
480.6784, 624.2156
481.1606, 618.2968
481.6427, 612.7071
482.1248, 608.4468
482.6069, 607.5449
483.0890, 612.1389
483.5711, 620.6556
484.0533, 624.0594
484.5354, 617.2899
485.0175, 613.7322
485.4996, 619.0118
485.9817, 625.2491
486.4638, 625.1725
486.9460, 618.6052
487.4281, 612.0831
487.9102, 611.8239
488.3923, 615.4816
488.8744, 614.5975
489.3565, 607.7177
489.8387, 604.8023
490.3208, 614.4173
490.8029, 629.3452
491.2850, 634.0018
491.7671, 624.5071
492.2492, 616.2104
492.7314, 615.9922
493.2135, 618.7356
493.6956, 618.8115
494.1777, 615.6915
494.6598, 611.1439
495.1419, 605.8655
495.6241, 600.7587
496.1062, 601.8940
496.5883, 618.3405
497.0704, 628.2001
497.5525, 624.1330
498.0346, 616.5615
498.5168, 614.6935
498.9989, 619.0766
499.4810, 623.2194
499.9631, 620.3862
500.4452, 613.0828
500.9273, 611.3848
501.4095, 616.5152
501.8916, 622.2700
502.3737, 627.5465
502.8558, 630.8618
503.3379, 629.5389
503.8200, 622.2131
504.3022, 615.8618
504.7843, 613.3344
505.2664, 613.0251
505.7485, 613.3718
506.2306, 614.1681
506.7127, 615.8375
507.1949, 619.0195
507.6770, 622.8142
508.1591, 623.1583
508.6412, 615.6341
509.1233, 611.1218
509.6054, 612.4184
510.0876, 615.0651
510.5697, 616.6640
511.0518, 616.5791
511.5339, 614.0970
512.0161, 606.6702
512.4982, 597.7775
512.9803, 598.6634
513.4624, 611.3426
513.9445, 621.4926
514.4266, 623.1782
514.9088, 620.6631
515.3909, 619.7424
515.8730, 620.6037
516.3551, 620.5941
516.8372, 618.4465
517.3193, 615.4254
517.8015, 611.4892
518.2836, 607.4927
518.7657, 606.8026
519.2478, 611.6367
519.7299, 618.9124
520.2120, 621.0662
520.6942, 614.4036
521.1763, 609.6022
521.6584, 606.2703
522.1405, 604.9142
522.6226, 607.1263
523.1047, 611.5338
523.5869, 614.6913
524.0690, 614.3176
524.5511, 612.8845
525.0332, 615.2450
525.5153, 621.3611
525.9974, 624.9657
526.4796, 623.7739
526.9617, 620.9320
527.4438, 619.9822
527.9259, 620.6169
528.4080, 619.9262
528.8901, 615.9836
529.3723, 612.1086
529.8544, 609.9070
530.3365, 609.2526
530.8186, 609.9245
531.3007, 611.8281
531.7828, 614.6951
532.2650, 618.5349
532.7471, 623.9519
533.2292, 626.6714
533.7113, 626.4351
534.1934, 623.5462
534.6755, 614.5789
535.1577, 604.4206
535.6398, 599.9946
536.1219, 603.5965
536.6040, 609.8932
537.0861, 615.9454
537.5682, 620.7704
538.0504, 619.5562
538.5325, 610.7935
539.0146, 603.3102
539.4967, 603.5390
539.9788, 610.2712
540.4609, 617.1896
540.9431, 627.2338
541.4252, 633.5560
541.9073, 631.7289
542.3894, 627.5369
542.8715, 627.4500
543.3536, 631.2901
543.8358, 633.2883
544.3179, 628.1666
544.8000, 618.1642
545.2821, 613.6431
545.7642, 617.0325
546.2463, 619.2059
546.7285, 614.6747
547.2106, 610.5441
547.6927, 614.2232
548.1748, 624.9750
548.6569, 632.3814
549.1390, 629.0476
549.6211, 622.0809
550.1032, 618.7928
550.5853, 618.7664
551.0674, 619.9596
551.5496, 621.8683
552.0317, 622.9262
552.5138, 619.9797
552.9959, 609.9429
553.4780, 606.5214
553.9601, 614.0466
554.4423, 622.5327
554.9244, 629.2881
555.4065, 633.9554
555.8886, 636.3211
556.3707, 636.2905
556.8528, 634.7292
557.3350, 632.3997
557.8171, 629.3657
558.2992, 625.7234
558.7813, 620.7724
559.2634, 617.4572
559.7455, 617.8577
560.2277, 621.5132
560.7098, 626.6464
561.1919, 636.2286
561.6740, 642.0828
562.1561, 638.1363
562.6382, 631.3380
563.1204, 629.4620
563.6025, 632.7430
564.0846, 636.3010
564.5667, 636.4643
565.0488, 634.3717
565.5309, 634.8445
566.0131, 639.5573
566.4952, 642.5895
566.9773, 640.1318
567.4594, 637.9659
567.9415, 641.1760
568.4236, 648.4302
568.9058, 653.0319
569.3879, 650.3625
569.8700, 645.4446
570.3521, 643.4186
570.8342, 643.4521
571.3163, 642.8628
571.7985, 640.8610
572.2806, 637.5535
572.7627, 632.4434
573.2448, 624.8000
573.7269, 622.2571
574.2090, 628.0311
574.6912, 634.7657
575.1733, 640.9475
575.6554, 646.9745
576.1375, 653.8314
576.6196, 661.5829
577.1017, 668.5735
577.5839, 674.1089
578.0660, 677.6873
578.5481, 676.6966
579.0302, 670.5512
579.5123, 664.4805
579.9944, 659.7476
580.4766, 657.4701
580.9587, 661.6254
581.4408, 675.1429
581.9229, 682.0590
582.4050, 675.4596
582.8871, 665.8411
583.3693, 657.4218
583.8514, 651.8994
584.3335, 652.0760
584.8156, 659.3141
585.2977, 669.5722
585.7798, 677.0397
586.2620, 681.6796
586.7441, 683.4182
587.2262, 680.8359
587.7083, 677.6909
588.1904, 675.9740
588.6725, 675.1411
589.1547, 674.5450
589.6368, 674.5801
590.1189, 673.5557
590.6010, 668.3634
591.0831, 662.8927
591.5652, 662.9153
592.0474, 668.1878
592.5295, 674.3271
593.0116, 678.7193
593.4937, 681.0496
593.9758, 679.6757
594.4579, 671.1240
594.9401, 667.1543
595.4222, 675.2085
595.9043, 682.1685
596.3864, 678.9807
596.8685, 669.5051
597.3506, 664.3984
597.8328, 669.5712
598.3149, 676.4584
598.7970, 676.4349
599.2791, 672.1672
599.7612, 671.5417
600.2433, 676.0929
600.7255, 679.0881
601.2076, 674.0113
601.6897, 662.3407
602.1718, 656.1608
602.6539, 658.6141
603.1360, 662.5907
603.6182, 669.1431
604.1003, 675.7554
604.5824, 680.9003
605.0645, 684.3826
605.5466, 686.4164
606.0287, 687.0746
606.5109, 686.4493
606.9930, 684.8343
607.4751, 682.1395
607.9572, 676.9990
608.4393, 668.2264
608.9214, 660.0947
609.4036, 656.7143
609.8857, 658.1298
610.3678, 662.0060
610.8499, 673.1520
611.3320, 680.4336
611.8141, 677.9996
612.2963, 672.5387
612.7784, 670.7944
613.2605, 673.3873
613.7426, 676.7278
614.2247, 678.4336
614.7068, 678.6980
615.1890, 677.1770
615.6711, 673.6934
616.1532, 672.7606
616.6353, 676.6530
617.1174, 681.7667
617.5995, 683.2603
618.0817, 681.0501
618.5638, 682.8397
619.0459, 694.9777
619.5280, 704.1605
620.0101, 702.1472
620.4922, 695.8263
620.9744, 694.9663
621.4565, 700.6973
621.9386, 705.2982
622.4207, 700.2116
622.9028, 689.1273
623.3849, 688.0433
623.8671, 699.1257
624.3492, 707.2435
624.8313, 705.7130
625.3134, 701.7360
625.7955, 704.7117
626.2776, 714.1732
626.7598, 721.5258
627.2419, 724.5692
627.7240, 726.3310
628.2061, 726.9717
628.6882, 727.8060
629.1703, 731.2260
629.6525, 737.4260
630.1346, 743.6367
630.6167, 746.9732
631.0988, 748.0073
631.5809, 749.7398
632.0630, 751.9421
632.5452, 755.9619
633.0273, 764.0024
633.5094, 772.3313
633.9915, 776.0425
634.4736, 775.4341
634.9557, 776.6094
635.4379, 782.5922
635.9200, 788.7119
636.4021, 791.2256
636.8842, 792.5705
637.3663, 797.4015
637.8484, 806.3978
638.3306, 815.1070
638.8127, 818.1107
639.2948, 817.1220
639.7769, 824.0049
640.2590, 842.3558
640.7411, 855.9573
641.2233, 860.2830
