##NAMES=Luzonite
##RRUFFID=R060390
##IDEAL CHEMISTRY=Cu_3_AsS^2-^_4_
##LOCALITY=Bern-Shan Pit, Chinkuashi mine, Taipei, Taiwan, Republic of China
##OWNER=RRUFF
##SOURCE=Michael Scott
##DESCRIPTION=Black coarse massive with two directions of obvious cleavage
##STATUS=The identification of this mineral is confirmed by single-crystal X-ray diffraction and chemical analysis.
##URL=rruff.info/R060390
##MEASURED CHEMISTRY=Cu_3.01_(As_0.85_Sb_0.15_)_Î£=1.00_S_4_
129.5436, -0.1257008
130.0258, 0.4439988
130.5079, 1.783209
130.9900, 2.902774
131.4721, 3.793216
131.9542, 4.577306
132.4363, 5.475373
132.9185, 6.423343
133.4006, 6.960409
133.8827, 6.847648
134.3648, 6.248069
134.8469, 5.618387
135.3290, 4.894588
135.8112, 4.421492
136.2933, 4.804836
136.7754, 6.116487
137.2575, 7.175762
137.7396, 7.509384
138.2217, 7.134032
138.7039, 6.819037
139.1860, 6.487199
139.6681, 6.338753
140.1502, 6.745813
140.6323, 7.840037
141.1144, 9.040701
141.5966, 10.26114
142.0787, 11.65425
142.5608, 12.29558
143.0429, 11.98435
143.5250, 11.03833
144.0071, 10.07825
144.4893, 8.832718
144.9714, 8.028998
145.4535, 8.091916
145.9356, 9.658373
146.4177, 10.81437
146.8998, 11.40359
147.3820, 11.54988
147.8641, 11.76237
148.3462, 11.79210
148.8283, 12.11857
149.3104, 13.04812
149.7925, 15.74597
150.2747, 17.51054
150.7568, 17.64935
151.2389, 16.34005
151.7210, 15.74718
152.2031, 16.83228
152.6852, 18.05365
153.1674, 18.46461
153.6495, 17.12760
154.1316, 15.91222
154.6137, 14.90170
155.0958, 14.09467
155.5779, 13.99411
156.0601, 15.05006
156.5422, 16.66148
157.0243, 18.30462
157.5064, 20.87818
157.9885, 22.55546
158.4706, 22.37241
158.9528, 20.02321
159.4349, 18.22551
159.9170, 18.23320
160.3991, 18.99569
160.8812, 19.29854
161.3633, 17.90620
161.8455, 16.69039
162.3276, 16.64915
162.8097, 18.13033
163.2918, 19.50261
163.7739, 20.15551
164.2560, 20.25362
164.7382, 19.96702
165.2203, 18.78560
165.7024, 17.90958
166.1845, 18.36145
166.6666, 20.82587
167.1487, 22.73651
167.6309, 22.00891
168.1130, 19.71120
168.5951, 18.10955
169.0772, 18.91106
169.5593, 20.48875
170.0414, 21.41487
170.5236, 21.22312
171.0057, 20.88205
171.4878, 21.19720
171.9699, 21.96536
172.4520, 22.56370
172.9341, 22.37195
173.4163, 21.92054
173.8984, 21.93021
174.3805, 22.92013
174.8626, 23.80747
175.3447, 23.24245
175.8268, 21.52566
176.3090, 20.04763
176.7911, 19.95541
177.2732, 20.68749
177.7553, 21.37317
178.2374, 21.86952
178.7195, 22.14200
179.2017, 21.99392
179.6838, 21.47356
180.1659, 21.05742
180.6480, 21.35817
181.1301, 22.04536
181.6122, 22.34417
182.0944, 21.95265
182.5765, 21.11856
183.0586, 19.98822
183.5407, 18.58614
184.0228, 17.56575
184.5049, 17.50828
184.9871, 18.32476
185.4692, 19.75059
185.9513, 22.06740
186.4334, 24.80149
186.9155, 27.18612
187.3976, 29.26953
187.8798, 30.35549
188.3619, 28.98495
188.8440, 25.57741
189.3261, 22.94860
189.8082, 22.51330
190.2903, 23.56112
190.7725, 23.35825
191.2546, 21.71843
191.7367, 19.79935
192.2188, 18.86578
192.7009, 18.87582
193.1830, 19.25480
193.6652, 19.86017
194.1473, 20.67583
194.6294, 21.74339
195.1115, 23.22416
195.5936, 24.43166
196.0757, 24.09537
196.5579, 22.14918
197.0400, 20.61389
197.5221, 20.52300
198.0042, 21.75701
198.4863, 22.49897
198.9684, 22.67831
199.4506, 22.51330
199.9327, 22.23805
200.4148, 21.82532
200.8969, 21.53341
201.3790, 21.50097
201.8611, 21.73774
202.3433, 21.98920
202.8254, 22.31531
203.3075, 22.56164
203.7896, 22.47241
204.2717, 22.03506
204.7538, 21.33736
205.2360, 20.20986
205.7181, 18.52664
206.2002, 17.60266
206.6823, 17.56203
207.1644, 18.12503
207.6465, 18.82985
208.1287, 19.69089
208.6108, 20.61615
209.0929, 21.83685
209.5750, 23.66925
210.0571, 23.86544
210.5392, 21.69045
211.0214, 18.54737
211.5035, 17.60802
211.9856, 19.67277
212.4677, 21.73919
212.9498, 22.29718
213.4319, 20.83938
213.9140, 20.04705
214.3962, 20.16668
214.8783, 20.82000
215.3604, 21.14035
215.8425, 21.05669
216.3246, 20.80844
216.8067, 20.36999
217.2889, 19.47907
217.7710, 19.41616
218.2531, 20.68258
218.7352, 22.53791
219.2173, 23.10602
219.6994, 21.76735
220.1816, 20.32368
220.6637, 19.55428
221.1458, 19.60981
221.6279, 19.96705
222.1100, 20.89564
222.5921, 22.01553
223.0743, 22.25737
223.5564, 21.15108
224.0385, 19.99172
224.5206, 19.38102
225.0027, 19.42337
225.4848, 19.73560
225.9670, 20.48610
226.4491, 21.44307
226.9312, 21.98394
227.4133, 21.91566
227.8954, 21.73776
228.3775, 21.72210
228.8597, 22.09244
229.3418, 22.03273
229.8239, 21.27427
230.3060, 20.14699
230.7881, 19.60173
231.2702, 19.84376
231.7524, 20.34914
232.2345, 20.91068
232.7166, 21.62752
233.1987, 22.17038
233.6808, 22.40938
234.1629, 22.50507
234.6451, 22.94664
235.1272, 24.06741
235.6093, 25.03361
236.0914, 25.44841
236.5735, 25.04872
237.0556, 24.67142
237.5378, 24.15758
238.0199, 23.71196
238.5020, 23.91250
238.9841, 25.17055
239.4662, 26.47089
239.9483, 27.40048
240.4305, 27.87411
240.9126, 28.13074
241.3947, 27.99619
241.8768, 27.69823
242.3589, 27.84497
242.8410, 28.76105
243.3232, 29.62098
243.8053, 30.00950
244.2874, 29.54688
244.7695, 29.59536
245.2516, 30.58581
245.7337, 31.92006
246.2159, 32.14146
246.6980, 30.41860
247.1801, 28.89091
247.6622, 28.46176
248.1443, 29.63900
248.6264, 30.47480
249.1086, 30.80911
249.5907, 30.88704
250.0728, 31.19566
250.5549, 31.73752
251.0370, 32.50698
251.5191, 33.55632
252.0013, 35.00055
252.4834, 36.33395
252.9655, 37.64336
253.4476, 38.77864
253.9297, 39.36107
254.4118, 38.98756
254.8940, 38.80985
255.3761, 39.39539
255.8582, 41.14727
256.3403, 41.93677
256.8224, 41.17737
257.3046, 39.90667
257.7867, 39.96392
258.2688, 41.95902
258.7509, 44.00481
259.2330, 45.53222
259.7151, 46.53858
260.1973, 47.05207
260.6794, 46.82486
261.1615, 46.33825
261.6436, 46.28843
262.1257, 46.75893
262.6078, 47.46566
263.0900, 48.37543
263.5721, 49.52898
264.0542, 50.57952
264.5363, 51.59053
265.0184, 52.43357
265.5005, 52.93343
265.9827, 52.98094
266.4648, 52.97396
266.9469, 52.92294
267.4290, 52.81431
267.9111, 53.24488
268.3932, 54.39272
268.8754, 55.79980
269.3575, 56.94130
269.8396, 57.75890
270.3217, 58.59926
270.8038, 59.73446
271.2859, 61.11179
271.7681, 61.30443
272.2502, 59.89578
272.7323, 58.16865
273.2144, 57.49622
273.6965, 58.03894
274.1786, 58.78648
274.6608, 59.78507
275.1429, 60.86711
275.6250, 60.63798
276.1071, 58.74524
276.5892, 56.55753
277.0714, 55.61059
277.5535, 56.12231
278.0356, 55.74586
278.5177, 53.72901
278.9998, 50.57555
279.4819, 48.43404
279.9641, 47.44718
280.4462, 46.79256
280.9283, 45.69593
281.4104, 44.13563
281.8925, 43.22709
282.3746, 43.47986
282.8568, 44.23554
283.3389, 43.39031
283.8210, 40.75840
284.3031, 37.95974
284.7852, 36.02981
285.2673, 34.96012
285.7495, 34.41132
286.2316, 34.51375
286.7137, 34.87209
287.1958, 34.59569
287.6779, 33.66535
288.1600, 32.68051
288.6422, 32.07306
289.1243, 31.77020
289.6064, 31.18779
290.0885, 30.12745
290.5706, 29.12777
291.0527, 29.33496
291.5349, 30.65753
292.0170, 31.74875
292.4991, 31.61833
292.9812, 30.61664
293.4633, 30.00737
293.9454, 29.87900
294.4276, 30.02699
294.9097, 30.30043
295.3918, 30.66370
295.8739, 30.92108
296.3560, 30.83381
296.8381, 30.58610
297.3203, 30.59716
297.8024, 30.87807
298.2845, 31.37681
298.7666, 32.26133
299.2487, 33.35841
299.7308, 34.15944
300.2130, 34.11747
300.6951, 33.77714
301.1772, 34.05684
301.6593, 34.95189
302.1414, 36.07405
302.6235, 37.20752
303.1057, 38.31451
303.5878, 39.26587
304.0699, 39.71558
304.5520, 40.24683
305.0341, 41.86488
305.5162, 44.41387
305.9984, 46.63430
306.4805, 47.05749
306.9626, 46.72024
307.4447, 47.10017
307.9268, 48.96164
308.4089, 51.18375
308.8911, 52.76831
309.3732, 53.85523
309.8553, 55.02177
310.3374, 56.76891
310.8195, 58.69152
311.3016, 60.31634
311.7838, 61.36442
312.2659, 62.48368
312.7480, 64.10909
313.2301, 66.11606
313.7122, 68.22503
314.1943, 70.54231
314.6765, 72.78526
315.1586, 74.64322
315.6407, 75.86900
316.1228, 77.41558
316.6049, 79.87406
317.0870, 82.93301
317.5692, 86.03799
318.0513, 89.22453
318.5334, 92.24989
319.0155, 95.07485
319.4976, 97.76793
319.9797, 99.90348
320.4619, 101.1160
320.9440, 101.7807
321.4261, 102.3056
321.9082, 103.1110
322.3903, 103.4893
322.8724, 103.3023
323.3546, 102.5446
323.8367, 101.0608
324.3188, 98.72189
324.8009, 95.69310
325.2830, 92.13396
325.7651, 87.39059
326.2473, 82.84336
326.7294, 78.78844
327.2115, 75.16096
327.6936, 71.41096
328.1757, 67.47093
328.6578, 63.46980
329.1400, 59.44820
329.6221, 55.07058
330.1042, 51.19170
330.5863, 47.96304
331.0684, 45.22725
331.5505, 42.56071
332.0327, 39.60582
332.5148, 37.11426
332.9969, 35.48138
333.4790, 35.22123
333.9611, 34.45394
334.4432, 32.85872
334.9254, 30.93587
335.4075, 29.57523
335.8896, 28.97081
336.3717, 28.51307
336.8538, 28.00139
337.3359, 27.40431
337.8180, 27.09619
338.3001, 27.21203
338.7823, 27.41119
339.2644, 27.21627
339.7465, 26.46579
340.2286, 26.05204
340.7107, 26.33857
341.1928, 27.17702
341.6750, 27.37686
342.1571, 26.75885
342.6392, 26.17932
343.1213, 26.49166
343.6034, 27.70924
344.0855, 28.67825
344.5677, 29.14818
345.0498, 29.31506
345.5319, 29.63227
346.0140, 30.10403
346.4961, 30.60488
346.9782, 31.07012
347.4604, 31.50262
347.9425, 31.91807
348.4246, 32.34985
348.9067, 32.68330
349.3888, 32.65691
349.8709, 32.33846
350.3531, 32.10246
350.8352, 32.33376
351.3173, 32.73331
351.7994, 32.64168
352.2815, 32.00340
352.7636, 31.28502
353.2458, 30.74979
353.7279, 30.46996
354.2100, 30.61233
354.6921, 31.62907
355.1742, 32.82970
355.6563, 33.46505
356.1385, 33.57033
356.6206, 33.55809
357.1027, 33.64030
357.5848, 33.78829
358.0669, 34.00420
358.5490, 34.48819
359.0312, 34.74099
359.5133, 34.12570
359.9954, 32.95565
360.4775, 32.19495
360.9596, 32.69776
361.4417, 33.51271
361.9239, 33.99451
362.4060, 33.96761
362.8881, 33.82652
363.3702, 33.49561
363.8523, 33.18493
364.3344, 33.21647
364.8166, 34.26910
365.2987, 35.15819
365.7808, 35.35749
366.2629, 34.77404
366.7450, 34.14690
367.2271, 33.67115
367.7093, 33.16321
368.1914, 32.46177
368.6735, 31.52552
369.1556, 30.41310
369.6377, 28.67704
370.1198, 26.49821
370.6020, 25.73670
371.0841, 27.91409
371.5662, 30.09739
372.0483, 30.59914
372.5304, 27.97399
373.0125, 26.44906
373.4947, 26.66882
373.9768, 27.85011
374.4589, 28.11191
374.9410, 27.06543
375.4231, 25.88989
375.9052, 24.97495
376.3874, 24.32021
376.8695, 23.98469
377.3516, 24.12578
377.8337, 24.31573
378.3158, 23.89875
378.7979, 22.75924
379.2801, 21.89286
379.7622, 21.68283
380.2443, 21.94338
380.7264, 21.80446
381.2085, 21.22923
381.6906, 20.51267
382.1728, 19.87243
382.6549, 19.29668
383.1370, 18.71255
383.6191, 18.02872
384.1012, 17.46125
384.5833, 17.53569
385.0655, 18.15970
385.5476, 18.63518
386.0297, 18.47433
386.5118, 17.91744
386.9939, 17.28226
387.4760, 16.54674
387.9582, 16.09339
388.4403, 16.56833
388.9224, 17.58496
389.4045, 18.33526
389.8866, 18.15442
390.3687, 17.80103
390.8509, 18.14256
391.3330, 19.08764
391.8151, 19.59174
392.2972, 18.52427
392.7793, 16.94670
393.2614, 15.87811
393.7436, 15.77660
394.2257, 15.96399
394.7078, 16.37985
395.1899, 16.89343
395.6720, 17.16123
396.1541, 16.92635
396.6363, 16.53959
397.1184, 16.16667
397.6005, 15.85344
398.0826, 15.46473
398.5647, 14.73327
399.0468, 13.99939
399.5290, 13.67561
400.0111, 14.18886
400.4932, 14.68284
400.9753, 14.90586
401.4574, 14.86242
401.9395, 15.27186
402.4217, 16.54505
402.9038, 17.84137
403.3859, 18.61163
403.8680, 18.75727
404.3501, 18.57081
404.8322, 17.91534
405.3144, 17.01287
405.7965, 16.45324
406.2786, 16.25616
406.7607, 16.32606
407.2428, 16.81196
407.7249, 17.74598
408.2071, 17.91486
408.6892, 17.15130
409.1713, 16.12182
409.6534, 15.66876
410.1355, 15.76965
410.6176, 15.90774
411.0998, 15.90709
411.5819, 15.86118
412.0640, 16.17633
412.5461, 16.82362
413.0282, 17.12356
413.5103, 16.25432
413.9925, 14.69844
414.4746, 13.34879
414.9567, 12.24627
415.4388, 11.69188
415.9209, 12.39587
416.4030, 13.91593
416.8852, 15.17356
417.3673, 15.54166
417.8494, 15.46126
418.3315, 15.10272
418.8136, 14.47278
419.2957, 14.18718
419.7779, 15.19872
420.2600, 16.47388
420.7421, 16.96123
421.2242, 15.64947
421.7063, 14.25391
422.1884, 13.09116
422.6706, 12.23001
423.1527, 11.88360
423.6348, 12.82161
424.1169, 13.71448
424.5990, 13.85554
425.0811, 12.56910
425.5633, 11.96946
426.0454, 12.62175
426.5275, 13.78358
427.0096, 14.54243
427.4917, 14.82044
427.9738, 14.78321
428.4560, 14.30349
428.9381, 13.41565
429.4202, 13.03192
429.9023, 13.31138
430.3844, 13.80531
430.8665, 14.19592
431.3487, 14.45764
431.8308, 14.83034
432.3129, 15.46268
432.7950, 16.04789
433.2771, 15.67211
433.7592, 14.28401
434.2414, 13.31814
434.7235, 13.73924
435.2056, 15.16397
435.6877, 16.07179
436.1698, 16.44564
436.6519, 16.49480
437.1341, 16.22511
437.6162, 15.78108
438.0983, 15.54506
438.5804, 15.68312
439.0625, 15.98284
439.5446, 16.38102
440.0268, 16.78414
440.5089, 16.84970
440.9910, 16.10386
441.4731, 15.09364
441.9552, 14.25194
442.4373, 13.63083
442.9195, 13.22672
443.4016, 13.05972
443.8837, 13.10294
444.3658, 13.32377
444.8479, 14.12371
445.3300, 14.68600
445.8122, 14.46629
446.2943, 13.60408
446.7764, 13.33355
447.2585, 14.77520
447.7406, 16.12889
448.2227, 16.44155
448.7049, 14.98926
449.1870, 13.87225
449.6691, 13.16858
450.1512, 12.76708
450.6333, 12.50126
451.1154, 12.32945
451.5976, 12.39367
452.0797, 12.83597
452.5618, 13.61283
453.0439, 14.02388
453.5260, 13.98951
454.0081, 13.81597
454.4903, 13.66094
454.9724, 13.52848
455.4545, 13.74094
455.9366, 14.49605
456.4187, 15.27647
456.9008, 14.91997
457.3830, 13.59081
457.8651, 12.60258
458.3472, 12.84990
458.8293, 13.75231
459.3114, 14.33195
459.7935, 14.57404
460.2757, 14.57533
460.7578, 13.95490
461.2399, 13.27631
461.7220, 13.42422
462.2041, 15.16780
462.6862, 16.86656
463.1684, 17.55778
463.6505, 17.40367
464.1326, 16.75855
464.6147, 14.99325
465.0968, 13.40329
465.5789, 12.83563
466.0611, 13.50136
466.5432, 13.93552
467.0253, 13.52067
467.5074, 12.92863
467.9895, 12.72319
468.4716, 13.24965
468.9538, 13.77615
469.4359, 14.43361
469.9180, 15.05580
470.4001, 15.04548
470.8822, 14.08585
471.3643, 13.04907
471.8465, 12.20724
472.3286, 11.53682
472.8107, 11.35427
473.2928, 11.74854
473.7749, 12.41139
474.2570, 13.15057
474.7392, 13.96294
475.2213, 14.32675
475.7034, 14.05177
476.1855, 13.35862
476.6676, 12.52853
477.1497, 11.59876
477.6319, 10.95025
478.1140, 10.87850
478.5961, 11.20642
479.0782, 11.74966
479.5603, 12.52047
480.0424, 13.14961
480.5246, 13.22091
481.0067, 12.99250
481.4888, 12.82122
481.9709, 12.66955
482.4530, 12.77635
482.9352, 13.65520
483.4173, 14.96365
483.8994, 15.61930
484.3815, 14.58266
484.8636, 13.36048
485.3457, 12.70820
485.8279, 12.85107
486.3100, 12.90685
486.7921, 12.58432
487.2742, 12.26406
487.7563, 12.29777
488.2384, 12.95793
488.7206, 13.51021
489.2027, 13.87490
489.6848, 14.07375
490.1669, 14.17911
490.6490, 14.20124
491.1311, 14.09489
491.6133, 13.75091
492.0954, 13.17536
492.5775, 12.89336
493.0596, 12.93799
493.5417, 13.14588
494.0238, 13.51256
494.5060, 13.94377
494.9881, 13.90518
495.4702, 13.01762
495.9523, 11.99191
496.4344, 12.00819
496.9165, 12.82338
497.3987, 13.52227
497.8808, 13.35941
498.3629, 12.98383
498.8450, 13.14650
499.3271, 13.93648
499.8092, 14.47137
500.2914, 13.81419
500.7735, 12.90591
501.2556, 12.63874
501.7377, 14.26570
502.2198, 15.31087
502.7019, 14.89685
503.1841, 13.49408
503.6662, 12.38849
504.1483, 11.41607
504.6304, 11.03657
505.1125, 11.68680
505.5946, 13.53088
506.0768, 14.22923
506.5589, 13.27366
507.0410, 11.91714
507.5231, 11.17055
508.0052, 11.11816
508.4873, 11.10381
508.9695, 11.00962
509.4516, 10.99886
509.9337, 11.57574
510.4158, 12.69370
510.8979, 13.45662
511.3800, 13.12778
511.8622, 12.28834
512.3443, 12.40281
512.8264, 13.41922
513.3085, 14.38902
513.7906, 14.54808
514.2728, 14.24541
514.7549, 13.91573
515.2370, 13.63109
515.7191, 13.36037
516.2012, 13.09338
516.6833, 12.82668
517.1655, 12.55053
517.6476, 11.92307
518.1297, 11.62256
518.6118, 12.18669
519.0939, 13.49934
519.5760, 14.22925
520.0582, 13.68197
520.5403, 12.97171
521.0224, 12.58052
521.5045, 12.66417
521.9866, 12.55675
522.4688, 12.01132
522.9509, 11.54750
523.4330, 11.98859
523.9151, 13.59051
524.3972, 14.66580
524.8793, 14.75715
525.3615, 14.17043
525.8436, 13.59760
526.3257, 13.03864
526.8078, 12.61194
527.2899, 12.47116
527.7720, 12.49312
528.2542, 12.34435
528.7363, 12.00248
529.2184, 11.76637
529.7005, 12.07790
530.1826, 12.59230
530.6647, 12.79169
531.1469, 12.21320
531.6290, 11.82373
532.1111, 12.52229
532.5932, 13.77403
533.0753, 14.48626
533.5574, 13.73262
534.0396, 12.97978
534.5217, 12.77709
535.0038, 13.18185
535.4859, 13.49596
535.9680, 13.65188
536.4501, 13.75969
536.9323, 13.94861
537.4144, 14.47969
537.8965, 14.24723
538.3786, 12.86541
538.8607, 11.21103
539.3428, 10.71520
539.8250, 11.45429
540.3071, 12.28200
540.7892, 12.95005
541.2713, 13.42954
541.7534, 13.50214
542.2355, 13.20909
542.7177, 12.98716
543.1998, 13.42348
543.6819, 13.99153
544.1640, 13.68169
544.6461, 12.37338
545.1282, 11.22975
545.6104, 11.33270
546.0925, 11.95186
546.5746, 12.25688
547.0567, 11.73461
547.5388, 11.26744
548.0209, 11.11585
548.5031, 11.23188
548.9852, 11.50453
549.4673, 12.00537
549.9494, 12.58074
550.4315, 13.36305
550.9136, 14.34874
551.3958, 14.55531
551.8779, 13.61801
552.3600, 12.51444
552.8421, 11.74338
553.3242, 11.27536
553.8063, 11.59478
554.2885, 12.96602
554.7706, 14.45186
555.2527, 14.70100
555.7348, 13.87459
556.2169, 12.90754
556.6990, 11.83298
557.1812, 11.08808
557.6633, 11.68241
558.1454, 13.26532
558.6275, 14.52121
559.1096, 14.55815
559.5917, 14.04518
560.0739, 13.38313
560.5560, 12.59595
561.0381, 12.00403
561.5202, 11.72269
562.0023, 11.70196
562.4844, 11.92281
562.9666, 12.66310
563.4487, 13.21604
563.9308, 13.36168
564.4129, 13.37907
564.8950, 13.72401
565.3771, 14.58959
565.8593, 15.35885
566.3414, 15.98001
566.8235, 16.38703
567.3056, 16.19523
567.7877, 15.33126
568.2698, 14.40580
568.7520, 13.61300
569.2341, 13.03636
569.7162, 13.18051
570.1983, 14.11103
570.6804, 14.92486
571.1625, 14.44188
571.6447, 13.35875
572.1268, 12.85306
572.6089, 13.44820
573.0910, 14.13991
573.5731, 14.29239
574.0552, 14.09936
574.5374, 13.90248
575.0195, 13.77654
575.5016, 13.70052
575.9837, 13.54301
576.4658, 13.34933
576.9479, 13.67498
577.4301, 15.32878
577.9122, 16.54461
578.3943, 16.34797
578.8764, 14.31688
579.3585, 13.36209
579.8406, 13.81416
580.3228, 14.60598
580.8049, 14.59237
581.2870, 13.82058
581.7691, 13.05614
582.2512, 12.34721
582.7333, 11.90152
583.2155, 12.18687
583.6975, 13.02083
584.1796, 13.84761
584.6617, 14.60958
585.1439, 15.09672
585.6260, 15.03066
586.1081, 14.48285
586.5902, 13.81610
587.0723, 12.84258
587.5544, 12.08121
588.0366, 11.85801
588.5187, 12.31156
589.0008, 12.86167
589.4829, 13.53986
589.9650, 14.22261
590.4471, 14.85718
590.9293, 15.62439
591.4114, 15.87477
591.8935, 15.37629
592.3756, 14.55318
592.8577, 14.17921
593.3398, 14.27913
593.8220, 14.44925
594.3041, 14.54095
594.7862, 14.63351
595.2683, 15.09460
595.7504, 15.83311
596.2325, 16.20886
596.7147, 15.32246
597.1968, 14.12046
597.6789, 13.84451
598.1610, 14.59943
598.6431, 15.18783
599.1252, 14.68315
599.6074, 13.87581
600.0895, 13.43692
600.5716, 13.83009
601.0537, 13.99404
601.5358, 13.36411
602.0179, 12.58244
602.5001, 12.53160
602.9822, 13.68622
603.4643, 14.62232
603.9464, 15.07902
604.4285, 15.16694
604.9106, 15.24697
605.3928, 15.32232
605.8749, 15.35315
606.3570, 15.31683
606.8391, 15.22029
607.3212, 15.03793
607.8033, 14.77702
608.2855, 14.60292
608.7676, 14.82214
609.2497, 15.12913
609.7318, 15.09841
610.2139, 14.61204
610.6960, 14.05952
611.1782, 13.45447
611.6603, 12.98343
612.1424, 12.83957
612.6245, 13.53309
613.1066, 13.99600
613.5887, 13.90242
614.0709, 13.52816
614.5530, 13.40541
615.0351, 13.54403
615.5172, 13.95009
615.9993, 14.81575
616.4814, 15.95272
616.9636, 16.22521
617.4457, 15.56180
617.9278, 14.85324
618.4099, 14.76500
618.8920, 15.05758
619.3741, 14.97700
619.8563, 14.48849
620.3384, 14.14178
620.8205, 14.68954
621.3026, 15.50760
621.7847, 15.76160
622.2668, 15.02218
622.7490, 14.41856
623.2311, 14.65239
623.7132, 15.23165
624.1953, 15.52730
624.6774, 15.01614
