##NAMES=Luzonite
##RRUFFID=R060390
##IDEAL CHEMISTRY=Cu_3_AsS^2-^_4_
##LOCALITY=Bern-Shan Pit, Chinkuashi mine, Taipei, Taiwan, Republic of China
##OWNER=RRUFF
##SOURCE=Michael Scott
##DESCRIPTION=Black coarse massive with two directions of obvious cleavage
##STATUS=The identification of this mineral is confirmed by single-crystal X-ray diffraction and chemical analysis.
##URL=rruff.info/R060390
##MEASURED CHEMISTRY=Cu_3.01_(As_0.85_Sb_0.15_)_Î£=1.00_S_4_
103.1040, 38.64306
103.5861, 40.71085
104.0682, 43.21360
104.5504, 44.28851
105.0325, 43.67588
105.5146, 42.42999
105.9967, 42.04826
106.4788, 43.14968
106.9609, 43.46752
107.4431, 42.10449
107.9252, 40.08685
108.4073, 38.97834
108.8894, 39.51837
109.3715, 40.59699
109.8536, 40.05564
110.3358, 37.50657
110.8179, 35.31252
111.3000, 34.95412
111.7821, 36.26357
112.2642, 37.64696
112.7463, 38.73792
113.2285, 39.45776
113.7106, 39.73391
114.1927, 39.52575
114.6748, 38.93402
115.1569, 38.00176
115.6390, 36.51490
116.1212, 35.22094
116.6033, 34.05359
117.0854, 33.24383
117.5675, 33.16035
118.0496, 34.07899
118.5317, 35.71661
119.0139, 36.69519
119.4960, 36.06483
119.9781, 35.74005
120.4602, 36.66083
120.9423, 38.12379
121.4244, 38.79173
121.9066, 37.49943
122.3887, 34.00975
122.8708, 31.92900
123.3529, 31.55236
123.8350, 31.91343
124.3171, 32.96653
124.7993, 34.52691
125.2814, 35.96119
125.7635, 36.62186
126.2456, 36.31236
126.7277, 35.92920
127.2098, 35.28119
127.6920, 34.65533
128.1741, 34.52539
128.6562, 35.10108
129.1383, 35.61045
129.6204, 34.63337
130.1025, 32.33504
130.5847, 30.71981
131.0668, 31.03360
131.5489, 32.76593
132.0310, 34.12025
132.5131, 34.54608
132.9952, 34.67289
133.4774, 35.14191
133.9595, 35.95980
134.4416, 36.68882
134.9237, 36.95216
135.4058, 36.72048
135.8879, 36.22748
136.3701, 34.86005
136.8522, 33.66057
137.3343, 33.42121
137.8164, 34.30788
138.2985, 35.63809
138.7806, 36.24232
139.2628, 35.71189
139.7449, 35.13391
140.2270, 34.35486
140.7091, 33.70110
141.1912, 33.56517
141.6733, 34.12212
142.1555, 35.11020
142.6376, 35.62243
143.1197, 35.37975
143.6018, 34.92682
144.0839, 34.14668
144.5660, 33.20631
145.0482, 32.29738
145.5303, 31.49291
146.0124, 30.85114
146.4945, 30.80455
146.9766, 32.07152
147.4587, 33.09583
147.9409, 33.01152
148.4230, 32.01205
148.9051, 31.00826
149.3872, 30.52114
149.8693, 30.61352
150.3514, 31.08976
150.8336, 32.59105
151.3157, 34.08200
151.7978, 34.42802
152.2799, 33.45350
152.7620, 32.45685
153.2441, 32.83858
153.7263, 33.87074
154.2084, 34.28994
154.6905, 33.39205
155.1726, 31.63953
155.6547, 29.87331
156.1368, 27.68294
156.6190, 26.33447
157.1011, 26.60927
157.5832, 28.06528
158.0653, 29.93039
158.5474, 32.19738
159.0295, 34.72517
159.5117, 35.55057
159.9938, 32.60960
160.4759, 29.89611
160.9580, 28.99900
161.4401, 29.57927
161.9222, 30.51068
162.4044, 30.78257
162.8865, 30.25599
163.3686, 29.88026
163.8507, 29.59293
164.3328, 29.48878
164.8149, 29.83724
165.2971, 30.51986
165.7792, 31.02280
166.2613, 30.63218
166.7434, 28.61415
167.2255, 27.95841
167.7076, 30.14553
168.1898, 32.49186
168.6719, 32.77449
169.1540, 30.65850
169.6361, 27.85511
170.1182, 26.84397
170.6003, 28.69910
171.0825, 29.68599
171.5646, 28.73961
172.0467, 27.19454
172.5288, 26.65634
173.0109, 27.64165
173.4930, 29.31977
173.9752, 30.40441
174.4573, 30.89843
174.9394, 31.21082
175.4215, 31.64144
175.9036, 31.97671
176.3857, 31.57513
176.8679, 29.86046
177.3500, 27.95964
177.8321, 27.44882
178.3142, 28.40507
178.7963, 29.51116
179.2784, 30.06276
179.7606, 30.10072
180.2427, 29.87358
180.7248, 29.09991
181.2069, 28.39422
181.6890, 28.43639
182.1711, 29.30641
182.6533, 30.17092
183.1354, 30.22512
183.6175, 29.39744
184.0996, 28.32712
184.5817, 26.37735
185.0638, 24.71087
185.5460, 24.02066
186.0281, 24.45815
186.5102, 25.77649
186.9923, 27.82850
187.4744, 31.06719
187.9565, 33.82165
188.4387, 36.66997
188.9208, 38.59190
189.4029, 38.33300
189.8850, 35.62535
190.3671, 31.87495
190.8492, 29.82331
191.3314, 31.16705
191.8135, 31.51768
192.2956, 29.83352
192.7777, 27.55115
193.2598, 25.81132
193.7419, 25.08211
194.2241, 25.23033
194.7062, 25.93568
195.1883, 27.89512
195.6704, 29.65921
196.1525, 31.71447
196.6346, 33.38737
197.1168, 33.57066
197.5989, 31.71859
198.0810, 28.76984
198.5631, 27.49881
199.0452, 29.51110
199.5273, 30.95690
200.0095, 30.82695
200.4916, 29.79568
200.9737, 28.94538
201.4558, 28.75187
201.9379, 29.03479
202.4200, 29.28937
202.9022, 29.48363
203.3843, 29.70634
203.8664, 30.21148
204.3485, 30.80255
204.8306, 30.92703
205.3127, 30.31748
205.7949, 29.09536
206.2770, 27.50647
206.7591, 25.13307
207.2412, 23.26671
207.7233, 22.84320
208.2054, 23.68427
208.6876, 24.70948
209.1697, 25.50023
209.6518, 26.26551
210.1339, 27.52006
210.6160, 29.66731
211.0981, 31.17551
211.5803, 29.99902
212.0624, 26.12777
212.5445, 23.64805
213.0266, 25.30000
213.5087, 28.27909
213.9908, 30.01172
214.4730, 30.03495
214.9551, 29.29554
215.4372, 28.66714
215.9193, 28.12878
216.4014, 27.81880
216.8836, 28.04598
217.3657, 28.37175
217.8478, 28.37172
218.3299, 27.93220
218.8120, 27.60668
219.2941, 28.45850
219.7763, 31.18048
220.2584, 32.74804
220.7405, 31.86341
221.2226, 30.18818
221.7047, 28.55196
222.1868, 27.22861
222.6690, 26.46510
223.1511, 26.88021
223.6332, 29.41145
224.1153, 30.95765
224.5974, 30.78972
225.0795, 29.98092
225.5617, 29.08278
226.0438, 28.31540
226.5259, 27.84952
227.0080, 28.08723
227.4901, 29.80661
227.9722, 30.78187
228.4544, 30.60994
228.9365, 29.98716
229.4186, 29.39154
229.9007, 28.97722
230.3828, 28.64996
230.8649, 28.22719
231.3471, 27.36344
231.8292, 27.00468
232.3113, 27.50982
232.7934, 28.26243
233.2755, 28.78967
233.7576, 28.95123
234.2398, 28.87499
234.7219, 28.74152
235.2040, 28.25340
235.6861, 28.30929
236.1682, 29.47407
236.6503, 30.86601
237.1325, 31.71769
237.6146, 31.82032
238.0967, 31.39791
238.5788, 30.67295
239.0609, 29.14428
239.5430, 28.61359
240.0252, 29.96107
240.5073, 31.93619
240.9894, 33.39782
241.4715, 34.07799
241.9536, 34.16082
242.4357, 33.75874
242.9179, 32.69995
243.4000, 31.93789
243.8821, 31.61958
244.3642, 31.61631
244.8463, 31.86028
245.3284, 32.35030
245.8106, 32.92001
246.2927, 33.56826
246.7748, 34.34393
247.2569, 34.21471
247.7390, 31.97348
248.2211, 29.19686
248.7033, 27.93844
249.1854, 28.62271
249.6675, 29.86651
250.1496, 30.33763
250.6317, 30.14963
251.1138, 29.96170
251.5960, 29.73002
252.0781, 29.64399
252.5602, 30.09916
253.0423, 31.23251
253.5244, 32.30688
254.0065, 32.48515
254.4887, 32.06054
254.9708, 31.81715
255.4529, 32.11535
255.9350, 32.63641
256.4171, 33.06270
256.8992, 33.46505
257.3813, 33.40317
257.8635, 31.66481
258.3456, 29.29526
258.8277, 28.18905
259.3098, 29.60259
259.7919, 32.14762
260.2740, 34.00566
260.7562, 35.18071
261.2383, 35.64675
261.7204, 34.85078
262.2025, 33.45401
262.6846, 32.16580
263.1667, 31.05182
263.6489, 30.29898
264.1310, 30.24575
264.6131, 31.00572
265.0952, 31.97422
265.5773, 33.44543
266.0594, 34.75867
266.5416, 35.11695
267.0237, 34.11653
267.5058, 32.61098
267.9879, 31.71253
268.4700, 31.51367
268.9521, 31.51065
269.4343, 31.66024
269.9164, 31.87831
270.3985, 32.02731
270.8806, 32.04749
271.3627, 32.25966
271.8448, 33.47945
272.3270, 36.17305
272.8091, 37.45547
273.2912, 34.93369
273.7733, 31.81971
274.2554, 30.01447
274.7375, 29.84073
275.2197, 30.48677
275.7018, 31.27682
276.1839, 32.31143
276.6660, 32.81409
277.1481, 32.09175
277.6302, 31.20608
278.1124, 30.58492
278.5945, 30.29447
279.0766, 30.27772
279.5587, 30.60758
280.0408, 31.35809
280.5229, 31.79158
281.0051, 31.51941
281.4872, 31.21357
281.9693, 30.91102
282.4514, 30.76475
282.9335, 31.17253
283.4156, 32.92295
283.8978, 36.08154
284.3799, 37.46413
284.8620, 35.33059
285.3441, 33.03732
285.8262, 31.36774
286.3083, 30.43280
286.7905, 30.30966
287.2726, 31.24471
287.7547, 33.08414
288.2368, 34.33105
288.7189, 34.75167
289.2010, 34.77505
289.6832, 34.29313
290.1653, 33.55459
290.6474, 32.82340
291.1295, 32.18642
291.6116, 31.78198
292.0938, 32.28267
292.5759, 34.77744
293.0580, 36.60882
293.5401, 36.91286
294.0222, 36.47900
294.5043, 36.15539
294.9865, 36.31869
295.4686, 36.80795
295.9507, 37.23980
296.4328, 37.57212
296.9149, 37.91951
297.3970, 38.29321
297.8792, 38.68629
298.3613, 39.00611
298.8434, 39.24776
299.3255, 39.62698
299.8076, 40.64387
300.2897, 42.97631
300.7719, 44.36741
301.2540, 43.93696
301.7361, 43.25375
302.2182, 43.24444
302.7003, 44.08758
303.1824, 45.45229
303.6646, 47.09367
304.1467, 49.27623
304.6288, 50.72361
305.1109, 50.69563
305.5930, 50.63306
306.0751, 51.30683
306.5573, 52.61422
307.0394, 53.91286
307.5215, 54.56361
308.0036, 54.50008
308.4857, 54.82313
308.9678, 56.18929
309.4500, 57.30877
309.9321, 57.52018
310.4142, 57.20166
310.8963, 57.18830
311.3784, 58.10630
311.8605, 59.79388
312.3427, 60.95042
312.8248, 61.03997
313.3069, 61.19748
313.7890, 61.80177
314.2711, 62.54467
314.7532, 63.07368
315.2354, 63.22179
315.7175, 62.96637
316.1996, 62.17497
316.6817, 60.19856
317.1638, 58.71844
317.6459, 57.95464
318.1281, 57.68160
318.6102, 57.86964
319.0923, 58.46238
319.5744, 59.10632
320.0565, 59.28265
320.5386, 59.13563
321.0208, 58.10620
321.5029, 55.56706
321.9850, 52.74387
322.4671, 50.22023
322.9492, 48.14782
323.4313, 46.54143
323.9135, 45.57312
324.3956, 45.52830
324.8777, 44.64831
325.3598, 42.07190
325.8419, 39.45396
326.3240, 37.11719
326.8062, 35.24207
327.2883, 34.06633
327.7704, 33.88461
328.2525, 34.62970
328.7346, 35.09025
329.2167, 35.30162
329.6989, 35.13747
330.1810, 34.39833
330.6631, 33.31256
331.1452, 32.17508
331.6273, 31.12569
332.1094, 30.18649
332.5916, 29.39929
333.0737, 28.60124
333.5558, 28.28706
334.0379, 29.00067
334.5200, 29.91913
335.0021, 30.16890
335.4843, 29.48525
335.9664, 28.46416
336.4485, 28.15335
336.9306, 28.93796
337.4127, 29.27419
337.8948, 28.29085
338.3770, 27.38472
338.8591, 27.55193
339.3412, 28.77626
339.8233, 30.17833
340.3055, 30.89014
340.7876, 30.85211
341.2697, 30.70053
341.7518, 30.45570
342.2339, 30.05905
342.7160, 29.25466
343.1982, 28.26675
343.6803, 27.61842
344.1624, 27.76602
344.6445, 28.52105
345.1266, 28.88690
345.6087, 28.45392
346.0909, 28.31074
346.5730, 29.08848
347.0551, 30.22203
347.5372, 30.94406
348.0193, 30.88644
348.5014, 30.50247
348.9836, 30.80240
349.4657, 32.21608
349.9478, 32.85423
350.4299, 31.38429
350.9120, 29.46374
351.3941, 28.30999
351.8763, 28.14622
352.3584, 28.28824
352.8405, 28.04510
353.3226, 27.40324
353.8047, 26.80561
354.2868, 26.03082
354.7690, 25.64025
355.2511, 26.23721
355.7332, 27.59501
356.2153, 28.75212
356.6974, 28.84005
357.1795, 28.18573
357.6617, 28.13259
358.1438, 28.96836
358.6259, 29.83844
359.1080, 30.42027
359.5901, 30.69199
360.0722, 30.48424
360.5544, 29.28688
361.0365, 28.10609
361.5186, 28.79238
362.0007, 31.67295
362.4828, 33.78683
362.9649, 33.38074
363.4471, 31.85771
363.9292, 30.72210
364.4113, 30.11267
364.8934, 29.93971
365.3755, 30.38655
365.8576, 31.30972
366.3398, 31.90672
366.8219, 31.93921
367.3040, 31.66195
367.7861, 31.42097
368.2682, 31.19833
368.7503, 30.64541
369.2325, 29.36981
369.7146, 27.74530
370.1967, 26.18160
370.6788, 24.58724
371.1609, 23.87959
371.6430, 25.67245
372.1252, 29.00656
372.6073, 30.61838
373.0894, 28.22665
373.5715, 25.44923
374.0536, 25.54504
374.5357, 28.04497
375.0179, 30.16479
375.5000, 30.54725
375.9821, 29.69009
376.4642, 28.72950
376.9463, 27.38749
377.4284, 26.56962
377.9106, 27.21942
378.3927, 28.48442
378.8748, 28.67054
379.3569, 27.22266
379.8390, 25.47799
380.3211, 25.30697
380.8033, 27.10595
381.2854, 28.15414
381.7675, 27.82561
382.2496, 26.98952
382.7317, 26.14809
383.2138, 25.40363
383.6960, 24.88821
384.1781, 24.69945
384.6602, 24.83356
385.1423, 25.19976
385.6244, 26.31580
386.1065, 27.04834
386.5887, 26.87601
387.0708, 26.09524
387.5529, 25.08911
388.0350, 23.99870
388.5171, 23.05743
388.9992, 22.78519
389.4814, 23.75088
389.9635, 24.56191
390.4456, 25.09598
390.9277, 25.55960
391.4098, 26.29127
391.8919, 27.23583
392.3741, 27.84929
392.8562, 27.46149
393.3383, 25.85237
393.8204, 24.93140
394.3025, 25.32175
394.7846, 25.70167
395.2668, 25.56967
395.7489, 25.10330
396.2310, 24.69037
396.7131, 24.55704
397.1952, 24.63370
397.6773, 24.70605
398.1595, 24.97978
398.6416, 24.87756
399.1237, 23.83967
399.6058, 22.73606
400.0879, 22.37585
400.5700, 22.91579
401.0522, 23.81288
401.5343, 24.30780
402.0164, 24.22237
402.4985, 24.81483
402.9806, 27.13893
403.4627, 29.19499
403.9449, 30.21674
404.4270, 30.27356
404.9091, 29.62734
405.3912, 28.11884
405.8733, 26.18196
406.3554, 25.24209
406.8376, 25.58320
407.3197, 26.21076
407.8018, 27.19992
408.2839, 28.05439
408.7660, 28.09498
409.2481, 27.04143
409.7303, 25.83021
410.2124, 25.49463
410.6945, 25.97141
411.1766, 26.20970
411.6587, 25.75216
412.1408, 25.30640
412.6230, 25.86135
413.1051, 27.21954
413.5872, 27.83385
414.0693, 26.54764
414.5514, 24.30717
415.0335, 22.35855
415.5157, 20.71296
415.9978, 20.05028
416.4799, 21.41114
416.9620, 24.03115
417.4441, 25.46886
417.9262, 24.99088
418.4084, 24.17916
418.8905, 23.57080
419.3726, 23.30641
419.8547, 24.10762
420.3368, 26.53585
420.8189, 29.05076
421.3011, 28.81417
421.7832, 24.96396
422.2653, 22.21088
422.7474, 21.52998
423.2295, 21.82598
423.7116, 22.52722
424.1938, 23.40837
424.6759, 23.85571
425.1580, 23.26965
425.6401, 21.74486
426.1222, 21.04976
426.6043, 21.65552
427.0865, 22.40264
427.5686, 23.23968
428.0507, 23.97473
428.5328, 24.28771
429.0149, 24.06721
429.4970, 23.63063
429.9792, 23.54310
430.4613, 23.99217
430.9434, 24.39535
431.4255, 24.62272
431.9076, 24.92438
432.3897, 25.71638
432.8719, 26.76678
433.3540, 27.29532
433.8361, 26.52697
434.3182, 24.73692
434.8003, 23.96567
435.2824, 24.88250
435.7646, 25.84438
436.2467, 26.59676
436.7288, 27.10631
437.2109, 27.24862
437.6930, 26.98008
438.1751, 26.64098
438.6573, 26.68298
439.1394, 27.13470
439.6215, 27.61871
440.1036, 28.48322
440.5857, 28.88992
441.0678, 28.06174
441.5500, 26.28981
442.0321, 24.68426
442.5142, 23.77391
442.9963, 23.39051
443.4784, 23.23293
443.9605, 23.29605
444.4427, 23.66514
444.9248, 24.77099
445.4069, 26.00587
445.8890, 26.19996
446.3711, 24.83505
446.8532, 23.75058
447.3354, 24.50143
447.8175, 26.20414
448.2996, 26.88702
448.7817, 26.05987
449.2638, 24.49878
449.7459, 22.76305
450.2281, 20.83552
450.7102, 19.84544
451.1923, 20.17504
451.6744, 21.15035
452.1565, 22.92438
452.6386, 25.05989
453.1208, 26.29274
453.6029, 25.88846
454.0850, 24.43782
454.5671, 23.57390
455.0492, 23.55482
455.5313, 23.83043
456.0135, 24.95467
456.4956, 25.99514
456.9777, 25.96004
457.4598, 24.89137
457.9419, 23.82002
458.4240, 23.78918
458.9062, 24.82021
459.3883, 25.38100
459.8704, 25.01985
460.3525, 24.67132
460.8346, 24.38900
461.3167, 24.28769
461.7989, 24.50608
462.2810, 25.09966
462.7631, 25.96652
463.2452, 27.30991
463.7273, 29.47565
464.2094, 29.98493
464.6916, 26.75632
465.1737, 23.43888
465.6558, 22.32768
466.1379, 23.01826
466.6200, 23.70998
467.1021, 23.19051
467.5843, 22.14329
468.0664, 21.96356
468.5485, 22.73157
469.0306, 23.84626
469.5127, 25.60105
469.9948, 27.18802
470.4770, 27.29428
470.9591, 25.54513
471.4412, 23.56790
471.9233, 21.76003
472.4054, 20.37152
472.8875, 20.05252
473.3697, 20.96258
473.8518, 22.25049
474.3339, 23.25201
474.8160, 23.93968
475.2981, 24.33141
475.7802, 24.61664
476.2624, 24.42009
476.7445, 23.05682
477.2266, 21.17104
477.7087, 19.97898
478.1908, 19.95748
478.6729, 20.70235
479.1551, 21.51101
479.6372, 22.44526
480.1193, 23.30222
480.6014, 24.26382
481.0835, 25.00278
481.5656, 25.19310
482.0478, 24.98987
482.5299, 24.84724
483.0120, 25.09631
483.4941, 25.56867
483.9762, 25.58496
484.4583, 24.87444
484.9405, 24.25665
485.4226, 23.97726
485.9047, 23.78519
486.3868, 23.42438
486.8689, 22.88968
487.3510, 22.49616
487.8332, 22.59418
488.3153, 23.08207
488.7974, 23.43715
489.2795, 23.55371
489.7616, 23.75351
490.2437, 24.48662
490.7259, 25.37180
491.2080, 25.77646
491.6901, 25.40367
492.1722, 24.89435
492.6543, 24.68945
493.1364, 24.71457
493.6186, 24.79563
494.1007, 24.91979
494.5828, 24.94370
495.0649, 24.60426
495.5470, 23.84316
496.0291, 23.52207
496.5113, 23.98361
496.9934, 24.59780
497.4755, 25.07184
497.9576, 25.40084
498.4397, 25.68049
498.9218, 25.96855
499.4040, 26.10699
499.8861, 25.66068
500.3682, 23.68777
500.8503, 22.92054
501.3324, 24.47504
501.8145, 26.13534
502.2967, 26.57116
502.7788, 25.86529
503.2609, 24.72170
503.7430, 23.49343
504.2251, 22.35847
504.7072, 22.19809
505.1894, 23.75868
505.6715, 24.56916
506.1536, 23.20508
506.6357, 21.38480
507.1178, 20.40414
507.5999, 20.42589
508.0821, 20.85020
508.5642, 21.27963
509.0463, 21.76805
509.5284, 22.65274
510.0105, 24.14070
510.4926, 25.13685
510.9748, 24.38750
511.4569, 22.81522
511.9390, 22.69757
512.4211, 25.13670
512.9032, 27.22858
513.3853, 27.15903
513.8674, 25.89604
514.3495, 25.12258
514.8317, 25.20904
515.3138, 25.48546
515.7959, 25.25332
516.2780, 24.46218
516.7601, 23.90433
517.2422, 23.40278
517.7244, 23.28653
518.2065, 24.13567
518.6886, 25.28307
519.1707, 25.71613
519.6528, 25.09641
520.1349, 23.99499
520.6171, 23.27816
521.0992, 23.06019
521.5813, 22.75727
522.0634, 21.91591
522.5455, 21.45981
523.0276, 21.98553
523.5098, 23.10323
523.9919, 24.14856
524.4740, 24.92609
524.9561, 25.24429
525.4382, 24.48732
525.9203, 22.62845
526.4025, 21.56647
526.8846, 22.17991
527.3667, 23.15111
527.8488, 22.99795
528.3309, 21.93668
528.8130, 21.40435
529.2952, 22.53587
529.7773, 23.82694
530.2594, 23.48257
530.7415, 21.91734
531.2236, 21.26950
531.7057, 22.66514
532.1879, 24.94063
532.6700, 25.80327
533.1521, 24.30642
533.6342, 23.53024
534.1163, 24.07308
534.5984, 24.88783
535.0806, 25.33942
535.5627, 25.46024
536.0448, 25.65095
536.5269, 26.21277
537.0090, 26.78433
537.4911, 26.09077
537.9733, 23.09890
538.4554, 21.11807
538.9375, 20.82803
539.4196, 21.36325
539.9017, 22.68825
540.3839, 24.48677
540.8660, 25.78126
541.3481, 25.68257
541.8302, 24.80568
542.3123, 24.67265
542.7944, 25.42140
543.2766, 25.64548
543.7587, 24.32724
544.2408, 22.59169
544.7229, 22.24360
545.2050, 23.48202
545.6871, 24.26074
546.1693, 23.40586
546.6514, 22.03776
547.1335, 21.29338
547.6156, 21.23543
548.0977, 21.53397
548.5798, 22.00348
549.0620, 22.66508
549.5441, 23.58498
550.0262, 25.81971
550.5083, 26.84897
550.9904, 25.71598
551.4725, 24.08899
551.9547, 23.02973
552.4368, 22.67381
552.9189, 22.83093
553.4010, 23.47360
553.8831, 24.39327
554.3652, 24.73690
554.8474, 24.39829
555.3295, 23.74697
555.8116, 21.91914
556.2937, 20.48200
556.7758, 21.09682
557.2579, 23.64962
557.7401, 25.75443
558.2222, 25.70606
558.7043, 24.43432
559.1864, 23.41549
559.6685, 22.69562
560.1506, 22.21520
560.6328, 21.90980
561.1149, 21.86556
561.5970, 22.41829
562.0791, 23.86585
562.5612, 24.84089
563.0433, 24.62635
563.5255, 24.18865
564.0076, 24.36884
564.4897, 25.12289
564.9718, 25.98766
565.4539, 26.70716
565.9360, 27.19199
566.4182, 27.10629
566.9003, 26.11548
567.3824, 25.16938
567.8645, 23.87805
568.3466, 23.02274
568.8287, 23.56991
569.3109, 25.09716
569.7930, 26.02937
570.2751, 25.06231
570.7572, 23.23499
571.2393, 22.91944
571.7214, 24.26078
572.2036, 25.35941
572.6857, 25.63949
573.1678, 25.38306
573.6499, 24.78895
574.1320, 23.86979
574.6141, 23.19153
575.0963, 22.64384
575.5784, 22.61286
576.0605, 24.02502
576.5426, 26.32975
577.0247, 27.59811
577.5068, 26.87200
577.9890, 25.17147
578.4711, 24.44010
578.9532, 25.29456
579.4353, 25.55372
579.9174, 24.98347
580.3995, 24.13470
580.8817, 22.83518
581.3638, 21.53086
581.8459, 21.04585
582.3280, 21.81058
582.8101, 23.21600
583.2922, 24.52078
583.7744, 25.77546
584.2565, 26.06395
584.7386, 24.86662
585.2207, 23.22558
585.7029, 21.41060
586.1850, 19.73035
586.6671, 19.07754
587.1492, 20.10259
587.6313, 21.61930
588.1135, 22.92315
588.5956, 24.04725
589.0777, 25.18680
589.5598, 26.40351
590.0419, 27.17444
590.5240, 26.79981
591.0062, 25.20193
591.4883, 24.31110
591.9704, 24.46663
592.4525, 24.82330
592.9346, 25.43220
593.4167, 26.00114
593.8989, 26.19514
594.3810, 25.95477
594.8631, 25.49532
595.3452, 24.83352
595.8273, 24.05692
596.3094, 24.37956
596.7916, 26.58459
597.2737, 28.10419
597.7558, 27.09586
598.2379, 25.19397
