##NAMES=Magnesiotaaffeite-6N3S
##RRUFFID=X070005
##IDEAL CHEMISTRY=Mg_2_BeAl_6_O_12_
##LOCALITY=Tunduru, Tanzania
##OWNER=www.multicolour.com
##SOURCE=www.multicolour.com
##DESCRIPTION=Pale lavendar cut gemstone, 0.65 cts, formerly known as musgravite-18R
##STATUS=The identification of this mineral has been confirmed by single-crystal X-ray diffraction.
##URL=rruff.info/X070005
169.7432, 12461.67
170.2254, 12474.86
170.7075, 12466.33
171.1896, 12436.08
171.6717, 12389.12
172.1538, 12327.56
172.6359, 12248.63
173.1181, 12159.32
173.6002, 12120.23
174.0823, 12175.26
174.5644, 12224.47
175.0465, 12233.54
175.5286, 12216.03
176.0108, 12204.31
176.4929, 12220.34
176.9750, 12259.27
177.4571, 12270.77
177.9392, 12234.86
178.4213, 12198.62
178.9035, 12181.31
179.3856, 12175.79
179.8677, 12161.43
180.3498, 12121.47
180.8319, 12060.08
181.3140, 12036.14
181.7962, 12087.80
182.2783, 12128.06
182.7604, 12118.79
183.2425, 12072.36
183.7246, 12021.15
184.2067, 11983.36
184.6889, 11959.76
185.1710, 11962.67
185.6531, 12015.98
186.1352, 12065.23
186.6173, 12085.43
187.0994, 12084.07
187.5816, 12085.59
188.0637, 12108.85
188.5458, 12150.97
189.0279, 12161.55
189.5100, 12112.77
189.9921, 12067.88
190.4743, 12059.42
190.9564, 12076.50
191.4385, 12084.56
191.9206, 12057.72
192.4027, 11999.49
192.8848, 11970.28
193.3670, 11988.31
193.8491, 12009.84
194.3312, 12029.56
194.8133, 12040.34
195.2954, 12021.30
195.7775, 11951.32
196.2597, 11837.28
196.7418, 11780.01
197.2239, 11812.20
197.7060, 11854.14
198.1881, 11878.26
198.6702, 11887.67
199.1524, 11895.03
199.6345, 11908.73
200.1166, 11927.72
200.5987, 11938.29
201.0808, 11929.54
201.5629, 11925.66
202.0451, 11940.84
202.5272, 11968.21
203.0093, 11992.09
203.4914, 12004.02
203.9735, 12003.88
204.4556, 11987.56
204.9378, 11927.84
205.4199, 11884.23
205.9020, 11885.90
206.3841, 11918.34
206.8662, 11950.56
207.3483, 11965.11
207.8305, 11963.73
208.3126, 11957.92
208.7947, 11943.65
209.2768, 11930.52
209.7589, 11921.25
210.2410, 11915.08
210.7232, 11908.54
211.2053, 11898.65
211.6874, 11888.66
212.1695, 11896.86
212.6516, 11960.17
213.1337, 11998.61
213.6159, 11971.97
214.0980, 11912.19
214.5801, 11875.90
215.0622, 11895.34
215.5443, 11951.59
216.0264, 11964.41
216.5086, 11874.98
216.9907, 11811.12
217.4728, 11810.88
217.9549, 11843.18
218.4370, 11861.59
218.9191, 11843.00
219.4013, 11801.68
219.8834, 11784.66
220.3655, 11814.07
220.8476, 11843.25
221.3297, 11877.00
221.8118, 11905.83
222.2940, 11916.48
222.7761, 11903.16
223.2582, 11874.31
223.7403, 11851.13
224.2224, 11828.58
224.7046, 11819.79
225.1867, 11831.17
225.6688, 11853.54
226.1509, 11884.50
226.6330, 11922.21
227.1151, 11954.08
227.5973, 11951.50
228.0794, 11869.40
228.5615, 11820.68
229.0436, 11836.93
229.5257, 11868.98
230.0078, 11867.40
230.4900, 11819.96
230.9721, 11760.36
231.4542, 11748.01
231.9363, 11819.62
232.4184, 11871.97
232.9005, 11903.88
233.3827, 11919.45
233.8648, 11909.24
234.3469, 11876.72
234.8290, 11850.18
235.3111, 11874.46
235.7932, 11979.55
236.2754, 12061.67
236.7575, 12092.55
237.2396, 12125.43
237.7217, 12196.18
238.2038, 12306.02
238.6859, 12427.69
239.1681, 12536.54
239.6502, 12637.68
240.1323, 12703.82
240.6144, 12753.47
241.0965, 12752.31
241.5786, 12656.48
242.0608, 12482.49
242.5429, 12299.19
243.0250, 12168.02
243.5071, 12091.54
243.9892, 12034.83
244.4713, 12012.66
244.9535, 11997.93
245.4356, 11986.36
245.9177, 11974.69
246.3998, 11956.75
246.8819, 11922.98
247.3640, 11875.93
247.8462, 11848.39
248.3283, 11865.74
248.8104, 11870.67
249.2925, 11826.34
249.7746, 11754.27
250.2567, 11698.16
250.7389, 11688.02
251.2210, 11712.59
251.7031, 11729.66
252.1852, 11731.62
252.6673, 11740.97
253.1494, 11788.04
253.6316, 11844.49
254.1137, 11863.49
254.5958, 11809.69
255.0779, 11720.91
255.5600, 11669.15
256.0421, 11661.29
256.5243, 11667.26
257.0064, 11675.23
257.4885, 11688.38
257.9706, 11713.25
258.4527, 11757.06
258.9348, 11804.12
259.4170, 11837.27
259.8991, 11856.10
260.3812, 11863.57
260.8633, 11845.88
261.3454, 11825.21
261.8275, 11833.08
262.3097, 11882.88
262.7918, 11936.78
263.2739, 11958.59
263.7560, 11953.79
264.2381, 11968.81
264.7202, 12038.11
265.2024, 12115.12
265.6845, 12128.59
266.1666, 12066.65
266.6487, 11994.67
267.1308, 11940.77
267.6129, 11901.06
268.0951, 11865.67
268.5772, 11831.89
269.0593, 11802.33
269.5414, 11781.14
270.0235, 11767.66
270.5056, 11761.19
270.9878, 11778.14
271.4699, 11796.12
271.9520, 11775.67
272.4341, 11706.50
272.9162, 11633.42
273.3983, 11607.42
273.8805, 11636.94
274.3626, 11670.01
274.8447, 11719.58
275.3268, 11761.70
275.8089, 11770.18
276.2910, 11745.87
276.7732, 11716.87
277.2553, 11708.19
277.7374, 11722.29
278.2195, 11724.22
278.7016, 11710.17
279.1837, 11688.87
279.6659, 11658.94
280.1480, 11624.18
280.6301, 11593.14
281.1122, 11570.66
281.5943, 11556.98
282.0764, 11556.33
282.5586, 11582.18
283.0407, 11605.12
283.5228, 11616.95
284.0049, 11621.99
284.4870, 11628.19
284.9691, 11639.72
285.4513, 11653.47
285.9334, 11659.76
286.4155, 11665.44
286.8976, 11652.08
287.3797, 11602.92
287.8618, 11543.19
288.3440, 11493.35
288.8261, 11460.55
289.3082, 11445.27
289.7903, 11451.40
290.2724, 11489.57
290.7545, 11521.66
291.2367, 11546.66
291.7188, 11563.89
292.2009, 11572.24
292.6830, 11571.79
293.1651, 11564.15
293.6472, 11542.66
294.1294, 11504.08
294.6115, 11496.26
295.0936, 11560.89
295.5757, 11617.12
296.0578, 11614.72
296.5399, 11565.73
297.0221, 11518.97
297.5042, 11503.61
297.9863, 11516.12
298.4684, 11542.06
298.9505, 11582.59
299.4326, 11635.56
299.9148, 11724.99
300.3969, 11824.04
300.8790, 11877.42
301.3611, 11841.74
301.8432, 11767.65
302.3253, 11723.63
302.8075, 11711.52
303.2896, 11708.24
303.7717, 11702.92
304.2538, 11698.83
304.7359, 11703.06
305.2180, 11723.82
305.7002, 11741.28
306.1823, 11731.32
306.6644, 11703.88
307.1465, 11699.95
307.6286, 11741.53
308.1107, 11805.81
308.5929, 11844.84
309.0750, 11851.78
309.5571, 11859.09
310.0392, 11873.37
310.5213, 11893.73
311.0034, 11916.31
311.4856, 11939.96
311.9677, 11974.18
312.4498, 12034.07
312.9319, 12134.03
313.4140, 12216.34
313.8961, 12303.57
314.3783, 12357.45
314.8604, 12335.83
315.3425, 12247.01
315.8246, 12143.33
316.3067, 12071.85
316.7888, 12035.46
317.2710, 11972.95
317.7531, 11846.80
318.2352, 11736.01
318.7173, 11670.35
319.1994, 11637.30
319.6815, 11613.26
320.1637, 11585.39
320.6458, 11554.98
321.1279, 11527.11
321.6100, 11499.60
322.0921, 11478.49
322.5742, 11464.86
323.0564, 11456.83
323.5385, 11453.80
324.0206, 11455.53
324.5027, 11458.26
324.9848, 11455.13
325.4669, 11443.86
325.9491, 11438.11
326.4312, 11439.21
326.9133, 11447.60
327.3954, 11476.15
327.8775, 11521.30
328.3596, 11543.64
328.8418, 11491.31
329.3239, 11385.86
329.8060, 11325.75
330.2881, 11330.01
330.7702, 11360.07
331.2523, 11402.95
331.7345, 11450.48
332.2166, 11474.67
332.6987, 11445.94
333.1808, 11401.07
333.6629, 11385.55
334.1451, 11400.10
334.6272, 11418.14
335.1093, 11422.31
335.5914, 11418.60
336.0735, 11429.15
336.5556, 11477.83
337.0378, 11513.10
337.5199, 11505.69
338.0020, 11468.71
338.4841, 11426.58
338.9662, 11387.10
339.4483, 11353.96
339.9305, 11335.28
340.4126, 11341.47
340.8947, 11344.43
341.3768, 11348.17
341.8589, 11345.27
342.3410, 11322.53
342.8232, 11281.19
343.3053, 11242.40
343.7874, 11230.75
344.2695, 11252.64
344.7516, 11264.83
345.2337, 11263.07
345.7159, 11256.30
346.1980, 11246.54
346.6801, 11234.24
347.1622, 11220.30
347.6443, 11206.44
348.1265, 11184.29
348.6086, 11196.15
349.0907, 11202.22
349.5728, 11202.82
350.0549, 11181.53
350.5370, 11188.50
351.0192, 11184.15
351.5013, 11179.33
351.9834, 11190.28
352.4655, 11172.18
352.9476, 11182.88
353.4297, 11182.08
353.9119, 11186.54
354.3940, 11179.61
354.8761, 11176.19
355.3582, 11132.04
355.8403, 11104.60
356.3224, 11115.17
356.8046, 11143.83
357.2867, 11154.15
357.7688, 11140.61
358.2509, 11117.36
358.7330, 11085.97
359.2151, 11050.91
359.6973, 11050.77
360.1794, 11131.60
360.6615, 11207.73
361.1436, 11216.34
361.6257, 11175.69
362.1078, 11144.92
362.5900, 11155.93
363.0721, 11194.65
363.5542, 11215.56
364.0363, 11199.26
364.5184, 11189.81
365.0005, 11194.94
365.4827, 11205.58
365.9648, 11213.00
366.4469, 11215.13
366.9290, 11215.29
367.4111, 11219.25
367.8932, 11231.12
368.3754, 11230.11
368.8575, 11195.86
369.3396, 11167.45
369.8217, 11162.70
370.3038, 11177.20
370.7859, 11197.15
371.2681, 11215.71
371.7502, 11231.94
372.2323, 11238.33
372.7144, 11222.67
373.1965, 11227.65
373.6786, 11298.75
374.1608, 11388.37
374.6429, 11444.45
375.1250, 11452.82
375.6071, 11435.25
376.0892, 11402.27
376.5714, 11356.83
377.0535, 11315.34
377.5356, 11282.88
378.0177, 11254.85
378.4998, 11225.88
378.9819, 11195.97
379.4641, 11166.03
379.9462, 11136.11
380.4283, 11106.39
380.9104, 11072.59
381.3925, 11036.24
381.8746, 11010.26
382.3568, 11005.81
382.8389, 11021.99
383.3210, 11036.84
383.8031, 11065.89
384.2852, 11076.71
384.7673, 11043.11
385.2495, 10990.86
385.7316, 10957.10
386.2137, 10957.09
386.6958, 10977.81
387.1779, 10996.06
387.6600, 10985.87
388.1422, 11027.84
388.6243, 11059.29
389.1064, 11080.78
389.5885, 11062.48
390.0706, 11095.55
390.5527, 11108.04
391.0349, 11119.69
391.5170, 11159.99
391.9991, 11147.48
392.4812, 11187.33
392.9633, 11206.28
393.4454, 11234.80
393.9276, 11242.60
394.4097, 11256.80
394.8918, 11291.72
395.3739, 11322.48
395.8560, 11412.35
396.3381, 11388.28
396.8203, 11399.41
397.3024, 11524.50
397.7845, 11586.49
398.2666, 11549.30
398.7487, 11568.81
399.2308, 11663.10
399.7130, 11763.62
400.1951, 11877.37
400.6772, 12008.83
401.1593, 12159.18
401.6414, 12333.57
402.1235, 12544.35
402.6057, 12790.41
403.0878, 12972.60
403.5699, 13072.50
404.0520, 13128.07
404.5341, 13115.53
405.0162, 13073.45
405.4984, 13044.28
405.9805, 13044.84
406.4626, 13074.74
406.9447, 13128.00
407.4268, 13198.07
407.9089, 13323.25
408.3911, 13488.99
408.8732, 13735.71
409.3553, 14104.82
409.8374, 14586.11
410.3195, 15106.70
410.8016, 15673.26
411.2838, 16238.32
411.7659, 16753.95
412.2480, 17236.93
412.7301, 17516.27
413.2122, 17477.16
413.6943, 17137.10
414.1765, 16644.67
414.6586, 15892.93
415.1407, 15135.13
415.6228, 14460.18
416.1049, 13860.47
416.5870, 13316.39
417.0692, 12823.81
417.5513, 12397.72
418.0334, 12059.49
418.5155, 11828.50
418.9976, 11635.28
419.4797, 11488.21
419.9619, 11364.12
420.4440, 11250.49
420.9261, 11150.00
421.4082, 11074.41
421.8903, 11034.54
422.3724, 11019.00
422.8546, 10987.23
423.3367, 10925.74
423.8188, 10880.05
424.3009, 10877.74
424.7830, 10886.12
425.2651, 10880.75
425.7473, 10857.60
426.2294, 10822.67
426.7115, 10760.53
427.1936, 10689.16
427.6757, 10678.15
428.1578, 10752.35
428.6400, 10825.97
429.1221, 10816.16
429.6042, 10738.04
430.0863, 10699.16
430.5684, 10747.94
431.0505, 10797.73
431.5327, 10783.78
432.0148, 10734.03
432.4969, 10719.12
432.9790, 10770.34
433.4611, 10852.89
433.9432, 10896.45
434.4254, 10866.49
434.9075, 10862.61
435.3896, 10902.43
435.8717, 10950.42
436.3538, 10981.96
436.8359, 11000.08
437.3181, 11025.46
437.8002, 11078.93
438.2823, 11149.94
438.7644, 11185.97
439.2465, 11159.15
439.7286, 11161.30
440.2108, 11248.96
440.6929, 11372.39
441.1750, 11476.94
441.6571, 11544.49
442.1392, 11635.61
442.6213, 11796.83
443.1035, 12014.54
443.5856, 12267.77
444.0677, 12563.23
444.5498, 12841.42
445.0319, 13050.83
445.5140, 13185.59
445.9962, 13263.95
446.4783, 13308.47
446.9604, 13275.84
447.4425, 13124.49
447.9246, 12884.33
448.4067, 12593.58
448.8889, 12269.58
449.3710, 11946.22
449.8531, 11703.46
450.3352, 11576.08
450.8173, 11448.52
451.2994, 11284.17
451.7816, 11146.58
452.2637, 11077.22
452.7458, 11068.75
453.2279, 11083.87
453.7100, 11109.13
454.1921, 11136.05
454.6743, 11143.69
455.1564, 11130.75
455.6385, 11104.85
456.1206, 11064.36
456.6027, 11014.88
457.0848, 10966.53
457.5670, 10920.81
458.0491, 10872.35
458.5312, 10817.76
459.0133, 10759.79
459.4954, 10699.71
459.9775, 10638.11
460.4597, 10585.03
460.9418, 10551.55
461.4239, 10538.09
461.9060, 10509.44
462.3881, 10439.69
462.8702, 10385.32
463.3524, 10371.19
463.8345, 10375.23
464.3166, 10365.43
464.7987, 10331.33
465.2808, 10297.97
465.7629, 10309.23
466.2451, 10370.59
466.7272, 10398.77
467.2093, 10369.40
467.6914, 10327.49
468.1735, 10298.84
468.6556, 10280.87
469.1378, 10266.24
469.6199, 10237.51
470.1020, 10224.35
470.5841, 10275.48
471.0662, 10373.68
471.5483, 10437.54
472.0305, 10431.34
472.5126, 10392.60
472.9947, 10384.07
473.4768, 10418.14
473.9589, 10456.79
474.4410, 10523.59
474.9232, 10575.36
475.4053, 10570.25
475.8874, 10523.70
476.3695, 10481.24
476.8516, 10469.26
477.3337, 10489.07
477.8159, 10554.71
478.2980, 10696.72
478.7801, 10807.91
479.2622, 10813.39
479.7443, 10813.53
480.2264, 10889.40
480.7086, 11045.85
481.1907, 11210.28
481.6728, 11344.06
482.1549, 11454.91
482.6370, 11562.56
483.1191, 11669.54
483.6013, 11738.51
484.0834, 11740.64
484.5655, 11689.27
485.0476, 11639.17
485.5297, 11579.74
486.0118, 11535.10
486.4940, 11506.37
486.9761, 11496.52
487.4582, 11504.31
487.9403, 11531.87
488.4224, 11590.89
488.9045, 11697.52
489.3867, 11850.13
489.8688, 11993.80
490.3509, 12089.68
490.8330, 12239.71
491.3151, 12499.38
491.7972, 12812.63
492.2794, 13136.50
492.7615, 13472.26
493.2436, 13732.47
493.7257, 13857.82
494.2078, 13849.08
494.6899, 13688.80
495.1721, 13361.45
495.6542, 12965.41
496.1363, 12564.35
496.6184, 12161.35
497.1005, 11776.62
497.5826, 11366.20
498.0648, 11023.42
498.5469, 10794.51
499.0290, 10647.19
499.5111, 10548.53
499.9932, 10484.47
500.4753, 10432.28
500.9575, 10358.66
501.4396, 10257.23
501.9217, 10181.52
502.4038, 10144.60
502.8859, 10117.55
503.3680, 10090.84
503.8502, 10063.98
504.3323, 10035.26
504.8144, 10002.01
505.2965, 9971.779
505.7786, 9953.008
506.2607, 9943.118
506.7429, 9930.661
507.2250, 9910.804
507.7071, 9899.816
508.1892, 9922.012
508.6713, 9985.067
509.1534, 10005.37
509.6356, 9950.764
510.1177, 9890.779
510.5998, 9845.948
511.0819, 9816.178
511.5641, 9800.631
512.0461, 9798.740
512.5283, 9804.934
513.0104, 9813.484
513.4925, 9825.577
513.9746, 9828.355
514.4567, 9812.299
514.9388, 9798.412
515.4210, 9806.824
515.9031, 9825.973
516.3852, 9827.921
516.8673, 9792.487
517.3494, 9753.834
517.8315, 9737.528
518.3137, 9739.517
518.7958, 9753.624
519.2779, 9779.662
519.7600, 9800.180
520.2421, 9789.552
520.7242, 9736.456
521.2064, 9719.167
521.6885, 9759.185
522.1706, 9806.029
522.6527, 9856.476
523.1348, 9897.813
523.6169, 9906.835
524.0991, 9874.184
524.5812, 9833.040
525.0633, 9828.803
525.5454, 9860.839
526.0275, 9897.779
526.5096, 9942.369
526.9918, 9980.372
527.4739, 9996.354
527.9560, 9996.369
528.4381, 9996.800
528.9202, 10020.26
529.4023, 10023.07
529.8845, 9965.448
530.3666, 9875.630
530.8487, 9797.200
531.3308, 9743.145
531.8129, 9715.305
532.2950, 9721.324
532.7772, 9767.532
533.2593, 9786.758
533.7414, 9762.928
534.2235, 9729.063
534.7056, 9684.891
535.1877, 9639.516
535.6699, 9601.222
536.1520, 9571.516
536.6341, 9557.614
537.1162, 9572.665
537.5983, 9609.376
538.0804, 9648.171
538.5626, 9689.017
539.0447, 9713.502
539.5268, 9701.930
540.0089, 9659.982
540.4910, 9634.122
540.9731, 9641.218
541.4553, 9641.573
541.9374, 9616.789
542.4195, 9586.047
542.9016, 9574.716
543.3837, 9584.123
543.8658, 9589.552
544.3480, 9563.989
544.8301, 9512.324
545.3122, 9476.249
545.7943, 9459.093
546.2764, 9449.635
546.7585, 9453.644
547.2407, 9457.751
547.7228, 9439.548
548.2049, 9389.843
548.6870, 9362.338
549.1691, 9403.729
549.6512, 9468.095
550.1334, 9502.754
550.6155, 9503.808
551.0976, 9479.946
551.5797, 9431.608
552.0618, 9372.308
552.5439, 9351.238
553.0261, 9401.847
553.5082, 9433.499
553.9903, 9439.122
554.4724, 9427.921
554.9545, 9392.332
555.4366, 9342.500
555.9188, 9312.260
556.4009, 9334.105
556.8830, 9375.793
557.3651, 9386.497
557.8472, 9367.716
558.3293, 9337.167
558.8115, 9295.409
559.2936, 9255.597
559.7757, 9235.366
560.2578, 9237.388
560.7399, 9251.578
561.2220, 9296.985
561.7042, 9335.240
562.1863, 9338.369
562.6684, 9322.377
563.1505, 9314.961
563.6326, 9327.663
564.1147, 9357.127
564.5969, 9409.930
565.0790, 9487.538
565.5611, 9524.214
566.0432, 9492.109
566.5253, 9458.390
567.0074, 9473.182
567.4896, 9519.784
567.9717, 9562.483
568.4538, 9597.705
568.9359, 9627.035
569.4180, 9635.458
569.9001, 9645.184
570.3823, 9698.816
570.8644, 9798.162
571.3465, 9893.048
571.8286, 9933.415
572.3107, 9926.618
572.7928, 9949.845
573.2750, 10021.00
573.7571, 10091.35
574.2392, 10156.24
574.7213, 10211.65
575.2034, 10251.05
575.6855, 10274.51
576.1677, 10295.74
576.6498, 10324.37
577.1319, 10353.68
577.6140, 10381.81
578.0961, 10405.18
578.5782, 10403.13
579.0604, 10365.08
579.5425, 10298.49
580.0246, 10216.98
580.5067, 10110.30
580.9888, 10010.47
581.4709, 9915.018
581.9531, 9827.214
582.4352, 9754.764
582.9173, 9690.230
583.3994, 9617.396
583.8815, 9525.512
584.3636, 9437.947
584.8458, 9387.677
585.3279, 9368.384
585.8100, 9350.186
586.2921, 9329.614
586.7742, 9301.000
587.2563, 9253.714
587.7385, 9190.938
588.2206, 9154.094
588.7027, 9152.679
589.1848, 9162.225
589.6669, 9190.269
590.1490, 9218.990
590.6312, 9230.309
591.1133, 9222.505
591.5954, 9207.086
592.0775, 9192.418
592.5597, 9177.993
593.0418, 9162.170
593.5239, 9144.965
594.0060, 9126.867
594.4882, 9110.614
594.9703, 9091.111
595.4524, 9052.648
595.9345, 8988.827
596.4166, 8958.564
596.8987, 9008.898
597.3809, 9059.241
597.8630, 9044.911
598.3451, 8994.174
598.8272, 8970.626
599.3093, 9000.726
599.7914, 9053.374
600.2736, 9084.765
600.7557, 9094.173
601.2378, 9095.267
601.7199, 9082.445
602.2020, 9072.688
602.6841, 9078.296
603.1663, 9093.014
603.6484, 9106.835
604.1305, 9123.027
604.6126, 9128.825
605.0947, 9115.104
605.5768, 9090.741
606.0590, 9058.652
606.5411, 9023.778
607.0232, 9002.539
607.5053, 9008.871
607.9874, 9030.927
608.4695, 9028.818
608.9517, 8991.703
609.4338, 8965.880
609.9159, 8954.843
610.3980, 8961.984
610.8801, 9006.064
611.3622, 9074.109
611.8444, 9108.880
612.3265, 9048.179
612.8086, 8995.192
613.2907, 9033.408
613.7728, 9123.698
614.2549, 9195.766
614.7371, 9231.783
615.2192, 9250.315
615.7013, 9270.456
616.1834, 9291.827
616.6655, 9297.434
617.1476, 9258.394
617.6298, 9256.766
618.1119, 9360.197
618.5940, 9481.245
619.0761, 9532.549
619.5582, 9508.209
620.0403, 9494.908
620.5225, 9548.986
621.0046, 9618.724
621.4867, 9657.195
621.9688, 9665.272
622.4509, 9652.559
622.9330, 9622.683
623.4152, 9577.387
623.8973, 9517.510
624.3794, 9440.564
624.8615, 9361.492
625.3436, 9264.380
625.8257, 9186.818
626.3079, 9150.899
626.7900, 9136.602
627.2721, 9121.979
627.7542, 9106.349
628.2363, 9069.001
628.7184, 8967.105
629.2006, 8852.998
629.6827, 8802.471
630.1648, 8813.069
630.6469, 8839.719
631.1290, 8859.323
631.6111, 8870.029
632.0933, 8866.200
632.5754, 8843.295
633.0575, 8818.273
633.5396, 8779.805
634.0217, 8752.294
634.5038, 8756.186
634.9860, 8777.643
635.4681, 8788.414
635.9502, 8780.437
636.4323, 8762.396
636.9144, 8732.684
637.3965, 8699.664
637.8787, 8676.453
638.3608, 8664.468
638.8429, 8659.228
639.3250, 8658.420
639.8071, 8660.162
640.2892, 8654.478
640.7714, 8628.146
641.2535, 8627.829
641.7356, 8702.591
642.2177, 8764.377
642.6998, 8743.736
643.1819, 8665.364
643.6641, 8614.011
644.1462, 8628.231
644.6283, 8658.466
645.1104, 8670.815
645.5925, 8675.835
646.0746, 8698.652
646.5568, 8740.418
647.0389, 8768.519
647.5210, 8751.549
648.0031, 8700.165
648.4852, 8673.814
648.9673, 8678.658
649.4495, 8692.561
649.9316, 8715.846
650.4137, 8742.911
650.8958, 8773.306
651.3779, 8804.997
651.8600, 8826.851
652.3422, 8821.758
652.8243, 8819.914
653.3064, 8848.385
653.7885, 8890.628
654.2706, 8913.287
654.7527, 8911.621
655.2349, 8914.616
655.7170, 8951.223
656.1991, 9016.124
656.6812, 9077.260
657.1633, 9134.331
657.6454, 9188.776
658.1276, 9245.766
658.6097, 9295.746
659.0918, 9325.568
659.5739, 9336.659
660.0560, 9355.582
660.5381, 9392.650
661.0203, 9433.730
661.5024, 9475.024
661.9845, 9513.733
662.4666, 9550.105
662.9487, 9582.060
663.4308, 9597.122
663.9130, 9578.418
664.3951, 9533.266
664.8772, 9499.430
665.3593, 9479.900
665.8414, 9456.769
666.3235, 9428.659
666.8057, 9389.811
