##NAMES=Magnetite
##RRUFFID=R140861
##IDEAL CHEMISTRY=Fe^2+^Fe^3+^_2_O_4_
##LOCALITY=Bon Accord, Barberton District, Mpumalanga Province, South Africa
##OWNER=RRUFF
##SOURCE=Rock Currier
##DESCRIPTION=Dark green isolated granular or octahedral crystals, associated with yellowish-green irregular veins of nimite, minute light-green opaque grains of willemseite, reevesite as yellowish-green massive earthy vug material and limonite.
##STATUS=The identification of this mineral is confirmed by single-crystal X-ray diffraction and chemical analysis.
##URL=rruff.info/R140861
##MEASURED CHEMISTRY=(Fe^2+^_0.82_Ni_0.18_)_Î£=1.00_Fe^3+^_2.00_O_4_
150.3781, 361.8963
150.8602, 359.9997
151.3424, 359.0319
151.8245, 357.5572
152.3066, 354.9762
152.7887, 352.1928
153.2708, 349.8907
153.7529, 348.3392
154.2351, 347.3231
154.7172, 346.3246
155.1993, 345.5374
155.6814, 344.5204
156.1635, 343.1770
156.6456, 341.6189
157.1278, 340.0487
157.6099, 338.5845
158.0920, 337.0890
158.5741, 334.9272
159.0562, 330.8829
159.5383, 327.6075
160.0205, 326.2778
160.5026, 326.2520
160.9847, 326.0132
161.4668, 324.6303
161.9489, 322.4036
162.4310, 320.7929
162.9131, 320.3705
163.3953, 319.9706
163.8774, 318.9076
164.3595, 317.2286
164.8416, 315.3980
165.3237, 313.6191
165.8058, 311.9044
166.2880, 310.2479
166.7701, 308.4602
167.2522, 306.8717
167.7343, 306.0508
168.2164, 306.1964
168.6985, 306.1696
169.1807, 305.0645
169.6628, 303.4478
170.1449, 301.9795
170.6270, 300.9910
171.1091, 300.2570
171.5912, 299.2316
172.0734, 297.7295
172.5555, 296.2700
173.0376, 295.1898
173.5197, 294.2447
174.0018, 293.0561
174.4839, 291.3463
174.9661, 289.2240
175.4482, 287.3545
175.9303, 285.6712
176.4124, 284.3811
176.8945, 283.7578
177.3766, 283.5441
177.8588, 283.2881
178.3409, 282.6129
178.8230, 281.5106
179.3051, 280.9147
179.7872, 281.4992
180.2693, 281.9241
180.7515, 281.8239
181.2336, 281.2223
181.7157, 280.2574
182.1978, 278.9859
182.6799, 277.3312
183.1620, 276.1725
183.6441, 275.9040
184.1263, 275.6609
184.6084, 274.9510
185.0905, 273.8153
185.5726, 272.6534
186.0547, 271.8181
186.5368, 271.3579
187.0190, 271.0825
187.5011, 271.1989
187.9832, 271.3498
188.4653, 271.4028
188.9474, 271.3226
189.4296, 270.8455
189.9117, 269.4837
190.3938, 267.2785
190.8759, 265.5621
191.3580, 264.9826
191.8401, 264.7365
192.3223, 263.8484
192.8044, 262.1222
193.2865, 260.1976
193.7686, 258.6176
194.2507, 257.3116
194.7328, 256.1779
195.2150, 255.3428
195.6971, 254.6302
196.1792, 253.6613
196.6613, 252.3198
197.1434, 250.9036
197.6255, 249.6211
198.1077, 248.4329
198.5898, 247.2753
199.0719, 246.0818
199.5540, 244.8767
200.0361, 243.8059
200.5182, 243.0268
201.0004, 242.1539
201.4825, 240.8069
201.9646, 239.1955
202.4467, 237.8573
202.9288, 237.3111
203.4109, 237.4945
203.8930, 237.3547
204.3752, 236.7709
204.8573, 235.9436
205.3394, 234.8617
205.8215, 233.6018
206.3036, 232.2985
206.7857, 231.0396
207.2679, 229.8193
207.7500, 228.7603
208.2321, 227.8291
208.7142, 227.1031
209.1963, 226.7851
209.6784, 226.7331
210.1606, 226.5901
210.6427, 225.9905
211.1248, 224.8446
211.6069, 224.0788
212.0890, 224.1124
212.5711, 224.0995
213.0533, 223.6284
213.5354, 222.7794
214.0175, 221.9095
214.4996, 221.3540
214.9817, 221.1709
215.4638, 220.9031
215.9460, 220.6154
216.4281, 220.2109
216.9102, 219.5054
217.3923, 218.5840
217.8744, 217.7935
218.3565, 217.5065
218.8387, 217.8172
219.3208, 217.7114
219.8029, 216.8949
220.2850, 215.9549
220.7671, 215.2393
221.2492, 214.7581
221.7314, 214.3088
222.2135, 213.6672
222.6956, 212.8321
223.1777, 212.3916
223.6598, 212.8083
224.1419, 213.2770
224.6240, 213.0820
225.1062, 212.2166
225.5883, 211.3665
226.0704, 211.1702
226.5525, 211.5313
227.0346, 211.5745
227.5167, 210.8914
227.9989, 210.0915
228.4810, 209.7366
228.9631, 209.8595
229.4452, 210.2033
229.9273, 210.8156
230.4094, 211.5024
230.8916, 211.7245
231.3737, 211.0312
231.8558, 210.0310
232.3379, 209.4519
232.8200, 209.3571
233.3021, 209.2389
233.7843, 208.6524
234.2664, 207.8521
234.7485, 207.2304
235.2306, 206.9597
235.7127, 206.8465
236.1948, 206.6047
236.6770, 206.1857
237.1591, 205.8359
237.6412, 205.6550
238.1233, 205.6223
238.6054, 205.7750
239.0875, 206.2142
239.5697, 206.7138
240.0518, 206.9316
240.5339, 206.8547
241.0160, 206.5255
241.4981, 205.5953
241.9802, 204.5835
242.4624, 204.0503
242.9445, 204.2556
243.4266, 204.7997
243.9087, 205.0283
244.3908, 204.9027
244.8729, 204.5445
245.3550, 203.7480
245.8372, 202.8753
246.3193, 202.2725
246.8014, 202.0665
247.2835, 202.0289
247.7656, 201.7284
248.2477, 200.9874
248.7299, 200.4136
249.2120, 200.2803
249.6941, 200.2373
250.1762, 199.9956
250.6583, 199.4705
251.1404, 198.8296
251.6226, 198.3844
252.1047, 198.3385
252.5868, 198.0196
253.0689, 197.2105
253.5510, 196.2600
254.0331, 195.3248
254.5153, 194.4782
254.9974, 193.8132
255.4795, 193.5297
255.9616, 193.9522
256.4437, 194.0510
256.9258, 193.6279
257.4080, 193.0714
257.8901, 192.6601
258.3722, 192.4307
258.8543, 192.1926
259.3364, 191.6332
259.8185, 190.4194
260.3007, 189.7593
260.7828, 189.9760
261.2649, 190.3669
261.7470, 190.5415
262.2291, 190.4393
262.7112, 190.2058
263.1934, 190.0219
263.6755, 189.9715
264.1576, 189.6338
264.6397, 188.8476
265.1218, 187.9707
265.6039, 187.1379
266.0861, 186.3923
266.5682, 185.7634
267.0503, 185.2910
267.5324, 185.0011
268.0145, 184.7234
268.4966, 184.6475
268.9788, 184.4153
269.4609, 183.7148
269.9430, 182.6567
270.4251, 181.6527
270.9072, 181.0520
271.3893, 180.8760
271.8715, 180.5983
272.3536, 180.0946
272.8357, 179.6336
273.3178, 179.3909
273.7999, 179.2958
274.2820, 179.1418
274.7642, 178.7797
275.2463, 178.2301
275.7284, 177.7535
276.2105, 177.3119
276.6926, 176.9591
277.1747, 176.7310
277.6568, 176.6038
278.1389, 176.5562
278.6211, 176.6019
279.1032, 176.6818
279.5853, 176.5200
280.0674, 175.8667
280.5495, 175.3155
281.0316, 175.0854
281.5138, 175.0489
281.9959, 174.9800
282.4780, 174.7808
282.9601, 174.5024
283.4422, 174.2907
283.9243, 174.2638
284.4065, 174.0805
284.8886, 173.4969
285.3707, 172.7607
285.8528, 172.2346
286.3349, 172.0407
286.8170, 172.0677
287.2992, 172.1640
287.7813, 172.3672
288.2634, 172.5055
288.7455, 172.6066
289.2276, 172.6055
289.7097, 172.3880
290.1919, 171.9228
290.6740, 171.3517
291.1561, 170.7983
291.6382, 170.2468
292.1203, 169.8866
292.6024, 169.9501
293.0846, 170.0933
293.5667, 169.9267
294.0488, 169.4050
294.5309, 168.8639
295.0130, 168.6295
295.4951, 168.7106
295.9773, 168.7070
296.4594, 168.5348
296.9415, 168.3232
297.4236, 168.1753
297.9057, 168.0910
298.3878, 167.9942
298.8700, 167.7904
299.3521, 167.5310
299.8342, 167.4846
300.3163, 167.8863
300.7984, 168.2818
301.2805, 168.4319
301.7627, 168.3534
302.2448, 168.1253
302.7269, 167.7438
303.2090, 167.2684
303.6911, 166.8928
304.1732, 166.7418
304.6554, 166.4831
305.1375, 165.7431
305.6196, 164.7669
306.1017, 164.2778
306.5838, 164.6863
307.0659, 165.4525
307.5481, 165.4651
308.0302, 164.5787
308.5123, 163.7415
308.9944, 163.2137
309.4765, 162.9416
309.9586, 162.9047
310.4408, 163.1402
310.9229, 163.4263
311.4050, 163.4666
311.8871, 163.2673
312.3692, 162.9746
312.8513, 162.2200
313.3335, 161.5682
313.8156, 161.9176
314.2977, 163.4346
314.7798, 165.0111
315.2619, 165.6802
315.7440, 165.4429
316.2262, 164.8513
316.7083, 163.6524
317.1904, 162.3213
317.6725, 161.0737
318.1546, 159.9563
318.6367, 159.3784
319.1188, 159.8365
319.6010, 161.0577
320.0831, 161.6524
320.5652, 161.3209
321.0473, 160.6909
321.5294, 159.9153
322.0115, 159.0806
322.4937, 158.5050
322.9758, 158.3889
323.4579, 158.5702
323.9400, 158.6388
324.4221, 158.5672
324.9042, 158.4713
325.3864, 158.4631
325.8685, 158.4496
326.3506, 158.2127
326.8327, 157.6485
327.3148, 156.9722
327.7969, 156.5093
328.2791, 156.2642
328.7612, 156.1256
329.2433, 156.2226
329.7254, 156.3487
330.2075, 156.2195
330.6896, 155.7858
331.1718, 155.3046
331.6539, 155.0621
332.1360, 155.0813
332.6181, 154.9019
333.1002, 154.3074
333.5823, 153.6647
334.0645, 153.2211
334.5466, 152.9848
335.0287, 152.8782
335.5108, 152.9058
335.9929, 153.0155
336.4750, 152.8640
336.9572, 152.1369
337.4393, 151.5055
337.9214, 151.3367
338.4035, 151.4807
338.8856, 151.5907
339.3677, 151.5134
339.8499, 151.2880
340.3320, 151.0055
340.8141, 150.6499
341.2962, 150.2777
341.7783, 149.7424
342.2604, 149.2514
342.7426, 149.1817
343.2247, 149.6422
343.7068, 150.2130
344.1889, 150.3046
344.6710, 149.7162
345.1531, 149.1613
345.6353, 148.5125
346.1174, 147.9936
346.5995, 147.8874
347.0816, 148.1573
347.5637, 148.4185
348.0458, 148.3060
348.5280, 147.7927
349.0101, 147.4743
349.4922, 147.4907
349.9743, 147.5259
350.4564, 147.4861
350.9385, 147.3612
351.4207, 147.1130
351.9028, 146.6942
352.3849, 146.1930
352.8670, 145.9952
353.3491, 146.4540
353.8312, 146.7775
354.3134, 146.8218
354.7955, 146.7016
355.2776, 146.5241
355.7597, 146.3308
356.2418, 146.1540
356.7239, 146.0553
357.2061, 146.1317
357.6882, 146.0810
358.1703, 145.7536
358.6524, 145.4217
359.1345, 145.3643
359.6166, 145.5421
360.0987, 145.6094
360.5808, 145.1685
361.0630, 144.1146
361.5451, 143.5788
362.0272, 143.9091
362.5093, 144.3571
362.9914, 144.8642
363.4735, 145.2930
363.9557, 145.4126
364.4378, 145.0661
364.9199, 144.3608
365.4020, 143.7420
365.8841, 143.0997
366.3662, 142.7270
366.8484, 142.8100
367.3305, 143.0862
367.8126, 143.3241
368.2947, 143.4431
368.7768, 143.4819
369.2589, 143.5097
369.7411, 143.5687
370.2232, 143.4941
370.7053, 143.1228
371.1874, 142.7569
371.6695, 142.6021
372.1516, 142.6243
372.6338, 142.6055
373.1159, 142.3022
373.5980, 141.7298
374.0801, 141.4248
374.5622, 141.6385
375.0443, 141.8207
375.5265, 141.7802
376.0086, 141.5932
376.4907, 141.3925
376.9728, 141.2511
377.4549, 141.1081
377.9370, 140.7937
378.4192, 140.2118
378.9013, 139.7332
379.3834, 139.4988
379.8655, 139.3816
380.3476, 139.3097
380.8297, 139.2676
381.3119, 139.2341
381.7940, 139.2259
382.2761, 139.2404
382.7582, 139.1210
383.2403, 138.8355
383.7224, 138.4101
384.2046, 137.7615
384.6867, 136.9786
385.1688, 136.3598
385.6509, 136.2184
386.1330, 136.3313
386.6151, 136.1228
387.0973, 135.4723
387.5794, 134.9391
388.0615, 135.0714
388.5436, 135.4587
389.0257, 135.5032
389.5078, 134.9993
389.9900, 134.2998
390.4721, 133.6259
390.9542, 132.9905
391.4363, 132.5441
391.9184, 132.4251
392.4005, 132.4077
392.8827, 132.1203
393.3648, 131.5305
393.8469, 131.1035
394.3290, 131.1174
394.8111, 131.3775
395.2932, 131.6911
395.7754, 132.0676
396.2575, 132.1261
396.7396, 131.3756
397.2217, 129.8928
397.7038, 128.7376
398.1859, 128.1547
398.6681, 127.7256
399.1501, 127.2021
399.6323, 126.6011
400.1144, 125.9962
400.5965, 125.4057
401.0786, 124.8644
401.5607, 124.5055
402.0428, 124.4769
402.5250, 124.3403
403.0071, 123.8353
403.4892, 123.2661
403.9713, 123.0764
404.4534, 123.3413
404.9355, 123.6355
405.4177, 123.4244
405.8998, 122.5450
406.3819, 121.9840
406.8640, 121.9122
407.3461, 121.9532
407.8282, 122.0042
408.3104, 122.0166
408.7925, 121.9059
409.2746, 121.6027
409.7567, 121.1726
410.2388, 120.9109
410.7209, 120.8467
411.2031, 120.9384
411.6852, 121.3906
412.1673, 121.8807
412.6494, 122.1277
413.1315, 122.0509
413.6136, 121.7191
414.0958, 121.1590
414.5779, 120.2509
415.0600, 119.5886
415.5421, 119.1593
416.0242, 119.0033
416.5063, 119.3546
416.9885, 120.0083
417.4706, 120.5082
417.9527, 120.5540
418.4348, 120.2466
418.9169, 119.9042
419.3990, 119.4749
419.8812, 119.1338
420.3633, 119.0820
420.8454, 119.0607
421.3275, 118.7609
421.8096, 118.0985
422.2917, 117.4574
422.7739, 117.2555
423.2560, 117.4749
423.7381, 117.7493
424.2202, 118.0957
424.7023, 118.3838
425.1844, 118.4945
425.6666, 118.4656
426.1487, 118.4342
426.6308, 118.5449
427.1129, 118.6462
427.5950, 118.4294
428.0771, 117.8674
428.5593, 117.4269
429.0414, 117.3690
429.5235, 117.6011
430.0056, 117.8999
430.4877, 118.3794
430.9698, 118.6669
431.4520, 118.4692
431.9341, 117.9664
432.4162, 117.4637
432.8983, 117.0191
433.3804, 116.7316
433.8625, 116.7803
434.3447, 117.2290
434.8268, 117.4846
435.3089, 117.3290
435.7910, 117.1436
436.2731, 117.2130
436.7552, 117.4814
437.2374, 117.7177
437.7195, 117.7874
438.2016, 117.7244
438.6837, 117.6557
439.1658, 117.5687
439.6479, 117.4919
440.1301, 117.3637
440.6122, 117.2832
441.0943, 117.4307
441.5764, 117.7972
442.0585, 118.0989
442.5406, 117.9516
443.0227, 117.2365
443.5049, 116.9454
443.9870, 117.5465
444.4691, 118.0931
444.9512, 118.3076
445.4333, 118.2683
445.9154, 118.1071
446.3976, 117.8739
446.8797, 117.6420
447.3618, 117.5988
447.8439, 117.8270
448.3260, 117.9966
448.8081, 118.0402
449.2903, 118.0103
449.7724, 117.8681
450.2545, 117.6444
450.7366, 117.5191
451.2187, 117.7009
451.7008, 118.1090
452.1830, 118.3811
452.6651, 118.4564
453.1472, 118.5276
453.6293, 118.8092
454.1114, 119.1332
454.5935, 119.2296
455.0757, 118.9595
455.5578, 118.6096
456.0399, 118.3436
456.5220, 118.1804
457.0041, 118.2545
457.4862, 118.7035
457.9684, 119.1894
458.4505, 119.1653
458.9326, 118.6320
459.4147, 118.3316
459.8968, 118.5767
460.3789, 118.9793
460.8611, 119.2610
461.3432, 119.3968
461.8253, 119.3815
462.3074, 119.1829
462.7895, 118.8600
463.2716, 118.6532
463.7538, 118.6482
464.2359, 118.6384
464.7180, 118.5152
465.2001, 118.4218
465.6822, 118.5986
466.1643, 119.0443
466.6465, 119.4212
467.1286, 119.3209
467.6107, 118.6662
468.0928, 118.2679
468.5749, 118.3833
469.0570, 118.4828
469.5392, 118.3530
470.0213, 118.1379
470.5034, 118.1093
470.9855, 118.3972
471.4676, 118.7543
471.9497, 118.6796
472.4319, 118.0304
472.9140, 117.5801
473.3961, 117.6172
473.8782, 117.7384
474.3603, 117.6948
474.8424, 117.5218
475.3246, 117.4182
475.8067, 117.5838
476.2888, 117.8700
476.7709, 117.9010
477.2530, 117.6216
477.7351, 117.4448
478.2173, 117.6754
478.6994, 118.0625
479.1815, 118.2023
479.6636, 118.0299
480.1457, 117.7912
480.6278, 117.5483
481.1100, 117.3363
481.5920, 117.2242
482.0742, 117.2250
482.5563, 117.3034
483.0384, 117.4767
483.5205, 117.7315
484.0026, 117.7543
484.4847, 117.3661
484.9669, 116.9552
485.4490, 116.6151
485.9311, 116.3716
486.4132, 116.3075
486.8953, 116.4504
487.3774, 116.6321
487.8596, 116.5576
488.3417, 116.0639
488.8238, 115.7601
489.3059, 115.7782
489.7880, 115.8276
490.2701, 115.7842
490.7523, 115.6575
491.2344, 115.5016
491.7165, 115.3488
492.1986, 115.1898
492.6807, 114.9568
493.1628, 114.5319
493.6450, 114.3618
494.1271, 114.9222
494.6092, 115.4942
495.0913, 115.5598
495.5734, 115.1157
496.0555, 114.5596
496.5377, 114.1029
497.0198, 113.7494
497.5019, 113.5232
497.9840, 113.4354
498.4661, 113.4295
498.9482, 113.5570
499.4304, 113.7148
499.9125, 113.7017
500.3946, 113.4524
500.8767, 113.1687
501.3588, 112.9038
501.8409, 112.6833
502.3231, 112.5651
502.8052, 112.5624
503.2873, 112.6128
503.7694, 112.6996
504.2515, 112.8257
504.7336, 112.6563
505.2158, 111.8605
505.6979, 111.1735
506.1800, 110.9807
506.6621, 111.0268
507.1442, 110.9077
507.6263, 110.4806
508.1085, 109.9126
508.5906, 109.4483
509.0727, 109.0838
509.5548, 108.8345
510.0369, 108.7100
510.5190, 108.6919
511.0012, 108.9005
511.4833, 109.1936
511.9654, 109.3153
512.4475, 109.1298
512.9296, 108.7399
513.4117, 108.2941
513.8939, 107.7756
514.3760, 107.3120
514.8581, 106.8453
515.3402, 106.5402
515.8223, 106.6912
516.3044, 107.1954
516.7866, 107.3819
517.2687, 106.5920
517.7508, 105.5488
518.2329, 105.3219
518.7150, 105.8537
519.1971, 106.1429
519.6793, 105.6079
520.1614, 104.6786
520.6435, 104.4088
521.1256, 105.0814
521.6077, 105.4408
522.0898, 104.9866
522.5720, 104.3376
523.0541, 104.0665
523.5362, 104.1638
524.0183, 104.2494
524.5004, 104.0363
524.9825, 103.6053
525.4647, 103.3795
525.9468, 103.6246
526.4289, 103.6980
526.9110, 103.4094
527.3931, 103.0305
527.8752, 102.7820
528.3574, 102.6869
528.8395, 102.6287
529.3216, 102.4971
529.8037, 102.3124
530.2858, 102.2100
530.7679, 102.2415
531.2501, 102.2366
531.7322, 102.0336
532.2143, 101.7991
532.6964, 101.7397
533.1785, 101.9158
533.6606, 102.0539
534.1428, 101.8966
534.6249, 101.5887
535.1070, 101.4742
535.5891, 101.6108
536.0712, 101.7470
536.5533, 101.6952
537.0355, 101.4775
537.5176, 101.2598
537.9997, 101.0373
538.4818, 100.8200
538.9639, 100.5830
539.4460, 100.3644
539.9282, 100.2471
540.4103, 100.2314
540.8924, 100.1753
541.3745, 99.89126
541.8566, 99.36318
542.3387, 99.17235
542.8209, 99.71477
543.3029, 100.1334
543.7850, 100.2281
544.2672, 100.1251
544.7493, 99.94437
545.2314, 99.72521
545.7135, 99.50185
546.1956, 99.31236
546.6777, 99.15446
547.1599, 98.99633
547.6420, 98.79794
548.1241, 98.68111
548.6062, 98.75214
549.0883, 98.95007
549.5704, 99.21831
550.0526, 99.63878
550.5347, 99.93147
551.0168, 99.86702
551.4989, 99.55843
551.9810, 99.19447
552.4631, 98.81054
552.9453, 98.51919
553.4274, 98.45504
553.9095, 98.61909
554.3916, 98.65212
554.8737, 98.49468
555.3558, 98.29852
555.8380, 97.93650
556.3201, 97.63380
556.8022, 97.82512
557.2843, 98.54606
557.7664, 99.18584
558.2485, 98.95907
558.7307, 97.82642
559.2128, 96.98396
559.6949, 96.46142
560.1770, 96.22459
560.6591, 96.50564
561.1412, 96.91788
561.6234, 96.89465
562.1055, 96.24727
562.5876, 95.68208
563.0697, 96.10007
563.5518, 97.11581
564.0339, 97.30984
564.5161, 96.37502
564.9982, 95.36013
565.4803, 95.02711
565.9624, 95.24021
566.4445, 95.29868
566.9266, 95.04939
567.4088, 94.86411
567.8909, 95.01711
568.3730, 95.23416
568.8551, 95.02691
569.3372, 94.38746
569.8193, 93.93655
570.3015, 94.33742
570.7836, 95.51765
571.2657, 96.04256
571.7478, 95.34727
572.2299, 94.72889
572.7120, 94.45158
573.1942, 94.29489
573.6763, 93.97720
574.1584, 93.49095
574.6405, 93.16911
575.1226, 93.50798
575.6047, 94.27824
576.0869, 94.45609
576.5690, 93.90966
577.0511, 93.31608
577.5332, 92.93319
578.0153, 92.73356
578.4974, 92.68696
578.9796, 92.83985
579.4617, 92.93230
579.9438, 92.76681
580.4259, 92.54915
580.9080, 92.59312
581.3901, 92.86423
581.8723, 92.98965
582.3544, 92.70850
582.8365, 92.15751
583.3186, 91.79964
583.8007, 91.74098
584.2828, 91.72646
584.7650, 91.78938
585.2471, 91.86106
585.7292, 91.90807
586.2113, 91.92384
586.6934, 91.89626
587.1755, 91.79612
587.6577, 91.68865
588.1398, 91.76732
588.6219, 92.07705
589.1040, 92.26562
589.5861, 92.24776
590.0682, 92.07452
590.5504, 91.69877
591.0325, 91.17395
591.5146, 90.86609
591.9967, 91.06564
592.4788, 91.37507
592.9609, 91.45385
593.4431, 91.36156
593.9252, 91.27483
594.4073, 91.25317
594.8894, 91.30624
595.3715, 91.46885
595.8536, 91.80074
596.3358, 91.96668
596.8179, 91.86130
597.3000, 91.73332
597.7821, 91.71809
598.2642, 91.71735
598.7463, 91.55383
599.2285, 91.17278
599.7106, 90.75169
600.1927, 90.50211
600.6748, 90.41837
601.1569, 90.36455
601.6390, 90.30305
602.1212, 90.34049
602.6033, 90.70919
603.0854, 91.16368
603.5675, 91.29851
604.0496, 90.99058
604.5317, 90.59090
605.0139, 90.15919
605.4960, 89.79507
605.9781, 89.71353
606.4602, 89.90762
606.9423, 90.08266
607.4244, 90.01734
607.9066, 89.77400
608.3887, 89.63351
608.8708, 89.69529
609.3529, 89.72346
609.8350, 89.71858
610.3171, 89.67172
610.7993, 89.55485
611.2814, 89.38747
611.7635, 89.21970
612.2456, 89.06423
612.7277, 88.95882
613.2098, 89.01323
613.6920, 89.24493
614.1741, 89.43675
614.6562, 89.55482
615.1383, 89.59039
615.6204, 89.51558
616.1025, 89.34493
616.5847, 89.15308
617.0668, 88.82397
617.5489, 88.60728
618.0310, 88.79521
618.5131, 89.18809
618.9952, 89.36897
619.4774, 89.21688
619.9595, 88.91468
620.4416, 88.63631
620.9237, 88.35995
621.4058, 88.43821
621.8879, 89.42266
622.3701, 90.08269
622.8522, 89.93254
623.3343, 89.47192
623.8164, 89.12537
624.2985, 89.00597
624.7806, 89.17329
625.2628, 90.00642
625.7448, 91.11809
626.2269, 91.28909
626.7090, 90.40514
627.1912, 89.68607
627.6733, 89.74557
628.1554, 90.23360
628.6375, 90.48689
629.1196, 90.44782
629.6017, 90.49599
630.0839, 90.77592
630.5660, 91.08083
631.0481, 91.24557
631.5302, 91.31976
632.0123, 91.45090
632.4944, 91.70598
632.9766, 92.01368
633.4587, 92.25658
633.9408, 92.42890
634.4229, 92.57554
634.9050, 92.76137
635.3871, 92.82902
635.8693, 92.64310
636.3514, 92.33086
636.8335, 92.04745
637.3156, 91.79356
637.7977, 91.74107
638.2798, 92.17015
638.7620, 92.83665
639.2441, 93.34138
639.7262, 93.62800
640.2083, 93.59660
640.6904, 93.08012
