##NAMES=Magnesiotaaffeite-6N3S
##RRUFFID=R090019
##IDEAL CHEMISTRY=Mg_2_BeAl_6_O_12_
##LOCALITY=Ratnapura District, Sri Lanka
##OWNER=Bill Pinch
##SOURCE=William W. Pinch
##DESCRIPTION=Greyish purple flattened tabular hexagonal crystal
##STATUS=The identification of this mineral has been confirmed by single-crystal X-ray diffraction.
##URL=rruff.info/R090019
92.37695, 839.5164
92.85907, 836.1914
93.34119, 837.7773
93.82330, 837.3040
94.30542, 832.5231
94.78754, 824.0369
95.26965, 813.6076
95.75177, 802.7709
96.23389, 792.3876
96.71600, 782.2468
97.19812, 772.6549
97.68024, 763.7996
98.16235, 755.5944
98.64447, 748.0619
99.12659, 741.6176
99.60870, 732.9916
100.0908, 723.3187
100.5729, 713.4651
101.0551, 703.5824
101.5372, 693.3705
102.0193, 683.2619
102.5014, 676.3231
102.9835, 674.8471
103.4656, 674.2755
103.9478, 674.6094
104.4299, 675.2533
104.9120, 675.3674
105.3941, 674.2604
105.8762, 671.7750
106.3583, 669.1077
106.8405, 665.0451
107.3226, 661.5555
107.8047, 659.4061
108.2868, 658.7571
108.7689, 659.7805
109.2510, 662.5073
109.7332, 666.8860
110.2153, 674.6044
110.6974, 684.1755
111.1795, 697.5714
111.6616, 717.8693
112.1437, 745.5988
112.6259, 780.8568
113.1080, 829.9682
113.5901, 891.4047
114.0722, 941.9131
114.5543, 970.7294
115.0364, 977.8293
115.5185, 958.3595
116.0007, 886.1921
116.4828, 803.7400
116.9649, 732.1873
117.4470, 675.5252
117.9291, 632.2359
118.4112, 601.6201
118.8934, 587.9373
119.3755, 577.8932
119.8576, 570.1429
120.3397, 564.2966
120.8218, 560.4188
121.3039, 558.5019
121.7861, 557.9600
122.2682, 557.0969
122.7503, 556.3977
123.2324, 554.7114
123.7145, 550.9795
124.1966, 546.3488
124.6788, 542.4106
125.1609, 540.0441
125.6430, 539.1592
126.1251, 538.9860
126.6072, 540.5452
127.0893, 541.6453
127.5715, 541.1954
128.0536, 539.3734
128.5357, 537.2059
129.0178, 535.3505
129.4999, 533.7650
129.9821, 532.0840
130.4642, 530.0424
130.9463, 528.0203
131.4284, 526.3096
131.9105, 524.8769
132.3926, 523.9786
132.8748, 524.3785
133.3569, 525.4592
133.8390, 526.0826
134.3211, 525.1644
134.8032, 523.3235
135.2853, 522.8914
135.7674, 525.2731
136.2496, 527.1715
136.7317, 526.5201
137.2138, 524.0535
137.6959, 521.6681
138.1780, 521.0981
138.6601, 522.6039
139.1423, 523.1827
139.6244, 521.9117
140.1065, 520.4456
140.5886, 519.5092
141.0707, 519.0561
141.5528, 518.4776
142.0350, 516.8648
142.5171, 513.1044
142.9992, 511.3571
143.4813, 513.6735
143.9634, 516.2233
144.4455, 515.9128
144.9277, 512.1690
145.4098, 507.3795
145.8919, 505.5134
146.3740, 508.9134
146.8561, 511.0693
147.3382, 510.8659
147.8204, 509.5698
148.3025, 508.8031
148.7846, 509.2026
149.2667, 510.0945
149.7488, 510.0069
150.2309, 508.7582
150.7131, 507.5094
151.1952, 506.6559
151.6773, 506.1355
152.1594, 505.7702
152.6415, 505.5168
153.1236, 505.3863
153.6058, 505.5529
154.0879, 506.3001
154.5700, 506.4796
155.0521, 504.5045
155.5342, 500.2356
156.0163, 497.0691
156.4985, 497.3794
156.9806, 498.8788
157.4627, 499.8577
157.9448, 499.8999
158.4269, 499.4151
158.9090, 498.9127
159.3912, 498.2565
159.8733, 497.9547
160.3554, 498.4067
160.8375, 499.0856
161.3196, 499.5900
161.8017, 499.7552
162.2839, 499.5733
162.7660, 498.9664
163.2481, 497.1803
163.7302, 496.0052
164.2123, 496.2845
164.6944, 497.1266
165.1766, 497.2654
165.6587, 495.9085
166.1408, 493.4629
166.6229, 492.6293
167.1050, 495.4493
167.5871, 497.6607
168.0693, 498.4807
168.5514, 498.0550
169.0335, 496.6140
169.5156, 494.1260
169.9977, 490.7361
170.4798, 488.9014
170.9620, 489.3510
171.4441, 490.2907
171.9262, 491.2641
172.4083, 492.1387
172.8904, 492.5352
173.3725, 492.0280
173.8547, 490.7060
174.3368, 489.7603
174.8189, 489.3678
175.3010, 489.2185
175.7831, 489.1341
176.2652, 489.1107
176.7474, 489.0370
177.2295, 488.9541
177.7116, 488.7480
178.1937, 488.1132
178.6758, 486.5654
179.1579, 484.6979
179.6401, 483.2455
180.1222, 482.1079
180.6043, 481.7421
181.0864, 483.2574
181.5685, 485.6303
182.0506, 487.1114
182.5328, 486.2933
183.0149, 484.0696
183.4970, 483.4184
183.9791, 485.6419
184.4612, 487.4512
184.9433, 487.1249
185.4255, 485.4855
185.9076, 483.9521
186.3897, 483.4655
186.8718, 483.9315
187.3539, 484.3177
187.8360, 484.6377
188.3182, 484.8497
188.8003, 485.0331
189.2824, 485.1057
189.7645, 484.8903
190.2466, 484.1949
190.7287, 482.9863
191.2109, 482.0302
191.6930, 480.8344
192.1751, 480.3430
192.6572, 481.4492
193.1393, 483.6429
193.6214, 485.6495
194.1036, 486.3084
194.5857, 485.4334
195.0678, 484.6818
195.5499, 484.6123
196.0320, 484.1516
196.5141, 482.2456
196.9963, 479.2436
197.4784, 476.6584
197.9605, 475.9881
198.4426, 477.5716
198.9247, 478.7928
199.4068, 479.5475
199.8890, 480.0594
200.3711, 480.4985
200.8532, 480.8692
201.3353, 481.0260
201.8174, 480.8319
202.2995, 480.2438
202.7817, 479.4237
203.2638, 477.5761
203.7459, 475.9579
204.2280, 476.1657
204.7101, 478.4567
205.1922, 480.7838
205.6744, 481.1933
206.1565, 479.9995
206.6386, 478.5628
207.1207, 476.7252
207.6028, 474.9485
208.0849, 473.8868
208.5671, 473.6480
209.0492, 473.8852
209.5313, 474.7077
210.0134, 475.8247
210.4955, 476.5677
210.9776, 476.4293
211.4598, 475.7835
211.9419, 475.5382
212.4240, 475.9756
212.9061, 476.2298
213.3882, 475.7690
213.8703, 474.7906
214.3525, 473.5805
214.8346, 471.9256
215.3167, 470.1522
215.7988, 469.6105
216.2809, 471.1201
216.7630, 472.6430
217.2451, 473.1920
217.7273, 473.1543
218.2094, 473.1984
218.6915, 473.7057
219.1736, 474.6298
219.6557, 475.7421
220.1378, 477.5229
220.6200, 478.8569
221.1021, 479.2521
221.5842, 479.0229
222.0663, 478.6790
222.5484, 478.5512
223.0305, 478.6091
223.5127, 478.5436
223.9948, 477.8440
224.4769, 477.5893
224.9590, 478.4521
225.4411, 479.8792
225.9232, 480.8975
226.4054, 480.8088
226.8875, 479.7410
227.3696, 479.1927
227.8517, 479.2548
228.3338, 479.7773
228.8159, 481.1191
229.2981, 482.8855
229.7802, 484.3744
230.2623, 485.1026
230.7444, 485.1699
231.2265, 485.6927
231.7086, 486.4510
232.1908, 487.8451
232.6729, 490.2117
233.1550, 493.2924
233.6371, 496.5507
234.1192, 499.6187
234.6013, 502.6218
235.0835, 506.5765
235.5656, 511.0618
236.0477, 516.7321
236.5298, 523.5951
237.0119, 531.7756
237.4940, 541.9704
237.9762, 554.9805
238.4583, 569.8748
238.9404, 582.2617
239.4225, 595.6942
239.9046, 603.4960
240.3867, 602.3864
240.8689, 593.8167
241.3510, 580.4832
241.8331, 562.3993
242.3152, 541.7881
242.7973, 525.0153
243.2794, 512.0952
243.7616, 502.0774
244.2437, 495.6327
244.7258, 492.0449
245.2079, 489.2721
245.6900, 486.6767
246.1721, 484.2286
246.6543, 481.8070
247.1364, 479.3705
247.6185, 477.0784
248.1006, 474.7539
248.5827, 472.5815
249.0648, 471.3287
249.5470, 471.6859
250.0291, 472.5739
250.5112, 472.4170
250.9933, 471.1458
251.4754, 469.4551
251.9576, 467.3712
252.4397, 465.0775
252.9218, 463.3048
253.4039, 462.2027
253.8860, 461.8189
254.3681, 462.2941
254.8503, 463.6238
255.3324, 464.8453
255.8145, 465.2999
256.2966, 465.1128
256.7787, 464.8375
257.2608, 464.2235
257.7430, 464.0460
258.2251, 465.0836
258.7072, 467.1694
259.1893, 469.1916
259.6714, 470.4369
260.1535, 471.0108
260.6357, 471.3083
261.1178, 470.3682
261.5999, 470.6353
262.0820, 474.1891
262.5641, 480.1528
263.0462, 485.8215
263.5284, 489.4135
264.0105, 491.1922
264.4926, 492.8739
264.9747, 494.9185
265.4568, 496.0915
265.9389, 496.2032
266.4211, 495.1537
266.9032, 492.6683
267.3853, 488.0799
267.8674, 481.9640
268.3495, 476.7813
268.8316, 472.8023
269.3138, 469.4477
269.7959, 466.5845
270.2780, 464.0753
270.7601, 461.6773
271.2422, 459.1832
271.7243, 456.7935
272.2065, 455.2917
272.6886, 455.2642
273.1707, 455.1888
273.6528, 454.8823
274.1349, 454.2284
274.6170, 452.9680
275.0992, 450.9113
275.5813, 448.4982
276.0634, 446.8209
276.5455, 446.0233
277.0276, 445.7701
277.5097, 446.3279
277.9919, 447.1210
278.4740, 447.6901
278.9561, 447.8691
279.4382, 447.6556
279.9203, 446.9499
280.4024, 445.3422
280.8846, 444.1302
281.3667, 442.9906
281.8488, 442.4949
282.3309, 443.5051
282.8130, 446.0712
283.2951, 448.9621
283.7773, 450.3307
284.2594, 449.6504
284.7415, 448.6735
285.2236, 446.8776
285.7057, 445.2661
286.1878, 444.3769
286.6700, 444.3042
287.1521, 444.8997
287.6342, 446.2769
288.1163, 449.0531
288.5984, 450.0560
289.0805, 447.3771
289.5627, 444.7713
290.0448, 444.0523
290.5269, 445.0633
291.0090, 446.5718
291.4911, 447.5136
291.9732, 447.8663
292.4554, 447.9061
292.9375, 446.8022
293.4196, 446.2122
293.9017, 447.0102
294.3838, 448.7678
294.8659, 450.4914
295.3481, 451.4414
295.8302, 451.7067
296.3123, 452.4372
296.7944, 454.5896
297.2765, 456.1944
297.7586, 456.2547
298.2408, 455.6418
298.7229, 455.6906
299.2050, 457.1564
299.6871, 459.6962
300.1692, 461.9831
300.6513, 463.4673
301.1335, 465.3647
301.6156, 468.6369
302.0977, 472.0062
302.5798, 474.1713
303.0619, 474.6013
303.5440, 473.6050
304.0262, 471.6932
304.5083, 467.3477
304.9904, 464.4505
305.4725, 463.0481
305.9546, 462.9688
306.4367, 464.1862
306.9189, 466.6466
307.4010, 470.1650
307.8831, 474.6314
308.3652, 480.7900
308.8473, 485.8964
309.3294, 489.3975
309.8116, 492.5088
310.2937, 495.7083
310.7758, 499.1737
311.2579, 503.1396
311.7400, 507.9948
312.2221, 514.1454
312.7043, 518.4347
313.1864, 520.6891
313.6685, 521.6031
314.1506, 521.7375
314.6327, 520.7841
315.1148, 517.8798
315.5970, 512.2979
316.0791, 504.1974
316.5612, 495.7143
317.0433, 485.2339
317.5254, 476.1129
318.0075, 469.3135
318.4897, 464.3041
318.9718, 460.2797
319.4539, 456.8340
319.9360, 454.0287
320.4181, 452.0655
320.9002, 452.2491
321.3824, 451.6714
321.8645, 449.1687
322.3466, 446.3387
322.8287, 444.8811
323.3108, 445.3272
323.7929, 446.7535
324.2751, 447.6108
324.7572, 447.7559
325.2393, 447.5287
325.7214, 446.3918
326.2035, 445.3245
326.6856, 445.2300
327.1678, 446.0685
327.6499, 446.9333
328.1320, 446.8445
328.6141, 445.6703
329.0962, 444.1224
329.5783, 441.5999
330.0605, 439.3209
330.5426, 437.8549
331.0247, 437.0808
331.5068, 436.5551
331.9889, 435.9137
332.4710, 435.1982
332.9532, 435.0988
333.4353, 436.0331
333.9174, 437.1751
334.3995, 438.7921
334.8816, 440.4203
335.3637, 441.5176
335.8459, 441.8166
336.3280, 441.3053
336.8101, 439.9071
337.2922, 437.0880
337.7743, 434.0864
338.2564, 430.3629
338.7386, 426.8571
339.2206, 424.5269
339.7028, 423.5765
340.1849, 423.3628
340.6670, 422.8557
341.1491, 421.6230
341.6312, 421.2166
342.1133, 422.3628
342.5955, 423.6180
343.0776, 424.2240
343.5597, 424.1526
344.0418, 423.8073
344.5239, 423.6231
345.0060, 423.6473
345.4882, 422.9981
345.9703, 420.4615
346.4524, 418.4185
346.9345, 417.4116
347.4166, 417.3773
347.8987, 418.2938
348.3809, 420.3320
348.8630, 422.9917
349.3451, 424.0981
349.8272, 422.4356
350.3093, 421.0467
350.7914, 420.7813
351.2736, 420.9120
351.7557, 420.6208
352.2378, 419.6277
352.7199, 418.4575
353.2020, 418.0295
353.6841, 418.5835
354.1663, 419.1539
354.6484, 419.5092
355.1305, 419.9445
355.6126, 420.8307
356.0947, 422.0862
356.5768, 423.1203
357.0590, 423.3106
357.5411, 422.6310
358.0232, 421.8021
358.5053, 420.3160
358.9874, 419.2911
359.4695, 419.2428
359.9517, 419.9785
360.4338, 421.1221
360.9159, 422.5994
361.3980, 424.2343
361.8801, 425.5648
362.3622, 426.7184
362.8444, 427.2326
363.3265, 426.2940
363.8086, 424.9743
364.2907, 424.3929
364.7728, 424.9154
365.2549, 426.0508
365.7371, 427.3528
366.2192, 428.8880
366.7013, 430.0145
367.1834, 430.5847
367.6655, 430.6445
368.1476, 429.9312
368.6298, 428.5247
369.1119, 427.4316
369.5940, 427.5835
370.0761, 428.7300
370.5582, 429.6123
371.0403, 429.8780
371.5225, 430.3482
372.0046, 431.8873
372.4867, 434.0461
372.9688, 435.7729
373.4509, 436.1199
373.9330, 436.1451
374.4152, 437.6850
374.8973, 440.9413
375.3794, 443.9874
375.8615, 446.2205
376.3436, 447.4200
376.8257, 447.3372
377.3079, 445.8499
377.7900, 443.2918
378.2721, 439.1545
378.7542, 433.9233
379.2363, 429.8044
379.7184, 427.6276
380.2006, 426.4019
380.6827, 424.8467
381.1648, 422.9662
381.6469, 421.3830
382.1290, 420.1418
382.6111, 419.3709
383.0933, 419.5559
383.5754, 420.8105
384.0575, 421.8000
384.5396, 421.0424
385.0217, 418.9219
385.5038, 418.3710
385.9860, 420.8216
386.4681, 423.6475
386.9502, 425.3229
387.4323, 426.0358
387.9144, 426.4581
388.3965, 426.7940
388.8787, 427.2078
389.3608, 428.1642
389.8429, 429.6823
390.3250, 431.5605
390.8071, 433.7486
391.2892, 436.2800
391.7714, 439.0725
392.2535, 442.1219
392.7356, 445.7898
393.2177, 450.4744
393.6998, 456.3048
394.1819, 462.9264
394.6641, 471.2083
395.1462, 479.4598
395.6283, 486.5009
396.1104, 492.6241
396.5925, 498.6246
397.0746, 504.9415
397.5568, 511.7247
398.0389, 520.1422
398.5210, 530.1144
399.0031, 541.8494
399.4852, 555.4932
399.9673, 570.8880
400.4495, 588.1176
400.9316, 607.1182
401.4137, 627.6264
401.8958, 650.1073
402.3779, 678.1937
402.8600, 697.8951
403.3422, 709.9499
403.8243, 714.4169
404.3064, 707.8308
404.7885, 693.0959
405.2706, 677.0754
405.7527, 664.1865
406.2349, 654.7867
406.7170, 652.5173
407.1991, 658.7628
407.6812, 671.0623
408.1633, 688.3206
408.6454, 710.7553
409.1276, 739.1760
409.6097, 773.8686
410.0918, 812.9593
410.5739, 856.6226
411.0560, 907.3696
411.5381, 948.6559
412.0203, 984.9428
412.5024, 1003.602
412.9845, 995.1774
413.4666, 961.2643
413.9487, 911.3471
414.4308, 844.4548
414.9130, 766.0038
415.3951, 695.4936
415.8772, 632.0281
416.3593, 578.9407
416.8414, 541.4864
417.3235, 514.3853
417.8057, 491.7832
418.2878, 472.4108
418.7699, 456.8379
419.2520, 446.4559
419.7341, 440.8734
420.2162, 436.4190
420.6984, 432.3168
421.1805, 428.5622
421.6626, 425.2339
422.1447, 422.3004
422.6268, 419.4086
423.1089, 415.8825
423.5911, 412.5623
424.0732, 410.7559
424.5553, 410.6174
425.0374, 411.0687
425.5195, 411.5342
426.0016, 411.9141
426.4838, 411.7443
426.9659, 410.0445
427.4480, 408.8409
427.9301, 409.3394
428.4122, 410.9854
428.8943, 412.6212
429.3765, 413.8144
429.8586, 414.8190
430.3407, 416.0875
430.8228, 417.8418
431.3049, 419.3902
431.7870, 420.3609
432.2692, 421.3968
432.7513, 423.1507
433.2334, 425.5024
433.7155, 427.6719
434.1976, 428.9166
434.6797, 429.3622
435.1619, 430.9279
435.6440, 434.2331
436.1261, 438.0073
436.6082, 442.3568
437.0903, 446.9363
437.5724, 451.2144
438.0546, 455.0350
438.5367, 459.0523
439.0188, 464.2121
439.5009, 470.4731
439.9830, 478.0197
440.4651, 486.6732
440.9473, 496.8706
441.4294, 508.5865
441.9115, 522.0245
442.3936, 537.7057
442.8757, 556.1810
443.3578, 576.9765
443.8400, 598.6381
444.3221, 623.0101
444.8042, 643.7974
445.2863, 662.7346
445.7684, 675.0801
446.2505, 674.8050
446.7327, 660.4495
447.2148, 637.9005
447.6969, 608.9945
448.1790, 575.2682
448.6611, 544.4672
449.1432, 516.9876
449.6254, 494.4265
450.1075, 479.3680
450.5896, 470.3618
451.0717, 463.9328
451.5538, 460.3138
452.0359, 458.1040
452.5181, 455.6904
453.0002, 453.2898
453.4823, 452.8863
453.9644, 456.2277
454.4465, 461.0884
454.9286, 462.2598
455.4108, 459.1969
455.8929, 455.1900
456.3750, 450.9173
456.8571, 446.1050
457.3392, 440.0332
457.8214, 432.7707
458.3035, 425.6115
458.7856, 419.6636
459.2677, 414.9283
459.7498, 410.5537
460.2319, 406.3961
460.7141, 402.6891
461.1962, 399.4448
461.6783, 396.7049
462.1604, 394.5556
462.6425, 393.0252
463.1246, 392.0580
463.6068, 391.5521
464.0889, 391.4599
464.5710, 391.9948
465.0531, 394.2125
465.5352, 396.0419
466.0173, 396.0604
466.4995, 394.8280
466.9816, 393.9862
467.4637, 394.7309
467.9458, 396.4760
468.4279, 397.2155
468.9100, 396.3762
469.3922, 396.0310
469.8743, 397.1324
470.3564, 398.7688
470.8385, 400.0999
471.3206, 401.0155
471.8027, 402.3878
472.2849, 405.1704
472.7670, 409.0113
473.2491, 412.5136
473.7312, 415.4690
474.2133, 418.3073
474.6954, 420.6682
475.1776, 423.1866
475.6597, 427.5233
476.1418, 434.9519
476.6239, 442.9904
477.1060, 449.3221
477.5881, 454.7794
478.0703, 462.3759
478.5524, 473.3889
479.0345, 485.5732
479.5166, 495.4361
479.9987, 502.2676
480.4808, 510.2764
480.9630, 520.5649
481.4451, 531.3344
481.9272, 542.4026
482.4093, 552.9739
482.8914, 561.1531
483.3735, 565.8207
483.8557, 567.3233
484.3378, 566.8689
484.8199, 562.4520
485.3020, 558.8652
485.7841, 554.3085
486.2662, 551.9662
486.7484, 554.2525
487.2305, 561.4193
487.7126, 572.1578
488.1947, 585.2128
488.6768, 600.7380
489.1589, 620.7618
489.6411, 645.2960
490.1232, 674.8684
490.6053, 710.8517
491.0874, 750.6370
491.5695, 792.9802
492.0516, 837.9985
492.5338, 879.1254
493.0159, 914.6037
493.4980, 942.7139
493.9801, 945.8862
494.4622, 918.8311
494.9443, 871.5479
495.4265, 801.2968
495.9086, 716.4241
496.3907, 641.2214
496.8728, 581.1104
497.3549, 533.0007
497.8370, 496.7931
498.3192, 471.0951
498.8013, 451.4045
499.2834, 436.7249
499.7655, 425.5904
500.2476, 415.6855
500.7297, 406.9315
501.2119, 399.7967
501.6940, 394.7795
502.1761, 391.0135
502.6582, 388.2539
503.1403, 386.2285
503.6224, 384.2828
504.1045, 381.9669
504.5866, 379.5684
505.0688, 378.1895
505.5509, 379.2439
506.0330, 379.0573
506.5151, 376.1413
506.9972, 372.9731
507.4793, 371.3525
507.9615, 371.3799
508.4436, 372.1002
508.9257, 372.8295
509.4078, 373.5702
509.8899, 374.3672
510.3720, 375.4351
510.8542, 376.0876
511.3363, 375.8427
511.8184, 375.1816
512.3005, 374.4609
512.7827, 373.7175
513.2648, 373.2049
513.7469, 373.2587
514.2290, 373.6894
514.7111, 373.9061
515.1932, 373.7877
515.6754, 373.6687
516.1575, 373.6599
516.6396, 373.8716
517.1217, 374.6767
517.6038, 376.8611
518.0859, 378.7436
518.5681, 379.1312
519.0502, 378.8247
519.5323, 379.2897
520.0144, 380.9311
520.4965, 382.8556
520.9786, 383.8365
521.4608, 383.4682
521.9429, 384.7138
522.4250, 389.1835
522.9071, 393.2658
523.3892, 394.4991
523.8713, 394.8382
524.3535, 397.8559
524.8356, 404.9476
525.3177, 413.2520
525.7998, 417.8832
526.2819, 418.2158
526.7640, 417.9977
527.2462, 417.8118
527.7283, 416.6311
528.2104, 413.7633
528.6925, 409.5690
529.1746, 404.8342
529.6567, 399.7613
530.1389, 394.5168
530.6210, 389.0265
531.1031, 383.3606
531.5852, 378.7852
532.0673, 375.7855
532.5494, 373.8328
533.0316, 372.4950
533.5137, 371.7317
533.9958, 371.0536
534.4779, 370.5400
534.9600, 369.9319
535.4421, 368.8050
535.9243, 367.3696
536.4064, 366.3337
536.8885, 366.0606
537.3706, 366.2627
537.8527, 366.3148
538.3348, 365.8424
538.8170, 366.0175
539.2991, 367.9733
539.7812, 369.5121
540.2633, 368.9757
540.7454, 366.9153
541.2275, 365.0127
541.7097, 364.3005
542.1918, 364.3692
542.6739, 364.2506
543.1560, 364.0587
543.6381, 363.3009
544.1202, 361.1548
544.6024, 358.9985
545.0845, 357.8176
545.5666, 357.4874
546.0487, 357.1480
546.5308, 356.2935
547.0129, 355.1775
547.4951, 354.1339
547.9772, 353.1638
548.4593, 352.3492
548.9414, 351.5981
549.4235, 351.1760
549.9056, 351.8254
550.3878, 353.7807
550.8699, 355.1866
551.3520, 355.4174
551.8341, 355.1737
552.3162, 354.7781
552.7983, 354.4002
553.2805, 354.3987
553.7626, 354.9985
554.2447, 356.0519
554.7268, 357.2306
555.2089, 359.4812
555.6910, 360.0783
556.1732, 356.8842
556.6553, 354.0110
557.1374, 354.2935
557.6195, 357.2202
558.1016, 360.4935
558.5837, 362.7743
559.0659, 364.3440
559.5480, 365.7587
560.0301, 366.9487
560.5122, 368.3786
560.9943, 370.3346
561.4764, 372.4276
561.9586, 374.2614
562.4407, 375.8475
562.9228, 377.4409
563.4049, 378.8961
563.8870, 380.5719
564.3691, 383.1146
564.8513, 386.3296
565.3334, 389.0122
565.8155, 390.4492
566.2976, 391.5658
566.7797, 394.1535
567.2618, 398.8530
567.7440, 403.6872
568.2261, 408.9457
568.7082, 414.0363
569.1903, 418.2059
569.6724, 421.9514
570.1545, 426.4567
570.6367, 432.3289
571.1188, 439.2765
571.6009, 446.7242
572.0830, 454.8937
572.5651, 462.9071
573.0472, 469.5924
573.5294, 477.2132
574.0115, 487.7984
574.4936, 500.3488
574.9757, 512.1830
575.4578, 522.9553
575.9399, 531.5264
576.4221, 536.2579
576.9042, 537.4732
577.3863, 537.1744
577.8684, 536.1330
578.3505, 533.0861
578.8326, 526.3900
579.3148, 515.7585
579.7969, 503.8137
580.2790, 489.1815
580.7611, 474.7787
581.2432, 461.4398
581.7253, 449.4261
582.2075, 439.0709
582.6896, 430.5205
583.1717, 422.8978
583.6538, 414.9725
584.1359, 406.5335
584.6180, 399.3304
585.1002, 393.8290
585.5823, 389.0114
586.0643, 384.8300
586.5464, 381.0004
587.0286, 377.0807
587.5107, 372.8927
587.9928, 369.0597
588.4749, 366.3162
588.9570, 364.4383
589.4391, 362.5440
589.9213, 360.4913
