##NAMES=Magnesioferrite
##RRUFFID=R070127
##IDEAL CHEMISTRY=MgFe^3+^_2_O_4_
##LOCALITY=Langban, Filipstad, Varmland, Sweden
##OWNER=RRUFF
##SOURCE=Michael Scott
##DESCRIPTION=Black poorly formed octahedral crystals with deep red highlites, associated with hematite and calcite
##STATUS=The identification of this mineral has been confirmed only by single crystal X-ray diffraction.
##URL=rruff.info/R070127
134.2718, 474.4790
134.7539, 484.6831
135.2360, 499.8217
135.7182, 522.1038
136.2003, 542.9904
136.6824, 550.9483
137.1645, 543.2067
137.6466, 538.4484
138.1287, 543.8785
138.6109, 560.4811
139.0930, 572.3095
139.5751, 579.5728
140.0572, 581.8518
140.5393, 576.8385
141.0214, 560.4536
141.5036, 545.6934
141.9857, 538.3674
142.4678, 542.4398
142.9499, 543.0953
143.4320, 537.0029
143.9141, 527.8885
144.3963, 528.6791
144.8784, 547.6559
145.3605, 566.7941
145.8426, 575.9515
146.3247, 562.7781
146.8068, 558.8620
147.2890, 571.0175
147.7711, 597.6111
148.2532, 616.2629
148.7353, 623.6648
149.2174, 625.2724
149.6995, 624.8293
150.1817, 616.4545
150.6638, 612.1746
151.1459, 614.9781
151.6280, 625.8105
152.1101, 634.8991
152.5922, 639.0970
153.0744, 642.3004
153.5565, 648.4861
154.0386, 663.4287
154.5207, 676.5733
155.0028, 685.2237
155.4849, 688.9700
155.9671, 688.9776
156.4492, 683.3727
156.9313, 674.4499
157.4134, 665.8526
157.8955, 656.8428
158.3777, 649.4562
158.8598, 644.0277
159.3419, 638.6348
159.8240, 639.2610
160.3061, 653.8624
160.7882, 676.6035
161.2704, 692.8027
161.7525, 691.9520
162.2346, 685.4751
162.7167, 681.0076
163.1988, 679.9673
163.6809, 681.6552
164.1631, 689.7225
164.6452, 701.9619
165.1273, 707.8502
165.6094, 694.5429
166.0915, 674.9988
166.5736, 661.9692
167.0558, 664.3424
167.5379, 670.9661
168.0200, 672.4103
168.5021, 669.3101
168.9842, 671.9333
169.4663, 696.7587
169.9485, 729.9258
170.4306, 751.3313
170.9127, 739.5544
171.3948, 719.3760
171.8769, 718.0834
172.3590, 738.1079
172.8412, 755.2505
173.3233, 741.7070
173.8054, 709.6042
174.2875, 685.3167
174.7696, 690.5635
175.2517, 708.0944
175.7339, 712.2982
176.2160, 698.3112
176.6981, 683.6552
177.1802, 690.0390
177.6623, 712.5087
178.1444, 732.3776
178.6266, 735.5558
179.1087, 729.2396
179.5908, 729.2805
180.0729, 740.6924
180.5550, 752.1018
181.0371, 745.3060
181.5193, 722.2685
182.0014, 698.1822
182.4835, 679.4178
182.9656, 667.1677
183.4477, 665.9080
183.9298, 680.4921
184.4120, 701.7310
184.8941, 713.1467
185.3762, 714.9250
185.8583, 712.8578
186.3404, 709.7310
186.8225, 706.1031
187.3047, 705.0770
187.7868, 708.8243
188.2689, 714.9039
188.7510, 718.3551
189.2331, 719.4725
189.7152, 715.0699
190.1974, 694.3297
190.6795, 659.6270
191.1616, 640.7710
191.6437, 653.8205
192.1258, 690.2551
192.6080, 710.8815
193.0901, 714.3484
193.5722, 709.4355
194.0543, 706.6991
194.5364, 706.2832
195.0185, 700.5174
195.5007, 680.7446
195.9828, 649.5560
196.4649, 640.6948
196.9470, 658.8945
197.4291, 687.1439
197.9112, 702.0542
198.3934, 702.5981
198.8755, 698.5717
199.3576, 692.4507
199.8397, 684.1011
200.3218, 677.7861
200.8039, 673.8746
201.2861, 671.4464
201.7682, 668.4249
202.2503, 664.2447
202.7324, 662.0744
203.2145, 664.0292
203.6966, 670.7020
204.1788, 677.2835
204.6609, 684.6963
205.1430, 690.9210
205.6251, 689.8268
206.1072, 678.7527
206.5893, 668.6909
207.0715, 667.2631
207.5536, 677.3407
208.0357, 680.4507
208.5178, 672.5173
208.9999, 658.3616
209.4820, 652.9110
209.9642, 658.8930
210.4463, 667.1404
210.9284, 672.5982
211.4105, 675.1481
211.8926, 675.2858
212.3747, 673.4231
212.8569, 669.1529
213.3390, 658.4145
213.8211, 635.5858
214.3032, 617.0927
214.7853, 617.5565
215.2674, 646.6204
215.7496, 664.4664
216.2317, 661.1389
216.7138, 641.0748
217.1959, 637.2231
217.6780, 658.7557
218.1601, 682.3401
218.6423, 687.6752
219.1244, 665.2771
219.6065, 648.7763
220.0886, 644.1663
220.5707, 650.7737
221.0528, 656.8986
221.5350, 665.0899
222.0171, 669.6686
222.4992, 663.8655
222.9813, 639.9976
223.4634, 623.0855
223.9455, 618.6642
224.4277, 626.7782
224.9098, 636.8718
225.3919, 651.2335
225.8740, 665.2272
226.3561, 675.3468
226.8382, 683.8806
227.3204, 683.1120
227.8025, 666.1110
228.2846, 630.9432
228.7667, 616.0222
229.2488, 632.8271
229.7310, 659.2071
230.2131, 670.7490
230.6952, 658.9208
231.1773, 647.6643
231.6594, 640.4941
232.1415, 636.8019
232.6237, 645.1769
233.1058, 676.6604
233.5879, 710.9866
234.0700, 722.4182
234.5521, 699.0850
235.0342, 673.7473
235.5164, 651.7865
235.9985, 631.3345
236.4806, 628.1451
236.9627, 653.9775
237.4448, 687.9498
237.9269, 701.6664
238.4091, 682.7912
238.8912, 664.1486
239.3733, 654.4941
239.8554, 655.3175
240.3375, 657.7988
240.8196, 662.3345
241.3018, 668.2582
241.7839, 674.6230
242.2660, 680.9482
242.7481, 688.5890
243.2302, 698.5898
243.7123, 712.1144
244.1945, 722.8464
244.6766, 730.8099
245.1587, 735.9438
245.6408, 738.0298
246.1229, 735.8841
246.6050, 732.7192
247.0872, 729.5345
247.5693, 726.5261
248.0514, 722.5250
248.5335, 716.4739
249.0156, 710.0538
249.4977, 706.1348
249.9799, 705.0555
250.4620, 705.8772
250.9441, 708.6669
251.4262, 714.1219
251.9083, 719.0108
252.3904, 723.7151
252.8726, 727.5751
253.3547, 729.5007
253.8368, 729.8274
254.3189, 727.5239
254.8010, 720.5222
255.2831, 705.3315
255.7653, 699.8478
256.2474, 707.9991
256.7295, 723.2325
257.2116, 734.7980
257.6937, 744.3170
258.1758, 746.6535
258.6580, 736.5837
259.1401, 707.6811
259.6222, 694.9905
260.1043, 705.9623
260.5864, 727.6249
261.0685, 734.8936
261.5507, 720.6498
262.0328, 708.4525
262.5149, 707.8133
262.9970, 721.7070
263.4791, 733.3687
263.9612, 742.7834
264.4434, 750.1048
264.9255, 755.3914
265.4076, 758.0506
265.8897, 760.2404
266.3718, 762.4507
266.8539, 764.3953
267.3361, 768.7164
267.8182, 777.4874
268.3003, 786.3600
268.7824, 786.4955
269.2645, 774.4676
269.7466, 764.4637
270.2288, 762.7496
270.7109, 770.5349
271.1930, 775.4421
271.6751, 776.2167
272.1572, 775.8652
272.6393, 780.4334
273.1215, 791.6689
273.6036, 800.2482
274.0857, 800.0217
274.5678, 790.0506
275.0499, 790.8407
275.5320, 806.2917
276.0142, 825.9036
276.4963, 832.6516
276.9784, 824.6357
277.4605, 815.5004
277.9426, 810.4185
278.4247, 809.3011
278.9069, 807.3463
279.3890, 804.1467
279.8711, 801.0352
280.3532, 799.2711
280.8354, 798.7152
281.3175, 801.3238
281.7996, 808.9177
282.2817, 820.9756
282.7638, 832.0410
283.2459, 842.2126
283.7281, 851.0829
284.2102, 857.7706
284.6923, 862.2762
285.1744, 866.2613
285.6565, 869.5623
286.1386, 872.6557
286.6208, 879.7097
287.1029, 892.0605
287.5850, 902.4327
288.0671, 896.1620
288.5492, 875.6470
289.0313, 867.7672
289.5135, 892.2173
289.9956, 936.5205
290.4777, 955.8805
290.9598, 948.5220
291.4419, 932.5762
291.9240, 925.2178
292.4062, 925.5993
292.8883, 929.4088
293.3704, 938.0196
293.8525, 948.0797
294.3346, 949.9695
294.8167, 943.2774
295.2989, 937.4691
295.7810, 944.2131
296.2631, 959.7230
296.7452, 972.2075
297.2273, 977.0054
297.7094, 976.9043
298.1916, 974.5773
298.6737, 970.2095
299.1558, 968.2412
299.6379, 976.1301
300.1200, 989.0803
300.6021, 996.4009
301.0843, 990.2265
301.5664, 981.0927
302.0485, 982.7563
302.5306, 994.3646
303.0127, 1008.233
303.4948, 1023.745
303.9770, 1036.877
304.4591, 1040.721
304.9412, 1027.251
305.4233, 1011.325
305.9054, 1005.593
306.3875, 1009.414
306.8697, 1019.745
307.3518, 1044.931
307.8339, 1071.776
308.3160, 1083.319
308.7981, 1067.428
309.2802, 1048.317
309.7624, 1045.251
310.2445, 1054.261
310.7266, 1062.540
311.2087, 1064.228
311.6908, 1061.867
312.1729, 1056.866
312.6551, 1047.058
313.1372, 1039.593
313.6193, 1039.150
314.1014, 1044.068
314.5835, 1050.474
315.0656, 1061.374
315.5478, 1070.218
316.0299, 1072.015
316.5120, 1063.364
316.9941, 1054.590
317.4762, 1048.364
317.9583, 1044.779
318.4405, 1044.017
318.9226, 1050.466
319.4047, 1056.357
319.8868, 1057.509
320.3689, 1051.734
320.8510, 1047.181
321.3332, 1048.388
321.8153, 1051.322
322.2974, 1050.280
322.7795, 1035.768
323.2616, 1024.875
323.7437, 1024.892
324.2259, 1039.417
324.7080, 1049.485
325.1901, 1051.616
325.6722, 1048.918
326.1543, 1044.881
326.6364, 1039.071
327.1186, 1032.534
327.6007, 1022.729
328.0828, 1008.364
328.5649, 1004.941
329.0470, 1021.439
329.5291, 1043.134
330.0113, 1058.247
330.4934, 1068.395
330.9755, 1069.378
331.4576, 1055.734
331.9397, 1028.955
332.4218, 1013.132
332.9040, 1010.233
333.3861, 1016.100
333.8682, 1030.424
334.3503, 1062.564
334.8324, 1079.503
335.3145, 1071.578
335.7967, 1045.944
336.2788, 1037.987
336.7609, 1055.960
337.2430, 1073.564
337.7251, 1072.885
338.2072, 1050.197
338.6894, 1028.710
339.1715, 1007.540
339.6536, 990.4769
340.1357, 990.2577
340.6178, 1010.366
341.0999, 1029.562
341.5821, 1035.239
342.0642, 1027.499
342.5463, 1022.463
343.0284, 1021.635
343.5105, 1021.873
343.9926, 1017.486
344.4748, 1008.598
344.9569, 999.8989
345.4390, 992.6460
345.9211, 987.2370
346.4032, 986.3083
346.8853, 990.4304
347.3675, 995.7109
347.8496, 1001.032
348.3317, 1004.725
348.8138, 999.3680
349.2959, 972.1492
349.7780, 937.8406
350.2602, 926.4248
350.7423, 938.1547
351.2244, 951.0046
351.7065, 943.8347
352.1887, 924.1027
352.6708, 906.6624
353.1529, 896.4398
353.6350, 890.3982
354.1171, 884.9193
354.5992, 880.3438
355.0814, 879.1612
355.5635, 886.6756
356.0456, 897.0424
356.5277, 903.6140
357.0098, 903.9996
357.4919, 901.4995
357.9741, 896.1251
358.4562, 889.2492
358.9383, 884.6179
359.4204, 888.3607
359.9025, 892.2426
360.3846, 889.5362
360.8668, 875.7920
361.3489, 864.3365
361.8310, 863.4526
362.3131, 867.9126
362.7952, 868.7648
363.2773, 857.8237
363.7595, 847.6161
364.2416, 843.8149
364.7237, 848.4802
365.2058, 852.0369
365.6879, 853.9701
366.1700, 853.6058
366.6522, 850.1878
367.1343, 838.8303
367.6164, 829.4297
368.0985, 822.7161
368.5806, 818.5294
369.0627, 820.8096
369.5449, 838.8333
370.0270, 856.2104
370.5091, 860.8322
370.9912, 844.8541
371.4733, 829.3842
371.9554, 815.5422
372.4376, 803.7285
372.9197, 796.7271
373.4018, 795.7710
373.8839, 797.6146
374.3660, 801.6120
374.8481, 809.4055
375.3303, 811.8362
375.8124, 806.7419
376.2945, 797.5631
376.7766, 791.5280
377.2587, 788.9785
377.7408, 788.0195
378.2230, 789.2756
378.7051, 792.5301
379.1872, 789.6439
379.6693, 778.7116
380.1514, 767.5287
380.6335, 769.3842
381.1157, 782.9721
381.5978, 792.4919
382.0799, 787.9845
382.5620, 776.3002
383.0441, 778.8350
383.5262, 796.0777
384.0084, 809.3442
384.4905, 793.8010
384.9726, 761.1374
385.4547, 741.7550
385.9368, 751.3491
386.4189, 768.2298
386.9011, 764.5376
387.3832, 743.9899
387.8653, 725.3154
388.3474, 716.7698
388.8295, 718.0658
389.3116, 732.3494
389.7938, 767.1358
390.2759, 796.5232
390.7580, 799.8907
391.2401, 785.9814
391.7222, 773.3466
392.2043, 772.6363
392.6865, 773.3715
393.1686, 768.5344
393.6507, 756.0707
394.1328, 746.4148
394.6149, 743.6031
395.0970, 745.0976
395.5792, 748.0537
396.0613, 753.8530
396.5434, 759.0352
397.0255, 764.5759
397.5076, 770.4118
397.9897, 769.5428
398.4719, 755.5751
398.9540, 738.6983
399.4361, 724.8429
399.9182, 712.1078
400.4003, 705.3191
400.8824, 706.1183
401.3646, 713.1085
401.8467, 721.9424
402.3288, 735.0376
402.8109, 745.8137
403.2930, 751.3160
403.7751, 751.0148
404.2573, 746.9445
404.7394, 737.4414
405.2215, 726.2515
405.7036, 719.3549
406.1857, 717.0319
406.6678, 717.1085
407.1500, 719.5692
407.6321, 723.9829
408.1142, 726.7266
408.5963, 727.2197
409.0784, 729.4888
409.5605, 741.5786
410.0427, 760.6095
410.5248, 770.3998
411.0069, 764.3460
411.4890, 750.5307
411.9711, 742.0272
412.4532, 738.2523
412.9354, 735.5157
413.4175, 731.4131
413.8996, 726.7982
414.3817, 722.0977
414.8638, 716.4003
415.3459, 714.2772
415.8281, 723.1582
416.3102, 738.3782
416.7923, 750.6586
417.2744, 755.6530
417.7565, 755.9843
418.2386, 751.5433
418.7208, 742.0399
419.2029, 734.3120
419.6850, 732.5906
420.1671, 733.3870
420.6492, 733.3591
421.1313, 729.6083
421.6135, 727.1404
422.0956, 728.6671
422.5777, 733.2145
423.0598, 734.7216
423.5420, 726.1518
424.0241, 719.3146
424.5062, 720.8286
424.9883, 745.1232
425.4704, 751.0028
425.9525, 722.1048
426.4347, 681.4533
426.9168, 673.8140
427.3989, 720.4584
427.8810, 759.2419
428.3631, 767.5616
428.8452, 743.9912
429.3274, 731.3877
429.8095, 732.1453
430.2916, 739.2932
430.7737, 747.8486
431.2558, 758.1376
431.7379, 762.9265
432.2201, 758.0645
432.7022, 748.8064
433.1843, 751.4897
433.6664, 766.0603
434.1485, 778.6063
434.6306, 777.5905
435.1128, 767.2299
435.5949, 758.4848
436.0770, 752.1100
436.5591, 749.3452
437.0412, 755.6335
437.5233, 767.1251
438.0055, 774.0054
438.4876, 766.6149
438.9697, 755.6125
439.4518, 750.6395
439.9339, 751.8275
440.4160, 756.5062
440.8982, 765.9920
441.3803, 776.8779
441.8624, 785.8990
442.3445, 790.8417
442.8266, 795.4082
443.3087, 803.1326
443.7909, 811.9257
444.2730, 815.0275
444.7551, 806.4122
445.2372, 795.5273
445.7193, 785.6706
446.2014, 775.5795
446.6836, 770.2833
447.1657, 768.6868
447.6478, 772.3688
448.1299, 785.3983
448.6120, 823.3832
449.0941, 842.7925
449.5763, 826.4540
450.0584, 778.5671
450.5405, 756.6625
451.0226, 767.2153
451.5047, 788.7298
451.9868, 808.5454
452.4690, 827.0720
452.9511, 839.0737
453.4332, 842.8115
453.9153, 841.8818
454.3974, 841.6296
454.8795, 842.1367
455.3617, 845.1830
455.8438, 857.2012
456.3259, 871.8962
456.8080, 869.2803
457.2901, 848.2029
457.7722, 827.7456
458.2544, 826.0053
458.7365, 837.1891
459.2186, 851.8411
459.7007, 874.9181
460.1828, 891.1047
460.6649, 880.0959
461.1471, 849.4371
461.6292, 826.0760
462.1113, 827.4029
462.5934, 837.4818
463.0755, 845.0863
463.5576, 846.7343
464.0398, 852.9285
464.5219, 875.8655
465.0040, 902.2734
465.4861, 915.0989
465.9682, 900.4940
466.4503, 884.0915
466.9325, 868.5266
467.4146, 854.1047
467.8967, 847.2835
468.3788, 855.8262
468.8609, 863.2256
469.3430, 856.8582
469.8252, 826.3138
470.3073, 814.6860
470.7894, 830.9480
471.2715, 860.0807
471.7536, 872.2001
472.2357, 865.3317
472.7179, 854.9821
473.2000, 844.7702
473.6821, 835.7807
474.1642, 835.0973
474.6463, 843.2451
475.1284, 854.1999
475.6106, 865.5299
476.0927, 875.4553
476.5748, 877.2486
477.0569, 865.5851
477.5390, 852.2531
478.0211, 854.7913
478.5033, 867.9604
478.9854, 874.9966
479.4675, 858.0208
479.9496, 836.6202
480.4317, 827.5045
480.9138, 833.3831
481.3960, 840.9615
481.8781, 841.4570
482.3602, 841.8152
482.8423, 849.0793
483.3244, 877.8495
483.8065, 899.5210
484.2887, 902.4213
484.7708, 890.7951
485.2529, 888.3585
485.7350, 905.9816
486.2171, 922.3910
486.6992, 928.7434
487.1814, 921.9660
487.6635, 914.9532
488.1456, 906.7018
488.6277, 899.2845
489.1098, 896.4857
489.5919, 899.7573
490.0741, 899.3692
490.5562, 890.2495
491.0383, 876.7392
491.5204, 876.2252
492.0026, 889.2383
492.4847, 905.3474
492.9668, 919.1486
493.4489, 930.2516
493.9310, 938.1804
494.4131, 943.1734
494.8953, 943.2601
495.3774, 932.4207
495.8595, 914.9651
496.3416, 900.7907
496.8237, 890.6115
497.3058, 887.6118
497.7880, 899.3094
498.2701, 923.2222
498.7522, 941.2994
499.2343, 941.3019
499.7164, 934.8433
500.1985, 928.8323
500.6807, 920.7759
501.1628, 920.5867
501.6449, 938.1917
502.1270, 962.8651
502.6091, 976.7466
503.0912, 973.4755
503.5734, 967.2488
504.0555, 959.0921
504.5376, 949.4097
505.0197, 945.9976
505.5018, 951.6082
505.9839, 958.2613
506.4661, 959.0051
506.9482, 952.7805
507.4303, 953.5436
507.9124, 964.8755
508.3945, 978.5395
508.8766, 976.5240
509.3588, 961.3293
509.8409, 954.9130
510.3230, 974.7502
510.8051, 1005.641
511.2872, 1016.374
511.7693, 1008.287
512.2515, 1001.201
512.7336, 1013.949
513.2157, 1033.924
513.6978, 1045.775
514.1799, 1043.834
514.6620, 1039.861
515.1442, 1037.819
515.6263, 1038.427
516.1084, 1042.890
516.5905, 1061.609
517.0726, 1074.533
517.5547, 1069.246
518.0369, 1044.914
518.5190, 1034.687
519.0011, 1046.509
519.4832, 1066.426
519.9653, 1088.070
520.4474, 1115.747
520.9296, 1134.123
521.4117, 1141.141
521.8938, 1140.699
522.3759, 1138.059
522.8580, 1132.436
523.3401, 1129.839
523.8223, 1133.055
524.3044, 1140.600
524.7865, 1145.707
525.2686, 1148.254
525.7507, 1155.142
526.2328, 1181.466
526.7150, 1214.566
527.1971, 1224.577
527.6792, 1201.343
528.1613, 1176.213
528.6434, 1176.951
529.1255, 1194.733
529.6077, 1214.073
530.0898, 1233.910
530.5719, 1249.004
531.0540, 1256.155
531.5361, 1255.775
532.0182, 1252.152
532.5004, 1236.404
532.9825, 1225.330
533.4646, 1229.444
533.9467, 1260.487
534.4288, 1282.529
534.9109, 1292.352
535.3931, 1295.477
535.8752, 1298.081
536.3573, 1298.407
536.8394, 1304.108
537.3215, 1320.372
537.8036, 1342.250
538.2858, 1347.417
538.7679, 1334.135
539.2500, 1321.198
539.7321, 1321.113
540.2142, 1331.219
540.6964, 1342.526
541.1785, 1354.514
541.6606, 1367.386
542.1427, 1381.007
542.6248, 1395.565
543.1069, 1412.096
543.5891, 1438.112
544.0712, 1457.373
544.5533, 1450.202
545.0354, 1425.893
545.5175, 1412.665
545.9996, 1432.151
546.4818, 1456.066
546.9639, 1469.663
547.4460, 1468.752
547.9281, 1473.547
548.4102, 1492.992
548.8923, 1513.602
549.3745, 1523.634
549.8566, 1513.124
550.3387, 1515.207
550.8208, 1537.820
551.3029, 1571.076
551.7850, 1591.629
552.2672, 1598.586
552.7493, 1600.255
553.2314, 1595.188
553.7135, 1587.670
554.1956, 1597.005
554.6777, 1623.415
555.1599, 1653.667
555.6420, 1679.748
556.1241, 1701.140
556.6062, 1715.173
557.0883, 1718.716
557.5704, 1722.995
558.0526, 1737.040
558.5347, 1757.451
559.0168, 1778.797
559.4989, 1806.811
559.9810, 1827.231
560.4631, 1826.358
560.9453, 1807.687
561.4274, 1805.635
561.9095, 1841.279
562.3916, 1880.324
562.8737, 1907.281
563.3558, 1914.620
563.8380, 1935.557
564.3201, 1977.004
564.8022, 2023.003
565.2843, 2055.354
565.7664, 2073.054
566.2485, 2086.267
566.7307, 2095.261
567.2128, 2103.278
567.6949, 2118.462
568.1770, 2140.158
568.6591, 2161.662
569.1412, 2175.318
569.6234, 2188.397
570.1055, 2213.179
570.5876, 2249.918
571.0697, 2289.025
571.5518, 2328.576
572.0339, 2365.254
572.5161, 2394.755
572.9982, 2411.924
573.4803, 2429.585
573.9624, 2449.582
574.4445, 2472.785
574.9266, 2500.269
575.4088, 2540.028
575.8909, 2574.164
576.3730, 2596.918
576.8551, 2609.814
577.3372, 2626.891
577.8193, 2648.720
578.3015, 2673.044
578.7836, 2699.023
579.2657, 2726.352
579.7478, 2755.884
580.2299, 2787.771
580.7120, 2820.739
581.1942, 2855.295
581.6763, 2889.612
582.1584, 2917.312
582.6405, 2932.288
583.1226, 2946.363
583.6047, 2971.175
584.0869, 3004.284
584.5690, 3039.235
585.0511, 3074.947
585.5332, 3110.062
586.0153, 3142.631
586.4974, 3172.601
586.9796, 3205.939
587.4617, 3259.715
587.9438, 3305.093
588.4259, 3323.273
588.9080, 3286.391
589.3901, 3282.094
589.8723, 3324.098
590.3544, 3384.605
590.8365, 3419.570
591.3186, 3425.048
591.8007, 3442.217
592.2828, 3486.337
592.7650, 3544.177
593.2471, 3582.772
593.7292, 3603.923
594.2113, 3624.108
594.6934, 3656.840
595.1755, 3692.982
595.6577, 3720.340
596.1398, 3738.224
596.6219, 3753.264
597.1040, 3767.250
597.5862, 3781.543
598.0683, 3797.446
598.5504, 3813.914
599.0325, 3834.060
599.5146, 3860.219
599.9968, 3889.937
600.4789, 3919.800
600.9610, 3955.877
601.4431, 3981.080
601.9252, 3986.585
602.4073, 3978.126
602.8895, 3988.323
603.3716, 4022.092
603.8537, 4053.075
604.3358, 4063.262
604.8179, 4056.893
605.3000, 4058.197
605.7822, 4068.157
606.2643, 4080.825
606.7464, 4094.523
607.2285, 4106.413
607.7106, 4111.245
608.1927, 4105.527
608.6749, 4097.550
609.1570, 4093.619
609.6391, 4090.988
610.1212, 4085.087
610.6033, 4074.737
611.0854, 4060.710
611.5676, 4037.891
612.0497, 4008.646
612.5318, 3995.340
613.0139, 4011.335
613.4960, 4024.157
613.9781, 4019.852
614.4603, 3997.894
614.9424, 3963.451
615.4245, 3911.788
615.9066, 3864.300
616.3887, 3850.017
616.8708, 3861.294
617.3530, 3856.447
617.8351, 3826.884
618.3172, 3783.540
618.7993, 3725.649
619.2814, 3663.620
619.7635, 3619.301
620.2457, 3618.735
620.7278, 3623.300
621.2099, 3613.824
621.6920, 3591.362
622.1741, 3562.167
622.6563, 3520.574
623.1384, 3479.124
623.6205, 3442.385
624.1026, 3410.382
624.5847, 3384.373
625.0668, 3370.633
625.5490, 3353.449
626.0311, 3315.535
626.5132, 3254.186
626.9953, 3211.018
627.4774, 3194.470
627.9595, 3184.214
628.4417, 3146.622
628.9238, 3088.892
629.4059, 3040.577
629.8880, 3016.319
630.3701, 3000.320
630.8522, 2980.196
