##NAMES=Magnesiotaaffeite-2N2S
##RRUFFID=X090001
##IDEAL CHEMISTRY=Mg_3_BeAl_8_O_16_
##LOCALITY=Ratnapura, Sri Lanka
##OWNER=Bill Pinch
##SOURCE=William W. Pinch
##DESCRIPTION=Dark grey with a hint of purple, flattened tabular hexagonal crystal
##STATUS=The identification of this mineral has been confirmed by single-crystal X-ray diffraction.
##URL=rruff.info/X090001
92.37695, 304.3333
92.85907, 308.3574
93.34119, 308.0354
93.82330, 300.3643
94.30542, 290.8110
94.78754, 282.1499
95.26965, 274.7780
95.75177, 268.2224
96.23389, 262.4944
96.71600, 257.6136
97.19812, 253.9609
97.68024, 251.8436
98.16235, 250.1355
98.64447, 247.1519
99.12659, 242.1965
99.60870, 237.3877
100.0908, 233.7032
100.5729, 231.0366
101.0551, 229.3752
101.5372, 228.7370
102.0193, 228.8726
102.5014, 228.6639
102.9835, 227.3454
103.4656, 226.3982
103.9478, 226.3879
104.4299, 226.9170
104.9120, 227.2733
105.3941, 226.9239
105.8762, 225.8243
106.3583, 224.0340
106.8405, 220.8116
107.3226, 217.5689
107.8047, 214.9211
108.2868, 212.9782
108.7689, 211.7756
109.2510, 211.6814
109.7332, 212.8038
110.2153, 213.2803
110.6974, 212.4348
111.1795, 210.9115
111.6616, 209.5869
112.1437, 208.5640
112.6259, 207.9849
113.1080, 208.3145
113.5901, 209.4709
114.0722, 210.1481
114.5543, 209.0137
115.0364, 206.1878
115.5185, 204.3228
116.0007, 204.8285
116.4828, 205.8793
116.9649, 206.5524
117.4470, 206.6843
117.9291, 206.3014
118.4112, 205.1258
118.8934, 202.2415
119.3755, 200.9147
119.8576, 202.6768
120.3397, 205.2384
120.8218, 206.7871
121.3039, 206.5931
121.7861, 205.2448
122.2682, 204.4421
122.7503, 205.0918
123.2324, 202.9279
123.7145, 205.7697
124.1966, 207.2996
124.6788, 207.5883
125.1609, 202.9123
125.6430, 204.6518
126.1251, 203.8230
126.6072, 202.8908
127.0893, 205.5390
127.5715, 201.5953
128.0536, 204.1907
128.5357, 204.1786
129.0178, 205.3627
129.4999, 203.9628
129.9821, 203.3636
130.4642, 205.3533
130.9463, 205.9127
131.4284, 204.2230
131.9105, 205.4950
132.3926, 201.4810
132.8748, 202.1092
133.3569, 204.7417
133.8390, 203.1920
134.3211, 204.5213
134.8032, 204.7568
135.2853, 200.0148
135.7674, 203.9348
136.2496, 204.1115
136.7317, 200.4448
137.2138, 204.0740
137.6959, 200.9415
138.1780, 200.2251
138.6601, 201.3277
139.1423, 200.5382
139.6244, 202.7368
140.1065, 202.0607
140.5886, 201.1295
141.0707, 201.3220
141.5528, 198.3380
142.0350, 201.2528
142.5171, 200.1415
142.9992, 201.0345
143.4813, 202.3833
143.9634, 200.2591
144.4455, 201.8158
144.9277, 197.6693
145.4098, 198.2986
145.8919, 198.4158
146.3740, 201.5862
146.8561, 197.4755
147.3382, 197.9801
147.8204, 200.4509
148.3025, 200.1753
148.7846, 201.0508
149.2667, 200.2192
149.7488, 200.0580
150.2309, 199.0525
150.7131, 198.0226
151.1952, 196.9666
151.6773, 196.0595
152.1594, 195.9778
152.6415, 197.3730
153.1236, 199.3714
153.6058, 200.6205
154.0879, 201.0218
154.5700, 200.9643
155.0521, 200.6694
155.5342, 200.1331
156.0163, 199.4877
156.4985, 198.3344
156.9806, 197.3405
157.4627, 197.2202
157.9448, 198.2621
158.4269, 199.6893
158.9090, 200.3559
159.3912, 200.0527
159.8733, 199.4503
160.3554, 198.2812
160.8375, 197.1276
161.3196, 196.5840
161.8017, 196.9431
162.2839, 197.8776
162.7660, 198.4058
163.2481, 198.1826
163.7302, 197.9806
164.2123, 198.0266
164.6944, 198.1306
165.1766, 198.0340
165.6587, 197.5792
166.1408, 196.8331
166.6229, 196.2224
167.1050, 195.4520
167.5871, 195.1316
168.0693, 195.7942
168.5514, 197.0062
169.0335, 197.8916
169.5156, 197.8136
169.9977, 196.8649
170.4798, 196.5570
170.9620, 197.7118
171.4441, 198.5954
171.9262, 198.1026
172.4083, 196.4936
172.8904, 195.0625
173.3725, 194.8476
173.8547, 195.7385
174.3368, 196.1508
174.8189, 195.8389
175.3010, 195.2268
175.7831, 194.5084
176.2652, 193.6793
176.7474, 193.0999
177.2295, 193.2819
177.7116, 193.9266
178.1937, 194.2983
178.6758, 194.0568
179.1579, 193.5232
179.6401, 193.1386
180.1222, 192.9054
180.6043, 192.8279
181.0864, 192.9714
181.5685, 193.2552
182.0506, 193.5699
182.5328, 193.9505
183.0149, 194.3172
183.4970, 194.3971
183.9791, 194.0334
184.4612, 193.6024
184.9433, 193.1606
185.4255, 192.7831
185.9076, 192.6359
186.3897, 192.9861
186.8718, 193.7332
187.3539, 193.7595
187.8360, 192.4192
188.3182, 190.9664
188.8003, 189.5095
189.2824, 188.2171
189.7645, 187.3398
190.2466, 187.1038
190.7287, 187.5275
191.2109, 188.1422
191.6930, 189.5224
192.1751, 190.5491
192.6572, 190.6111
193.1393, 189.9516
193.6214, 189.2787
194.1036, 189.2615
194.5857, 190.0536
195.0678, 190.2165
195.5499, 189.2739
196.0320, 188.2876
196.5141, 187.8542
196.9963, 187.9029
197.4784, 187.8907
197.9605, 187.2459
198.4426, 185.8253
198.9247, 185.0612
199.4068, 185.5811
199.8890, 186.2142
200.3711, 186.0368
200.8532, 185.0320
201.3353, 184.0530
201.8174, 183.9641
202.2995, 184.8331
202.7817, 185.3374
203.2638, 185.6080
203.7459, 185.3921
204.2280, 184.0296
204.7101, 181.3727
205.1922, 179.0531
205.6744, 178.9874
206.1565, 180.6970
206.6386, 181.9245
207.1207, 181.9018
207.6028, 181.2833
208.0849, 181.0056
208.5671, 181.2365
209.0492, 181.4101
209.5313, 180.9603
210.0134, 180.1093
210.4955, 179.2931
210.9776, 178.5668
211.4598, 177.9938
211.9419, 177.7817
212.4240, 178.1219
212.9061, 178.4263
213.3882, 178.2981
213.8703, 177.8943
214.3525, 177.4911
214.8346, 177.2395
215.3167, 177.0963
215.7988, 176.9317
216.2809, 176.8394
216.7630, 176.5556
217.2451, 175.7864
217.7273, 174.7945
218.2094, 174.0336
218.6915, 173.8047
219.1736, 174.0344
219.6557, 174.3049
220.1378, 174.7455
220.6200, 175.0542
221.1021, 175.1732
221.5842, 175.1059
222.0663, 174.8149
222.5484, 174.2043
223.0305, 173.3500
223.5127, 172.9942
223.9948, 173.7782
224.4769, 174.4221
224.9590, 174.5390
225.4411, 174.3423
225.9232, 174.2639
226.4054, 174.6335
226.8875, 175.3725
227.3696, 175.5473
227.8517, 174.4554
228.3338, 173.5168
228.8159, 173.1579
229.2981, 173.1594
229.7802, 173.0656
230.2623, 172.5515
230.7444, 171.6902
231.2265, 171.3412
231.7086, 171.5994
232.1908, 172.2091
232.6729, 173.4821
233.1550, 175.0568
233.6371, 176.3183
234.1192, 176.9120
234.6013, 176.8582
235.0835, 176.2290
235.5656, 173.9745
236.0477, 172.3847
236.5298, 172.5013
237.0119, 173.8064
237.4940, 175.1885
237.9762, 176.0683
238.4583, 176.5073
238.9404, 176.7972
239.4225, 177.0585
239.9046, 177.0811
240.3867, 176.4107
240.8689, 175.4084
241.3510, 175.1123
241.8331, 176.2802
242.3152, 178.2179
242.7973, 178.8334
243.2794, 177.5904
243.7616, 176.1460
244.2437, 174.9369
244.7258, 174.0398
245.2079, 173.8054
245.6900, 174.6469
246.1721, 175.9188
246.6543, 176.2901
247.1364, 175.5285
247.6185, 174.6303
248.1006, 173.9855
248.5827, 173.5886
249.0648, 173.4300
249.5470, 173.5645
250.0291, 173.8841
250.5112, 174.2074
250.9933, 174.5287
251.4754, 174.8837
251.9576, 175.3504
252.4397, 175.8857
252.9218, 176.3480
253.4039, 176.8157
253.8860, 177.0168
254.3681, 176.4981
254.8503, 175.2584
255.3324, 174.3291
255.8145, 174.5182
256.2966, 175.6269
256.7787, 176.6772
257.2608, 177.6051
257.7430, 178.2786
258.2251, 178.6249
258.7072, 178.6649
259.1893, 178.5312
259.6714, 178.1333
260.1535, 177.5664
260.6357, 177.4786
261.1178, 178.6076
261.5999, 179.2645
262.0820, 177.8778
262.5641, 175.1026
263.0462, 172.9585
263.5284, 172.9965
264.0105, 174.8801
264.4926, 176.6867
264.9747, 178.6691
265.4568, 180.1377
265.9389, 180.5994
266.4211, 180.3853
266.9032, 180.1727
267.3853, 180.4443
267.8674, 181.0320
268.3495, 181.1623
268.8316, 180.4925
269.3138, 179.8663
269.7959, 179.5762
270.2780, 179.5277
270.7601, 179.5620
271.2422, 179.5659
271.7243, 179.6244
272.2065, 180.1155
272.6886, 181.6076
273.1707, 182.5327
273.6528, 182.1821
274.1349, 181.2367
274.6170, 180.4204
275.0992, 180.0365
275.5813, 180.0383
276.0634, 180.3384
276.5455, 181.0658
277.0276, 181.8743
277.5097, 183.0331
277.9919, 184.0661
278.4740, 184.4455
278.9561, 183.9893
279.4382, 183.0989
279.9203, 182.4765
280.4024, 182.0801
280.8846, 182.0948
281.3667, 182.5936
281.8488, 183.3907
282.3309, 184.5347
282.8130, 185.9690
283.2951, 187.3043
283.7773, 187.8689
284.2594, 187.1834
284.7415, 186.9190
285.2236, 187.7509
285.7057, 188.4773
286.1878, 188.1577
286.6700, 186.8213
287.1521, 185.3519
287.6342, 184.7710
288.1163, 185.2831
288.5984, 185.9322
289.0805, 187.5691
289.5627, 188.5890
290.0448, 187.6048
290.5269, 185.1164
291.0090, 182.9938
291.4911, 183.1364
291.9732, 185.8288
292.4554, 187.1263
292.9375, 185.7110
293.4196, 184.2407
293.9017, 183.6360
294.3838, 183.6612
294.8659, 183.5744
295.3481, 182.7811
295.8302, 181.3882
296.3123, 180.8929
296.7944, 182.6322
297.2765, 183.8702
297.7586, 183.8624
298.2408, 183.0598
298.7229, 182.0723
299.2050, 181.2149
299.6871, 180.5636
300.1692, 180.4385
300.6513, 181.8232
301.1335, 182.5408
301.6156, 181.6972
302.0977, 180.3891
302.5798, 179.9866
303.0619, 181.0090
303.5440, 182.6275
304.0262, 183.0441
304.5083, 180.8367
304.9904, 179.5389
305.4725, 179.8123
305.9546, 180.5570
306.4367, 180.8835
306.9189, 180.5868
307.4010, 180.0777
307.8831, 179.9936
308.3652, 180.8004
308.8473, 180.7546
309.3294, 179.5565
309.8116, 177.9054
310.2937, 175.9668
310.7758, 173.9097
311.2579, 172.0910
311.7400, 170.8954
312.2221, 170.3909
312.7043, 169.9892
313.1864, 169.8667
313.6685, 169.6588
314.1506, 169.1340
314.6327, 168.3945
315.1148, 167.7080
315.5970, 167.2785
316.0791, 167.0849
316.5612, 166.8371
317.0433, 166.6331
317.5254, 166.2645
318.0075, 165.5853
318.4897, 164.7342
318.9718, 163.8315
319.4539, 162.9230
319.9360, 162.1555
320.4181, 162.0075
320.9002, 163.0863
321.3824, 164.0744
321.8645, 165.1623
322.3466, 166.0055
322.8287, 166.1287
323.3108, 165.4135
323.7929, 164.3460
324.2751, 163.7730
324.7572, 163.9978
325.2393, 164.1628
325.7214, 164.4877
326.2035, 164.6077
326.6856, 164.0625
327.1678, 162.9255
327.6499, 161.8301
328.1320, 161.4884
328.6141, 162.0633
329.0962, 162.6131
329.5783, 163.4687
330.0605, 163.9973
330.5426, 163.6614
331.0247, 162.7353
331.5068, 161.9641
331.9889, 161.9529
332.4710, 162.6326
332.9532, 162.8751
333.4353, 162.1107
333.9174, 161.5078
334.3995, 161.3803
334.8816, 161.5305
335.3637, 161.6565
335.8459, 161.6037
336.3280, 161.4562
336.8101, 161.4941
337.2922, 162.1646
337.7743, 162.3224
338.2564, 161.4603
338.7386, 160.3316
339.2206, 159.5513
339.7028, 159.3028
340.1849, 159.4421
340.6670, 159.8555
341.1491, 160.9094
341.6312, 161.2903
342.1133, 160.3410
342.5955, 159.3547
343.0776, 159.1688
343.5597, 159.7039
344.0418, 160.2546
344.5239, 160.1352
345.0060, 159.3018
345.4882, 158.5744
345.9703, 157.7459
346.4524, 157.2526
346.9345, 157.4308
347.4166, 158.0153
347.8987, 158.4867
348.3809, 158.4715
348.8630, 158.1995
349.3451, 158.6724
349.8272, 160.6352
350.3093, 162.2022
350.7914, 163.1959
351.2736, 163.5916
351.7557, 163.1350
352.2378, 161.7547
352.7199, 160.1308
353.2020, 159.3959
353.6841, 159.7224
354.1663, 160.4379
354.6484, 162.1366
355.1305, 163.6844
355.6126, 164.2102
356.0947, 163.7646
356.5768, 163.2242
357.0590, 163.5535
357.5411, 164.8011
358.0232, 165.6105
358.5053, 165.6273
358.9874, 165.5695
359.4695, 165.7063
359.9517, 165.9991
360.4338, 166.3605
360.9159, 166.8038
361.3980, 167.2369
361.8801, 167.2945
362.3622, 166.6690
362.8444, 166.3568
363.3265, 166.7710
363.8086, 167.6195
364.2907, 168.7952
364.7728, 170.3721
365.2549, 171.6954
365.7371, 171.5417
366.2192, 169.6502
366.7013, 168.7164
367.1834, 170.2607
367.6655, 172.2751
368.1476, 173.1328
368.6298, 172.8307
369.1119, 172.6461
369.5940, 173.7355
370.0761, 175.7979
370.5582, 177.4088
371.0403, 178.4577
371.5225, 179.0112
372.0046, 178.9131
372.4867, 178.3918
372.9688, 177.9600
373.4509, 177.8506
373.9330, 177.9140
374.4152, 178.0510
374.8973, 178.3123
375.3794, 178.1911
375.8615, 177.1664
376.3436, 175.7125
376.8257, 174.5064
377.3079, 173.5668
377.7900, 172.9781
378.2721, 173.0889
378.7542, 173.6881
379.2363, 173.7915
379.7184, 172.9499
380.2006, 171.8047
380.6827, 171.0808
381.1648, 170.7454
381.6469, 170.8120
382.1290, 171.7138
382.6111, 172.8492
383.0933, 173.2899
383.5754, 172.9072
384.0575, 172.3267
384.5396, 171.8184
385.0217, 171.5204
385.5038, 172.0457
385.9860, 174.5208
386.4681, 176.8206
386.9502, 177.2356
387.4323, 176.2868
387.9144, 175.9064
388.3965, 177.1547
388.8787, 179.3029
389.3608, 180.2830
389.8429, 179.0662
390.3250, 179.0235
390.8071, 181.6601
391.2892, 185.4820
391.7714, 188.8062
392.2535, 191.2312
392.7356, 193.1173
393.2177, 194.7575
393.6998, 195.9894
394.1819, 197.9371
394.6641, 200.9303
395.1462, 204.2814
395.6283, 207.7545
396.1104, 211.2629
396.5925, 214.5338
397.0746, 217.3197
397.5568, 219.8488
398.0389, 223.5543
398.5210, 230.4367
399.0031, 236.0539
399.4852, 239.2928
399.9673, 241.3204
400.4495, 243.2127
400.9316, 245.3711
401.4137, 247.9399
401.8958, 251.2519
402.3779, 255.8354
402.8600, 259.7016
403.3422, 263.0949
403.8243, 265.6928
404.3064, 266.9290
404.7885, 267.1552
405.2706, 267.3027
405.7527, 268.0253
406.2349, 269.3038
406.7170, 270.9811
407.1991, 273.2002
407.6812, 275.6393
408.1633, 278.2457
408.6454, 280.9918
409.1276, 283.7587
409.6097, 286.4867
410.0918, 289.5135
410.5739, 293.4596
411.0560, 298.4660
411.5381, 303.5568
412.0203, 308.4412
412.5024, 313.4978
412.9845, 319.3595
413.4666, 325.7350
413.9487, 331.3609
414.4308, 335.5171
414.9130, 338.2211
415.3951, 339.6335
415.8772, 339.9817
416.3593, 338.4390
416.8414, 333.8950
417.3235, 327.3896
417.8057, 319.9879
418.2878, 311.6478
418.7699, 303.0742
419.2520, 294.8150
419.7341, 286.8634
420.2162, 279.0745
420.6984, 271.1945
421.1805, 263.8197
421.6626, 257.9258
422.1447, 253.4505
422.6268, 249.0254
423.1089, 243.2320
423.5911, 237.6060
424.0732, 234.5556
424.5553, 234.3651
425.0374, 234.9191
425.5195, 234.6599
426.0016, 233.7773
426.4838, 233.5947
426.9659, 234.5108
427.4480, 235.6780
427.9301, 236.7144
428.4122, 237.7247
428.8943, 238.9417
429.3765, 240.4658
429.8586, 242.1804
430.3407, 243.8789
430.8228, 245.4930
431.3049, 247.2753
431.7870, 249.6680
432.2692, 251.8947
432.7513, 253.2088
433.2334, 253.7182
433.7155, 254.2613
434.1976, 255.6059
434.6797, 257.6252
435.1619, 258.4557
435.6440, 256.9122
436.1261, 255.5043
436.6082, 255.2669
437.0903, 255.1111
437.5724, 253.4328
438.0546, 249.7532
438.5367, 245.4735
439.0188, 242.9593
439.5009, 242.9724
439.9830, 242.2929
440.4651, 240.0195
440.9473, 237.7620
441.4294, 236.3269
441.9115, 235.5509
442.3936, 234.7941
442.8757, 233.5532
443.3578, 232.0724
443.8400, 231.3491
444.3221, 231.8395
444.8042, 231.9372
445.2863, 231.0508
445.7684, 229.5199
446.2505, 227.5390
446.7327, 225.1348
447.2148, 222.4934
447.6969, 219.8221
448.1790, 217.0856
448.6611, 213.9842
449.1432, 210.3268
449.6254, 206.6039
450.1075, 203.4671
450.5896, 200.6653
451.0717, 197.3112
451.5538, 192.6189
452.0359, 187.6762
452.5181, 183.4913
453.0002, 180.0130
453.4823, 176.9757
453.9644, 174.4025
454.4465, 172.0302
454.9286, 169.1606
455.4108, 165.5257
455.8929, 162.3121
456.3750, 159.8497
456.8571, 157.9129
457.3392, 156.1900
457.8214, 154.6636
458.3035, 153.6661
458.7856, 153.6445
459.2677, 154.6196
459.7498, 154.5493
460.2319, 152.7355
460.7141, 150.8623
461.1962, 148.8696
461.6783, 147.2722
462.1604, 147.1082
462.6425, 148.7088
463.1246, 150.7979
463.6068, 151.0056
464.0889, 148.1275
464.5710, 146.5703
465.0531, 147.4851
465.5352, 148.5659
466.0173, 148.5461
466.4995, 147.7526
466.9816, 147.3179
467.4637, 148.0937
467.9458, 149.6180
468.4279, 150.3477
468.9100, 149.9312
469.3922, 149.6382
469.8743, 149.8345
470.3564, 150.3116
470.8385, 151.0434
471.3206, 152.0121
471.8027, 152.8266
472.2849, 153.1944
472.7670, 153.1608
473.2491, 152.7639
473.7312, 151.7986
474.2133, 151.0748
474.6954, 151.3984
475.1776, 152.3965
475.6597, 153.2318
476.1418, 153.6741
476.6239, 154.0385
477.1060, 154.4219
477.5881, 154.8891
478.0703, 155.7758
478.5524, 157.2990
479.0345, 158.8411
479.5166, 159.3602
479.9987, 158.4967
480.4808, 158.3327
480.9630, 159.5678
481.4451, 161.0429
481.9272, 161.9824
482.4093, 162.4509
482.8914, 162.8841
483.3735, 163.5556
483.8557, 164.3557
484.3378, 164.8833
484.8199, 164.7053
485.3020, 164.8783
485.7841, 165.8496
486.2662, 166.8844
486.7484, 167.4655
487.2305, 167.5113
487.7126, 167.1684
488.1947, 166.4813
488.6768, 165.4836
489.1589, 164.7690
489.6411, 164.7325
490.1232, 164.3332
490.6053, 162.9967
491.0874, 161.2904
491.5695, 159.8714
492.0516, 158.9344
492.5338, 158.1532
493.0159, 157.2177
493.4980, 156.1411
493.9801, 154.9974
494.4622, 153.5936
494.9443, 152.5168
495.4265, 152.8179
495.9086, 153.9020
496.3907, 154.0083
496.8728, 151.8592
497.3549, 149.3338
497.8370, 147.8344
498.3192, 147.2566
498.8013, 147.3678
499.2834, 148.2374
499.7655, 149.3154
500.2476, 149.6628
500.7297, 149.0238
501.2119, 148.5628
501.6940, 148.3245
502.1761, 148.3045
502.6582, 148.5488
503.1403, 149.0140
503.6224, 149.6440
504.1045, 150.4429
504.5866, 151.2625
505.0688, 151.5491
505.5509, 150.7911
506.0330, 150.2961
506.5151, 150.1406
506.9972, 150.2474
507.4793, 150.7698
507.9615, 151.5709
508.4436, 152.1347
508.9257, 152.0009
509.4078, 151.2557
509.8899, 150.3334
510.3720, 148.9069
510.8542, 148.0218
511.3363, 148.4927
511.8184, 149.4660
512.3005, 150.1496
512.7827, 150.3947
513.2648, 150.4423
513.7469, 150.3127
514.2290, 150.1279
514.7111, 150.2652
515.1932, 150.8005
515.6754, 151.5349
516.1575, 152.4326
516.6396, 153.4156
517.1217, 154.1399
517.6038, 154.5328
518.0859, 154.7333
518.5681, 154.5950
519.0502, 154.3591
519.5323, 154.5425
520.0144, 155.2822
520.4965, 156.0755
520.9786, 156.3308
521.4608, 156.0109
521.9429, 155.3393
522.4250, 154.3012
522.9071, 152.9809
523.3892, 151.2429
523.8713, 149.2925
524.3535, 147.3625
524.8356, 145.5637
525.3177, 143.9736
525.7998, 142.7466
526.2819, 141.8971
526.7640, 141.3548
527.2462, 141.4257
527.7283, 141.4891
528.2104, 141.2175
528.6925, 140.7111
529.1746, 140.2480
529.6567, 140.0558
530.1389, 139.7864
530.6210, 138.6457
531.1031, 136.7261
531.5852, 135.7964
532.0673, 136.8000
532.5494, 138.3065
533.0316, 138.3654
533.5137, 137.0867
533.9958, 136.2292
534.4779, 136.3738
534.9600, 136.8788
535.4421, 137.4634
535.9243, 137.9989
536.4064, 138.0832
536.8885, 137.4658
537.3706, 136.5921
537.8527, 136.4519
538.3348, 137.7995
538.8170, 138.3506
539.2991, 137.5153
539.7812, 136.4782
540.2633, 135.6595
540.7454, 135.2250
541.2275, 135.4620
541.7097, 136.6596
542.1918, 138.2686
542.6739, 138.7849
543.1560, 137.8971
543.6381, 136.9089
544.1202, 135.6180
544.6024, 134.6844
545.0845, 134.6737
545.5666, 135.4760
546.0487, 136.4195
546.5308, 137.2505
547.0129, 137.9614
547.4951, 138.5441
547.9772, 138.9996
548.4593, 139.3018
548.9414, 139.4514
549.4235, 139.4259
549.9056, 139.0599
550.3878, 138.2348
550.8699, 137.7865
551.3520, 138.1891
551.8341, 138.7877
552.3162, 139.1054
552.7983, 139.1260
553.2805, 138.9993
553.7626, 138.8181
554.2447, 138.5215
554.7268, 137.8712
555.2089, 136.1744
555.6910, 135.3945
556.1732, 136.0231
556.6553, 137.0754
557.1374, 138.2201
557.6195, 139.2699
558.1016, 139.9230
558.5837, 139.9408
559.0659, 139.5211
559.5480, 139.0404
560.0301, 138.4444
560.5122, 138.1343
560.9943, 138.3775
561.4764, 138.8157
561.9586, 139.1080
562.4407, 139.2585
562.9228, 139.3748
563.4049, 139.3151
563.8870, 139.3659
564.3691, 139.9834
564.8513, 141.0535
565.3334, 141.9208
565.8155, 142.2562
566.2976, 142.3327
566.7797, 142.6806
567.2618, 143.5062
567.7440, 144.1250
568.2261, 144.2069
568.7082, 144.3823
569.1903, 144.9472
569.6724, 145.9111
570.1545, 147.3250
570.6367, 149.2458
571.1188, 151.2895
571.6009, 152.5737
572.0830, 152.9194
572.5651, 153.2079
573.0472, 153.1787
573.5294, 153.4775
574.0115, 154.7946
574.4936, 156.7302
574.9757, 158.1580
575.4578, 158.4146
575.9399, 158.2440
576.4221, 158.4480
576.9042, 158.9770
577.3863, 159.6218
577.8684, 160.4121
578.3505, 161.0104
578.8326, 160.7474
579.3148, 159.5174
579.7969, 159.5694
580.2790, 162.6399
580.7611, 165.2562
581.2432, 165.4577
581.7253, 164.1548
582.2075, 162.9627
582.6896, 162.4406
583.1717, 161.9626
583.6538, 160.5172
584.1359, 157.8271
584.6180, 156.1748
585.1002, 156.3757
585.5823, 156.6716
586.0643, 156.8266
586.5464, 156.6243
587.0286, 155.6405
587.5107, 153.6927
587.9928, 151.7142
588.4749, 150.5973
588.9570, 150.1928
589.4391, 150.0151
589.9213, 150.0934
