##NAMES=Magnesite
##RRUFFID=R050443
##IDEAL CHEMISTRY=MgCO_3_
##LOCALITY=Brumado, Bahia, Brazil
##OWNER=RRUFF
##SOURCE=Eugene Schlepp
##DESCRIPTION=Group of colorless crystals
##STATUS=The identification of this mineral has been confirmed by X-ray diffraction and chemical analysis
##URL=rruff.info/R050443
##MEASURED CHEMISTRY=Mg_1.00_CO_3_
93.78320, 32.77144
94.26532, 33.04710
94.74744, 33.16324
95.22955, 33.03530
95.71167, 32.84531
96.19379, 32.72553
96.67590, 32.85449
97.15802, 32.73750
97.64014, 32.07945
98.12225, 31.16607
98.60437, 30.52759
99.08649, 30.43181
99.56860, 30.56923
100.0507, 30.43194
100.5328, 29.92223
101.0150, 29.37547
101.4971, 29.07156
101.9792, 29.02090
102.4613, 28.92371
102.9434, 28.61781
103.4255, 28.23069
103.9077, 27.82547
104.3898, 27.40396
104.8719, 27.01242
105.3540, 26.74532
105.8361, 26.62648
106.3182, 26.60011
106.8004, 26.79416
107.2825, 27.01867
107.7646, 27.02032
108.2467, 26.61940
108.7288, 25.85884
109.2109, 25.33212
109.6931, 25.22961
110.1752, 25.15848
110.6573, 24.99465
111.1394, 24.76817
111.6215, 24.58978
112.1036, 24.56518
112.5858, 24.72275
113.0679, 24.83181
113.5500, 24.83941
114.0321, 24.83873
114.5142, 24.89723
114.9964, 25.02553
115.4785, 25.19183
115.9606, 25.42138
116.4427, 25.71167
116.9248, 25.80249
117.4069, 25.45618
117.8891, 24.87941
118.3712, 24.51966
118.8533, 24.55680
119.3354, 24.68994
119.8175, 24.59927
120.2996, 24.30596
120.7818, 24.03674
121.2639, 23.97704
121.7460, 24.13459
122.2281, 24.28611
122.7102, 24.46556
123.1923, 24.57447
123.6745, 24.51916
124.1566, 24.29295
124.6387, 24.00864
125.1208, 23.84905
125.6029, 23.94685
126.0850, 23.87887
126.5672, 23.43751
127.0493, 22.94220
127.5314, 22.67343
128.0135, 22.73829
128.4956, 23.01853
128.9777, 23.18408
129.4599, 23.12358
129.9420, 23.05997
130.4241, 23.01024
130.9062, 22.96677
131.3883, 22.91275
131.8705, 22.83570
132.3526, 22.74469
132.8347, 22.69019
133.3168, 22.75053
133.7989, 22.76336
134.2810, 22.64286
134.7632, 22.40525
135.2453, 22.13126
135.7274, 21.83052
136.2095, 21.54412
136.6916, 21.38249
137.1737, 21.37672
137.6559, 21.48222
138.1380, 21.72277
138.6201, 22.15224
139.1022, 22.45979
139.5843, 22.27185
140.0664, 21.85271
140.5486, 21.58375
141.0307, 21.71399
141.5128, 22.09162
141.9949, 22.25287
142.4770, 22.05458
142.9591, 21.84099
143.4413, 21.75912
143.9234, 21.77075
144.4055, 21.80315
144.8876, 21.80898
145.3697, 21.78819
145.8518, 21.75983
146.3340, 21.74131
146.8161, 21.69820
147.2982, 21.58076
147.7803, 21.41882
148.2624, 21.29887
148.7445, 21.32777
149.2267, 21.58889
149.7088, 21.63484
150.1909, 21.24364
150.6730, 20.86170
151.1551, 20.79482
151.6372, 21.05634
152.1194, 21.39353
152.6015, 21.50014
153.0836, 21.28546
153.5657, 21.01995
154.0478, 20.61239
154.5299, 20.19659
155.0121, 19.90100
155.4942, 19.75814
155.9763, 19.73390
156.4584, 19.84662
156.9405, 20.12584
157.4227, 20.27249
157.9048, 20.00695
158.3869, 19.55976
158.8690, 19.47603
159.3511, 20.05196
159.8332, 20.79414
160.3154, 21.07196
160.7975, 20.87999
161.2796, 20.64610
161.7617, 20.65707
162.2438, 20.89231
162.7259, 21.08171
163.2081, 21.16874
163.6902, 21.17631
164.1723, 21.09846
164.6544, 20.93569
165.1365, 20.76574
165.6186, 20.69115
166.1008, 20.74807
166.5829, 20.73743
167.0650, 20.48780
167.5471, 20.25059
168.0292, 20.21293
168.5113, 20.41467
168.9935, 20.71942
169.4756, 20.90611
169.9577, 20.94035
170.4398, 20.90698
170.9219, 20.71597
171.4040, 20.52388
171.8862, 20.51942
172.3683, 20.76113
172.8504, 21.08319
173.3325, 21.08672
173.8146, 20.30588
174.2967, 19.74476
174.7789, 19.50671
175.2610, 19.47476
175.7431, 19.52213
176.2252, 19.59288
176.7073, 19.69665
177.1894, 19.87071
177.6716, 20.26602
178.1537, 20.54296
178.6358, 20.55976
179.1179, 20.41741
179.6000, 20.31536
180.0821, 20.36065
180.5643, 20.49786
181.0464, 20.55354
181.5285, 20.50761
182.0106, 20.42915
182.4927, 20.30844
182.9749, 20.16615
183.4570, 20.10642
183.9391, 20.22524
184.4212, 20.43259
184.9033, 20.52244
185.3854, 20.42719
185.8676, 20.32125
186.3497, 20.37925
186.8318, 20.60727
187.3139, 20.78198
187.7960, 20.72206
188.2781, 20.59161
188.7603, 20.57647
189.2424, 20.73626
189.7245, 20.96558
190.2066, 21.11670
190.6887, 21.15591
191.1708, 21.24217
191.6530, 21.32694
192.1351, 21.52737
192.6172, 22.00422
193.0993, 22.84162
193.5814, 23.86271
194.0635, 24.70607
194.5457, 25.29499
195.0278, 25.84438
195.5099, 26.46484
195.9920, 27.05145
196.4741, 27.51110
196.9562, 27.80357
197.4384, 27.93509
197.9205, 27.89031
198.4026, 27.25425
198.8847, 27.04048
199.3668, 27.58579
199.8489, 28.51678
200.3311, 29.42070
200.8132, 30.08823
201.2953, 30.59455
201.7774, 31.22924
202.2595, 31.97584
202.7416, 32.89123
203.2238, 34.07224
203.7059, 35.41126
204.1880, 36.74466
204.6701, 37.96841
205.1522, 39.16228
205.6344, 40.69763
206.1165, 42.38064
206.5986, 44.59069
207.0807, 47.44637
207.5628, 50.88772
208.0449, 54.69010
208.5271, 58.62291
209.0092, 63.00192
209.4913, 69.09833
209.9734, 76.45546
210.4555, 85.53880
210.9376, 96.90701
211.4198, 110.1673
211.9019, 125.1230
212.3840, 143.0862
212.8661, 161.0264
213.3482, 171.7589
213.8303, 176.2523
214.3125, 173.2158
214.7946, 158.6748
215.2767, 134.3845
215.7588, 109.8429
216.2409, 87.57668
216.7230, 68.97063
217.2052, 54.83703
217.6873, 46.09077
218.1694, 40.13911
218.6515, 35.56825
219.1336, 32.33345
219.6157, 29.75312
220.0979, 27.71219
220.5800, 26.17136
221.0621, 25.12313
221.5442, 24.64503
222.0263, 24.35049
222.5084, 23.83056
222.9906, 23.04805
223.4727, 22.42610
223.9548, 22.24591
224.4369, 22.19766
224.9190, 22.08527
225.4011, 21.87303
225.8833, 21.57826
226.3654, 21.18354
226.8475, 20.65368
227.3296, 20.20236
227.8117, 19.84977
228.2938, 19.60761
228.7760, 19.53070
229.2581, 19.62167
229.7402, 19.78001
230.2223, 19.89392
230.7044, 19.98549
231.1866, 19.95528
231.6687, 19.60225
232.1508, 19.26614
232.6329, 19.19584
233.1150, 19.42085
233.5971, 19.75029
234.0793, 19.92793
234.5614, 19.92471
235.0435, 19.82689
235.5256, 19.54771
236.0077, 19.25545
236.4898, 19.02559
236.9720, 18.88591
237.4541, 18.85136
237.9362, 18.97521
238.4183, 19.41963
238.9004, 19.61040
239.3825, 19.36840
239.8647, 19.05510
240.3468, 18.90038
240.8289, 18.93380
241.3110, 19.03547
241.7931, 19.05286
242.2752, 18.93069
242.7574, 18.88633
243.2395, 18.97901
243.7216, 19.09258
244.2037, 19.14286
244.6858, 19.12570
245.1679, 19.10942
245.6501, 19.18255
246.1322, 19.39699
246.6143, 19.46825
247.0964, 19.32553
247.5785, 19.11035
248.0606, 18.86942
248.5428, 18.62833
249.0249, 18.45634
249.5070, 18.43525
249.9891, 18.59642
250.4712, 18.70012
250.9533, 18.77099
251.4355, 18.77126
251.9176, 18.61796
252.3997, 18.33168
252.8818, 18.08756
253.3639, 18.05422
253.8460, 18.23687
254.3282, 18.31218
254.8103, 18.22334
255.2924, 18.07598
255.7745, 17.88762
256.2566, 17.67687
256.7387, 17.57250
257.2209, 17.71192
257.7030, 18.05034
258.1851, 18.24888
258.6672, 18.22046
259.1493, 18.12245
259.6314, 18.00798
260.1136, 17.89048
260.5957, 17.88412
261.0778, 18.10512
261.5599, 18.47994
262.0420, 18.76199
262.5241, 18.94885
263.0063, 19.04340
263.4884, 19.05598
263.9705, 18.98383
264.4526, 18.78268
264.9347, 18.33678
265.4168, 17.81007
265.8990, 17.50111
266.3811, 17.44562
266.8632, 17.53197
267.3453, 17.76717
267.8275, 18.12118
268.3096, 18.35021
268.7917, 18.31366
269.2738, 18.14801
269.7559, 18.03657
270.2380, 17.98316
270.7202, 17.97794
271.2023, 18.02259
271.6844, 18.11352
272.1665, 18.23697
272.6486, 18.43773
273.1307, 18.61309
273.6129, 18.68368
274.0950, 18.64966
274.5771, 18.52940
275.0592, 18.22148
275.5413, 17.78988
276.0234, 17.64367
276.5056, 18.03166
276.9877, 18.47422
277.4698, 18.56890
277.9519, 18.37431
278.4340, 18.18941
278.9161, 18.19788
279.3983, 18.36621
279.8804, 18.56370
280.3625, 18.85316
280.8446, 19.05222
281.3267, 18.99107
281.8088, 18.76491
282.2910, 18.60056
282.7731, 18.69405
283.2552, 18.93991
283.7373, 18.95814
284.2194, 18.60363
284.7015, 18.29238
285.1837, 18.23029
285.6658, 18.32655
286.1479, 18.46284
286.6300, 18.61516
287.1121, 18.74540
287.5942, 18.73435
288.0764, 18.48477
288.5585, 18.32656
289.0406, 18.43411
289.5227, 18.66408
290.0048, 18.87323
290.4869, 19.01079
290.9691, 19.11608
291.4512, 19.28399
291.9333, 19.57415
292.4154, 19.73268
292.8975, 19.50467
293.3796, 19.23196
293.8618, 19.20546
294.3439, 19.49865
294.8260, 19.89886
295.3081, 20.12233
295.7902, 20.12462
296.2723, 20.16035
296.7545, 20.24739
297.2366, 20.39781
297.7187, 20.62748
298.2008, 20.93519
298.6829, 21.30386
299.1650, 21.76168
299.6472, 22.33614
300.1293, 22.74459
300.6114, 22.70618
301.0935, 22.72985
301.5756, 23.06997
302.0577, 23.68100
302.5399, 24.35957
303.0220, 24.91839
303.5041, 25.36790
303.9862, 25.97319
304.4683, 26.71257
304.9504, 27.66681
305.4326, 28.81959
305.9147, 30.19523
306.3968, 31.80925
306.8789, 33.61769
307.3610, 35.70400
307.8431, 38.32211
308.3253, 41.06376
308.8074, 45.14267
309.2895, 50.53076
309.7716, 57.34119
310.2537, 65.59215
310.7358, 75.29774
311.2180, 86.58144
311.7001, 99.97187
312.1822, 117.0211
312.6643, 132.9845
313.1464, 148.7863
313.6285, 162.3248
314.1107, 171.7945
314.5928, 176.7185
315.0749, 178.1901
315.5570, 177.0715
316.0392, 172.3801
316.5213, 168.6917
317.0034, 166.5924
317.4855, 165.4981
317.9676, 165.2458
318.4497, 165.7762
318.9319, 167.0164
319.4140, 168.9314
319.8961, 171.5315
320.3782, 174.6638
320.8603, 178.8613
321.3424, 183.1162
321.8246, 186.9202
322.3067, 190.4554
322.7888, 194.2386
323.2709, 198.5533
323.7530, 203.4140
324.2351, 208.6860
324.7173, 213.5723
325.1994, 220.1963
325.6815, 228.7338
326.1636, 239.3173
326.6457, 252.3341
327.1278, 268.0716
327.6100, 285.9251
328.0921, 304.8717
328.5742, 325.9312
329.0563, 345.9013
329.5384, 367.9147
330.0205, 386.6526
330.5027, 398.8428
330.9848, 403.5365
331.4669, 398.1124
331.9490, 377.0847
332.4311, 337.4444
332.9132, 295.4087
333.3954, 247.0297
333.8775, 201.3456
334.3596, 163.4497
334.8417, 133.6957
335.3238, 110.1355
335.8059, 92.06657
336.2881, 79.48927
336.7702, 68.98979
337.2523, 61.20689
337.7344, 54.96440
338.2165, 49.85134
338.6986, 45.73934
339.1808, 42.37840
339.6629, 39.74577
340.1450, 37.72143
340.6271, 35.83387
341.1092, 34.03913
341.5913, 32.49334
342.0735, 31.31585
342.5556, 30.36289
343.0377, 29.46490
343.5198, 28.55616
344.0019, 27.68556
344.4840, 26.92974
344.9662, 26.28231
345.4483, 25.75457
345.9304, 25.49139
346.4125, 25.26971
346.8946, 24.89230
347.3767, 24.32781
347.8589, 23.80883
348.3410, 23.61109
348.8231, 23.72393
349.3052, 23.75161
349.7873, 23.62360
350.2694, 23.40717
350.7516, 23.14296
351.2337, 22.83632
351.7158, 22.50913
352.1979, 22.15130
352.6800, 21.77963
353.1621, 21.44774
353.6443, 21.14997
354.1264, 20.90938
354.6085, 20.76030
355.0906, 20.66972
355.5727, 20.59518
356.0548, 20.53297
356.5370, 20.46861
357.0191, 20.39903
357.5012, 20.33066
357.9833, 20.18981
358.4654, 19.88193
358.9475, 19.52166
359.4297, 19.24206
359.9118, 19.05803
360.3939, 18.93414
360.8760, 18.86032
361.3581, 18.83004
361.8402, 18.81328
362.3224, 18.81716
362.8045, 18.81042
363.2866, 18.79514
363.7687, 18.76614
364.2508, 18.61840
364.7329, 18.17096
365.2151, 17.62088
365.6972, 17.29321
366.1793, 17.22357
366.6614, 17.32645
367.1436, 17.69346
367.6257, 18.18952
368.1078, 18.39177
368.5899, 17.99160
369.0720, 17.49071
369.5541, 17.30554
370.0363, 17.39785
370.5184, 17.52353
371.0005, 17.58241
371.4826, 17.59306
371.9647, 17.60662
372.4468, 17.64394
372.9290, 17.63462
373.4111, 17.50361
373.8932, 17.31584
374.3753, 17.19749
374.8574, 17.18570
375.3395, 17.22054
375.8217, 17.23391
376.3038, 17.22486
376.7859, 17.19980
377.2680, 17.15695
377.7501, 17.09953
378.2322, 17.00168
378.7144, 16.87506
379.1965, 16.80492
379.6786, 16.86558
380.1607, 17.04505
380.6428, 17.18997
381.1249, 17.35149
381.6071, 17.42884
382.0892, 17.33094
382.5713, 17.13008
383.0534, 16.96335
383.5355, 16.89000
384.0176, 16.87218
384.4998, 16.82648
384.9819, 16.70454
385.4640, 16.63599
385.9461, 16.65956
386.4282, 16.71554
386.9103, 16.75614
387.3925, 16.77303
387.8746, 16.78405
388.3567, 16.81092
388.8388, 16.86099
389.3209, 16.87159
389.8030, 16.79695
390.2852, 16.73612
390.7673, 16.78332
391.2494, 16.86941
391.7315, 16.82731
392.2136, 16.54433
392.6957, 16.12096
393.1779, 15.96042
393.6600, 16.37720
394.1421, 16.61541
394.6242, 16.51705
395.1063, 16.27588
395.5884, 16.02016
396.0706, 15.80014
396.5527, 15.66527
397.0348, 15.71985
397.5169, 16.04834
397.9990, 16.22711
398.4811, 16.09183
398.9633, 15.95093
399.4454, 15.92111
399.9275, 15.98811
400.4096, 16.09360
400.8917, 16.21801
401.3738, 16.33934
401.8560, 16.36316
402.3381, 16.28057
402.8202, 16.10957
403.3023, 15.74247
403.7844, 15.35386
404.2665, 15.12144
404.7487, 15.09903
405.2308, 15.21771
405.7129, 15.46502
406.1950, 15.85904
406.6771, 16.07338
407.1592, 15.98751
407.6414, 15.75562
408.1235, 15.37176
408.6056, 14.90081
409.0877, 14.65713
409.5698, 15.05994
410.0519, 15.78366
410.5341, 15.99669
411.0162, 15.55732
411.4983, 15.07566
411.9804, 14.89601
412.4625, 14.92721
412.9446, 15.05080
413.4268, 15.31649
413.9089, 15.55572
414.3910, 15.63372
414.8731, 15.56724
415.3553, 15.41109
415.8374, 15.12948
416.3195, 14.85477
416.8016, 14.80548
417.2837, 14.98162
417.7658, 15.18195
418.2480, 15.41661
418.7301, 15.61455
419.2122, 15.67447
419.6943, 15.59073
420.1764, 15.46731
420.6585, 15.37904
421.1407, 15.32368
421.6228, 15.26832
422.1049, 15.24352
422.5870, 15.18537
423.0691, 15.00473
423.5512, 14.78354
424.0334, 14.69785
424.5155, 14.82454
424.9976, 15.02893
425.4797, 15.05341
425.9618, 14.75443
426.4439, 14.55763
426.9261, 14.49677
427.4082, 14.50665
427.8903, 14.55752
428.3724, 14.63813
428.8545, 14.73991
429.3366, 14.86194
429.8188, 15.00182
430.3009, 15.09037
430.7830, 15.09668
431.2651, 15.08155
431.7472, 15.03885
432.2293, 14.98543
432.7115, 14.93996
433.1936, 14.90938
433.6757, 14.88782
434.1578, 14.86183
434.6399, 14.82140
435.1220, 14.81163
435.6042, 14.91515
436.0863, 14.98177
436.5684, 14.88025
437.0505, 14.66488
437.5326, 14.51932
438.0147, 14.58706
438.4969, 14.81606
438.9790, 15.02289
439.4611, 15.19323
439.9432, 15.37722
440.4253, 15.78143
440.9074, 16.12765
441.3896, 16.04236
441.8717, 15.38744
442.3538, 14.65440
442.8359, 14.25141
443.3180, 14.14570
443.8001, 14.18969
444.2823, 14.42313
444.7644, 14.67586
445.2465, 14.79164
445.7286, 14.79072
446.2107, 14.72156
446.6928, 14.52745
447.1750, 14.31818
447.6571, 14.20117
448.1392, 14.17522
448.6213, 14.21789
449.1034, 14.35994
449.5855, 14.52511
450.0677, 14.46861
450.5498, 14.02275
451.0319, 13.74563
451.5140, 13.92378
451.9961, 14.28116
452.4782, 14.47517
452.9604, 14.44442
453.4425, 14.35202
453.9246, 14.37532
454.4067, 14.53856
454.8888, 14.55157
455.3709, 14.26088
455.8531, 14.01438
456.3352, 13.96142
456.8173, 14.03383
457.2994, 14.08817
457.7815, 14.05738
458.2636, 14.02829
458.7458, 14.22739
459.2279, 14.94483
459.7100, 15.26898
460.1921, 14.91533
460.6742, 14.43438
461.1563, 14.04627
461.6385, 13.81254
462.1206, 13.80229
462.6027, 14.16879
463.0848, 14.78256
463.5669, 14.91290
464.0491, 14.26748
464.5312, 13.72988
465.0133, 13.65079
465.4954, 13.79329
465.9775, 13.97256
466.4597, 14.15712
466.9418, 14.25061
467.4239, 14.07228
467.9060, 13.68172
468.3881, 13.49857
468.8702, 13.64884
469.3524, 13.88729
469.8345, 14.03590
470.3166, 14.11067
470.7987, 14.14044
471.2808, 14.11308
471.7629, 14.05919
472.2451, 14.00031
472.7272, 13.93725
473.2093, 13.86284
473.6914, 13.75711
474.1735, 13.66951
474.6556, 13.72003
475.1378, 13.96137
475.6199, 14.13935
476.1020, 14.18033
476.5841, 14.16737
477.0662, 14.16809
477.5483, 14.18876
478.0305, 14.20979
478.5126, 14.21941
478.9947, 14.21499
479.4768, 14.17371
479.9589, 14.02389
480.4410, 13.92423
480.9232, 13.98768
481.4053, 14.06272
481.8874, 13.95164
482.3695, 13.62664
482.8516, 13.27459
483.3337, 13.11322
483.8159, 13.15322
484.2980, 13.30150
484.7801, 13.75149
485.2622, 14.08704
485.7443, 14.10510
486.2264, 13.93097
486.7086, 13.76339
487.1907, 13.68210
487.6728, 13.64986
488.1549, 13.60270
488.6370, 13.53637
489.1191, 13.53564
489.6013, 13.67011
490.0834, 13.81930
490.5655, 13.90214
491.0476, 13.91603
491.5297, 13.83925
492.0118, 13.56015
492.4940, 13.24341
492.9761, 13.10737
493.4582, 13.15056
493.9403, 13.26333
494.4224, 13.42494
494.9045, 13.58919
495.3867, 13.62989
495.8688, 13.52059
496.3509, 13.38428
496.8330, 13.14482
497.3151, 12.95145
497.7972, 13.02821
498.2794, 13.36381
498.7615, 13.69158
499.2436, 13.77037
499.7257, 13.61874
500.2078, 13.58343
500.6899, 13.86868
501.1721, 14.02229
501.6542, 13.86559
502.1363, 13.59393
502.6184, 13.38998
503.1005, 13.31314
503.5826, 13.35779
504.0648, 13.59121
504.5469, 14.06289
505.0290, 14.21312
505.5111, 13.78679
505.9932, 13.34413
506.4753, 13.07304
506.9575, 12.93944
507.4396, 12.88933
507.9217, 12.91243
508.4038, 12.98100
508.8859, 13.08391
509.3680, 13.21701
509.8502, 13.29662
510.3323, 13.28184
510.8144, 13.24501
511.2965, 13.25389
511.7786, 13.30239
512.2607, 13.36671
512.7429, 13.43724
513.2250, 13.52395
513.7071, 13.69832
514.1892, 13.91416
514.6713, 13.95645
515.1534, 13.69806
515.6356, 13.30897
516.1177, 13.12842
516.5998, 13.26641
517.0819, 13.37358
517.5640, 13.44037
518.0461, 13.47447
518.5283, 13.44806
519.0104, 13.38942
519.4925, 13.39782
519.9746, 13.55604
520.4567, 13.78138
520.9388, 13.73601
521.4210, 13.15953
521.9031, 12.80275
522.3852, 12.87162
522.8673, 13.06962
523.3494, 13.23127
523.8315, 13.32376
524.3137, 13.34972
524.7958, 13.30485
525.2779, 13.19494
525.7600, 13.01139
526.2421, 12.71177
526.7242, 12.49885
527.2064, 12.48811
527.6885, 12.60509
528.1706, 12.78234
528.6527, 13.03718
529.1348, 13.22751
529.6169, 13.25720
530.0991, 13.18485
530.5812, 13.07589
531.0633, 12.94080
531.5454, 12.86391
532.0275, 12.91633
532.5096, 13.08083
532.9918, 13.23694
533.4739, 13.43131
533.9560, 13.55944
534.4381, 13.58611
534.9202, 13.54331
535.4023, 13.44501
535.8845, 13.30529
536.3666, 13.16701
536.8487, 13.07817
537.3308, 13.03839
537.8129, 12.96669
538.2951, 12.79071
538.7772, 12.68061
539.2593, 12.68169
539.7415, 12.76003
540.2236, 12.92459
540.7057, 13.16976
541.1878, 13.34782
541.6699, 13.25308
542.1520, 12.93249
542.6342, 12.72987
543.1163, 12.71857
543.5984, 12.70360
544.0805, 12.53115
544.5626, 12.27398
545.0447, 12.04516
545.5269, 11.77979
546.0090, 11.69890
546.4911, 12.13218
546.9732, 12.79546
547.4553, 13.10078
547.9374, 12.92226
548.4196, 12.58900
548.9017, 12.39465
549.3838, 12.33967
549.8659, 12.38319
550.3480, 12.62282
550.8301, 12.82665
551.3123, 12.94960
551.7944, 12.99278
552.2765, 12.92451
552.7586, 12.75299
553.2407, 12.58733
553.7228, 12.57796
554.2050, 12.73770
554.6871, 12.81128
555.1692, 12.71020
555.6513, 12.64861
556.1334, 12.75928
556.6155, 12.92684
557.0977, 12.99948
557.5798, 12.93159
558.0619, 12.80932
558.5440, 12.68373
559.0261, 12.56495
559.5082, 12.48583
559.9904, 12.44899
560.4725, 12.46744
560.9546, 12.60902
561.4367, 12.81964
561.9188, 12.84707
562.4009, 12.47347
562.8831, 12.18741
563.3652, 12.25759
563.8473, 12.48722
564.3294, 12.60450
564.8115, 12.55367
565.2936, 12.44498
565.7758, 12.38517
566.2579, 12.37421
566.7400, 12.36352
567.2221, 12.36656
567.7042, 12.35262
568.1863, 12.27137
568.6685, 12.19582
569.1506, 12.22076
569.6327, 12.35712
570.1148, 12.50232
570.5969, 12.54433
571.0790, 12.50206
571.5612, 12.49940
572.0433, 12.55377
572.5254, 12.60281
573.0075, 12.63821
573.4896, 12.63690
573.9717, 12.53424
574.4539, 12.26853
574.9360, 12.10819
575.4181, 12.30362
575.9002, 12.62329
576.3823, 12.73015
576.8644, 12.59693
577.3466, 12.39946
577.8287, 12.25212
578.3108, 12.15062
578.7929, 12.07418
579.2750, 11.97904
579.7571, 11.97080
580.2393, 12.16358
580.7214, 12.36514
581.2035, 12.39897
581.6856, 12.28091
582.1677, 12.15804
582.6498, 12.12482
583.1320, 12.18704
583.6141, 12.40735
584.0962, 12.87196
584.5783, 13.20234
585.0604, 13.28077
585.5425, 13.18662
586.0247, 12.93651
586.5068, 12.54808
586.9889, 12.19332
587.4710, 11.90221
587.9531, 11.71252
588.4352, 11.71019
588.9174, 11.86758
589.3995, 12.02040
589.8816, 12.08938
590.3637, 12.14684
590.8458, 12.33932
591.3279, 12.78645
591.8101, 13.01198
