##NAMES=Magnetite
##RRUFFID=R061111
##IDEAL CHEMISTRY=Fe^2+^Fe^3+^_2_O_4_
##LOCALITY=near Scotia Talc mine, Barberton Mountain, Transvaal, South Afica
##OWNER=RRUFF
##SOURCE=Michael Scott
##DESCRIPTION=Black submetallic grains and octahedra associated with light green massive willemseite
##STATUS=The identification of this mineral is confirmed by single-crystal X-ray diffraction and chemical analysis.
##URL=rruff.info/R061111
##MEASURED CHEMISTRY=(Fe^2+^_0.51_Ni_0.48_Co_0.01_)_Î£=1_Fe^3+^_2_O_4_; trace amounts of Al; Fe^2+^ and Fe^3+^ splitted by charge balance
172.6691, 1674.858
173.1512, 1654.850
173.6334, 1656.036
174.1155, 1668.810
174.5976, 1678.465
175.0797, 1680.248
175.5618, 1677.815
176.0439, 1673.752
176.5260, 1668.243
177.0082, 1664.258
177.4903, 1666.973
177.9724, 1673.158
178.4545, 1674.979
178.9366, 1663.886
179.4187, 1649.434
179.9009, 1650.406
180.3830, 1667.549
180.8651, 1685.840
181.3472, 1688.204
181.8293, 1678.476
182.3114, 1671.167
182.7936, 1675.356
183.2757, 1686.120
183.7578, 1692.300
184.2399, 1693.781
184.7220, 1690.354
185.2041, 1677.595
185.6863, 1657.096
186.1684, 1641.634
186.6505, 1638.418
187.1326, 1645.581
187.6147, 1656.771
188.0968, 1673.187
188.5790, 1689.846
189.0611, 1698.995
189.5432, 1700.704
190.0253, 1699.721
190.5074, 1700.140
190.9895, 1701.078
191.4717, 1693.804
191.9538, 1674.209
192.4359, 1651.023
192.9180, 1643.946
193.4001, 1654.019
193.8822, 1666.432
194.3644, 1669.383
194.8465, 1663.250
195.3286, 1664.489
195.8107, 1678.141
196.2928, 1698.192
196.7749, 1705.363
197.2570, 1697.324
197.7392, 1688.799
198.2213, 1694.767
198.7034, 1716.822
199.1855, 1728.248
199.6676, 1720.741
200.1497, 1700.095
200.6319, 1692.752
201.1140, 1701.638
201.5961, 1714.245
202.0782, 1719.991
202.5603, 1718.463
203.0424, 1713.051
203.5246, 1703.545
204.0067, 1690.524
204.4888, 1678.322
204.9709, 1666.248
205.4530, 1656.553
205.9352, 1651.330
206.4173, 1650.546
206.8994, 1654.802
207.3815, 1666.551
207.8636, 1685.577
208.3457, 1696.980
208.8279, 1699.995
209.3100, 1696.518
209.7921, 1687.001
210.2742, 1668.308
210.7563, 1653.167
211.2384, 1646.413
211.7206, 1648.617
212.2027, 1649.487
212.6848, 1649.210
213.1669, 1647.298
213.6490, 1641.933
214.1311, 1630.219
214.6133, 1622.379
215.0954, 1623.862
215.5775, 1637.549
216.0596, 1642.499
216.5417, 1635.322
217.0238, 1622.251
217.5059, 1613.620
217.9881, 1611.060
218.4702, 1609.596
218.9523, 1607.201
219.4344, 1603.109
219.9165, 1601.455
220.3986, 1603.646
220.8808, 1607.481
221.3629, 1608.065
221.8450, 1603.022
222.3271, 1599.012
222.8092, 1599.452
223.2913, 1607.662
223.7735, 1611.079
224.2556, 1607.682
224.7377, 1600.227
225.2198, 1595.397
225.7019, 1593.006
226.1840, 1593.394
226.6662, 1597.632
227.1483, 1609.650
227.6304, 1615.837
228.1125, 1613.627
228.5946, 1606.045
229.0767, 1601.820
229.5589, 1601.892
230.0410, 1603.986
230.5231, 1608.031
231.0052, 1618.383
231.4873, 1620.368
231.9694, 1608.031
232.4516, 1587.188
232.9337, 1579.723
233.4158, 1591.595
233.8979, 1608.638
234.3800, 1624.200
234.8621, 1641.279
235.3443, 1650.464
235.8264, 1649.181
236.3085, 1639.542
236.7906, 1629.848
237.2727, 1617.628
237.7548, 1608.582
238.2369, 1606.472
238.7191, 1615.442
239.2012, 1623.184
239.6833, 1629.183
240.1654, 1633.270
240.6475, 1634.007
241.1296, 1628.079
241.6118, 1622.804
242.0939, 1623.533
242.5760, 1636.108
243.0581, 1642.222
243.5402, 1636.910
244.0223, 1622.907
244.5045, 1617.301
244.9866, 1625.375
245.4687, 1635.231
245.9508, 1638.753
246.4329, 1631.615
246.9150, 1627.584
247.3972, 1629.754
247.8793, 1636.801
248.3614, 1638.428
248.8435, 1627.620
249.3256, 1620.384
249.8077, 1631.089
250.2899, 1677.129
250.7720, 1702.363
251.2541, 1692.832
251.7362, 1654.250
252.2183, 1630.727
252.7004, 1627.584
253.1826, 1632.493
253.6647, 1637.011
254.1468, 1639.913
254.6289, 1645.364
255.1110, 1655.568
255.5931, 1669.447
256.0753, 1677.661
256.5574, 1678.878
257.0395, 1676.692
257.5216, 1673.772
258.0037, 1670.666
258.4858, 1664.937
258.9680, 1653.127
259.4501, 1637.408
259.9322, 1636.800
260.4143, 1660.073
260.8964, 1684.336
261.3785, 1690.554
261.8607, 1670.697
262.3428, 1656.138
262.8249, 1651.061
263.3070, 1654.601
263.7891, 1661.625
264.2712, 1673.068
264.7534, 1686.001
265.2355, 1699.203
265.7176, 1714.669
266.1997, 1723.497
266.6818, 1722.514
267.1639, 1713.716
267.6461, 1709.276
268.1282, 1711.256
268.6103, 1713.112
269.0924, 1708.670
269.5745, 1695.358
270.0566, 1687.269
270.5387, 1688.253
271.0208, 1695.677
271.5030, 1694.980
271.9851, 1681.698
272.4672, 1672.072
272.9493, 1682.285
273.4314, 1717.190
273.9135, 1739.964
274.3957, 1742.592
274.8778, 1730.345
275.3599, 1722.242
275.8420, 1718.354
276.3241, 1718.357
276.8062, 1724.800
277.2884, 1738.942
277.7705, 1744.871
278.2526, 1738.226
278.7347, 1723.560
279.2168, 1714.626
279.6989, 1712.126
280.1811, 1711.732
280.6632, 1710.059
281.1453, 1707.071
281.6274, 1706.503
282.1095, 1708.963
282.5916, 1713.992
283.0738, 1721.595
283.5559, 1732.224
284.0380, 1741.436
284.5201, 1744.628
285.0022, 1742.370
285.4843, 1743.262
285.9665, 1749.050
286.4486, 1757.368
286.9307, 1762.815
287.4128, 1765.219
287.8949, 1768.416
288.3770, 1775.526
288.8592, 1785.845
289.3413, 1795.920
289.8234, 1806.371
290.3055, 1814.486
290.7876, 1811.984
291.2697, 1799.741
291.7519, 1791.374
292.2340, 1799.824
292.7161, 1819.722
293.1982, 1829.856
293.6803, 1825.733
294.1624, 1818.927
294.6446, 1830.645
295.1267, 1857.506
295.6088, 1878.195
296.0909, 1875.185
296.5730, 1857.543
297.0551, 1846.046
297.5373, 1842.965
298.0194, 1844.303
298.5015, 1847.843
298.9836, 1852.535
299.4657, 1854.590
299.9478, 1846.397
300.4300, 1835.864
300.9121, 1837.764
301.3942, 1854.629
301.8763, 1873.955
302.3584, 1883.479
302.8405, 1885.612
303.3227, 1886.155
303.8048, 1884.092
304.2869, 1883.694
304.7690, 1893.465
305.2511, 1914.904
305.7332, 1932.165
306.2154, 1927.081
306.6975, 1909.471
307.1796, 1896.870
307.6617, 1900.286
308.1438, 1909.992
308.6259, 1919.407
309.1081, 1928.312
309.5901, 1934.505
310.0723, 1934.451
310.5544, 1931.397
311.0365, 1929.713
311.5186, 1930.057
312.0007, 1933.071
312.4828, 1941.359
312.9650, 1954.437
313.4471, 1964.451
313.9292, 1964.570
314.4113, 1960.501
314.8934, 1957.943
315.3755, 1961.819
315.8577, 1964.672
316.3398, 1960.007
316.8219, 1949.503
317.3040, 1945.272
317.7861, 1959.774
318.2682, 1978.024
318.7504, 1988.730
319.2325, 1980.732
319.7146, 1974.493
320.1967, 1978.029
320.6788, 1988.866
321.1609, 1996.655
321.6431, 1996.193
322.1252, 1993.808
322.6073, 1992.874
323.0894, 1992.483
323.5715, 1995.540
324.0536, 2007.601
324.5358, 2024.103
325.0179, 2031.884
325.5000, 2019.375
325.9821, 2005.943
326.4642, 1999.414
326.9464, 2003.636
327.4285, 2008.744
327.9106, 2019.394
328.3927, 2030.305
328.8748, 2030.652
329.3569, 2008.080
329.8391, 1988.421
330.3212, 1980.700
330.8033, 1990.490
331.2854, 1995.567
331.7675, 1992.741
332.2496, 1986.879
332.7318, 1985.674
333.2139, 1992.989
333.6960, 1998.409
334.1781, 1998.698
334.6602, 1993.113
335.1423, 1988.296
335.6245, 1984.143
336.1066, 1980.736
336.5887, 1978.613
337.0708, 1978.481
337.5529, 1977.012
338.0350, 1972.236
338.5172, 1964.729
338.9993, 1964.108
339.4814, 1973.674
339.9635, 1982.083
340.4456, 1976.096
340.9277, 1953.563
341.4099, 1938.050
341.8920, 1935.758
342.3741, 1942.830
342.8562, 1945.364
343.3383, 1942.640
343.8204, 1940.257
344.3026, 1944.969
344.7847, 1955.434
345.2668, 1957.694
345.7489, 1946.170
346.2310, 1930.623
346.7131, 1932.962
347.1953, 1952.082
347.6774, 1970.740
348.1595, 1978.077
348.6416, 1976.174
349.1237, 1969.249
349.6058, 1955.909
350.0880, 1943.886
350.5700, 1945.310
351.0522, 1957.157
351.5343, 1967.637
352.0164, 1969.074
352.4985, 1966.003
352.9806, 1965.072
353.4627, 1966.925
353.9449, 1969.005
354.4270, 1968.069
354.9091, 1965.909
355.3912, 1965.742
355.8733, 1973.334
356.3554, 1980.581
356.8376, 1979.589
357.3197, 1970.413
357.8018, 1960.832
358.2839, 1953.239
358.7660, 1948.525
359.2481, 1947.691
359.7303, 1956.139
360.2124, 1963.723
360.6945, 1964.977
361.1766, 1960.863
361.6587, 1957.188
362.1408, 1953.158
362.6230, 1952.210
363.1051, 1957.064
363.5872, 1973.848
364.0693, 1988.556
364.5514, 1998.326
365.0335, 2003.602
365.5157, 2005.382
365.9978, 2002.353
366.4799, 1997.069
366.9620, 1989.586
367.4441, 1975.651
367.9262, 1968.765
368.4084, 1976.660
368.8905, 1990.227
369.3726, 1995.208
369.8547, 1983.592
370.3368, 1973.164
370.8189, 1968.936
371.3011, 1972.175
371.7832, 1974.089
372.2653, 1975.463
372.7474, 1974.851
373.2295, 1969.324
373.7116, 1954.257
374.1938, 1946.092
374.6759, 1950.070
375.1580, 1964.626
375.6401, 1976.306
376.1222, 1985.759
376.6043, 1990.901
377.0865, 1988.957
377.5686, 1979.189
378.0507, 1969.933
378.5328, 1961.842
379.0149, 1955.465
379.4970, 1951.662
379.9792, 1950.321
380.4613, 1953.452
380.9434, 1967.239
381.4255, 1988.480
381.9076, 1995.651
382.3897, 1983.879
382.8719, 1968.421
383.3540, 1975.631
383.8361, 2000.486
384.3182, 2017.292
384.8003, 2006.072
385.2824, 1980.861
385.7646, 1966.087
386.2467, 1962.389
386.7288, 1963.218
387.2109, 1965.600
387.6930, 1968.137
388.1751, 1968.066
388.6573, 1959.283
389.1394, 1951.818
389.6215, 1955.525
390.1036, 1969.151
390.5857, 1984.482
391.0678, 2003.369
391.5499, 2018.735
392.0320, 2023.337
392.5142, 2009.621
392.9963, 1994.601
393.4784, 1983.691
393.9605, 1976.657
394.4426, 1972.749
394.9247, 1974.142
395.4069, 1976.686
395.8890, 1978.869
396.3711, 1981.184
396.8532, 1981.124
397.3353, 1974.732
397.8174, 1966.881
398.2996, 1963.813
398.7817, 1973.210
399.2638, 1979.981
399.7459, 1979.527
400.2280, 1970.946
400.7101, 1967.813
401.1923, 1974.838
401.6744, 1982.892
402.1565, 1983.923
402.6386, 1972.079
403.1207, 1967.041
403.6028, 1974.101
404.0850, 1989.323
404.5671, 1995.879
405.0492, 1991.340
405.5313, 1985.118
406.0134, 1983.383
406.4955, 1986.751
406.9777, 1985.146
407.4598, 1976.144
407.9419, 1965.715
408.4240, 1964.642
408.9061, 1972.724
409.3882, 1982.247
409.8704, 1992.447
410.3525, 2001.574
410.8346, 2000.328
411.3167, 1987.779
411.7988, 1976.911
412.2809, 1986.071
412.7631, 2007.378
413.2452, 2020.449
413.7273, 2015.028
414.2094, 2002.871
414.6915, 1997.687
415.1736, 1998.366
415.6558, 1998.800
416.1379, 1993.260
416.6200, 1986.458
417.1021, 1983.139
417.5842, 1984.248
418.0663, 1988.639
418.5485, 1998.199
419.0306, 2010.369
419.5127, 2020.246
419.9948, 2028.964
420.4769, 2032.492
420.9590, 2025.067
421.4412, 2004.066
421.9233, 1992.440
422.4054, 2001.070
422.8875, 2018.394
423.3696, 2034.060
423.8517, 2046.633
424.3339, 2057.420
424.8160, 2066.774
425.2981, 2074.603
425.7802, 2080.498
426.2623, 2082.869
426.7444, 2085.202
427.2266, 2089.558
427.7087, 2097.917
428.1908, 2103.927
428.6729, 2108.207
429.1550, 2109.773
429.6371, 2103.979
430.1193, 2086.851
430.6014, 2078.513
431.0835, 2090.235
431.5656, 2119.787
432.0477, 2140.109
432.5298, 2151.073
433.0119, 2153.568
433.4940, 2142.706
433.9762, 2121.242
434.4583, 2109.206
434.9404, 2113.163
435.4225, 2126.766
435.9046, 2142.298
436.3867, 2158.845
436.8689, 2171.145
437.3510, 2169.807
437.8331, 2163.915
438.3152, 2168.558
438.7973, 2187.769
439.2794, 2207.643
439.7616, 2214.939
440.2437, 2215.223
440.7258, 2218.430
441.2079, 2236.681
441.6900, 2252.500
442.1721, 2250.784
442.6543, 2231.891
443.1364, 2221.630
443.6185, 2235.998
444.1006, 2259.401
444.5827, 2279.843
445.0648, 2300.210
445.5470, 2311.720
446.0291, 2306.537
446.5112, 2290.715
446.9933, 2283.610
447.4754, 2295.011
447.9576, 2305.216
448.4397, 2305.925
448.9218, 2292.108
449.4039, 2290.720
449.8860, 2308.217
450.3681, 2331.658
450.8503, 2344.885
451.3324, 2344.004
451.8145, 2347.109
452.2966, 2359.871
452.7787, 2379.415
453.2608, 2390.599
453.7430, 2392.102
454.2251, 2394.104
454.7072, 2407.708
455.1893, 2430.078
455.6714, 2440.194
456.1535, 2432.854
456.6357, 2421.693
457.1178, 2424.574
457.5999, 2439.347
458.0820, 2458.140
458.5641, 2482.678
459.0462, 2506.383
459.5284, 2517.996
460.0105, 2517.741
460.4926, 2518.460
460.9747, 2530.782
461.4568, 2548.016
461.9389, 2562.416
462.4211, 2568.819
462.9032, 2576.489
463.3853, 2594.943
463.8674, 2618.359
464.3495, 2631.103
464.8316, 2612.524
465.3138, 2595.853
465.7959, 2597.326
466.2780, 2625.253
466.7601, 2646.578
467.2422, 2655.750
467.7243, 2659.151
468.2065, 2662.851
468.6886, 2669.945
469.1707, 2671.502
469.6528, 2661.448
470.1349, 2644.055
470.6170, 2646.263
471.0992, 2677.588
471.5813, 2705.307
472.0634, 2704.678
472.5455, 2673.687
473.0276, 2661.059
473.5097, 2672.723
473.9918, 2692.692
474.4739, 2694.958
474.9561, 2681.779
475.4382, 2675.571
475.9203, 2692.736
476.4024, 2718.010
476.8845, 2716.228
477.3666, 2689.558
477.8488, 2666.819
478.3309, 2678.795
478.8130, 2704.870
479.2951, 2715.368
479.7772, 2700.611
480.2593, 2679.581
480.7415, 2661.393
481.2236, 2646.087
481.7057, 2633.736
482.1878, 2627.722
482.6699, 2621.724
483.1520, 2612.743
483.6342, 2600.585
484.1163, 2588.111
484.5984, 2573.989
485.0805, 2560.889
485.5626, 2551.073
486.0447, 2550.029
486.5269, 2543.954
487.0090, 2526.792
487.4911, 2505.592
487.9732, 2499.945
488.4553, 2520.111
488.9374, 2533.165
489.4196, 2523.680
489.9017, 2490.888
490.3838, 2470.811
490.8659, 2465.638
491.3480, 2465.481
491.8301, 2462.223
492.3123, 2455.626
492.7944, 2442.309
493.2765, 2417.591
493.7586, 2391.808
494.2407, 2384.729
494.7228, 2393.410
495.2050, 2401.790
495.6871, 2401.304
496.1692, 2394.989
496.6513, 2385.391
497.1334, 2372.459
497.6155, 2360.063
498.0977, 2351.048
498.5798, 2343.820
499.0619, 2336.340
499.5440, 2325.387
500.0261, 2317.071
500.5082, 2314.700
500.9904, 2316.815
501.4725, 2318.190
501.9546, 2314.492
502.4367, 2312.742
502.9188, 2317.852
503.4009, 2334.780
503.8831, 2339.368
504.3652, 2325.201
504.8473, 2304.459
505.3294, 2289.141
505.8115, 2280.294
506.2936, 2274.149
506.7758, 2270.365
507.2579, 2268.808
507.7400, 2269.573
508.2221, 2272.948
508.7042, 2276.339
509.1863, 2278.677
509.6685, 2279.903
510.1506, 2280.201
510.6327, 2279.814
511.1148, 2276.605
511.5969, 2262.000
512.0790, 2243.192
512.5612, 2236.644
513.0433, 2256.607
513.5254, 2280.135
514.0075, 2287.159
514.4896, 2281.058
514.9717, 2273.545
515.4539, 2267.787
515.9360, 2264.049
516.4181, 2263.040
516.9002, 2265.509
517.3823, 2267.574
517.8644, 2266.895
518.3466, 2266.206
518.8287, 2268.464
519.3108, 2279.847
519.7929, 2285.408
520.2750, 2279.685
520.7571, 2267.010
521.2393, 2264.955
521.7214, 2278.043
522.2035, 2290.845
522.6856, 2294.840
523.1677, 2289.577
523.6498, 2291.236
524.1320, 2301.196
524.6141, 2312.267
525.0962, 2314.569
525.5783, 2310.160
526.0604, 2310.594
526.5425, 2321.588
527.0247, 2333.937
527.5068, 2334.137
527.9889, 2324.803
528.4710, 2315.342
528.9531, 2305.618
529.4352, 2301.582
529.9174, 2313.186
530.3995, 2342.385
530.8816, 2363.778
531.3637, 2359.833
531.8458, 2346.461
532.3279, 2337.249
532.8101, 2333.264
533.2922, 2335.816
533.7743, 2351.088
534.2564, 2372.948
534.7385, 2385.573
535.2206, 2382.015
535.7027, 2379.586
536.1848, 2384.417
536.6669, 2396.693
537.1490, 2403.329
537.6312, 2402.654
538.1133, 2400.579
538.5954, 2402.524
539.0775, 2408.344
539.5596, 2412.139
540.0417, 2411.991
540.5239, 2412.612
541.0060, 2423.826
541.4881, 2442.950
541.9702, 2458.974
542.4523, 2464.956
542.9344, 2466.295
543.4166, 2466.591
543.8987, 2466.525
544.3808, 2471.530
544.8629, 2492.505
545.3450, 2515.190
545.8271, 2527.316
546.3093, 2523.061
546.7914, 2517.354
547.2735, 2510.137
547.7556, 2504.905
548.2377, 2506.483
548.7198, 2519.668
549.2020, 2534.567
549.6841, 2553.419
550.1662, 2573.956
550.6483, 2579.728
551.1304, 2564.224
551.6125, 2549.320
552.0947, 2549.695
552.5768, 2566.382
553.0589, 2568.938
553.5410, 2554.290
554.0231, 2537.252
554.5052, 2537.386
554.9874, 2550.537
555.4695, 2559.016
555.9516, 2555.497
556.4337, 2549.773
556.9158, 2555.045
557.3979, 2568.412
557.8801, 2581.114
558.3622, 2590.144
558.8443, 2595.482
559.3264, 2596.322
559.8085, 2592.505
560.2906, 2587.449
560.7728, 2578.120
561.2549, 2570.453
561.7370, 2569.004
562.2191, 2585.088
562.7012, 2592.035
563.1833, 2584.779
563.6655, 2570.417
564.1476, 2560.770
564.6297, 2556.479
565.1118, 2555.495
565.5939, 2558.883
566.0760, 2565.188
566.5582, 2565.133
567.0403, 2558.202
567.5224, 2550.361
568.0045, 2546.423
568.4866, 2544.947
568.9688, 2541.506
569.4509, 2535.740
569.9330, 2527.825
570.4151, 2514.507
570.8972, 2499.772
571.3793, 2489.979
571.8615, 2489.421
572.3436, 2492.010
572.8257, 2496.644
573.3078, 2502.020
573.7899, 2504.471
574.2720, 2501.838
574.7542, 2496.944
575.2363, 2490.365
575.7184, 2481.879
576.2005, 2473.411
576.6826, 2462.709
577.1647, 2454.552
577.6469, 2451.928
578.1290, 2454.686
578.6111, 2465.920
579.0932, 2490.539
579.5753, 2516.102
580.0574, 2521.237
580.5396, 2506.836
581.0217, 2484.833
581.5038, 2453.078
581.9859, 2421.416
582.4680, 2409.278
582.9501, 2414.081
583.4323, 2421.202
583.9144, 2421.675
584.3965, 2419.860
584.8786, 2420.091
585.3607, 2423.224
585.8428, 2425.786
586.3250, 2427.510
586.8071, 2427.453
587.2892, 2424.746
587.7713, 2417.793
588.2534, 2409.940
588.7355, 2400.080
589.2177, 2389.791
589.6998, 2381.926
590.1819, 2374.480
590.6640, 2374.600
591.1461, 2388.456
591.6282, 2412.544
592.1104, 2421.636
592.5925, 2414.599
593.0746, 2401.820
593.5567, 2388.247
594.0388, 2375.082
594.5209, 2365.106
595.0031, 2358.382
595.4852, 2356.213
595.9673, 2364.379
596.4494, 2376.720
596.9315, 2383.710
597.4136, 2379.084
597.8958, 2372.424
598.3779, 2368.397
598.8600, 2365.765
599.3421, 2361.327
599.8242, 2348.475
600.3063, 2339.886
600.7885, 2341.335
601.2706, 2352.956
601.7527, 2360.659
602.2348, 2364.091
602.7169, 2364.207
603.1990, 2359.988
603.6812, 2350.560
604.1633, 2346.582
604.6454, 2348.925
605.1275, 2355.305
605.6096, 2367.568
606.0917, 2382.556
606.5739, 2385.540
607.0560, 2364.873
607.5381, 2341.271
608.0202, 2338.182
608.5023, 2351.236
608.9844, 2367.575
609.4666, 2387.826
609.9487, 2403.741
610.4308, 2407.636
610.9129, 2399.298
611.3950, 2394.586
611.8771, 2402.207
612.3593, 2410.132
612.8414, 2411.938
613.3235, 2406.886
613.8056, 2396.408
614.2877, 2374.654
614.7698, 2355.301
615.2520, 2359.633
615.7341, 2390.042
616.2162, 2411.131
616.6983, 2412.988
617.1804, 2405.984
617.6625, 2409.292
618.1446, 2421.289
618.6267, 2433.860
619.1088, 2446.622
619.5909, 2455.535
620.0731, 2452.458
620.5552, 2438.815
621.0373, 2429.961
621.5194, 2436.886
622.0015, 2448.741
622.4836, 2458.388
622.9658, 2463.906
623.4479, 2469.824
623.9300, 2477.492
624.4121, 2485.093
624.8942, 2490.448
625.3763, 2491.688
625.8585, 2496.515
626.3406, 2508.409
626.8227, 2521.558
627.3048, 2521.241
627.7869, 2507.520
628.2690, 2497.187
628.7512, 2499.827
629.2333, 2508.640
629.7154, 2508.336
630.1975, 2500.726
630.6796, 2497.327
631.1617, 2513.848
631.6439, 2533.020
632.1260, 2537.169
632.6081, 2522.533
633.0902, 2510.467
633.5723, 2514.072
634.0544, 2520.423
634.5366, 2518.818
635.0187, 2497.012
635.5008, 2483.458
635.9829, 2480.824
636.4650, 2484.709
636.9471, 2488.518
637.4293, 2492.040
637.9114, 2495.438
638.3935, 2497.532
638.8756, 2500.394
639.3577, 2511.320
639.8398, 2529.518
640.3220, 2546.286
640.8041, 2552.439
641.2862, 2556.227
641.7683, 2570.905
642.2504, 2596.018
642.7325, 2618.405
643.2147, 2627.954
643.6968, 2632.985
644.1789, 2640.630
644.6610, 2656.136
645.1431, 2663.205
645.6252, 2646.308
646.1074, 2627.485
646.5895, 2628.528
647.0716, 2659.534
647.5537, 2686.235
648.0358, 2704.724
648.5179, 2716.622
649.0001, 2724.311
649.4822, 2727.762
649.9643, 2729.079
650.4464, 2725.940
650.9285, 2723.555
651.4106, 2735.164
651.8928, 2757.949
652.3749, 2776.788
652.8570, 2774.994
653.3391, 2771.053
653.8212, 2782.543
654.3033, 2811.626
654.7855, 2836.699
655.2676, 2847.874
655.7497, 2854.497
656.2318, 2862.746
656.7139, 2872.106
657.1960, 2885.033
657.6782, 2904.053
658.1603, 2923.718
658.6424, 2935.449
659.1245, 2938.126
659.6066, 2947.293
660.0887, 2968.526
660.5709, 2992.640
661.0530, 3000.364
661.5351, 2996.069
662.0172, 2997.844
662.4993, 3020.239
662.9814, 3048.205
663.4636, 3068.288
663.9457, 3081.636
664.4278, 3093.605
664.9099, 3101.203
