##NAMES=Magnetite
##RRUFFID=R061111
##IDEAL CHEMISTRY=Fe^2+^Fe^3+^_2_O_4_
##LOCALITY=near Scotia Talc mine, Barberton Mountain, Transvaal, South Afica
##OWNER=RRUFF
##SOURCE=Michael Scott
##DESCRIPTION=Black submetallic grains and octahedra associated with light green massive willemseite
##STATUS=The identification of this mineral is confirmed by single-crystal X-ray diffraction and chemical analysis.
##URL=rruff.info/R061111
##MEASURED CHEMISTRY=(Fe^2+^_0.51_Ni_0.48_Co_0.01_)_Î£=1_Fe^3+^_2_O_4_; trace amounts of Al; Fe^2+^ and Fe^3+^ splitted by charge balance
206.4819, 2395.538
206.9640, 2377.189
207.4461, 2364.791
207.9282, 2357.121
208.4104, 2353.554
208.8925, 2355.867
209.3746, 2354.892
209.8567, 2349.065
210.3388, 2341.189
210.8209, 2330.546
211.3030, 2318.202
211.7852, 2310.916
212.2673, 2317.443
212.7494, 2342.003
213.2315, 2350.017
213.7136, 2329.375
214.1957, 2303.625
214.6779, 2285.621
215.1600, 2276.381
215.6421, 2271.751
216.1242, 2268.442
216.6063, 2266.524
217.0884, 2267.729
217.5706, 2276.949
218.0527, 2284.568
218.5348, 2285.832
219.0169, 2281.027
219.4990, 2271.963
219.9811, 2258.900
220.4633, 2242.110
220.9454, 2232.284
221.4275, 2235.844
221.9096, 2238.449
222.3917, 2230.759
222.8738, 2216.896
223.3560, 2208.932
223.8381, 2215.684
224.3202, 2234.574
224.8023, 2243.551
225.2844, 2237.740
225.7665, 2229.329
226.2487, 2220.796
226.7308, 2212.191
227.2129, 2202.829
227.6950, 2192.150
228.1771, 2180.992
228.6592, 2172.843
229.1414, 2165.644
229.6235, 2163.610
230.1056, 2174.216
230.5877, 2188.785
231.0698, 2193.835
231.5519, 2183.164
232.0341, 2163.153
232.5162, 2150.354
232.9983, 2151.172
233.4804, 2151.735
233.9625, 2149.758
234.4446, 2147.995
234.9268, 2150.652
235.4089, 2158.990
235.8910, 2168.961
236.3731, 2173.080
236.8552, 2166.280
237.3373, 2161.343
237.8195, 2157.791
238.3016, 2156.336
238.7837, 2159.071
239.2658, 2165.865
239.7479, 2172.816
240.2300, 2174.495
240.7122, 2168.999
241.1943, 2162.508
241.6764, 2155.501
242.1585, 2147.321
242.6406, 2134.391
243.1227, 2118.280
243.6049, 2107.114
244.0870, 2111.328
244.5691, 2136.848
245.0512, 2147.637
245.5333, 2133.379
246.0154, 2116.304
246.4975, 2104.927
246.9797, 2099.620
247.4618, 2097.895
247.9439, 2098.198
248.4260, 2100.618
248.9081, 2100.694
249.3902, 2091.249
249.8724, 2086.787
250.3545, 2096.222
250.8366, 2113.363
251.3187, 2126.004
251.8008, 2125.428
252.2829, 2114.494
252.7651, 2111.485
253.2472, 2131.352
253.7293, 2141.248
254.2114, 2128.301
254.6935, 2104.797
255.1756, 2085.748
255.6578, 2078.468
256.1399, 2079.924
256.6220, 2082.616
257.1041, 2089.291
257.5862, 2092.214
258.0684, 2087.399
258.5505, 2080.604
259.0326, 2076.552
259.5147, 2076.831
259.9968, 2080.523
260.4789, 2088.635
260.9611, 2107.322
261.4432, 2112.363
261.9253, 2084.694
262.4074, 2055.201
262.8895, 2044.391
263.3716, 2054.436
263.8537, 2071.160
264.3358, 2079.897
264.8180, 2079.738
265.3001, 2078.951
265.7822, 2076.167
266.2643, 2074.537
266.7464, 2077.222
267.2285, 2082.996
267.7107, 2087.003
268.1928, 2083.013
268.6749, 2072.461
269.1570, 2069.732
269.6391, 2081.586
270.1212, 2091.756
270.6034, 2091.786
271.0855, 2084.503
271.5676, 2075.720
272.0497, 2068.912
272.5318, 2062.371
273.0139, 2050.866
273.4961, 2031.517
273.9782, 2015.125
274.4603, 2007.245
274.9424, 2005.190
275.4245, 2006.363
275.9066, 2010.517
276.3888, 2016.847
276.8709, 2027.244
277.3530, 2042.506
277.8351, 2049.236
278.3172, 2033.673
278.7993, 2012.039
279.2815, 2006.683
279.7636, 2023.901
280.2457, 2041.451
280.7278, 2039.697
281.2099, 2023.268
281.6920, 2015.572
282.1742, 2026.875
282.6563, 2043.662
283.1384, 2048.739
283.6205, 2042.100
284.1026, 2032.174
284.5847, 2019.376
285.0669, 2006.129
285.5490, 1995.509
286.0311, 1987.637
286.5132, 1985.242
286.9953, 1995.258
287.4774, 2016.948
287.9596, 2029.712
288.4417, 2020.065
288.9238, 2007.261
289.4059, 2012.265
289.8880, 2034.753
290.3701, 2054.352
290.8523, 2054.504
291.3344, 2037.183
291.8165, 2029.769
292.2986, 2044.458
292.7807, 2055.971
293.2628, 2048.605
293.7450, 2028.673
294.2271, 2012.629
294.7092, 2009.115
295.1913, 2014.864
295.6734, 2019.325
296.1555, 2019.494
296.6377, 2022.154
297.1198, 2030.958
297.6019, 2041.571
298.0840, 2049.072
298.5661, 2051.872
299.0482, 2051.272
299.5304, 2048.989
300.0125, 2042.229
300.4946, 2040.057
300.9767, 2048.805
301.4588, 2056.931
301.9409, 2053.965
302.4231, 2041.004
302.9052, 2028.980
303.3873, 2029.463
303.8694, 2044.346
304.3515, 2054.135
304.8336, 2054.002
305.3158, 2053.707
305.7979, 2057.628
306.2800, 2063.651
306.7621, 2067.177
307.2442, 2065.124
307.7263, 2058.593
308.2085, 2051.846
308.6906, 2042.552
309.1727, 2037.077
309.6548, 2038.862
310.1369, 2043.646
310.6190, 2045.786
311.1012, 2042.996
311.5833, 2040.980
312.0654, 2050.544
312.5475, 2075.101
313.0296, 2094.438
313.5117, 2104.125
313.9939, 2106.914
314.4760, 2101.245
314.9581, 2087.806
315.4402, 2075.468
315.9223, 2073.353
316.4044, 2079.371
316.8866, 2080.380
317.3687, 2073.322
317.8508, 2064.072
318.3329, 2055.886
318.8150, 2048.891
319.2971, 2043.799
319.7793, 2041.952
320.2614, 2041.653
320.7435, 2041.109
321.2256, 2040.464
321.7077, 2037.236
322.1898, 2026.415
322.6720, 2013.015
323.1541, 2009.744
323.6362, 2022.325
324.1183, 2038.263
324.6004, 2054.225
325.0826, 2068.185
325.5647, 2073.029
326.0468, 2064.585
326.5289, 2048.937
327.0110, 2037.526
327.4931, 2031.609
327.9753, 2025.339
328.4574, 2014.963
328.9395, 2005.126
329.4216, 2003.403
329.9037, 2010.377
330.3858, 2016.339
330.8680, 2010.090
331.3501, 1988.492
331.8322, 1974.427
332.3143, 1972.397
332.7964, 1972.591
333.2785, 1969.859
333.7606, 1965.411
334.2427, 1963.826
334.7249, 1968.487
335.2070, 1977.531
335.6891, 1981.006
336.1712, 1973.899
336.6533, 1966.953
337.1354, 1959.002
337.6176, 1952.845
338.0997, 1953.086
338.5818, 1960.821
339.0639, 1969.659
339.5460, 1968.523
340.0281, 1953.627
340.5103, 1941.830
340.9924, 1933.641
341.4745, 1929.330
341.9566, 1930.921
342.4387, 1937.296
342.9208, 1944.265
343.4030, 1951.702
343.8851, 1957.939
344.3672, 1950.334
344.8493, 1919.657
345.3314, 1892.822
345.8135, 1887.284
346.2957, 1893.208
346.7778, 1895.269
347.2599, 1885.537
347.7420, 1874.416
348.2241, 1876.982
348.7062, 1892.820
349.1884, 1902.993
349.6705, 1897.167
350.1526, 1884.915
350.6347, 1881.378
351.1168, 1888.203
351.5989, 1895.848
352.0811, 1902.808
352.5632, 1907.255
353.0453, 1904.055
353.5274, 1891.536
354.0095, 1878.718
354.4916, 1875.900
354.9738, 1884.897
355.4559, 1886.595
355.9380, 1872.726
356.4201, 1858.658
356.9022, 1854.298
357.3843, 1858.031
357.8665, 1863.218
358.3486, 1866.298
358.8307, 1867.099
359.3128, 1864.909
359.7949, 1853.761
360.2770, 1846.845
360.7592, 1848.560
361.2413, 1853.368
361.7234, 1855.359
362.2055, 1853.073
362.6876, 1849.579
363.1697, 1849.459
363.6519, 1854.200
364.1340, 1856.804
364.6161, 1858.512
365.0982, 1856.843
365.5803, 1847.014
366.0624, 1832.523
366.5446, 1822.373
367.0267, 1823.764
367.5088, 1833.003
367.9909, 1837.375
368.4730, 1834.700
368.9551, 1832.471
369.4373, 1834.337
369.9194, 1837.795
370.4015, 1840.827
370.8836, 1843.298
371.3657, 1843.976
371.8478, 1841.389
372.3300, 1835.876
372.8121, 1828.630
373.2942, 1817.737
373.7763, 1808.925
374.2584, 1811.904
374.7405, 1825.470
375.2227, 1833.009
375.7048, 1823.948
376.1869, 1810.807
376.6690, 1809.440
377.1511, 1819.266
377.6332, 1823.753
378.1154, 1809.635
378.5975, 1781.246
379.0796, 1768.274
379.5617, 1780.942
380.0438, 1793.502
380.5259, 1800.036
381.0081, 1802.539
381.4902, 1803.641
381.9723, 1804.222
382.4544, 1803.741
382.9365, 1800.735
383.4186, 1792.011
383.9008, 1790.031
384.3829, 1802.572
384.8650, 1813.774
385.3471, 1814.159
385.8292, 1806.149
386.3113, 1798.234
386.7935, 1796.660
387.2756, 1799.614
387.7577, 1798.810
388.2398, 1790.485
388.7219, 1786.184
389.2040, 1795.069
389.6862, 1806.379
390.1683, 1808.354
390.6504, 1797.641
391.1325, 1785.345
391.6146, 1783.287
392.0967, 1789.899
392.5789, 1793.612
393.0610, 1791.801
393.5431, 1788.116
394.0252, 1785.848
394.5073, 1784.680
394.9894, 1782.991
395.4716, 1778.535
395.9537, 1774.670
396.4358, 1775.359
396.9179, 1780.072
397.4000, 1785.121
397.8821, 1789.139
398.3643, 1791.475
398.8464, 1789.623
399.3285, 1779.775
399.8106, 1772.090
400.2927, 1767.018
400.7748, 1765.409
401.2570, 1771.601
401.7391, 1784.806
402.2212, 1794.651
402.7033, 1787.955
403.1854, 1761.430
403.6675, 1746.149
404.1497, 1748.934
404.6317, 1756.095
405.1139, 1767.256
405.5960, 1779.464
406.0781, 1789.138
406.5602, 1794.811
407.0423, 1796.196
407.5244, 1791.622
408.0066, 1779.456
408.4887, 1768.508
408.9708, 1759.267
409.4529, 1753.167
409.9350, 1753.335
410.4171, 1759.150
410.8993, 1762.543
411.3814, 1754.340
411.8635, 1741.558
412.3456, 1740.249
412.8277, 1752.638
413.3098, 1765.402
413.7920, 1770.341
414.2741, 1768.650
414.7562, 1766.751
415.2383, 1764.990
415.7204, 1762.587
416.2025, 1756.459
416.6847, 1750.118
417.1668, 1751.161
417.6489, 1761.842
418.1310, 1774.817
418.6131, 1780.003
419.0952, 1775.189
419.5774, 1770.332
420.0595, 1763.553
420.5416, 1758.544
421.0237, 1759.353
421.5058, 1763.227
421.9879, 1764.220
422.4701, 1758.755
422.9522, 1748.598
423.4343, 1737.297
423.9164, 1720.817
424.3985, 1713.293
424.8806, 1726.569
425.3628, 1743.093
425.8449, 1749.688
426.3270, 1745.663
426.8091, 1741.638
427.2912, 1746.756
427.7733, 1757.842
428.2555, 1765.183
428.7376, 1767.853
429.2197, 1768.771
429.7018, 1769.229
430.1839, 1769.321
430.6660, 1769.492
431.1482, 1771.391
431.6303, 1771.112
432.1124, 1764.491
432.5945, 1754.648
433.0766, 1747.048
433.5587, 1743.200
434.0409, 1743.025
434.5230, 1746.995
435.0051, 1756.810
435.4872, 1763.638
435.9693, 1766.878
436.4514, 1768.229
436.9336, 1768.114
437.4157, 1766.764
437.8978, 1764.374
438.3799, 1761.018
438.8620, 1756.851
439.3441, 1750.942
439.8263, 1739.393
440.3084, 1736.826
440.7905, 1758.402
441.2726, 1779.781
441.7547, 1785.233
442.2368, 1775.129
442.7190, 1761.341
443.2011, 1746.818
443.6832, 1734.962
444.1653, 1736.849
444.6474, 1755.053
445.1295, 1769.438
445.6117, 1767.364
446.0938, 1754.879
446.5759, 1747.890
447.0580, 1749.823
447.5401, 1750.389
448.0222, 1744.056
448.5044, 1734.726
448.9865, 1726.037
449.4686, 1719.142
449.9507, 1718.008
450.4328, 1728.478
450.9149, 1751.846
451.3971, 1762.066
451.8792, 1744.468
452.3613, 1731.177
452.8434, 1732.708
453.3255, 1742.699
453.8076, 1754.211
454.2898, 1764.562
454.7719, 1770.440
455.2540, 1764.672
455.7361, 1745.300
456.2182, 1731.325
456.7003, 1725.446
457.1825, 1724.116
457.6646, 1726.390
458.1467, 1731.180
458.6288, 1735.556
459.1109, 1738.586
459.5930, 1740.617
460.0752, 1742.148
460.5573, 1743.090
461.0394, 1741.831
461.5215, 1736.278
462.0036, 1731.414
462.4857, 1737.287
462.9679, 1758.594
463.4500, 1771.813
463.9321, 1770.670
464.4142, 1764.152
464.8963, 1756.005
465.3784, 1747.977
465.8606, 1743.112
466.3427, 1743.591
466.8248, 1747.746
467.3069, 1749.799
467.7890, 1748.838
468.2711, 1747.412
468.7533, 1742.862
469.2354, 1740.177
469.7175, 1745.919
470.1996, 1758.634
470.6817, 1767.621
471.1638, 1762.887
471.6460, 1748.456
472.1281, 1734.504
472.6102, 1719.805
473.0923, 1712.342
473.5744, 1720.638
474.0565, 1736.681
474.5387, 1743.339
475.0208, 1736.237
475.5029, 1731.246
475.9850, 1738.095
476.4671, 1748.827
476.9492, 1753.164
477.4313, 1749.814
477.9135, 1742.871
478.3956, 1735.078
478.8777, 1726.719
479.3598, 1722.526
479.8419, 1733.943
480.3240, 1735.690
480.8062, 1711.071
481.2883, 1682.203
481.7704, 1674.476
482.2525, 1692.319
482.7346, 1716.262
483.2167, 1727.311
483.6989, 1725.981
484.1810, 1719.713
484.6631, 1704.286
485.1452, 1692.861
485.6273, 1699.915
486.1094, 1714.114
486.5916, 1716.602
487.0737, 1698.664
487.5558, 1680.636
488.0379, 1676.148
488.5200, 1680.365
489.0021, 1684.134
489.4843, 1685.499
489.9664, 1685.236
490.4485, 1684.213
490.9306, 1682.502
491.4127, 1678.285
491.8948, 1670.111
492.3770, 1661.519
492.8591, 1650.807
493.3412, 1641.359
493.8233, 1639.556
494.3054, 1646.767
494.7875, 1654.004
495.2697, 1646.777
495.7518, 1623.962
496.2339, 1612.003
496.7160, 1616.364
497.1981, 1624.645
497.6802, 1632.689
498.1624, 1639.328
498.6445, 1642.041
499.1266, 1638.693
499.6087, 1634.231
500.0908, 1633.547
500.5729, 1634.573
501.0551, 1631.375
501.5372, 1622.257
502.0193, 1611.800
502.5014, 1604.202
502.9835, 1599.475
503.4656, 1598.338
503.9478, 1603.814
504.4299, 1608.918
504.9120, 1612.489
505.3941, 1613.942
505.8762, 1612.071
506.3583, 1606.676
506.8405, 1600.141
507.3226, 1594.030
507.8047, 1587.991
508.2868, 1590.686
508.7689, 1610.623
509.2510, 1626.186
509.7332, 1623.302
510.2153, 1609.338
510.6974, 1596.187
511.1795, 1586.135
511.6616, 1578.262
512.1437, 1571.188
512.6259, 1565.930
513.1080, 1564.773
513.5901, 1568.209
514.0722, 1576.048
514.5543, 1589.616
515.0364, 1609.281
515.5186, 1620.831
516.0007, 1623.437
516.4828, 1620.089
516.9649, 1605.967
517.4470, 1588.864
517.9291, 1578.062
518.4113, 1575.751
518.8934, 1576.967
519.3755, 1576.085
519.8576, 1573.274
520.3397, 1573.214
520.8218, 1577.151
521.3040, 1581.249
521.7861, 1584.234
522.2682, 1585.903
522.7503, 1585.130
523.2324, 1580.025
523.7145, 1577.318
524.1967, 1584.782
524.6788, 1595.265
525.1609, 1596.075
525.6430, 1585.952
526.1251, 1574.724
526.6072, 1570.030
527.0894, 1571.303
527.5715, 1573.477
528.0536, 1578.247
528.5357, 1581.765
529.0178, 1586.296
529.4999, 1587.689
529.9821, 1578.055
530.4642, 1559.135
530.9463, 1545.867
531.4284, 1556.765
531.9105, 1581.896
532.3926, 1584.664
532.8748, 1560.449
533.3569, 1539.790
533.8390, 1535.965
534.3211, 1542.906
534.8032, 1551.222
535.2853, 1562.160
535.7675, 1568.862
536.2496, 1566.986
536.7317, 1561.929
537.2138, 1557.697
537.6959, 1554.770
538.1780, 1552.015
538.6602, 1548.358
539.1423, 1546.296
539.6244, 1554.240
540.1065, 1581.213
540.5886, 1597.394
541.0707, 1594.561
541.5529, 1585.784
542.0350, 1573.152
542.5171, 1559.923
542.9992, 1554.202
543.4813, 1562.901
543.9634, 1577.113
544.4456, 1585.855
544.9277, 1589.799
545.4098, 1593.561
545.8919, 1598.808
546.3740, 1603.169
546.8561, 1603.825
547.3383, 1600.332
547.8204, 1595.093
548.3025, 1583.716
548.7846, 1575.382
549.2667, 1575.728
549.7488, 1580.925
550.2310, 1585.620
550.7131, 1587.920
551.1952, 1588.970
551.6773, 1590.469
552.1594, 1592.453
552.6415, 1592.023
553.1237, 1587.027
553.6058, 1583.696
554.0879, 1590.398
554.5700, 1599.327
555.0521, 1597.239
555.5342, 1577.543
556.0164, 1560.987
556.4985, 1558.318
556.9806, 1564.694
557.4627, 1576.920
557.9448, 1592.961
558.4269, 1604.505
558.9091, 1604.899
559.3912, 1596.327
559.8733, 1589.229
560.3554, 1582.092
560.8375, 1579.133
561.3196, 1587.358
561.8018, 1594.089
562.2839, 1588.479
562.7660, 1572.371
563.2481, 1556.891
563.7302, 1547.789
564.2123, 1543.672
564.6945, 1545.924
565.1766, 1553.408
565.6587, 1551.453
566.1408, 1532.272
566.6229, 1509.201
567.1050, 1499.014
567.5872, 1503.968
568.0693, 1512.107
568.5514, 1529.819
569.0335, 1543.880
569.5156, 1545.926
569.9977, 1541.409
570.4799, 1539.387
570.9620, 1542.697
571.4441, 1545.978
571.9262, 1540.195
572.4083, 1525.814
572.8904, 1521.138
573.3726, 1530.873
573.8547, 1539.972
574.3368, 1539.314
574.8189, 1533.512
575.3010, 1530.231
575.7831, 1530.744
576.2653, 1531.363
576.7474, 1531.023
577.2295, 1529.838
577.7116, 1526.882
578.1937, 1522.887
578.6758, 1521.097
579.1580, 1523.841
579.6401, 1529.380
580.1222, 1532.485
580.6042, 1532.154
581.0864, 1531.899
581.5685, 1531.073
582.0506, 1531.297
582.5327, 1535.288
583.0148, 1541.126
583.4969, 1543.191
583.9791, 1536.872
584.4612, 1529.458
584.9433, 1529.619
585.4254, 1534.294
585.9075, 1533.714
586.3896, 1525.330
586.8718, 1516.320
587.3539, 1514.390
587.8360, 1519.422
588.3181, 1519.448
588.8002, 1506.399
589.2823, 1498.394
589.7645, 1502.716
590.2466, 1510.377
590.7287, 1513.084
591.2108, 1509.845
591.6929, 1504.847
592.1750, 1500.882
592.6572, 1497.467
593.1393, 1493.013
593.6214, 1487.553
594.1035, 1483.575
594.5856, 1481.693
595.0677, 1482.390
595.5499, 1487.451
596.0320, 1499.003
596.5141, 1505.023
596.9962, 1503.961
597.4783, 1498.653
597.9604, 1484.813
598.4426, 1469.479
598.9247, 1464.450
599.4068, 1473.344
599.8889, 1486.094
600.3710, 1490.859
600.8531, 1488.407
601.3353, 1486.651
601.8174, 1485.895
602.2995, 1485.446
602.7816, 1484.304
603.2637, 1483.637
603.7458, 1486.442
604.2280, 1495.188
604.7101, 1499.650
605.1922, 1495.103
605.6743, 1487.229
606.1564, 1476.958
606.6385, 1467.377
607.1207, 1465.298
607.6028, 1474.320
608.0849, 1491.077
608.5670, 1513.499
609.0491, 1544.751
609.5313, 1555.624
610.0134, 1531.572
610.4955, 1506.153
610.9776, 1501.104
611.4597, 1508.894
611.9418, 1516.468
612.4240, 1523.428
612.9061, 1527.103
613.3882, 1522.224
613.8703, 1515.689
614.3524, 1518.488
614.8345, 1529.461
615.3167, 1535.633
615.7988, 1527.301
616.2809, 1511.191
616.7630, 1509.177
617.2451, 1527.897
617.7272, 1539.557
618.2094, 1535.295
618.6915, 1528.911
619.1736, 1528.109
619.6557, 1531.967
620.1378, 1538.017
620.6199, 1551.152
621.1021, 1557.806
621.5842, 1542.539
622.0663, 1517.066
622.5484, 1499.617
623.0305, 1493.849
623.5126, 1498.516
623.9948, 1514.431
624.4769, 1538.188
624.9590, 1550.251
625.4411, 1544.240
625.9232, 1540.086
626.4053, 1541.868
626.8875, 1545.629
627.3696, 1550.243
627.8517, 1554.975
628.3338, 1557.546
628.8159, 1556.221
629.2980, 1553.433
629.7802, 1549.564
630.2623, 1546.011
630.7444, 1546.297
631.2265, 1551.105
631.7086, 1557.698
632.1907, 1563.948
632.6729, 1569.633
633.1550, 1572.767
633.6371, 1573.026
634.1192, 1571.119
634.6013, 1562.535
635.0834, 1555.513
635.5656, 1557.230
636.0477, 1566.731
636.5298, 1576.732
637.0119, 1585.539
637.4940, 1592.160
637.9761, 1593.526
638.4583, 1592.173
638.9404, 1596.754
639.4225, 1609.232
639.9046, 1618.459
640.3867, 1611.531
640.8688, 1589.832
641.3510, 1578.299
641.8331, 1579.180
642.3152, 1586.988
642.7973, 1608.596
643.2794, 1630.294
643.7615, 1640.111
644.2437, 1638.842
644.7258, 1637.356
645.2079, 1640.495
645.6900, 1645.616
646.1721, 1650.365
646.6542, 1655.097
647.1364, 1661.014
647.6185, 1668.390
648.1006, 1675.825
648.5827, 1681.909
649.0648, 1686.661
649.5469, 1690.727
650.0291, 1692.117
650.5112, 1696.353
650.9933, 1707.728
651.4754, 1719.854
651.9575, 1727.659
652.4396, 1731.382
652.9218, 1734.860
653.4039, 1739.416
653.8860, 1744.607
654.3681, 1750.680
654.8502, 1757.062
655.3323, 1761.182
655.8145, 1762.787
656.2966, 1767.630
656.7787, 1782.458
657.2608, 1805.734
657.7429, 1821.528
658.2250, 1828.635
658.7072, 1830.866
659.1893, 1821.426
659.6714, 1813.389
660.1535, 1819.036
660.6356, 1836.112
661.1177, 1849.223
661.5999, 1849.119
662.0820, 1847.857
662.5641, 1852.644
663.0462, 1862.157
663.5283, 1875.372
664.0104, 1891.489
664.4926, 1906.744
664.9747, 1917.276
665.4568, 1924.829
665.9389, 1939.009
666.4210, 1962.872
666.9031, 1983.031
667.3853, 1994.774
667.8674, 2004.171
668.3495, 2015.987
668.8316, 2016.354
669.3137, 2038.188
669.7958, 2055.299
670.2780, 2067.946
670.7601, 2062.742
671.2422, 2080.586
671.7243, 2089.193
672.2064, 2097.422
672.6885, 2118.509
673.1707, 2115.904
673.6528, 2136.787
674.1349, 2162.508
674.6170, 2165.770
675.0991, 2172.451
675.5812, 2189.677
676.0634, 2204.845
676.5455, 2204.219
677.0276, 2192.361
677.5097, 2190.818
677.9918, 2208.773
678.4739, 2224.789
678.9561, 2234.028
679.4382, 2238.934
679.9203, 2240.777
680.4024, 2240.240
680.8845, 2237.816
681.3666, 2233.253
681.8488, 2229.156
682.3309, 2233.523
682.8130, 2244.179
683.2951, 2238.764
683.7772, 2211.073
684.2593, 2185.353
684.7415, 2178.920
685.2236, 2185.707
685.7057, 2185.217
686.1878, 2172.834
686.6699, 2160.969
687.1520, 2149.593
687.6342, 2139.132
688.1163, 2131.847
688.5984, 2125.262
689.0805, 2113.955
689.5626, 2095.400
690.0447, 2076.832
690.5269, 2068.987
691.0090, 2065.094
691.4911, 2046.285
691.9732, 2012.728
692.4553, 1984.901
692.9374, 1973.889
693.4196, 1971.718
693.9017, 1963.113
694.3838, 1945.684
694.8659, 1930.566
695.3480, 1921.820
695.8301, 1910.545
696.3123, 1891.535
696.7944, 1869.840
697.2765, 1850.291
697.7586, 1833.701
698.2407, 1822.523
698.7228, 1824.623
