##NAMES=Magnesio-fluoro-arfvedsonite
##RRUFFID=R050515
##IDEAL CHEMISTRY=NaNa_2_(Mg_4_Fe^3+^)Si_8_O_22_F_2_
##LOCALITY=unknown
##OWNER=RRUFF
##SOURCE=Frank Hawthorne
##DESCRIPTION=Numerous small dark green fragments
##STATUS=The identification of this mineral has been confirmed by X-ray diffraction and chemical analysis
##URL=rruff.info/R050515
##MEASURED CHEMISTRY=(Na_0.48_K_0.20_[box]_0.32_)(Na_1.50_Ca_0.50_)_Σ=2_(Mg_2.05_Fe^2+^_1.45_Mn_0.50_)_Σ=4_(Fe^3+^_0.80_Mn_0.05_Al_0.10_Ti_0.05_)(Si_0.97_Al_0.03_)_8_O_22_(F_0.65_(OH)_0.35_)_2_
92.37695, 1172.078
92.85907, 1157.423
93.34119, 1160.824
93.82330, 1172.843
94.30542, 1181.438
94.78754, 1184.250
95.26965, 1183.737
95.75177, 1181.771
96.23389, 1179.709
96.71600, 1176.956
97.19812, 1173.663
97.68024, 1169.999
98.16235, 1166.528
98.64447, 1164.031
99.12659, 1162.964
99.60870, 1159.028
100.0908, 1154.657
100.5729, 1150.446
101.0551, 1146.328
101.5372, 1142.031
102.0193, 1137.587
102.5014, 1133.969
102.9835, 1130.584
103.4656, 1128.480
103.9478, 1128.388
104.4299, 1129.610
104.9120, 1130.941
105.3941, 1131.408
105.8762, 1130.869
106.3583, 1130.474
106.8405, 1130.178
107.3226, 1129.682
107.8047, 1128.802
108.2868, 1127.524
108.7689, 1125.919
109.2510, 1123.812
109.7332, 1121.088
110.2153, 1119.305
110.6974, 1119.197
111.1795, 1119.993
111.6616, 1120.458
112.1437, 1120.127
112.6259, 1119.878
113.1080, 1120.755
113.5901, 1122.658
114.0722, 1124.703
114.5543, 1126.532
115.0364, 1128.133
115.5185, 1129.147
116.0007, 1128.993
116.4828, 1128.553
116.9649, 1128.059
117.4470, 1127.586
117.9291, 1127.682
118.4112, 1129.410
118.8934, 1133.940
119.3755, 1137.175
119.8576, 1137.622
120.3397, 1137.349
120.8218, 1137.945
121.3039, 1140.049
121.7861, 1143.214
122.2682, 1146.186
122.7503, 1149.642
123.2324, 1152.012
123.7145, 1152.769
124.1966, 1152.422
124.6788, 1151.441
125.1609, 1149.936
125.6430, 1148.162
126.1251, 1148.391
126.6072, 1152.314
127.0893, 1156.044
127.5715, 1157.726
128.0536, 1157.639
128.5357, 1157.471
129.0178, 1158.646
129.4999, 1160.818
129.9821, 1161.870
130.4642, 1160.571
130.9463, 1158.736
131.4284, 1158.292
131.9105, 1159.482
132.3926, 1161.247
132.8748, 1163.163
133.3569, 1165.089
133.8390, 1166.662
134.3211, 1167.324
134.8032, 1167.455
135.2853, 1168.458
135.7674, 1170.964
136.2496, 1173.553
136.7317, 1175.646
137.2138, 1177.268
137.6959, 1178.496
138.1780, 1179.196
138.6601, 1179.267
139.1423, 1179.951
139.6244, 1182.023
140.1065, 1184.096
140.5886, 1185.539
141.0707, 1186.401
141.5528, 1187.213
142.0350, 1188.640
142.5171, 1191.058
142.9992, 1193.139
143.4813, 1194.742
143.9634, 1196.160
144.4455, 1197.502
144.9277, 1198.816
145.4098, 1200.244
145.8919, 1202.096
146.3740, 1205.155
146.8561, 1207.075
147.3382, 1206.853
147.8204, 1205.730
148.3025, 1205.201
148.7846, 1205.796
149.2667, 1207.159
149.7488, 1208.800
150.2309, 1211.012
150.7131, 1212.659
151.1952, 1213.134
151.6773, 1212.676
152.1594, 1211.988
152.6415, 1211.248
153.1236, 1210.477
153.6058, 1209.590
154.0879, 1208.436
154.5700, 1207.649
155.0521, 1207.987
155.5342, 1209.505
156.0163, 1210.833
156.4985, 1211.220
156.9806, 1211.287
157.4627, 1211.482
157.9448, 1211.894
158.4269, 1212.480
158.9090, 1213.259
159.3912, 1214.423
159.8733, 1215.245
160.3554, 1215.380
160.8375, 1215.213
161.3196, 1215.003
161.8017, 1214.841
162.2839, 1214.809
162.7660, 1215.163
163.2481, 1216.146
163.7302, 1217.242
164.2123, 1218.947
164.6944, 1220.570
165.1766, 1221.162
165.6587, 1220.135
166.1408, 1217.790
166.6229, 1216.082
167.1050, 1215.523
167.5871, 1215.050
168.0693, 1214.628
168.5514, 1214.139
169.0335, 1213.337
169.5156, 1212.004
169.9977, 1210.200
170.4798, 1208.969
170.9620, 1208.882
171.4441, 1208.709
171.9262, 1207.811
172.4083, 1206.292
172.8904, 1204.669
173.3725, 1203.223
173.8547, 1202.035
174.3368, 1201.262
174.8189, 1201.463
175.3010, 1201.688
175.7831, 1200.916
176.2652, 1199.070
176.7474, 1197.457
177.2295, 1197.357
177.7116, 1198.237
178.1937, 1198.814
178.6758, 1198.524
179.1579, 1197.885
179.6401, 1197.659
180.1222, 1197.916
180.6043, 1198.387
181.0864, 1199.116
181.5685, 1199.917
182.0506, 1200.468
182.5328, 1200.673
183.0149, 1200.518
183.4970, 1199.867
183.9791, 1198.264
184.4612, 1196.873
184.9433, 1196.035
185.4255, 1195.728
185.9076, 1195.962
186.3897, 1196.956
186.8718, 1198.591
187.3539, 1199.524
187.8360, 1199.230
188.3182, 1198.710
188.8003, 1198.266
189.2824, 1197.828
189.7645, 1197.161
190.2466, 1195.975
190.7287, 1194.214
191.2109, 1193.297
191.6930, 1194.142
192.1751, 1194.936
192.6572, 1195.131
193.1393, 1194.768
193.6214, 1194.112
194.1036, 1193.349
194.5857, 1192.421
195.0678, 1191.861
195.5499, 1191.820
196.0320, 1191.911
196.5141, 1192.058
196.9963, 1192.200
197.4784, 1192.219
197.9605, 1192.028
198.4426, 1191.609
198.9247, 1190.843
199.4068, 1189.217
199.8890, 1187.659
200.3711, 1186.993
200.8532, 1187.204
201.3353, 1187.356
201.8174, 1186.430
202.2995, 1184.355
202.7817, 1183.010
203.2638, 1183.086
203.7459, 1183.561
204.2280, 1183.431
204.7101, 1182.568
205.1922, 1181.608
205.6744, 1181.271
206.1565, 1181.386
206.6386, 1181.083
207.1207, 1179.987
207.6028, 1178.466
208.0849, 1176.911
208.5671, 1175.264
209.0492, 1173.892
209.5313, 1173.243
210.0134, 1173.089
210.4955, 1173.016
210.9776, 1172.998
211.4598, 1172.943
211.9419, 1172.607
212.4240, 1171.875
212.9061, 1171.098
213.3882, 1170.652
213.8703, 1170.309
214.3525, 1169.613
214.8346, 1168.122
215.3167, 1166.094
215.7988, 1164.463
216.2809, 1163.183
216.7630, 1162.432
217.2451, 1162.658
217.7273, 1163.339
218.2094, 1163.525
218.6915, 1162.425
219.1736, 1160.346
219.6557, 1159.192
220.1378, 1159.857
220.6200, 1160.407
221.1021, 1160.029
221.5842, 1159.166
222.0663, 1158.662
222.5484, 1159.247
223.0305, 1160.692
223.5127, 1160.713
223.9948, 1157.022
224.4769, 1154.278
224.9590, 1154.185
225.4411, 1155.650
225.9232, 1156.670
226.4054, 1155.810
226.8875, 1153.321
227.3696, 1152.112
227.8517, 1153.998
228.3338, 1155.316
228.8159, 1155.000
229.2981, 1153.579
229.7802, 1152.004
230.2623, 1150.851
230.7444, 1150.116
231.2265, 1149.797
231.7086, 1150.510
232.1908, 1150.931
232.6729, 1150.373
233.1550, 1149.284
233.6371, 1148.580
234.1192, 1148.851
234.6013, 1149.946
235.0835, 1150.752
235.5656, 1150.933
236.0477, 1151.248
236.5298, 1152.170
237.0119, 1153.399
237.4940, 1154.223
237.9762, 1154.159
238.4583, 1153.459
238.9404, 1153.330
239.4225, 1154.535
239.9046, 1155.352
240.3867, 1155.114
240.8689, 1154.038
241.3510, 1152.423
241.8331, 1150.057
242.3152, 1147.681
242.7973, 1147.554
243.2794, 1151.180
243.7616, 1154.280
244.2437, 1154.529
244.7258, 1152.708
245.2079, 1151.109
245.6900, 1150.619
246.1721, 1150.992
246.6543, 1151.742
247.1364, 1153.093
247.6185, 1154.205
248.1006, 1154.381
248.5827, 1153.906
249.0648, 1153.873
249.5470, 1154.923
250.0291, 1156.246
250.5112, 1156.549
250.9933, 1155.667
251.4754, 1154.860
251.9576, 1154.950
252.4397, 1155.741
252.9218, 1156.410
253.4039, 1156.865
253.8860, 1156.931
254.3681, 1156.308
254.8503, 1154.994
255.3324, 1153.862
255.8145, 1153.616
256.2966, 1154.076
256.7787, 1154.224
257.2608, 1153.414
257.7430, 1152.923
258.2251, 1154.024
258.7072, 1156.488
259.1893, 1158.784
259.6714, 1159.823
260.1535, 1159.817
260.6357, 1159.939
261.1178, 1160.364
261.5999, 1160.853
262.0820, 1161.213
262.5641, 1161.498
263.0462, 1161.874
263.5284, 1162.763
264.0105, 1163.958
264.4926, 1164.085
264.9747, 1162.172
265.4568, 1160.573
265.9389, 1160.320
266.4211, 1161.159
266.9032, 1162.630
267.3853, 1164.814
267.8674, 1167.386
268.3495, 1168.847
268.8316, 1168.395
269.3138, 1167.996
269.7959, 1168.611
270.2780, 1169.700
270.7601, 1170.424
271.2422, 1170.262
271.7243, 1169.512
272.2065, 1169.149
272.6886, 1169.247
273.1707, 1169.664
273.6528, 1170.400
274.1349, 1171.357
274.6170, 1172.528
275.0992, 1173.967
275.5813, 1175.384
276.0634, 1175.962
276.5455, 1175.122
277.0276, 1174.517
277.5097, 1174.641
277.9919, 1175.002
278.4740, 1175.086
278.9561, 1174.709
279.4382, 1174.207
279.9203, 1174.237
280.4024, 1175.080
280.8846, 1175.881
281.3667, 1176.459
281.8488, 1177.026
282.3309, 1177.826
282.8130, 1178.886
283.2951, 1179.910
283.7773, 1180.361
284.2594, 1179.780
284.7415, 1179.784
285.2236, 1180.691
285.7057, 1181.888
286.1878, 1183.304
286.6700, 1184.763
287.1521, 1185.799
287.6342, 1185.669
288.1163, 1183.785
288.5984, 1183.073
289.0805, 1184.430
289.5627, 1186.042
290.0448, 1187.254
290.5269, 1187.982
291.0090, 1188.359
291.4911, 1188.455
291.9732, 1188.231
292.4554, 1188.202
292.9375, 1188.889
293.4196, 1189.248
293.9017, 1188.622
294.3838, 1187.385
294.8659, 1186.316
295.3481, 1185.937
295.8302, 1186.238
296.3123, 1187.094
296.7944, 1189.926
297.2765, 1191.797
297.7586, 1191.402
298.2408, 1189.825
298.7229, 1188.750
299.2050, 1189.140
299.6871, 1190.541
300.1692, 1191.201
300.6513, 1190.655
301.1335, 1189.840
301.6156, 1188.410
302.0977, 1186.937
302.5798, 1186.066
303.0619, 1186.050
303.5440, 1186.584
304.0262, 1187.033
304.5083, 1187.270
304.9904, 1187.612
305.4725, 1188.122
305.9546, 1188.691
306.4367, 1189.389
306.9189, 1190.162
307.4010, 1190.646
307.8831, 1190.220
308.3652, 1188.176
308.8473, 1187.097
309.3294, 1187.440
309.8116, 1188.182
310.2937, 1188.882
310.7758, 1187.697
311.2579, 1189.747
311.7400, 1190.943
312.2221, 1191.331
312.7043, 1188.488
313.1864, 1189.817
313.6685, 1189.473
314.1506, 1189.062
314.6327, 1190.977
315.1148, 1188.604
315.5970, 1190.483
316.0791, 1190.664
316.5612, 1191.622
317.0433, 1190.899
317.5254, 1190.694
318.0075, 1192.172
318.4897, 1192.719
318.9718, 1191.802
319.4539, 1192.809
319.9360, 1190.378
320.4181, 1190.964
320.9002, 1192.852
321.3824, 1192.020
321.8645, 1193.058
322.3466, 1193.384
322.8287, 1190.471
323.3108, 1193.190
323.7929, 1193.474
324.2751, 1191.256
324.7572, 1193.782
325.2393, 1191.910
325.7214, 1191.607
326.2035, 1192.487
326.6856, 1192.134
327.1678, 1192.570
327.6499, 1192.944
328.1320, 1193.170
328.6141, 1193.510
329.0962, 1193.734
329.5783, 1193.705
330.0605, 1193.708
330.5426, 1193.888
331.0247, 1194.207
331.5068, 1194.537
331.9889, 1194.771
332.4710, 1194.921
332.9532, 1195.185
333.4353, 1195.712
333.9174, 1196.198
334.3995, 1196.506
334.8816, 1196.759
335.3637, 1197.109
335.8459, 1197.627
336.3280, 1198.338
336.8101, 1199.330
337.2922, 1201.096
337.7743, 1202.402
338.2564, 1202.889
338.7386, 1203.078
339.2206, 1203.524
339.7028, 1204.344
340.1849, 1205.114
340.6670, 1205.090
341.1491, 1203.742
341.6312, 1202.934
342.1133, 1202.441
342.5955, 1202.582
343.0776, 1203.920
343.5597, 1206.205
344.0418, 1208.488
344.5239, 1209.874
345.0060, 1210.318
345.4882, 1210.653
345.9703, 1210.917
346.4524, 1211.021
346.9345, 1210.704
347.4166, 1210.230
347.8987, 1210.060
348.3809, 1210.489
348.8630, 1211.404
349.3451, 1212.350
349.8272, 1213.404
350.3093, 1214.366
350.7914, 1215.333
351.2736, 1216.133
351.7557, 1216.545
352.2378, 1216.493
352.7199, 1216.174
353.2020, 1215.824
353.6841, 1215.279
354.1663, 1215.209
354.6484, 1216.477
355.1305, 1217.623
355.6126, 1217.522
356.0947, 1216.246
356.5768, 1214.942
357.0590, 1214.988
357.5411, 1216.479
358.0232, 1216.998
358.5053, 1215.912
358.9874, 1214.491
359.4695, 1212.708
359.9517, 1211.034
360.4338, 1210.475
360.9159, 1212.078
361.3980, 1214.904
361.8801, 1215.831
362.3622, 1213.740
362.8444, 1212.203
363.3265, 1213.297
363.8086, 1215.183
364.2907, 1215.899
364.7728, 1214.764
365.2549, 1212.851
365.7371, 1211.330
366.2192, 1210.162
366.7013, 1209.696
367.1834, 1210.782
367.6655, 1211.993
368.1476, 1212.068
368.6298, 1211.033
369.1119, 1210.168
369.5940, 1210.824
370.0761, 1212.569
370.5582, 1213.224
371.0403, 1212.210
371.5225, 1210.816
372.0046, 1209.784
372.4867, 1209.060
372.9688, 1208.545
373.4509, 1208.461
373.9330, 1208.415
374.4152, 1207.744
374.8973, 1206.384
375.3794, 1204.938
375.8615, 1203.511
376.3436, 1202.281
376.8257, 1201.586
377.3079, 1201.693
377.7900, 1201.720
378.2721, 1200.945
378.7542, 1199.518
379.2363, 1198.103
379.7184, 1196.894
380.2006, 1195.727
380.6827, 1194.205
381.1648, 1192.319
381.6469, 1191.017
382.1290, 1191.126
382.6111, 1191.781
383.0933, 1191.883
383.5754, 1191.313
384.0575, 1190.061
384.5396, 1187.635
385.0217, 1184.356
385.5038, 1182.448
385.9860, 1183.286
386.4681, 1184.338
386.9502, 1183.860
387.4323, 1182.250
387.9144, 1180.980
388.3965, 1180.827
388.8787, 1181.329
389.3608, 1181.273
389.8429, 1180.515
390.3250, 1179.634
390.8071, 1178.786
391.2892, 1177.859
391.7714, 1176.586
392.2535, 1174.931
392.7356, 1173.356
393.2177, 1172.456
393.6998, 1172.430
394.1819, 1172.120
394.6641, 1171.508
395.1462, 1170.650
395.6283, 1169.320
396.1104, 1167.736
396.5925, 1166.519
397.0746, 1166.101
397.5568, 1166.332
398.0389, 1166.343
398.5210, 1165.781
399.0031, 1165.429
399.4852, 1165.767
399.9673, 1166.179
400.4495, 1165.926
400.9316, 1164.797
401.4137, 1163.246
401.8958, 1162.002
402.3779, 1161.381
402.8600, 1160.189
403.3422, 1157.372
403.8243, 1154.983
404.3064, 1154.293
404.7885, 1155.008
405.2706, 1156.013
405.7527, 1156.512
406.2349, 1156.535
406.7170, 1156.343
407.1991, 1156.209
407.6812, 1155.394
408.1633, 1152.749
408.6454, 1149.823
409.1276, 1148.622
409.6097, 1149.909
410.0918, 1152.006
410.5739, 1152.193
411.0560, 1149.963
411.5381, 1148.558
412.0203, 1149.536
412.5024, 1150.592
412.9845, 1150.406
413.4666, 1149.052
413.9487, 1147.333
414.4308, 1145.470
414.9130, 1143.651
415.3951, 1142.730
415.8772, 1143.058
416.3593, 1143.415
416.8414, 1143.041
417.3235, 1142.305
417.8057, 1141.702
418.2878, 1141.426
418.7699, 1141.156
419.2520, 1140.414
419.7341, 1139.279
420.2162, 1138.624
420.6984, 1138.981
421.1805, 1139.574
421.6626, 1139.284
422.1447, 1138.105
422.6268, 1137.190
423.1089, 1137.380
423.5911, 1137.887
424.0732, 1137.575
424.5553, 1136.320
425.0374, 1134.750
425.5195, 1133.190
426.0016, 1131.715
426.4838, 1130.666
426.9659, 1130.524
427.4480, 1130.290
427.9301, 1129.323
428.4122, 1127.957
428.8943, 1126.838
429.3765, 1126.193
429.8586, 1126.042
430.3407, 1126.518
430.8228, 1128.393
431.3049, 1129.146
431.7870, 1128.036
432.2692, 1126.349
432.7513, 1124.961
433.2334, 1123.926
433.7155, 1122.837
434.1976, 1121.343
434.6797, 1119.490
435.1619, 1117.932
435.6440, 1116.673
436.1261, 1115.707
436.6082, 1115.047
437.0903, 1114.670
437.5724, 1114.721
438.0546, 1115.208
438.5367, 1115.631
439.0188, 1115.100
439.5009, 1113.215
439.9830, 1111.642
440.4651, 1110.245
440.9473, 1109.316
441.4294, 1109.008
441.9115, 1109.301
442.3936, 1110.248
442.8757, 1112.338
443.3578, 1114.826
443.8400, 1114.744
444.3221, 1110.788
444.8042, 1107.534
445.2863, 1107.382
445.7684, 1108.282
446.2505, 1108.391
446.7327, 1107.308
447.2148, 1106.012
447.6969, 1105.278
448.1790, 1105.058
448.6611, 1105.193
449.1432, 1105.942
449.6254, 1106.490
450.1075, 1105.770
450.5896, 1104.213
451.0717, 1103.163
451.5538, 1103.689
452.0359, 1104.356
452.5181, 1103.526
453.0002, 1101.412
453.4823, 1099.568
453.9644, 1098.722
454.4465, 1098.526
454.9286, 1098.246
455.4108, 1097.897
455.8929, 1097.451
456.3750, 1096.748
456.8571, 1096.025
457.3392, 1095.508
457.8214, 1095.241
458.3035, 1095.254
458.7856, 1095.722
459.2677, 1096.661
459.7498, 1096.378
460.2319, 1093.674
460.7141, 1091.337
461.1962, 1090.344
461.6783, 1090.136
462.1604, 1090.013
462.6425, 1089.688
463.1246, 1089.084
463.6068, 1088.008
464.0889, 1086.218
464.5710, 1084.617
465.0531, 1083.273
465.5352, 1082.047
466.0173, 1080.842
466.4995, 1079.694
466.9816, 1078.653
467.4637, 1077.647
467.9458, 1076.893
468.4279, 1077.350
468.9100, 1079.858
469.3922, 1081.394
469.8743, 1080.255
470.3564, 1078.284
470.8385, 1076.920
471.3206, 1076.378
471.8027, 1075.911
472.2849, 1074.968
472.7670, 1073.623
473.2491, 1072.076
473.7312, 1070.146
474.2133, 1068.570
474.6954, 1068.275
475.1776, 1068.710
475.6597, 1068.603
476.1418, 1067.511
476.6239, 1066.124
477.1060, 1064.821
477.5881, 1063.604
478.0703, 1062.476
478.5524, 1061.467
479.0345, 1060.470
479.5166, 1059.260
479.9987, 1057.687
480.4808, 1056.680
480.9630, 1057.112
481.4451, 1057.452
481.9272, 1056.362
482.4093, 1054.202
482.8914, 1052.360
483.3735, 1051.705
483.8557, 1051.849
484.3378, 1051.377
484.8199, 1049.452
485.3020, 1048.098
485.7841, 1047.917
486.2662, 1047.928
486.7484, 1047.170
487.2305, 1045.679
487.7126, 1044.392
488.1947, 1044.313
488.6768, 1045.318
489.1589, 1045.458
489.6411, 1044.297
490.1232, 1042.915
490.6053, 1041.162
491.0874, 1039.624
491.5695, 1039.234
492.0516, 1040.337
492.5338, 1041.518
493.0159, 1041.206
493.4980, 1039.560
493.9801, 1037.943
494.4622, 1036.529
494.9443, 1035.228
495.4265, 1033.915
495.9086, 1032.650
496.3907, 1031.663
496.8728, 1031.320
497.3549, 1031.001
497.8370, 1029.855
498.3192, 1028.217
498.8013, 1027.577
499.2834, 1028.774
499.7655, 1030.424
500.2476, 1030.076
500.7297, 1026.871
501.2119, 1024.747
501.6940, 1024.738
502.1761, 1025.224
502.6582, 1024.951
503.1403, 1024.111
503.6224, 1023.690
504.1045, 1024.346
504.5866, 1025.747
505.0688, 1026.726
505.5509, 1027.321
506.0330, 1027.379
506.5151, 1026.378
506.9972, 1025.278
507.4793, 1024.828
507.9615, 1025.033
508.4436, 1025.389
508.9257, 1025.485
509.4078, 1025.368
509.8899, 1025.270
510.3720, 1025.114
510.8542, 1025.150
511.3363, 1026.044
511.8184, 1026.872
512.3005, 1026.426
512.7827, 1024.363
513.2648, 1022.450
513.7469, 1022.103
514.2290, 1022.939
514.7111, 1023.989
515.1932, 1025.250
515.6754, 1026.162
516.1575, 1026.255
516.6396, 1025.603
517.1217, 1024.737
517.6038, 1023.206
518.0859, 1022.010
518.5681, 1021.766
519.0502, 1022.118
519.5323, 1022.420
520.0144, 1022.499
520.4965, 1022.752
520.9786, 1023.831
521.4608, 1026.124
521.9429, 1026.825
522.4250, 1024.442
522.9071, 1022.361
523.3892, 1021.962
523.8713, 1022.600
524.3535, 1023.285
524.8356, 1023.602
525.3177, 1023.628
525.7998, 1023.279
526.2819, 1022.288
526.7640, 1022.278
527.2462, 1024.258
527.7283, 1026.300
528.2104, 1027.781
528.6925, 1028.593
529.1746, 1028.489
529.6567, 1026.955
530.1389, 1025.116
530.6210, 1024.693
531.1031, 1025.591
531.5852, 1026.114
532.0673, 1025.798
532.5494, 1024.901
533.0316, 1023.340
533.5137, 1021.170
533.9958, 1019.873
534.4779, 1020.190
534.9600, 1021.123
535.4421, 1022.340
535.9243, 1023.555
536.4064, 1023.884
536.8885, 1022.817
537.3706, 1021.088
537.8527, 1020.306
538.3348, 1021.382
538.8170, 1021.555
539.2991, 1019.686
539.7812, 1018.005
540.2633, 1018.103
540.7454, 1019.512
541.2275, 1020.778
541.7097, 1021.050
542.1918, 1020.519
542.6739, 1019.644
543.1560, 1018.383
543.6381, 1016.888
544.1202, 1014.527
544.6024, 1012.499
545.0845, 1011.822
545.5666, 1012.296
546.0487, 1012.726
546.5308, 1012.363
547.0129, 1011.637
547.4951, 1011.267
547.9772, 1011.243
548.4593, 1011.141
548.9414, 1010.836
549.4235, 1010.302
549.9056, 1009.224
550.3878, 1007.311
550.8699, 1006.469
551.3520, 1008.463
551.8341, 1010.590
552.3162, 1010.129
552.7983, 1007.624
553.2805, 1005.604
553.7626, 1005.555
554.2447, 1006.897
554.7268, 1008.014
555.2089, 1009.309
555.6910, 1009.586
556.1732, 1008.103
556.6553, 1006.342
557.1374, 1005.134
557.6195, 1004.462
558.1016, 1003.959
558.5837, 1003.423
559.0659, 1002.853
559.5480, 1002.199
560.0301, 1001.419
560.5122, 1000.852
560.9943, 1001.060
561.4764, 1001.055
561.9586, 999.5309
562.4407, 996.6315
562.9228, 994.4729
563.4049, 994.4532
563.8870, 995.1298
564.3691, 995.1212
564.8513, 994.4358
565.3334, 993.2631
565.8155, 991.5574
566.2976, 989.8117
566.7797, 989.0200
567.2618, 989.9001
567.7440, 990.0829
568.2261, 989.1820
568.7082, 987.9493
569.1903, 986.6038
569.6724, 985.2961
570.1545, 984.1812
570.6367, 983.3389
571.1188, 982.8053
571.6009, 982.8735
572.0830, 983.9496
572.5651, 984.0306
573.0472, 982.1630
573.5294, 979.9386
574.0115, 977.7440
574.4936, 975.8650
574.9757, 975.0980
575.4578, 976.5334
575.9399, 978.1717
576.4221, 977.4471
576.9042, 974.7454
577.3863, 972.1337
577.8684, 970.0802
578.3505, 968.6800
578.8326, 968.3238
579.3148, 969.1251
579.7969, 969.0964
580.2790, 967.5889
580.7611, 965.8754
581.2432, 964.3767
581.7253, 963.1466
582.2075, 962.2687
582.6896, 961.7630
583.1717, 961.3657
583.6538, 960.5959
584.1359, 959.2645
584.6180, 958.9697
585.1002, 961.4695
585.5823, 962.8758
