##NAMES=Magnesite
##RRUFFID=R050676
##IDEAL CHEMISTRY=MgCO_3_
##LOCALITY=Tyrol, Austria
##OWNER=RRUFF
##SOURCE=University of Arizona Mineral Museum
##DESCRIPTION=Brown rhombohedral crystals
##STATUS=The identification of this mineral has been confirmed by X-ray diffraction and chemical analysis
##URL=rruff.info/R050676
##MEASURED CHEMISTRY=(Mg_0.87_Fe^2+^_0.12_Ca_0.01_)_Î£=1_CO_3_; trace amounts of Mn and Cd; CO_2_ estimated by difference
90.26367, 12.64375
90.74579, 13.59442
91.22791, 13.26371
91.71002, 11.77905
92.19214, 10.24844
92.67426, 9.602384
93.15637, 9.617225
93.63850, 9.729633
94.12061, 9.827449
94.60273, 9.879580
95.08485, 9.780766
95.56696, 9.515290
96.04908, 9.211409
96.53120, 9.006436
97.01331, 8.901699
97.49543, 8.853131
97.97755, 8.913543
98.45966, 9.067549
98.94178, 8.988006
99.42390, 8.587962
99.90602, 8.077277
100.3881, 7.870300
100.8703, 8.030417
101.3524, 8.269898
101.8345, 8.480327
102.3166, 8.689131
102.7987, 8.726122
103.2808, 8.509452
103.7630, 8.113540
104.2451, 7.881885
104.7272, 7.880900
105.2093, 7.953620
105.6914, 8.003158
106.1735, 8.040963
106.6557, 8.035948
107.1378, 7.993742
107.6199, 7.914977
108.1020, 7.749425
108.5841, 7.264778
109.0662, 6.814770
109.5484, 6.710162
110.0305, 7.311128
110.5126, 7.898189
110.9947, 8.393812
111.4768, 8.832557
111.9590, 9.031240
112.4411, 8.777708
112.9232, 8.322231
113.4053, 7.994291
113.8874, 7.892416
114.3695, 7.891099
114.8517, 7.964566
115.3338, 8.150137
115.8159, 8.304528
116.2980, 8.365861
116.7801, 8.366476
117.2622, 8.377011
117.7444, 8.352027
118.2265, 8.388428
118.7086, 8.564990
119.1907, 8.990798
119.6728, 9.421695
120.1549, 9.721712
120.6371, 9.911452
121.1192, 10.07514
121.6013, 10.19781
122.0834, 10.33945
122.5655, 10.56841
123.0477, 10.93718
123.5298, 11.37367
124.0119, 11.83602
124.4940, 12.32148
124.9761, 12.79303
125.4582, 13.20456
125.9404, 13.57818
126.4225, 13.95357
126.9046, 14.34323
127.3867, 14.74495
127.8688, 15.14728
128.3509, 15.54758
128.8331, 15.97425
129.3152, 16.48876
129.7973, 17.07313
130.2794, 17.62438
130.7615, 18.06792
131.2436, 18.43778
131.7258, 18.85113
132.2079, 19.32326
132.6900, 19.80683
133.1721, 20.18186
133.6542, 20.44441
134.1364, 20.80494
134.6185, 21.39975
135.1006, 22.22553
135.5827, 23.10297
136.0648, 24.03077
136.5469, 24.99863
137.0291, 26.03092
137.5112, 27.16360
137.9933, 28.18223
138.4754, 28.95505
138.9575, 29.45653
139.4396, 29.82966
139.9218, 30.08698
140.4039, 30.22631
140.8860, 30.18173
141.3681, 29.83652
141.8502, 29.51571
142.3323, 29.50495
142.8145, 29.93434
143.2966, 30.33423
143.7787, 30.60933
144.2608, 30.76538
144.7429, 31.00689
145.2251, 31.36744
145.7072, 31.78661
146.1893, 32.21642
146.6714, 32.70459
147.1535, 33.12712
147.6356, 33.39217
148.1178, 33.43584
148.5999, 33.74983
149.0820, 34.50689
149.5641, 35.46149
150.0462, 36.31910
150.5283, 36.97476
151.0105, 37.62727
151.4926, 37.96634
151.9747, 38.27447
152.4568, 38.63213
152.9389, 39.06975
153.4210, 39.54723
153.9032, 40.01668
154.3853, 40.66482
154.8674, 41.13379
155.3495, 41.29324
155.8316, 41.04815
156.3138, 40.71954
156.7959, 40.19894
157.2780, 39.63681
157.7601, 39.32029
158.2422, 39.51847
158.7243, 39.81393
159.2065, 40.00179
159.6886, 39.98494
160.1707, 39.97498
160.6528, 40.03943
161.1349, 40.15649
161.6170, 40.26986
162.0992, 40.40312
162.5813, 40.49987
163.0634, 40.50682
163.5455, 40.26514
164.0276, 40.13142
164.5097, 40.32146
164.9919, 40.77054
165.4740, 41.23029
165.9561, 41.65417
166.4382, 42.00053
166.9203, 42.22917
167.4025, 42.19444
167.8846, 42.17772
168.3667, 42.35525
168.8488, 42.71043
169.3309, 43.14050
169.8130, 43.67511
170.2952, 44.22489
170.7773, 44.67116
171.2594, 44.91755
171.7415, 45.09368
172.2236, 45.25804
172.7057, 45.41737
173.1879, 45.68708
173.6700, 46.31285
174.1521, 47.08912
174.6342, 47.67139
175.1163, 47.77969
175.5984, 47.70707
176.0806, 47.78896
176.5627, 48.02546
177.0448, 48.31333
177.5269, 48.47028
178.0090, 48.59917
178.4911, 48.95183
178.9733, 49.82292
179.4554, 50.91951
179.9375, 51.78963
180.4196, 52.41004
180.9017, 52.91125
181.3839, 53.33052
181.8660, 53.71196
182.3481, 54.23017
182.8302, 55.09245
183.3123, 56.13453
183.7944, 56.90015
184.2766, 57.32921
184.7587, 57.78113
185.2408, 58.67391
185.7229, 59.97461
186.2050, 61.54618
186.6871, 63.28809
187.1693, 65.24983
187.6514, 67.33681
188.1335, 69.42958
188.6156, 72.10925
189.0977, 76.73552
189.5798, 83.18602
190.0620, 89.44888
190.5441, 94.47308
191.0262, 98.40761
191.5083, 102.1745
191.9904, 105.8290
192.4725, 109.4704
192.9547, 113.3508
193.4368, 117.5147
193.9189, 121.5761
194.4010, 125.2305
194.8831, 128.5155
195.3652, 132.0289
195.8474, 135.8456
196.3295, 139.8514
196.8116, 143.8427
197.2937, 147.8032
197.7758, 151.7677
198.2579, 155.5090
198.7401, 159.0042
199.2222, 163.3189
199.7043, 168.5449
200.1864, 174.5115
200.6685, 180.9084
201.1507, 187.6907
201.6328, 194.9542
202.1149, 202.7271
202.5970, 210.9962
203.0791, 219.8583
203.5612, 229.1129
204.0434, 239.0111
204.5255, 250.1370
205.0076, 262.5203
205.4897, 276.0108
205.9718, 290.7890
206.4539, 307.1040
206.9361, 323.4308
207.4182, 340.3244
207.9003, 356.8067
208.3824, 371.1879
208.8645, 384.9706
209.3466, 392.8324
209.8288, 391.9076
210.3109, 382.1283
210.7930, 363.3868
211.2751, 333.3027
211.7572, 294.9377
212.2393, 257.4380
212.7215, 220.0638
213.2036, 185.9642
213.6857, 157.2520
214.1678, 134.2479
214.6499, 115.4210
215.1321, 101.0071
215.6142, 90.47086
216.0963, 81.96782
216.5784, 75.92917
217.0605, 71.13213
217.5426, 66.87456
218.0248, 63.22011
218.5069, 60.04386
218.9890, 57.38194
219.4711, 55.19563
219.9532, 53.26316
220.4353, 51.59643
220.9175, 50.13531
221.3996, 48.81535
221.8817, 47.61871
222.3638, 46.64762
222.8459, 45.97132
223.3280, 45.53353
223.8102, 45.11023
224.2923, 44.72104
224.7744, 44.30504
225.2565, 43.81881
225.7386, 43.22673
226.2208, 42.63875
226.7029, 41.99405
227.1850, 41.34874
227.6671, 41.06117
228.1492, 41.33354
228.6313, 41.67578
229.1135, 41.79261
229.5956, 41.61382
230.0777, 41.36081
230.5598, 40.98981
231.0419, 40.54847
231.5240, 40.27696
232.0062, 40.27433
232.4883, 40.30748
232.9704, 40.24084
233.4525, 40.05317
233.9346, 39.80150
234.4167, 39.40217
234.8989, 38.93126
235.3810, 38.77901
235.8631, 39.16499
236.3452, 39.57825
236.8273, 39.70822
237.3095, 39.36930
237.7916, 39.14892
238.2737, 39.10350
238.7558, 39.20097
239.2379, 39.31598
239.7200, 39.48789
240.2022, 39.62342
240.6843, 39.65894
241.1664, 39.50939
241.6485, 39.45297
242.1306, 39.55610
242.6127, 39.76168
243.0949, 39.84453
243.5770, 39.75354
244.0591, 39.61243
244.5412, 39.47652
245.0233, 39.32125
245.5054, 39.22676
245.9876, 39.20714
246.4697, 39.24915
246.9518, 39.30676
247.4339, 39.35786
247.9160, 39.45811
248.3981, 39.64836
248.8803, 40.00252
249.3624, 40.26649
249.8445, 40.39404
250.3266, 40.43859
250.8087, 40.55330
251.2909, 40.78163
251.7730, 41.00668
252.2551, 41.17165
252.7372, 41.25512
253.2193, 41.33783
253.7014, 41.43425
254.1836, 41.52269
254.6657, 41.54946
255.1478, 41.49483
255.6299, 41.41318
256.1120, 41.32218
256.5941, 41.21717
257.0763, 41.11230
257.5584, 40.97048
258.0405, 40.85162
258.5226, 40.89296
259.0047, 41.16825
259.4868, 41.45222
259.9690, 41.64584
260.4511, 41.71357
260.9332, 41.86117
261.4153, 42.12544
261.8974, 42.43920
262.3795, 42.70039
262.8617, 42.93530
263.3438, 43.05454
263.8259, 42.96063
264.3080, 42.58464
264.7901, 42.53851
265.2722, 42.97726
265.7544, 43.56099
266.2365, 43.77122
266.7186, 43.50190
267.2007, 43.17913
267.6829, 42.89041
268.1650, 42.62361
268.6471, 42.59807
269.1292, 42.90239
269.6113, 43.30768
270.0934, 43.51324
270.5756, 43.46370
271.0577, 43.44398
271.5398, 43.58975
272.0219, 43.89008
272.5040, 43.83015
272.9861, 43.25583
273.4683, 42.65620
273.9504, 42.59846
274.4325, 43.18160
274.9146, 43.77686
275.3967, 44.31065
275.8788, 44.75294
276.3610, 44.72119
276.8431, 44.07127
277.3252, 43.38761
277.8073, 43.23649
278.2894, 43.65657
278.7715, 44.18454
279.2537, 44.80955
279.7358, 45.45754
280.2179, 45.78470
280.7000, 45.74068
281.1821, 45.60775
281.6642, 45.57609
282.1464, 45.64559
282.6285, 45.84710
283.1106, 46.21575
283.5927, 46.69433
284.0748, 47.15013
284.5569, 47.58833
285.0391, 47.96540
285.5212, 48.23140
286.0033, 48.39511
286.4854, 48.55993
286.9675, 48.72710
287.4496, 48.91757
287.9318, 49.15795
288.4139, 49.45052
288.8960, 49.83027
289.3781, 50.34045
289.8602, 50.96680
290.3424, 51.65446
290.8245, 52.41921
291.3066, 53.19603
291.7887, 53.82569
292.2708, 54.33217
292.7530, 54.91670
293.2351, 55.74033
293.7172, 56.73135
294.1993, 57.58138
294.6814, 58.23262
295.1635, 58.97539
295.6457, 60.19255
296.1278, 61.82135
296.6099, 63.59380
297.0920, 65.36345
297.5741, 67.16972
298.0562, 69.03205
298.5384, 70.92544
299.0205, 72.98406
299.5026, 75.19749
299.9847, 77.64925
300.4668, 80.65079
300.9489, 84.38249
301.4311, 88.65201
301.9132, 92.88852
302.3953, 97.15951
302.8774, 102.2229
303.3595, 108.6493
303.8416, 116.3160
304.3238, 125.2106
304.8059, 135.1937
305.2880, 146.3176
305.7701, 158.2997
306.2522, 171.3036
306.7343, 185.5990
307.2165, 202.3713
307.6986, 220.3699
308.1807, 238.0488
308.6628, 255.1928
309.1449, 272.0506
309.6270, 289.1117
310.1092, 306.3609
310.5913, 323.2144
311.0734, 338.8724
311.5555, 354.3156
312.0376, 370.0454
312.5197, 385.9501
313.0019, 402.7678
313.4840, 421.0049
313.9661, 440.6760
314.4482, 461.9501
314.9304, 484.5929
315.4125, 509.0981
315.8946, 535.4203
316.3767, 563.5660
316.8588, 594.0380
317.3409, 627.1281
317.8231, 662.8673
318.3052, 701.1328
318.7873, 741.9930
319.2694, 785.7799
319.7515, 833.2684
320.2336, 884.6625
320.7158, 937.2888
321.1979, 992.8866
321.6800, 1047.780
322.1621, 1098.425
322.6442, 1148.746
323.1263, 1189.991
323.6085, 1222.531
324.0906, 1245.828
324.5727, 1252.652
325.0548, 1243.372
325.5369, 1216.362
326.0190, 1170.583
326.5012, 1096.157
326.9833, 1014.131
327.4654, 920.8752
327.9475, 819.9428
328.4296, 726.7849
328.9117, 640.7059
329.3939, 563.1480
329.8760, 494.0517
330.3581, 433.3626
330.8402, 381.1648
331.3223, 338.6765
331.8044, 304.0163
332.2866, 273.4219
332.7687, 247.5184
333.2508, 225.2302
333.7329, 206.3962
334.2150, 191.3864
334.6971, 177.8833
335.1793, 165.9579
335.6614, 155.3110
336.1435, 145.7139
336.6256, 137.1216
337.1077, 129.5089
337.5899, 123.1512
338.0720, 117.9237
338.5541, 113.0013
339.0362, 108.3408
339.5183, 103.9969
340.0005, 100.1313
340.4826, 96.76380
340.9647, 93.48420
341.4468, 90.19262
341.9289, 86.96517
342.4110, 83.93906
342.8932, 81.11868
343.3753, 78.62398
343.8574, 76.72567
344.3395, 75.36071
344.8216, 73.78675
345.3037, 71.85944
345.7859, 69.83016
346.2680, 68.15327
346.7501, 66.79938
347.2322, 65.54208
347.7143, 64.23183
348.1964, 62.91199
348.6786, 61.71911
349.1607, 60.65221
349.6428, 59.66104
350.1249, 58.68863
350.6070, 57.73583
351.0891, 56.78062
351.5713, 55.72414
352.0534, 54.71819
352.5355, 54.05021
353.0176, 53.71630
353.4997, 53.37818
353.9818, 52.68449
354.4640, 51.83735
354.9461, 51.14363
355.4282, 50.75533
355.9103, 50.47858
356.3924, 50.18481
356.8745, 49.86811
357.3567, 49.51281
357.8388, 49.07531
358.3209, 48.61308
358.8030, 48.15791
359.2851, 47.69655
359.7672, 47.30611
360.2494, 47.13477
360.7315, 47.05390
361.2136, 46.82977
361.6957, 46.11971
362.1779, 45.44959
362.6600, 45.13360
363.1421, 45.24542
363.6242, 45.31554
364.1063, 45.18836
364.5884, 44.95555
365.0706, 44.71194
365.5527, 44.38871
366.0348, 44.14832
366.5169, 44.08063
366.9990, 44.17160
367.4811, 44.18119
367.9633, 43.98482
368.4454, 43.77043
368.9275, 43.64994
369.4096, 43.84397
369.8917, 43.82425
370.3738, 43.38954
370.8560, 42.74073
371.3381, 42.46534
371.8202, 42.85481
372.3023, 43.21933
372.7844, 43.27905
373.2665, 42.94970
373.7487, 42.65384
374.2308, 42.36938
374.7129, 42.14105
375.1950, 42.05770
375.6771, 42.19106
376.1592, 42.23429
376.6414, 42.06402
377.1235, 41.71337
377.6056, 41.53468
378.0877, 41.57113
378.5698, 41.63372
379.0519, 41.56197
379.5341, 41.35636
380.0162, 41.08374
380.4983, 40.72759
380.9804, 40.34510
381.4625, 40.10840
381.9446, 40.01097
382.4268, 39.89761
382.9089, 39.65245
383.3910, 39.31323
383.8731, 38.97831
384.3553, 38.64760
384.8374, 38.36731
385.3195, 38.20281
385.8016, 38.13525
386.2837, 38.10728
386.7658, 38.24158
387.2480, 38.32996
387.7301, 37.99546
388.2122, 37.25933
388.6943, 36.59590
389.1764, 36.45292
389.6585, 36.56008
390.1407, 36.59563
390.6228, 36.52763
391.1049, 36.28178
391.5870, 35.65869
392.0691, 34.78998
392.5512, 34.07235
393.0334, 33.73941
393.5155, 33.57970
393.9976, 33.47832
394.4797, 33.43716
394.9618, 33.39031
395.4439, 33.31607
395.9261, 33.22438
396.4082, 33.12884
396.8903, 33.11653
397.3724, 33.01614
397.8545, 32.72366
398.3366, 32.22735
398.8188, 31.84218
399.3009, 31.65064
399.7830, 31.53646
400.2651, 31.42650
400.7472, 31.28712
401.2293, 31.20834
401.7115, 31.26263
402.1936, 31.37381
402.6757, 31.29493
403.1578, 30.92190
403.6399, 30.53558
404.1220, 30.25208
404.6042, 30.08063
405.0863, 29.95616
405.5684, 29.90058
406.0505, 29.85876
406.5326, 29.74774
407.0147, 29.55490
407.4969, 29.38618
407.9790, 29.27035
408.4611, 29.19934
408.9432, 29.15414
409.4254, 29.13934
409.9075, 29.10577
410.3896, 28.96975
410.8717, 28.76900
411.3538, 28.69555
411.8359, 28.81604
412.3181, 28.97646
412.8002, 28.98138
413.2823, 28.84353
413.7644, 28.61477
414.2465, 28.18673
414.7286, 27.74278
415.2108, 27.55993
415.6929, 27.65839
416.1750, 27.79340
416.6571, 27.80653
417.1392, 27.73524
417.6213, 27.62793
418.1035, 27.45288
418.5856, 27.29823
419.0677, 27.27988
419.5498, 27.34399
420.0319, 27.28921
420.5140, 26.83518
420.9962, 26.37732
421.4783, 26.18451
421.9604, 26.41537
422.4425, 26.58230
422.9246, 26.48756
423.4067, 26.29444
423.8889, 26.22580
424.3710, 26.41906
424.8531, 26.62564
425.3352, 26.85289
425.8173, 27.10394
426.2994, 27.10743
426.7816, 26.67692
427.2637, 26.18741
427.7458, 25.87890
428.2279, 25.79235
428.7100, 25.79301
429.1921, 25.91718
429.6743, 26.09531
430.1564, 26.15898
430.6385, 26.09259
431.1206, 25.96970
431.6028, 25.77404
432.0849, 25.51366
432.5670, 25.44315
433.0491, 25.59092
433.5312, 25.81257
434.0133, 25.99575
434.4955, 26.13339
434.9776, 26.17184
435.4597, 26.08193
435.9418, 25.90719
436.4239, 25.65539
436.9060, 25.35509
437.3882, 25.17493
437.8703, 25.33819
438.3524, 25.64648
438.8345, 25.80256
439.3166, 25.75858
439.7987, 25.67435
440.2809, 25.69368
440.7630, 25.75246
441.2451, 25.75086
441.7272, 25.58392
442.2093, 25.40537
442.6914, 25.26530
443.1736, 25.17219
443.6557, 25.17350
444.1378, 25.37801
444.6199, 25.62115
445.1020, 25.79524
445.5841, 25.84026
446.0663, 25.90332
446.5484, 25.88645
447.0305, 25.92327
447.5126, 26.25528
447.9947, 27.42719
448.4768, 28.22554
448.9590, 28.27514
449.4411, 27.55662
449.9232, 26.97825
450.4053, 26.48996
450.8874, 26.20488
451.3695, 26.30233
451.8517, 26.94067
452.3338, 27.22429
452.8159, 26.95788
453.2980, 26.42820
453.7801, 26.24058
454.2622, 26.41900
454.7444, 26.60540
455.2265, 26.61426
455.7086, 26.49582
456.1907, 26.45892
456.6729, 26.50560
457.1550, 26.60742
457.6371, 26.76300
458.1192, 26.95335
458.6013, 27.14720
459.0834, 27.36329
459.5656, 27.52758
460.0477, 27.53512
460.5298, 27.41863
461.0119, 27.27597
461.4940, 27.06134
461.9761, 26.90385
462.4583, 26.93509
462.9404, 27.17791
463.4225, 27.42560
463.9046, 27.54885
464.3867, 27.64927
464.8688, 27.81990
465.3510, 28.26475
465.8331, 28.57887
466.3152, 28.56586
466.7973, 28.33327
467.2794, 28.26966
467.7615, 28.52469
468.2437, 28.82885
468.7258, 29.10492
469.2079, 29.35128
469.6900, 29.56078
470.1721, 29.72016
470.6542, 29.85489
471.1364, 29.98635
471.6185, 30.10883
472.1006, 30.24766
472.5827, 30.39944
473.0648, 30.57520
473.5469, 30.85188
474.0291, 31.24566
474.5112, 31.55152
474.9933, 31.53772
475.4754, 31.31341
475.9575, 31.38921
476.4396, 31.80914
476.9218, 32.32821
477.4039, 32.72561
477.8860, 33.01906
478.3681, 33.23710
478.8503, 33.34104
479.3324, 33.43187
479.8145, 33.62865
480.2966, 33.90423
480.7787, 34.14999
481.2608, 34.25977
481.7430, 34.35924
482.2251, 34.54719
482.7072, 34.85116
483.1893, 35.14539
483.6714, 35.42064
484.1535, 35.65009
484.6357, 35.80781
485.1178, 35.76982
485.5999, 35.79986
486.0820, 35.99504
486.5641, 36.29992
487.0462, 36.50929
487.5284, 36.54780
488.0105, 36.59283
488.4926, 36.71639
488.9747, 36.92877
489.4568, 37.15311
489.9389, 37.39631
490.4211, 37.63598
490.9032, 37.85206
491.3853, 38.04726
491.8674, 38.17839
492.3495, 38.20292
492.8316, 38.19646
493.3138, 38.31964
493.7959, 38.56743
494.2780, 38.88697
494.7601, 39.31255
495.2422, 39.77084
495.7243, 40.11420
496.2065, 40.33844
496.6886, 40.48277
497.1707, 40.55922
497.6528, 40.58680
498.1349, 40.59271
498.6170, 40.59063
499.0992, 40.56000
499.5813, 40.43629
500.0634, 40.27316
500.5455, 40.20070
501.0276, 40.31781
501.5097, 40.48312
501.9919, 40.64833
502.4740, 40.80983
502.9561, 40.96703
503.4382, 41.16989
503.9203, 41.33474
504.4025, 41.39838
504.8846, 41.30113
505.3667, 41.22731
505.8488, 41.20412
506.3309, 41.20035
506.8130, 41.15136
507.2952, 41.05681
507.7773, 40.91705
508.2594, 40.69413
508.7415, 40.42213
509.2236, 40.31159
509.7057, 40.37345
510.1879, 40.45859
510.6700, 40.44896
511.1521, 40.36461
511.6342, 40.26648
512.1163, 40.16799
512.5984, 40.04667
513.0806, 39.82185
513.5627, 39.55866
514.0448, 39.39330
514.5269, 39.49140
515.0090, 39.61985
515.4911, 39.61428
515.9733, 39.49030
516.4554, 39.36860
516.9375, 39.40764
517.4196, 39.38044
517.9017, 39.11843
518.3839, 38.44997
518.8660, 37.92092
519.3481, 37.69186
519.8302, 37.58531
520.3123, 37.41478
520.7944, 37.09757
521.2766, 36.87173
521.7587, 36.81450
522.2408, 36.87079
522.7229, 36.81979
523.2050, 36.64606
523.6871, 36.42512
524.1693, 36.16790
524.6514, 35.88578
525.1335, 35.67759
525.6156, 35.55083
526.0977, 35.44582
526.5798, 35.29027
527.0620, 35.10419
527.5441, 34.96450
528.0262, 34.92929
528.5083, 34.86313
528.9904, 34.58490
529.4725, 34.16019
529.9547, 33.75000
530.4368, 33.42802
530.9189, 33.15298
531.4010, 32.89457
531.8831, 32.64945
532.3652, 32.46957
532.8474, 32.46651
533.3295, 32.46460
533.8116, 32.34475
534.2937, 31.98067
534.7758, 31.69715
535.2579, 31.60156
535.7401, 31.54178
536.2222, 31.27014
536.7043, 30.60793
537.1865, 30.15237
537.6686, 30.08374
538.1507, 30.31256
538.6328, 30.46185
539.1149, 30.54261
539.5970, 30.48467
540.0792, 30.15836
540.5613, 29.63542
541.0434, 29.27291
541.5255, 29.08934
542.0076, 29.00858
542.4897, 29.03835
542.9719, 29.10500
543.4540, 29.04746
543.9361, 28.75760
544.4182, 28.44528
544.9003, 28.26897
545.3824, 28.19650
545.8646, 28.15667
546.3467, 28.27448
546.8288, 28.28031
547.3109, 27.93909
547.7930, 27.23883
548.2751, 26.78251
548.7573, 26.94214
549.2394, 27.15090
549.7215, 27.08741
550.2036, 26.54848
550.6857, 26.20117
551.1678, 26.09522
551.6500, 26.13047
552.1321, 26.22701
552.6142, 26.42785
553.0963, 26.39187
553.5784, 25.94629
554.0605, 25.29446
554.5427, 24.98210
555.0248, 24.99533
555.5069, 25.08454
555.9890, 25.17299
556.4711, 25.21566
556.9532, 25.09649
557.4354, 24.81197
557.9175, 24.52151
558.3996, 24.34861
558.8817, 24.23470
559.3638, 24.11203
559.8459, 23.94049
560.3281, 23.81086
560.8102, 23.82690
561.2923, 23.89432
561.7744, 23.86453
562.2565, 23.56537
562.7386, 23.32702
563.2208, 23.22550
563.7029, 23.24615
564.1850, 23.29478
564.6671, 23.42148
565.1492, 23.48620
565.6313, 23.38890
566.1135, 23.11142
566.5956, 22.93408
567.0777, 22.86951
567.5598, 22.86487
568.0419, 22.88522
568.5240, 22.92302
569.0062, 22.94916
569.4883, 22.97178
569.9704, 22.94578
570.4525, 22.75351
570.9346, 22.46107
571.4167, 22.24745
571.8989, 22.23203
572.3810, 22.28788
572.8631, 22.39310
573.3452, 22.52001
573.8273, 22.50784
574.3094, 22.06901
574.7916, 21.65263
575.2737, 21.54840
575.7558, 21.95062
576.2379, 22.11440
576.7200, 21.81889
577.2021, 21.44746
577.6843, 21.37125
578.1664, 21.75135
578.6485, 21.93122
579.1306, 21.78595
579.6127, 21.47179
580.0948, 21.29290
580.5770, 21.24970
581.0591, 21.24233
581.5412, 21.24537
582.0233, 21.25133
582.5054, 21.24227
582.9875, 21.21975
583.4697, 21.19429
583.9518, 21.20599
584.4340, 21.20125
584.9161, 21.09887
585.3982, 20.87739
585.8803, 20.68635
