##NAMES=Magnetite
##RRUFFID=R080025
##IDEAL CHEMISTRY=Fe^2+^Fe^3+^_2_O_4_
##LOCALITY=2500' level, Zinc Corporation of America mine #4, Balmat, New York, USA
##OWNER=RRUFF
##SOURCE=William W. Pinch
##DESCRIPTION=Black cubes
##STATUS=The identification of this mineral has been confirmed by X-ray diffraction.
##URL=rruff.info/R080025
157.5278, 17.61929
158.0099, 17.59294
158.4920, 17.64190
158.9741, 17.70737
159.4562, 17.73732
159.9383, 17.60437
160.4205, 17.53875
160.9026, 17.67623
161.3847, 18.03834
161.8668, 18.30955
162.3489, 18.36493
162.8310, 18.27672
163.3132, 18.12883
163.7953, 17.88314
164.2774, 17.63644
164.7595, 17.41127
165.2416, 17.19680
165.7237, 17.09319
166.2059, 17.25317
166.6880, 17.53821
167.1701, 17.73765
167.6522, 17.62622
168.1343, 17.48262
168.6164, 17.54100
169.0985, 17.87392
169.5807, 18.18811
170.0628, 18.28972
170.5449, 18.23375
171.0270, 18.12523
171.5091, 17.95326
171.9912, 17.78472
172.4734, 17.69153
172.9555, 17.69642
173.4376, 17.73280
173.9197, 17.78729
174.4018, 17.83619
174.8839, 17.81239
175.3661, 17.54139
175.8482, 17.21977
176.3303, 17.14268
176.8124, 17.43283
177.2945, 17.78617
177.7766, 17.85541
178.2588, 17.69433
178.7409, 17.52230
179.2230, 17.48495
179.7051, 17.52976
180.1872, 17.55921
180.6693, 17.55164
181.1515, 17.53214
181.6336, 17.53963
182.1157, 17.57009
182.5978, 17.59504
183.0799, 17.57582
183.5620, 17.53443
184.0442, 17.53898
184.5263, 17.62524
185.0084, 17.73245
185.4905, 17.75297
185.9726, 17.68897
186.4547, 17.60070
186.9369, 17.51938
187.4190, 17.44827
187.9011, 17.41404
188.3832, 17.45090
188.8653, 17.50081
189.3474, 17.40161
189.8296, 17.14673
190.3117, 16.90249
190.7938, 16.80803
191.2759, 16.85143
191.7580, 16.94283
192.2401, 17.07277
192.7223, 17.23281
193.2044, 17.43143
193.6865, 17.68376
194.1686, 17.87071
194.6507, 17.87586
195.1328, 17.70517
195.6150, 17.44084
196.0971, 17.03903
196.5792, 16.57220
197.0613, 16.34568
197.5434, 16.38531
198.0255, 16.53987
198.5077, 16.71308
198.9898, 16.91137
199.4719, 16.97764
199.9540, 16.79923
200.4361, 16.45330
200.9182, 16.43666
201.4004, 16.85649
201.8825, 17.27966
202.3646, 17.18893
202.8467, 16.51060
203.3288, 15.94841
203.8109, 15.68088
204.2931, 15.68157
204.7752, 15.75119
205.2573, 15.91720
205.7394, 16.08660
206.2215, 16.15820
206.7036, 16.11751
207.1858, 16.04848
207.6679, 15.94706
208.1500, 15.82088
208.6321, 15.80059
209.1142, 15.91330
209.5963, 16.08067
210.0785, 16.23486
210.5606, 16.38786
211.0427, 16.47570
211.5248, 16.46510
212.0069, 16.35909
212.4890, 16.29189
212.9712, 16.27458
213.4533, 16.27909
213.9354, 16.28109
214.4175, 16.28966
214.8996, 16.26573
215.3817, 16.18152
215.8639, 16.03737
216.3460, 15.96448
216.8281, 15.98996
217.3102, 16.05051
217.7923, 16.06841
218.2744, 16.01307
218.7565, 15.99699
219.2387, 16.06716
219.7208, 16.22776
220.2029, 16.30752
220.6850, 16.27958
221.1671, 16.20165
221.6492, 16.13136
222.1314, 16.05912
222.6135, 16.01509
223.0956, 16.00755
223.5777, 16.03683
224.0598, 16.09436
224.5419, 16.20155
225.0241, 16.31397
225.5062, 16.38540
225.9883, 16.40416
226.4704, 16.40275
226.9525, 16.37125
227.4346, 16.30513
227.9168, 16.31647
228.3989, 16.44880
228.8810, 16.61208
229.3631, 16.71302
229.8452, 16.73982
230.3273, 16.72712
230.8095, 16.66346
231.2916, 16.54505
231.7737, 16.48763
232.2558, 16.52292
232.7379, 16.58630
233.2200, 16.60898
233.7022, 16.55940
234.1843, 16.53114
234.6664, 16.54498
235.1485, 16.60114
235.6306, 16.66508
236.1127, 16.73285
236.5949, 16.81320
237.0770, 16.92603
237.5591, 17.12817
238.0412, 17.24854
238.5233, 17.22170
239.0054, 17.04763
239.4876, 16.97162
239.9697, 17.07496
240.4518, 17.18788
240.9339, 17.14348
241.4160, 16.81949
241.8981, 16.58075
242.3803, 16.50595
242.8624, 16.59054
243.3445, 16.66934
243.8266, 16.73532
244.3087, 16.80404
244.7908, 16.89351
245.2730, 17.03223
245.7551, 17.13320
246.2372, 17.17503
246.7193, 17.16193
247.2014, 17.14991
247.6835, 17.12472
248.1657, 17.11755
248.6478, 17.15689
249.1299, 17.27007
249.6120, 17.37041
250.0941, 17.44564
250.5762, 17.49835
251.0584, 17.55291
251.5405, 17.62731
252.0226, 17.67923
252.5047, 17.67483
252.9868, 17.59165
253.4689, 17.49716
253.9511, 17.34728
254.4332, 17.18146
254.9153, 17.26128
255.3974, 17.75441
255.8795, 18.23442
256.3616, 18.41105
256.8438, 18.15790
257.3259, 17.93135
257.8080, 17.74271
258.2901, 17.60783
258.7722, 17.59706
259.2543, 17.76790
259.7365, 17.96639
260.2186, 18.10777
260.7007, 18.16632
261.1828, 18.24414
261.6649, 18.36701
262.1470, 18.50521
262.6292, 18.55708
263.1113, 18.46700
263.5934, 18.40211
264.0755, 18.47388
264.5576, 18.75591
265.0397, 18.89481
265.5219, 18.81291
266.0040, 18.62932
266.4861, 18.64664
266.9682, 18.95597
267.4503, 19.23939
267.9324, 19.32099
268.4146, 19.13733
268.8967, 19.05727
269.3788, 19.10114
269.8609, 19.22877
270.3430, 19.38910
270.8251, 19.61350
271.3073, 19.76413
271.7894, 19.73401
272.2715, 19.49081
272.7536, 19.43099
273.2357, 19.60693
273.7178, 19.89013
274.2000, 20.09164
274.6821, 20.19599
275.1642, 20.28005
275.6463, 20.36499
276.1284, 20.45066
276.6105, 20.54756
277.0927, 20.66105
277.5748, 20.77397
278.0569, 20.86335
278.5390, 20.92700
279.0211, 20.98446
279.5032, 21.04220
279.9854, 21.09898
280.4675, 21.14068
280.9496, 21.16086
281.4317, 21.18821
281.9138, 21.27270
282.3959, 21.41830
282.8781, 21.51210
283.3602, 21.49896
283.8423, 21.41539
284.3244, 21.41413
284.8065, 21.49797
285.2886, 21.64338
285.7708, 21.88034
286.2529, 22.19881
286.7350, 22.40361
287.2171, 22.43233
287.6992, 22.33597
288.1813, 22.20574
288.6635, 22.03315
289.1456, 21.96119
289.6277, 22.17579
290.1098, 22.62841
290.5919, 22.98393
291.0740, 23.18249
291.5562, 23.27448
292.0383, 23.35667
292.5204, 23.42762
293.0025, 23.44183
293.4846, 23.29908
293.9667, 23.06433
294.4489, 22.97854
294.9310, 23.09480
295.4131, 23.30496
295.8952, 23.49621
296.3773, 23.66025
296.8594, 23.74898
297.3416, 23.68003
297.8237, 23.52236
298.3058, 23.45297
298.7879, 23.50112
299.2700, 23.55025
299.7521, 23.40152
300.2343, 23.12423
300.7164, 22.94807
301.1985, 23.09373
301.6806, 23.37054
302.1627, 23.46191
302.6448, 23.34945
303.1270, 23.18737
303.6091, 23.08090
304.0912, 23.03009
304.5733, 23.03034
305.0554, 23.09259
305.5375, 23.19865
306.0197, 23.38824
306.5018, 23.65022
306.9839, 23.79807
307.4660, 23.54688
307.9481, 23.12752
308.4302, 22.87638
308.9124, 23.05063
309.3945, 23.27693
309.8766, 23.26690
310.3587, 23.04259
310.8408, 22.71861
311.3229, 22.19341
311.8051, 21.67497
312.2872, 21.39919
312.7693, 21.50399
313.2514, 21.71345
313.7335, 21.96377
314.2156, 22.20722
314.6978, 22.30911
315.1799, 22.09809
315.6620, 21.78934
316.1441, 21.53345
316.6262, 21.35714
317.1083, 21.22345
317.5905, 21.13015
318.0726, 21.06753
318.5547, 21.01760
319.0368, 20.99923
319.5189, 20.97249
320.0010, 20.94029
320.4832, 20.92238
320.9653, 20.79518
321.4474, 20.36242
321.9295, 19.85565
322.4116, 19.54579
322.8937, 19.71525
323.3759, 19.87413
323.8580, 19.85509
324.3401, 19.64180
324.8222, 19.47948
325.3043, 19.43014
325.7864, 19.43097
326.2686, 19.43353
326.7507, 19.52940
327.2328, 19.52046
327.7149, 19.30410
328.1970, 18.91021
328.6791, 18.64744
329.1613, 18.59880
329.6434, 18.62043
330.1255, 18.64343
330.6076, 18.69899
331.0897, 18.71150
331.5718, 18.68794
332.0540, 18.61985
332.5361, 18.47148
333.0182, 18.13023
333.5003, 17.85519
333.9824, 17.77608
334.4645, 17.99535
334.9467, 18.09460
335.4288, 18.04971
335.9109, 17.90119
336.3930, 17.69092
336.8751, 17.34835
337.3572, 17.10834
337.8394, 17.07372
338.3215, 17.25726
338.8036, 17.35776
339.2857, 17.37012
339.7678, 17.30804
340.2499, 17.14750
340.7320, 16.85871
341.2141, 16.66996
341.6963, 16.65834
342.1784, 16.78485
342.6605, 16.87976
343.1426, 16.94403
343.6247, 16.96807
344.1068, 16.94714
344.5890, 16.88140
345.0711, 16.74477
345.5532, 16.50640
346.0353, 16.23478
346.5174, 16.07020
346.9995, 16.01075
347.4817, 16.02291
347.9638, 16.13256
348.4459, 16.30414
348.9280, 16.40811
349.4101, 16.43187
349.8922, 16.40099
350.3744, 16.32805
350.8565, 16.22244
351.3386, 16.11856
351.8207, 16.03753
352.3028, 15.96805
352.7849, 15.88331
353.2671, 15.78195
353.7492, 15.69541
354.2313, 15.63427
354.7134, 15.60862
355.1955, 15.64413
355.6776, 15.84676
356.1598, 16.02047
356.6419, 15.94713
357.1240, 15.66358
357.6061, 15.36678
358.0882, 15.08724
358.5703, 14.89405
359.0525, 14.88886
359.5346, 15.19940
360.0167, 15.48457
360.4988, 15.49818
360.9809, 15.33773
361.4630, 15.21659
361.9452, 15.27788
362.4273, 15.36148
362.9094, 15.36622
363.3915, 15.25887
363.8736, 15.17565
364.3557, 15.19645
364.8379, 15.25386
365.3200, 15.26903
365.8021, 15.16081
366.2842, 15.07053
366.7663, 15.05867
367.2484, 15.12723
367.7306, 15.15366
368.2127, 15.09328
368.6948, 15.00575
369.1769, 14.93027
369.6590, 14.87959
370.1411, 14.82732
370.6233, 14.76960
371.1054, 14.70892
371.5875, 14.65282
372.0696, 14.58704
372.5517, 14.54414
373.0338, 14.54797
373.5160, 14.63860
373.9981, 14.64871
374.4802, 14.51121
374.9623, 14.34678
375.4444, 14.37685
375.9265, 14.69212
376.4087, 14.94783
376.8908, 15.01802
377.3729, 14.91118
377.8550, 14.89891
378.3371, 15.02302
378.8192, 15.13041
379.3014, 15.03938
379.7835, 14.73841
380.2656, 14.47618
380.7477, 14.29884
381.2298, 14.19000
381.7119, 14.08970
382.1941, 13.99704
382.6762, 13.98898
383.1583, 14.21594
383.6404, 14.59141
384.1225, 14.73240
384.6046, 14.55828
385.0868, 14.30676
385.5689, 14.31573
386.0510, 14.51663
386.5331, 14.65179
387.0152, 14.51074
387.4973, 14.26968
387.9795, 14.20281
388.4616, 14.31318
388.9437, 14.43517
389.4258, 14.43614
389.9079, 14.36920
390.3900, 14.30945
390.8722, 14.28415
391.3543, 14.26885
391.8364, 14.23275
392.3185, 14.18841
392.8006, 14.18083
393.2827, 14.32237
393.7649, 14.45014
394.2470, 14.42430
394.7291, 14.15013
395.2112, 13.92552
395.6933, 13.89135
396.1754, 13.96384
396.6576, 14.01768
397.1397, 14.01316
397.6218, 13.99433
398.1039, 13.96012
398.5860, 13.90576
399.0681, 13.89915
399.5503, 13.97652
400.0324, 14.08695
400.5145, 14.19290
400.9966, 14.31118
401.4787, 14.40392
401.9608, 14.48438
402.4430, 14.53938
402.9251, 14.50655
403.4072, 14.31868
403.8893, 14.14463
404.3714, 14.06249
404.8535, 14.08864
405.3357, 14.15359
405.8178, 14.30531
406.2999, 14.43141
406.7820, 14.30571
407.2641, 13.85840
407.7462, 13.56987
408.2284, 13.63417
408.7105, 13.97383
409.1926, 14.23149
409.6747, 14.41069
410.1568, 14.48335
410.6389, 14.35018
411.1211, 14.05945
411.6032, 13.89477
412.0853, 13.93425
412.5674, 14.05546
413.0495, 14.07415
413.5316, 14.00721
414.0138, 13.94062
414.4959, 13.92569
414.9780, 13.93874
415.4601, 13.94293
415.9422, 13.93540
416.4243, 13.93282
416.9065, 13.98549
417.3886, 14.04366
417.8707, 14.02790
418.3528, 13.74080
418.8349, 13.53415
419.3170, 13.74340
419.7992, 14.27167
420.2813, 14.65343
420.7634, 14.57645
421.2455, 14.36288
421.7276, 14.23151
422.2097, 14.26410
422.6919, 14.26246
423.1740, 14.10517
423.6561, 13.89963
424.1382, 13.80701
424.6203, 13.99466
425.1024, 14.15685
425.5846, 14.20483
426.0667, 14.13034
426.5488, 14.08599
427.0309, 14.10719
427.5130, 14.12686
427.9951, 14.08893
428.4773, 13.92949
428.9594, 13.86047
429.4415, 13.94425
429.9236, 14.10480
430.4057, 14.13402
430.8878, 13.98880
431.3700, 13.84508
431.8521, 13.78998
432.3342, 13.82357
432.8163, 13.79604
433.2984, 13.68248
433.7805, 13.59457
434.2627, 13.71535
434.7448, 14.01668
435.2269, 14.20575
435.7090, 14.17310
436.1911, 14.02317
436.6732, 13.95334
437.1554, 13.95742
437.6375, 13.99044
438.1196, 14.08808
438.6017, 14.17627
439.0838, 14.09838
439.5659, 13.80489
440.0480, 13.51836
440.5302, 13.40880
441.0123, 13.43480
441.4944, 13.52691
441.9765, 13.76115
442.4586, 13.96592
442.9407, 14.00254
443.4229, 13.89096
443.9050, 13.80839
444.3871, 13.87784
444.8692, 13.96845
445.3513, 13.99340
445.8334, 13.91119
446.3156, 13.81229
446.7977, 13.67817
447.2798, 13.54323
447.7619, 13.46933
448.2440, 13.48094
448.7261, 13.53418
449.2083, 13.64635
449.6904, 13.82527
450.1725, 13.91322
450.6546, 13.88334
451.1367, 13.79534
451.6188, 13.67476
452.1010, 13.48508
452.5831, 13.39522
453.0652, 13.44775
453.5473, 13.57947
454.0294, 13.64887
454.5115, 13.64998
454.9937, 13.63764
455.4758, 13.61685
455.9579, 13.59860
456.4400, 13.66533
456.9221, 13.82709
457.4042, 13.98384
457.8864, 14.03415
458.3685, 14.00085
458.8506, 13.94633
459.3327, 13.87079
459.8148, 13.80639
460.2969, 13.79613
460.7791, 13.83023
461.2612, 13.87689
461.7433, 13.93762
462.2254, 13.99126
462.7075, 14.01573
463.1896, 14.00780
463.6718, 13.99161
464.1539, 13.97032
464.6360, 13.95142
465.1181, 13.94278
465.6002, 13.97792
466.0823, 13.98965
466.5645, 13.92338
467.0466, 13.81077
467.5287, 13.77321
468.0108, 13.90796
468.4929, 14.04429
468.9750, 14.11979
469.4572, 14.11727
469.9393, 14.12136
470.4214, 14.16825
470.9035, 14.18807
471.3856, 14.06544
471.8677, 13.69633
472.3499, 13.53045
472.8320, 13.71223
473.3141, 14.12032
473.7962, 14.32320
474.2783, 14.29770
474.7604, 14.23553
475.2426, 14.25770
475.7247, 14.34554
476.2068, 14.37480
476.6889, 14.33367
477.1710, 14.28381
477.6531, 14.29768
478.1353, 14.35820
478.6174, 14.41551
479.0995, 14.43223
479.5816, 14.46304
480.0637, 14.60103
480.5458, 14.81522
481.0280, 14.98819
481.5101, 15.05496
481.9922, 15.05281
482.4743, 14.99508
482.9564, 14.87169
483.4385, 14.76222
483.9207, 14.70058
484.4028, 14.66926
484.8849, 14.65032
485.3670, 14.64297
485.8491, 14.64506
486.3312, 14.66272
486.8134, 14.69213
487.2955, 14.71506
487.7776, 14.75504
488.2597, 14.75974
488.7418, 14.68815
489.2239, 14.50439
489.7061, 14.42584
490.1882, 14.47593
490.6703, 14.59694
491.1524, 14.74961
491.6345, 14.94761
492.1166, 15.06921
492.5988, 15.07384
493.0809, 15.00691
493.5630, 14.96739
494.0451, 14.95537
494.5272, 14.98793
495.0093, 15.10411
495.4915, 15.26777
495.9736, 15.40730
496.4557, 15.51985
496.9378, 15.59045
497.4199, 15.56718
497.9020, 15.50164
498.3842, 15.47555
498.8663, 15.53828
499.3484, 15.61089
499.8305, 15.64844
500.3126, 15.65754
500.7947, 15.65483
501.2769, 15.59681
501.7590, 15.57112
502.2411, 15.63453
502.7232, 15.80699
503.2053, 15.95351
503.6874, 16.03886
504.1696, 16.10147
504.6517, 16.16618
505.1338, 16.22375
505.6159, 16.30255
506.0980, 16.42845
506.5801, 16.56483
507.0623, 16.61481
507.5444, 16.54729
508.0265, 16.49219
508.5086, 16.48456
508.9907, 16.52686
509.4728, 16.67785
509.9550, 16.95599
510.4371, 17.19588
510.9192, 17.16698
511.4013, 16.96011
511.8834, 16.94941
512.3655, 17.23518
512.8477, 17.58560
513.3298, 17.71259
513.8119, 17.69309
514.2940, 17.70986
514.7761, 17.93432
515.2582, 18.15906
515.7404, 18.19221
516.2225, 18.05980
516.7046, 17.96585
517.1867, 17.99191
517.6688, 18.09294
518.1509, 18.25365
518.6331, 18.51430
519.1152, 18.72953
519.5973, 18.84312
520.0794, 18.90958
520.5615, 18.99817
521.0436, 19.14762
521.5258, 19.25736
522.0079, 19.29690
522.4900, 19.28272
522.9721, 19.29528
523.4542, 19.33688
523.9363, 19.39699
524.4185, 19.44655
524.9006, 19.48705
525.3827, 19.68701
525.8648, 20.07859
526.3469, 20.47339
526.8290, 20.64532
527.3112, 20.64089
527.7933, 20.63272
528.2754, 20.64348
528.7575, 20.70276
529.2396, 20.89837
529.7217, 21.18101
530.2039, 21.40200
530.6860, 21.50455
531.1681, 21.50456
531.6502, 21.31351
532.1323, 20.93854
532.6144, 20.78779
533.0966, 21.23286
533.5787, 21.82171
534.0608, 22.24780
534.5429, 22.45022
535.0250, 22.50327
535.5071, 22.31284
535.9893, 22.01300
536.4714, 21.80343
536.9535, 21.74793
537.4356, 21.65434
537.9177, 21.44590
538.3998, 21.15934
538.8820, 21.06464
539.3641, 21.20591
539.8462, 21.34022
540.3283, 21.27979
540.8104, 21.06076
541.2925, 20.96325
541.7747, 21.01782
542.2568, 21.07002
542.7389, 20.88156
543.2210, 20.56509
543.7031, 20.40717
544.1852, 20.59159
544.6674, 20.79365
545.1495, 20.67101
545.6316, 20.32956
546.1137, 20.03357
546.5958, 19.90591
547.0779, 19.85238
547.5601, 19.87896
548.0422, 19.98831
548.5243, 19.95724
549.0064, 19.54467
549.4885, 19.11499
549.9706, 18.90446
550.4528, 19.09973
550.9349, 19.15868
551.4170, 19.01159
551.8991, 18.78384
552.3812, 18.67416
552.8633, 18.72386
553.3455, 18.71863
553.8276, 18.58950
554.3097, 18.37980
554.7918, 18.25696
555.2739, 18.22301
555.7560, 18.12039
556.2382, 17.73198
556.7203, 17.22935
557.2024, 17.04069
557.6845, 17.19282
558.1666, 17.37686
558.6487, 17.31491
559.1309, 17.14064
559.6130, 17.03096
560.0951, 17.06787
560.5772, 17.09893
561.0593, 17.00563
561.5414, 16.86386
562.0236, 16.80878
562.5057, 16.98450
562.9878, 17.13340
563.4699, 17.18661
563.9520, 17.14912
564.4341, 17.07354
564.9163, 16.96047
565.3984, 16.80695
565.8805, 16.57716
566.3626, 16.22955
566.8447, 16.09129
567.3268, 16.22089
567.8090, 16.39099
568.2911, 16.29430
568.7732, 15.96849
569.2553, 15.77939
569.7374, 15.84938
570.2195, 15.98493
570.7017, 15.86162
571.1838, 15.56490
571.6659, 15.36749
572.1480, 15.49424
572.6301, 15.70831
573.1122, 15.83920
573.5944, 15.88488
574.0765, 15.85705
574.5586, 15.63633
575.0407, 15.43644
575.5228, 15.40377
576.0049, 15.63440
576.4871, 15.81182
576.9692, 15.91825
577.4513, 15.95737
577.9334, 15.91945
578.4155, 15.74877
578.8976, 15.63917
579.3798, 15.63472
579.8619, 15.68738
580.3440, 15.67585
580.8261, 15.59482
581.3082, 15.51884
581.7903, 15.46921
582.2725, 15.45095
582.7546, 15.50927
583.2367, 15.63616
583.7188, 15.72408
584.2009, 15.63895
584.6830, 15.48977
585.1652, 15.42777
585.6473, 15.48346
586.1294, 15.54869
586.6115, 15.51752
587.0936, 15.48111
587.5757, 15.53609
588.0578, 15.84975
588.5399, 16.08775
589.0220, 16.14757
589.5042, 16.09290
589.9863, 16.07573
590.4684, 16.13215
590.9505, 16.16660
591.4326, 16.14525
591.9147, 16.07684
592.3969, 16.03361
592.8790, 16.01248
593.3611, 16.02993
593.8432, 16.11773
594.3253, 16.25921
594.8074, 16.38247
595.2896, 16.48804
595.7717, 16.54304
596.2538, 16.43586
596.7359, 16.27089
597.2180, 16.26358
597.7001, 16.56594
598.1823, 16.82536
598.6644, 16.70444
599.1465, 16.39643
599.6286, 16.23253
600.1107, 16.45440
600.5928, 16.69770
601.0750, 16.85459
601.5571, 16.93056
602.0392, 17.01023
602.5213, 17.07906
603.0034, 17.17643
603.4855, 17.35727
603.9677, 17.64360
604.4498, 17.66129
604.9319, 17.32393
605.4140, 16.98692
605.8961, 17.02759
606.3782, 17.38781
606.8604, 17.69072
607.3425, 17.89659
607.8246, 18.01479
608.3067, 17.97161
608.7888, 17.85287
609.2709, 17.84951
609.7531, 18.12705
610.2352, 18.42699
610.7173, 18.56456
611.1994, 18.59036
611.6815, 18.64379
612.1636, 18.81842
612.6458, 18.98285
613.1279, 19.07202
613.6100, 19.07970
614.0921, 19.14448
614.5742, 19.31204
615.0563, 19.47783
615.5385, 19.57601
616.0206, 19.58918
616.5027, 19.63227
616.9848, 19.69462
617.4669, 19.81832
617.9490, 20.11015
618.4312, 20.52501
618.9133, 20.81146
619.3954, 20.89700
619.8775, 20.90370
620.3596, 20.93616
620.8417, 21.00389
621.3239, 21.12607
621.8060, 21.37933
622.2881, 21.62838
622.7702, 21.74796
623.2523, 21.78432
623.7344, 21.92886
624.2166, 22.31765
624.6987, 22.74414
625.1808, 23.14462
625.6629, 23.52402
626.1450, 23.80817
626.6271, 23.94200
627.1093, 24.07404
627.5914, 24.31632
628.0735, 24.67706
628.5556, 25.03236
629.0377, 25.37865
629.5198, 25.70300
630.0020, 25.98809
630.4841, 26.24103
630.9662, 26.47598
631.4483, 26.67679
631.9304, 26.90468
632.4125, 27.25473
632.8947, 27.67238
633.3768, 28.05551
633.8589, 28.24283
634.3410, 28.50165
634.8231, 29.02827
635.3052, 29.76106
635.7874, 30.32217
636.2695, 30.46410
636.7516, 30.65483
637.2337, 31.03601
637.7158, 31.61396
638.1979, 32.35349
638.6801, 33.33112
639.1622, 34.26117
639.6443, 34.87919
640.1264, 35.21723
640.6085, 35.59106
641.0906, 36.01465
641.5728, 36.51999
642.0549, 37.18262
642.5370, 37.94544
643.0191, 38.71463
643.5012, 39.45705
643.9833, 40.21841
644.4655, 41.14823
644.9476, 42.09551
645.4297, 42.84061
645.9118, 42.95046
646.3939, 43.25161
646.8760, 44.08127
647.3582, 45.28971
647.8403, 46.27752
648.3224, 46.95214
648.8045, 47.61414
649.2866, 48.39557
649.7687, 49.28128
650.2509, 50.06280
650.7330, 50.74360
651.2151, 51.35292
651.6972, 51.80022
652.1793, 52.21453
652.6614, 52.93691
653.1436, 54.00475
653.6257, 55.09656
654.1078, 55.91908
654.5899, 56.63498
655.0720, 57.45861
655.5541, 58.57671
656.0363, 59.50171
