##NAMES=Magnesioferrite
##RRUFFID=R070127
##IDEAL CHEMISTRY=MgFe^3+^_2_O_4_
##LOCALITY=Langban, Filipstad, Varmland, Sweden
##OWNER=RRUFF
##SOURCE=Michael Scott
##DESCRIPTION=Black poorly formed octahedral crystals with deep red highlites, associated with hematite and calcite
##STATUS=The identification of this mineral has been confirmed only by single crystal X-ray diffraction.
##URL=rruff.info/R070127
122.7564, 192.9241
123.2385, 182.6523
123.7206, 202.8539
124.2027, 239.3960
124.6849, 267.5019
125.1670, 274.8986
125.6491, 269.0660
126.1312, 273.7789
126.6133, 293.0351
127.0954, 314.1661
127.5776, 330.8380
128.0597, 345.6095
128.5418, 366.7078
129.0239, 400.4288
129.5060, 441.2908
129.9881, 473.7054
130.4702, 493.7846
130.9524, 511.9146
131.4345, 535.2310
131.9166, 562.5352
132.3987, 586.6664
132.8808, 605.1729
133.3629, 616.7775
133.8451, 620.0871
134.3272, 608.6772
134.8093, 598.1093
135.2914, 605.7673
135.7735, 632.1372
136.2556, 651.9600
136.7378, 647.2156
137.2199, 631.0341
137.7020, 620.2878
138.1841, 618.6695
138.6662, 622.0456
139.1483, 626.7149
139.6305, 633.1340
140.1126, 638.4368
140.5947, 638.7802
141.0768, 638.2906
141.5589, 640.9157
142.0410, 647.7940
142.5232, 658.3206
143.0053, 671.4119
143.4874, 686.8083
143.9695, 705.9840
144.4516, 732.8398
144.9337, 762.1638
145.4159, 788.3908
145.8980, 808.8599
146.3801, 826.6492
146.8622, 848.5519
147.3443, 876.2767
147.8264, 904.8867
148.3086, 935.2201
148.7907, 964.7979
149.2728, 991.0227
149.7549, 1012.734
150.2370, 1030.400
150.7191, 1045.410
151.2013, 1056.540
151.6834, 1066.552
152.1655, 1076.959
152.6476, 1086.415
153.1297, 1093.788
153.6118, 1098.717
154.0940, 1100.513
154.5761, 1096.167
155.0582, 1077.900
155.5403, 1063.776
156.0224, 1060.159
156.5045, 1060.947
156.9867, 1057.782
157.4688, 1045.879
157.9509, 1028.634
158.4330, 1020.128
158.9151, 1032.097
159.3972, 1039.791
159.8794, 1035.386
160.3615, 1026.329
160.8436, 1022.727
161.3257, 1030.181
161.8078, 1046.228
162.2899, 1060.079
162.7721, 1067.486
163.2542, 1077.354
163.7363, 1096.378
164.2184, 1117.300
164.7005, 1127.841
165.1826, 1120.803
165.6648, 1101.985
166.1469, 1098.127
166.6290, 1126.936
167.1111, 1150.373
167.5932, 1161.025
168.0753, 1163.062
168.5575, 1162.899
169.0396, 1163.731
169.5217, 1165.065
170.0038, 1164.724
170.4859, 1159.039
170.9680, 1156.044
171.4502, 1158.868
171.9323, 1165.083
172.4144, 1171.420
172.8965, 1176.588
173.3786, 1179.906
173.8607, 1178.493
174.3429, 1168.311
174.8250, 1158.878
175.3071, 1148.973
175.7892, 1141.398
176.2713, 1142.697
176.7534, 1157.175
177.2356, 1179.166
177.7177, 1190.422
178.1998, 1186.400
178.6819, 1180.621
179.1640, 1175.954
179.6461, 1171.742
180.1283, 1165.899
180.6104, 1156.723
181.0925, 1147.252
181.5746, 1146.802
182.0567, 1160.540
182.5388, 1171.332
183.0210, 1171.579
183.5031, 1165.897
183.9852, 1164.197
184.4673, 1171.515
184.9494, 1181.447
185.4315, 1177.964
185.9137, 1156.250
186.3958, 1138.105
186.8779, 1128.854
187.3600, 1127.646
187.8421, 1134.454
188.3242, 1151.061
188.8064, 1171.267
189.2885, 1184.946
189.7706, 1194.258
190.2527, 1194.082
190.7348, 1174.979
191.2169, 1146.305
191.6991, 1126.156
192.1812, 1120.449
192.6633, 1122.238
193.1454, 1121.662
193.6275, 1118.406
194.1096, 1116.580
194.5918, 1117.768
195.0739, 1121.156
195.5560, 1125.723
196.0381, 1131.603
196.5202, 1137.520
197.0023, 1142.034
197.4845, 1145.356
197.9666, 1147.080
198.4487, 1146.202
198.9308, 1143.846
199.4129, 1142.133
199.8950, 1141.692
200.3772, 1140.950
200.8593, 1138.165
201.3414, 1133.644
201.8235, 1127.634
202.3056, 1117.941
202.7877, 1107.537
203.2699, 1101.152
203.7520, 1099.701
204.2341, 1100.482
204.7162, 1102.248
205.1983, 1104.563
205.6804, 1105.283
206.1626, 1103.995
206.6447, 1100.775
207.1268, 1093.504
207.6089, 1080.720
208.0910, 1072.250
208.5731, 1082.266
209.0553, 1103.642
209.5374, 1115.073
210.0195, 1105.127
210.5016, 1086.682
210.9837, 1074.322
211.4658, 1068.819
211.9480, 1064.411
212.4301, 1055.937
212.9122, 1046.036
213.3943, 1040.954
213.8764, 1042.550
214.3585, 1048.589
214.8407, 1059.415
215.3228, 1075.280
215.8049, 1086.976
216.2870, 1087.104
216.7691, 1080.274
217.2512, 1076.159
217.7334, 1077.523
218.2155, 1079.263
218.6976, 1076.178
219.1797, 1068.669
219.6618, 1062.800
220.1439, 1063.014
220.6261, 1065.318
221.1082, 1062.433
221.5903, 1051.819
222.0724, 1041.358
222.5545, 1034.849
223.0366, 1032.562
223.5188, 1037.342
224.0009, 1054.879
224.4830, 1075.206
224.9651, 1083.450
225.4472, 1077.509
225.9293, 1069.835
226.4115, 1068.768
226.8936, 1071.875
227.3757, 1069.949
227.8578, 1058.373
228.3399, 1044.447
228.8220, 1037.264
229.3041, 1036.799
229.7863, 1037.447
230.2684, 1036.682
230.7505, 1035.305
231.2326, 1035.077
231.7147, 1036.319
232.1968, 1038.763
232.6790, 1042.942
233.1611, 1048.528
233.6432, 1053.068
234.1253, 1054.386
234.6074, 1054.636
235.0895, 1057.949
235.5717, 1065.451
236.0538, 1072.295
236.5359, 1071.239
237.0180, 1065.051
237.5001, 1065.558
237.9822, 1084.881
238.4644, 1106.579
238.9465, 1107.659
239.4286, 1086.373
239.9107, 1069.753
240.3928, 1081.448
240.8749, 1112.712
241.3571, 1131.771
241.8392, 1129.819
242.3213, 1119.899
242.8034, 1108.307
243.2855, 1095.752
243.7676, 1089.133
244.2498, 1095.148
244.7319, 1108.250
245.2140, 1112.324
245.6961, 1101.526
246.1782, 1090.693
246.6603, 1089.952
247.1425, 1096.116
247.6246, 1097.417
248.1067, 1087.214
248.5888, 1072.529
249.0709, 1068.109
249.5530, 1076.241
250.0352, 1085.303
250.5173, 1092.042
250.9994, 1096.813
251.4815, 1099.923
251.9636, 1101.182
252.4457, 1101.820
252.9279, 1103.661
253.4100, 1106.824
253.8921, 1110.123
254.3742, 1115.990
254.8563, 1120.693
255.3384, 1117.937
255.8206, 1106.565
256.3027, 1094.906
256.7848, 1092.254
257.2669, 1100.115
257.7490, 1104.709
258.2311, 1099.366
258.7133, 1095.215
259.1954, 1103.607
259.6775, 1123.420
260.1596, 1142.183
260.6417, 1150.914
261.1238, 1149.387
261.6060, 1143.335
262.0881, 1128.291
262.5702, 1113.685
263.0523, 1101.457
263.5344, 1093.000
264.0165, 1092.442
264.4987, 1103.321
264.9808, 1122.226
265.4629, 1134.250
265.9450, 1134.891
266.4271, 1135.137
266.9092, 1134.059
267.3914, 1134.688
267.8735, 1143.988
268.3556, 1165.068
268.8377, 1189.152
269.3198, 1198.523
269.8019, 1182.340
270.2841, 1166.320
270.7662, 1145.456
271.2483, 1127.571
271.7304, 1121.722
272.2125, 1128.841
272.6946, 1139.888
273.1768, 1143.156
273.6589, 1134.266
274.1410, 1132.768
274.6231, 1145.092
275.1052, 1158.076
275.5873, 1164.302
276.0695, 1164.232
276.5516, 1162.719
277.0337, 1163.977
277.5158, 1168.091
277.9979, 1169.770
278.4800, 1165.074
278.9622, 1162.156
279.4443, 1164.482
279.9264, 1169.920
280.4085, 1174.772
280.8906, 1176.926
281.3727, 1176.976
281.8549, 1177.156
282.3370, 1177.390
282.8191, 1177.896
283.3012, 1175.818
283.7833, 1175.373
284.2654, 1182.616
284.7476, 1199.220
285.2297, 1218.268
285.7118, 1226.196
286.1939, 1215.098
286.6760, 1214.473
287.1581, 1240.103
287.6403, 1265.735
288.1224, 1273.424
288.6045, 1263.108
289.0866, 1249.301
289.5687, 1246.301
290.0508, 1254.805
290.5330, 1263.245
291.0151, 1272.698
291.4972, 1280.797
291.9793, 1285.503
292.4614, 1288.106
292.9435, 1291.632
293.4257, 1298.748
293.9078, 1307.875
294.3899, 1312.908
294.8720, 1311.070
295.3541, 1311.268
295.8362, 1318.241
296.3184, 1328.750
296.8005, 1339.434
297.2826, 1349.666
297.7647, 1358.697
298.2468, 1365.833
298.7289, 1371.115
299.2111, 1373.377
299.6932, 1367.238
300.1753, 1361.740
300.6574, 1368.216
301.1395, 1388.653
301.6216, 1406.249
302.1038, 1406.714
302.5859, 1394.309
303.0680, 1385.032
303.5501, 1381.594
304.0322, 1382.171
304.5143, 1384.902
304.9964, 1389.734
305.4785, 1398.141
305.9607, 1415.858
306.4428, 1434.925
306.9249, 1445.478
307.4070, 1446.791
307.8891, 1439.884
308.3712, 1418.433
308.8534, 1389.015
309.3355, 1379.765
309.8176, 1413.158
310.2997, 1446.391
310.7818, 1451.024
311.2639, 1434.450
311.7461, 1421.414
312.2282, 1423.374
312.7103, 1434.327
313.1924, 1439.544
313.6745, 1435.888
314.1566, 1434.130
314.6388, 1437.716
315.1209, 1443.796
315.6030, 1450.017
316.0851, 1455.655
316.5672, 1458.611
317.0493, 1455.466
317.5315, 1443.137
318.0136, 1437.289
318.4957, 1444.104
318.9778, 1451.514
319.4599, 1452.838
319.9420, 1448.386
320.4242, 1440.686
320.9063, 1430.581
321.3884, 1419.077
321.8705, 1418.175
322.3526, 1441.814
322.8347, 1460.501
323.3169, 1467.656
323.7990, 1467.648
324.2811, 1465.672
324.7632, 1463.890
325.2453, 1462.189
325.7274, 1460.139
326.2096, 1456.776
326.6917, 1455.301
327.1738, 1456.080
327.6559, 1458.396
328.1380, 1464.436
328.6201, 1472.810
329.1023, 1477.130
329.5844, 1468.752
330.0665, 1447.356
330.5486, 1433.490
331.0307, 1432.219
331.5128, 1432.519
331.9950, 1427.755
332.4771, 1421.346
332.9592, 1420.558
333.4413, 1431.551
333.9234, 1446.865
334.4055, 1450.894
334.8877, 1441.269
335.3698, 1431.377
335.8519, 1431.979
336.3340, 1431.543
336.8161, 1414.270
337.2982, 1374.397
337.7804, 1339.616
338.2625, 1335.925
338.7446, 1356.646
339.2267, 1373.846
339.7088, 1383.323
340.1909, 1385.119
340.6731, 1373.534
341.1552, 1350.888
341.6373, 1337.115
342.1194, 1347.251
342.6015, 1363.240
343.0836, 1363.532
343.5658, 1347.527
344.0479, 1329.551
344.5300, 1318.539
345.0121, 1313.453
345.4942, 1307.441
345.9763, 1300.316
346.4585, 1292.639
346.9406, 1282.341
347.4227, 1271.997
347.9048, 1267.738
348.3869, 1272.141
348.8690, 1278.547
349.3512, 1274.771
349.8333, 1250.962
350.3154, 1237.836
350.7975, 1248.408
351.2796, 1259.310
351.7617, 1250.411
352.2439, 1223.894
352.7260, 1198.365
353.2081, 1190.692
353.6902, 1200.408
354.1723, 1203.574
354.6544, 1189.288
355.1366, 1179.974
355.6187, 1186.040
356.1008, 1197.549
356.5829, 1199.932
357.0650, 1186.664
357.5471, 1166.982
358.0293, 1157.763
358.5114, 1161.329
358.9935, 1168.020
359.4756, 1185.583
359.9577, 1198.970
360.4398, 1195.149
360.9220, 1175.936
361.4041, 1157.716
361.8862, 1157.235
362.3683, 1169.577
362.8504, 1168.862
363.3326, 1148.040
363.8147, 1128.738
364.2968, 1125.653
364.7789, 1132.086
365.2610, 1138.066
365.7431, 1141.852
366.2253, 1143.235
366.7074, 1142.236
367.1895, 1138.764
367.6716, 1131.162
368.1537, 1116.425
368.6358, 1100.626
369.1180, 1095.852
369.6001, 1104.428
370.0822, 1107.219
370.5643, 1090.639
371.0464, 1069.840
371.5285, 1065.179
372.0107, 1078.125
372.4928, 1091.220
372.9749, 1087.766
373.4570, 1068.165
373.9391, 1053.478
374.4212, 1067.942
374.9034, 1075.867
375.3855, 1077.603
375.8676, 1054.615
376.3497, 1063.553
376.8318, 1059.696
377.3139, 1055.315
377.7961, 1068.746
378.2782, 1049.354
378.7603, 1062.503
379.2424, 1062.662
379.7245, 1068.766
380.2066, 1061.997
380.6888, 1059.204
381.1709, 1069.288
381.6530, 1072.242
382.1351, 1063.991
382.6172, 1070.473
383.0993, 1050.632
383.5815, 1053.889
384.0636, 1067.113
384.5457, 1059.510
385.0278, 1052.443
385.5099, 1055.832
385.9920, 1061.203
386.4742, 1063.246
386.9563, 1062.167
387.4384, 1061.643
387.9205, 1062.882
388.4026, 1064.225
388.8847, 1064.072
389.3669, 1062.590
389.8490, 1060.748
390.3311, 1056.500
390.8132, 1053.403
391.2953, 1055.654
391.7774, 1063.320
392.2596, 1075.495
392.7417, 1094.579
393.2238, 1116.232
393.7059, 1123.164
394.1880, 1104.889
394.6701, 1090.095
395.1523, 1087.801
395.6344, 1092.042
396.1165, 1096.330
396.5986, 1098.878
397.0807, 1100.166
397.5628, 1100.941
398.0450, 1101.670
398.5271, 1099.051
399.0092, 1085.561
399.4913, 1076.892
399.9734, 1081.595
400.4555, 1094.901
400.9377, 1108.511
401.4197, 1118.260
401.9019, 1124.727
402.3840, 1129.147
402.8661, 1131.077
403.3482, 1132.098
403.8303, 1129.660
404.3124, 1128.505
404.7946, 1133.386
405.2767, 1143.634
405.7588, 1152.390
406.2409, 1150.992
406.7230, 1144.042
407.2051, 1150.238
407.6873, 1175.215
408.1694, 1194.993
408.6515, 1188.184
409.1336, 1168.709
409.6157, 1162.440
410.0978, 1178.257
410.5800, 1196.961
411.0621, 1208.423
411.5442, 1213.738
412.0263, 1213.882
412.5084, 1208.218
412.9905, 1202.993
413.4727, 1206.560
413.9548, 1221.516
414.4369, 1232.824
414.9190, 1240.838
415.4011, 1244.771
415.8832, 1239.802
416.3654, 1230.320
416.8475, 1227.641
417.3296, 1238.550
417.8117, 1257.339
418.2938, 1266.594
418.7759, 1255.438
419.2581, 1253.641
419.7402, 1270.454
420.2223, 1290.208
420.7044, 1304.014
421.1865, 1310.116
421.6686, 1308.908
422.1508, 1295.885
422.6329, 1274.842
423.1150, 1271.974
423.5971, 1295.057
424.0792, 1320.162
424.5613, 1341.510
425.0435, 1357.192
425.5256, 1361.909
426.0077, 1351.663
426.4898, 1341.683
426.9719, 1345.574
427.4540, 1359.846
427.9362, 1373.474
428.4183, 1385.431
428.9004, 1392.068
429.3825, 1385.025
429.8646, 1365.170
430.3467, 1360.181
430.8289, 1387.271
431.3110, 1415.129
431.7931, 1423.482
432.2752, 1418.281
432.7573, 1414.959
433.2394, 1420.474
433.7216, 1430.692
434.2037, 1437.086
434.6858, 1436.508
435.1679, 1438.181
435.6500, 1448.067
436.1321, 1454.830
436.6143, 1448.837
437.0964, 1433.283
437.5785, 1419.656
438.0606, 1417.139
438.5427, 1421.227
439.0248, 1413.693
439.5070, 1386.399
439.9891, 1368.108
440.4712, 1378.654
440.9533, 1394.587
441.4354, 1395.270
441.9175, 1378.196
442.3997, 1361.230
442.8818, 1358.824
443.3639, 1365.088
443.8460, 1364.639
444.3281, 1355.275
444.8102, 1346.099
445.2924, 1343.958
445.7745, 1347.089
446.2566, 1347.057
446.7387, 1340.315
447.2208, 1335.016
447.7029, 1336.269
448.1851, 1340.143
448.6672, 1340.233
449.1493, 1335.066
449.6314, 1328.572
450.1135, 1324.838
450.5956, 1323.451
451.0778, 1327.970
451.5599, 1351.579
452.0420, 1366.354
452.5241, 1357.609
453.0062, 1336.336
453.4883, 1318.375
453.9705, 1310.206
454.4526, 1307.971
454.9347, 1305.622
455.4168, 1302.809
455.8989, 1303.440
456.3810, 1311.304
456.8632, 1318.868
457.3453, 1319.673
457.8274, 1315.949
458.3095, 1314.989
458.7916, 1321.635
459.2737, 1330.547
459.7559, 1335.442
460.2380, 1336.977
460.7201, 1340.348
461.2022, 1348.797
461.6843, 1357.259
462.1664, 1355.247
462.6486, 1337.850
463.1307, 1329.325
463.6128, 1339.715
464.0949, 1353.151
464.5770, 1359.966
465.0591, 1359.796
465.5413, 1353.774
466.0234, 1341.696
466.5055, 1327.641
466.9876, 1326.057
467.4697, 1349.555
467.9518, 1361.108
468.4340, 1346.123
468.9161, 1328.309
469.3982, 1324.695
469.8803, 1334.386
470.3624, 1344.105
470.8445, 1344.374
471.3267, 1338.086
471.8088, 1332.506
472.2909, 1327.581
472.7730, 1323.520
473.2551, 1319.419
473.7372, 1317.074
474.2194, 1320.833
474.7015, 1333.698
475.1836, 1339.223
475.6657, 1326.348
476.1478, 1305.450
476.6299, 1288.178
477.1121, 1275.712
477.5942, 1265.251
478.0763, 1254.716
478.5584, 1244.521
479.0405, 1237.141
479.5226, 1232.751
480.0048, 1231.123
480.4869, 1236.575
480.9690, 1241.980
481.4511, 1239.548
481.9332, 1229.446
482.4153, 1219.654
482.8975, 1219.030
483.3796, 1225.271
483.8617, 1221.192
484.3438, 1201.153
484.8259, 1183.920
485.3080, 1182.270
485.7902, 1184.959
486.2723, 1178.947
486.7544, 1161.010
487.2365, 1145.958
487.7186, 1143.862
488.2007, 1150.319
488.6829, 1160.196
489.1650, 1172.796
489.6471, 1178.987
490.1292, 1169.646
490.6113, 1148.478
491.0934, 1139.587
491.5756, 1159.669
492.0577, 1168.522
492.5398, 1146.448
493.0219, 1117.879
493.5040, 1110.307
493.9861, 1125.454
494.4683, 1142.052
494.9504, 1139.293
495.4325, 1119.290
495.9146, 1106.205
496.3967, 1101.385
496.8788, 1101.288
497.3610, 1107.812
497.8431, 1116.551
498.3252, 1124.583
498.8073, 1131.506
499.2894, 1133.565
499.7715, 1123.804
500.2536, 1108.277
500.7357, 1100.632
501.2179, 1102.290
501.7000, 1106.637
502.1821, 1110.500
502.6642, 1113.442
503.1463, 1113.511
503.6284, 1106.724
504.1106, 1103.501
504.5927, 1108.867
505.0748, 1116.678
505.5569, 1120.744
506.0390, 1120.761
506.5211, 1121.384
507.0033, 1127.629
507.4854, 1137.175
507.9675, 1133.285
508.4496, 1101.644
508.9317, 1084.295
509.4138, 1105.897
509.8960, 1134.578
510.3781, 1142.430
510.8602, 1127.486
511.3423, 1113.048
511.8244, 1117.594
512.3066, 1131.445
512.7887, 1134.576
513.2708, 1126.308
513.7529, 1121.239
514.2350, 1128.245
514.7172, 1141.845
515.1993, 1148.918
515.6814, 1149.414
516.1635, 1144.914
516.6456, 1127.548
517.1277, 1111.487
517.6099, 1109.374
518.0920, 1119.296
518.5741, 1132.268
519.0562, 1143.143
519.5383, 1150.859
520.0204, 1151.044
520.5026, 1139.452
520.9847, 1132.071
521.4668, 1132.326
521.9489, 1137.029
522.4310, 1148.890
522.9131, 1164.821
523.3953, 1173.056
523.8774, 1160.238
524.3595, 1142.791
524.8416, 1145.248
525.3237, 1163.836
525.8058, 1172.039
526.2880, 1157.635
526.7701, 1138.061
527.2522, 1140.017
527.7343, 1172.128
528.2164, 1191.226
528.6985, 1190.941
529.1807, 1184.562
529.6628, 1174.551
530.1449, 1164.069
530.6270, 1157.837
531.1091, 1157.721
531.5912, 1160.635
532.0734, 1161.770
532.5555, 1160.799
533.0376, 1160.697
533.5197, 1158.366
534.0018, 1161.861
534.4839, 1183.875
534.9661, 1212.695
535.4482, 1224.841
535.9303, 1207.219
536.4124, 1189.294
536.8945, 1195.807
537.3766, 1215.839
537.8588, 1226.172
538.3409, 1222.546
538.8230, 1217.846
539.3051, 1224.530
539.7872, 1241.201
540.2693, 1246.261
540.7515, 1219.167
541.2336, 1206.811
541.7157, 1227.206
542.1978, 1257.219
542.6799, 1277.023
543.1620, 1283.395
543.6442, 1283.089
544.1263, 1280.852
544.6084, 1276.526
545.0905, 1266.516
545.5726, 1247.480
546.0547, 1240.946
546.5369, 1261.031
547.0190, 1292.891
547.5011, 1316.053
547.9832, 1330.148
548.4653, 1340.453
548.9474, 1348.455
549.4296, 1353.118
549.9116, 1351.595
550.3937, 1345.749
550.8759, 1340.163
551.3580, 1336.844
551.8401, 1337.027
552.3222, 1343.939
552.8043, 1360.861
553.2864, 1375.031
553.7686, 1383.819
554.2507, 1392.422
554.7328, 1403.750
555.2149, 1416.031
555.6970, 1425.689
556.1791, 1430.966
556.6613, 1435.105
557.1434, 1440.786
557.6255, 1447.922
558.1076, 1457.317
558.5897, 1469.714
559.0718, 1478.995
559.5540, 1477.406
560.0361, 1467.539
560.5182, 1473.151
561.0003, 1512.595
561.4824, 1541.160
561.9645, 1543.343
562.4467, 1535.932
562.9288, 1532.058
563.4109, 1534.743
563.8930, 1544.267
564.3751, 1563.573
564.8572, 1587.414
565.3394, 1593.208
565.8215, 1573.681
566.3036, 1568.800
566.7857, 1595.819
567.2678, 1636.482
567.7499, 1675.945
568.2321, 1713.637
568.7142, 1739.712
569.1963, 1743.496
569.6784, 1741.748
570.1605, 1743.625
570.6426, 1750.416
571.1248, 1766.203
571.6069, 1792.255
572.0890, 1819.912
572.5711, 1836.035
573.0532, 1837.820
573.5353, 1849.620
574.0175, 1884.666
574.4996, 1913.333
574.9817, 1920.756
575.4638, 1920.945
575.9459, 1931.335
576.4280, 1955.942
576.9102, 1984.172
577.3923, 2013.088
577.8744, 2038.925
578.3565, 2049.924
578.8386, 2045.883
579.3207, 2046.711
579.8029, 2062.612
580.2850, 2091.078
580.7671, 2127.181
581.2492, 2182.533
581.7313, 2222.782
582.2134, 2234.572
582.6956, 2243.537
583.1777, 2262.177
583.6598, 2289.816
584.1419, 2322.409
584.6240, 2358.052
585.1061, 2396.803
585.5883, 2442.970
586.0704, 2495.332
586.5525, 2531.608
587.0346, 2543.269
587.5167, 2553.719
587.9988, 2579.152
588.4810, 2616.606
588.9631, 2654.505
589.4452, 2691.622
589.9273, 2730.586
590.4094, 2776.043
590.8915, 2821.438
591.3737, 2856.834
591.8558, 2884.457
592.3379, 2918.675
592.8200, 2971.365
593.3021, 3033.477
593.7842, 3077.945
594.2664, 3100.721
594.7485, 3120.367
595.2306, 3130.068
595.7127, 3148.395
596.1948, 3190.988
596.6769, 3252.716
597.1591, 3315.653
597.6412, 3381.965
598.1233, 3440.292
598.6054, 3475.619
599.0875, 3499.821
599.5696, 3536.902
600.0518, 3590.744
600.5339, 3644.904
601.0160, 3683.824
601.4981, 3709.167
601.9802, 3736.144
602.4623, 3766.026
602.9445, 3795.290
603.4266, 3822.382
603.9087, 3849.451
604.3908, 3876.848
604.8729, 3905.307
605.3550, 3937.463
605.8372, 3980.007
606.3193, 4022.084
606.8014, 4052.620
607.2835, 4071.948
607.7656, 4078.526
608.2477, 4070.865
608.7299, 4061.605
609.2120, 4065.602
609.6941, 4083.580
610.1762, 4093.974
610.6583, 4086.276
611.1404, 4084.065
611.6226, 4093.301
612.1047, 4108.399
612.5868, 4130.299
613.0689, 4155.438
613.5510, 4166.543
614.0331, 4143.984
614.5153, 4104.100
614.9974, 4078.057
615.4795, 4064.411
615.9616, 4044.732
616.4437, 4010.766
616.9258, 3976.271
617.4080, 3961.163
617.8901, 3969.702
618.3722, 3960.568
618.8543, 3925.061
619.3364, 3883.943
