##NAMES=Magnetite
##RRUFFID=R060222
##IDEAL CHEMISTRY=Fe^2+^Fe^3+^_2_O_4_
##LOCALITY=Cerro Hua√±aquino, Potosi Department, Bolivia
##OWNER=RRUFF
##SOURCE=Rock Currier
##DESCRIPTION=Black octahedra, the surface is hematite and the interior is magnetite
##STATUS=The identification of this mineral has been confirmed by X-ray diffraction and chemical analysis
##URL=rruff.info/R060222
##MEASURED CHEMISTRY=(Fe^2+^_0.95_Mg_0.05_)(Fe^3+^_0.99_Al_0.01_)_2_O_4_
92.07813, 44.99934
92.56024, 45.91409
93.04236, 45.33054
93.52448, 43.59792
94.00659, 42.00801
94.48871, 41.61798
94.97083, 41.93991
95.45294, 41.57063
95.93506, 40.19691
96.41718, 38.40495
96.89929, 37.18702
97.38141, 36.55872
97.86353, 36.13525
98.34564, 35.36912
98.82776, 34.32773
99.30988, 34.39518
99.79199, 36.18929
100.2741, 39.11780
100.7562, 41.05769
101.2383, 41.96897
101.7205, 42.00139
102.2026, 40.97563
102.6847, 38.46512
103.1668, 36.59337
103.6489, 35.96016
104.1310, 36.60400
104.6132, 36.87853
105.0953, 36.39081
105.5774, 35.90369
106.0595, 36.55573
106.5416, 39.82806
107.0237, 41.96449
107.5059, 41.74309
107.9880, 38.15252
108.4701, 35.33964
108.9522, 33.54425
109.4343, 32.47212
109.9164, 31.55143
110.3986, 30.69976
110.8807, 30.08476
111.3628, 29.79269
111.8449, 30.24906
112.3270, 30.34318
112.8091, 29.68609
113.2913, 28.57277
113.7734, 27.82785
114.2555, 27.81493
114.7376, 28.04352
115.2197, 28.25215
115.7018, 28.30381
116.1840, 28.43425
116.6661, 28.72633
117.1482, 29.15927
117.6303, 29.62301
118.1124, 30.64504
118.5945, 31.43406
119.0767, 31.31134
119.5588, 27.72515
120.0409, 25.09484
120.5230, 26.83825
121.0051, 32.69683
121.4872, 37.57618
121.9694, 37.12804
122.4515, 34.02958
122.9336, 31.98343
123.4157, 33.66173
123.8978, 36.44580
124.3799, 37.75506
124.8621, 37.37411
125.3442, 37.03951
125.8263, 38.45812
126.3084, 41.10872
126.7905, 43.72703
127.2726, 45.65175
127.7548, 47.13189
128.2369, 48.46136
128.7190, 49.60008
129.2011, 50.83437
129.6832, 52.44518
130.1653, 54.42547
130.6474, 56.82225
131.1296, 60.23270
131.6117, 64.17733
132.0938, 66.94505
132.5759, 68.09759
133.0580, 68.42451
133.5401, 69.33675
134.0223, 70.84692
134.5044, 72.56034
134.9865, 73.97852
135.4686, 75.15157
135.9507, 77.30372
136.4328, 80.95118
136.9150, 85.54082
137.3971, 88.99216
137.8792, 91.04785
138.3613, 93.03262
138.8434, 96.17812
139.3255, 100.6947
139.8077, 105.1201
140.2898, 109.5547
140.7719, 113.8029
141.2540, 116.1909
141.7361, 116.0957
142.2182, 115.1285
142.7004, 114.7289
143.1825, 114.8959
143.6646, 115.6700
144.1467, 117.1888
144.6288, 119.5309
145.1109, 121.7143
145.5931, 123.9539
146.0752, 125.8803
146.5573, 126.9791
147.0394, 126.2795
147.5215, 126.1477
148.0036, 127.2705
148.4858, 130.0343
148.9679, 132.5928
149.4500, 135.0224
149.9321, 137.2290
150.4142, 139.0166
150.8963, 139.5047
151.3785, 140.4274
151.8606, 142.3740
152.3427, 146.0620
152.8248, 149.1585
153.3069, 150.9801
153.7890, 152.2592
154.2712, 153.8288
154.7533, 155.4016
155.2354, 157.4074
155.7175, 160.0294
156.1996, 164.6734
156.6817, 167.1564
157.1639, 165.5309
157.6460, 161.4124
158.1281, 158.2797
158.6102, 157.2182
159.0923, 157.0301
159.5744, 157.1796
160.0566, 157.8651
160.5387, 158.4106
161.0208, 158.6759
161.5029, 158.6741
161.9850, 158.4292
162.4671, 157.1897
162.9493, 156.1620
163.4314, 156.2511
163.9135, 158.9175
164.3956, 161.1241
164.8777, 161.4010
165.3598, 160.0799
165.8420, 158.5034
166.3241, 156.4582
166.8062, 154.8174
167.2883, 154.4241
167.7704, 156.7800
168.2525, 159.1346
168.7346, 159.5438
169.2168, 158.2862
169.6989, 157.1352
170.1810, 157.1173
170.6631, 157.8053
171.1452, 158.7166
171.6273, 160.2290
172.1095, 161.4672
172.5916, 161.3903
173.0737, 160.1169
173.5558, 159.0015
174.0379, 159.2639
174.5201, 160.2957
175.0022, 161.1262
175.4843, 161.3976
175.9664, 161.2921
176.4485, 160.8886
176.9306, 160.1907
177.4128, 159.5562
177.8949, 159.4363
178.3770, 159.6146
178.8591, 159.6075
179.3412, 158.8019
179.8233, 157.8313
180.3055, 158.0572
180.7876, 159.5697
181.2697, 160.8087
181.7518, 159.7079
182.2339, 156.9479
182.7160, 154.6847
183.1982, 153.8053
183.6803, 154.0672
184.1624, 155.2665
184.6445, 157.5192
185.1266, 159.8478
185.6087, 160.9735
186.0909, 161.1122
186.5730, 161.3452
187.0551, 162.6375
187.5372, 164.4504
188.0193, 164.8058
188.5014, 163.4781
188.9836, 161.5505
189.4657, 160.1450
189.9478, 159.2652
190.4299, 158.8599
190.9120, 159.0834
191.3941, 159.8237
191.8763, 160.5947
192.3584, 161.4717
192.8405, 162.1191
193.3226, 161.8104
193.8047, 160.5408
194.2868, 159.5565
194.7690, 159.8157
195.2511, 161.1664
195.7332, 161.3486
196.2153, 160.0637
196.6974, 158.1852
197.1795, 157.1366
197.6617, 156.9393
198.1438, 157.1753
198.6259, 158.0712
199.1080, 159.6248
199.5901, 159.7235
200.0722, 157.8515
200.5544, 155.2578
201.0365, 154.2691
201.5186, 155.0345
202.0007, 156.3535
202.4828, 158.1929
202.9649, 160.7230
203.4471, 161.0796
203.9292, 158.4313
204.4113, 154.5485
204.8934, 153.0158
205.3755, 154.2688
205.8576, 156.1367
206.3398, 157.7514
206.8219, 159.1239
207.3040, 160.2612
207.7861, 161.3682
208.2682, 162.0334
208.7503, 160.9343
209.2325, 157.3164
209.7146, 154.3639
210.1967, 154.3224
210.6788, 158.4682
211.1609, 158.8523
211.6430, 152.4412
212.1252, 153.9367
212.6073, 154.7925
213.0894, 155.0431
213.5715, 152.8755
214.0536, 153.8305
214.5357, 153.5341
215.0179, 153.1864
215.5000, 154.5808
215.9821, 152.7650
216.4642, 154.1317
216.9463, 154.2281
217.4284, 154.9059
217.9105, 154.3246
218.3927, 155.5603
218.8748, 156.1304
219.3569, 155.1633
219.8390, 153.5663
220.3211, 153.4756
220.8032, 155.7066
221.2854, 157.9202
221.7675, 159.1792
222.2496, 159.2300
222.7317, 159.0537
223.2138, 158.5445
223.6959, 157.8602
224.1781, 157.3791
224.6602, 157.3403
225.1423, 157.0807
225.6244, 156.0678
226.1065, 153.3972
226.5886, 152.8310
227.0708, 155.7144
227.5529, 160.0326
228.0350, 161.3712
228.5171, 157.8315
228.9992, 154.5167
229.4813, 153.5542
229.9635, 155.9949
230.4456, 157.5155
230.9277, 157.8832
231.4098, 157.4432
231.8919, 156.7014
232.3740, 155.0499
232.8562, 154.1049
233.3383, 154.7421
233.8204, 157.9115
234.3025, 159.4919
234.7846, 158.7726
235.2667, 156.8587
235.7489, 155.6987
236.2310, 155.3215
236.7131, 155.6683
237.1952, 157.1073
237.6773, 160.4492
238.1594, 161.6991
238.6416, 159.7513
239.1237, 155.1765
239.6058, 156.5855
240.0879, 157.3548
240.5700, 157.5189
241.0521, 155.2648
241.5343, 156.1333
242.0164, 155.7504
242.4985, 155.3161
242.9806, 156.6240
243.4627, 157.1475
243.9448, 156.8711
244.4270, 156.5646
244.9091, 156.6284
245.3912, 157.1445
245.8733, 157.6071
246.3554, 158.1416
246.8375, 158.5235
247.3197, 158.3815
247.8018, 157.2733
248.2839, 156.4441
248.7660, 156.3203
249.2481, 157.0371
249.7302, 157.3345
250.2124, 156.7960
250.6945, 156.2284
251.1766, 156.6809
251.6587, 158.9134
252.1408, 160.6972
252.6229, 161.5618
253.1051, 161.4835
253.5872, 160.7225
254.0693, 158.7720
254.5514, 156.6904
255.0335, 155.5879
255.5156, 155.7858
255.9978, 156.3097
256.4799, 157.2020
256.9620, 158.4539
257.4441, 158.6434
257.9262, 156.7301
258.4083, 155.0968
258.8904, 155.0767
259.3726, 156.7786
259.8547, 157.8409
260.3368, 158.2979
260.8189, 155.1438
261.3010, 157.0001
261.7831, 158.1715
262.2653, 158.6923
262.7474, 156.7496
263.2295, 157.8839
263.7116, 157.7216
264.1937, 157.4626
264.6758, 158.9003
265.1580, 157.0824
265.6401, 158.4018
266.1222, 158.4054
266.6043, 158.9450
267.0864, 158.1803
267.5685, 157.7590
268.0507, 158.5518
268.5328, 158.6019
269.0149, 157.5107
269.4970, 157.0142
269.9791, 157.6980
270.4612, 158.5965
270.9434, 159.8804
271.4255, 160.4396
271.9076, 159.8952
272.3897, 158.7956
272.8718, 158.7059
273.3539, 159.9482
273.8361, 161.1397
274.3182, 161.3448
274.8003, 160.3356
275.2824, 160.2495
275.7645, 161.5453
276.2466, 163.3383
276.7288, 163.7653
277.2109, 162.5864
277.6930, 161.2251
278.1751, 160.1677
278.6572, 159.3856
279.1393, 159.4798
279.6215, 160.6955
280.1036, 162.3203
280.5857, 163.2951
281.0678, 163.5845
281.5499, 163.5809
282.0320, 163.3493
282.5142, 162.9120
282.9963, 162.4975
283.4784, 162.0431
283.9605, 161.8034
284.4426, 162.2583
284.9247, 163.4245
285.4069, 164.4170
285.8890, 164.8360
286.3711, 164.8296
286.8532, 165.2740
287.3353, 166.2696
287.8174, 167.1590
288.2996, 166.9883
288.7817, 165.8761
289.2638, 165.2239
289.7459, 165.5799
290.2280, 166.5636
290.7101, 167.1109
291.1923, 167.2032
291.6744, 167.1970
292.1565, 167.3711
292.6386, 167.7045
293.1207, 168.1688
293.6028, 168.9695
294.0850, 169.6415
294.5671, 168.9383
295.0492, 166.9539
295.5313, 165.2828
296.0134, 165.4399
296.4955, 166.8516
296.9777, 167.8938
297.4598, 168.3042
297.9419, 168.2557
298.4240, 167.7581
298.9061, 166.9131
299.3882, 166.2394
299.8704, 166.1485
300.3525, 166.4344
300.8346, 166.6174
301.3167, 166.5708
301.7988, 166.7648
302.2809, 168.1286
302.7631, 170.2331
303.2452, 171.8410
303.7273, 171.8510
304.2094, 171.1709
304.6915, 171.0830
305.1736, 171.6994
305.6558, 172.3447
306.1379, 172.2862
306.6200, 171.8410
307.1021, 171.6064
307.5842, 172.3775
308.0663, 173.1292
308.5485, 172.6680
309.0306, 171.0247
309.5127, 169.4057
309.9948, 168.5080
310.4769, 168.1617
310.9590, 168.1694
311.4412, 168.7921
311.9233, 169.4283
312.4054, 169.6653
312.8875, 169.5481
313.3696, 169.2957
313.8517, 168.8372
314.3339, 168.4017
314.8160, 168.2488
315.2981, 168.8365
315.7802, 169.1016
316.2623, 167.9524
316.7444, 166.0031
317.2266, 164.8788
317.7087, 166.3841
318.1908, 168.1811
318.6729, 168.6445
319.1550, 166.8786
319.6371, 165.5303
320.1193, 165.9280
320.6014, 167.2497
321.0835, 168.1587
321.5656, 168.0010
322.0477, 167.5703
322.5298, 167.0201
323.0120, 166.2350
323.4941, 166.0374
323.9762, 167.1547
324.4583, 168.7311
324.9404, 169.8422
325.4225, 170.5578
325.9047, 170.5803
326.3868, 169.4084
326.8689, 166.9827
327.3510, 165.3898
327.8331, 165.5494
328.3152, 166.1308
328.7974, 166.2137
329.2795, 165.0734
329.7616, 164.2736
330.2437, 163.9697
330.7258, 164.1146
331.2079, 164.4837
331.6901, 165.5208
332.1722, 166.3397
332.6543, 166.4360
333.1364, 165.0046
333.6185, 164.3473
334.1006, 164.8286
334.5828, 165.9918
335.0649, 166.7804
335.5470, 167.1560
336.0291, 167.2269
336.5112, 166.9510
336.9933, 166.2133
337.4755, 165.7047
337.9576, 165.4173
338.4397, 165.3766
338.9218, 165.6451
339.4039, 166.2672
339.8860, 167.0688
340.3681, 168.2054
340.8503, 169.6001
341.3324, 169.9442
341.8145, 169.0205
342.2966, 167.6699
342.7787, 166.5524
343.2608, 165.6770
343.7430, 165.0042
344.2251, 164.4214
344.7072, 164.1165
345.1893, 165.0243
345.6714, 167.2791
346.1535, 169.1631
346.6357, 169.0417
347.1178, 167.2981
347.5999, 166.3445
348.0820, 166.6091
348.5641, 167.3438
349.0462, 167.2278
349.5284, 166.3993
350.0105, 165.8977
350.4926, 166.6831
350.9747, 168.1306
351.4568, 168.6921
351.9389, 168.2180
352.4211, 167.6855
352.9032, 168.5005
353.3853, 170.0620
353.8674, 170.9073
354.3495, 170.0232
354.8316, 168.4067
355.3138, 166.9104
355.7959, 165.5800
356.2780, 164.8946
356.7601, 165.7671
357.2422, 167.2887
357.7243, 168.2821
358.2065, 168.2237
358.6886, 167.8631
359.1707, 167.7367
359.6528, 167.7310
360.1349, 167.5041
360.6170, 166.6533
361.0992, 165.6701
361.5813, 164.8234
362.0634, 164.0718
362.5455, 163.7643
363.0276, 164.3690
363.5097, 165.4380
363.9919, 166.3053
364.4740, 166.5468
364.9561, 166.7539
365.4382, 167.3232
365.9203, 168.3456
366.4024, 168.7608
366.8846, 167.7822
367.3667, 166.4273
367.8488, 165.5201
368.3309, 165.1410
368.8130, 165.2323
369.2951, 166.0958
369.7773, 167.5791
370.2594, 168.6075
370.7415, 169.1220
371.2236, 169.2499
371.7057, 169.0172
372.1878, 168.1605
372.6700, 167.4398
373.1521, 166.8279
373.6342, 166.3683
374.1163, 166.1984
374.5984, 166.5241
375.0805, 166.7272
375.5627, 166.4981
376.0448, 165.7581
376.5269, 165.5909
377.0090, 166.1680
377.4911, 167.0108
377.9732, 167.6501
378.4554, 168.0734
378.9375, 168.3455
379.4196, 168.5055
379.9017, 168.5170
380.3838, 168.1085
380.8659, 167.2106
381.3481, 166.4691
381.8302, 166.4689
382.3123, 167.1132
382.7944, 167.7573
383.2765, 168.4224
383.7586, 168.8546
384.2408, 168.4568
384.7229, 167.3692
385.2050, 166.4258
385.6871, 166.1012
386.1692, 166.2049
386.6513, 166.4375
387.1335, 166.7965
387.6156, 167.1194
388.0977, 167.1432
388.5798, 167.0338
389.0619, 167.1215
389.5440, 167.7874
390.0262, 168.4179
390.5083, 168.2692
390.9904, 167.5136
391.4725, 166.9712
391.9546, 167.7400
392.4367, 168.5872
392.9189, 168.2208
393.4010, 165.7286
393.8831, 163.7293
394.3652, 163.7673
394.8473, 165.1067
395.3294, 166.5500
395.8116, 168.2319
396.2937, 169.4672
396.7758, 169.8771
397.2579, 169.3780
397.7400, 168.7088
398.2221, 167.9756
398.7043, 167.1594
399.1864, 166.2471
399.6685, 164.6198
400.1506, 163.6167
400.6327, 163.5172
401.1148, 164.1854
401.5970, 165.0249
402.0791, 166.3633
402.5612, 167.4828
403.0433, 168.0280
403.5254, 167.7681
404.0075, 167.5955
404.4897, 167.6001
404.9718, 167.6204
405.4539, 167.3847
405.9360, 166.8158
406.4181, 166.2179
406.9002, 165.5431
407.3824, 164.8628
407.8645, 164.9951
408.3466, 166.1531
408.8287, 167.3067
409.3108, 167.2388
409.7929, 166.0349
410.2751, 165.7439
410.7572, 166.9365
411.2393, 168.7403
411.7214, 169.5893
412.2035, 169.5379
412.6856, 169.0467
413.1678, 167.9322
413.6499, 166.6346
414.1320, 166.2117
414.6141, 166.7638
415.0962, 167.5823
415.5783, 168.3240
416.0605, 168.8300
416.5426, 168.7860
417.0247, 167.5222
417.5068, 166.1713
417.9889, 165.8270
418.4710, 166.3120
418.9532, 166.8024
419.4353, 166.6026
419.9174, 166.3659
420.3995, 166.7514
420.8816, 168.2962
421.3637, 169.3548
421.8459, 168.8250
422.3280, 167.5023
422.8101, 166.5901
423.2922, 166.6190
423.7743, 166.8867
424.2564, 167.4064
424.7386, 168.2265
425.2207, 168.3565
425.7028, 166.6103
426.1849, 164.8761
426.6670, 164.4364
427.1491, 166.6496
427.6313, 167.9924
428.1134, 167.9483
428.5955, 166.9910
429.0776, 166.4190
429.5597, 166.4508
430.0418, 166.4205
430.5240, 165.9628
431.0061, 165.0096
431.4882, 164.6157
431.9703, 164.9025
432.4524, 165.4881
432.9345, 166.2183
433.4167, 167.1204
433.8988, 166.9318
434.3809, 164.7515
434.8630, 161.8274
435.3451, 161.6488
435.8272, 164.1287
436.3094, 166.7107
436.7915, 167.6234
437.2736, 167.3729
437.7557, 167.0772
438.2378, 166.7979
438.7199, 166.7046
439.2020, 167.1658
439.6841, 167.9325
440.1663, 168.4947
440.6484, 168.7125
441.1305, 168.5859
441.6126, 167.8895
442.0947, 166.7327
442.5768, 165.8029
443.0590, 165.6294
443.5411, 165.7261
444.0232, 165.7491
444.5053, 165.7033
444.9874, 165.4163
445.4695, 164.2408
445.9517, 162.9021
446.4338, 162.5622
446.9159, 165.0207
447.3980, 166.9349
447.8801, 166.9498
448.3622, 164.8803
448.8444, 163.9101
449.3265, 165.2633
449.8086, 166.6434
450.2907, 166.3917
450.7728, 163.1948
451.2549, 161.3909
451.7371, 161.7387
452.2192, 163.2839
452.7013, 163.8399
453.1834, 163.0953
453.6655, 162.5235
454.1476, 162.9657
454.6298, 164.2539
455.1119, 164.2349
455.5940, 162.6776
456.0761, 161.0399
456.5582, 160.9109
457.0403, 162.0320
457.5225, 163.0583
458.0046, 163.7157
458.4867, 164.1234
458.9688, 164.3563
459.4509, 164.4507
459.9330, 164.5520
460.4152, 164.7023
460.8973, 164.9250
461.3794, 165.3456
461.8615, 165.9834
462.3436, 166.4136
462.8257, 166.0706
463.3079, 165.4856
463.7900, 165.2699
464.2721, 166.0068
464.7542, 166.6465
465.2363, 166.9917
465.7184, 166.9440
466.2006, 166.2210
466.6827, 163.1780
467.1648, 160.8242
467.6469, 160.8513
468.1290, 164.3927
468.6111, 166.1382
469.0933, 164.4211
469.5754, 161.9338
470.0575, 161.1594
470.5396, 163.4393
471.0217, 164.6755
471.5038, 164.0211
471.9860, 162.0955
472.4681, 160.9645
472.9502, 160.7091
473.4323, 160.9806
473.9144, 161.9039
474.3965, 163.4374
474.8787, 164.0422
475.3608, 163.5798
475.8429, 162.8333
476.3250, 162.6866
476.8071, 163.0315
477.2892, 163.3332
477.7714, 163.4541
478.2535, 163.4610
478.7356, 163.5028
479.2177, 163.5342
479.6998, 162.2193
480.1819, 163.6687
480.6641, 164.4783
481.1462, 164.6827
481.6283, 162.4690
482.1104, 163.3778
482.5925, 163.0352
483.0746, 162.6414
483.5568, 163.9896
484.0389, 162.1276
484.5210, 163.4483
485.0031, 163.4984
485.4852, 164.1301
485.9673, 163.5027
486.4495, 163.2641
486.9316, 164.2850
487.4137, 164.6086
487.8958, 163.8362
488.3779, 164.5048
488.8600, 162.5988
489.3422, 162.9521
489.8243, 164.2801
490.3064, 163.5710
490.7885, 164.2626
491.2706, 164.4208
491.7527, 162.1546
492.2349, 164.1046
492.7170, 164.2313
493.1991, 162.4857
493.6812, 164.2912
494.1633, 162.8038
494.6454, 162.4917
495.1276, 163.6403
495.6097, 164.1303
496.0918, 164.1055
496.5739, 163.6697
497.0560, 162.9536
497.5381, 161.7481
498.0203, 160.7763
498.5024, 160.8480
498.9845, 161.6380
499.4666, 162.4278
499.9487, 163.7649
500.4308, 164.2771
500.9130, 160.5517
501.3951, 162.3756
501.8772, 163.4176
502.3593, 163.7199
502.8414, 161.0668
503.3235, 162.2300
503.8057, 161.8638
504.2878, 161.4348
504.7699, 163.1352
505.2520, 160.9118
505.7341, 163.5033
506.2162, 163.0900
506.6984, 163.0200
507.1805, 164.0249
507.6626, 165.8721
508.1447, 166.0669
508.6268, 164.1545
509.1089, 162.2762
509.5911, 162.1741
510.0732, 163.6682
510.5553, 164.7840
511.0374, 165.3861
511.5195, 165.5172
512.0016, 164.9704
512.4838, 163.9484
512.9659, 163.1303
513.4480, 162.7107
513.9301, 162.6379
514.4122, 163.2933
514.8943, 164.3956
515.3765, 164.7498
515.8586, 161.0472
516.3407, 162.8969
516.8228, 163.9649
517.3049, 164.2930
517.7870, 161.6657
518.2692, 162.8548
518.7513, 162.5145
519.2334, 162.1114
519.7155, 163.8376
520.1976, 161.6401
520.6797, 163.3326
521.1619, 163.4723
521.6440, 164.3226
522.1261, 164.1808
522.6082, 164.6929
523.0903, 164.5023
523.5724, 163.5865
524.0546, 163.3259
524.5367, 163.8601
525.0188, 164.6276
525.5009, 165.2564
525.9830, 165.7321
526.4651, 165.7221
526.9473, 164.9862
527.4294, 164.2913
527.9115, 165.0505
528.3936, 166.8538
528.8757, 168.3620
529.3578, 168.9387
529.8400, 168.9173
530.3221, 168.1141
530.8042, 166.7611
531.2863, 166.2903
531.7684, 168.5162
532.2505, 171.2818
532.7327, 172.9930
533.2148, 173.2884
533.6969, 172.9333
534.1790, 171.5506
534.6611, 169.8488
535.1432, 168.6440
535.6254, 167.8652
536.1075, 167.8047
536.5896, 169.0540
537.0717, 171.0321
537.5538, 171.5204
538.0359, 169.8832
538.5181, 168.2509
539.0002, 167.5070
539.4823, 167.6406
539.9644, 167.8061
540.4465, 167.9745
540.9286, 168.3208
541.4108, 169.3502
541.8929, 170.7914
542.3750, 171.3067
542.8571, 170.4826
543.3392, 169.2215
543.8214, 168.3424
544.3035, 167.8606
544.7856, 167.7775
545.2677, 168.4274
545.7498, 169.2090
546.2319, 169.9188
546.7141, 170.4657
547.1962, 170.3582
547.6783, 168.1671
548.1604, 166.2095
548.6425, 165.9858
549.1246, 168.4793
549.6068, 170.2084
550.0889, 170.4475
550.5710, 170.0615
551.0531, 169.7923
551.5352, 169.6059
552.0173, 169.6544
552.4995, 170.1429
552.9816, 170.7569
553.4637, 170.5836
553.9458, 169.4975
554.4279, 168.5101
554.9100, 168.1364
555.3922, 168.1965
555.8743, 168.0412
556.3564, 167.6727
556.8385, 167.0303
557.3206, 165.5980
557.8027, 163.9866
558.2849, 163.2586
558.7670, 163.6498
559.2491, 164.5559
559.7312, 165.9915
560.2133, 167.5148
560.6954, 168.5171
561.1776, 168.7735
561.6597, 168.4787
562.1418, 167.4160
562.6239, 165.7875
563.1060, 164.3507
563.5881, 162.9399
564.0703, 162.0050
564.5524, 161.8003
565.0345, 162.3987
565.5166, 162.7644
565.9987, 162.7474
566.4808, 162.7556
566.9630, 163.2044
567.4451, 164.1488
567.9272, 164.7528
568.4093, 164.9269
568.8914, 164.8252
569.3735, 164.6335
569.8557, 164.3535
570.3378, 163.9541
570.8199, 163.2641
571.3020, 162.6298
571.7841, 162.7254
572.2662, 163.3315
572.7484, 163.6391
573.2305, 162.8999
573.7126, 161.9407
574.1947, 161.3873
574.6768, 161.3206
575.1589, 161.0946
575.6411, 159.9633
576.1232, 158.9518
576.6053, 158.8256
577.0874, 160.3800
577.5695, 161.6297
578.0516, 162.7292
578.5338, 163.4091
579.0159, 163.0827
579.4980, 161.3318
579.9801, 160.1307
580.4622, 160.1324
580.9443, 160.8475
581.4265, 160.6860
581.9086, 159.6509
582.3907, 158.6028
582.8728, 157.7431
583.3549, 157.2822
583.8370, 158.0066
584.3192, 159.8923
584.8013, 161.4444
585.2834, 161.3071
585.7655, 160.3560
586.2476, 159.5252
586.7297, 158.9657
587.2118, 158.6394
