##NAMES=Magnesiotaaffeite-6N3S
##RRUFFID=R090019
##IDEAL CHEMISTRY=Mg_2_BeAl_6_O_12_
##LOCALITY=Ratnapura District, Sri Lanka
##OWNER=Bill Pinch
##SOURCE=William W. Pinch
##DESCRIPTION=Greyish purple flattened tabular hexagonal crystal
##STATUS=The identification of this mineral has been confirmed by single-crystal X-ray diffraction.
##URL=rruff.info/R090019
90.92609, 0.0000000E+00
91.40820, 30.80880
91.89032, 30.45694
92.37244, 30.66442
92.85455, 31.33502
93.33667, 31.89373
93.81879, 31.81174
94.30090, 31.27368
94.78302, 30.82957
95.26514, 30.60074
95.74725, 30.53648
96.22937, 30.54125
96.71149, 30.61546
97.19360, 30.75308
97.67572, 30.87908
98.15784, 30.99526
98.63995, 31.42000
99.12207, 32.48158
99.60419, 34.02752
100.0863, 34.62998
100.5684, 33.99634
101.0505, 33.00399
101.5327, 32.79751
102.0148, 33.56348
102.4969, 34.50234
102.9790, 35.41027
103.4611, 36.29796
103.9432, 37.02504
104.4253, 37.45842
104.9075, 37.79989
105.3896, 38.42752
105.8717, 39.36457
106.3538, 40.56517
106.8359, 42.01620
107.3180, 43.56021
107.8002, 45.61940
108.2823, 48.55584
108.7644, 52.07088
109.2465, 55.18521
109.7286, 56.77705
110.2107, 58.73389
110.6929, 61.90343
111.1750, 66.93061
111.6571, 72.43790
112.1392, 78.52405
112.6213, 85.10880
113.1034, 91.74541
113.5856, 97.57479
114.0677, 103.9430
114.5498, 111.7465
115.0319, 124.0096
115.5140, 135.1171
115.9961, 144.2538
116.4783, 151.3338
116.9604, 154.2028
117.4425, 149.0993
117.9246, 140.2784
118.4067, 132.5261
118.8888, 126.6480
119.3710, 122.8797
119.8531, 121.8661
120.3352, 123.8374
120.8173, 126.5249
121.2994, 128.2031
121.7815, 129.6458
122.2637, 132.2111
122.7458, 137.2404
123.2279, 143.3377
123.7100, 149.1743
124.1921, 154.5800
124.6742, 159.8523
125.1564, 165.4471
125.6385, 171.1863
126.1206, 176.5284
126.6027, 180.6296
127.0848, 184.1637
127.5669, 188.4050
128.0491, 193.8041
128.5312, 199.4243
129.0133, 203.9236
129.4954, 207.3428
129.9775, 210.4376
130.4596, 213.6999
130.9418, 217.0464
131.4239, 220.3159
131.9060, 223.5783
132.3881, 226.6623
132.8702, 228.9474
133.3523, 230.3916
133.8345, 231.7470
134.3166, 233.7914
134.7987, 236.5332
135.2808, 238.8721
135.7629, 240.3440
136.2450, 241.2676
136.7272, 243.1380
137.2093, 246.0056
137.6914, 249.6792
138.1735, 254.2434
138.6556, 259.9061
139.1377, 265.2641
139.6199, 270.1855
140.1020, 274.6266
140.5841, 277.7050
141.0662, 278.7431
141.5483, 279.2805
142.0304, 281.4290
142.5126, 285.9880
142.9947, 290.1566
143.4768, 292.0724
143.9589, 290.7540
144.4410, 290.0596
144.9231, 290.0986
145.4053, 290.6521
145.8874, 291.4467
146.3695, 292.7982
146.8516, 293.9632
147.3337, 294.8641
147.8158, 296.0724
148.2980, 295.6340
148.7801, 292.2527
149.2622, 287.4839
149.7443, 284.5407
150.2264, 285.0328
150.7085, 285.8183
151.1907, 285.8343
151.6728, 284.4453
152.1549, 283.3806
152.6370, 282.8950
153.1191, 282.7527
153.6012, 282.3918
154.0834, 281.3864
154.5655, 280.4362
155.0476, 279.8454
155.5297, 280.1528
156.0118, 280.1350
156.4939, 279.5220
156.9761, 278.4313
157.4582, 277.2682
157.9403, 275.4911
158.4224, 274.0657
158.9045, 273.5793
159.3866, 275.1742
159.8688, 276.5306
160.3509, 276.9509
160.8330, 276.5795
161.3151, 276.0663
161.7972, 275.4561
162.2793, 274.8957
162.7615, 274.5013
163.2436, 274.7909
163.7257, 274.7939
164.2078, 273.7879
164.6899, 271.9421
165.1720, 270.4650
165.6541, 270.1922
166.1363, 270.4699
166.6184, 270.6537
167.1005, 270.6223
167.5826, 270.3542
168.0647, 269.6576
168.5468, 268.5753
169.0290, 267.6831
169.5111, 267.4434
169.9932, 267.5790
170.4753, 267.7256
170.9574, 268.0548
171.4395, 268.1409
171.9217, 267.3792
172.4038, 265.7766
172.8859, 264.3466
173.3680, 264.0348
173.8501, 264.4179
174.3322, 264.7412
174.8144, 264.6141
175.2965, 264.2999
175.7786, 264.1170
176.2607, 264.0711
176.7428, 264.0570
177.2249, 264.0903
177.7071, 264.0919
178.1892, 263.8706
178.6713, 263.0177
179.1534, 261.9742
179.6355, 261.5245
180.1176, 261.7244
180.5998, 262.1386
181.0819, 262.3681
181.5640, 262.4378
182.0461, 262.4495
182.5282, 262.5672
183.0103, 262.6498
183.4925, 262.3084
183.9746, 261.4812
184.4567, 260.4810
184.9388, 259.4494
185.4209, 258.4606
185.9030, 258.0253
186.3852, 259.0307
186.8673, 260.8767
187.3494, 261.2877
187.8315, 259.9355
188.3136, 257.9748
188.7957, 256.9570
189.2779, 256.8310
189.7600, 256.7506
190.2421, 256.1857
190.7242, 255.2593
191.2063, 254.6496
191.6884, 254.3941
192.1706, 254.4408
192.6527, 254.9207
193.1348, 255.8414
193.6169, 256.4294
194.0990, 256.0102
194.5811, 254.6808
195.0633, 254.0217
195.5454, 254.2401
196.0275, 254.8655
196.5096, 255.0474
196.9917, 254.7604
197.4738, 254.3474
197.9560, 253.9754
198.4381, 253.6491
198.9202, 253.2263
199.4023, 252.6247
199.8844, 252.0489
200.3665, 252.0602
200.8487, 252.7961
201.3308, 253.3270
201.8129, 253.0359
202.2950, 251.8400
202.7771, 250.9781
203.2592, 250.5719
203.7414, 250.4255
204.2235, 250.0806
204.7056, 249.4694
205.1877, 248.9209
205.6698, 248.6675
206.1519, 248.7852
206.6341, 248.5941
207.1162, 247.8550
207.5983, 246.9825
208.0804, 247.1008
208.5625, 248.5782
209.0446, 249.9047
209.5268, 250.2795
210.0089, 249.5012
210.4910, 248.7323
210.9731, 248.0193
211.4552, 247.3195
211.9373, 246.4945
212.4195, 245.4460
212.9016, 244.5367
213.3837, 243.8786
213.8658, 243.3825
214.3479, 243.5394
214.8300, 244.6153
215.3121, 246.2012
215.7943, 247.2892
216.2764, 247.7256
216.7585, 247.9613
217.2406, 248.2855
217.7227, 248.9455
218.2048, 248.7402
218.6870, 247.0371
219.1691, 244.7725
219.6512, 244.3127
220.1333, 246.6719
220.6154, 248.9627
221.0975, 249.8352
221.5797, 248.5519
222.0618, 247.9934
222.5439, 248.3483
223.0260, 249.3437
223.5081, 250.4646
223.9902, 251.9524
224.4724, 253.1447
224.9545, 253.6353
225.4366, 252.9996
225.9187, 252.9369
226.4008, 253.5831
226.8829, 254.7432
227.3651, 256.0880
227.8472, 257.9826
228.3293, 259.4691
228.8114, 259.9392
229.2935, 258.6147
229.7757, 258.7448
230.2578, 261.0459
230.7399, 264.4414
231.2220, 266.7899
231.7041, 267.3922
232.1862, 268.0276
232.6684, 269.3594
233.1505, 271.6286
233.6326, 273.7480
234.1147, 275.3312
234.5968, 276.9731
235.0789, 279.7611
235.5611, 284.1141
236.0432, 288.9055
236.5253, 293.7084
237.0074, 298.0956
237.4895, 303.8209
237.9716, 311.1177
238.4538, 319.6097
238.9359, 328.9429
239.4180, 340.7061
239.9001, 350.9673
240.3822, 359.3331
240.8643, 366.7529
241.3465, 367.3737
241.8286, 359.3817
242.3107, 345.8806
242.7928, 330.6980
243.2749, 311.7049
243.7570, 294.6743
244.2392, 281.1213
244.7213, 271.1967
245.2034, 263.7767
245.6855, 259.5233
246.1676, 257.1494
246.6497, 255.0838
247.1319, 253.1840
247.6140, 251.8784
248.0961, 251.4650
248.5782, 252.0921
249.0603, 252.2790
249.5424, 252.1654
250.0246, 251.4904
250.5067, 249.7499
250.9888, 245.9479
251.4709, 243.0515
251.9530, 241.8449
252.4351, 242.4044
252.9173, 243.1021
253.3994, 244.1999
253.8815, 245.1409
254.3636, 245.2690
254.8457, 244.0350
255.3278, 243.1835
255.8100, 243.0952
256.2921, 243.7514
256.7742, 244.4240
257.2563, 245.1230
257.7384, 245.8225
258.2205, 246.4728
258.7026, 247.0175
259.1848, 247.6739
259.6669, 248.4713
260.1490, 249.4145
260.6311, 250.4377
261.1132, 251.4509
261.5953, 252.6953
262.0775, 254.4080
262.5596, 256.8334
263.0417, 259.0229
263.5238, 260.7186
264.0059, 262.0915
264.4880, 264.1888
264.9702, 267.3944
265.4523, 270.5409
265.9344, 273.0547
266.4165, 275.1614
266.8986, 275.8779
267.3807, 275.0901
267.8629, 272.8759
268.3450, 269.3266
268.8271, 264.0189
269.3092, 258.3280
269.7913, 252.6254
270.2734, 246.6903
270.7556, 242.0841
271.2377, 239.0509
271.7198, 237.2047
272.2019, 235.7280
272.6840, 234.7192
273.1661, 233.7588
273.6483, 232.6451
274.1304, 231.3625
274.6125, 229.9771
275.0946, 228.2591
275.5767, 226.7535
276.0588, 226.7244
276.5410, 228.5051
277.0231, 229.9909
277.5052, 230.0488
277.9873, 228.6424
278.4694, 227.9828
278.9515, 228.3009
279.4337, 228.8587
279.9158, 228.4724
280.3979, 227.0312
280.8800, 225.7936
281.3621, 225.1845
281.8442, 225.1781
282.3264, 225.8139
282.8085, 227.3290
283.2906, 228.6876
283.7727, 228.3540
284.2548, 226.3104
284.7369, 224.7384
285.2191, 224.3485
285.7012, 224.9140
286.1833, 225.6285
286.6654, 226.5382
287.1475, 227.2966
287.6296, 227.3853
288.1118, 226.8881
288.5939, 226.7107
289.0760, 227.2256
289.5581, 228.0638
290.0402, 228.1768
290.5223, 227.5376
291.0045, 226.9546
291.4866, 227.1639
291.9687, 228.0060
292.4508, 228.7397
292.9329, 229.2550
293.4150, 229.5758
293.8972, 229.5549
294.3793, 229.2476
294.8614, 229.2808
295.3435, 230.3416
295.8256, 232.0797
296.3077, 233.4268
296.7899, 234.1129
297.2720, 234.7710
297.7541, 236.2880
298.2362, 238.5313
298.7183, 240.9475
299.2004, 243.3480
299.6826, 245.6772
300.1647, 247.8316
300.6468, 249.7556
301.1289, 251.7006
301.6110, 254.2135
302.0931, 256.9890
302.5753, 259.3018
303.0574, 260.7069
303.5395, 261.4837
304.0216, 262.0027
304.5037, 262.2824
304.9858, 262.0862
305.4680, 260.4560
305.9501, 258.3155
306.4322, 257.2532
306.9143, 258.3500
307.3964, 260.3996
307.8785, 262.3455
308.3607, 264.2249
308.8428, 266.4363
309.3249, 269.0425
309.8070, 272.1993
310.2891, 276.1263
310.7712, 281.3563
311.2534, 286.8285
311.7355, 292.0809
312.2176, 297.0711
312.6997, 301.4735
313.1818, 304.8810
313.6639, 307.7049
314.1461, 310.6219
314.6282, 314.7702
315.1103, 316.7465
315.5924, 314.5856
316.0745, 309.0501
316.5566, 301.6517
317.0388, 291.1396
317.5209, 280.3651
318.0030, 270.7177
318.4851, 262.3643
318.9672, 255.1840
319.4493, 249.1443
319.9315, 244.2717
320.4136, 240.5297
320.8957, 238.6798
321.3778, 237.3228
321.8599, 235.9056
322.3420, 234.3555
322.8242, 233.2437
323.3063, 233.0357
323.7884, 233.1505
324.2705, 233.0813
324.7526, 232.3177
325.2347, 231.8195
325.7169, 232.0803
326.1990, 232.9989
326.6811, 233.2741
327.1632, 232.2718
327.6453, 230.9729
328.1274, 229.9209
328.6096, 229.4182
329.0917, 228.7962
329.5738, 227.9864
330.0559, 227.0474
330.5380, 226.1479
331.0201, 225.2533
331.5023, 224.4342
331.9844, 223.6435
332.4665, 222.5791
332.9486, 222.3611
333.4307, 223.5222
333.9128, 225.2531
334.3950, 226.1179
334.8771, 225.7086
335.3592, 225.2184
335.8413, 225.0974
336.3234, 225.4357
336.8055, 225.2066
337.2877, 224.3216
337.7698, 222.9946
338.2519, 221.3844
338.7340, 219.4414
339.2161, 217.4378
339.6982, 215.3535
340.1803, 213.2473
340.6624, 211.6581
341.1446, 210.6609
341.6267, 209.8791
342.1088, 208.9621
342.5909, 207.9054
343.0730, 207.1268
343.5551, 206.8055
344.0373, 206.6558
344.5194, 205.8841
345.0015, 204.4451
345.4836, 203.1966
345.9657, 202.7685
346.4478, 203.0154
346.9300, 203.1487
347.4121, 203.1083
347.8942, 203.0081
348.3763, 203.0739
348.8584, 203.2566
349.3405, 203.2614
349.8227, 202.6971
350.3048, 201.9214
350.7869, 201.7507
351.2690, 202.1960
351.7511, 202.8262
352.2332, 203.2854
352.7154, 203.6310
353.1975, 203.9873
353.6796, 204.4167
354.1617, 204.8465
354.6438, 205.2370
355.1259, 205.5700
355.6081, 205.7609
356.0902, 205.6383
356.5723, 205.3853
357.0544, 205.1258
357.5365, 204.6962
358.0186, 204.7129
358.5008, 205.9366
358.9829, 207.9231
359.4650, 209.7203
359.9471, 210.9527
360.4292, 211.8140
360.9113, 212.3356
361.3935, 212.4680
361.8756, 212.6476
362.3577, 213.1047
362.8398, 213.6904
363.3219, 214.2355
363.8040, 214.5156
364.2862, 214.9292
364.7683, 215.5419
365.2504, 216.3714
365.7325, 217.5554
366.2146, 219.7832
366.6967, 221.9578
367.1789, 223.3980
367.6610, 223.5572
368.1431, 223.5445
368.6252, 223.5005
369.1073, 223.3460
369.5894, 222.8210
370.0716, 220.9314
370.5537, 219.6911
371.0358, 219.9553
371.5179, 222.3858
372.0000, 224.2883
372.4821, 225.3348
372.9643, 226.0584
373.4464, 227.1194
373.9285, 228.4301
374.4106, 230.2807
374.8927, 233.0116
375.3748, 236.5713
375.8570, 239.2603
376.3391, 241.0386
376.8212, 242.0712
377.3033, 242.7902
377.7854, 243.4017
378.2675, 241.8442
378.7497, 237.1601
379.2318, 230.7782
379.7139, 226.1964
380.1960, 223.5539
380.6781, 221.5299
381.1602, 219.5863
381.6424, 217.6959
382.1245, 215.5801
382.6066, 213.1241
383.0887, 210.8086
383.5708, 209.1204
384.0529, 208.0578
384.5351, 207.5391
385.0172, 207.6191
385.4993, 208.1903
385.9814, 209.0647
386.4635, 210.2387
386.9456, 211.8148
387.4278, 214.1839
387.9099, 216.9199
388.3920, 219.3088
388.8741, 220.9087
389.3562, 222.5378
389.8383, 225.0722
390.3205, 228.2672
390.8026, 231.3673
391.2847, 233.6003
391.7668, 235.8157
392.2489, 238.6739
392.7310, 242.2720
393.2132, 246.3686
393.6953, 250.6977
394.1774, 255.4488
394.6595, 260.8998
395.1416, 266.2411
395.6237, 273.1087
396.1059, 282.0875
396.5880, 293.1619
397.0701, 305.8760
397.5522, 320.8326
398.0343, 336.8033
398.5164, 353.0497
398.9986, 370.2859
399.4807, 386.7739
399.9628, 401.5893
400.4449, 415.7005
400.9270, 431.4256
401.4091, 449.0266
401.8913, 467.6866
402.3734, 487.4245
402.8555, 508.5882
403.3376, 529.5997
403.8197, 553.4626
404.3018, 573.6663
404.7840, 582.2758
405.2661, 576.5508
405.7482, 568.0496
406.2303, 556.5733
406.7124, 544.4425
407.1945, 541.1443
407.6767, 547.1399
408.1588, 559.6561
408.6409, 577.7429
409.1230, 601.1878
409.6051, 627.6867
410.0872, 657.2444
410.5694, 689.7830
411.0515, 726.4247
411.5336, 766.4910
412.0157, 804.9164
412.4978, 847.3310
412.9799, 884.3290
413.4621, 899.5421
413.9442, 893.1214
414.4263, 863.9163
414.9084, 799.7370
415.3905, 714.7615
415.8727, 629.2989
416.3548, 543.8276
416.8369, 467.1117
417.3190, 406.5683
417.8011, 360.6142
418.2832, 324.1339
418.7654, 298.9004
419.2475, 279.7505
419.7296, 264.0447
420.2117, 251.5071
420.6938, 241.1155
421.1759, 232.9942
421.6581, 226.5975
422.1402, 221.2584
422.6223, 216.8866
423.1044, 213.5614
423.5865, 211.9166
424.0686, 211.6871
424.5508, 210.8029
425.0329, 208.4322
425.5150, 205.8982
425.9971, 203.7032
426.4792, 201.4498
426.9613, 200.4098
427.4435, 201.1042
427.9256, 202.7361
428.4077, 203.9343
428.8898, 204.1478
429.3719, 205.2287
429.8540, 207.9017
430.3362, 212.0259
430.8183, 215.6856
431.3004, 218.6496
431.7825, 221.7563
432.2646, 226.0767
432.7467, 231.6005
433.2289, 235.9468
433.7110, 238.4339
434.1931, 240.0892
434.6752, 242.7117
435.1573, 246.2383
435.6394, 249.9934
436.1216, 253.5772
436.6036, 257.1630
437.0858, 260.8741
437.5679, 264.7090
438.0500, 269.2955
438.5321, 274.9854
439.0142, 281.8374
439.4963, 289.9809
439.9785, 299.6278
440.4606, 310.3796
440.9427, 321.5573
441.4248, 333.4628
441.9069, 346.8742
442.3890, 363.2099
442.8712, 380.4397
443.3533, 397.0596
443.8354, 412.5836
444.3175, 429.2211
444.7996, 449.7910
445.2817, 470.7886
445.7639, 488.7200
446.2460, 508.3446
446.7281, 519.0045
447.2102, 518.8769
447.6923, 507.9933
448.1744, 486.9108
448.6566, 447.4034
449.1387, 406.0997
449.6208, 369.6575
450.1029, 337.2587
450.5850, 311.6230
451.0671, 294.0065
451.5493, 282.1591
452.0314, 273.4667
452.5135, 268.3232
452.9956, 265.0332
453.4777, 263.5784
453.9598, 263.6019
454.4420, 263.7545
454.9241, 264.0915
455.4062, 264.0543
455.8883, 263.5957
456.3704, 262.5159
456.8525, 259.8169
457.3347, 255.3969
457.8168, 249.5349
458.2989, 242.0316
458.7810, 233.3030
459.2631, 224.8223
459.7452, 216.7896
460.2274, 209.4624
460.7095, 203.2051
461.1916, 197.9134
461.6737, 193.4927
462.1558, 189.7976
462.6379, 186.9255
463.1201, 185.0235
463.6022, 184.3215
464.0843, 184.0481
464.5664, 184.2475
465.0485, 184.6018
465.5306, 184.6043
466.0128, 183.2582
466.4949, 182.4129
466.9770, 182.7780
467.4591, 184.4070
467.9412, 185.9996
468.4233, 187.2792
468.9055, 188.7409
469.3876, 190.7399
469.8697, 193.6876
470.3518, 196.2319
470.8339, 198.1363
471.3160, 199.8036
471.7982, 202.0668
472.2803, 205.0906
472.7624, 208.0454
473.2445, 210.4719
473.7266, 212.5573
474.2087, 215.2543
474.6909, 218.5217
475.1730, 222.6133
475.6551, 227.8508
476.1372, 234.0939
476.6193, 240.6050
477.1014, 246.9688
477.5836, 254.3162
478.0657, 264.1174
478.5478, 276.0842
479.0299, 289.1602
479.5120, 304.0023
479.9941, 319.1459
480.4763, 333.0485
480.9584, 345.8185
481.4405, 358.1405
481.9226, 370.3180
482.4047, 382.2490
482.8868, 394.1678
483.3690, 407.1522
483.8511, 417.6907
484.3332, 424.4799
484.8153, 428.2262
485.2974, 430.2283
485.7795, 427.7873
486.2617, 426.6240
486.7438, 427.4922
487.2259, 430.4324
487.7080, 436.3365
488.1901, 444.9502
488.6722, 456.9032
489.1544, 473.0638
489.6365, 494.0264
490.1186, 516.2629
490.6007, 539.6648
491.0828, 564.3707
491.5649, 591.1950
492.0471, 619.9399
492.5292, 650.7059
493.0113, 686.0479
493.4934, 721.7313
493.9755, 752.1379
494.4576, 776.3751
494.9398, 780.3290
495.4219, 748.2996
495.9040, 689.6110
496.3861, 618.0884
496.8682, 531.4932
497.3503, 449.2613
497.8325, 384.1420
498.3146, 334.0544
498.7967, 294.4521
499.2788, 268.2715
499.7609, 248.4015
500.2430, 232.5710
500.7252, 220.4961
501.2073, 210.7144
501.6894, 203.9816
502.1715, 198.6387
502.6536, 193.9346
503.1357, 189.9563
503.6179, 186.3149
504.1000, 182.6446
504.5821, 179.5258
505.0642, 177.6683
505.5463, 177.8423
506.0284, 177.5437
506.5106, 176.2289
506.9927, 174.2597
507.4748, 172.8070
507.9569, 171.9081
508.4390, 171.3326
508.9211, 171.0982
509.4033, 171.1458
509.8854, 170.9898
510.3675, 170.6205
510.8496, 170.1232
511.3317, 169.3111
511.8138, 168.4280
512.2960, 168.2082
512.7781, 169.0045
513.2602, 170.1032
513.7423, 170.8445
514.2244, 171.3078
514.7065, 171.6847
515.1887, 171.8428
515.6708, 172.1259
516.1529, 172.8411
516.6350, 173.9845
517.1171, 175.0750
517.5992, 175.9532
518.0814, 176.7062
518.5635, 177.3472
519.0456, 177.4055
519.5277, 178.1516
520.0098, 179.9449
520.4919, 182.3098
520.9741, 184.5524
521.4562, 186.5333
521.9383, 188.6177
522.4204, 190.8618
522.9025, 193.2698
523.3846, 195.8562
523.8668, 198.5793
524.3489, 201.5842
524.8310, 205.1752
525.3131, 209.2640
525.7952, 213.0519
526.2773, 216.5797
526.7595, 219.4993
527.2416, 221.6677
527.7237, 222.8985
528.2058, 222.7091
528.6879, 220.8608
529.1700, 217.6820
529.6522, 213.1590
530.1343, 207.5403
530.6164, 201.3946
531.0985, 193.8056
531.5806, 186.7790
532.0627, 181.8116
532.5449, 179.1116
533.0270, 176.7770
533.5091, 174.2188
533.9912, 171.9084
534.4733, 170.2205
534.9554, 169.6130
535.4376, 168.9855
535.9197, 168.2502
536.4018, 167.5376
536.8839, 167.0659
537.3660, 166.7791
537.8481, 166.8950
538.3303, 167.6121
538.8124, 168.7779
539.2945, 169.6332
539.7766, 170.1778
540.2587, 170.4161
540.7408, 170.4207
541.2230, 170.1327
541.7051, 169.2874
542.1872, 167.8448
542.6693, 166.0516
543.1514, 163.7905
543.6335, 161.4035
544.1157, 159.4822
544.5978, 158.4368
545.0799, 157.5941
545.5620, 156.4729
546.0441, 155.2032
546.5262, 154.1065
547.0084, 153.1751
547.4905, 152.5602
547.9726, 152.4256
548.4547, 152.8221
548.9368, 153.0758
549.4189, 152.8436
549.9011, 152.6809
550.3832, 152.9616
550.8653, 154.0944
551.3474, 154.6554
551.8295, 154.3743
552.3116, 153.8056
552.7938, 153.7340
553.2759, 154.1811
553.7580, 154.9469
554.2401, 156.1155
554.7222, 157.4542
555.2043, 158.3407
555.6865, 158.8009
556.1686, 159.1977
556.6507, 159.6772
557.1328, 160.2628
557.6149, 161.0005
558.0970, 161.8943
558.5792, 162.9214
559.0613, 164.0303
559.5434, 165.2727
560.0255, 166.6861
560.5076, 168.1752
560.9897, 170.0013
561.4719, 172.3738
561.9540, 175.1224
562.4361, 177.9246
562.9182, 180.4277
563.4003, 183.3778
563.8824, 187.0977
564.3646, 191.4369
564.8467, 195.5449
565.3288, 199.3086
565.8109, 203.0835
566.2930, 207.0347
566.7751, 211.1374
567.2573, 215.5578
567.7394, 220.2962
568.2215, 225.5035
568.7036, 231.6554
569.1857, 238.4819
569.6678, 245.1696
570.1500, 251.3724
570.6321, 257.6586
571.1142, 264.4357
571.5963, 271.7245
572.0784, 279.5396
572.5605, 288.6507
573.0427, 297.6967
573.5248, 305.5707
574.0069, 312.4801
574.4890, 320.3508
574.9711, 331.3924
575.4532, 342.0640
575.9354, 350.5257
576.4175, 356.3937
576.8996, 361.1674
577.3817, 365.6539
577.8638, 368.2105
578.3459, 367.4410
578.8281, 363.2932
579.3102, 355.7831
579.7923, 344.3739
580.2744, 330.4305
580.7565, 316.4038
581.2386, 302.2990
581.7208, 288.2394
582.2029, 273.4823
582.6850, 259.2072
583.1671, 247.3451
583.6492, 237.6778
584.1313, 228.9434
584.6134, 220.3271
585.0955, 212.1767
585.5776, 204.7254
586.0598, 197.9585
586.5419, 192.0814
587.0240, 187.3617
587.5061, 183.3954
587.9882, 179.8476
588.4703, 176.5474
