##NAMES=Magnesiocopiapite
##RRUFFID=R060155
##IDEAL CHEMISTRY=MgFe^3+^_4_(S^6+^O_4_)_6_(OH)_2_&#183;20H_2_O
##LOCALITY=Denver mine, Santa Cruz County, Arizona, USA
##OWNER=RRUFF
##SOURCE=University of Arizona Mineral Museum
##DESCRIPTION=Yellow fine-grained efflorescence
##STATUS=The identification of this mineral has been confirmed by X-ray diffraction and chemical analysis
##URL=rruff.info/R060155
##MEASURED CHEMISTRY=(Mg_0.95_Mn_0.05_)_Σ=1_(Fe^3+^_3.56_Al_0.44_)_Σ=4_(S_1.00_O_4_)_6_(OH)_2_·17H_2_O ; H not measured but estimated by difference
89.78156, 0.0000000E+00
90.26367, 8.055326
90.74579, 8.065995
91.22791, 8.071939
91.71002, 8.071794
92.19214, 8.052233
92.67426, 8.022758
93.15638, 7.968041
93.63850, 7.842241
94.12061, 7.539566
94.60273, 7.178058
95.08485, 7.056047
95.56696, 7.193550
96.04908, 7.442400
96.53120, 7.694792
97.01331, 7.940689
97.49543, 8.063607
97.97755, 7.941958
98.45966, 7.594802
98.94178, 7.369588
99.42390, 7.292391
99.90602, 7.303322
100.3881, 7.293601
100.8703, 7.260730
101.3524, 7.215172
101.8345, 7.159354
102.3166, 7.091533
102.7987, 7.017774
103.2808, 6.919306
103.7630, 6.815754
104.2451, 6.808932
104.7272, 6.962432
105.2093, 7.128559
105.6914, 7.207863
106.1735, 7.140033
106.6557, 7.088301
107.1378, 7.086486
107.6199, 7.137353
108.1020, 7.139853
108.5841, 7.032700
109.0662, 6.909350
109.5484, 6.852235
110.0305, 6.822794
110.5126, 6.896769
110.9947, 7.115613
111.4768, 7.518109
111.9590, 7.894174
112.4411, 8.321308
112.9232, 8.691304
113.4053, 8.852647
113.8874, 8.424117
114.3695, 8.072440
114.8517, 8.065850
115.3338, 8.521946
115.8159, 9.102679
116.2980, 9.784053
116.7801, 10.52958
117.2622, 11.25337
117.7444, 11.85947
118.2265, 12.47770
118.7086, 13.19772
119.1907, 14.09512
119.6728, 15.02491
120.1549, 15.82003
120.6371, 16.54682
121.1192, 17.47842
121.6013, 18.83368
122.0834, 20.44836
122.5655, 22.13719
123.0476, 23.84924
123.5298, 25.60879
124.0119, 27.45317
124.4940, 29.37843
124.9761, 31.33681
125.4582, 33.23448
125.9404, 35.12518
126.4225, 37.09969
126.9046, 39.37334
127.3867, 41.69748
127.8688, 43.63539
128.3509, 45.16430
128.8331, 46.52881
129.3152, 47.86106
129.7973, 49.21051
130.2794, 50.78512
130.7615, 52.68062
131.2436, 54.87798
131.7258, 57.34174
132.2079, 60.11861
132.6900, 63.02113
133.1721, 65.72667
133.6542, 68.21992
134.1364, 70.79893
134.6185, 73.69237
135.1006, 76.90018
135.5827, 80.04097
136.0648, 83.08363
136.5469, 86.08050
137.0291, 89.26708
137.5112, 92.72923
137.9933, 95.93664
138.4754, 98.51464
138.9575, 100.3454
139.4396, 102.1286
139.9218, 103.8888
140.4039, 105.6514
140.8860, 107.5571
141.3681, 109.7074
141.8502, 111.7983
142.3323, 113.4696
142.8145, 114.4822
143.2966, 115.7557
143.7787, 117.4746
144.2608, 119.6461
144.7429, 121.7395
145.2250, 123.6475
145.7072, 125.5993
146.1893, 127.8524
146.6714, 130.7324
147.1535, 133.4207
147.6356, 135.6967
148.1178, 137.4835
148.5999, 139.3228
149.0820, 141.0317
149.5641, 142.8648
150.0462, 145.1103
150.5283, 148.2664
151.0105, 151.3095
151.4926, 152.6116
151.9747, 153.2404
152.4568, 153.8549
152.9389, 154.4038
153.4210, 154.9624
153.9032, 155.6482
154.3853, 156.8235
154.8674, 157.8101
155.3495, 158.3408
155.8316, 158.1746
156.3137, 158.1087
156.7959, 158.3721
157.2780, 158.8061
157.7601, 159.1129
158.2422, 159.2374
158.7243, 159.2146
159.2065, 159.0362
159.6886, 158.5557
160.1707, 158.1717
160.6528, 158.1105
161.1349, 158.2428
161.6170, 158.2290
162.0992, 157.5801
162.5813, 156.9632
163.0634, 156.8647
163.5455, 155.9139
164.0276, 154.8213
164.5097, 153.5944
164.9919, 151.8309
165.4740, 150.7602
165.9561, 148.7693
166.4382, 147.8266
166.9203, 146.9791
167.4024, 146.0921
167.8846, 145.1686
168.3667, 144.1009
168.8488, 142.9329
169.3309, 141.9542
169.8130, 141.5529
170.2952, 141.3769
170.7773, 140.9890
171.2594, 139.9124
171.7415, 138.8117
172.2236, 138.2783
172.7057, 138.2828
173.1879, 138.4333
173.6700, 138.5005
174.1521, 138.5085
174.6342, 138.5007
175.1163, 138.4959
175.5984, 138.4790
176.0806, 138.4510
176.5627, 138.4122
177.0448, 138.3087
177.5269, 138.0061
178.0090, 137.5964
178.4911, 137.2903
178.9733, 137.1668
179.4554, 137.2076
179.9375, 137.4397
180.4196, 137.8782
180.9017, 138.3367
181.3838, 138.5741
181.8660, 138.6534
182.3481, 138.8040
182.8302, 139.2202
183.3123, 139.7765
183.7944, 140.1508
184.2766, 140.3136
184.7587, 140.4401
185.2408, 140.7217
185.7229, 141.1497
186.2050, 141.6881
186.6871, 142.2838
187.1693, 142.9723
187.6514, 143.8948
188.1335, 145.1197
188.6156, 146.4045
189.0977, 147.3551
189.5798, 147.9862
190.0620, 148.6889
190.5441, 149.7667
191.0262, 151.1445
191.5083, 152.2751
191.9904, 153.0784
192.4725, 153.7836
192.9547, 154.9954
193.4368, 156.7551
193.9189, 158.0594
194.4010, 158.1164
194.8831, 157.0194
195.3652, 156.2838
195.8474, 156.1473
196.3295, 156.1950
196.8116, 155.5218
197.2937, 154.0654
197.7758, 152.5209
198.2579, 151.2793
198.7401, 150.3439
199.2222, 149.5304
199.7043, 148.9012
200.1864, 148.3149
200.6685, 147.3586
201.1507, 145.9445
201.6328, 144.5893
202.1149, 143.6035
202.5970, 143.0086
203.0791, 142.5589
203.5612, 142.2669
204.0434, 142.0882
204.5255, 141.8843
205.0076, 141.6175
205.4897, 141.4565
205.9718, 141.5128
206.4539, 141.8065
206.9361, 142.2068
207.4182, 142.7169
207.9003, 143.3198
208.3824, 144.0061
208.8645, 144.8294
209.3466, 145.6039
209.8288, 146.2146
210.3109, 146.6335
210.7930, 146.9873
211.2751, 147.1944
211.7572, 147.3659
212.2393, 148.0047
212.7215, 149.3161
213.2036, 150.6272
213.6857, 151.4780
214.1678, 151.7280
214.6499, 151.9653
215.1320, 152.1269
215.6142, 152.3229
216.0963, 153.1238
216.5784, 154.8428
217.0605, 156.5625
217.5426, 157.6538
218.0247, 157.8808
218.5069, 158.1312
218.9890, 158.4181
219.4711, 158.7866
219.9532, 159.4778
220.4353, 160.6185
220.9175, 161.8841
221.3996, 163.0994
221.8817, 164.2491
222.3638, 165.3551
222.8459, 166.3617
223.3280, 167.3250
223.8102, 168.4874
224.2923, 170.0640
224.7744, 171.5400
225.2565, 172.5106
225.7386, 172.6342
226.2207, 173.0685
226.7029, 173.9295
227.1850, 175.1817
227.6671, 176.6588
228.1492, 178.6019
228.6313, 180.4276
229.1134, 181.7491
229.5956, 182.3615
230.0777, 182.9416
230.5598, 183.4597
231.0419, 183.9773
231.5240, 184.8288
232.0062, 186.1845
232.4883, 187.6464
232.9704, 188.9804
233.4525, 190.1315
233.9346, 191.2797
234.4167, 192.4646
234.8989, 193.6560
235.3810, 194.7123
235.8631, 195.6553
236.3452, 196.4476
236.8273, 197.0666
237.3094, 197.4529
237.7916, 197.7819
238.2737, 198.0477
238.7558, 198.2603
239.2379, 198.4716
239.7200, 198.6806
240.2021, 198.8859
240.6843, 199.1481
241.1664, 199.7469
241.6485, 199.7719
242.1306, 199.0199
242.6127, 197.6682
243.0948, 196.3927
243.5770, 195.1760
244.0591, 194.0635
244.5412, 193.0810
245.0233, 192.1878
245.5054, 191.5180
245.9876, 191.1441
246.4697, 190.9921
246.9518, 190.8062
247.4339, 190.5207
247.9160, 190.2993
248.3981, 190.2108
248.8803, 190.2318
249.3624, 190.4460
249.8445, 190.9386
250.3266, 191.5993
250.8087, 192.0914
251.2908, 192.1927
251.7730, 192.4689
252.2551, 193.1871
252.7372, 194.4942
253.2193, 195.8638
253.7014, 197.2284
254.1835, 198.6711
254.6657, 200.4018
255.1478, 202.5770
255.6299, 204.7719
256.1120, 206.8381
256.5941, 208.7302
257.0763, 210.5746
257.5584, 212.2875
258.0405, 214.0292
258.5226, 216.1068
259.0047, 218.6425
259.4868, 221.3009
259.9690, 223.9511
260.4511, 226.5883
260.9332, 229.2222
261.4153, 231.8265
261.8974, 234.4831
262.3795, 237.2871
262.8617, 240.2776
263.3438, 243.3822
263.8259, 246.6866
264.3080, 250.2460
264.7901, 253.4442
265.2722, 256.1302
265.7544, 258.6293
266.2365, 261.4905
266.7186, 264.9992
267.2007, 267.9720
267.6828, 269.9630
268.1649, 270.9536
268.6471, 271.7128
269.1292, 272.3699
269.6113, 272.6218
270.0934, 272.0625
270.5755, 270.5861
271.0576, 268.6917
271.5398, 266.5697
272.0219, 264.1908
272.5040, 261.1321
272.9861, 257.3863
273.4682, 253.0728
273.9503, 248.1311
274.4325, 242.4614
274.9146, 236.8478
275.3967, 231.4920
275.8788, 226.3279
276.3610, 221.1607
276.8431, 215.9810
277.3252, 210.9790
277.8073, 206.4473
278.2894, 202.4375
278.7715, 198.2907
279.2537, 193.6656
279.7358, 188.8251
280.2179, 184.8640
280.7000, 181.8846
281.1821, 179.2797
281.6642, 176.4784
282.1464, 173.4776
282.6285, 170.8460
283.1106, 168.7168
283.5927, 166.9774
284.0748, 165.2992
284.5569, 163.6545
285.0391, 162.2589
285.5212, 161.0942
286.0033, 159.9883
286.4854, 160.2026
286.9675, 160.2751
287.4496, 160.2133
287.9318, 159.6151
288.4139, 159.7095
288.8960, 159.5264
289.3781, 159.3319
289.8602, 159.5238
290.3423, 159.0037
290.8245, 159.1894
291.3066, 159.0934
291.7887, 159.1264
292.2708, 158.8801
292.7529, 159.4661
293.2350, 160.1708
293.7172, 160.8523
294.1993, 161.3146
294.6814, 161.5015
295.1635, 161.7122
295.6456, 162.3679
296.1277, 163.3889
296.6099, 164.4368
297.0920, 165.3834
297.5741, 166.2288
298.0562, 166.9227
298.5383, 167.4485
299.0204, 167.9442
299.5026, 168.7172
299.9847, 169.5837
300.4668, 170.0725
300.9489, 169.8104
301.4311, 169.1555
301.9132, 168.5489
302.3953, 167.9869
302.8774, 167.4912
303.3595, 167.2899
303.8416, 167.1370
304.3238, 166.5846
304.8059, 165.4238
305.2880, 163.8836
305.7701, 162.1127
306.2522, 160.1264
306.7343, 158.1260
307.2165, 156.2847
307.6986, 154.4679
308.1807, 152.4828
308.6628, 150.1414
309.1449, 147.8012
309.6270, 145.7948
310.1092, 144.0005
310.5913, 142.0927
311.0734, 139.8290
311.5555, 137.3974
312.0376, 134.9442
312.5197, 132.4119
313.0019, 130.0757
313.4840, 128.1040
313.9661, 126.4071
314.4482, 124.7818
314.9303, 123.1275
315.4124, 121.5278
315.8946, 120.0898
316.3767, 118.8636
316.8588, 117.5835
317.3409, 116.0311
317.8230, 114.3798
318.3051, 112.8642
318.7873, 111.6446
319.2694, 110.4787
319.7515, 109.2075
320.2336, 107.8020
320.7157, 106.6049
321.1978, 105.9727
321.6800, 105.4827
322.1621, 104.7559
322.6442, 103.2664
323.1263, 101.9957
323.6084, 101.3821
324.0905, 101.3639
324.5727, 100.9457
325.0548, 99.43752
325.5369, 97.84315
326.0190, 96.77280
326.5012, 96.91358
326.9833, 96.57394
327.4654, 96.49298
327.9475, 96.27013
328.4296, 95.91308
328.9117, 95.01971
329.3939, 94.81879
329.8760, 94.34041
330.3581, 93.85066
330.8402, 93.74727
331.3223, 92.93193
331.8044, 92.82241
332.2866, 92.43108
332.7687, 92.16875
333.2508, 91.62720
333.7329, 91.17188
334.2150, 90.99593
334.6971, 90.66527
335.1793, 90.09151
335.6614, 89.83737
336.1435, 89.40195
336.6256, 89.40070
337.1077, 89.20450
337.5898, 88.63697
338.0720, 87.72738
338.5541, 87.24406
339.0362, 87.33962
339.5183, 87.51791
340.0004, 87.28404
340.4825, 86.56705
340.9647, 85.92364
341.4468, 85.42693
341.9289, 85.07961
342.4110, 84.94514
342.8931, 85.06011
343.3752, 85.14874
343.8574, 84.98952
344.3395, 84.59657
344.8216, 84.21825
345.3037, 83.85720
345.7858, 83.55920
346.2679, 83.49785
346.7501, 83.64961
347.2322, 83.65894
347.7143, 83.15217
348.1964, 82.33989
348.6785, 81.97118
349.1607, 82.12749
349.6428, 82.37968
350.1249, 82.21333
350.6070, 81.73734
351.0891, 81.28947
351.5713, 81.08461
352.0534, 80.95654
352.5355, 80.60887
353.0176, 80.05559
353.4997, 79.53118
353.9818, 79.30231
354.4640, 79.20693
354.9461, 78.97362
355.4282, 78.39944
355.9103, 77.82703
356.3924, 77.60563
356.8745, 77.66254
357.3567, 77.71288
357.8388, 77.58498
358.3209, 77.38677
358.8030, 77.21986
359.2851, 77.13197
359.7672, 76.99829
360.2494, 76.66599
360.7315, 76.24673
361.2136, 75.95140
361.6957, 75.89924
362.1778, 75.95317
362.6599, 76.09978
363.1421, 76.36362
363.6242, 76.49416
364.1063, 76.31962
364.5884, 76.01241
365.0705, 75.75034
365.5526, 75.50454
366.0348, 75.37370
366.5169, 75.43198
366.9990, 75.66584
367.4811, 75.85299
367.9632, 76.08068
368.4453, 76.18147
368.9275, 76.05091
369.4096, 75.35973
369.8917, 74.89175
370.3738, 74.68517
370.8559, 74.70925
371.3380, 74.90318
371.8202, 75.47649
372.3023, 75.93710
372.7844, 76.05155
373.2665, 75.69402
373.7487, 75.51318
374.2308, 75.57395
374.7129, 75.74669
375.1950, 75.87619
375.6771, 75.97954
376.1592, 75.97179
376.6414, 75.74566
377.1235, 75.35274
377.6056, 75.36827
378.0877, 75.90137
378.5698, 76.48705
379.0519, 76.65127
379.5341, 76.38938
380.0162, 76.32970
380.4983, 76.64426
380.9804, 77.13990
381.4625, 77.32057
381.9446, 77.19598
382.4268, 77.10852
382.9089, 77.29618
383.3910, 77.68992
383.8731, 78.06995
384.3552, 78.41113
384.8373, 78.76822
385.3195, 79.23109
385.8016, 79.76480
386.2837, 80.27620
386.7658, 80.75278
387.2479, 81.16333
387.7300, 81.43996
388.2122, 81.58679
388.6943, 81.73160
389.1764, 81.94852
389.6585, 82.22404
390.1406, 82.53954
390.6227, 82.90001
391.1049, 83.28373
391.5870, 83.64278
392.0691, 84.00469
392.5512, 84.45269
393.0333, 85.27449
393.5154, 86.02114
393.9976, 86.31770
394.4797, 85.92765
394.9618, 85.73667
395.4439, 86.04761
395.9260, 86.49176
396.4081, 87.32159
396.8903, 88.00963
397.3724, 88.56336
397.8545, 88.58077
398.3366, 89.29073
398.8188, 89.72322
399.3009, 90.14426
399.7830, 90.95166
400.2651, 91.04710
400.7472, 91.84837
401.2293, 92.36790
401.7115, 93.01646
402.1936, 93.38571
402.6757, 93.84118
403.1578, 94.57600
403.6399, 95.15614
404.1220, 95.49324
404.6042, 96.14999
405.0863, 96.23569
405.5684, 96.82241
406.0505, 97.58682
406.5326, 98.17656
407.0147, 98.57401
407.4969, 98.99050
407.9790, 99.51524
408.4611, 100.0998
408.9432, 100.5059
409.4253, 100.7127
409.9074, 100.9455
410.3896, 101.4527
410.8717, 102.1595
411.3538, 102.7242
411.8359, 103.0749
412.3180, 103.3096
412.8001, 103.4998
413.2823, 103.6683
413.7644, 103.9212
414.2465, 104.3612
414.7286, 104.8951
415.2107, 105.3977
415.6928, 105.8563
416.1750, 106.3554
416.6571, 107.0140
417.1392, 107.7311
417.6213, 108.3889
418.1034, 108.8410
418.5855, 109.3291
419.0677, 110.0254
419.5498, 110.8851
420.0319, 111.7122
420.5140, 112.3709
420.9961, 113.0232
421.4782, 113.7586
421.9604, 114.5730
422.4425, 115.5093
422.9246, 116.6796
423.4067, 117.9382
423.8889, 119.1023
424.3710, 120.0381
424.8531, 120.9863
425.3352, 121.9627
425.8173, 122.9656
426.2994, 124.0676
426.7816, 125.3412
427.2637, 126.6313
427.7458, 127.8337
428.2279, 128.9381
428.7100, 129.9839
429.1921, 130.8477
429.6743, 131.7252
430.1564, 133.1230
430.6385, 135.1813
431.1206, 137.2151
431.6027, 138.8537
432.0848, 140.1396
432.5670, 141.8115
433.0491, 143.9477
433.5312, 146.1729
434.0133, 148.0896
434.4954, 149.7439
434.9775, 151.4509
435.4597, 153.3119
435.9418, 155.2359
436.4239, 156.9503
436.9060, 158.4929
437.3881, 160.2029
437.8702, 162.6997
438.3524, 165.3470
438.8345, 167.0345
439.3166, 167.4981
439.7987, 168.0071
440.2808, 169.2663
440.7629, 171.2957
441.2451, 174.1095
441.7272, 179.6258
442.2093, 184.2158
442.6914, 185.3100
443.1735, 183.3831
443.6556, 181.7000
444.1378, 181.4831
444.6199, 181.8665
445.1020, 182.3188
445.5841, 182.6793
446.0662, 183.2712
446.5483, 184.2265
447.0305, 185.4244
447.5126, 186.6757
447.9947, 188.0631
448.4768, 189.3784
448.9590, 190.5629
449.4411, 191.6081
449.9232, 192.6527
450.4053, 193.7039
450.8874, 194.7535
451.3695, 195.7720
451.8517, 196.7432
452.3338, 197.7920
452.8159, 198.9809
453.2980, 200.1740
453.7801, 200.9887
454.2622, 201.3745
454.7444, 202.0212
455.2265, 203.3935
455.7086, 205.3023
456.1907, 206.7915
456.6728, 207.8428
457.1549, 208.9647
457.6371, 210.8349
458.1192, 213.1554
458.6013, 215.2106
459.0834, 216.6593
459.5655, 218.0542
460.0476, 219.9810
460.5298, 222.3462
461.0119, 224.7659
461.4940, 227.1527
461.9761, 229.4974
462.4582, 231.8236
462.9403, 234.1630
463.4225, 236.3516
463.9046, 238.1300
464.3867, 239.8251
464.8688, 241.7029
465.3509, 244.2629
465.8330, 246.5426
466.3152, 248.2944
466.7973, 249.5959
467.2794, 250.7194
467.7615, 251.6660
468.2436, 252.4706
468.7257, 253.1239
469.2079, 253.5804
469.6900, 254.0803
470.1721, 254.7441
470.6542, 255.3114
471.1363, 255.5172
471.6184, 255.3410
472.1006, 254.8475
472.5827, 253.9375
473.0648, 252.7854
473.5469, 251.9830
474.0291, 251.5660
474.5112, 251.0893
474.9933, 250.3708
475.4754, 249.3952
475.9575, 248.0304
476.4396, 246.2428
476.9218, 244.2898
477.4039, 242.5280
477.8860, 240.8239
478.3681, 238.8914
478.8502, 236.6765
479.3323, 234.1467
479.8145, 231.2809
480.2966, 228.0457
480.7787, 224.4787
481.2608, 220.2114
481.7429, 215.8151
482.2250, 211.7223
482.7072, 208.0427
483.1893, 204.3066
483.6714, 200.1890
484.1535, 196.0024
484.6356, 192.0617
485.1177, 189.1234
485.5999, 185.5950
486.0820, 180.7215
486.5641, 174.9963
487.0462, 170.1104
487.5283, 166.4702
488.0104, 163.1231
488.4926, 159.6182
488.9747, 155.8885
489.4568, 152.6664
489.9389, 150.1203
490.4210, 147.8257
490.9031, 145.3965
491.3853, 142.8193
491.8674, 140.1127
492.3495, 137.2341
492.8316, 134.3076
493.3137, 131.6142
493.7958, 129.1315
494.2780, 126.7465
494.7601, 124.4137
495.2422, 122.1383
495.7243, 119.9585
496.2064, 117.8452
496.6885, 115.9282
497.1707, 114.3471
497.6528, 112.9662
498.1349, 111.5963
498.6170, 110.1545
499.0992, 108.7345
499.5813, 107.4487
500.0634, 106.2161
500.5455, 104.8266
501.0276, 102.8260
501.5097, 101.0060
501.9919, 99.74069
502.4740, 99.14638
502.9561, 98.51301
503.4382, 97.85513
503.9203, 97.08459
504.4024, 96.11095
504.8846, 94.77685
505.3667, 93.59506
505.8488, 92.64571
506.3309, 91.84257
506.8130, 90.92684
507.2951, 89.79981
507.7773, 89.03051
508.2594, 89.02930
508.7415, 89.59892
509.2236, 89.56363
509.7057, 88.89278
510.1878, 88.01501
510.6700, 87.13992
511.1521, 86.32954
511.6342, 85.83749
512.1163, 85.80939
512.5984, 85.73495
513.0806, 84.85366
513.5627, 83.53452
514.0448, 82.54892
514.5269, 82.63560
515.0090, 82.83944
515.4911, 82.43071
515.9733, 81.50058
516.4554, 80.72753
516.9375, 80.53978
517.4196, 80.45952
517.9017, 80.10215
518.3839, 78.57412
518.8660, 78.85754
519.3481, 78.99911
519.8302, 79.00643
520.3123, 78.47747
520.7944, 78.64101
521.2766, 78.52702
521.7587, 78.40165
522.2408, 78.66267
522.7229, 78.21169
523.2050, 78.46657
523.6871, 78.43969
524.1693, 78.23626
524.6514, 77.98196
525.1335, 77.85995
525.6156, 77.90268
526.0977, 77.86315
526.5798, 77.25796
527.0620, 76.34529
527.5441, 75.97261
528.0262, 76.54848
528.5083, 77.29453
528.9904, 77.33425
529.4725, 76.88399
529.9547, 76.46795
530.4368, 76.31955
530.9189, 76.30882
531.4010, 76.37424
531.8831, 76.51119
532.3652, 76.68745
532.8474, 77.02334
533.3295, 77.30680
533.8116, 77.39047
534.2937, 77.02834
534.7758, 76.85693
535.2579, 76.92664
535.7401, 77.17802
536.2222, 77.55790
536.7043, 78.21193
537.1864, 78.66538
537.6685, 78.77768
538.1506, 78.61990
538.6328, 78.47565
539.1149, 78.33028
539.5970, 78.28871
540.0791, 78.46818
540.5612, 78.81918
541.0433, 79.09677
541.5255, 79.28725
542.0076, 79.44796
542.4897, 79.60262
542.9718, 79.77327
543.4539, 79.99650
543.9360, 80.24015
544.4182, 80.60490
544.9003, 81.33187
545.3824, 82.23524
545.8645, 82.90318
546.3466, 82.96557
546.8287, 82.93704
547.3109, 83.06316
547.7930, 83.35793
548.2751, 83.58219
548.7572, 83.61149
549.2393, 83.63039
549.7214, 83.75521
550.2036, 84.12236
550.6857, 84.27225
551.1678, 84.10270
551.6499, 83.82205
552.1320, 83.71905
552.6141, 83.81206
553.0963, 83.97494
553.5784, 84.22263
554.0605, 84.48515
554.5426, 84.55877
555.0247, 84.45149
555.5068, 84.30234
555.9890, 84.14564
556.4711, 84.01820
556.9532, 84.04052
557.4353, 84.21510
557.9174, 84.31480
558.3995, 84.09189
558.8817, 83.73543
559.3638, 83.47549
559.8459, 83.49178
560.3281, 83.35419
560.8102, 82.62943
561.2923, 81.70042
561.7744, 81.17484
562.2565, 81.52750
562.7386, 81.90022
563.2208, 82.21587
563.7029, 82.44017
564.1850, 82.30100
564.6671, 81.60406
565.1492, 80.89246
565.6313, 80.41927
566.1135, 80.19888
566.5956, 80.07780
567.0777, 80.06161
567.5598, 80.12794
568.0419, 80.39333
568.5240, 80.76721
569.0062, 80.70722
569.4883, 79.93963
569.9704, 79.10875
570.4525, 79.13618
570.9346, 79.76743
571.4167, 80.34100
571.8989, 80.44913
572.3810, 80.48888
572.8631, 80.76020
573.3452, 81.22987
573.8273, 81.66265
574.3094, 81.91384
574.7916, 82.14566
575.2737, 82.41273
575.7558, 82.65357
576.2379, 83.16973
576.7200, 84.34010
577.2021, 85.47245
577.6843, 85.88923
578.1664, 85.26360
578.6485, 84.85868
579.1306, 84.74480
579.6127, 84.97997
580.0948, 85.85650
580.5770, 87.37157
581.0591, 88.69327
581.5412, 89.40669
582.0233, 89.74682
582.5054, 90.19743
