##NAMES=Magnetite
##RRUFFID=R080025
##IDEAL CHEMISTRY=Fe^2+^Fe^3+^_2_O_4_
##LOCALITY=2500' level, Zinc Corporation of America mine #4, Balmat, New York, USA
##OWNER=RRUFF
##SOURCE=William W. Pinch
##DESCRIPTION=Black cubes
##STATUS=The identification of this mineral has been confirmed by X-ray diffraction.
##URL=rruff.info/R080025
154.7747, 40.29566
155.2568, 40.34315
155.7389, 40.43895
156.2210, 40.39087
156.7031, 40.16235
157.1852, 39.84668
157.6673, 39.58180
158.1495, 39.33523
158.6316, 39.22506
159.1137, 39.33960
159.5958, 39.54651
160.0779, 39.72824
160.5600, 39.84689
161.0422, 39.90741
161.5243, 39.90763
162.0064, 39.82441
162.4885, 39.74548
162.9706, 39.75993
163.4527, 39.78874
163.9349, 39.62681
164.4170, 39.10464
164.8991, 38.49564
165.3812, 38.32952
165.8633, 38.71383
166.3454, 39.14357
166.8276, 39.36390
167.3097, 39.38797
167.7918, 39.31010
168.2739, 39.08646
168.7560, 38.82989
169.2381, 38.66826
169.7203, 38.62033
170.2024, 38.64820
170.6845, 38.76527
171.1666, 39.00734
171.6487, 39.12339
172.1308, 38.80833
172.6130, 38.43611
173.0951, 38.33660
173.5772, 38.63769
174.0593, 39.09308
174.5414, 39.26196
175.0235, 39.01777
175.5057, 38.73007
175.9878, 38.36298
176.4699, 38.04740
176.9520, 37.92970
177.4341, 38.08537
177.9162, 38.42205
178.3984, 38.66524
178.8805, 38.88789
179.3626, 38.88953
179.8447, 38.46006
180.3268, 37.85958
180.8089, 37.40738
181.2911, 37.28897
181.7732, 37.44242
182.2553, 37.51838
182.7374, 37.41861
183.2195, 37.35046
183.7016, 37.37498
184.1838, 37.45794
184.6659, 37.54561
185.1480, 37.61382
185.6301, 37.65419
186.1122, 37.57665
186.5943, 37.25388
187.0765, 36.97132
187.5586, 36.88746
188.0407, 36.95042
188.5228, 36.97362
189.0049, 36.81723
189.4870, 36.51390
189.9692, 36.30312
190.4513, 36.24639
190.9334, 36.22454
191.4155, 36.14210
191.8976, 36.00499
192.3797, 35.92155
192.8619, 36.02127
193.3440, 36.22193
193.8261, 36.28729
194.3082, 36.05376
194.7903, 35.76783
195.2724, 35.73174
195.7546, 35.98685
196.2367, 36.22128
196.7188, 36.22145
197.2009, 36.07809
197.6830, 35.87405
198.1651, 35.53601
198.6473, 35.21758
199.1294, 35.27401
199.6115, 35.93373
200.0936, 36.38611
200.5757, 36.00834
201.0578, 35.27986
201.5400, 34.80844
202.0221, 34.93647
202.5042, 35.46540
202.9863, 35.83072
203.4684, 36.01103
203.9505, 36.03133
204.4327, 35.82247
204.9148, 35.50523
205.3969, 35.24413
205.8790, 35.13577
206.3611, 35.15209
206.8432, 35.14780
207.3254, 35.09394
207.8075, 35.05355
208.2896, 35.06664
208.7717, 35.09747
209.2538, 35.07739
209.7359, 34.94978
210.2181, 34.74110
210.7002, 34.70268
211.1823, 35.15203
211.6644, 35.44866
212.1465, 35.36744
212.6286, 35.05280
213.1108, 34.75742
213.5929, 34.64845
214.0750, 34.71401
214.5571, 34.78533
215.0392, 34.90638
215.5213, 34.98779
216.0035, 34.97815
216.4856, 34.90741
216.9677, 34.84594
217.4498, 34.84550
217.9319, 34.89731
218.4140, 34.87402
218.8962, 34.70646
219.3783, 34.55243
219.8604, 34.47519
220.3425, 34.46259
220.8246, 34.47044
221.3067, 34.47250
221.7889, 34.47116
222.2710, 34.48151
222.7531, 34.56804
223.2352, 34.60549
223.7173, 34.45810
224.1994, 34.17432
224.6816, 33.99844
225.1637, 34.12544
225.6458, 34.46562
226.1279, 34.63816
226.6100, 34.52584
227.0921, 34.36612
227.5743, 34.31652
228.0564, 34.36819
228.5385, 34.42523
229.0206, 34.42229
229.5027, 34.39845
229.9848, 34.44036
230.4670, 34.59859
230.9491, 34.76275
231.4312, 34.83321
231.9133, 34.80973
232.3954, 34.77011
232.8775, 34.74806
233.3597, 34.73041
233.8418, 34.70306
234.3239, 34.66787
234.8060, 34.61397
235.2881, 34.19118
235.7702, 34.58870
236.2524, 34.81350
236.7345, 34.87487
237.2166, 34.28326
237.6987, 34.53482
238.1808, 34.44849
238.6629, 34.34829
239.1451, 34.71853
239.6272, 34.22190
240.1093, 34.58467
240.5914, 34.60439
241.0735, 34.78112
241.5556, 34.61786
242.0378, 34.55960
242.5199, 34.84145
243.0020, 34.93498
243.4841, 34.73258
243.9662, 34.91928
244.4483, 34.41078
244.9305, 34.44241
245.4126, 34.36866
245.8947, 34.36605
246.3768, 34.41640
246.8589, 34.50740
247.3410, 34.66133
247.8232, 34.78510
248.3053, 34.90691
248.7874, 34.97426
249.2695, 34.90365
249.7516, 34.70280
250.2337, 34.50383
250.7159, 34.52441
251.1980, 34.93116
251.6801, 35.09646
252.1622, 34.80294
252.6443, 34.45592
253.1264, 34.28552
253.6086, 34.31864
254.0907, 34.43610
254.5728, 34.49245
255.0549, 34.46217
255.5370, 34.44761
256.0191, 34.42414
256.5013, 34.43208
256.9834, 34.49231
257.4655, 34.60697
257.9476, 34.77203
258.4297, 34.99622
258.9118, 35.32212
259.3940, 35.52692
259.8761, 35.54859
260.3582, 35.53004
260.8403, 35.53479
261.3224, 35.56868
261.8045, 35.61018
262.2867, 35.64008
262.7688, 35.65772
263.2509, 35.66539
263.7330, 35.68200
264.2151, 35.67465
264.6972, 35.58257
265.1794, 35.44014
265.6615, 35.36494
266.1436, 35.47054
266.6257, 35.77066
267.1078, 35.92823
267.5899, 35.78238
268.0721, 35.68481
268.5542, 35.86417
269.0363, 36.23433
269.5184, 36.52000
270.0005, 36.50737
270.4826, 36.22701
270.9648, 36.13922
271.4469, 36.37740
271.9290, 36.62223
272.4111, 36.77362
272.8932, 36.84035
273.3753, 36.84253
273.8575, 36.77370
274.3396, 36.66405
274.8217, 36.67756
275.3038, 36.93418
275.7859, 37.14928
276.2680, 37.19042
276.7502, 37.12795
277.2323, 37.10510
277.7144, 37.18642
278.1965, 37.35223
278.6786, 37.56530
279.1607, 37.90638
279.6429, 38.14775
280.1250, 38.19597
280.6071, 38.10786
281.0892, 37.95399
281.5713, 37.73493
282.0534, 37.53499
282.5356, 37.56005
283.0177, 37.87498
283.4998, 38.13462
283.9819, 38.21772
284.4640, 38.20290
284.9461, 38.23397
285.4283, 38.36499
285.9104, 38.46897
286.3925, 38.30305
286.8746, 37.83418
287.3567, 37.49456
287.8388, 37.36617
288.3210, 37.41557
288.8031, 37.68523
289.2852, 38.21391
289.7673, 38.69156
290.2494, 38.70441
290.7315, 38.28263
291.2137, 37.99085
291.6958, 37.99593
292.1779, 38.12621
292.6600, 38.22826
293.1421, 38.28896
293.6242, 38.27142
294.1064, 38.08455
294.5885, 37.77583
295.0706, 37.60282
295.5527, 37.70176
296.0348, 37.86869
296.5169, 37.93463
296.9991, 37.89806
297.4812, 37.82497
297.9633, 37.75655
298.4454, 37.67766
298.9275, 37.55227
299.4096, 37.35035
299.8918, 37.13363
300.3739, 36.92505
300.8560, 36.72964
301.3381, 36.58871
301.8202, 36.53319
302.3023, 36.53775
302.7845, 36.55606
303.2666, 36.62685
303.7487, 36.62189
304.2308, 36.43452
304.7129, 36.10480
305.1950, 35.75002
305.6772, 35.35619
306.1593, 35.03260
306.6414, 34.98401
307.1235, 35.24449
307.6056, 35.41695
308.0877, 35.28086
308.5699, 34.93533
309.0520, 34.59296
309.5341, 34.28191
310.0162, 34.01994
310.4983, 33.86187
310.9804, 33.78931
311.4626, 33.68753
311.9447, 33.51957
312.4268, 33.30065
312.9089, 33.02004
313.3910, 32.65198
313.8731, 32.34255
314.3553, 32.26046
314.8374, 32.34403
315.3195, 32.40379
315.8016, 32.39447
316.2837, 32.34942
316.7658, 32.32069
317.2480, 32.31126
317.7301, 32.24016
318.2122, 32.03651
318.6943, 31.73569
319.1764, 31.42578
319.6585, 31.04121
320.1407, 30.74017
320.6228, 30.72215
321.1049, 30.94273
321.5870, 31.07401
322.0691, 30.97135
322.5512, 30.69683
323.0334, 30.36940
323.5155, 29.95901
323.9976, 29.59711
324.4797, 29.39027
324.9618, 29.29287
325.4439, 29.15525
325.9261, 28.90918
326.4082, 28.66140
326.8903, 28.55358
327.3724, 28.57900
327.8545, 28.65215
328.3366, 28.87724
328.8188, 29.09501
329.3009, 28.95902
329.7830, 28.34565
330.2651, 27.72065
330.7472, 27.61884
331.2293, 27.93771
331.7115, 28.12771
332.1936, 28.00915
332.6757, 27.76379
333.1578, 27.55652
333.6399, 27.39588
334.1220, 27.28362
334.6042, 27.22776
335.0863, 27.22504
335.5684, 27.24707
336.0505, 27.38097
336.5326, 27.45021
337.0147, 27.28604
337.4969, 26.93792
337.9790, 26.62810
338.4611, 26.45251
338.9432, 26.38156
339.4253, 26.34473
339.9074, 26.34847
340.3896, 26.36330
340.8717, 26.42838
341.3538, 26.49085
341.8359, 26.41389
342.3180, 26.13012
342.8001, 25.80171
343.2823, 25.68518
343.7644, 25.79998
344.2465, 25.86312
344.7286, 25.78193
345.2107, 25.64358
345.6928, 25.56792
346.1750, 25.56986
346.6571, 25.51943
347.1392, 25.25135
347.6213, 24.76481
348.1034, 24.51435
348.5855, 24.68860
349.0677, 24.93973
349.5498, 25.04981
350.0319, 25.03182
350.5140, 25.00411
350.9961, 25.05457
351.4782, 25.13997
351.9604, 25.05675
352.4425, 24.64182
352.9246, 24.28594
353.4067, 24.13787
353.8888, 24.12413
354.3709, 24.11759
354.8531, 24.07003
355.3352, 24.00789
355.8173, 23.98341
356.2994, 24.01669
356.7815, 24.04088
357.2636, 24.06731
357.7458, 24.07290
358.2279, 24.01376
358.7100, 23.88978
359.1921, 23.77462
359.6742, 23.76085
360.1563, 23.87994
360.6385, 23.89845
361.1206, 23.73752
361.6027, 23.55872
362.0848, 23.43646
362.5669, 23.37176
363.0490, 23.34753
363.5312, 23.36049
364.0133, 23.39955
364.4954, 23.37094
364.9775, 23.11687
365.4596, 22.98472
365.9417, 23.15366
366.4239, 23.45253
366.9060, 23.65121
367.3881, 23.65673
367.8702, 23.53195
368.3523, 23.40131
368.8344, 23.22682
369.3166, 23.11373
369.7987, 23.12177
370.2808, 23.14398
370.7629, 23.08994
371.2450, 22.95504
371.7271, 22.80463
372.2093, 22.70712
372.6914, 22.66484
373.1735, 22.65917
373.6556, 22.70494
374.1377, 22.77007
374.6198, 22.90533
375.1020, 23.04949
375.5841, 23.06100
376.0662, 22.82825
376.5483, 22.43135
377.0304, 22.27203
377.5125, 22.62012
377.9947, 22.81937
378.4768, 22.64009
378.9589, 22.33629
379.4410, 22.17558
379.9231, 22.24310
380.4052, 22.40266
380.8874, 22.45346
381.3695, 22.38096
381.8516, 22.24282
382.3337, 21.87848
382.8158, 21.58466
383.2979, 21.55675
383.7801, 21.76607
384.2622, 22.03033
384.7443, 22.24611
385.2264, 22.40260
385.7085, 22.34847
386.1906, 21.89540
386.6728, 21.50022
387.1549, 21.37928
387.6370, 21.41733
388.1191, 21.43133
388.6012, 21.32289
389.0833, 21.19372
389.5655, 21.26684
390.0476, 21.60810
390.5297, 21.84845
391.0118, 21.73943
391.4939, 21.55935
391.9760, 21.55258
392.4582, 21.75525
392.9403, 21.95849
393.4224, 21.98322
393.9045, 21.85431
394.3866, 21.71974
394.8687, 21.58584
395.3509, 21.47331
395.8330, 21.38746
396.3151, 21.33129
396.7972, 21.32291
397.2793, 21.42356
397.7614, 21.55099
398.2436, 21.59864
398.7257, 21.56528
399.2078, 21.44434
399.6899, 21.14338
400.1720, 20.78926
400.6541, 20.65274
401.1363, 20.83557
401.6184, 21.06676
402.1005, 21.20940
402.5826, 21.27669
403.0647, 21.30150
403.5468, 21.28870
404.0290, 21.24943
404.5111, 21.19969
404.9932, 21.14304
405.4753, 21.05451
405.9574, 20.84436
406.4395, 20.65299
406.9217, 20.67885
407.4038, 20.91306
407.8859, 21.09078
408.3680, 20.98610
408.8501, 20.62611
409.3322, 20.39180
409.8144, 20.27040
410.2965, 20.26336
410.7786, 20.45389
411.2607, 20.74373
411.7428, 20.98822
412.2249, 21.12956
412.7071, 21.15299
413.1892, 21.01189
413.6713, 20.47256
414.1534, 20.20263
414.6355, 20.40437
415.1176, 20.71435
415.5998, 20.88866
416.0819, 20.90292
416.5640, 20.85384
417.0461, 20.82677
417.5282, 20.82244
418.0103, 20.78823
418.4925, 20.74862
418.9746, 20.64929
419.4567, 20.38013
419.9388, 20.07269
420.4209, 19.91987
420.9030, 20.01199
421.3852, 20.23564
421.8673, 20.35670
422.3494, 20.32809
422.8315, 20.31733
423.3136, 20.37017
423.7957, 20.42192
424.2779, 20.45135
424.7600, 20.44716
425.2421, 20.38242
425.7242, 20.16378
426.2063, 19.82772
426.6884, 19.77386
427.1706, 20.21464
427.6527, 20.58245
428.1348, 20.56071
428.6169, 20.34081
429.0990, 20.19941
429.5811, 20.25050
430.0633, 20.36220
430.5454, 20.36495
431.0275, 20.25657
431.5096, 20.14521
431.9917, 20.04279
432.4738, 19.96958
432.9560, 19.96441
433.4381, 20.02592
433.9202, 19.73038
434.4023, 20.10581
434.8844, 20.30852
435.3665, 20.34778
435.8487, 19.73408
436.3308, 19.96355
436.8129, 19.85511
437.2950, 19.73282
437.7771, 20.08097
438.2592, 19.56224
438.7414, 19.90292
439.2235, 19.90054
439.7056, 20.05517
440.1877, 19.86981
440.6698, 19.78946
441.1519, 20.04921
441.6341, 20.12064
442.1162, 19.89614
442.5983, 20.06076
443.0804, 19.53015
443.5625, 19.60961
444.0446, 19.95228
444.5268, 19.74487
445.0089, 19.91570
445.4910, 19.94247
445.9731, 20.08345
446.4552, 20.34902
446.9373, 20.19416
447.4195, 20.02661
447.9016, 19.88551
448.3837, 19.76940
448.8658, 19.66644
449.3479, 19.57542
449.8300, 19.51684
450.3122, 19.53990
450.7943, 19.69141
451.2764, 19.74792
451.7585, 19.59942
452.2406, 19.45703
452.7227, 19.41735
453.2049, 19.44884
453.6870, 19.46430
454.1691, 19.40366
454.6512, 19.30610
455.1333, 19.28678
455.6154, 19.38788
456.0976, 19.44063
456.5797, 19.31390
457.0618, 19.16413
457.5439, 19.13327
458.0260, 19.24009
458.5081, 19.33462
458.9903, 19.25833
459.4724, 19.07151
459.9545, 19.01511
460.4366, 19.16230
460.9187, 19.30617
461.4008, 19.26372
461.8830, 19.09687
462.3651, 18.94884
462.8472, 18.82651
463.3293, 18.74748
463.8114, 18.75056
464.2935, 18.81352
464.7756, 18.84080
465.2578, 18.77898
465.7399, 18.71528
466.2220, 18.82934
466.7041, 19.19628
467.1862, 19.42024
467.6683, 19.40209
468.1505, 19.26426
468.6326, 19.07183
469.1147, 18.84682
469.5968, 18.61638
470.0789, 18.38428
470.5610, 18.17233
471.0432, 18.13057
471.5253, 18.48343
472.0074, 18.73212
472.4895, 18.70789
472.9716, 18.61713
473.4537, 18.70234
473.9359, 19.00044
474.4180, 19.32143
474.9001, 19.42664
475.3822, 19.28819
475.8643, 19.16115
476.3464, 18.97939
476.8286, 18.88792
477.3107, 19.03727
477.7928, 19.28392
478.2749, 19.37489
478.7570, 19.17115
479.2391, 18.86628
479.7213, 18.81766
480.2034, 19.06824
480.6855, 19.19583
481.1676, 18.99695
481.6497, 18.74903
482.1318, 18.69079
482.6140, 18.80389
483.0961, 18.91671
483.5782, 18.95510
484.0603, 18.94019
484.5424, 18.88308
485.0245, 18.78192
485.5067, 18.72497
485.9888, 18.78617
486.4709, 18.91034
486.9530, 18.94977
487.4351, 18.86879
487.9172, 18.78848
488.3994, 18.75994
488.8815, 18.75180
489.3636, 18.72255
489.8457, 18.66427
490.3278, 18.58975
490.8099, 18.50239
491.2921, 18.39939
491.7742, 18.36510
492.2563, 18.45277
492.7384, 18.53601
493.2205, 18.57147
493.7026, 18.58055
494.1848, 18.58737
494.6669, 18.60256
495.1490, 18.63908
495.6311, 18.73276
496.1132, 18.92627
496.5953, 19.03681
497.0775, 19.00413
497.5596, 18.94362
498.0417, 18.90396
498.5238, 18.87130
499.0059, 18.80663
499.4880, 18.68388
499.9702, 18.52715
500.4523, 18.35358
500.9344, 18.13888
501.4165, 18.06724
501.8986, 18.31452
502.3807, 18.61923
502.8629, 18.72665
503.3450, 18.63859
503.8271, 18.54849
504.3092, 18.55534
504.7913, 18.61313
505.2734, 18.65400
505.7556, 18.67435
506.2377, 18.69452
506.7198, 18.74011
507.2019, 18.78556
507.6840, 18.75032
508.1661, 18.60048
508.6483, 18.44733
509.1304, 18.25172
509.6125, 18.10268
510.0946, 18.17239
510.5767, 18.45507
511.0588, 18.68327
511.5410, 18.57376
512.0231, 18.13054
512.5052, 18.00303
512.9873, 18.62343
513.4694, 19.04770
513.9515, 18.98204
514.4337, 18.67901
514.9158, 18.37624
515.3979, 18.16052
515.8800, 18.07295
516.3621, 18.23251
516.8442, 18.68067
517.3264, 18.92780
517.8085, 18.89440
518.2906, 18.74583
518.7727, 18.50141
519.2548, 18.21805
519.7369, 17.97589
520.2191, 17.77952
520.7012, 17.68833
521.1833, 17.85284
521.6654, 18.22718
522.1475, 18.42890
522.6296, 18.30976
523.1118, 18.11276
523.5939, 18.12772
524.0760, 18.32135
524.5581, 18.45098
525.0402, 18.45425
525.5223, 18.40079
526.0045, 18.31708
526.4866, 18.21638
526.9687, 18.12506
527.4508, 18.05361
527.9329, 18.00500
528.4150, 17.98244
528.8972, 17.96938
529.3793, 18.03022
529.8614, 18.28926
530.3435, 18.50305
530.8256, 18.52695
531.3077, 18.39116
531.7899, 18.18007
532.2720, 17.93109
532.7541, 17.69098
533.2362, 17.59832
533.7183, 17.71588
534.2004, 17.80162
534.6826, 17.77164
535.1647, 17.73302
535.6468, 17.74619
536.1289, 17.80917
536.6110, 17.89038
537.0931, 18.00210
537.5753, 18.10508
538.0574, 18.10417
538.5395, 17.99382
539.0216, 17.90886
539.5037, 17.92848
539.9858, 17.98226
540.4680, 17.93426
540.9501, 17.75795
541.4322, 17.64591
541.9143, 17.72335
542.3964, 17.84310
542.8785, 17.82889
543.3607, 17.69797
543.8428, 17.62044
544.3249, 17.71690
544.8070, 17.92648
545.2891, 18.02234
545.7712, 17.84155
546.2534, 17.77055
546.7355, 17.89596
547.2176, 18.07425
547.6997, 18.23512
548.1818, 18.34995
548.6639, 18.37861
549.1461, 18.26056
549.6282, 18.05100
550.1103, 17.99929
550.5924, 18.17444
551.0745, 18.32726
551.5566, 18.43460
552.0388, 18.45420
552.5209, 18.27997
553.0030, 17.91691
553.4851, 17.64438
553.9672, 17.69494
554.4493, 17.91454
554.9315, 18.05359
555.4136, 18.09940
555.8957, 18.02528
556.3778, 17.76588
556.8599, 17.41568
557.3420, 17.24496
557.8242, 17.31302
558.3063, 17.38133
558.7884, 17.39575
559.2705, 17.39715
559.7526, 17.42997
560.2347, 17.48981
560.7169, 17.53038
561.1990, 17.51179
561.6811, 17.45809
562.1632, 17.48522
562.6453, 17.66048
563.1274, 17.80138
563.6096, 17.92340
564.0917, 17.98147
564.5738, 17.92245
565.0559, 17.75946
565.5380, 17.56489
566.0201, 17.34733
566.5023, 17.15527
566.9844, 17.16249
567.4665, 17.41296
567.9486, 17.57362
568.4307, 17.47327
568.9128, 17.25540
569.3950, 17.09992
569.8771, 17.00327
570.3592, 16.99190
570.8413, 17.17054
571.3234, 17.37344
571.8055, 17.39308
572.2877, 17.25877
572.7698, 17.17612
573.2519, 17.26827
573.7340, 17.45203
574.2161, 17.50897
574.6982, 17.28710
575.1804, 17.20492
575.6625, 17.37286
576.1446, 17.57469
576.6267, 17.70475
577.1088, 17.75476
577.5909, 17.73033
578.0731, 17.61744
578.5552, 17.48621
579.0373, 17.51512
579.5194, 17.74130
580.0015, 17.92142
580.4836, 18.01064
580.9658, 18.03288
581.4479, 17.97883
581.9300, 17.87102
582.4121, 17.80578
582.8942, 17.86903
583.3763, 17.94812
583.8585, 17.88162
584.3406, 17.72620
584.8227, 17.73133
585.3048, 18.01016
585.7869, 18.33826
586.2690, 18.38831
586.7512, 18.07328
587.2333, 17.90553
587.7154, 17.95666
588.1975, 18.06569
588.6796, 18.20698
589.1617, 18.34811
589.6439, 18.43948
590.1260, 18.46455
590.6081, 18.47101
591.0902, 18.53479
591.5723, 18.66595
592.0544, 18.74988
592.5366, 18.73333
593.0187, 18.74552
593.5008, 18.88148
593.9829, 19.06943
594.4650, 19.21744
594.9471, 19.31798
595.4293, 19.31918
595.9114, 19.08182
596.3935, 18.72898
596.8756, 18.55892
597.3577, 18.61922
597.8398, 18.78728
598.3220, 19.00067
598.8041, 19.24227
599.2862, 19.39340
599.7683, 19.38068
600.2504, 19.39009
600.7325, 19.45819
601.2147, 19.55626
601.6968, 19.69761
602.1789, 19.85430
602.6610, 19.92083
603.1431, 19.79054
603.6252, 19.52433
604.1074, 19.37514
604.5895, 19.31965
605.0716, 19.44473
605.5537, 20.02412
606.0358, 20.60658
606.5179, 20.84399
607.0001, 20.74924
607.4822, 20.59110
607.9643, 20.37212
608.4464, 20.23790
608.9285, 20.46233
609.4106, 20.97753
609.8928, 21.35906
610.3749, 21.42327
610.8570, 21.36041
611.3391, 21.47217
611.8212, 21.85208
612.3033, 22.02149
612.7855, 21.75727
613.2676, 21.52835
613.7497, 21.54267
614.2318, 21.73413
614.7139, 22.01220
615.1960, 22.33629
615.6782, 22.62143
616.1603, 22.71195
616.6424, 22.59435
617.1245, 22.60084
617.6066, 22.77488
618.0887, 23.00714
618.5709, 23.33408
619.0530, 23.65369
619.5351, 23.79053
620.0172, 23.66578
620.4993, 23.58019
620.9814, 23.72078
621.4636, 24.00259
621.9457, 24.30802
622.4278, 24.62137
622.9099, 24.95263
623.3920, 25.31851
623.8741, 25.69279
624.3563, 25.97676
624.8384, 26.07778
625.3205, 26.22106
625.8026, 26.43247
626.2847, 26.66331
626.7668, 26.86008
627.2490, 27.04883
627.7311, 27.32125
628.2132, 27.75537
628.6953, 28.21744
629.1774, 28.43021
629.6595, 28.37933
630.1417, 28.43155
630.6238, 28.65918
631.1059, 28.99313
631.5880, 29.45028
632.0701, 29.97901
632.5522, 30.40217
633.0344, 30.61008
633.5165, 30.80612
633.9986, 31.08394
634.4807, 31.41893
634.9628, 31.80329
635.4449, 32.22273
635.9271, 32.58613
636.4092, 32.78631
636.8913, 32.85337
637.3734, 33.10046
637.8555, 33.65039
638.3376, 34.18814
638.8198, 34.72319
639.3019, 35.18754
639.7840, 35.49244
640.2661, 35.65924
640.7482, 35.82927
641.2303, 36.06596
641.7125, 36.36959
642.1946, 36.77306
642.6767, 37.26446
643.1588, 37.72416
643.6409, 38.12534
644.1230, 38.44455
644.6052, 38.60423
645.0873, 38.56565
645.5694, 38.75517
646.0515, 39.37250
646.5336, 39.99083
647.0157, 40.47969
647.4979, 40.85300
647.9800, 41.11528
648.4621, 41.28097
648.9442, 41.41516
649.4263, 41.56968
649.9084, 41.75130
650.3906, 42.02353
650.8727, 42.42046
651.3548, 42.82180
651.8369, 43.23069
652.3190, 43.59306
652.8011, 43.84288
653.2833, 43.97797
