##NAMES=Magnesio-hastingsite
##RRUFFID=R070288
##IDEAL CHEMISTRY=NaCa_2_(Mg_4_Fe^3+^)Si_6_Al_2_O_22_(OH)_2_
##LOCALITY=Dallas Gem Mine (Gem Mine; Benitoite Mine), New Idria District, San Benito County, California, USA
##OWNER=RRUFF
##SOURCE=Michael Scott
##DESCRIPTION=Dark brown to black prismatic crystals frozen in albite
##STATUS=The identification of this mineral is confirmed by single-crystal X-ray diffraction and chemical analysis.
##URL=rruff.info/R070288
##MEASURED CHEMISTRY=(Na_0.51_[box]_0.33_K_0.16_)_Σ=1_(Ca_1.75_Na_0.25_)_Σ=2_(Mg_3.02_Fe^2+^_0.61_Ti_0.37_)_Σ=4_(Fe^3+^_0.73_Al_0.27_)_Σ=1_Si_5.84_Al_2.16_O_22_(OH)_2_; (OH) estimated by difference
155.2497, 2053.455
155.7318, 2067.929
156.2139, 2082.590
156.6960, 2099.334
157.1782, 2120.952
157.6603, 2147.952
158.1424, 2176.955
158.6245, 2205.206
159.1066, 2233.380
159.5887, 2263.384
160.0709, 2299.156
160.5530, 2335.677
161.0351, 2366.329
161.5172, 2391.250
161.9993, 2408.615
162.4814, 2412.319
162.9636, 2407.604
163.4457, 2403.294
163.9278, 2403.657
164.4099, 2405.926
164.8920, 2404.307
165.3741, 2397.026
165.8563, 2390.881
166.3384, 2393.755
166.8205, 2400.378
167.3026, 2401.416
167.7847, 2391.058
168.2668, 2373.366
168.7490, 2356.963
169.2311, 2342.194
169.7132, 2327.804
170.1953, 2312.380
170.6774, 2296.910
171.1595, 2283.002
171.6417, 2271.240
172.1238, 2261.572
172.6059, 2255.035
173.0880, 2255.184
173.5701, 2250.997
174.0522, 2233.636
174.5344, 2210.049
175.0165, 2190.503
175.4986, 2180.614
175.9807, 2177.479
176.4628, 2172.252
176.9449, 2161.029
177.4271, 2155.387
177.9092, 2163.171
178.3913, 2177.486
178.8734, 2189.185
179.3555, 2193.910
179.8376, 2193.175
180.3197, 2190.931
180.8019, 2184.960
181.2840, 2181.608
181.7661, 2183.314
182.2482, 2188.142
182.7303, 2194.380
183.2124, 2201.982
183.6946, 2209.220
184.1767, 2210.546
184.6588, 2202.033
185.1409, 2194.248
185.6230, 2188.547
186.1051, 2185.497
186.5873, 2186.530
187.0694, 2192.979
187.5515, 2202.019
188.0336, 2206.522
188.5157, 2206.435
188.9978, 2201.006
189.4800, 2186.611
189.9621, 2169.278
190.4442, 2154.411
190.9263, 2144.341
191.4084, 2139.043
191.8905, 2139.521
192.3727, 2151.877
192.8548, 2158.968
193.3369, 2157.447
193.8190, 2150.528
194.3011, 2139.186
194.7832, 2123.645
195.2654, 2108.545
195.7475, 2104.404
196.2296, 2116.196
196.7117, 2130.440
197.1938, 2151.711
197.6759, 2170.908
198.1581, 2178.869
198.6402, 2172.745
199.1223, 2158.649
199.6044, 2146.941
200.0865, 2135.310
200.5686, 2131.542
201.0508, 2138.460
201.5329, 2150.467
202.0150, 2164.719
202.4971, 2180.050
202.9792, 2194.614
203.4613, 2205.248
203.9435, 2210.211
204.4256, 2214.916
204.9077, 2219.175
205.3898, 2223.626
205.8719, 2229.293
206.3540, 2236.117
206.8362, 2242.523
207.3183, 2246.107
207.8004, 2245.379
208.2825, 2245.502
208.7646, 2241.677
209.2467, 2242.157
209.7289, 2254.991
210.2110, 2279.242
210.6931, 2305.214
211.1752, 2320.607
211.6573, 2320.856
212.1395, 2327.052
212.6216, 2341.958
213.1037, 2359.889
213.5858, 2380.489
214.0679, 2402.206
214.5500, 2421.629
215.0322, 2435.070
215.5143, 2441.684
215.9964, 2447.521
216.4785, 2446.667
216.9606, 2450.521
217.4427, 2464.998
217.9249, 2488.422
218.4070, 2515.359
218.8891, 2541.755
219.3712, 2567.629
219.8533, 2592.292
220.3354, 2622.271
220.8176, 2644.341
221.2997, 2648.418
221.7818, 2641.684
222.2639, 2638.614
222.7460, 2650.077
223.2281, 2674.408
223.7103, 2692.772
224.1924, 2706.806
224.6745, 2711.926
225.1566, 2702.265
225.6387, 2684.144
226.1208, 2666.898
226.6030, 2656.229
227.0851, 2649.827
227.5672, 2637.243
228.0493, 2605.902
228.5314, 2585.883
229.0135, 2591.673
229.4957, 2607.304
229.9778, 2614.168
230.4599, 2603.728
230.9420, 2582.416
231.4241, 2564.887
231.9062, 2547.312
232.3884, 2541.671
232.8705, 2557.139
233.3526, 2579.025
233.8347, 2594.446
234.3168, 2599.178
234.7989, 2598.761
235.2811, 2602.920
235.7632, 2614.595
236.2453, 2623.895
236.7274, 2629.574
237.2095, 2633.306
237.6916, 2637.255
238.1738, 2641.357
238.6559, 2642.457
239.1380, 2634.508
239.6201, 2612.959
240.1022, 2599.360
240.5843, 2598.815
241.0665, 2602.796
241.5486, 2610.274
242.0307, 2619.536
242.5128, 2626.311
242.9949, 2626.678
243.4770, 2620.428
243.9592, 2609.945
244.4413, 2588.755
244.9234, 2569.233
245.4055, 2555.082
245.8876, 2546.302
246.3697, 2542.240
246.8519, 2544.072
247.3340, 2550.730
247.8161, 2552.420
248.2982, 2546.397
248.7803, 2538.635
249.2624, 2533.434
249.7446, 2527.753
250.2267, 2516.251
250.7088, 2494.854
251.1909, 2467.003
251.6730, 2442.323
252.1551, 2421.168
252.6373, 2402.554
253.1194, 2388.330
253.6015, 2375.322
254.0836, 2358.949
254.5657, 2336.532
255.0478, 2314.173
255.5300, 2303.822
256.0121, 2310.075
256.4942, 2310.934
256.9763, 2292.990
257.4584, 2271.307
257.9406, 2256.617
258.4227, 2251.277
258.9048, 2250.015
259.3869, 2249.688
259.8690, 2250.601
260.3511, 2244.317
260.8333, 2219.959
261.3154, 2196.090
261.7975, 2188.696
262.2796, 2197.216
262.7617, 2204.621
263.2438, 2195.185
263.7260, 2172.605
264.2081, 2159.849
264.6902, 2165.401
265.1723, 2171.599
265.6544, 2163.254
266.1365, 2144.409
266.6187, 2128.535
267.1008, 2124.175
267.5829, 2126.670
268.0650, 2126.666
268.5471, 2123.957
269.0292, 2118.717
269.5114, 2111.658
269.9935, 2102.103
270.4756, 2087.259
270.9577, 2056.629
271.4398, 2028.428
271.9219, 2027.458
272.4041, 2054.535
272.8862, 2081.759
273.3683, 2097.000
273.8504, 2102.505
274.3325, 2103.779
274.8146, 2099.596
275.2968, 2093.814
275.7789, 2085.875
276.2610, 2077.570
276.7431, 2077.674
277.2252, 2092.760
277.7073, 2112.980
278.1895, 2121.833
278.6716, 2118.301
279.1537, 2111.877
279.6358, 2104.132
280.1179, 2096.086
280.6000, 2088.207
281.0822, 2079.915
281.5643, 2075.932
282.0464, 2084.421
282.5285, 2106.680
283.0106, 2124.145
283.4927, 2135.065
283.9749, 2140.103
284.4570, 2137.213
284.9391, 2127.126
285.4212, 2117.648
285.9033, 2115.372
286.3854, 2120.310
286.8676, 2123.870
287.3497, 2125.252
287.8318, 2126.179
288.3139, 2125.029
288.7960, 2123.854
289.2781, 2128.719
289.7603, 2143.896
290.2424, 2166.122
290.7245, 2181.310
291.2066, 2187.927
291.6887, 2190.056
292.1708, 2184.648
292.6530, 2176.339
293.1351, 2171.520
293.6172, 2172.358
294.0993, 2175.061
294.5814, 2172.555
295.0635, 2158.709
295.5457, 2151.465
296.0278, 2153.033
296.5099, 2159.064
296.9920, 2169.203
297.4741, 2181.843
297.9562, 2191.808
298.4384, 2192.929
298.9205, 2183.248
299.4026, 2178.394
299.8847, 2183.421
300.3668, 2188.075
300.8489, 2189.094
301.3311, 2186.964
301.8131, 2182.711
302.2953, 2176.187
302.7774, 2168.969
303.2595, 2170.045
303.7416, 2189.716
304.2237, 2202.322
304.7058, 2201.543
305.1880, 2192.329
305.6701, 2176.478
306.1522, 2154.164
306.6343, 2135.205
307.1164, 2139.550
307.5985, 2175.690
308.0807, 2203.368
308.5628, 2212.188
309.0449, 2212.355
309.5270, 2204.627
310.0091, 2190.811
310.4912, 2181.339
310.9734, 2191.085
311.4555, 2217.266
311.9376, 2226.967
312.4197, 2206.552
312.9018, 2185.667
313.3839, 2184.451
313.8661, 2197.289
314.3482, 2209.780
314.8303, 2214.497
315.3124, 2215.324
315.7945, 2220.374
316.2766, 2230.991
316.7588, 2237.688
317.2409, 2230.468
317.7230, 2217.636
318.2051, 2213.344
318.6872, 2222.415
319.1693, 2234.679
319.6515, 2244.922
320.1336, 2252.608
320.6157, 2254.340
321.0978, 2246.467
321.5799, 2236.038
322.0620, 2235.237
322.5442, 2245.192
323.0263, 2254.539
323.5084, 2261.173
323.9905, 2264.984
324.4726, 2264.556
324.9547, 2259.690
325.4369, 2255.249
325.9190, 2257.459
326.4011, 2267.295
326.8832, 2266.536
327.3653, 2239.626
327.8474, 2216.731
328.3296, 2221.711
328.8117, 2246.057
329.2938, 2261.073
329.7759, 2248.213
330.2580, 2216.162
330.7401, 2204.754
331.2223, 2239.904
331.7044, 2263.615
332.1865, 2265.046
332.6686, 2254.413
333.1507, 2240.426
333.6328, 2226.458
334.1150, 2214.730
334.5971, 2208.657
335.0792, 2209.644
335.5613, 2212.880
336.0434, 2222.305
336.5255, 2230.252
337.0077, 2230.357
337.4898, 2224.875
337.9719, 2222.133
338.4540, 2230.513
338.9361, 2247.813
339.4182, 2253.515
339.9004, 2239.590
340.3825, 2225.391
340.8646, 2213.604
341.3467, 2205.859
341.8288, 2205.740
342.3109, 2215.778
342.7931, 2228.073
343.2752, 2228.460
343.7573, 2214.335
344.2394, 2207.447
344.7215, 2223.501
345.2036, 2240.040
345.6858, 2235.052
346.1679, 2208.262
346.6500, 2185.791
347.1321, 2188.884
347.6142, 2208.780
348.0963, 2220.908
348.5785, 2221.396
349.0606, 2218.697
349.5427, 2216.150
350.0248, 2215.321
350.5069, 2221.915
350.9890, 2246.522
351.4712, 2271.370
351.9533, 2280.159
352.4354, 2275.448
352.9175, 2271.210
353.3996, 2274.677
353.8817, 2281.902
354.3639, 2281.514
354.8460, 2268.336
355.3281, 2260.013
355.8102, 2262.868
356.2923, 2271.545
356.7744, 2280.707
357.2566, 2289.010
357.7387, 2295.848
358.2208, 2299.974
358.7029, 2300.083
359.1850, 2305.244
359.6671, 2319.781
360.1493, 2334.255
360.6314, 2346.976
361.1135, 2356.223
361.5956, 2357.698
362.0777, 2347.850
362.5598, 2331.898
363.0420, 2329.596
363.5241, 2352.306
364.0062, 2370.816
364.4883, 2379.295
364.9704, 2384.114
365.4525, 2389.543
365.9347, 2396.879
366.4168, 2406.740
366.8989, 2422.287
367.3810, 2444.491
367.8631, 2457.195
368.3452, 2450.256
368.8274, 2445.135
369.3095, 2454.481
369.7916, 2473.900
370.2737, 2492.374
370.7558, 2503.407
371.2379, 2511.673
371.7201, 2528.253
372.2022, 2555.022
372.6843, 2571.214
373.1664, 2560.714
373.6485, 2538.690
374.1306, 2527.935
374.6128, 2530.351
375.0949, 2539.566
375.5770, 2561.688
376.0591, 2586.709
376.5412, 2590.001
377.0233, 2564.222
377.5055, 2534.820
377.9876, 2528.191
378.4697, 2547.271
378.9518, 2564.383
379.4339, 2585.670
379.9160, 2599.090
380.3982, 2591.481
380.8803, 2569.349
381.3624, 2550.604
381.8445, 2544.958
382.3266, 2549.203
382.8087, 2553.778
383.2909, 2564.772
383.7730, 2567.452
384.2551, 2554.653
384.7372, 2538.031
385.2193, 2528.063
385.7014, 2525.728
386.1836, 2523.551
386.6657, 2512.646
387.1478, 2492.311
387.6299, 2477.735
388.1120, 2473.872
388.5941, 2470.235
389.0763, 2462.981
389.5584, 2453.806
390.0405, 2445.369
390.5226, 2438.487
391.0047, 2433.510
391.4868, 2433.176
391.9690, 2438.714
392.4511, 2436.692
392.9332, 2418.190
393.4153, 2395.404
393.8974, 2380.480
394.3795, 2373.456
394.8617, 2366.577
395.3438, 2356.760
395.8259, 2344.447
396.3080, 2328.147
396.7901, 2307.304
397.2722, 2290.558
397.7544, 2283.396
398.2365, 2285.930
398.7186, 2294.631
399.2007, 2318.555
399.6828, 2338.309
400.1649, 2343.474
400.6471, 2340.191
401.1292, 2339.936
401.6113, 2346.509
402.0934, 2352.373
402.5755, 2344.656
403.0576, 2312.832
403.5398, 2300.612
404.0219, 2326.922
404.5040, 2352.343
404.9861, 2353.157
405.4682, 2335.860
405.9503, 2320.087
406.4325, 2318.195
406.9146, 2327.145
407.3967, 2337.154
407.8788, 2351.148
408.3609, 2359.949
408.8430, 2356.400
409.3252, 2350.994
409.8073, 2351.277
410.2894, 2358.577
410.7715, 2370.773
411.2536, 2392.320
411.7357, 2419.136
412.2179, 2426.357
412.7000, 2404.638
413.1821, 2381.912
413.6642, 2381.029
414.1463, 2392.711
414.6284, 2398.924
415.1106, 2391.265
415.5927, 2383.490
416.0748, 2390.772
416.5569, 2406.801
417.0390, 2410.123
417.5211, 2391.716
418.0033, 2364.292
418.4854, 2346.193
418.9675, 2339.592
419.4496, 2336.274
419.9317, 2339.656
420.4138, 2343.318
420.8960, 2342.495
421.3781, 2337.959
421.8602, 2333.528
422.3423, 2331.821
422.8244, 2331.746
423.3065, 2329.020
423.7887, 2327.446
424.2708, 2316.478
424.7529, 2283.107
425.2350, 2248.778
425.7171, 2233.163
426.1992, 2237.716
426.6814, 2246.983
427.1635, 2248.270
427.6456, 2241.754
428.1277, 2228.232
428.6098, 2203.099
429.0919, 2179.865
429.5741, 2165.741
430.0562, 2157.691
430.5383, 2152.359
431.0204, 2150.563
431.5025, 2147.835
431.9846, 2140.934
432.4668, 2130.105
432.9489, 2114.620
433.4310, 2092.573
433.9131, 2071.791
434.3952, 2062.931
434.8773, 2067.561
435.3595, 2068.476
435.8416, 2064.443
436.3237, 2056.770
436.8058, 2042.788
437.2879, 2025.773
437.7701, 2014.701
438.2522, 2014.781
438.7343, 2019.572
439.2164, 2012.359
439.6985, 1984.854
440.1806, 1959.763
440.6628, 1930.515
441.1449, 1908.976
441.6270, 1906.235
442.1091, 1919.345
442.5912, 1935.644
443.0733, 1947.817
443.5555, 1954.877
444.0376, 1950.432
444.5197, 1928.290
445.0018, 1912.013
445.4839, 1915.324
445.9660, 1926.619
446.4482, 1937.791
446.9303, 1949.044
447.4124, 1950.363
447.8945, 1927.244
448.3766, 1891.425
448.8587, 1867.930
449.3409, 1860.409
449.8230, 1858.935
450.3051, 1856.654
450.7872, 1853.728
451.2693, 1851.750
451.7514, 1852.373
452.2336, 1851.956
452.7157, 1848.997
453.1978, 1844.393
453.6799, 1840.260
454.1620, 1836.951
454.6441, 1831.100
455.1263, 1816.264
455.6084, 1788.143
456.0905, 1775.518
456.5726, 1792.418
457.0547, 1811.270
457.5368, 1829.426
458.0190, 1842.737
458.5011, 1844.109
458.9832, 1829.106
459.4653, 1808.157
459.9474, 1795.881
460.4295, 1792.436
460.9117, 1789.397
461.3938, 1782.194
461.8759, 1779.276
462.3580, 1793.895
462.8401, 1821.622
463.3222, 1838.184
463.8044, 1830.012
464.2865, 1813.488
464.7686, 1799.013
465.2507, 1788.005
465.7328, 1785.603
466.2149, 1795.046
466.6971, 1810.721
467.1792, 1821.807
467.6613, 1827.095
468.1434, 1829.748
468.6255, 1829.240
469.1076, 1826.630
469.5898, 1822.103
470.0719, 1816.019
470.5540, 1808.731
471.0361, 1800.107
471.5182, 1791.296
472.0003, 1785.650
472.4825, 1784.034
472.9646, 1783.335
473.4467, 1783.927
473.9288, 1784.521
474.4109, 1783.943
474.8930, 1782.322
475.3752, 1781.251
475.8573, 1784.660
476.3394, 1788.019
476.8215, 1779.521
477.3036, 1758.805
477.7857, 1746.817
478.2679, 1756.706
478.7500, 1779.742
479.2321, 1795.347
479.7142, 1802.908
480.1963, 1806.104
480.6784, 1802.094
481.1606, 1796.382
481.6427, 1793.359
482.1248, 1793.612
482.6069, 1796.808
483.0890, 1803.401
483.5711, 1811.967
484.0533, 1814.089
484.5354, 1802.139
485.0175, 1796.425
485.4996, 1803.858
485.9817, 1815.009
486.4638, 1823.584
486.9460, 1828.392
487.4281, 1829.849
487.9102, 1823.791
488.3923, 1814.831
488.8744, 1819.082
489.3565, 1838.934
489.8387, 1858.831
490.3208, 1871.421
490.8029, 1878.740
491.2850, 1885.709
491.7671, 1892.885
492.2492, 1898.183
492.7314, 1898.305
493.2135, 1897.580
493.6956, 1900.959
494.1777, 1908.795
494.6598, 1918.795
495.1419, 1929.391
495.6241, 1940.520
496.1062, 1952.117
496.5883, 1965.619
497.0704, 1977.416
497.5525, 1986.199
498.0346, 1993.934
498.5168, 2002.142
498.9989, 2011.014
499.4810, 2019.767
499.9631, 2025.756
500.4452, 2031.195
500.9273, 2046.139
501.4095, 2073.368
501.8916, 2098.428
502.3737, 2114.246
502.8558, 2124.677
503.3379, 2136.496
503.8200, 2150.806
504.3022, 2162.072
504.7843, 2163.181
505.2664, 2163.008
505.7485, 2172.009
506.2306, 2190.549
506.7127, 2213.827
507.1949, 2239.716
507.6770, 2266.486
508.1591, 2286.420
508.6412, 2298.963
509.1233, 2304.819
509.6054, 2299.299
510.0876, 2291.139
510.5697, 2284.277
511.0518, 2280.486
511.5339, 2283.030
512.0161, 2297.737
512.4982, 2318.227
512.9803, 2325.016
513.4624, 2315.313
513.9445, 2308.566
514.4266, 2312.159
514.9088, 2321.570
515.3909, 2331.618
515.8730, 2342.584
516.3551, 2350.950
516.8372, 2356.576
517.3193, 2358.502
517.8015, 2353.607
518.2836, 2343.685
518.7657, 2335.173
519.2478, 2331.413
519.7299, 2331.590
520.2120, 2334.275
520.6942, 2343.763
521.1763, 2347.381
521.6584, 2339.790
522.1405, 2332.038
522.6226, 2330.969
523.1047, 2334.665
523.5869, 2337.538
524.0690, 2337.147
524.5511, 2333.407
525.0332, 2321.889
525.5153, 2302.723
525.9974, 2298.706
526.4796, 2322.836
526.9617, 2351.397
527.4438, 2356.905
527.9259, 2342.294
528.4080, 2330.142
528.8901, 2314.481
529.3723, 2337.839
529.8544, 2341.670
530.3365, 2343.621
530.8186, 2343.794
531.3007, 2336.862
531.7828, 2339.105
532.2650, 2337.671
532.7471, 2310.655
533.2292, 2314.155
533.7113, 2321.941
534.1934, 2326.007
534.6755, 2320.906
535.1577, 2311.882
535.6398, 2307.427
536.1219, 2310.699
536.6040, 2311.494
537.0861, 2294.994
537.5682, 2268.199
538.0504, 2256.212
538.5325, 2263.745
539.0146, 2272.360
539.4967, 2267.849
539.9788, 2253.775
540.4609, 2248.125
540.9431, 2260.373
541.4252, 2267.044
541.9073, 2258.839
542.3894, 2245.920
542.8715, 2237.141
543.3536, 2233.740
543.8358, 2233.246
544.3179, 2234.136
544.8000, 2235.888
545.2821, 2236.734
545.7642, 2237.975
546.2463, 2234.677
546.7285, 2220.314
547.2106, 2204.837
547.6927, 2195.690
548.1748, 2192.914
548.6569, 2192.469
549.1390, 2192.452
549.6211, 2194.049
550.1032, 2201.797
550.5853, 2213.199
551.0674, 2216.905
551.5496, 2207.845
552.0317, 2191.869
552.5138, 2178.270
552.9959, 2167.967
553.4780, 2156.808
553.9601, 2137.583
554.4423, 2125.219
554.9244, 2133.450
555.4065, 2150.096
555.8886, 2154.722
556.3707, 2139.569
556.8528, 2119.009
557.3350, 2110.673
557.8171, 2113.038
558.2992, 2112.811
558.7813, 2107.065
559.2634, 2104.639
559.7455, 2116.803
560.2277, 2135.904
560.7098, 2137.999
561.1919, 2114.456
561.6740, 2088.784
562.1561, 2063.479
562.6382, 2042.616
563.1204, 2030.924
563.6025, 2028.365
564.0846, 2032.689
564.5667, 2043.883
565.0488, 2057.788
565.5309, 2056.706
566.0131, 2033.228
566.4952, 2013.503
566.9773, 2002.702
567.4594, 1996.559
567.9415, 1996.601
568.4236, 2000.177
568.9058, 1996.495
569.3879, 1972.705
569.8700, 1947.110
570.3521, 1942.496
570.8342, 1952.181
571.3163, 1953.175
571.7985, 1938.164
572.2806, 1915.236
572.7627, 1893.064
573.2448, 1871.042
573.7269, 1855.021
574.2090, 1849.900
574.6912, 1844.406
575.1733, 1832.929
575.6554, 1821.100
576.1375, 1818.789
576.6196, 1826.719
577.1017, 1829.606
577.5839, 1806.809
578.0660, 1767.946
578.5481, 1747.179
579.0302, 1746.810
579.5123, 1748.620
579.9944, 1744.741
580.4766, 1737.933
580.9587, 1734.732
581.4408, 1737.865
581.9229, 1733.222
582.4050, 1710.442
582.8871, 1686.979
583.3693, 1675.558
583.8514, 1672.625
584.3335, 1668.133
584.8156, 1657.527
585.2977, 1645.333
585.7798, 1640.166
586.2620, 1643.151
586.7441, 1639.474
587.2262, 1624.816
587.7083, 1609.302
588.1904, 1598.197
588.6725, 1590.129
589.1547, 1583.368
589.6368, 1578.312
590.1189, 1572.780
590.6010, 1567.879
591.0831, 1560.719
591.5652, 1542.875
592.0474, 1516.988
592.5295, 1500.809
593.0116, 1507.598
593.4937, 1528.272
593.9758, 1533.617
594.4579, 1514.146
594.9401, 1501.868
595.4222, 1505.819
595.9043, 1511.807
596.3864, 1514.150
596.8685, 1512.893
597.3506, 1508.921
597.8328, 1501.523
598.3149, 1493.564
598.7970, 1485.622
599.2791, 1479.286
599.7612, 1479.196
600.2433, 1486.260
600.7255, 1497.249
601.2076, 1510.787
601.6897, 1525.736
602.1718, 1532.733
602.6539, 1524.041
603.1360, 1517.717
603.6182, 1516.665
604.1003, 1517.189
604.5824, 1516.678
605.0645, 1515.083
605.5466, 1513.659
606.0287, 1513.262
606.5109, 1513.236
606.9930, 1512.404
607.4751, 1510.916
607.9572, 1509.495
608.4393, 1507.773
608.9214, 1508.500
609.4036, 1515.774
609.8857, 1529.627
610.3678, 1537.194
610.8499, 1535.537
611.3320, 1531.961
611.8141, 1526.508
612.2963, 1520.956
612.7784, 1515.682
613.2605, 1511.642
613.7426, 1512.228
614.2247, 1521.858
614.7068, 1536.391
615.1890, 1544.354
615.6711, 1545.296
616.1532, 1549.891
616.6353, 1561.380
617.1174, 1577.317
617.5995, 1597.474
618.0817, 1621.998
618.5638, 1638.053
619.0459, 1639.057
619.5280, 1638.549
620.0101, 1641.971
620.4922, 1646.695
620.9744, 1647.852
621.4565, 1645.384
621.9386, 1645.328
622.4207, 1653.925
622.9028, 1668.935
623.3849, 1681.192
623.8671, 1690.022
624.3492, 1700.114
624.8313, 1713.367
625.3134, 1727.942
625.7955, 1743.196
626.2776, 1759.065
626.7598, 1768.821
627.2419, 1764.208
627.7240, 1761.144
628.2061, 1768.915
628.6882, 1782.781
629.1703, 1794.892
629.6525, 1803.781
630.1346, 1814.704
630.6167, 1833.889
631.0988, 1859.353
631.5809, 1879.392
632.0630, 1892.181
632.5452, 1907.275
633.0273, 1930.869
633.5094, 1954.852
633.9915, 1968.531
634.4736, 1972.557
634.9557, 1980.513
635.4379, 1991.805
635.9200, 2011.003
636.4021, 2047.491
636.8842, 2091.048
637.3663, 2127.416
637.8484, 2152.586
638.3306, 2167.991
638.8127, 2171.979
639.2948, 2167.908
639.7769, 2176.881
640.2590, 2201.518
640.7411, 2230.261
641.2233, 2262.349
641.7054, 2294.708
642.1875, 2326.102
642.6696, 2356.213
643.1517, 2379.275
643.6339, 2384.682
644.1160, 2392.820
644.5981, 2418.760
645.0802, 2453.156
