##NAMES=Magnesiochlorophoenicite
##RRUFFID=R140719
##IDEAL CHEMISTRY=Mg_3_Zn^2+^_2_As^5+^O_4_(OH,O)_6_
##LOCALITY=Sterling mine, Sterling Hill, Ogdensburg, Franklin Mining District, Sussex County, New Jersey, USA
##OWNER=RRUFF
##SOURCE=Rock Currier
##DESCRIPTION=Radial tufts of vitreous white acicular crystals on typical Franklin Hill zinc ore. The crystals are twinned by a 2-fold axis parallel to a*.
##STATUS=The identification of this mineral has been confirmed only by single crystal X-ray diffraction.
##URL=rruff.info/R140719
8.806445e+001, 1.440535e+003
8.854657e+001, 1.426676e+003
8.902869e+001, 1.421930e+003
8.951080e+001, 1.431642e+003
8.999292e+001, 1.448072e+003
9.047504e+001, 1.463624e+003
9.095715e+001, 1.476411e+003
9.143927e+001, 1.488061e+003
9.192139e+001, 1.501071e+003
9.240350e+001, 1.515373e+003
9.288562e+001, 1.529436e+003
9.336774e+001, 1.532490e+003
9.384985e+001, 1.515156e+003
9.433197e+001, 1.479284e+003
9.481409e+001, 1.445731e+003
9.529620e+001, 1.410734e+003
9.577832e+001, 1.379281e+003
9.626044e+001, 1.352079e+003
9.674255e+001, 1.328911e+003
9.722467e+001, 1.309919e+003
9.770679e+001, 1.296101e+003
9.818890e+001, 1.282052e+003
9.867102e+001, 1.265456e+003
9.915314e+001, 1.248594e+003
9.963525e+001, 1.233047e+003
1.001174e+002, 1.219424e+003
1.005995e+002, 1.207385e+003
1.010816e+002, 1.195858e+003
1.015637e+002, 1.183232e+003
1.020458e+002, 1.172647e+003
1.025280e+002, 1.164853e+003
1.030101e+002, 1.158974e+003
1.034922e+002, 1.153615e+003
1.039743e+002, 1.147773e+003
1.044564e+002, 1.141393e+003
1.049385e+002, 1.136597e+003
1.054207e+002, 1.135657e+003
1.059028e+002, 1.133842e+003
1.063849e+002, 1.128406e+003
1.068670e+002, 1.119338e+003
1.073491e+002, 1.108561e+003
1.078312e+002, 1.097100e+003
1.083134e+002, 1.085089e+003
1.087955e+002, 1.074986e+003
1.092776e+002, 1.067441e+003
1.097597e+002, 1.061851e+003
1.102418e+002, 1.057607e+003
1.107239e+002, 1.054980e+003
1.112061e+002, 1.052894e+003
1.116882e+002, 1.050343e+003
1.121703e+002, 1.047422e+003
1.126524e+002, 1.044665e+003
1.131345e+002, 1.042597e+003
1.136166e+002, 1.041146e+003
1.140988e+002, 1.039205e+003
1.145809e+002, 1.036515e+003
1.150630e+002, 1.033311e+003
1.155451e+002, 1.029389e+003
1.160272e+002, 1.024848e+003
1.165093e+002, 1.020449e+003
1.169915e+002, 1.017185e+003
1.174736e+002, 1.015495e+003
1.179557e+002, 1.013820e+003
1.184378e+002, 1.011560e+003
1.189199e+002, 1.009544e+003
1.194020e+002, 1.008360e+003
1.198842e+002, 1.008197e+003
1.203663e+002, 1.008811e+003
1.208484e+002, 1.009675e+003
1.213305e+002, 1.012114e+003
1.218126e+002, 1.013177e+003
1.222947e+002, 1.012299e+003
1.227769e+002, 1.010112e+003
1.232590e+002, 1.007368e+003
1.237411e+002, 1.004404e+003
1.242232e+002, 1.001210e+003
1.247053e+002, 9.975919e+002
1.251874e+002, 9.934879e+002
1.256696e+002, 9.891770e+002
1.261517e+002, 9.842449e+002
1.266338e+002, 9.789944e+002
1.271159e+002, 9.745810e+002
1.275980e+002, 9.720048e+002
1.280801e+002, 9.708824e+002
1.285623e+002, 9.694726e+002
1.290444e+002, 9.676837e+002
1.295265e+002, 9.656216e+002
1.300086e+002, 9.635069e+002
1.304907e+002, 9.614538e+002
1.309728e+002, 9.587911e+002
1.314550e+002, 9.542469e+002
1.319371e+002, 9.489343e+002
1.324192e+002, 9.444363e+002
1.329013e+002, 9.416563e+002
1.333834e+002, 9.400931e+002
1.338655e+002, 9.383447e+002
1.343477e+002, 9.366321e+002
1.348298e+002, 9.343183e+002
1.353119e+002, 9.308797e+002
1.357940e+002, 9.267568e+002
1.362761e+002, 9.227588e+002
1.367582e+002, 9.194968e+002
1.372404e+002, 9.170109e+002
1.377225e+002, 9.144974e+002
1.382046e+002, 9.127997e+002
1.386867e+002, 9.103383e+002
1.391688e+002, 9.059435e+002
1.396509e+002, 9.000955e+002
1.401331e+002, 8.943361e+002
1.406152e+002, 8.902569e+002
1.410973e+002, 8.884736e+002
1.415794e+002, 8.863747e+002
1.420615e+002, 8.835400e+002
1.425436e+002, 8.807619e+002
1.430258e+002, 8.785781e+002
1.435079e+002, 8.770597e+002
1.439900e+002, 8.758083e+002
1.444721e+002, 8.742800e+002
1.449542e+002, 8.722744e+002
1.454363e+002, 8.704952e+002
1.459185e+002, 8.693077e+002
1.464006e+002, 8.682127e+002
1.468827e+002, 8.665127e+002
1.473648e+002, 8.639256e+002
1.478469e+002, 8.610440e+002
1.483290e+002, 8.587719e+002
1.488112e+002, 8.569868e+002
1.492933e+002, 8.558025e+002
1.497754e+002, 8.556340e+002
1.502575e+002, 8.561542e+002
1.507396e+002, 8.564267e+002
1.512217e+002, 8.562289e+002
1.517039e+002, 8.555599e+002
1.521860e+002, 8.543856e+002
1.526681e+002, 8.526169e+002
1.531502e+002, 8.510267e+002
1.536323e+002, 8.506078e+002
1.541144e+002, 8.514348e+002
1.545966e+002, 8.513282e+002
1.550787e+002, 8.486181e+002
1.555608e+002, 8.453533e+002
1.560429e+002, 8.428468e+002
1.565250e+002, 8.413566e+002
1.570071e+002, 8.405272e+002
1.574893e+002, 8.398181e+002
1.579714e+002, 8.390392e+002
1.584535e+002, 8.389553e+002
1.589356e+002, 8.404573e+002
1.594177e+002, 8.421952e+002
1.598998e+002, 8.430573e+002
1.603820e+002, 8.426237e+002
1.608641e+002, 8.413881e+002
1.613462e+002, 8.405045e+002
1.618283e+002, 8.401075e+002
1.623104e+002, 8.399313e+002
1.627925e+002, 8.402416e+002
1.632747e+002, 8.406370e+002
1.637568e+002, 8.407053e+002
1.642389e+002, 8.402418e+002
1.647210e+002, 8.393194e+002
1.652031e+002, 8.382156e+002
1.656852e+002, 8.370321e+002
1.661674e+002, 8.355623e+002
1.666495e+002, 8.335473e+002
1.671316e+002, 8.312375e+002
1.676137e+002, 8.290706e+002
1.680958e+002, 8.272890e+002
1.685779e+002, 8.258534e+002
1.690601e+002, 8.244656e+002
1.695422e+002, 8.235006e+002
1.700243e+002, 8.222140e+002
1.705064e+002, 8.199862e+002
1.709885e+002, 8.170609e+002
1.714706e+002, 8.143793e+002
1.719528e+002, 8.125101e+002
1.724349e+002, 8.114162e+002
1.729170e+002, 8.105213e+002
1.733991e+002, 8.102276e+002
1.738812e+002, 8.098070e+002
1.743633e+002, 8.084611e+002
1.748455e+002, 8.061589e+002
1.753276e+002, 8.040785e+002
1.758097e+002, 8.030897e+002
1.762918e+002, 8.028044e+002
1.767739e+002, 8.025408e+002
1.772560e+002, 8.020327e+002
1.777382e+002, 8.015847e+002
1.782203e+002, 8.018383e+002
1.787024e+002, 8.031406e+002
1.791845e+002, 8.039875e+002
1.796666e+002, 8.030195e+002
1.801487e+002, 8.012715e+002
1.806309e+002, 8.000886e+002
1.811130e+002, 8.002591e+002
1.815951e+002, 8.012260e+002
1.820772e+002, 8.014196e+002
1.825593e+002, 8.003102e+002
1.830414e+002, 7.992663e+002
1.835236e+002, 7.988012e+002
1.840057e+002, 7.986872e+002
1.844878e+002, 7.985908e+002
1.849699e+002, 7.982908e+002
1.854520e+002, 7.978492e+002
1.859341e+002, 7.976891e+002
1.864163e+002, 7.982510e+002
1.868984e+002, 7.986022e+002
1.873805e+002, 7.985140e+002
1.878626e+002, 7.980699e+002
1.883447e+002, 7.974040e+002
1.888268e+002, 7.965730e+002
1.893090e+002, 7.955924e+002
1.897911e+002, 7.948502e+002
1.902732e+002, 7.946855e+002
1.907553e+002, 7.944226e+002
1.912374e+002, 7.936098e+002
1.917195e+002, 7.925310e+002
1.922017e+002, 7.918749e+002
1.926838e+002, 7.922480e+002
1.931659e+002, 7.937273e+002
1.936480e+002, 7.944035e+002
1.941301e+002, 7.938416e+002
1.946122e+002, 7.931041e+002
1.950944e+002, 7.926124e+002
1.955765e+002, 7.923492e+002
1.960586e+002, 7.920927e+002
1.965407e+002, 7.916578e+002
1.970228e+002, 7.910311e+002
1.975049e+002, 7.904841e+002
1.979871e+002, 7.897565e+002
1.984692e+002, 7.892900e+002
1.989513e+002, 7.894944e+002
1.994334e+002, 7.903245e+002
1.999155e+002, 7.912502e+002
2.003976e+002, 7.918290e+002
2.008798e+002, 7.920883e+002
2.013619e+002, 7.925358e+002
2.018440e+002, 7.937015e+002
2.023261e+002, 7.947410e+002
2.028082e+002, 7.946785e+002
2.032903e+002, 7.934254e+002
2.037725e+002, 7.921283e+002
2.042546e+002, 7.916030e+002
2.047367e+002, 7.917545e+002
2.052188e+002, 7.923456e+002
2.057009e+002, 7.939481e+002
2.061830e+002, 7.957189e+002
2.066652e+002, 7.963808e+002
2.071473e+002, 7.956747e+002
2.076294e+002, 7.948302e+002
2.081115e+002, 7.944619e+002
2.085936e+002, 7.945294e+002
2.090757e+002, 7.951124e+002
2.095579e+002, 7.966104e+002
2.100400e+002, 7.984942e+002
2.105221e+002, 7.996086e+002
2.110042e+002, 7.995828e+002
2.114863e+002, 7.996136e+002
2.119685e+002, 8.003724e+002
2.124506e+002, 8.015449e+002
2.129327e+002, 8.026916e+002
2.134148e+002, 8.035933e+002
2.138969e+002, 8.043347e+002
2.143790e+002, 8.051731e+002
2.148612e+002, 8.061578e+002
2.153433e+002, 8.071720e+002
2.158254e+002, 8.080309e+002
2.163075e+002, 8.089110e+002
2.167896e+002, 8.101202e+002
2.172717e+002, 8.119196e+002
2.177539e+002, 8.141061e+002
2.182360e+002, 8.157130e+002
2.187181e+002, 8.162917e+002
2.192002e+002, 8.168367e+002
2.196823e+002, 8.175095e+002
2.201644e+002, 8.183193e+002
2.206466e+002, 8.193425e+002
2.211287e+002, 8.206818e+002
2.216108e+002, 8.221834e+002
2.220929e+002, 8.229422e+002
2.225750e+002, 8.223288e+002
2.230571e+002, 8.215793e+002
2.235393e+002, 8.209325e+002
2.240214e+002, 8.202745e+002
2.245035e+002, 8.194557e+002
2.249856e+002, 8.184058e+002
2.254677e+002, 8.170941e+002
2.259498e+002, 8.153144e+002
2.264320e+002, 8.127180e+002
2.269141e+002, 8.100123e+002
2.273962e+002, 8.074749e+002
2.278783e+002, 8.048746e+002
2.283604e+002, 8.017376e+002
2.288425e+002, 7.977396e+002
2.293247e+002, 7.930963e+002
2.298068e+002, 7.890193e+002
2.302889e+002, 7.859232e+002
2.307710e+002, 7.828734e+002
2.312531e+002, 7.794717e+002
2.317352e+002, 7.760070e+002
2.322174e+002, 7.730428e+002
2.326995e+002, 7.709282e+002
2.331816e+002, 7.694407e+002
2.336637e+002, 7.676029e+002
2.341458e+002, 7.653875e+002
2.346279e+002, 7.629285e+002
2.351101e+002, 7.596301e+002
2.355922e+002, 7.561277e+002
2.360743e+002, 7.538207e+002
2.365564e+002, 7.535692e+002
2.370385e+002, 7.546711e+002
2.375206e+002, 7.548835e+002
2.380028e+002, 7.541148e+002
2.384849e+002, 7.528830e+002
2.389670e+002, 7.510715e+002
2.394491e+002, 7.489256e+002
2.399312e+002, 7.469392e+002
2.404133e+002, 7.453005e+002
2.408955e+002, 7.440197e+002
2.413776e+002, 7.431454e+002
2.418597e+002, 7.428377e+002
2.423418e+002, 7.424701e+002
2.428239e+002, 7.415892e+002
2.433060e+002, 7.404275e+002
2.437882e+002, 7.397425e+002
2.442703e+002, 7.400810e+002
2.447524e+002, 7.406017e+002
2.452345e+002, 7.398112e+002
2.457166e+002, 7.374698e+002
2.461987e+002, 7.352552e+002
2.466809e+002, 7.338541e+002
2.471630e+002, 7.332092e+002
2.476451e+002, 7.332986e+002
2.481272e+002, 7.346008e+002
2.486093e+002, 7.359506e+002
2.490914e+002, 7.359020e+002
2.495736e+002, 7.344515e+002
2.500557e+002, 7.327828e+002
2.505378e+002, 7.313910e+002
2.510199e+002, 7.302814e+002
2.515020e+002, 7.294982e+002
2.519841e+002, 7.291809e+002
2.524663e+002, 7.290232e+002
2.529484e+002, 7.287305e+002
2.534305e+002, 7.283187e+002
2.539126e+002, 7.279147e+002
2.543947e+002, 7.277029e+002
2.548768e+002, 7.275968e+002
2.553590e+002, 7.270792e+002
2.558411e+002, 7.255435e+002
2.563232e+002, 7.243995e+002
2.568053e+002, 7.250462e+002
2.572874e+002, 7.269748e+002
2.577695e+002, 7.283526e+002
2.582516e+002, 7.275592e+002
2.587338e+002, 7.250775e+002
2.592159e+002, 7.236131e+002
2.596980e+002, 7.238383e+002
2.601801e+002, 7.242423e+002
2.606622e+002, 7.239145e+002
2.611443e+002, 7.231204e+002
2.616265e+002, 7.224693e+002
2.621086e+002, 7.224923e+002
2.625907e+002, 7.229692e+002
2.630728e+002, 7.228411e+002
2.635549e+002, 7.217143e+002
2.640370e+002, 7.205523e+002
2.645192e+002, 7.196144e+002
2.650013e+002, 7.189266e+002
2.654834e+002, 7.185788e+002
2.659655e+002, 7.187585e+002
2.664476e+002, 7.192221e+002
2.669297e+002, 7.190854e+002
2.674119e+002, 7.181082e+002
2.678940e+002, 7.168654e+002
2.683761e+002, 7.151010e+002
2.688582e+002, 7.133578e+002
2.693403e+002, 7.124083e+002
2.698224e+002, 7.127447e+002
2.703046e+002, 7.138196e+002
2.707867e+002, 7.140628e+002
2.712688e+002, 7.128407e+002
2.717509e+002, 7.119067e+002
2.722330e+002, 7.119330e+002
2.727151e+002, 7.122468e+002
2.731973e+002, 7.120636e+002
2.736794e+002, 7.110518e+002
2.741615e+002, 7.097396e+002
2.746436e+002, 7.093158e+002
2.751257e+002, 7.104429e+002
2.756078e+002, 7.111635e+002
2.760900e+002, 7.111413e+002
2.765721e+002, 7.107360e+002
2.770542e+002, 7.101036e+002
2.775363e+002, 7.093245e+002
2.780184e+002, 7.086174e+002
2.785005e+002, 7.083629e+002
2.789827e+002, 7.086956e+002
2.794648e+002, 7.092150e+002
2.799469e+002, 7.100668e+002
2.804290e+002, 7.109482e+002
2.809111e+002, 7.118073e+002
2.813932e+002, 7.125616e+002
2.818754e+002, 7.129581e+002
2.823575e+002, 7.125938e+002
2.828396e+002, 7.111601e+002
2.833217e+002, 7.098465e+002
2.838038e+002, 7.083796e+002
2.842859e+002, 7.072350e+002
2.847681e+002, 7.068829e+002
2.852502e+002, 7.072049e+002
2.857323e+002, 7.075878e+002
2.862144e+002, 7.073142e+002
2.866965e+002, 7.061387e+002
2.871786e+002, 7.057496e+002
2.876608e+002, 7.070709e+002
2.881429e+002, 7.082408e+002
2.886250e+002, 7.082579e+002
2.891071e+002, 7.074143e+002
2.895892e+002, 7.067480e+002
2.900714e+002, 7.071969e+002
2.905535e+002, 7.087903e+002
2.910356e+002, 7.094527e+002
2.915177e+002, 7.082115e+002
2.919998e+002, 7.070703e+002
2.924819e+002, 7.063836e+002
2.929641e+002, 7.062099e+002
2.934462e+002, 7.067284e+002
2.939283e+002, 7.081829e+002
2.944104e+002, 7.102509e+002
2.948925e+002, 7.107613e+002
2.953746e+002, 7.076943e+002
2.958568e+002, 7.052398e+002
2.963389e+002, 7.041446e+002
2.968210e+002, 7.039514e+002
2.973031e+002, 7.040377e+002
2.977852e+002, 7.041046e+002
2.982673e+002, 7.041866e+002
2.987495e+002, 7.043928e+002
2.992316e+002, 7.050574e+002
2.997137e+002, 7.054065e+002
3.001958e+002, 7.054118e+002
3.006779e+002, 7.050899e+002
3.011600e+002, 7.043248e+002
3.016422e+002, 7.031097e+002
3.021243e+002, 7.017678e+002
3.026064e+002, 7.008892e+002
3.030885e+002, 7.006667e+002
3.035706e+002, 7.006312e+002
3.040527e+002, 7.009249e+002
3.045349e+002, 7.012930e+002
3.050170e+002, 7.015746e+002
3.054991e+002, 7.017286e+002
3.059812e+002, 7.017765e+002
3.064633e+002, 7.017489e+002
3.069454e+002, 7.016685e+002
3.074276e+002, 7.014167e+002
3.079097e+002, 7.011290e+002
3.083918e+002, 7.006015e+002
3.088739e+002, 6.994542e+002
3.093560e+002, 6.978734e+002
3.098381e+002, 6.965447e+002
3.103203e+002, 6.960875e+002
3.108024e+002, 6.965673e+002
3.112845e+002, 6.969950e+002
3.117666e+002, 6.977595e+002
3.122487e+002, 6.980955e+002
3.127308e+002, 6.974338e+002
3.132130e+002, 6.961289e+002
3.136951e+002, 6.949391e+002
3.141772e+002, 6.943547e+002
3.146593e+002, 6.942904e+002
3.151414e+002, 6.941872e+002
3.156235e+002, 6.939767e+002
3.161057e+002, 6.937956e+002
3.165878e+002, 6.935792e+002
3.170699e+002, 6.934240e+002
3.175520e+002, 6.934804e+002
3.180341e+002, 6.938162e+002
3.185162e+002, 6.943361e+002
3.189984e+002, 6.948023e+002
3.194805e+002, 6.954132e+002
3.199626e+002, 6.956754e+002
3.204447e+002, 6.953397e+002
3.209268e+002, 6.947971e+002
3.214089e+002, 6.943561e+002
3.218911e+002, 6.941161e+002
3.223732e+002, 6.940594e+002
3.228553e+002, 6.941834e+002
3.233374e+002, 6.946442e+002
3.238195e+002, 6.948998e+002
3.243016e+002, 6.946609e+002
3.247838e+002, 6.944709e+002
3.252659e+002, 6.947227e+002
3.257480e+002, 6.953997e+002
3.262301e+002, 6.962015e+002
3.267122e+002, 6.968646e+002
3.271943e+002, 6.973975e+002
3.276765e+002, 6.976534e+002
3.281586e+002, 6.969966e+002
3.286407e+002, 6.967174e+002
3.291228e+002, 6.977050e+002
3.296049e+002, 6.994660e+002
3.300870e+002, 7.007453e+002
3.305692e+002, 7.005854e+002
3.310513e+002, 6.993165e+002
3.315334e+002, 6.994928e+002
3.320155e+002, 7.030406e+002
3.324976e+002, 7.059412e+002
3.329797e+002, 7.074375e+002
3.334619e+002, 7.080280e+002
3.339440e+002, 7.082746e+002
3.344261e+002, 7.084330e+002
3.349082e+002, 7.086176e+002
3.353904e+002, 7.091046e+002
3.358725e+002, 7.100491e+002
3.363546e+002, 7.110992e+002
3.368367e+002, 7.122236e+002
3.373188e+002, 7.134551e+002
3.378009e+002, 7.148895e+002
3.382831e+002, 7.165111e+002
3.387652e+002, 7.181402e+002
3.392473e+002, 7.195233e+002
3.397294e+002, 7.206175e+002
3.402115e+002, 7.216010e+002
3.406936e+002, 7.221490e+002
3.411758e+002, 7.228798e+002
3.416579e+002, 7.242100e+002
3.421400e+002, 7.260347e+002
3.426221e+002, 7.279201e+002
3.431042e+002, 7.294958e+002
3.435863e+002, 7.307594e+002
3.440685e+002, 7.320746e+002
3.445506e+002, 7.342248e+002
3.450327e+002, 7.355675e+002
3.455148e+002, 7.350360e+002
3.459969e+002, 7.335665e+002
3.464790e+002, 7.327172e+002
3.469612e+002, 7.333948e+002
3.474433e+002, 7.349877e+002
3.479254e+002, 7.354918e+002
3.484075e+002, 7.339988e+002
3.488896e+002, 7.328548e+002
3.493717e+002, 7.325342e+002
3.498539e+002, 7.325898e+002
3.503360e+002, 7.327172e+002
3.508181e+002, 7.328016e+002
3.513002e+002, 7.327470e+002
3.517823e+002, 7.324241e+002
3.522644e+002, 7.318411e+002
3.527466e+002, 7.309592e+002
3.532287e+002, 7.294252e+002
3.537108e+002, 7.278853e+002
3.541929e+002, 7.265955e+002
3.546750e+002, 7.256046e+002
3.551571e+002, 7.249208e+002
3.556393e+002, 7.247814e+002
3.561214e+002, 7.251777e+002
3.566035e+002, 7.245809e+002
3.570856e+002, 7.218792e+002
3.575677e+002, 7.194974e+002
3.580498e+002, 7.181954e+002
3.585320e+002, 7.178027e+002
3.590141e+002, 7.180682e+002
3.594962e+002, 7.190172e+002
3.599783e+002, 7.203007e+002
3.604604e+002, 7.209163e+002
3.609425e+002, 7.205388e+002
3.614247e+002, 7.202443e+002
3.619068e+002, 7.206080e+002
3.623889e+002, 7.210528e+002
3.628710e+002, 7.209100e+002
3.633531e+002, 7.199736e+002
3.638352e+002, 7.190051e+002
3.643174e+002, 7.189402e+002
3.647995e+002, 7.198491e+002
3.652816e+002, 7.209872e+002
3.657637e+002, 7.228916e+002
3.662458e+002, 7.243638e+002
3.667279e+002, 7.243670e+002
3.672101e+002, 7.230745e+002
3.676922e+002, 7.217478e+002
3.681743e+002, 7.212286e+002
3.686564e+002, 7.213991e+002
3.691385e+002, 7.217947e+002
3.696206e+002, 7.226101e+002
3.701028e+002, 7.232458e+002
3.705849e+002, 7.234199e+002
3.710670e+002, 7.231829e+002
3.715491e+002, 7.225140e+002
3.720312e+002, 7.210448e+002
3.725133e+002, 7.195031e+002
3.729955e+002, 7.190209e+002
3.734776e+002, 7.196993e+002
3.739597e+002, 7.205144e+002
3.744418e+002, 7.215275e+002
3.749239e+002, 7.221273e+002
3.754060e+002, 7.213082e+002
3.758882e+002, 7.186016e+002
3.763703e+002, 7.161180e+002
3.768524e+002, 7.156702e+002
3.773345e+002, 7.167612e+002
3.778166e+002, 7.172676e+002
3.782987e+002, 7.165013e+002
3.787809e+002, 7.154142e+002
3.792630e+002, 7.152241e+002
3.797451e+002, 7.157980e+002
3.802272e+002, 7.159756e+002
3.807093e+002, 7.149520e+002
3.811914e+002, 7.135211e+002
3.816736e+002, 7.128562e+002
3.821557e+002, 7.130803e+002
3.826378e+002, 7.132439e+002
3.831199e+002, 7.125031e+002
3.836020e+002, 7.111350e+002
3.840841e+002, 7.104188e+002
3.845663e+002, 7.109728e+002
3.850484e+002, 7.115851e+002
3.855305e+002, 7.115522e+002
3.860126e+002, 7.110029e+002
3.864947e+002, 7.102592e+002
3.869768e+002, 7.093482e+002
3.874590e+002, 7.085262e+002
3.879411e+002, 7.085180e+002
3.884232e+002, 7.097407e+002
3.889053e+002, 7.103904e+002
3.893874e+002, 7.098007e+002
3.898695e+002, 7.085993e+002
3.903517e+002, 7.074611e+002
3.908338e+002, 7.065121e+002
3.913159e+002, 7.056158e+002
3.917980e+002, 7.047060e+002
3.922801e+002, 7.038270e+002
3.927622e+002, 7.022385e+002
3.932444e+002, 6.989592e+002
3.937265e+002, 6.959655e+002
3.942086e+002, 6.944196e+002
3.946907e+002, 6.940104e+002
3.951728e+002, 6.938764e+002
3.956549e+002, 6.935873e+002
3.961371e+002, 6.930353e+002
3.966192e+002, 6.917895e+002
3.971013e+002, 6.890473e+002
3.975834e+002, 6.865891e+002
3.980655e+002, 6.845103e+002
3.985476e+002, 6.827969e+002
3.990298e+002, 6.815251e+002
3.995119e+002, 6.806824e+002
3.999940e+002, 6.800334e+002
4.004761e+002, 6.792752e+002
4.009582e+002, 6.783997e+002
4.014403e+002, 6.774387e+002
4.019225e+002, 6.760092e+002
4.024046e+002, 6.748627e+002
4.028867e+002, 6.745137e+002
4.033688e+002, 6.747523e+002
4.038509e+002, 6.749938e+002
4.043330e+002, 6.748138e+002
4.048152e+002, 6.743220e+002
4.052973e+002, 6.741751e+002
4.057794e+002, 6.747903e+002
4.062615e+002, 6.751163e+002
4.067436e+002, 6.748450e+002
4.072257e+002, 6.742778e+002
4.077079e+002, 6.736175e+002
4.081900e+002, 6.729394e+002
4.086721e+002, 6.724384e+002
4.091542e+002, 6.724377e+002
4.096363e+002, 6.730271e+002
4.101184e+002, 6.736152e+002
4.106006e+002, 6.743185e+002
4.110827e+002, 6.748430e+002
