##NAMES=Magnetite
##RRUFFID=R140861
##IDEAL CHEMISTRY=Fe^2+^Fe^3+^_2_O_4_
##LOCALITY=Bon Accord, Barberton District, Mpumalanga Province, South Africa
##OWNER=RRUFF
##SOURCE=Rock Currier
##DESCRIPTION=Dark green isolated granular or octahedral crystals, associated with yellowish-green irregular veins of nimite, minute light-green opaque grains of willemseite, reevesite as yellowish-green massive earthy vug material and limonite.
##STATUS=The identification of this mineral is confirmed by single-crystal X-ray diffraction and chemical analysis.
##URL=rruff.info/R140861
##MEASURED CHEMISTRY=(Fe^2+^_0.82_Ni_0.18_)_Î£=1.00_Fe^3+^_2.00_O_4_
175.6000, 239.9543
176.0821, 240.8342
176.5642, 241.7855
177.0463, 241.6254
177.5284, 240.6846
178.0106, 239.9819
178.4927, 240.1154
178.9748, 240.8266
179.4569, 241.8298
179.9390, 243.2328
180.4211, 244.4517
180.9033, 244.6252
181.3854, 243.9348
181.8675, 243.2387
182.3496, 242.8825
182.8317, 242.8876
183.3138, 243.3891
183.7960, 244.5113
184.2781, 245.8087
184.7602, 246.5338
185.2423, 246.7626
185.7244, 247.0828
186.2065, 247.9711
186.6887, 249.2695
187.1708, 250.4165
187.6529, 251.3560
188.1350, 252.1047
188.6171, 252.6261
189.0992, 252.9275
189.5814, 253.1526
190.0635, 253.4331
190.5456, 253.7424
191.0277, 253.8616
191.5098, 253.7414
191.9919, 253.4658
192.4741, 253.2387
192.9562, 253.0701
193.4383, 252.7735
193.9204, 252.1073
194.4025, 251.1039
194.8846, 250.3451
195.3668, 249.9371
195.8489, 249.7655
196.3310, 249.6016
196.8131, 249.4547
197.2952, 249.2400
197.7773, 248.8891
198.2595, 248.4007
198.7416, 247.8262
199.2237, 247.1136
199.7058, 246.3737
200.1879, 245.9716
200.6700, 245.9677
201.1522, 246.0222
201.6343, 245.8914
202.1164, 245.5555
202.5985, 245.2611
203.0806, 245.0688
203.5627, 244.9230
204.0449, 244.6843
204.5270, 244.3847
205.0091, 243.8811
205.4912, 242.9375
205.9733, 241.4165
206.4554, 240.3086
206.9376, 239.8506
207.4197, 239.8532
207.9018, 239.5655
208.3839, 238.9098
208.8660, 238.1625
209.3481, 237.4906
209.8303, 236.8762
210.3124, 236.4111
210.7945, 236.1089
211.2766, 235.9684
211.7587, 236.0337
212.2408, 236.4585
212.7230, 236.7679
213.2051, 236.5517
213.6872, 235.5638
214.1693, 234.8923
214.6514, 234.6871
215.1335, 234.8826
215.6157, 235.2871
216.0978, 236.1454
216.5799, 236.7526
217.0620, 236.5118
217.5441, 234.9649
218.0262, 233.8973
218.5084, 233.5419
218.9905, 233.7964
219.4726, 234.1986
219.9547, 234.8881
220.4368, 235.5044
220.9189, 235.7952
221.4011, 235.6564
221.8832, 235.4896
222.3653, 235.3530
222.8474, 235.2190
223.3295, 234.8949
223.8116, 234.1930
224.2938, 233.6106
224.7759, 233.4980
225.2580, 234.1101
225.7401, 234.5713
226.2222, 234.7902
226.7043, 234.8095
227.1865, 234.7983
227.6686, 234.6773
228.1507, 234.6392
228.6328, 234.8367
229.1149, 235.4657
229.5970, 235.8533
230.0792, 235.8495
230.5613, 235.5765
231.0434, 235.5448
231.5255, 235.9758
232.0076, 236.3322
232.4897, 236.2658
232.9719, 235.4358
233.4540, 234.9801
233.9361, 235.0958
234.4182, 235.6081
234.9003, 235.8874
235.3824, 235.7892
235.8646, 235.6651
236.3467, 235.6519
236.8288, 235.6361
237.3109, 236.0214
237.7930, 237.1035
238.2751, 238.5457
238.7573, 239.2531
239.2394, 238.8113
239.7215, 238.2204
240.2036, 237.9056
240.6857, 237.9161
241.1678, 238.1125
241.6500, 238.6689
242.1321, 239.3582
242.6142, 239.5820
243.0963, 239.1091
243.5784, 238.5047
244.0605, 237.9787
244.5427, 237.4717
245.0248, 237.2045
245.5069, 237.2870
245.9890, 237.5692
246.4711, 237.6952
246.9532, 237.4997
247.4354, 237.4320
247.9175, 237.7315
248.3996, 238.6265
248.8817, 239.1573
249.3638, 239.2264
249.8459, 238.9935
250.3281, 238.7139
250.8102, 238.2668
251.2923, 237.9905
251.7744, 238.0210
252.2565, 238.4221
252.7386, 238.8781
253.2208, 239.4471
253.7029, 240.0283
254.1850, 240.4648
254.6671, 240.6992
255.1492, 240.8887
255.6313, 241.0133
256.1135, 241.0064
256.5956, 241.4007
257.0777, 242.4424
257.5598, 243.6331
258.0419, 244.2490
258.5240, 244.0086
259.0062, 243.8097
259.4883, 243.9228
259.9704, 244.3710
260.4525, 244.7374
260.9346, 245.0396
261.4167, 245.2348
261.8989, 245.2209
262.3810, 244.8629
262.8631, 244.6776
263.3452, 244.8576
263.8273, 245.4059
264.3094, 245.7180
264.7916, 245.6898
265.2737, 245.6123
265.7558, 245.8284
266.2379, 246.4948
266.7200, 246.9160
267.2021, 246.8163
267.6843, 246.2921
268.1664, 246.3838
268.6485, 247.3477
269.1306, 248.3883
269.6127, 248.7429
270.0948, 248.2173
270.5770, 247.8605
271.0591, 247.8681
271.5412, 248.1687
272.0233, 248.4349
272.5054, 248.6370
272.9875, 248.8626
273.4697, 249.1638
273.9518, 249.5414
274.4339, 250.0180
274.9160, 250.6418
275.3981, 251.3383
275.8802, 251.9439
276.3624, 252.4903
276.8445, 252.7896
277.3266, 252.5373
277.8087, 251.6653
278.2908, 251.3538
278.7729, 251.8701
279.2551, 252.7989
279.7372, 253.1330
280.2193, 252.7893
280.7014, 252.4030
281.1835, 252.3741
281.6656, 252.6950
282.1478, 252.7691
282.6299, 252.4932
283.1120, 252.1227
283.5941, 252.1535
284.0762, 252.6085
284.5583, 253.0005
285.0405, 253.0481
285.5226, 252.7966
286.0047, 252.6523
286.4868, 252.6149
286.9689, 252.6920
287.4510, 252.9495
287.9332, 253.3765
288.4153, 253.7700
288.8974, 254.0777
289.3795, 254.2856
289.8616, 254.2991
290.3438, 254.1015
290.8259, 253.8204
291.3080, 253.5518
291.7901, 253.3064
292.2722, 253.1450
292.7543, 253.1618
293.2365, 253.2433
293.7186, 253.0258
294.2007, 252.5046
294.6828, 252.0878
295.1649, 252.2547
295.6470, 252.8456
296.1292, 253.3381
296.6113, 253.5728
297.0934, 253.6635
297.5755, 253.8485
298.0576, 254.1060
298.5397, 254.1972
299.0219, 253.7329
299.5040, 252.9907
299.9861, 252.6069
300.4682, 252.8000
300.9503, 253.1974
301.4324, 253.3718
301.9146, 253.3661
302.3967, 253.3612
302.8788, 253.4483
303.3609, 253.6131
303.8430, 253.8664
304.3251, 254.2447
304.8073, 254.5753
305.2894, 254.5494
305.7715, 254.3352
306.2536, 254.3449
306.7357, 254.9322
307.2178, 255.7706
307.7000, 256.5560
308.1821, 257.2652
308.6642, 257.8789
309.1463, 258.4421
309.6284, 258.8856
310.1105, 259.1096
310.5927, 258.9514
311.0748, 258.6385
311.5569, 258.1393
312.0390, 257.4709
312.5211, 257.2464
313.0032, 258.2457
313.4854, 259.7072
313.9675, 260.8094
314.4496, 261.1518
314.9317, 261.1933
315.4138, 261.0727
315.8959, 260.8113
316.3781, 260.5233
316.8602, 260.0184
317.3423, 259.6507
317.8244, 259.7112
318.3065, 260.6131
318.7886, 261.4514
319.2708, 261.8526
319.7529, 261.9490
320.2350, 262.1157
320.7171, 262.7507
321.1992, 263.2605
321.6813, 263.2555
322.1635, 262.2845
322.6456, 261.7108
323.1277, 262.1216
323.6098, 263.0362
324.0919, 263.6543
324.5740, 263.5535
325.0562, 263.3996
325.5383, 263.3935
326.0204, 263.5800
326.5025, 263.7733
326.9846, 264.1595
327.4667, 264.4697
327.9489, 264.4178
328.4310, 263.2417
328.9131, 262.5719
329.3952, 262.9811
329.8773, 264.5172
330.3594, 265.1840
330.8416, 264.3327
331.3237, 263.1594
331.8058, 262.5225
332.2879, 262.8159
332.7700, 262.9666
333.2521, 262.8068
333.7343, 262.4194
334.2164, 262.2108
334.6985, 262.2167
335.1806, 262.3418
335.6627, 262.5566
336.1448, 262.9015
336.6270, 263.2203
337.1091, 263.5752
337.5912, 263.8484
338.0733, 263.6872
338.5554, 262.8847
339.0375, 262.3316
339.5197, 262.5169
340.0018, 263.4979
340.4839, 264.1160
340.9660, 264.2980
341.4481, 264.2519
341.9302, 264.2088
342.4124, 264.1671
342.8945, 264.1348
343.3766, 264.1491
343.8587, 264.1720
344.3408, 263.9836
344.8229, 263.5540
345.3051, 263.1183
345.7872, 262.9096
346.2693, 262.8986
346.7514, 262.8784
347.2335, 262.7867
347.7156, 262.6953
348.1978, 262.8131
348.6799, 263.1203
349.1620, 263.3410
349.6441, 263.2630
350.1262, 262.9669
350.6083, 262.6066
351.0905, 262.1695
351.5726, 261.7798
352.0547, 261.5867
352.5368, 261.5593
353.0189, 261.6041
353.5010, 261.6246
353.9832, 261.7130
354.4653, 262.1362
354.9474, 262.9294
355.4295, 263.4439
355.9116, 262.7683
356.3937, 261.5653
356.8759, 260.8409
357.3580, 261.4810
357.8401, 262.2808
358.3222, 262.2585
358.8043, 261.5675
359.2864, 261.1253
359.7686, 261.7106
360.2507, 262.6037
360.7328, 263.1576
361.2149, 262.9886
361.6970, 262.8751
362.1791, 263.2471
362.6613, 263.9026
363.1434, 264.3797
363.6255, 264.5030
364.1076, 264.4327
364.5897, 264.1516
365.0718, 263.5135
365.5540, 263.1888
366.0361, 263.4909
366.5182, 264.1037
367.0003, 264.6487
367.4824, 265.3935
367.9645, 265.7530
368.4467, 265.3958
368.9288, 264.2840
369.4109, 263.5751
369.8930, 263.3108
370.3751, 263.4250
370.8572, 263.9372
371.3394, 265.4227
371.8215, 266.3224
372.3036, 266.3593
372.7857, 265.7337
373.2678, 265.0946
373.7499, 264.2190
374.2321, 263.7095
374.7142, 264.0238
375.1963, 265.5274
375.6784, 266.2086
376.1605, 265.7649
376.6426, 264.8703
377.1248, 264.6158
377.6069, 265.1017
378.0890, 265.5941
378.5711, 265.8677
379.0532, 265.9442
379.5353, 265.9247
380.0175, 265.7843
380.4996, 265.6772
380.9817, 265.8360
381.4638, 266.2127
381.9459, 266.4053
382.4280, 266.3278
382.9102, 266.0242
383.3923, 265.3766
383.8744, 264.4377
384.3565, 263.8225
384.8386, 264.3224
385.3207, 265.3648
385.8029, 265.6957
386.2850, 265.1120
386.7671, 264.2578
387.2492, 263.7828
387.7313, 263.5418
388.2134, 263.2137
388.6956, 262.5074
389.1777, 261.7521
389.6598, 261.2753
390.1419, 261.0717
390.6240, 260.8937
391.1061, 260.6609
391.5883, 260.3481
392.0704, 259.9255
392.5525, 259.3530
393.0346, 258.7218
393.5167, 258.0118
393.9988, 257.2635
394.4810, 256.5788
394.9631, 256.0044
395.4452, 255.4937
395.9273, 255.0211
396.4094, 254.5748
396.8915, 254.1920
397.3737, 254.0427
397.8558, 253.9030
398.3379, 253.4972
398.8200, 252.5622
399.3021, 251.5990
399.7842, 250.6074
400.2664, 249.5869
400.7485, 248.8965
401.2306, 248.8814
401.7127, 248.8620
402.1948, 248.3417
402.6769, 246.8430
403.1591, 245.9274
403.6412, 246.0017
404.1233, 246.5656
404.6054, 246.2400
405.0875, 244.6598
405.5696, 243.2881
406.0518, 242.9220
406.5339, 243.6107
407.0160, 243.4855
407.4981, 242.3528
407.9802, 240.9716
408.4623, 240.2224
408.9445, 240.0970
409.4266, 240.1360
409.9087, 240.3285
410.3908, 240.5270
410.8729, 240.2635
411.3550, 239.5554
411.8372, 238.9219
412.3193, 238.8671
412.8014, 239.1485
413.2835, 239.1205
413.7656, 238.6096
414.2477, 238.1341
414.7299, 238.4578
415.2120, 239.2646
415.6941, 239.7901
416.1762, 239.2695
416.6583, 238.5686
417.1404, 238.5992
417.6226, 239.3419
418.1047, 239.9207
418.5868, 239.6534
419.0689, 239.0578
419.5510, 238.6296
420.0331, 238.6369
420.5153, 238.6492
420.9974, 238.4438
421.4795, 238.1192
421.9616, 237.9315
422.4437, 238.0031
422.9258, 238.1817
423.4080, 238.4492
423.8901, 238.8796
424.3722, 239.1491
424.8543, 239.1782
425.3364, 239.0693
425.8185, 238.9193
426.3007, 238.7224
426.7828, 238.4919
427.2649, 238.2023
427.7470, 237.8723
428.2291, 237.5866
428.7112, 237.2393
429.1934, 237.1209
429.6755, 237.5278
430.1576, 238.6636
430.6397, 239.2058
431.1218, 238.9731
431.6039, 238.3704
432.0861, 237.9936
432.5682, 237.8520
433.0503, 237.8136
433.5324, 237.7867
434.0145, 237.8364
434.4966, 238.2018
434.9788, 238.8884
435.4609, 239.7830
435.9430, 241.2229
436.4251, 242.8244
436.9072, 243.3704
437.3893, 242.3617
437.8715, 240.9879
438.3536, 240.4843
438.8357, 240.7030
439.3178, 241.2310
439.7999, 242.1665
440.2820, 243.1193
440.7642, 243.6922
441.2463, 243.8649
441.7284, 243.9419
442.2105, 244.0246
442.6926, 244.1201
443.1747, 244.2289
443.6569, 244.1679
444.1390, 244.3366
444.6211, 245.0290
445.1032, 246.0679
445.5853, 246.9198
446.0674, 247.3094
446.5496, 247.6631
447.0317, 248.1694
447.5138, 248.9379
447.9959, 249.5337
448.4780, 249.8510
448.9601, 250.0842
449.4423, 250.4580
449.9244, 251.1616
450.4065, 251.5987
450.8886, 251.5779
451.3707, 251.2315
451.8528, 251.0749
452.3350, 251.0676
452.8171, 251.3722
453.2992, 252.2904
453.7813, 253.8367
454.2634, 254.6781
454.7455, 254.6443
455.2277, 254.3661
455.7098, 254.7250
456.1919, 255.6199
456.6740, 256.3990
457.1561, 256.8041
457.6382, 256.9915
458.1204, 257.1530
458.6025, 257.3040
459.0846, 257.5360
459.5667, 257.9764
460.0488, 258.5162
460.5309, 259.0616
461.0131, 259.6387
461.4952, 260.0383
461.9773, 259.8983
462.4594, 259.5310
462.9415, 259.3909
463.4236, 260.0036
463.9058, 260.5486
464.3879, 260.5765
464.8700, 260.1419
465.3521, 259.8352
465.8342, 259.8139
466.3163, 259.9455
466.7985, 260.1774
467.2806, 260.6537
467.7627, 260.9470
468.2448, 260.9070
468.7269, 260.7385
469.2090, 260.7340
469.6912, 260.9737
470.1733, 261.2289
470.6554, 261.4357
471.1375, 261.6060
471.6196, 261.8818
472.1017, 262.3084
472.5839, 262.7118
473.0660, 262.9983
473.5481, 263.1667
474.0302, 263.1733
474.5123, 262.9674
474.9944, 262.7366
475.4766, 262.7808
475.9587, 263.0688
476.4408, 263.3880
476.9229, 263.6446
477.4050, 263.8901
477.8871, 264.2689
478.3693, 264.7584
478.8514, 265.1326
479.3335, 264.9363
479.8156, 264.6622
480.2977, 264.9914
480.7798, 266.2250
481.2620, 267.4221
481.7441, 267.9984
482.2262, 268.1925
482.7083, 268.3575
483.1904, 268.3889
483.6725, 268.6168
484.1547, 269.3312
484.6368, 270.4725
485.1189, 271.2907
485.6010, 271.7165
486.0831, 271.7533
486.5652, 271.3904
487.0474, 270.4560
487.5295, 269.4568
488.0116, 268.2586
488.4937, 267.1062
488.9758, 266.3567
489.4579, 266.1050
489.9401, 265.9846
490.4222, 265.9810
490.9043, 266.0304
491.3864, 265.8526
491.8685, 265.4468
492.3506, 264.8015
492.8328, 263.6668
493.3149, 262.2289
493.7970, 261.3860
494.2791, 261.2684
494.7612, 261.4281
495.2433, 261.6120
495.7255, 261.6823
496.2076, 261.2666
496.6897, 259.8753
497.1718, 258.2922
497.6539, 257.2011
498.1360, 256.5590
498.6182, 256.1789
499.1003, 256.3329
499.5824, 256.4674
500.0645, 256.0788
500.5466, 254.9211
501.0287, 254.0920
501.5109, 254.1838
501.9930, 254.6295
502.4751, 254.8634
502.9572, 254.6026
503.4393, 254.3757
503.9214, 254.2952
504.4036, 254.2939
504.8857, 254.0949
505.3678, 253.4524
505.8499, 253.0491
506.3320, 253.3622
506.8141, 254.5005
507.2963, 254.6081
507.7784, 253.4101
508.2605, 251.9136
508.7426, 251.0868
509.2247, 250.9023
509.7068, 250.9600
510.1890, 251.2145
510.6711, 251.6212
511.1532, 252.3644
511.6353, 253.2931
512.1174, 253.6802
512.5995, 252.6045
513.0817, 251.0763
513.5638, 250.3427
514.0459, 250.4062
514.5280, 250.6392
515.0101, 250.8528
515.4922, 250.9441
515.9744, 250.7889
516.4565, 250.2145
516.9386, 249.6911
517.4207, 249.3518
517.9028, 249.1674
518.3849, 249.0886
518.8671, 249.3279
519.3492, 249.4310
519.8313, 249.1533
520.3134, 248.5471
520.7955, 248.4141
521.2776, 249.0115
521.7598, 249.6986
522.2419, 250.1274
522.7240, 250.2740
523.2061, 250.2800
523.6882, 250.1201
524.1703, 249.8735
524.6525, 249.6238
525.1346, 249.3728
525.6167, 249.1613
526.0988, 249.0318
526.5809, 248.9200
527.0630, 248.6083
527.5452, 248.1614
528.0273, 247.9287
528.5094, 248.3789
528.9915, 249.0173
529.4736, 249.2377
529.9557, 248.9831
530.4379, 248.7050
530.9200, 248.8381
531.4021, 248.9967
531.8842, 248.7721
532.3663, 247.5763
532.8484, 246.6870
533.3306, 246.6746
533.8127, 247.1647
534.2948, 247.3692
534.7769, 246.9250
535.2590, 246.5420
535.7411, 246.4455
536.2233, 246.6226
536.7054, 246.5365
537.1875, 246.1252
537.6696, 245.5823
538.1517, 244.9937
538.6339, 244.3578
539.1160, 243.7917
539.5981, 243.3008
540.0802, 242.8975
540.5623, 242.5957
541.0444, 242.3897
541.5266, 242.2476
542.0087, 242.1969
542.4908, 242.1578
542.9729, 241.8646
543.4550, 241.4352
543.9371, 241.3328
544.4193, 242.2825
544.9014, 243.3595
545.3835, 243.6876
545.8656, 243.1532
546.3477, 242.7036
546.8298, 242.9406
547.3120, 243.3021
547.7941, 243.3142
548.2762, 242.3227
548.7583, 241.7765
549.2404, 242.1339
549.7225, 242.8911
550.2047, 243.1691
550.6868, 242.6825
551.1689, 242.2646
551.6510, 242.1239
552.1331, 242.2280
552.6152, 242.4475
553.0974, 242.8480
553.5795, 243.0535
554.0616, 242.6158
554.5437, 241.7002
555.0258, 241.3320
555.5079, 241.6268
555.9901, 242.0540
556.4722, 242.0523
556.9543, 241.7753
557.4364, 241.5456
557.9185, 241.4992
558.4006, 241.4562
558.8828, 241.1753
559.3649, 240.7825
559.8470, 240.5662
560.3291, 240.5248
560.8112, 240.7827
561.2933, 241.6738
561.7755, 243.2044
562.2576, 244.0379
562.7397, 243.3779
563.2218, 242.4510
563.7039, 241.8134
564.1860, 241.4736
564.6682, 241.4473
565.1503, 241.8958
565.6324, 242.4630
566.1145, 242.6646
566.5966, 242.4681
567.0787, 242.2690
567.5609, 242.1647
568.0430, 242.1015
568.5251, 241.9602
569.0072, 241.7492
569.4893, 241.5273
569.9714, 241.1662
570.4536, 240.8856
570.9357, 241.0772
571.4178, 241.7188
571.8999, 242.4088
572.3820, 243.0734
572.8641, 243.5558
573.3463, 243.6350
573.8284, 243.0576
574.3105, 242.6640
574.7926, 242.8770
575.2747, 243.3469
575.7568, 243.6335
576.2390, 243.6344
576.7211, 243.5307
577.2032, 243.2500
577.6853, 242.8858
578.1674, 242.7651
578.6495, 242.9144
579.1317, 243.2463
579.6138, 243.8568
580.0959, 244.6685
580.5780, 244.9723
581.0601, 244.7400
581.5422, 244.3488
582.0244, 244.0468
582.5065, 243.8354
582.9886, 243.6919
583.4707, 243.5889
583.9528, 243.6770
584.4349, 244.3182
584.9171, 245.1799
585.3992, 245.7664
585.8813, 245.7374
586.3634, 245.5773
586.8455, 245.3253
587.3276, 245.0777
587.8098, 245.1154
588.2919, 245.8280
588.7740, 246.4890
589.2561, 246.9074
589.7382, 247.0808
590.2203, 247.0364
590.7025, 246.5877
591.1846, 246.2546
591.6667, 246.5259
592.1488, 247.4808
592.6309, 247.7825
593.1130, 247.2412
593.5952, 246.6001
594.0773, 246.9783
594.5594, 248.0805
595.0415, 248.6888
595.5236, 248.2932
596.0057, 247.6909
596.4879, 247.8194
596.9700, 248.4353
597.4521, 248.9677
597.9342, 249.0740
598.4163, 249.0933
598.8984, 249.1741
599.3806, 249.3238
599.8627, 249.5524
600.3448, 250.1988
600.8269, 250.6277
601.3090, 250.4390
601.7911, 249.3380
602.2733, 248.8047
602.7554, 249.0507
603.2375, 249.5645
603.7196, 249.8838
604.2017, 249.9946
604.6838, 250.1062
605.1660, 250.2806
605.6481, 250.3845
606.1302, 250.0121
606.6123, 249.3135
607.0944, 248.9914
607.5765, 249.4275
608.0587, 250.2424
608.5408, 251.2380
609.0229, 252.2897
609.5050, 252.9898
609.9871, 252.8916
610.4692, 252.5517
610.9514, 252.2378
611.4335, 251.9621
611.9156, 251.8252
612.3977, 251.9364
612.8798, 252.1243
613.3619, 252.2870
613.8441, 252.4068
614.3262, 252.5433
614.8083, 252.6695
615.2904, 252.8530
615.7725, 253.2156
616.2546, 253.7735
616.7368, 254.2740
617.2189, 254.6904
617.7010, 255.0041
618.1831, 255.0773
618.6652, 254.9871
619.1473, 255.0458
619.6295, 255.5079
620.1116, 256.1223
620.5937, 256.7149
621.0758, 257.2592
621.5579, 257.6425
622.0400, 257.4912
622.5222, 257.4030
623.0043, 257.7887
623.4864, 258.7927
623.9685, 259.6379
624.4506, 259.9222
624.9327, 260.2950
625.4149, 261.2787
625.8970, 263.2579
626.3791, 264.6094
626.8612, 265.1198
627.3433, 265.2596
627.8254, 265.6427
628.3076, 266.2622
628.7897, 266.9956
629.2718, 267.8877
629.7539, 268.7597
630.2360, 269.1706
630.7181, 269.2879
631.2003, 269.6369
631.6824, 270.6078
632.1645, 271.8198
632.6466, 273.1560
633.1287, 274.5503
633.6108, 275.5538
634.0930, 275.4073
634.5751, 275.3546
635.0572, 276.1671
635.5393, 278.1511
636.0214, 279.5471
636.5035, 280.1606
636.9857, 280.4221
637.4678, 280.5076
637.9499, 280.3098
638.4320, 280.8091
638.9141, 282.2369
639.3962, 283.8639
639.8784, 284.5936
640.3605, 284.6307
640.8426, 284.9280
641.3247, 285.8843
641.8068, 286.9484
642.2889, 287.5451
642.7711, 287.7944
643.2532, 287.9823
643.7353, 288.0529
644.2174, 288.2626
644.6995, 288.7393
645.1816, 289.4703
645.6638, 290.3511
646.1459, 291.6295
646.6280, 292.7788
647.1101, 293.5709
647.5922, 293.9669
648.0743, 294.5654
648.5565, 295.3820
649.0386, 296.3431
649.5207, 297.4781
650.0028, 298.7387
650.4849, 299.6360
650.9670, 300.0722
651.4492, 300.5102
651.9313, 301.5435
652.4134, 302.9083
652.8955, 304.0938
653.3776, 304.9749
653.8597, 305.6975
654.3419, 306.2075
654.8240, 306.6623
655.3061, 307.2952
655.7882, 308.5127
656.2703, 309.5296
656.7524, 309.9370
657.2346, 310.0253
657.7167, 310.6865
658.1988, 312.1523
658.6809, 313.6887
659.1630, 315.1190
659.6451, 316.4189
660.1273, 317.4369
660.6094, 318.1771
661.0915, 318.7001
661.5736, 318.8594
662.0557, 318.8854
662.5378, 319.2239
663.0200, 319.8947
663.5021, 320.7824
663.9842, 321.9965
664.4663, 323.2828
664.9484, 324.3879
665.4305, 325.2390
665.9127, 326.0199
