##NAMES=Magnesiotaaffeite-2N2S
##RRUFFID=R090035
##IDEAL CHEMISTRY=Mg_3_BeAl_8_O_16_
##LOCALITY=Ratnapura District, Sri-Lanka
##OWNER=RRUFF
##SOURCE=William W. Pinch
##DESCRIPTION=Rounded hexagonal purple crystal with pyramidal terminations
##STATUS=The identification of this mineral has been confirmed by single-crystal X-ray diffraction.
##URL=rruff.info/R090035
91.11523, 444.4232
91.59735, 444.0993
92.07947, 444.3658
92.56158, 445.0674
93.04370, 445.7164
93.52582, 445.9144
94.00793, 445.8700
94.49006, 446.1345
94.97218, 446.9149
95.45429, 447.6700
95.93641, 447.5125
96.41853, 446.4561
96.90064, 445.0503
97.38276, 443.4168
97.86488, 441.6239
98.34699, 440.3938
98.82911, 439.9239
99.31123, 440.0588
99.79334, 440.3366
100.2755, 440.7617
100.7576, 441.3063
101.2397, 441.8255
101.7218, 442.1986
102.2039, 443.2630
102.6861, 445.7676
103.1682, 449.6939
103.6503, 450.9058
104.1324, 448.2355
104.6145, 444.1573
105.0966, 441.4738
105.5788, 440.2607
106.0609, 440.3974
106.5430, 442.2406
107.0251, 446.6635
107.5072, 449.6928
107.9893, 450.5410
108.4715, 450.2059
108.9536, 450.4820
109.4357, 451.5709
109.9178, 453.0977
110.3999, 454.9375
110.8820, 456.8022
111.3642, 459.4225
111.8463, 462.6752
112.3284, 466.6912
112.8105, 471.8274
113.2926, 479.4772
113.7747, 487.4308
114.2569, 494.4688
114.7390, 498.4904
115.2211, 503.8434
115.7032, 511.9131
116.1853, 522.3112
116.6674, 533.0168
117.1496, 542.5861
117.6317, 552.6846
118.1138, 564.5875
118.5959, 578.6385
119.0780, 594.7098
119.5602, 612.6907
120.0423, 632.7295
120.5244, 654.6946
121.0065, 679.6926
121.4886, 706.3561
121.9707, 732.9962
122.4529, 758.1865
122.9350, 783.2094
123.4171, 809.6318
123.8992, 837.7045
124.3813, 864.7645
124.8634, 889.0977
125.3456, 910.8074
125.8277, 930.2079
126.3098, 944.7433
126.7919, 957.6784
127.2740, 974.0436
127.7561, 994.6849
128.2383, 1016.958
128.7204, 1036.465
129.2025, 1054.157
129.6846, 1075.017
130.1667, 1103.546
130.6488, 1137.523
131.1310, 1171.799
131.6131, 1205.510
132.0952, 1239.702
132.5773, 1276.686
133.0594, 1316.672
133.5415, 1356.983
134.0237, 1395.833
134.5058, 1433.544
134.9879, 1472.654
135.4700, 1515.289
135.9521, 1558.824
136.4343, 1595.719
136.9164, 1625.147
137.3985, 1651.723
137.8806, 1680.441
138.3627, 1712.436
138.8448, 1740.004
139.3270, 1762.049
139.8091, 1778.807
140.2912, 1791.041
140.7733, 1797.336
141.2554, 1801.805
141.7375, 1808.346
142.2197, 1817.182
142.7018, 1827.683
143.1839, 1839.641
143.6660, 1852.951
144.1481, 1868.308
144.6302, 1885.193
145.1124, 1904.467
145.5945, 1927.017
146.0766, 1954.468
146.5587, 1983.156
147.0408, 2012.479
147.5230, 2042.699
148.0051, 2071.710
148.4872, 2091.320
148.9693, 2097.041
149.4514, 2099.179
149.9335, 2094.670
150.4157, 2090.168
150.8978, 2087.848
151.3799, 2089.649
151.8620, 2089.597
152.3441, 2086.634
152.8262, 2082.048
153.3084, 2078.266
153.7905, 2077.360
154.2726, 2075.675
154.7547, 2071.830
155.2368, 2065.009
155.7189, 2057.334
156.2011, 2047.166
156.6832, 2036.056
157.1653, 2028.212
157.6474, 2028.293
158.1295, 2028.956
158.6116, 2026.488
159.0938, 2019.184
159.5759, 2010.241
160.0580, 1997.802
160.5401, 1983.630
161.0222, 1973.891
161.5044, 1974.928
161.9865, 1978.476
162.4686, 1978.833
162.9507, 1971.270
163.4328, 1964.071
163.9149, 1960.807
164.3971, 1960.817
164.8792, 1961.045
165.3613, 1960.410
165.8434, 1959.207
166.3255, 1957.688
166.8076, 1955.275
167.2898, 1953.188
167.7719, 1952.718
168.2540, 1953.622
168.7361, 1953.648
169.2182, 1950.569
169.7003, 1946.152
170.1825, 1942.503
170.6646, 1940.223
171.1467, 1939.085
171.6288, 1939.617
172.1109, 1941.709
172.5931, 1942.982
173.0752, 1940.595
173.5573, 1936.353
174.0394, 1933.186
174.5215, 1933.859
175.0036, 1935.371
175.4858, 1933.938
175.9679, 1929.436
176.4500, 1924.843
176.9321, 1922.929
177.4142, 1922.823
177.8963, 1922.568
178.3785, 1921.133
178.8606, 1919.094
179.3427, 1917.785
179.8248, 1917.370
180.3069, 1916.135
180.7890, 1910.519
181.2712, 1902.177
181.7533, 1896.485
182.2354, 1899.113
182.7175, 1905.769
183.1996, 1906.303
183.6818, 1899.629
184.1639, 1891.283
184.6460, 1887.956
185.1281, 1888.824
185.6102, 1889.421
186.0923, 1886.872
186.5745, 1882.272
187.0566, 1879.409
187.5387, 1878.712
188.0208, 1878.686
188.5029, 1877.043
188.9850, 1873.950
189.4672, 1871.176
189.9493, 1869.484
190.4314, 1868.848
190.9135, 1869.416
191.3956, 1871.698
191.8777, 1873.958
192.3599, 1873.017
192.8420, 1868.859
193.3241, 1864.689
193.8062, 1862.090
194.2883, 1860.938
194.7704, 1860.347
195.2526, 1860.309
195.7347, 1860.631
196.2168, 1861.268
196.6989, 1862.265
197.1810, 1862.586
197.6632, 1861.349
198.1453, 1858.529
198.6274, 1856.149
199.1095, 1854.483
199.5916, 1853.052
200.0737, 1850.799
200.5559, 1847.608
201.0380, 1844.419
201.5201, 1841.697
202.0022, 1839.449
202.4843, 1837.674
202.9664, 1836.375
203.4486, 1835.625
203.9307, 1835.922
204.4128, 1837.697
204.8949, 1838.902
205.3770, 1838.206
205.8591, 1835.326
206.3413, 1832.359
206.8234, 1828.902
207.3055, 1825.744
207.7876, 1825.599
208.2697, 1829.650
208.7519, 1833.025
209.2340, 1832.432
209.7161, 1826.637
210.1982, 1823.168
210.6803, 1823.179
211.1624, 1825.315
211.6446, 1825.586
212.1267, 1823.102
212.6088, 1820.998
213.0909, 1821.424
213.5730, 1825.585
214.0551, 1827.637
214.5373, 1826.668
215.0194, 1823.738
215.5015, 1821.896
215.9836, 1821.707
216.4657, 1821.498
216.9478, 1820.048
217.4300, 1816.365
217.9121, 1814.791
218.3942, 1816.446
218.8763, 1819.949
219.3584, 1821.057
219.8405, 1818.468
220.3227, 1815.741
220.8048, 1814.838
221.2869, 1816.703
221.7690, 1817.513
222.2511, 1816.731
222.7333, 1814.924
223.2154, 1813.894
223.6975, 1814.302
224.1796, 1814.408
224.6617, 1813.205
225.1438, 1809.906
225.6260, 1807.485
226.1081, 1805.997
226.5902, 1805.505
227.0723, 1806.359
227.5544, 1809.491
228.0365, 1812.573
228.5187, 1814.605
229.0008, 1815.583
229.4829, 1815.419
229.9650, 1813.694
230.4471, 1810.883
230.9292, 1808.227
231.4114, 1805.574
231.8935, 1803.129
232.3756, 1800.947
232.8577, 1798.814
233.3398, 1797.240
233.8220, 1796.239
234.3041, 1795.754
234.7862, 1795.860
235.2683, 1797.406
235.7504, 1798.263
236.2325, 1797.347
236.7147, 1793.634
237.1968, 1790.997
237.6789, 1789.790
238.1610, 1789.611
238.6431, 1789.684
239.1252, 1790.724
239.6074, 1791.026
240.0895, 1789.628
240.5716, 1785.375
241.0537, 1782.921
241.5358, 1782.875
242.0179, 1784.323
242.5001, 1785.485
242.9822, 1786.087
243.4643, 1786.764
243.9464, 1787.817
244.4285, 1789.524
244.9106, 1790.482
245.3928, 1790.555
245.8749, 1789.880
246.3570, 1788.547
246.8391, 1785.733
247.3212, 1783.605
247.8034, 1782.971
248.2855, 1784.176
248.7676, 1785.499
249.2497, 1787.159
249.7318, 1788.826
250.2139, 1790.013
250.6961, 1790.729
251.1782, 1791.010
251.6603, 1790.614
252.1424, 1789.237
252.6245, 1789.385
253.1066, 1792.139
253.5888, 1795.489
254.0709, 1796.600
254.5530, 1794.109
255.0351, 1792.163
255.5172, 1791.985
255.9993, 1793.746
256.4815, 1795.347
256.9636, 1796.850
257.4457, 1798.083
257.9278, 1798.725
258.4099, 1798.280
258.8921, 1798.378
259.3742, 1799.594
259.8563, 1801.941
260.3384, 1803.814
260.8205, 1805.186
261.3026, 1806.103
261.7848, 1806.304
262.2669, 1805.012
262.7490, 1805.195
263.2311, 1807.663
263.7132, 1812.299
264.1953, 1817.243
264.6775, 1822.535
265.1596, 1828.008
265.6417, 1833.715
266.1238, 1839.983
266.6059, 1845.216
267.0880, 1848.769
267.5702, 1850.975
268.0523, 1853.736
268.5344, 1856.935
269.0165, 1861.031
269.4986, 1866.598
269.9807, 1874.024
270.4629, 1881.402
270.9450, 1888.289
271.4271, 1895.020
271.9092, 1902.875
272.3913, 1912.262
272.8734, 1921.590
273.3556, 1930.523
273.8377, 1939.546
274.3198, 1944.401
274.8019, 1943.710
275.2840, 1939.340
275.7661, 1936.186
276.2483, 1934.297
276.7304, 1933.408
277.2125, 1933.198
277.6946, 1933.587
278.1768, 1936.100
278.6589, 1941.467
279.1410, 1948.192
279.6231, 1953.133
280.1052, 1956.134
280.5873, 1958.816
281.0695, 1963.088
281.5516, 1968.909
282.0337, 1969.919
282.5158, 1965.307
282.9979, 1957.261
283.4800, 1948.417
283.9622, 1938.678
284.4443, 1929.843
284.9264, 1923.216
285.4085, 1918.502
285.8906, 1912.436
286.3727, 1904.713
286.8549, 1896.640
287.3370, 1889.732
287.8191, 1883.964
288.3012, 1879.025
288.7833, 1875.088
289.2654, 1871.932
289.7476, 1868.467
290.2297, 1864.600
290.7118, 1861.275
291.1939, 1859.105
291.6760, 1858.225
292.1581, 1859.400
292.6403, 1863.745
293.1224, 1869.845
293.6045, 1874.458
294.0866, 1877.550
294.5687, 1880.332
295.0508, 1883.795
295.5330, 1887.802
296.0151, 1892.107
296.4972, 1897.645
296.9793, 1902.338
297.4614, 1901.996
297.9435, 1897.029
298.4257, 1890.636
298.9078, 1885.213
299.3899, 1880.047
299.8720, 1873.328
300.3541, 1863.795
300.8362, 1854.506
301.3184, 1849.365
301.8005, 1847.771
302.2826, 1847.453
302.7647, 1847.113
303.2469, 1847.158
303.7290, 1848.071
304.2111, 1849.820
304.6932, 1852.784
305.1753, 1858.899
305.6574, 1866.632
306.1396, 1872.137
306.6217, 1873.092
307.1038, 1871.112
307.5859, 1867.645
308.0680, 1862.713
308.5501, 1856.838
309.0323, 1849.739
309.5144, 1842.051
309.9965, 1834.822
310.4786, 1828.203
310.9607, 1822.322
311.4428, 1817.082
311.9250, 1812.529
312.4071, 1809.196
312.8892, 1807.158
313.3713, 1806.691
313.8534, 1808.124
314.3355, 1814.659
314.8177, 1820.294
315.2998, 1821.029
315.7819, 1817.743
316.2640, 1815.143
316.7461, 1816.542
317.2282, 1818.755
317.7104, 1819.338
318.1925, 1817.053
318.6746, 1814.096
319.1567, 1811.026
319.6388, 1807.803
320.1209, 1804.414
320.6031, 1801.232
321.0852, 1797.601
321.5673, 1793.042
322.0494, 1787.011
322.5315, 1781.218
323.0136, 1775.687
323.4958, 1770.689
323.9779, 1766.654
324.4600, 1763.328
324.9421, 1761.309
325.4242, 1761.449
325.9064, 1764.643
326.3885, 1766.164
326.8706, 1764.993
327.3527, 1762.256
327.8348, 1759.127
328.3170, 1754.607
328.7991, 1750.781
329.2812, 1748.028
329.7633, 1746.328
330.2454, 1745.137
330.7275, 1745.143
331.2097, 1745.044
331.6918, 1743.753
332.1739, 1739.308
332.6560, 1736.851
333.1381, 1737.737
333.6202, 1741.100
334.1024, 1742.814
334.5845, 1742.060
335.0666, 1740.815
335.5487, 1740.054
336.0308, 1739.859
336.5129, 1740.145
336.9951, 1741.582
337.4772, 1743.107
337.9593, 1742.020
338.4414, 1737.094
338.9235, 1733.291
339.4056, 1733.057
339.8878, 1736.747
340.3699, 1739.485
340.8520, 1741.107
341.3341, 1742.152
341.8162, 1742.935
342.2983, 1743.283
342.7805, 1745.014
343.2626, 1748.851
343.7447, 1754.508
344.2268, 1760.665
344.7089, 1767.471
345.1910, 1773.973
345.6732, 1778.386
346.1553, 1781.170
346.6374, 1786.284
347.1195, 1795.963
347.6016, 1806.759
348.0837, 1811.161
348.5659, 1809.500
349.0480, 1806.461
349.5301, 1805.714
350.0122, 1806.095
350.4944, 1804.757
350.9765, 1801.476
351.4586, 1796.191
351.9407, 1787.528
352.4228, 1776.516
352.9049, 1766.510
353.3871, 1758.815
353.8692, 1753.289
354.3513, 1750.154
354.8334, 1749.473
355.3155, 1749.695
355.7976, 1749.119
356.2798, 1748.656
356.7619, 1749.787
357.2440, 1754.317
357.7261, 1759.597
358.2082, 1763.649
358.6903, 1766.616
359.1725, 1769.617
359.6546, 1773.545
360.1367, 1777.620
360.6188, 1781.000
361.1009, 1782.533
361.5830, 1784.788
362.0652, 1789.899
362.5473, 1796.639
363.0294, 1801.967
363.5115, 1802.950
363.9936, 1803.785
364.4757, 1806.646
364.9579, 1812.296
365.4400, 1818.409
365.9221, 1825.003
366.4042, 1831.719
366.8863, 1838.101
367.3684, 1844.141
367.8506, 1849.835
368.3327, 1854.856
368.8148, 1859.057
369.2969, 1864.395
369.7790, 1872.088
370.2611, 1880.105
370.7433, 1887.106
371.2254, 1893.055
371.7075, 1897.846
372.1896, 1900.803
372.6717, 1902.514
373.1538, 1905.554
373.6360, 1910.912
374.1181, 1915.929
374.6002, 1919.586
375.0823, 1922.314
375.5645, 1921.906
376.0466, 1917.430
376.5287, 1910.867
377.0108, 1905.482
377.4929, 1901.662
377.9750, 1897.689
378.4572, 1893.098
378.9393, 1887.915
379.4214, 1882.125
379.9035, 1875.568
380.3856, 1869.329
380.8677, 1864.885
381.3499, 1862.086
381.8320, 1858.862
382.3141, 1854.368
382.7962, 1849.585
383.2783, 1846.610
383.7604, 1845.365
384.2426, 1844.593
384.7247, 1843.007
385.2068, 1841.289
385.6889, 1841.308
386.1710, 1843.609
386.6531, 1846.177
387.1353, 1845.776
387.6174, 1843.832
388.0995, 1844.020
388.5816, 1849.666
389.0637, 1857.380
389.5458, 1863.333
390.0280, 1867.597
390.5101, 1873.137
390.9922, 1882.534
391.4743, 1894.026
391.9564, 1905.805
392.4385, 1917.157
392.9207, 1928.816
393.4028, 1940.397
393.8849, 1952.337
394.3670, 1966.112
394.8491, 1982.035
395.3312, 1999.976
395.8134, 2019.419
396.2955, 2039.184
396.7776, 2063.686
397.2597, 2095.144
397.7418, 2131.164
398.2239, 2168.948
398.7061, 2210.781
399.1882, 2251.348
399.6703, 2288.964
400.1524, 2323.538
400.6346, 2358.804
401.1167, 2395.331
401.5988, 2431.679
402.0809, 2466.797
402.5630, 2500.453
403.0451, 2533.541
403.5273, 2566.448
404.0094, 2598.464
404.4915, 2626.621
404.9736, 2649.316
405.4557, 2672.032
405.9378, 2696.535
406.4200, 2722.561
406.9021, 2752.566
407.3842, 2785.157
407.8663, 2824.190
408.3484, 2874.339
408.8305, 2935.926
409.3127, 3006.279
409.7948, 3083.689
410.2769, 3169.764
410.7590, 3270.061
411.2411, 3385.144
411.7232, 3506.071
412.2054, 3631.271
412.6875, 3759.284
413.1696, 3884.200
413.6517, 4010.294
414.1338, 4122.846
414.6159, 4212.585
415.0981, 4275.442
415.5802, 4298.738
416.0623, 4273.760
416.5444, 4206.493
417.0265, 4095.392
417.5086, 3940.392
417.9908, 3771.629
418.4729, 3598.986
418.9550, 3427.167
419.4371, 3263.737
419.9192, 3103.645
420.4013, 2958.338
420.8835, 2832.889
421.3656, 2726.357
421.8477, 2633.553
422.3298, 2557.094
422.8119, 2492.155
423.2940, 2436.282
423.7762, 2390.456
424.2583, 2351.748
424.7404, 2321.584
425.2225, 2298.366
425.7047, 2279.174
426.1868, 2261.802
426.6689, 2251.741
427.1510, 2251.112
427.6331, 2259.320
428.1152, 2269.288
428.5974, 2281.112
429.0795, 2294.760
429.5616, 2310.082
430.0437, 2326.543
430.5258, 2346.883
431.0079, 2371.931
431.4901, 2399.786
431.9722, 2427.441
432.4543, 2454.802
432.9364, 2481.978
433.4185, 2509.983
433.9006, 2537.584
434.3828, 2559.349
434.8649, 2575.405
435.3470, 2584.192
435.8291, 2584.351
436.3112, 2576.087
436.7933, 2559.776
437.2755, 2534.721
437.7576, 2503.477
438.2397, 2467.237
438.7218, 2427.288
439.2039, 2387.862
439.6860, 2349.243
440.1682, 2313.151
440.6503, 2282.175
441.1324, 2256.127
441.6145, 2234.247
442.0966, 2216.296
442.5787, 2202.118
443.0609, 2191.530
443.5430, 2182.710
444.0251, 2179.249
444.5072, 2184.192
444.9893, 2195.924
445.4714, 2208.605
445.9536, 2222.177
446.4357, 2235.474
446.9178, 2248.247
447.3999, 2261.159
447.8820, 2271.976
448.3641, 2285.031
448.8463, 2293.758
449.3284, 2290.849
449.8105, 2272.406
450.2926, 2249.705
450.7747, 2224.793
451.2569, 2197.084
451.7390, 2163.508
452.2211, 2122.399
452.7032, 2078.631
453.1853, 2033.947
453.6674, 1987.679
454.1496, 1945.035
454.6317, 1906.042
455.1138, 1870.165
455.5959, 1836.759
456.0780, 1805.693
456.5602, 1778.948
457.0423, 1758.289
457.5244, 1741.741
458.0065, 1724.997
458.4886, 1708.363
458.9707, 1693.365
459.4529, 1682.322
459.9350, 1673.410
460.4171, 1664.121
460.8992, 1653.646
461.3813, 1643.770
461.8634, 1636.036
462.3456, 1629.763
462.8277, 1623.957
463.3098, 1616.828
463.7919, 1611.172
464.2740, 1609.590
464.7561, 1611.718
465.2383, 1612.174
465.7204, 1606.505
466.2025, 1600.545
466.6846, 1598.041
467.1667, 1601.782
467.6488, 1605.102
468.1310, 1607.517
468.6131, 1609.310
469.0952, 1611.002
469.5773, 1612.771
470.0594, 1614.107
470.5415, 1614.602
471.0237, 1614.327
471.5058, 1615.292
471.9879, 1617.897
472.4700, 1620.895
472.9521, 1623.045
473.4342, 1624.255
473.9164, 1626.630
474.3985, 1630.211
474.8806, 1635.427
475.3627, 1644.184
475.8448, 1656.051
476.3270, 1666.561
476.8091, 1672.546
477.2912, 1676.320
477.7733, 1682.768
478.2554, 1691.703
478.7375, 1700.291
479.2197, 1704.508
479.7018, 1707.736
480.1839, 1715.126
480.6660, 1729.048
481.1481, 1743.274
481.6302, 1752.155
482.1124, 1758.793
482.5945, 1768.440
483.0766, 1785.050
483.5587, 1803.278
484.0408, 1821.216
484.5229, 1838.685
485.0051, 1855.551
485.4872, 1869.251
485.9693, 1884.192
486.4514, 1903.185
486.9335, 1931.481
487.4156, 1954.904
487.8978, 1972.480
488.3799, 1985.643
488.8620, 1996.868
489.3441, 2005.440
489.8262, 2014.241
490.3083, 2025.601
490.7905, 2038.301
491.2726, 2042.658
491.7547, 2038.066
492.2368, 2028.361
492.7189, 2016.487
493.2010, 2002.087
493.6832, 1983.324
494.1653, 1959.421
494.6474, 1932.825
495.1295, 1904.464
495.6116, 1875.383
496.0938, 1848.543
496.5759, 1826.465
497.0580, 1806.004
497.5401, 1783.578
498.0222, 1759.635
498.5044, 1737.616
498.9865, 1717.927
499.4686, 1701.644
499.9507, 1690.211
500.4328, 1684.907
500.9149, 1680.286
501.3971, 1673.598
501.8792, 1666.924
502.3613, 1662.649
502.8434, 1663.734
503.3255, 1664.264
503.8076, 1662.823
504.2898, 1659.908
504.7719, 1657.823
505.2540, 1656.574
505.7361, 1656.126
506.2182, 1656.979
506.7003, 1659.703
507.1825, 1659.906
507.6646, 1657.508
508.1467, 1652.787
508.6288, 1645.799
509.1109, 1636.565
509.5930, 1626.027
510.0752, 1614.224
510.5573, 1601.496
511.0394, 1588.014
511.5215, 1573.971
512.0037, 1560.507
512.4858, 1548.115
512.9679, 1536.747
513.4500, 1526.324
513.9321, 1516.836
514.4142, 1508.352
514.8964, 1501.260
515.3785, 1494.996
515.8606, 1488.982
516.3427, 1482.620
516.8248, 1477.168
517.3069, 1473.344
517.7891, 1470.724
518.2712, 1468.516
518.7533, 1466.117
519.2354, 1464.578
519.7175, 1465.180
520.1996, 1467.848
520.6818, 1467.498
521.1639, 1461.816
521.6460, 1455.959
522.1281, 1453.231
522.6102, 1454.721
523.0923, 1454.905
523.5745, 1453.197
524.0566, 1450.932
524.5387, 1450.123
525.0208, 1450.759
525.5029, 1451.584
525.9850, 1452.740
526.4672, 1453.404
526.9493, 1451.031
527.4314, 1445.957
527.9135, 1441.416
528.3956, 1439.419
528.8777, 1439.074
529.3599, 1439.503
529.8420, 1440.699
530.3241, 1441.683
530.8062, 1441.703
531.2883, 1441.220
531.7704, 1440.714
532.2526, 1439.657
532.7347, 1439.461
533.2168, 1440.954
533.6989, 1443.614
534.1810, 1446.247
534.6631, 1448.675
535.1453, 1451.051
535.6274, 1452.964
536.1095, 1454.381
536.5916, 1458.029
537.0737, 1465.697
537.5558, 1472.891
538.0380, 1476.196
538.5201, 1474.984
539.0022, 1474.079
539.4843, 1473.473
539.9664, 1473.880
540.4485, 1476.606
540.9307, 1481.457
541.4128, 1487.220
541.8949, 1494.119
542.3770, 1500.962
542.8591, 1505.760
543.3412, 1508.675
543.8234, 1511.008
544.3055, 1513.654
544.7876, 1516.000
545.2697, 1517.464
545.7518, 1517.978
546.2339, 1517.675
546.7161, 1516.258
547.1982, 1514.266
547.6803, 1512.153
548.1624, 1510.209
548.6445, 1507.971
549.1266, 1505.934
549.6088, 1503.528
550.0909, 1499.463
550.5730, 1492.390
551.0551, 1485.896
551.5372, 1480.957
552.0193, 1477.475
552.5015, 1475.002
552.9836, 1474.074
553.4657, 1472.292
553.9478, 1467.175
554.4299, 1459.175
554.9120, 1453.464
555.3942, 1450.657
555.8763, 1448.468
556.3584, 1443.694
556.8405, 1437.471
557.3226, 1432.798
557.8047, 1431.078
558.2869, 1430.438
558.7690, 1429.687
559.2511, 1428.666
559.7332, 1426.980
560.2154, 1423.590
560.6975, 1420.257
561.1796, 1418.130
561.6617, 1417.310
562.1439, 1415.976
562.6260, 1413.357
563.1081, 1410.467
563.5902, 1407.841
564.0723, 1405.530
564.5544, 1403.348
565.0366, 1401.056
565.5187, 1399.086
566.0008, 1398.122
566.4829, 1398.278
566.9650, 1398.779
567.4471, 1399.747
567.9293, 1400.636
568.4114, 1399.507
568.8935, 1396.523
569.3756, 1394.219
569.8577, 1394.487
570.3398, 1396.226
570.8220, 1397.579
571.3041, 1398.535
571.7862, 1399.459
572.2683, 1401.074
572.7504, 1402.573
573.2325, 1402.969
573.7147, 1401.455
574.1968, 1400.521
574.6789, 1401.054
575.1610, 1402.719
575.6431, 1405.099
576.1252, 1409.866
576.6074, 1413.244
577.0895, 1413.912
577.5716, 1412.805
578.0537, 1413.587
578.5358, 1416.951
579.0179, 1420.644
579.5001, 1424.146
579.9822, 1427.388
580.4643, 1428.353
580.9464, 1426.713
581.4285, 1425.000
581.9106, 1426.309
582.3928, 1429.380
582.8749, 1429.567
583.3570, 1425.750
583.8391, 1421.518
584.3212, 1420.379
584.8033, 1421.234
585.2855, 1422.209
585.7676, 1423.034
586.2497, 1423.356
586.7318, 1422.737
587.2139, 1421.454
587.6960, 1420.302
588.1782, 1418.273
588.6603, 1417.565
