##NAMES=Magnesiochromite
##RRUFFID=R050399
##IDEAL CHEMISTRY=MgCr^3+^_2_O_4_
##LOCALITY=Troodos Mountains, Cyprus
##OWNER=RRUFF
##SOURCE=Andy McCarthy
##DESCRIPTION=Black grains
##STATUS=The identification of this mineral has been confirmed by X-ray diffraction and chemical analysis
##URL=rruff.info/R050399
##MEASURED CHEMISTRY=(Mg_0.68_Fe^2+^_0.32_)_Σ=1_(Cr_1.29_Al_0.64_Fe^3+^_0.07_)_Σ=2_O__4
92.35352, 15.08967
92.83563, 14.95070
93.31775, 14.89193
93.79987, 14.91423
94.28198, 15.01690
94.76410, 15.24891
95.24622, 15.74617
95.72833, 16.24720
96.21045, 15.97042
96.69257, 14.85776
97.17468, 13.86504
97.65680, 14.01667
98.13892, 15.28784
98.62103, 16.48495
99.10315, 17.31707
99.58527, 17.81785
100.0674, 18.07115
100.5495, 17.97097
101.0316, 17.85190
101.5137, 18.12125
101.9958, 18.83342
102.4780, 19.75011
102.9601, 20.82928
103.4422, 22.09779
103.9243, 23.32719
104.4064, 24.43702
104.8885, 25.56496
105.3707, 27.02285
105.8528, 29.03904
106.3349, 31.04848
106.8170, 32.84717
107.2991, 34.47652
107.7813, 35.80125
108.2634, 36.51378
108.7455, 36.88245
109.2276, 37.77658
109.7097, 39.91881
110.1918, 42.07216
110.6740, 43.72704
111.1561, 44.22334
111.6382, 44.94791
112.1203, 45.88895
112.6024, 47.09313
113.0845, 48.79655
113.5667, 51.48384
114.0488, 54.42614
114.5309, 57.16320
115.0130, 59.40870
115.4951, 61.58500
115.9772, 63.80313
116.4594, 66.08462
116.9415, 68.39058
117.4236, 71.05568
117.9057, 73.62827
118.3878, 75.61678
118.8699, 75.97504
119.3521, 76.36485
119.8342, 77.81838
120.3163, 80.46421
120.7984, 83.45395
121.2805, 86.55807
121.7626, 89.63848
122.2448, 92.45917
122.7269, 95.96422
123.2090, 98.64627
123.6911, 98.48606
124.1732, 94.70545
124.6553, 90.45192
125.1375, 88.45091
125.6196, 88.34260
126.1017, 88.98776
126.5838, 89.76563
127.0659, 90.84389
127.5480, 92.68562
128.0302, 95.65351
128.5123, 98.79900
128.9944, 100.5712
129.4765, 101.1093
129.9586, 101.7147
130.4407, 103.6974
130.9229, 106.6448
131.4050, 108.8788
131.8871, 109.9699
132.3692, 110.2089
132.8513, 109.8202
133.3334, 108.5407
133.8156, 107.2381
134.2977, 107.3556
134.7798, 109.1893
135.2619, 110.9267
135.7440, 112.0339
136.2261, 112.7280
136.7083, 114.2701
137.1904, 116.8584
137.6725, 119.6677
138.1546, 122.1987
138.6367, 124.6836
139.1188, 125.7702
139.6010, 124.9447
140.0831, 122.2217
140.5652, 119.0506
141.0473, 114.9468
141.5294, 110.9934
142.0115, 108.7537
142.4937, 108.7512
142.9758, 109.1234
143.4579, 109.3605
143.9400, 109.4175
144.4221, 109.5171
144.9042, 109.5404
145.3864, 109.6630
145.8685, 110.2676
146.3506, 112.0855
146.8327, 113.3981
147.3148, 113.5345
147.7969, 111.6917
148.2791, 110.4939
148.7612, 110.2543
149.2433, 110.6225
149.7254, 110.7911
150.2075, 110.3507
150.6896, 110.0687
151.1718, 110.2605
151.6539, 111.6748
152.1360, 112.4746
152.6181, 111.9916
153.1002, 110.7745
153.5823, 110.4661
154.0645, 112.6582
154.5466, 114.7052
155.0287, 115.3648
155.5108, 113.1481
155.9929, 111.1911
156.4750, 110.0805
156.9572, 109.6389
157.4393, 109.1849
157.9214, 108.5467
158.4035, 107.8603
158.8856, 107.2089
159.3677, 106.3722
159.8499, 105.8068
160.3320, 105.5749
160.8141, 105.6877
161.2962, 106.2580
161.7783, 108.2985
162.2604, 110.3589
162.7426, 111.2437
163.2247, 109.4074
163.7068, 107.3732
164.1889, 106.2618
164.6710, 106.0408
165.1531, 105.9664
165.6353, 105.6026
166.1174, 105.2184
166.5995, 105.1034
167.0816, 105.7141
167.5637, 106.3634
168.0458, 106.4472
168.5280, 105.9610
169.0101, 105.7231
169.4922, 106.7588
169.9743, 108.2711
170.4564, 109.1392
170.9385, 108.3538
171.4207, 107.0603
171.9028, 106.2639
172.3849, 106.0220
172.8670, 105.8990
173.3491, 105.6568
173.8312, 105.2914
174.3134, 104.7927
174.7955, 104.0122
175.2776, 103.1645
175.7597, 102.3890
176.2418, 101.6468
176.7239, 101.3264
177.2061, 102.1271
177.6882, 103.6867
178.1703, 105.0037
178.6524, 105.6356
179.1345, 105.7201
179.6166, 105.3647
180.0988, 104.5048
180.5809, 103.5696
181.0630, 103.0275
181.5451, 102.8198
182.0272, 102.7357
182.5093, 102.6410
182.9915, 102.5875
183.4736, 102.7438
183.9557, 103.1636
184.4378, 103.6388
184.9199, 103.8601
185.4020, 103.8585
185.8842, 103.8865
186.3663, 104.3751
186.8484, 105.0624
187.3305, 104.8256
187.8126, 103.3751
188.2947, 101.5208
188.7769, 100.5868
189.2590, 100.5350
189.7411, 100.5818
190.2232, 100.0791
190.7053, 99.18884
191.1874, 99.01830
191.6696, 99.79920
192.1517, 101.0557
192.6338, 102.0252
193.1159, 102.7107
193.5980, 103.0662
194.0801, 102.8152
194.5623, 102.0294
195.0444, 101.8553
195.5265, 102.6210
196.0086, 103.7260
196.4907, 103.6814
196.9728, 102.3305
197.4550, 101.1381
197.9371, 101.2405
198.4192, 102.6665
198.9013, 103.4860
199.3834, 103.4036
199.8655, 102.7581
200.3477, 102.3419
200.8298, 102.1866
201.3119, 102.1273
201.7940, 102.1095
202.2761, 102.1491
202.7582, 102.0159
203.2404, 101.5751
203.7225, 101.0348
204.2046, 101.0950
204.6867, 101.9540
205.1688, 102.7384
205.6509, 102.7771
206.1331, 101.9082
206.6152, 101.4180
207.0973, 101.5831
207.5794, 102.1101
208.0615, 101.9927
208.5436, 100.9799
209.0258, 99.98187
209.5079, 99.59163
209.9900, 99.91940
210.4721, 100.3856
210.9542, 101.1257
211.4363, 101.9109
211.9185, 101.8262
212.4006, 100.4780
212.8827, 99.10339
213.3648, 98.54358
213.8469, 99.04152
214.3290, 99.40652
214.8112, 99.46680
215.2933, 99.34702
215.7754, 99.53163
216.2575, 100.1597
216.7396, 100.8298
217.2217, 101.3582
217.7038, 101.8371
218.1860, 101.8321
218.6681, 101.0359
219.1502, 99.77705
219.6323, 99.36891
220.1144, 100.2712
220.5965, 101.2436
221.0787, 101.5590
221.5608, 101.0007
222.0429, 100.3344
222.5250, 99.38709
223.0071, 98.38650
223.4892, 98.31272
223.9714, 99.73383
224.4535, 101.1868
224.9356, 101.8867
225.4177, 101.5964
225.8998, 101.0713
226.3819, 100.1484
226.8641, 99.03577
227.3462, 98.51527
227.8283, 98.82478
228.3104, 99.35925
228.7925, 99.86360
229.2746, 100.5176
229.7568, 100.7151
230.2389, 100.2695
230.7210, 99.38068
231.2031, 98.66258
231.6852, 98.02187
232.1673, 97.68747
232.6495, 97.87704
233.1316, 99.09913
233.6137, 99.65285
234.0958, 99.09611
234.5779, 97.92554
235.0600, 97.61058
235.5422, 98.71385
236.0243, 99.85479
236.5064, 100.4023
236.9885, 100.0617
237.4706, 99.77646
237.9527, 99.55847
238.4349, 99.39761
238.9170, 99.28433
239.3991, 99.28268
239.8812, 99.23181
240.3633, 99.02802
240.8454, 98.50374
241.3276, 98.25981
241.8097, 98.44432
242.2918, 98.85734
242.7739, 99.05109
243.2560, 98.90058
243.7381, 98.72491
244.2203, 98.65823
244.7024, 98.77824
245.1845, 98.77640
245.6666, 98.55788
246.1487, 98.26347
246.6308, 98.21091
247.1130, 98.70337
247.5951, 98.93169
248.0772, 98.45968
248.5593, 96.87554
249.0414, 96.14204
249.5235, 96.69501
250.0057, 97.82346
250.4878, 98.33370
250.9699, 97.88608
251.4520, 97.42280
251.9341, 97.26390
252.4162, 97.49061
252.8984, 97.62425
253.3805, 97.70396
253.8626, 97.65839
254.3447, 97.32577
254.8268, 96.44704
255.3089, 95.80330
255.7911, 95.67957
256.2732, 96.14717
256.7553, 96.51884
257.2374, 96.76711
257.7195, 96.94768
258.2017, 97.12482
258.6838, 97.29527
259.1659, 97.48084
259.6480, 97.73924
260.1301, 98.08109
260.6122, 98.14204
261.0944, 97.80519
261.5765, 97.33156
262.0586, 97.01339
262.5407, 96.93610
263.0228, 96.76061
263.5049, 96.28965
263.9871, 95.55297
264.4692, 95.50061
264.9513, 96.47837
265.4334, 97.58675
265.9155, 97.93270
266.3976, 97.24418
266.8798, 96.70229
267.3619, 96.57605
267.8440, 96.79631
268.3261, 96.79509
268.8082, 96.50198
269.2903, 96.13582
269.7725, 95.84117
270.2546, 95.60075
270.7367, 95.55325
271.2188, 95.83569
271.7009, 96.30568
272.1830, 96.26297
272.6652, 95.50456
273.1473, 94.78960
273.6294, 94.67332
274.1115, 95.25169
274.5936, 95.90025
275.0757, 96.65951
275.5579, 97.38414
276.0400, 97.52143
276.5221, 96.91772
277.0042, 96.34403
277.4863, 96.41667
277.9684, 97.22060
278.4506, 97.41225
278.9327, 96.71678
279.4148, 95.59853
279.8969, 95.04866
280.3790, 95.12467
280.8611, 95.36758
281.3433, 95.61662
281.8254, 95.87148
282.3075, 95.97171
282.7896, 95.93511
283.2717, 95.70045
283.7538, 95.01273
284.2360, 93.84618
284.7181, 92.90022
285.2002, 92.45744
285.6823, 92.50073
286.1644, 93.01692
286.6465, 94.11876
287.1287, 95.26440
287.6108, 95.71838
288.0929, 95.50877
288.5750, 95.15063
289.0571, 94.76213
289.5392, 94.37318
290.0214, 94.12840
290.5035, 94.03873
290.9856, 94.00714
291.4677, 93.92976
291.9498, 93.81815
292.4319, 93.74650
292.9141, 93.74805
293.3962, 93.79813
293.8783, 93.93571
294.3604, 94.16470
294.8425, 94.17477
295.3246, 93.40398
295.8068, 92.13969
296.2889, 91.39815
296.7710, 91.59234
297.2531, 92.21038
297.7352, 92.39610
298.2173, 92.19208
298.6995, 91.96479
299.1816, 92.00578
299.6637, 92.21245
300.1458, 92.34982
300.6279, 92.33292
301.1100, 92.32731
301.5922, 92.69061
302.0743, 93.29906
302.5564, 93.65492
303.0385, 93.26465
303.5206, 92.50565
304.0027, 91.84731
304.4849, 91.31177
304.9670, 91.05547
305.4491, 91.51048
305.9312, 92.39056
306.4133, 93.00963
306.8954, 92.83110
307.3776, 92.33208
307.8597, 91.91215
308.3418, 91.58273
308.8239, 91.49796
309.3060, 92.11703
309.7881, 93.00640
310.2703, 93.46247
310.7524, 92.78366
311.2345, 91.88517
311.7166, 91.40445
312.1987, 91.34559
312.6808, 91.42583
313.1630, 91.68011
313.6451, 91.91589
314.1272, 91.92167
314.6093, 91.03342
315.0914, 90.45686
315.5735, 91.13580
316.0557, 92.80696
316.5378, 94.07610
317.0199, 94.32510
317.5020, 93.95975
317.9841, 93.19820
318.4662, 91.55605
318.9484, 90.34803
319.4305, 90.28465
319.9126, 91.01215
320.3947, 91.60072
320.8768, 91.25291
321.3589, 91.09850
321.8411, 91.93330
322.3232, 94.68402
322.8053, 96.35742
323.2874, 95.50896
323.7695, 93.39590
324.2516, 92.00910
324.7338, 92.33026
325.2159, 92.79719
325.6980, 92.86667
326.1801, 92.35155
326.6622, 92.17049
327.1443, 92.85076
327.6265, 93.69236
328.1086, 93.98784
328.5907, 93.07410
329.0728, 92.34337
329.5549, 92.00026
330.0370, 92.04750
330.5192, 92.29244
331.0013, 93.13451
331.4834, 93.83968
331.9655, 93.84832
332.4476, 92.46190
332.9297, 91.58023
333.4119, 91.47200
333.8940, 92.00169
334.3761, 92.66576
334.8582, 93.72417
335.3403, 94.48347
335.8224, 94.48683
336.3046, 93.36034
336.7867, 92.60641
337.2688, 92.36562
337.7509, 92.42070
338.2330, 92.29845
338.7151, 91.91026
339.1973, 91.62752
339.6794, 91.62733
340.1615, 91.92503
340.6436, 92.18809
341.1257, 92.42342
341.6078, 92.60846
342.0899, 92.66373
342.5721, 92.57161
343.0542, 92.60706
343.5363, 92.93306
344.0184, 93.44573
344.5005, 93.69542
344.9826, 93.66939
345.4648, 93.46397
345.9469, 93.04573
346.4290, 92.45802
346.9111, 92.07198
347.3932, 91.92915
347.8753, 92.05254
348.3575, 92.70375
348.8396, 93.81866
349.3217, 94.70858
349.8038, 94.78267
350.2859, 94.28177
350.7680, 93.74199
351.2502, 93.19087
351.7323, 92.73857
352.2144, 92.55779
352.6965, 92.58887
353.1786, 92.65736
353.6607, 92.64558
354.1429, 92.63825
354.6250, 92.79926
355.1071, 93.14393
355.5892, 93.41087
356.0713, 93.38127
356.5534, 93.14990
357.0356, 92.84951
357.5177, 92.18091
357.9998, 91.75291
358.4819, 92.25248
358.9640, 93.51100
359.4461, 94.57751
359.9283, 94.85681
360.4104, 94.78190
360.8925, 94.69827
361.3746, 94.64967
361.8567, 94.65741
362.3388, 94.84448
362.8210, 95.09497
363.3031, 95.15175
363.7852, 94.44223
364.2673, 93.91405
364.7494, 94.18703
365.2315, 95.68826
365.7137, 96.64764
366.1958, 96.30788
366.6779, 95.38208
367.1600, 94.70549
367.6421, 94.41629
368.1242, 94.33727
368.6064, 94.53979
369.0885, 95.04497
369.5706, 95.34499
370.0527, 95.25481
370.5348, 95.10596
371.0169, 95.10329
371.4991, 95.21656
371.9812, 95.54897
372.4633, 96.29662
372.9454, 97.26531
373.4275, 97.74427
373.9096, 97.58753
374.3918, 97.20121
374.8739, 96.65319
375.3560, 95.75861
375.8381, 95.60194
376.3202, 96.50069
376.8023, 97.72563
377.2845, 97.93364
377.7666, 96.82613
378.2487, 96.37701
378.7308, 97.62643
379.2129, 100.1953
379.6950, 101.2304
380.1772, 100.5268
380.6593, 99.38711
381.1414, 99.03571
381.6235, 99.38776
382.1056, 99.60344
382.5877, 99.44685
383.0699, 99.15507
383.5520, 99.20351
384.0341, 99.56535
384.5162, 99.96045
384.9983, 100.2777
385.4804, 100.4940
385.9626, 100.5403
386.4447, 100.3927
386.9268, 100.1683
387.4089, 99.97005
387.8910, 99.78481
388.3731, 99.58784
388.8553, 99.18945
389.3374, 98.88463
389.8195, 99.15926
390.3016, 99.96169
390.7837, 100.4957
391.2658, 99.80479
391.7480, 98.77744
392.2301, 98.38058
392.7122, 99.41050
393.1943, 100.3845
393.6764, 100.4728
394.1585, 99.93484
394.6407, 99.50651
395.1228, 99.55193
395.6049, 99.68314
396.0870, 99.68028
396.5691, 99.43396
397.0512, 99.33335
397.5334, 99.47763
398.0155, 99.80003
398.4976, 100.2137
398.9797, 100.8653
399.4618, 101.4426
399.9439, 101.9312
400.4261, 102.3295
400.9082, 102.4749
401.3903, 102.1790
401.8724, 101.8060
402.3545, 101.6184
402.8366, 101.8501
403.3188, 101.7011
403.8009, 100.8026
404.2830, 99.63862
404.7651, 99.64754
405.2472, 101.3641
405.7293, 102.7177
406.2115, 102.5996
406.6936, 100.9477
407.1757, 100.1922
407.6578, 100.5018
408.1399, 101.2513
408.6220, 101.7833
409.1042, 102.1013
409.5863, 102.3326
410.0684, 102.4620
410.5505, 102.5638
411.0326, 102.9426
411.5147, 103.5838
411.9969, 104.0064
412.4790, 103.5130
412.9611, 102.5704
413.4432, 102.4708
413.9253, 103.5890
414.4074, 104.7587
414.8896, 104.4759
415.3717, 103.2619
415.8538, 102.3404
416.3359, 102.2945
416.8180, 102.8097
417.3001, 103.9878
417.7823, 105.7864
418.2644, 106.9219
418.7465, 105.9627
419.2286, 104.3273
419.7107, 103.4047
420.1928, 103.8754
420.6750, 104.6627
421.1571, 105.6247
421.6392, 106.6165
422.1213, 107.2365
422.6034, 107.2897
423.0855, 107.0272
423.5677, 106.3768
424.0498, 105.0355
424.5319, 104.4124
425.0140, 105.3501
425.4961, 106.7066
425.9782, 107.3064
426.4604, 106.3733
426.9425, 105.8308
427.4246, 106.0763
427.9067, 106.9877
428.3888, 107.7299
428.8709, 108.3902
429.3531, 108.7300
429.8352, 108.4680
430.3173, 107.3920
430.7994, 106.8318
431.2815, 106.8923
431.7636, 107.3604
432.2458, 108.0652
432.7279, 109.0420
433.2100, 109.6130
433.6921, 109.3338
434.1742, 108.4927
434.6563, 108.1403
435.1385, 108.2771
435.6206, 108.6859
436.1027, 109.5108
436.5848, 110.4733
437.0669, 110.7026
437.5490, 109.8197
438.0312, 108.7038
438.5133, 108.2884
438.9954, 108.4413
439.4775, 108.7941
439.9596, 109.5087
440.4417, 110.1189
440.9239, 109.9393
441.4060, 108.9314
441.8881, 108.3686
442.3702, 109.6267
442.8523, 111.3889
443.3344, 112.3889
443.8166, 111.6950
444.2987, 110.8880
444.7808, 110.3420
445.2629, 110.0355
445.7450, 109.9070
446.2271, 110.1637
446.7093, 110.4058
447.1914, 110.3907
447.6735, 109.8734
448.1556, 109.9231
448.6377, 111.1093
449.1198, 112.4781
449.6020, 113.0313
450.0841, 112.3709
450.5662, 111.7039
451.0483, 111.1876
451.5304, 110.8006
452.0125, 110.4152
452.4947, 109.9528
452.9768, 109.7245
453.4589, 110.0588
453.9410, 110.9796
454.4231, 111.3876
454.9052, 111.1475
455.3874, 110.7725
455.8695, 111.0891
456.3516, 111.9701
456.8337, 112.4598
457.3158, 112.1104
457.7979, 111.3120
458.2801, 110.5739
458.7622, 109.9399
459.2443, 109.7054
459.7264, 110.6113
460.2085, 111.8369
460.6906, 112.1594
461.1728, 111.2266
461.6549, 110.2411
462.1370, 109.8965
462.6191, 110.0939
463.1012, 110.7028
463.5833, 112.3552
464.0655, 113.7734
464.5476, 114.3809
465.0297, 114.2112
465.5118, 113.6652
465.9939, 112.2844
466.4760, 110.9688
466.9582, 110.2331
467.4403, 110.4354
467.9224, 110.6369
468.4045, 110.7795
468.8866, 110.9216
469.3687, 111.1816
469.8509, 111.7599
470.3330, 112.0737
470.8151, 111.9037
471.2972, 111.3112
471.7793, 110.9607
472.2614, 110.9350
472.7436, 110.9192
473.2257, 110.5943
473.7078, 109.9491
474.1899, 109.7245
474.6720, 110.0598
475.1541, 110.5894
475.6363, 110.7650
476.1184, 110.6339
476.6005, 110.5069
477.0826, 110.5913
477.5647, 110.7038
478.0468, 110.4600
478.5290, 109.9000
479.0111, 109.3893
479.4932, 109.1712
479.9753, 109.1532
480.4574, 109.2471
480.9395, 109.4628
481.4217, 109.7045
481.9038, 109.9693
482.3859, 110.2069
482.8680, 110.3389
483.3501, 110.4435
483.8322, 110.3356
484.3144, 109.7439
484.7965, 108.7310
485.2786, 108.1179
485.7607, 108.5423
486.2428, 108.9934
486.7249, 108.9481
487.2071, 108.1090
487.6892, 107.3907
488.1713, 106.6780
488.6534, 106.1691
489.1355, 106.2667
489.6176, 107.3136
490.0998, 107.9427
490.5819, 107.7054
491.0640, 106.8067
491.5461, 106.2943
492.0282, 106.2002
492.5103, 106.2392
492.9925, 106.2760
493.4746, 106.2949
493.9567, 106.1708
494.4388, 105.8617
494.9209, 105.5745
495.4030, 105.5465
495.8852, 105.7220
496.3673, 105.9678
496.8494, 106.2928
497.3315, 106.6045
497.8136, 106.7819
498.2957, 106.8575
498.7779, 106.9620
499.2600, 107.2226
499.7421, 107.4972
500.2242, 107.6564
500.7063, 107.6392
501.1884, 107.7261
501.6706, 108.1416
502.1527, 108.6421
502.6348, 108.9740
503.1169, 109.0359
503.5990, 109.0116
504.0811, 108.8876
504.5633, 108.6911
505.0454, 108.4658
505.5275, 107.9650
506.0096, 107.8739
506.4917, 108.5751
506.9738, 110.1576
507.4560, 111.5661
507.9381, 112.8418
508.4202, 113.8315
508.9023, 114.2050
509.3844, 114.0094
509.8665, 114.0934
510.3487, 114.6777
510.8308, 115.4949
511.3129, 116.1347
511.7950, 116.6208
512.2772, 117.0611
512.7593, 117.3814
513.2414, 117.7568
513.7235, 118.4657
514.2056, 119.4983
514.6877, 120.5431
515.1699, 121.5622
515.6520, 122.4173
516.1341, 122.9190
516.6162, 122.7158
517.0983, 122.7673
517.5804, 123.6324
518.0626, 124.9034
518.5447, 125.9123
519.0268, 126.2088
519.5089, 126.5998
519.9910, 127.2160
520.4731, 128.0591
520.9553, 129.2185
521.4374, 131.0477
521.9195, 132.6495
522.4016, 133.4070
522.8837, 133.0887
523.3658, 133.1259
523.8480, 133.5796
524.3301, 134.2926
524.8122, 135.0272
525.2943, 135.7929
525.7764, 136.8562
526.2585, 138.5117
526.7407, 140.2498
527.2228, 140.9050
527.7049, 140.6816
528.1870, 140.7487
528.6691, 142.3799
529.1512, 144.4005
529.6334, 145.1560
530.1155, 144.4874
530.5976, 144.2017
531.0797, 145.9266
531.5618, 148.3106
532.0439, 149.9765
532.5261, 150.0373
533.0082, 150.1614
533.4903, 150.7783
533.9724, 151.7471
534.4545, 152.7837
534.9366, 153.7453
535.4188, 154.9093
535.9009, 156.4594
536.3830, 158.3793
536.8651, 159.8738
537.3472, 160.7986
537.8293, 161.5861
538.3115, 162.4576
538.7936, 163.4017
539.2757, 164.6550
539.7578, 166.3564
540.2399, 167.9848
540.7220, 168.5288
541.2042, 168.2361
541.6863, 168.5974
542.1684, 170.3120
542.6505, 172.6291
543.1326, 174.7661
543.6147, 176.6471
544.0969, 178.0291
544.5790, 178.0658
545.0611, 177.9728
545.5432, 178.8853
546.0253, 180.9370
546.5074, 182.9439
546.9896, 184.5873
547.4717, 185.8590
547.9538, 186.7365
548.4359, 186.6186
548.9180, 186.9333
549.4001, 188.2435
549.8823, 189.9182
550.3644, 190.8085
550.8465, 190.2891
551.3286, 190.2184
551.8107, 191.3000
552.2928, 193.2915
552.7750, 194.2259
553.2571, 193.9096
553.7392, 193.5236
554.2213, 193.9145
554.7034, 194.9352
555.1855, 195.7829
555.6677, 196.4209
556.1498, 196.8699
556.6319, 197.0487
557.1140, 197.0605
557.5961, 197.1228
558.0782, 197.3387
558.5604, 197.5525
559.0425, 197.5697
559.5246, 197.4875
560.0067, 197.5239
560.4888, 197.8667
560.9709, 198.2581
561.4531, 198.6538
561.9352, 199.0491
562.4173, 199.1972
562.8994, 198.6078
563.3815, 198.1405
563.8636, 198.3034
564.3458, 199.5410
564.8279, 200.1750
565.3100, 200.0035
565.7921, 199.4946
566.2742, 199.2640
566.7563, 199.3492
567.2385, 199.3343
567.7206, 199.1046
568.2027, 198.7596
568.6848, 198.3541
569.1669, 197.9431
569.6490, 197.9913
570.1312, 199.3815
570.6133, 201.0929
571.0954, 201.4306
571.5775, 200.4468
572.0596, 199.4450
572.5417, 199.2315
573.0239, 199.3826
573.5060, 199.5371
573.9881, 199.5974
574.4702, 199.7549
574.9523, 200.1860
575.4344, 200.7067
575.9166, 201.0855
576.3987, 201.5844
576.8808, 201.5610
577.3629, 200.6869
577.8450, 199.2676
578.3271, 198.3014
578.8093, 197.8741
579.2914, 197.6553
579.7735, 197.6362
580.2556, 197.7492
580.7377, 197.3714
581.2198, 196.4588
581.7020, 195.5176
582.1841, 195.0127
582.6662, 194.7927
583.1483, 194.4952
583.6304, 194.0728
584.1125, 193.5942
584.5947, 193.1127
585.0768, 192.6205
585.5589, 192.1055
586.0410, 191.5238
586.5231, 190.9719
587.0052, 190.6834
587.4873, 190.4745
587.9694, 189.8553
588.4515, 188.3856
588.9337, 186.8445
