##NAMES=Magnussonite
##RRUFFID=R100027
##IDEAL CHEMISTRY=Mn^2+^_5_As^3+^_3_O_9_(OH,Cl)
##LOCALITY=Langban, Filipstad, Varmland, Sweden
##OWNER=RRUFF
##SOURCE=William W. Pinch
##DESCRIPTION=Dark green massive, associated with brown armangite R100041, and white nadorite
##STATUS=The identification of this mineral is confirmed by single-crystal X-ray diffraction and chemical analysis.
##URL=rruff.info/R100027
##MEASURED CHEMISTRY=(Mn_9.10_Fe_0.26_Cu_0.26_Ca_0.10_)_Σ9.72_As_6.19_O_18_(OH_1.78_Cl_0.22_)_Σ2.0_
91.53320, 96.97951
92.01532, 95.65537
92.49744, 94.90654
92.97955, 96.38655
93.46167, 98.57520
93.94379, 99.93921
94.42590, 101.2029
94.90802, 102.0945
95.39014, 101.9005
95.87225, 100.3295
96.35437, 98.96786
96.83649, 98.67075
97.31860, 98.88764
97.80072, 99.06174
98.28284, 98.78571
98.76495, 98.08420
99.24707, 97.54814
99.72919, 97.14344
100.2113, 96.99748
100.6934, 97.29933
101.1755, 97.86714
101.6577, 98.34827
102.1398, 98.40405
102.6219, 97.89254
103.1040, 97.69071
103.5861, 97.92413
104.0682, 98.25076
104.5504, 98.45936
105.0325, 98.52390
105.5146, 98.58361
105.9967, 98.81577
106.4788, 99.24704
106.9609, 99.78662
107.4431, 100.7025
107.9252, 101.6523
108.4073, 102.0726
108.8894, 101.6582
109.3715, 100.9268
109.8536, 100.8264
110.3358, 101.4461
110.8179, 102.1040
111.3000, 102.4344
111.7821, 102.4649
112.2642, 102.4641
112.7463, 102.5699
113.2285, 102.6618
113.7106, 102.6088
114.1927, 102.3654
114.6748, 102.0374
115.1569, 101.7480
115.6390, 101.4658
116.1212, 101.3074
116.6033, 101.2806
117.0854, 101.3781
117.5675, 101.5998
118.0496, 101.9464
118.5317, 102.4160
119.0139, 103.0048
119.4960, 104.0174
119.9781, 104.8156
120.4602, 105.1143
120.9423, 105.1227
121.4244, 105.2210
121.9066, 105.7258
122.3887, 106.6867
122.8708, 107.3530
123.3529, 107.5266
123.8350, 107.6598
124.3171, 108.1070
124.7993, 108.8115
125.2814, 109.3042
125.7635, 109.0519
126.2456, 107.8389
126.7277, 106.8717
127.2098, 106.4214
127.6920, 106.1109
128.1741, 105.5428
128.6562, 104.6304
129.1383, 103.5165
129.6204, 102.2654
130.1025, 100.8874
130.5847, 99.66182
131.0668, 98.74270
131.5489, 98.07330
132.0310, 97.48165
132.5131, 97.03238
132.9952, 96.52493
133.4774, 95.70736
133.9595, 94.58367
134.4416, 93.54289
134.9237, 92.93480
135.4058, 92.79438
135.8879, 92.83784
136.3701, 93.29268
136.8522, 93.74380
137.3343, 93.92918
137.8164, 93.78859
138.2985, 93.47771
138.7806, 93.22344
139.2628, 92.89901
139.7449, 92.90923
140.2270, 93.47730
140.7091, 94.24720
141.1912, 94.97074
141.6733, 95.53144
142.1555, 95.88834
142.6376, 95.88503
143.1197, 94.87415
143.6018, 94.20452
144.0839, 94.17754
144.5660, 94.56738
145.0482, 94.99239
145.5303, 95.21494
146.0124, 95.29694
146.4945, 95.71988
146.9766, 96.99900
147.4587, 98.03996
147.9409, 98.30639
148.4230, 97.89307
148.9051, 97.23923
149.3872, 96.47551
149.8693, 95.73471
150.3514, 95.49962
150.8336, 96.27520
151.3157, 97.25574
151.7978, 97.68917
152.2799, 97.50642
152.7620, 97.18015
153.2441, 97.07587
153.7263, 97.07535
154.2084, 96.96948
154.6905, 96.67535
155.1726, 96.23300
155.6547, 95.69074
156.1368, 94.94518
156.6190, 94.30016
157.1011, 94.09323
157.5832, 94.09547
158.0653, 93.83712
158.5474, 92.83622
159.0295, 91.18003
159.5117, 90.05093
159.9938, 89.97580
160.4759, 89.94640
160.9580, 89.56651
161.4401, 88.91618
161.9222, 88.27702
162.4044, 87.93225
162.8865, 87.95949
163.3686, 87.80906
163.8507, 87.37664
164.3328, 86.87096
164.8149, 86.31621
165.2971, 85.74894
165.7792, 85.26491
166.2613, 84.99392
166.7434, 85.08286
167.2255, 84.95152
167.7076, 84.50906
168.1898, 83.94527
168.6719, 83.32623
169.1540, 82.68391
169.6361, 82.12263
170.1182, 81.80100
170.6003, 81.82729
171.0825, 81.84812
171.5646, 81.93906
172.0467, 81.98347
172.5288, 81.82705
173.0109, 81.41484
173.4930, 80.86358
173.9752, 80.27849
174.4573, 79.59172
174.9394, 79.17727
175.4215, 79.45509
175.9036, 80.08047
176.3857, 80.23258
176.8679, 79.53436
177.3500, 78.49086
177.8321, 77.76438
178.3142, 77.35419
178.7963, 77.09050
179.2784, 76.86230
179.7606, 76.68082
180.2427, 76.68053
180.7248, 77.11998
181.2069, 77.55578
181.6890, 77.53237
182.1711, 76.99988
182.6533, 76.42121
183.1354, 76.31597
183.6175, 76.76704
184.0996, 77.03524
184.5817, 76.76964
185.0638, 76.37463
185.5460, 76.07731
186.0281, 75.92588
186.5102, 75.81223
186.9923, 75.56262
187.4744, 75.08496
187.9565, 74.72013
188.4387, 74.46033
188.9208, 74.33778
189.4029, 74.39816
189.8850, 74.65131
190.3671, 75.04564
190.8492, 75.53176
191.3314, 76.41862
191.8135, 76.84029
192.2956, 76.36487
192.7777, 75.64964
193.2598, 75.27087
193.7419, 75.45481
194.2241, 76.02249
194.7062, 76.54236
195.1883, 76.96352
195.6704, 77.39395
196.1525, 78.00841
196.6346, 78.57621
197.1168, 78.77884
197.5989, 78.46727
198.0810, 77.82472
198.5631, 77.37658
199.0452, 77.20421
199.5273, 77.09904
200.0095, 77.03537
200.4916, 77.01806
200.9737, 77.07617
201.4558, 77.24285
201.9379, 77.45271
202.4200, 77.49418
202.9022, 77.20849
203.3843, 77.05583
203.8664, 77.35983
204.3485, 77.94596
204.8306, 78.28964
205.3127, 78.06276
205.7949, 77.57419
206.2770, 77.55440
206.7591, 78.26743
207.2412, 78.84451
207.7233, 78.71627
208.2054, 77.97115
208.6876, 77.14588
209.1697, 76.40382
209.6518, 75.72962
210.1339, 75.08464
210.6160, 74.46107
211.0981, 73.89445
211.5803, 73.46233
212.0624, 73.16630
212.5445, 72.79709
213.0266, 72.31013
213.5087, 71.68949
213.9908, 70.90504
214.4730, 69.94381
214.9551, 68.88634
215.4372, 67.77764
215.9193, 66.57969
216.4014, 65.54262
216.8836, 64.79970
217.3657, 64.21423
217.8478, 63.70629
218.3299, 63.25919
218.8120, 62.90210
219.2941, 62.70544
219.7763, 62.72650
220.2584, 62.71954
220.7405, 62.75368
221.2226, 62.67810
221.7047, 62.30516
222.1868, 61.59866
222.6690, 60.80199
223.1511, 60.32993
223.6332, 60.37471
224.1153, 60.30603
224.5974, 59.83477
225.0795, 59.38639
225.5617, 59.35501
226.0438, 59.82343
226.5259, 60.46865
227.0080, 60.72821
227.4901, 60.41957
227.9722, 60.01656
228.4544, 59.49072
228.9365, 58.92308
229.4186, 58.27941
229.9007, 57.58564
230.3828, 57.03981
230.8649, 57.02993
231.3471, 58.18987
231.8292, 58.86885
232.3113, 58.85254
232.7934, 58.52850
233.2755, 58.12988
233.7576, 57.74627
234.2398, 57.44374
234.7219, 57.34663
235.2040, 57.65287
235.6861, 57.81632
236.1682, 57.73109
236.6503, 57.56387
237.1325, 57.43356
237.6146, 57.37741
238.0967, 57.42213
238.5788, 57.64643
239.0609, 58.27627
239.5430, 58.51537
240.0252, 57.87280
240.5073, 57.05388
240.9894, 56.83454
241.4715, 57.39641
241.9536, 58.24344
242.4357, 58.75810
242.9179, 58.90926
243.4000, 58.81345
243.8821, 58.08471
244.3642, 57.29454
244.8463, 57.19080
245.3284, 57.94990
245.8106, 58.89476
246.2927, 59.21511
246.7748, 58.89338
247.2569, 58.54005
247.7390, 58.16674
248.2211, 57.83894
248.7033, 57.61415
249.1854, 57.49467
249.6675, 57.53312
250.1496, 57.96367
250.6317, 58.70110
251.1138, 59.06359
251.5960, 58.62313
252.0781, 57.85386
252.5602, 57.37643
253.0423, 57.28154
253.5244, 57.28510
254.0065, 57.18385
254.4887, 56.99659
254.9708, 56.75298
255.4529, 56.37848
255.9350, 55.98480
256.4171, 55.77732
256.8992, 55.81261
257.3813, 55.80096
257.8635, 55.32384
258.3456, 54.67002
258.8277, 54.36767
259.3098, 54.85018
259.7919, 55.59792
260.2740, 55.82729
260.7562, 55.43736
261.2383, 54.96352
261.7204, 54.66066
262.2025, 54.46703
262.6846, 54.32922
263.1667, 54.26608
263.6489, 54.21073
264.1310, 54.05815
264.6131, 53.78840
265.0952, 53.50762
265.5773, 53.22432
266.0594, 52.97137
266.5416, 52.78643
267.0237, 52.68354
267.5058, 52.64225
267.9879, 52.64294
268.4700, 52.69241
268.9521, 52.75494
269.4343, 52.93428
269.9164, 53.06043
270.3985, 52.97624
270.8806, 52.63642
271.3627, 52.16356
271.8448, 51.65314
272.3270, 51.06313
272.8091, 50.64460
273.2912, 50.52131
273.7733, 50.55733
274.2554, 50.75019
274.7375, 51.08740
275.2197, 51.39635
275.7018, 51.46598
276.1839, 51.26061
276.6660, 51.04573
277.1481, 50.84921
277.6302, 50.65656
278.1124, 50.47594
278.5945, 50.30094
279.0766, 50.10349
279.5587, 49.82188
280.0408, 49.43308
280.5229, 49.16307
281.0051, 49.03193
281.4872, 49.02944
281.9693, 49.29763
282.4514, 49.73274
282.9335, 50.02342
283.4156, 49.83025
283.8978, 49.13881
284.3799, 48.64889
284.8620, 48.53169
285.3441, 48.46120
285.8262, 48.25942
286.3083, 48.01301
286.7905, 47.94258
287.2726, 48.27530
287.7547, 48.94100
288.2368, 49.23545
288.7189, 48.70774
289.2010, 48.33308
289.6832, 48.54719
290.1653, 49.04666
290.6474, 49.34779
291.1295, 49.14626
291.6116, 48.58514
292.0938, 48.25108
292.5759, 48.32302
293.0580, 48.38284
293.5401, 48.35908
294.0222, 48.27636
294.5043, 48.15841
294.9865, 48.01488
295.4686, 47.85530
295.9507, 47.68356
296.4328, 47.38535
296.9149, 47.29890
297.3970, 47.66767
297.8792, 48.11903
298.3613, 48.30075
298.8434, 48.11545
299.3255, 47.76836
299.8076, 47.58490
300.2897, 47.58050
300.7719, 47.72398
301.2540, 48.21352
301.7361, 48.68134
302.2182, 48.85646
302.7003, 48.71686
303.1824, 48.47429
303.6646, 48.38686
304.1467, 48.50908
304.6288, 48.59174
305.1109, 48.70147
305.5930, 48.71831
306.0751, 48.50002
306.5573, 48.10926
307.0394, 47.76054
307.5215, 47.66040
308.0036, 47.82776
308.4857, 47.96245
308.9678, 48.02322
309.4500, 48.09084
309.9321, 48.19160
310.4142, 48.31754
310.8963, 48.45425
311.3784, 48.59911
311.8605, 48.74364
312.3427, 48.81652
312.8248, 48.70628
313.3069, 48.65441
313.7890, 48.76576
314.2711, 48.94191
314.7532, 49.04821
315.2354, 49.01525
315.7175, 48.89472
316.1996, 48.82206
316.6817, 48.71593
317.1638, 48.80989
317.6459, 49.45495
318.1281, 50.11455
318.6102, 50.19014
319.0923, 49.52728
319.5744, 48.61430
320.0565, 48.29978
320.5386, 48.93502
321.0208, 49.36698
321.5029, 49.35354
321.9850, 49.30317
322.4671, 49.49931
322.9492, 49.95527
323.4313, 50.46684
323.9135, 50.83198
324.3956, 51.04718
324.8777, 51.12004
325.3598, 50.93690
325.8419, 50.71622
326.3240, 50.41992
326.8062, 50.14191
327.2883, 50.10946
327.7704, 50.58436
328.2525, 51.51317
328.7346, 51.94730
329.2167, 51.42415
329.6989, 50.89536
330.1810, 50.48738
330.6631, 50.24404
331.1452, 50.24613
331.6273, 50.56197
332.1094, 51.06611
332.5916, 51.37846
333.0737, 51.49321
333.5558, 51.39653
334.0379, 50.93734
334.5200, 50.37925
335.0021, 49.94527
335.4843, 49.70926
335.9664, 49.64605
336.4485, 49.74133
336.9306, 50.05188
337.4127, 50.35361
337.8948, 50.80143
338.3770, 51.10291
338.8591, 50.94565
339.3412, 50.37820
339.8233, 49.83091
340.3055, 49.81368
340.7876, 50.40226
341.2697, 50.75033
341.7518, 50.61417
342.2339, 50.45940
342.7160, 50.58461
343.1982, 50.84441
343.6803, 50.84946
344.1624, 50.21195
344.6445, 49.12816
345.1266, 48.63784
345.6087, 49.17976
346.0909, 49.61411
346.5730, 49.48437
347.0551, 49.07542
347.5372, 48.73619
348.0193, 48.60537
348.5014, 48.60665
348.9836, 48.61602
349.4657, 48.64705
349.9478, 48.63989
350.4299, 48.42323
350.9120, 48.25821
351.3941, 48.43362
351.8763, 48.99066
352.3584, 49.53076
352.8405, 49.59492
353.3226, 49.16904
353.8047, 48.77703
354.2868, 48.41382
354.7690, 48.18644
355.2511, 48.22473
355.7332, 48.47157
356.2153, 48.69057
356.6974, 48.69422
357.1795, 48.54120
357.6617, 48.46980
358.1438, 48.52476
358.6259, 48.57394
359.1080, 48.56844
359.5901, 48.50523
360.0722, 48.35808
360.5544, 48.05394
361.0365, 47.73602
361.5186, 47.59406
362.0007, 47.63552
362.4828, 47.81377
362.9649, 48.25294
363.4471, 48.74104
363.9292, 49.04000
364.4113, 49.10954
364.8934, 49.06240
365.3755, 48.89718
365.8576, 48.65615
366.3398, 48.60522
366.8219, 48.91463
367.3040, 49.26836
367.7861, 49.24602
368.2682, 48.89275
368.7503, 48.72070
369.2325, 49.18189
369.7146, 49.88151
370.1967, 50.05647
370.6788, 49.56349
371.1609, 49.03946
371.6430, 49.04047
372.1252, 49.41225
372.6073, 49.63350
373.0894, 49.48387
373.5715, 49.28381
374.0536, 49.29624
374.5357, 49.49236
375.0179, 49.71391
375.5000, 49.91126
375.9821, 50.05827
376.4642, 50.08862
376.9463, 49.94929
377.4284, 49.83278
377.9106, 49.75734
378.3927, 49.76236
378.8748, 50.00298
379.3569, 50.55552
379.8390, 51.07068
380.3211, 51.04988
380.8033, 50.37795
381.2854, 49.81975
381.7675, 49.29044
382.2496, 48.99360
382.7317, 49.25333
383.2138, 49.99963
383.6960, 50.68330
384.1781, 50.86908
384.6602, 50.59908
385.1423, 50.53453
385.6244, 50.96315
386.1065, 51.23698
386.5887, 51.00163
387.0708, 50.49312
387.5529, 50.11451
388.0350, 50.04319
388.5171, 50.17380
388.9992, 50.27703
389.4814, 50.34955
389.9635, 50.39444
390.4456, 50.32548
390.9277, 50.28606
391.4098, 50.44885
391.8919, 50.80333
392.3741, 51.15038
392.8562, 51.27831
393.3383, 51.16127
393.8204, 51.02195
394.3025, 50.68916
394.7846, 50.51119
395.2668, 50.77246
395.7489, 51.25895
396.2310, 51.55376
396.7131, 51.39722
397.1952, 50.93993
397.6773, 50.71807
398.1595, 50.93692
398.6416, 51.05478
399.1237, 50.85680
399.6058, 50.62769
400.0879, 50.65427
400.5700, 50.98477
401.0522, 51.38257
401.5343, 51.57503
402.0164, 51.54295
402.4985, 51.40364
402.9806, 50.96719
403.4627, 50.60801
403.9449, 50.47100
404.4270, 50.54159
404.9091, 50.76461
405.3912, 51.15541
405.8733, 51.64991
406.3554, 52.05961
406.8376, 52.40649
407.3197, 52.61625
407.8018, 52.55241
408.2839, 52.38865
408.7660, 52.27558
409.2481, 52.23744
409.7303, 52.30782
410.2124, 52.57915
410.6945, 53.03443
411.1766, 53.42097
411.6587, 53.71568
412.1408, 53.88010
412.6230, 53.88085
413.1051, 53.73083
413.5872, 53.50537
414.0693, 53.04580
414.5514, 52.60032
415.0335, 52.67515
415.5157, 53.34774
415.9978, 53.99165
416.4799, 54.20874
416.9620, 54.07649
417.4441, 53.88182
417.9262, 53.43118
418.4084, 53.19022
418.8905, 53.64542
419.3726, 54.52339
419.8547, 55.10786
420.3368, 55.13906
420.8189, 54.83201
421.3011, 54.44611
421.7832, 53.87887
422.2653, 53.66918
422.7474, 54.19342
423.2295, 54.88466
423.7116, 55.27450
424.1938, 55.33043
424.6759, 55.25923
425.1580, 55.22493
425.6401, 55.21728
426.1222, 55.03639
426.6043, 54.39129
427.0865, 53.93736
427.5686, 53.83328
428.0507, 54.01795
428.5328, 54.54134
429.0149, 55.40489
429.4970, 56.22450
429.9792, 56.27880
430.4613, 55.05648
430.9434, 54.16815
431.4255, 53.51667
431.9076, 53.20947
432.3897, 53.58434
432.8719, 54.40914
433.3540, 54.98812
433.8361, 54.70730
434.3182, 53.71929
434.8003, 53.14994
435.2824, 53.34826
435.7646, 53.44365
436.2467, 53.01478
436.7288, 52.48226
437.2109, 52.38263
437.6930, 52.88951
438.1751, 53.48999
438.6573, 53.46647
439.1394, 52.76239
439.6215, 52.22765
440.1036, 52.10374
440.5857, 52.03273
441.0678, 51.68458
441.5500, 51.16078
442.0321, 50.85374
442.5142, 51.18436
442.9963, 51.76775
443.4784, 51.81804
443.9605, 51.25594
444.4427, 50.78820
444.9248, 50.89287
445.4069, 51.24633
445.8890, 51.27288
446.3711, 50.86116
446.8532, 50.36987
447.3354, 49.91742
447.8175, 49.53756
448.2996, 49.31256
448.7817, 49.26648
449.2638, 49.33920
449.7459, 49.47349
450.2281, 49.67397
450.7102, 49.95342
451.1923, 50.54757
451.6744, 51.01208
452.1565, 50.95679
452.6386, 50.51968
453.1208, 50.13438
453.6029, 50.02585
454.0850, 50.11193
454.5671, 50.16684
455.0492, 50.24529
455.5313, 50.20815
456.0135, 49.93984
456.4956, 49.63240
456.9777, 49.44238
457.4598, 49.38580
457.9419, 49.36369
458.4240, 49.25541
458.9062, 49.05662
459.3883, 49.14308
459.8704, 50.13517
460.3525, 50.70311
460.8346, 50.06657
461.3167, 49.02597
461.7989, 48.72164
462.2810, 49.60019
462.7631, 50.83672
463.2452, 51.06242
463.7273, 50.06597
464.2094, 49.31599
464.6916, 49.18002
465.1737, 49.16802
465.6558, 49.00177
466.1379, 48.71008
466.6200, 48.43766
467.1021, 48.17965
467.5843, 48.02935
468.0664, 48.28672
468.5485, 49.03477
469.0306, 49.58388
469.5127, 49.49208
469.9948, 49.09019
470.4770, 48.91927
470.9591, 49.05706
471.4412, 49.20025
471.9233, 49.20090
472.4054, 49.10417
472.8875, 48.97746
473.3697, 48.83020
473.8518, 48.69514
474.3339, 48.61115
474.8160, 48.57713
475.2981, 48.50045
475.7802, 48.33242
476.2624, 48.17420
476.7445, 48.00005
477.2266, 47.87797
477.7087, 48.03120
478.1908, 48.55718
478.6729, 49.09718
479.1551, 48.96308
479.6372, 47.67121
480.1193, 46.83347
480.6014, 46.57066
481.0835, 46.58281
481.5656, 46.82938
482.0478, 47.21384
482.5299, 47.53160
483.0120, 47.61203
483.4941, 47.59304
483.9762, 48.08684
484.4583, 49.63041
484.9405, 50.57107
485.4226, 50.33699
485.9047, 49.60476
486.3868, 48.67953
486.8689, 47.68048
487.3510, 46.97826
487.8332, 47.02101
488.3153, 47.66285
488.7974, 48.22668
489.2795, 48.73026
489.7616, 49.04948
490.2437, 49.02724
490.7259, 48.78680
491.2080, 48.46822
491.6901, 48.01698
492.1722, 47.65074
492.6543, 47.49760
493.1364, 47.55413
493.6186, 47.88689
494.1007, 48.58002
494.5828, 49.26968
495.0649, 49.50642
495.5470, 49.23674
496.0291, 49.06261
496.5113, 48.99220
496.9934, 49.03176
497.4755, 49.28548
497.9576, 49.65084
498.4397, 49.89377
498.9218, 49.89997
499.4040, 49.73400
499.8861, 49.53209
500.3682, 49.26291
500.8503, 49.01740
501.3324, 48.65460
501.8145, 48.42964
502.2967, 48.58747
502.7788, 49.03807
503.2609, 49.46308
503.7430, 49.62011
504.2251, 49.60876
504.7072, 49.84513
505.1894, 50.48920
505.6715, 51.01566
506.1536, 51.43951
506.6357, 51.60064
507.1178, 51.20420
507.5999, 50.25719
508.0821, 49.37381
508.5642, 49.11890
509.0463, 49.27539
509.5284, 49.11839
510.0105, 48.49692
510.4926, 48.07159
510.9748, 48.45288
511.4569, 49.27087
511.9390, 49.62042
512.4211, 49.18224
512.9032, 48.76966
513.3853, 48.87400
513.8674, 49.24418
514.3495, 49.46795
514.8317, 49.45400
515.3138, 49.27679
515.7959, 48.98741
516.2780, 48.57219
516.7601, 48.23929
517.2422, 48.03342
517.7244, 47.84365
518.2065, 47.56968
518.6886, 47.30926
519.1707, 47.24623
519.6528, 47.43483
520.1349, 47.69163
520.6171, 47.71110
521.0992, 47.40208
521.5813, 47.22991
522.0634, 47.36641
522.5455, 47.47393
523.0276, 47.36568
523.5098, 47.15028
523.9919, 47.05381
524.4740, 47.20403
524.9561, 47.43209
525.4382, 47.48894
525.9203, 47.37130
526.4025, 47.22605
526.8846, 47.03514
527.3667, 46.89770
527.8488, 46.94662
528.3309, 47.15014
528.8130, 47.30648
529.2952, 47.35588
529.7773, 47.33384
530.2594, 47.25945
530.7415, 47.13894
531.2236, 46.96067
531.7057, 46.68579
532.1879, 46.45258
532.6700, 46.56206
533.1521, 47.32155
533.6342, 47.71277
534.1163, 47.47352
534.5984, 47.06832
535.0806, 46.57122
535.5627, 46.16128
536.0448, 46.29325
536.5269, 47.31078
537.0090, 48.79552
537.4911, 49.40627
537.9733, 48.65460
538.4554, 48.10732
538.9375, 48.18864
539.4196, 48.32108
539.9017, 48.10310
540.3839, 47.58230
540.8660, 47.10649
541.3481, 46.91286
541.8302, 46.90619
542.3123, 46.89684
542.7944, 46.88972
543.2766, 46.82693
543.7587, 46.59569
544.2408, 46.37666
544.7229, 46.42639
545.2050, 46.76257
545.6871, 47.17645
546.1693, 47.84103
546.6514, 48.39610
547.1335, 48.30901
547.6156, 47.64873
548.0977, 47.03496
548.5798, 46.84145
549.0620, 46.97088
549.5441, 47.09550
550.0262, 47.26786
550.5083, 47.35923
550.9904, 47.30360
551.4725, 47.21561
551.9547, 47.16243
552.4368, 47.15773
552.9189, 47.19944
553.4010, 47.28863
553.8831, 47.42018
554.3652, 47.59451
554.8474, 47.87873
555.3295, 48.03437
555.8116, 47.89297
556.2937, 47.67363
556.7758, 47.51123
557.2579, 47.41994
557.7401, 47.37323
558.2222, 47.37011
558.7043, 47.39632
559.1864, 47.41536
559.6685, 47.42604
560.1506, 47.51081
560.6328, 47.78044
561.1149, 48.08028
561.5970, 48.02409
562.0791, 47.49384
562.5612, 47.06422
563.0433, 46.75890
563.5255, 46.65497
564.0076, 46.99041
564.4897, 47.63023
564.9718, 48.03246
565.4539, 47.81217
565.9360, 47.22921
566.4182, 47.20858
566.9003, 48.31124
567.3824, 48.91163
567.8645, 48.51643
568.3466, 47.97219
568.8287, 47.79102
569.3109, 47.95154
569.7930, 48.17577
570.2751, 48.28832
570.7572, 48.35944
571.2393, 48.57709
571.7214, 48.96253
572.2036, 49.23000
572.6857, 49.27477
573.1678, 49.17149
573.6499, 48.90473
574.1320, 48.47973
574.6141, 48.35914
575.0963, 49.02163
575.5784, 49.75969
576.0605, 49.91292
576.5426, 49.59695
577.0247, 49.25689
577.5068, 49.08542
577.9890, 49.05505
578.4711, 49.12460
578.9532, 49.35045
579.4353, 49.53491
579.9174, 49.69373
580.3995, 49.80223
580.8817, 49.81583
581.3638, 49.77559
581.8459, 49.74492
582.3280, 49.74978
582.8101, 49.80922
583.2922, 49.97819
583.7744, 50.26641
584.2565, 50.51336
584.7386, 50.68312
585.2207, 50.83170
