##NAMES=Magnesio-hastingsite
##RRUFFID=R040010
##IDEAL CHEMISTRY=NaCa_2_(Mg_4_Fe^3+^)Si_6_Al_2_O_22_(OH)_2_
##LOCALITY=Amity, New York, USA
##OWNER=RRUFF
##SOURCE=University of Arizona Mineral Museum
##DESCRIPTION=Group of black prismatic crystals
##STATUS=The identification of this mineral has been confirmed by X-ray diffraction and chemical analysis
##URL=rruff.info/R040010
##MEASURED CHEMISTRY=(Na_0.50_K_0.43_[box]_0.07_)_Σ=1_(Ca_1.77_Na_0.23_)_Σ=2_(Mg_1.74_Fe_1.22_Fe^3+^_0.79_Mn_0.57_Al_0.30_Zn_0.25_Ti_0.13_)_Σ=5_(Si_5.95_Al_2.05_)_Σ=8_O_22_((OH)_1.75_F_0.22_Cl_0.03_)_Σ=2_; OH estimated by charge balance
164.912, 11149.130
165.394, 11142.470
165.876, 11136.310
166.359, 11130.250
166.841, 11128.820
167.323, 11131.530
167.805, 11140.560
168.287, 11162.500
168.769, 11219.190
169.251, 11283.760
169.733, 11328.490
170.216, 11332.540
170.698, 11329.920
171.180, 11345.150
171.662, 11377.530
172.144, 11419.240
172.626, 11472.510
173.108, 11530.640
173.590, 11584.500
174.072, 11629.700
174.555, 11669.440
175.037, 11704.680
175.519, 11735.140
176.001, 11769.860
176.483, 11817.870
176.965, 11876.130
177.447, 11936.540
177.929, 12002.020
178.412, 12065.360
178.894, 12113.990
179.376, 12145.600
179.858, 12169.390
180.340, 12190.670
180.822, 12210.920
181.304, 12236.630
181.786, 12284.920
182.268, 12340.580
182.751, 12365.970
183.233, 12351.860
183.715, 12318.910
184.197, 12296.210
184.679, 12282.370
185.161, 12266.410
185.643, 12236.530
186.125, 12197.510
186.607, 12166.870
187.090, 12152.240
187.572, 12141.910
188.054, 12112.090
188.536, 12062.700
189.018, 12004.540
189.500, 11940.210
189.982, 11872.740
190.464, 11817.200
190.947, 11779.740
191.429, 11756.060
191.911, 11736.260
192.393, 11721.010
192.875, 11705.880
193.357, 11683.610
193.839, 11654.910
194.321, 11633.100
194.803, 11625.540
195.286, 11629.120
195.768, 11623.890
196.250, 11608.810
196.732, 11589.040
197.214, 11565.660
197.696, 11537.440
198.178, 11523.680
198.661, 11535.030
199.143, 11570.780
199.625, 11607.120
200.107, 11645.870
200.589, 11682.990
201.071, 11708.050
201.553, 11717.390
202.035, 11735.630
202.517, 11778.080
202.999, 11847.400
203.482, 11904.850
203.964, 11942.580
204.446, 11975.660
204.928, 12040.850
205.410, 12147.260
205.892, 12252.210
206.374, 12324.440
206.857, 12354.210
207.339, 12415.960
207.821, 12527.210
208.303, 12665.590
208.785, 12760.200
209.267, 12794.800
209.749, 12826.860
210.231, 12896.730
210.713, 13017.350
211.195, 13122.700
211.678, 13203.200
212.160, 13264.640
212.642, 13329.630
213.124, 13398.160
213.606, 13472.790
214.088, 13557.510
214.570, 13659.590
215.052, 13751.320
215.535, 13826.200
216.017, 13886.550
216.499, 13954.630
216.981, 14035.910
217.463, 14116.380
217.945, 14182.730
218.427, 14227.580
218.909, 14272.620
219.391, 14321.910
219.874, 14375.230
220.356, 14422.850
220.838, 14465.610
221.320, 14500.690
221.802, 14525.790
222.284, 14543.950
222.766, 14545.410
223.248, 14523.810
223.731, 14476.750
224.213, 14439.350
224.695, 14417.870
225.177, 14400.760
225.659, 14372.910
226.141, 14330.690
226.623, 14285.710
227.105, 14240.520
227.587, 14195.080
228.070, 14150.980
228.552, 14111.910
229.034, 14071.280
229.516, 14017.000
229.998, 13933.470
230.480, 13863.070
230.962, 13822.200
231.444, 13820.490
231.926, 13810.680
232.409, 13796.790
232.891, 13772.630
233.373, 13722.590
233.855, 13624.310
234.337, 13536.430
234.819, 13482.850
235.301, 13479.920
235.783, 13462.070
236.266, 13425.380
236.748, 13375.630
237.230, 13324.160
237.712, 13266.750
238.194, 13213.260
238.676, 13168.210
239.158, 13133.050
239.640, 13103.080
240.122, 13082.050
240.605, 13065.440
241.087, 13040.020
241.569, 12995.910
242.051, 12956.870
242.533, 12935.950
243.015, 12946.470
243.497, 12944.380
243.980, 12923.300
244.462, 12889.590
244.944, 12863.310
245.426, 12846.170
245.908, 12833.170
246.390, 12821.100
246.872, 12806.940
247.354, 12800.330
247.836, 12807.970
248.318, 12822.600
248.801, 12816.900
249.283, 12780.620
249.765, 12738.070
250.247, 12700.690
250.729, 12664.310
251.211, 12645.850
251.693, 12657.190
252.176, 12688.430
252.658, 12693.740
253.140, 12661.430
253.622, 12621.850
254.104, 12594.040
254.586, 12586.760
255.068, 12571.110
255.550, 12540.990
256.032, 12500.850
256.514, 12470.740
256.997, 12447.580
257.479, 12439.380
257.961, 12455.260
258.443, 12509.710
258.925, 12550.120
259.407, 12567.180
259.889, 12565.300
260.371, 12569.420
260.854, 12577.990
261.336, 12594.140
261.818, 12623.100
262.300, 12671.900
262.782, 12699.380
263.264, 12635.592
263.746, 12756.170
264.228, 12831.993
264.711, 12865.468
265.193, 12729.754
265.675, 12812.513
266.157, 12807.721
266.639, 12799.336
267.121, 12912.842
267.603, 12801.737
268.085, 12913.311
268.567, 12935.995
269.050, 12938.080
269.532, 12963.820
270.014, 13049.340
270.496, 13127.610
270.978, 13188.270
271.460, 13233.640
271.942, 13271.820
272.424, 13300.180
272.906, 13328.200
273.389, 13364.430
273.871, 13410.350
274.353, 13456.100
274.835, 13500.170
275.317, 13542.530
275.799, 13581.520
276.281, 13614.840
276.763, 13651.230
277.246, 13698.920
277.728, 13758.560
278.210, 13819.150
278.692, 13881.240
279.174, 13941.220
279.656, 13985.750
280.138, 14012.060
280.620, 14034.370
281.103, 14066.280
281.585, 14107.980
282.067, 14139.020
282.549, 14149.680
283.031, 14150.790
283.513, 14183.700
283.995, 14253.460
284.477, 14316.530
284.959, 14330.790
285.441, 14299.610
285.924, 14277.250
286.406, 14274.430
286.888, 14285.510
287.370, 14295.720
287.852, 14304.970
288.334, 14318.160
288.816, 14354.120
289.298, 14404.570
289.781, 14412.290
290.263, 14354.230
290.745, 14262.370
291.227, 14203.530
291.709, 14176.720
292.191, 14160.690
292.673, 14144.140
293.155, 14126.070
293.638, 14103.390
294.120, 14076.870
294.602, 14043.960
295.084, 13994.430
295.566, 13930.350
296.048, 13872.000
296.530, 13842.140
297.012, 13828.850
297.494, 13799.030
297.977, 13740.350
298.459, 13676.060
298.941, 13645.500
299.423, 13642.270
299.905, 13630.890
300.387, 13572.900
300.869, 13494.000
301.351, 13439.300
301.833, 13419.740
302.316, 13417.030
302.798, 13416.680
303.280, 13416.810
303.762, 13411.630
304.244, 13388.660
304.726, 13360.460
305.208, 13346.350
305.690, 13353.410
306.173, 13361.440
306.655, 13303.670
307.137, 13224.210
307.619, 13126.507
308.101, 13189.322
308.583, 13213.170
309.065, 13200.149
309.547, 13039.826
310.030, 13069.715
310.512, 13023.376
310.994, 12973.910
311.476, 13030.566
311.958, 12891.667
312.440, 12946.646
312.922, 12924.230
313.404, 12937.237
313.886, 12857.700
314.369, 12851.330
314.851, 12873.760
315.333, 12884.540
315.815, 12856.890
316.297, 12822.190
316.779, 12797.110
317.261, 12784.590
317.743, 12773.130
318.225, 12759.230
318.708, 12743.930
319.190, 12728.780
319.672, 12712.270
320.154, 12697.880
320.636, 12683.900
321.118, 12668.740
321.600, 12668.010
322.082, 12711.080
322.565, 12760.300
323.047, 12776.480
323.529, 12710.160
324.011, 12652.520
324.493, 12629.040
324.975, 12642.530
325.457, 12653.990
325.939, 12650.150
326.422, 12647.340
326.904, 12658.930
327.386, 12716.400
327.868, 12754.100
328.350, 12753.800
328.832, 12716.510
329.314, 12697.890
329.796, 12715.950
330.278, 12739.050
330.760, 12744.630
331.243, 12712.480
331.725, 12696.040
332.207, 12709.580
332.689, 12746.720
333.171, 12760.650
333.653, 12732.870
334.135, 12706.220
334.617, 12709.690
335.100, 12760.830
335.582, 12798.730
336.064, 12818.190
336.546, 12822.160
337.028, 12815.290
337.510, 12788.830
337.992, 12772.110
338.474, 12787.560
338.957, 12844.330
339.439, 12880.000
339.921, 12886.900
340.403, 12875.970
340.885, 12866.320
341.367, 12855.950
341.849, 12856.780
342.331, 12880.950
342.813, 12927.840
343.296, 12962.030
343.778, 12981.140
344.260, 12992.060
344.742, 13000.130
345.224, 13006.000
345.706, 13022.060
346.188, 13069.180
346.670, 13134.790
347.152, 13155.340
347.635, 13124.690
348.117, 13088.420
348.599, 13100.580
349.081, 13152.200
349.563, 13205.880
350.045, 13248.870
350.527, 13283.830
351.009, 13310.880
351.491, 13329.760
351.974, 13351.020
352.456, 13396.310
352.938, 13449.450
353.420, 13477.590
353.902, 13452.250
354.384, 13413.730
354.866, 13407.830
355.349, 13430.540
355.831, 13453.260
356.313, 13460.870
356.795, 13457.710
357.277, 13447.150
357.759, 13422.410
358.241, 13402.980
358.723, 13408.020
359.205, 13430.600
359.688, 13447.620
360.170, 13442.510
360.652, 13431.500
361.134, 13426.520
361.616, 13433.080
362.098, 13437.560
362.580, 13437.280
363.062, 13431.020
363.544, 13416.540
364.027, 13363.140
364.509, 13325.710
364.991, 13338.580
365.473, 13430.260
365.955, 13486.100
366.437, 13465.560
366.919, 13406.590
367.401, 13359.010
367.884, 13331.090
368.366, 13311.030
368.848, 13299.230
369.330, 13297.550
369.812, 13290.950
370.294, 13271.320
370.776, 13252.470
371.258, 13247.800
371.741, 13267.410
372.223, 13283.830
372.705, 13293.920
373.187, 13297.530
373.669, 13293.530
374.151, 13277.330
374.633, 13259.960
375.115, 13248.630
375.597, 13243.990
376.079, 13243.600
376.562, 13252.910
377.044, 13262.460
377.526, 13240.230
378.008, 13179.460
378.490, 13117.160
378.972, 13070.950
379.454, 13041.620
379.936, 13031.560
380.419, 13048.860
380.901, 13067.880
381.383, 13041.780
381.865, 12973.350
382.347, 12905.270
382.829, 12856.450
383.311, 12823.450
383.793, 12797.490
384.276, 12779.600
384.758, 12760.530
385.240, 12721.560
385.722, 12672.930
386.204, 12641.990
386.686, 12656.130
387.168, 12681.970
387.650, 12677.110
388.132, 12642.980
388.615, 12602.410
389.097, 12565.570
389.579, 12532.650
390.061, 12504.560
390.543, 12487.060
391.025, 12466.400
391.507, 12426.970
391.989, 12375.590
392.471, 12334.780
392.954, 12326.590
393.436, 12324.920
393.918, 12311.620
394.400, 12279.190
394.882, 12247.460
395.364, 12225.810
395.846, 12209.160
396.328, 12188.770
396.810, 12159.760
397.293, 12129.830
397.775, 12097.500
398.257, 12057.910
398.739, 12037.730
399.221, 12066.980
399.703, 12102.410
400.185, 12102.410
400.668, 12032.340
401.150, 11973.750
401.632, 11937.780
402.114, 11923.920
402.596, 11926.500
403.078, 11956.980
403.560, 11988.440
404.042, 12002.620
404.524, 11996.400
405.007, 11983.740
405.489, 11963.990
405.971, 11939.970
406.453, 11916.870
406.935, 11893.020
407.417, 11878.120
407.899, 11881.440
408.381, 11901.650
408.863, 11914.060
409.346, 11915.480
409.828, 11916.320
410.310, 11934.380
410.792, 11967.270
411.274, 11995.580
411.756, 12002.580
412.238, 12002.330
412.720, 12030.120
413.203, 12085.920
413.685, 12140.170
414.167, 12159.900
414.649, 12160.940
415.131, 12173.830
415.613, 12216.760
416.095, 12262.350
416.577, 12284.060
417.060, 12286.460
417.542, 12289.110
418.024, 12293.800
418.506, 12308.250
418.988, 12342.210
419.470, 12407.200
419.952, 12465.080
420.434, 12491.540
420.916, 12502.250
421.398, 12523.920
421.881, 12585.780
422.363, 12640.460
422.845, 12667.860
423.327, 12663.000
423.809, 12658.530
424.291, 12654.040
424.773, 12653.910
425.255, 12662.820
425.738, 12703.390
426.220, 12721.820
426.702, 12701.770
427.184, 12651.180
427.666, 12620.330
428.148, 12625.620
428.630, 12625.270
429.112, 12586.180
429.595, 12486.500
430.077, 12440.070
430.559, 12470.360
431.041, 12532.360
431.523, 12544.480
432.005, 12502.590
432.487, 12442.290
432.969, 12368.200
433.451, 12285.340
433.934, 12228.870
434.416, 12201.720
434.898, 12180.450
435.380, 12136.920
435.862, 12078.010
436.344, 12029.220
436.826, 12002.670
437.308, 11985.220
437.790, 11963.830
438.273, 11937.150
438.755, 11897.930
439.237, 11823.430
439.719, 11741.300
440.201, 11685.140
440.683, 11666.660
441.165, 11656.050
441.647, 11643.180
442.129, 11624.000
442.612, 11591.480
443.094, 11523.860
443.576, 11458.740
444.058, 11414.790
444.540, 11394.360
445.022, 11376.940
445.504, 11362.500
445.987, 11346.790
446.469, 11326.160
446.951, 11300.850
447.433, 11270.180
447.915, 11232.100
448.397, 11188.550
448.879, 11147.400
449.361, 11105.110
449.843, 11070.280
450.326, 11049.260
450.808, 11049.250
451.290, 11035.050
451.772, 11000.330
452.254, 10959.370
452.736, 10936.120
453.218, 10932.790
453.700, 10927.720
454.182, 10913.630
454.665, 10892.020
455.147, 10840.250
455.629, 10749.650
456.111, 10695.610
456.593, 10743.496
457.075, 10766.642
457.557, 10766.374
458.039, 10672.574
458.522, 10699.552
459.004, 10678.126
459.486, 10654.717
459.968, 10698.694
460.450, 10663.420
460.932, 10641.880
461.414, 10621.960
461.896, 10594.140
462.379, 10576.540
462.861, 10594.120
463.343, 10621.890
463.825, 10632.070
464.307, 10591.240
464.789, 10557.030
465.271, 10550.760
465.753, 10568.670
466.235, 10583.800
466.717, 10593.120
467.200, 10597.360
467.682, 10595.980
468.164, 10583.700
468.646, 10576.610
469.128, 10578.210
469.610, 10582.930
470.092, 10580.600
470.574, 10565.190
471.057, 10555.850
471.539, 10555.470
472.021, 10564.430
472.503, 10596.730
472.985, 10660.120
473.467, 10718.720
473.949, 10739.060
474.431, 10723.210
474.914, 10696.830
475.396, 10656.800
475.878, 10621.990
476.360, 10632.480
476.842, 10680.640
477.324, 10725.010
477.806, 10739.440
478.288, 10738.640
478.770, 10740.940
479.253, 10747.400
479.735, 10760.010
480.217, 10783.240
480.699, 10812.720
481.181, 10842.970
481.663, 10868.810
482.145, 10898.350
482.627, 10938.570
483.109, 10985.810
483.592, 11027.260
484.074, 11039.630
484.556, 11060.200
485.038, 11110.830
485.520, 11212.870
486.002, 11292.460
486.484, 11328.520
486.966, 11349.550
487.448, 11389.270
487.931, 11462.950
488.413, 11526.760
488.895, 11572.530
489.377, 11602.300
489.859, 11623.120
490.341, 11629.430
490.823, 11646.490
491.306, 11699.100
491.788, 11786.470
492.270, 11856.740
492.752, 11905.650
493.234, 11941.150
493.716, 11966.020
494.198, 11984.210
494.680, 12013.650
495.162, 12066.990
495.645, 12132.950
496.127, 12200.820
496.609, 12269.090
497.091, 12330.110
497.573, 12368.110
498.055, 12399.930
498.537, 12443.850
499.019, 12506.690
499.501, 12574.940
499.984, 12653.560
500.466, 12732.010
500.948, 12789.860
501.430, 12795.440
501.912, 12805.140
502.394, 12840.210
502.876, 12903.800
503.358, 12964.050
503.841, 13025.680
504.323, 13078.600
504.805, 13113.320
505.287, 13112.220
505.769, 13133.300
506.251, 13183.200
506.733, 13253.740
507.215, 13335.350
507.698, 13432.500
508.180, 13511.120
508.662, 13546.020
509.144, 13547.760
509.626, 13579.860
510.108, 13645.390
510.590, 13715.810
511.072, 13768.460
511.554, 13806.330
512.036, 13834.240
512.519, 13847.500
513.001, 13863.970
513.483, 13900.900
513.965, 13955.540
514.447, 14021.380
514.929, 14101.860
515.411, 14187.490
515.893, 14276.070
516.375, 14367.890
516.858, 14447.690
517.340, 14498.820
517.822, 14541.700
518.304, 14592.930
518.786, 14656.440
519.268, 14726.330
519.750, 14805.610
520.232, 14889.990
520.715, 14969.030
521.197, 15044.690
521.679, 15111.070
522.161, 15159.480
522.643, 15189.200
523.125, 15250.300
523.607, 15352.640
524.089, 15457.270
524.571, 15521.000
525.054, 15548.130
525.536, 15584.440
526.018, 15642.330
526.500, 15703.360
526.982, 15732.310
527.464, 15737.510
527.946, 15753.180
528.429, 15810.600
528.911, 15880.360
529.393, 15931.370
529.875, 15962.410
530.357, 15980.460
530.839, 15990.700
531.321, 15989.370
531.803, 15971.790
532.286, 15919.990
532.768, 15877.400
533.250, 15868.790
533.732, 15875.970
534.214, 15858.450
534.696, 15787.040
535.178, 15721.700
535.660, 15681.740
536.142, 15668.310
536.625, 15640.210
537.107, 15598.380
537.589, 15540.930
538.071, 15455.390
538.553, 15337.340
539.035, 15259.340
539.517, 15239.860
539.999, 15240.300
540.481, 15190.150
540.964, 15096.800
541.446, 15015.680
541.928, 14986.420
542.410, 14975.420
542.892, 14922.710
543.374, 14833.260
543.856, 14750.350
544.338, 14716.800
544.820, 14697.790
545.303, 14658.410
545.785, 14587.120
546.267, 14509.730
546.749, 14434.730
547.231, 14360.960
547.713, 14286.780
548.195, 14199.660
548.677, 14126.090
549.159, 14081.360
549.642, 14060.050
550.124, 14016.490
550.606, 13936.440
551.088, 13856.710
551.570, 13799.940
552.052, 13772.490
552.534, 13729.920
553.016, 13668.390
553.499, 13600.330
553.981, 13542.400
554.463, 13492.980
554.945, 13439.430
555.427, 13376.350
555.909, 13309.840
556.391, 13246.330
556.873, 13186.660
557.356, 13136.180
557.838, 13110.890
558.320, 13087.870
558.802, 13043.650
559.284, 12975.210
559.766, 12903.570
560.248, 12833.980
560.730, 12767.830
561.213, 12707.900
561.695, 12655.580
562.177, 12606.870
562.659, 12562.040
563.141, 12520.460
563.623, 12480.690
564.105, 12445.350
564.587, 12406.430
565.069, 12360.310
565.552, 12306.880
566.034, 12257.750
566.516, 12214.360
566.998, 12168.060
567.480, 12105.570
567.962, 12030.730
568.444, 11979.340
568.926, 11960.300
569.408, 11946.040
569.891, 11892.250
570.373, 11816.050
570.855, 11757.810
571.337, 11744.620
571.819, 11748.130
572.301, 11768.310
572.783, 11793.900
573.265, 11772.820
573.747, 11639.800
574.230, 11488.370
574.712, 11368.290
575.194, 11294.040
575.676, 11222.170
576.158, 11137.780
576.640, 11060.620
577.122, 11011.530
577.604, 11006.370
578.086, 10990.210
578.569, 10956.380
579.051, 10908.720
579.533, 10852.120
580.015, 10784.850
580.497, 10729.400
580.979, 10705.490
581.461, 10699.940
581.943, 10665.330
582.426, 10602.670
582.908, 10545.330
583.390, 10527.310
583.872, 10529.150
584.354, 10523.710
584.836, 10504.990
585.318, 10481.430
585.800, 10454.520
586.282, 10426.460
586.765, 10400.790
587.247, 10381.260
587.729, 10361.050
588.211, 10344.830
588.693, 10328.750
589.175, 10290.240
589.657, 10212.620
590.140, 10135.790
590.622, 10073.010
591.104, 10023.850
591.586, 9998.812
592.068, 10004.830
592.550, 10015.230
593.032, 9998.410
593.514, 9959.435
593.996, 9935.394
594.479, 9935.431
594.961, 9945.591
595.443, 9955.095
595.925, 9960.610
596.407, 9952.933
596.889, 9909.734
597.371, 9866.667
597.853, 9852.709
598.335, 9864.280
598.818, 9875.065
599.300, 9877.787
599.782, 9874.926
600.264, 9867.279
600.746, 9853.618
601.228, 9837.996
601.710, 9812.002
602.192, 9791.086
602.674, 9793.195
603.157, 9827.658
603.639, 9850.422
604.121, 9850.436
604.603, 9841.896
605.085, 9857.931
605.567, 9897.611
606.049, 9936.859
606.531, 9972.107
607.013, 9996.787
607.496, 9991.022
607.978, 9958.097
608.460, 9930.156
608.942, 9922.044
609.424, 9932.584
609.906, 9969.279
610.388, 10045.480
610.870, 10097.500
611.353, 10074.490
611.835, 10029.430
612.317, 10018.200
612.799, 10073.260
613.281, 10127.660
613.763, 10183.640
614.245, 10234.550
614.727, 10259.340
615.209, 10248.210
615.692, 10246.600
616.174, 10276.120
616.656, 10329.160
617.138, 10364.980
617.620, 10383.360
618.102, 10400.870
618.584, 10428.700
619.067, 10465.050
619.549, 10507.720
620.031, 10557.370
620.513, 10606.820
620.995, 10650.020
621.477, 10690.720
621.959, 10733.630
622.441, 10779.700
622.923, 10828.300
623.406, 10878.390
623.888, 10930.480
624.370, 10985.580
624.852, 11044.750
625.334, 11105.060
625.816, 11166.610
626.298, 11228.950
626.780, 11288.050
627.263, 11344.190
627.745, 11396.730
628.227, 11445.120
628.709, 11489.940
629.191, 11531.030
629.673, 11567.460
630.155, 11610.400
630.637, 11680.610
631.119, 11762.030
631.602, 11827.740
632.084, 11858.830
632.566, 11895.440
633.048, 11974.570
633.530, 12072.280
634.012, 12145.160
634.494, 12154.530
634.976, 12168.620
635.458, 12211.790
635.941, 12277.140
636.423, 12314.630
636.905, 12298.340
637.387, 12305.490
637.869, 12388.550
638.351, 12547.250
638.833, 12648.280
639.315, 12685.680
639.797, 12703.500
640.280, 12741.730
640.762, 12792.040
641.244, 12831.870
641.726, 12854.380
642.208, 12875.800
642.690, 12904.190
643.172, 12941.880
643.654, 12992.390
644.137, 13069.670
644.619, 13146.610
645.101, 13216.510
645.583, 13279.720
646.065, 13334.130
646.547, 13373.570
647.029, 13413.770
647.511, 13461.490
647.994, 13515.900
648.476, 13560.100
648.958, 13590.540
649.440, 13624.120
649.922, 13666.920
650.404, 13721.830
650.886, 13815.880
651.368, 13957.440
651.851, 14085.910
652.333, 14128.180
652.815, 14122.970
653.297, 14129.550
653.779, 14169.130
654.261, 14214.910
654.743, 14260.450
655.225, 14302.380
655.707, 14334.720
656.190, 14349.320
656.672, 14362.850
657.154, 14379.910
