##NAMES=Magnesioferrite
##RRUFFID=R060869
##IDEAL CHEMISTRY=MgFe^3+^_2_O_4_
##LOCALITY=Langban, Filipstad, Varmland, Sweden
##OWNER=RRUFF
##SOURCE=Michael Scott
##DESCRIPTION=Black semimetallic massive
##STATUS=The identification of this mineral is confirmed by single-crystal X-ray diffraction and chemical analysis.
##URL=rruff.info/R060869
##MEASURED CHEMISTRY=(Mg_0.67_Mn^2+^_0.30_Fe^2+^_0.03_)_Σ=1_(Fe^3+^_1.97_Al_0.03_)_Σ=2_O_4_
125.3843, 459.7213
125.8665, 516.5320
126.3486, 562.7510
126.8307, 585.6690
127.3128, 607.7290
127.7949, 635.2692
128.2770, 669.9854
128.7592, 711.9000
129.2413, 764.3273
129.7234, 834.7656
130.2055, 892.2092
130.6876, 937.0070
131.1697, 970.5257
131.6519, 991.8796
132.1340, 1001.516
132.6161, 1001.389
133.0982, 992.9798
133.5803, 969.4006
134.0624, 950.9867
134.5446, 938.0479
135.0267, 929.0060
135.5088, 923.4125
135.9909, 920.9345
136.4730, 920.6917
136.9551, 921.5176
137.4373, 929.0075
137.9194, 928.7479
138.4015, 916.8779
138.8836, 899.6384
139.3657, 880.6497
139.8478, 861.3677
140.3300, 844.8453
140.8121, 837.6790
141.2942, 843.1667
141.7763, 855.6922
142.2584, 876.6232
142.7405, 904.1026
143.2227, 937.0202
143.7048, 975.2738
144.1869, 1016.773
144.6690, 1055.987
145.1511, 1091.075
145.6333, 1126.001
146.1154, 1163.127
146.5975, 1200.258
147.0796, 1234.953
147.5617, 1266.381
148.0438, 1293.474
148.5260, 1310.821
149.0081, 1309.196
149.4902, 1310.529
149.9723, 1328.234
150.4544, 1353.251
150.9365, 1365.755
151.4187, 1354.333
151.9008, 1323.594
152.3829, 1294.750
152.8650, 1267.569
153.3471, 1241.916
153.8292, 1217.236
154.3114, 1193.891
154.7935, 1173.667
155.2756, 1158.806
155.7577, 1147.370
156.2398, 1131.084
156.7219, 1101.901
157.2041, 1075.829
157.6862, 1063.940
158.1683, 1063.703
158.6504, 1062.379
159.1325, 1050.886
159.6146, 1033.025
160.0968, 1024.535
160.5789, 1029.750
161.0610, 1040.429
161.5431, 1055.933
162.0252, 1075.077
162.5073, 1086.272
162.9895, 1078.761
163.4716, 1057.676
163.9537, 1044.042
164.4358, 1043.249
164.9179, 1046.455
165.4000, 1045.423
165.8822, 1040.320
166.3643, 1039.530
166.8464, 1050.719
167.3285, 1070.022
167.8106, 1086.300
168.2927, 1100.178
168.7749, 1109.405
169.2570, 1109.361
169.7391, 1099.548
170.2212, 1090.854
170.7033, 1090.079
171.1854, 1095.418
171.6676, 1102.931
172.1497, 1116.028
172.6318, 1128.326
173.1139, 1130.534
173.5960, 1121.281
174.0781, 1114.594
174.5603, 1125.110
175.0424, 1143.335
175.5245, 1151.041
176.0066, 1135.946
176.4887, 1114.262
176.9708, 1106.726
177.4530, 1115.206
177.9351, 1126.480
178.4172, 1134.568
178.8993, 1139.872
179.3814, 1142.263
179.8635, 1140.010
180.3457, 1135.974
180.8278, 1133.893
181.3099, 1134.037
181.7920, 1134.827
182.2741, 1135.733
182.7562, 1136.611
183.2384, 1137.233
183.7205, 1137.449
184.2026, 1137.420
184.6847, 1137.607
185.1668, 1138.265
185.6489, 1138.024
186.1311, 1134.390
186.6132, 1129.687
187.0953, 1126.995
187.5774, 1127.052
188.0595, 1129.707
188.5416, 1136.248
189.0238, 1148.381
189.5059, 1157.642
189.9880, 1157.309
190.4701, 1151.918
190.9522, 1146.297
191.4343, 1140.510
191.9165, 1136.475
192.3986, 1137.438
192.8807, 1144.175
193.3628, 1152.860
193.8449, 1163.697
194.3270, 1174.852
194.8092, 1183.796
195.2913, 1188.992
195.7734, 1192.646
196.2555, 1198.145
196.7376, 1205.989
197.2197, 1213.589
197.7019, 1219.867
198.1840, 1225.187
198.6661, 1229.458
199.1482, 1231.945
199.6303, 1234.445
200.1124, 1238.866
200.5946, 1244.933
201.0767, 1254.243
201.5588, 1273.708
202.0409, 1294.700
202.5230, 1307.801
203.0051, 1308.585
203.4873, 1304.118
203.9694, 1302.940
204.4515, 1305.484
204.9336, 1308.800
205.4157, 1311.979
205.8978, 1315.213
206.3800, 1319.365
206.8621, 1325.814
207.3442, 1330.441
207.8263, 1326.418
208.3084, 1312.460
208.7905, 1301.393
209.2727, 1303.570
209.7548, 1308.239
210.2369, 1304.338
210.7190, 1288.560
211.2011, 1268.346
211.6832, 1250.987
212.1654, 1236.709
212.6475, 1222.719
213.1296, 1209.335
213.6117, 1195.077
214.0938, 1178.243
214.5759, 1158.178
215.0581, 1137.385
215.5402, 1117.750
216.0223, 1099.319
216.5044, 1081.394
216.9865, 1061.016
217.4686, 1043.529
217.9508, 1036.108
218.4329, 1041.004
218.9150, 1044.085
219.3971, 1030.682
219.8792, 1002.472
220.3613, 980.6885
220.8435, 973.1296
221.3256, 972.0301
221.8077, 969.0224
222.2898, 963.7760
222.7719, 958.8582
223.2540, 955.4670
223.7362, 953.6874
224.2183, 954.7014
224.7004, 961.2398
225.1825, 967.3934
225.6646, 966.9332
226.1467, 959.9811
226.6289, 952.0909
227.1110, 944.7631
227.5931, 938.6700
228.0752, 937.1806
228.5573, 943.7450
229.0394, 949.9618
229.5216, 946.1434
230.0037, 933.5923
230.4858, 922.4409
230.9679, 917.4612
231.4500, 916.9609
231.9321, 917.8569
232.4143, 920.5147
232.8964, 922.5800
233.3785, 920.8220
233.8606, 916.1910
234.3427, 912.8260
234.8248, 910.9263
235.3070, 911.4393
235.7891, 917.4151
236.2712, 930.3921
236.7533, 942.4603
237.2354, 945.0562
237.7175, 940.6852
238.1997, 938.6653
238.6818, 942.2066
239.1639, 948.2006
239.6460, 953.9703
240.1281, 959.4728
240.6102, 963.3693
241.0924, 964.9764
241.5745, 964.0286
242.0566, 960.2219
242.5387, 950.2207
243.0208, 939.8362
243.5029, 933.0843
243.9851, 929.9667
244.4672, 929.8199
244.9493, 932.7924
245.4314, 938.5988
245.9135, 945.0195
246.3956, 951.8741
246.8778, 959.5108
247.3599, 968.9302
247.8420, 979.5175
248.3241, 988.9933
248.8062, 996.4788
249.2883, 1001.875
249.7705, 1004.912
250.2526, 1003.903
250.7347, 1003.304
251.2168, 1003.373
251.6989, 1005.012
252.1810, 1011.170
252.6632, 1023.918
253.1453, 1039.198
253.6274, 1047.374
254.1095, 1044.559
254.5916, 1043.216
255.0737, 1047.961
255.5559, 1054.662
256.0380, 1056.427
256.5201, 1051.011
257.0022, 1044.728
257.4843, 1048.003
257.9665, 1067.299
258.4486, 1082.303
258.9307, 1089.871
259.4128, 1094.458
259.8949, 1100.544
260.3770, 1108.742
260.8592, 1115.557
261.3413, 1116.190
261.8234, 1107.075
262.3055, 1105.458
262.7876, 1117.870
263.2697, 1131.610
263.7519, 1138.492
264.2340, 1138.802
264.7161, 1138.093
265.1982, 1141.558
265.6803, 1149.866
266.1624, 1154.343
266.6446, 1151.891
267.1267, 1149.305
267.6088, 1150.455
268.0909, 1153.497
268.5730, 1153.363
269.0551, 1145.891
269.5373, 1132.581
270.0194, 1126.665
270.5015, 1134.287
270.9836, 1143.473
271.4657, 1153.723
271.9478, 1164.161
272.4300, 1174.556
272.9121, 1185.052
273.3942, 1193.931
273.8763, 1195.689
274.3584, 1182.712
274.8405, 1175.009
275.3227, 1178.403
275.8048, 1185.771
276.2869, 1190.277
276.7690, 1189.758
277.2511, 1188.245
277.7332, 1192.383
278.2154, 1203.900
278.6975, 1215.699
279.1796, 1229.078
279.6617, 1241.024
280.1438, 1250.113
280.6259, 1255.996
281.1081, 1258.465
281.5902, 1255.130
282.0723, 1245.353
282.5544, 1241.317
283.0365, 1246.113
283.5186, 1254.966
284.0008, 1267.310
284.4829, 1281.866
284.9650, 1294.822
285.4471, 1304.744
285.9292, 1311.221
286.4113, 1311.222
286.8935, 1300.398
287.3756, 1291.501
287.8577, 1292.222
288.3398, 1299.712
288.8219, 1309.207
289.3040, 1320.499
289.7862, 1331.689
290.2683, 1338.370
290.7504, 1339.251
291.2325, 1344.188
291.7146, 1362.690
292.1967, 1386.883
292.6789, 1403.799
293.1610, 1407.823
293.6431, 1410.668
294.1252, 1423.684
294.6073, 1444.891
295.0894, 1460.238
295.5716, 1459.589
296.0537, 1455.891
296.5358, 1472.569
297.0179, 1513.491
297.5000, 1557.808
297.9821, 1603.636
298.4643, 1645.857
298.9464, 1672.121
299.4285, 1677.166
299.9106, 1676.638
300.3927, 1692.544
300.8748, 1728.936
301.3570, 1758.109
301.8391, 1770.643
302.3212, 1778.952
302.8033, 1795.255
303.2854, 1820.267
303.7675, 1844.594
304.2497, 1859.043
304.7318, 1862.571
305.2139, 1875.636
305.6960, 1904.281
306.1781, 1935.079
306.6602, 1964.954
307.1424, 1992.218
307.6245, 2014.355
308.1066, 2029.585
308.5887, 2038.852
309.0708, 2046.953
309.5529, 2054.456
310.0351, 2059.945
310.5172, 2061.622
310.9993, 2061.830
311.4814, 2062.742
311.9635, 2065.235
312.4456, 2069.543
312.9278, 2077.022
313.4099, 2092.219
313.8920, 2100.562
314.3741, 2091.565
314.8562, 2083.914
315.3383, 2091.747
315.8205, 2115.249
316.3026, 2142.612
316.7847, 2160.950
317.2668, 2169.034
317.7489, 2183.503
318.2310, 2214.749
318.7132, 2241.137
319.1953, 2248.884
319.6774, 2244.591
320.1595, 2245.014
320.6416, 2263.133
321.1237, 2291.527
321.6059, 2308.059
322.0880, 2308.564
322.5701, 2308.230
323.0522, 2311.341
323.5343, 2318.549
324.0164, 2331.579
324.4986, 2351.817
324.9807, 2376.020
325.4628, 2404.329
325.9449, 2436.082
326.4270, 2458.202
326.9091, 2460.458
327.3913, 2456.712
327.8734, 2468.263
328.3555, 2498.269
328.8376, 2524.716
329.3197, 2537.386
329.8018, 2540.058
330.2840, 2538.606
330.7661, 2533.667
331.2482, 2527.795
331.7303, 2523.467
332.2124, 2520.799
332.6945, 2518.982
333.1767, 2518.751
333.6588, 2518.805
334.1409, 2518.386
334.6230, 2517.420
335.1051, 2516.469
335.5872, 2516.720
336.0694, 2517.315
336.5515, 2509.496
337.0336, 2487.820
337.5157, 2465.499
337.9978, 2448.351
338.4799, 2431.505
338.9621, 2405.809
339.4442, 2367.567
339.9263, 2324.368
340.4084, 2292.037
340.8905, 2275.757
341.3727, 2261.353
341.8548, 2252.012
342.3369, 2241.618
342.8190, 2226.414
343.3011, 2205.774
343.7832, 2180.810
344.2654, 2150.165
344.7475, 2112.988
345.2296, 2085.650
345.7117, 2076.176
346.1938, 2067.803
346.6759, 2053.397
347.1581, 2035.527
347.6402, 2019.595
348.1223, 2008.407
348.6044, 2000.604
349.0865, 1993.831
349.5686, 1988.552
350.0508, 1982.216
350.5329, 1967.999
351.0150, 1955.288
351.4971, 1958.693
351.9792, 1985.855
352.4613, 2005.194
352.9435, 1985.923
353.4256, 1937.250
353.9077, 1895.009
354.3898, 1867.339
354.8719, 1849.227
355.3540, 1836.801
355.8362, 1829.572
356.3183, 1825.111
356.8004, 1826.367
357.2825, 1828.096
357.7646, 1823.693
358.2467, 1813.292
358.7289, 1804.222
359.2110, 1803.377
359.6931, 1809.142
360.1752, 1802.622
360.6573, 1766.466
361.1394, 1739.707
361.6216, 1739.762
362.1037, 1755.852
362.5858, 1772.035
363.0679, 1781.846
363.5500, 1785.948
364.0321, 1785.818
364.5143, 1783.176
364.9964, 1772.351
365.4785, 1741.338
365.9606, 1712.426
366.4427, 1702.553
366.9248, 1710.950
367.4070, 1723.767
367.8891, 1728.272
368.3712, 1724.701
368.8533, 1723.378
369.3354, 1724.832
369.8175, 1728.035
370.2997, 1735.402
370.7818, 1743.435
371.2639, 1746.498
371.7460, 1741.517
372.2281, 1732.325
372.7102, 1722.953
373.1924, 1713.004
373.6745, 1707.906
374.1566, 1712.203
374.6387, 1720.011
375.1208, 1725.691
375.6029, 1729.273
376.0851, 1728.838
376.5672, 1718.229
377.0493, 1704.070
377.5314, 1701.984
378.0135, 1715.814
378.4956, 1728.383
378.9778, 1722.364
379.4599, 1697.839
379.9420, 1682.330
380.4241, 1684.753
380.9062, 1688.195
381.3883, 1682.763
381.8705, 1670.743
382.3526, 1658.529
382.8347, 1649.294
383.3168, 1642.122
383.7989, 1634.527
384.2810, 1617.088
384.7632, 1612.656
385.2453, 1638.501
385.7274, 1666.007
386.2095, 1668.080
386.6916, 1643.334
387.1737, 1613.282
387.6559, 1600.344
388.1380, 1605.385
388.6201, 1611.104
389.1022, 1618.076
389.5843, 1625.098
390.0664, 1631.672
390.5486, 1638.069
391.0307, 1645.086
391.5128, 1653.840
391.9949, 1661.781
392.4770, 1665.466
392.9591, 1665.025
393.4413, 1658.128
393.9234, 1635.552
394.4055, 1613.174
394.8876, 1609.297
395.3697, 1625.581
395.8518, 1643.155
396.3340, 1651.610
396.8161, 1655.409
397.2982, 1663.537
397.7803, 1677.509
398.2624, 1689.820
398.7445, 1693.721
399.2267, 1689.465
399.7088, 1687.435
400.1909, 1688.515
400.6730, 1690.756
401.1551, 1693.188
401.6372, 1696.176
402.1194, 1699.809
402.6015, 1704.000
403.0836, 1710.663
403.5657, 1724.132
404.0478, 1752.148
404.5299, 1772.811
405.0121, 1782.659
405.4942, 1789.136
405.9763, 1795.429
406.4584, 1802.586
406.9405, 1811.604
407.4226, 1824.454
407.9048, 1839.911
408.3869, 1848.981
408.8690, 1847.656
409.3511, 1847.316
409.8332, 1851.513
410.3153, 1858.898
410.7975, 1868.470
411.2796, 1880.280
411.7617, 1892.717
412.2438, 1903.794
412.7259, 1913.908
413.2080, 1926.111
413.6902, 1942.125
414.1723, 1958.042
414.6544, 1968.903
415.1365, 1975.338
415.6186, 1981.759
416.1007, 1988.137
416.5829, 1995.477
417.0650, 2003.750
417.5471, 2013.510
418.0292, 2027.049
418.5113, 2046.030
418.9934, 2069.076
419.4756, 2091.522
419.9577, 2113.651
420.4398, 2134.971
420.9219, 2156.916
421.4040, 2177.167
421.8861, 2192.109
422.3683, 2202.199
422.8504, 2212.431
423.3325, 2227.512
423.8146, 2247.389
424.2967, 2272.342
424.7788, 2307.898
425.2610, 2341.398
425.7431, 2364.494
426.2252, 2384.256
426.7073, 2412.407
427.1894, 2455.343
427.6715, 2500.498
428.1537, 2528.948
428.6358, 2541.739
429.1179, 2560.331
429.6000, 2590.119
430.0821, 2627.061
430.5642, 2668.744
431.0464, 2714.902
431.5285, 2759.546
432.0106, 2803.219
432.4927, 2843.270
432.9748, 2871.556
433.4569, 2891.023
433.9391, 2921.442
434.4212, 2977.761
434.9033, 3049.689
435.3854, 3098.063
435.8675, 3104.799
436.3496, 3110.835
436.8318, 3115.789
437.3139, 3123.138
437.7960, 3138.805
438.2781, 3162.019
438.7602, 3183.829
439.2423, 3194.236
439.7245, 3193.187
440.2066, 3194.563
440.6887, 3205.340
441.1708, 3208.414
441.6529, 3195.399
442.1350, 3172.848
442.6172, 3150.650
443.0993, 3133.083
443.5814, 3112.092
444.0635, 3074.918
444.5456, 3024.041
445.0277, 2979.290
445.5099, 2945.019
445.9920, 2918.431
446.4741, 2902.740
446.9562, 2896.547
447.4383, 2877.859
447.9204, 2831.539
448.4026, 2780.909
448.8847, 2743.204
449.3668, 2716.633
449.8489, 2692.743
450.3310, 2666.923
450.8131, 2641.792
451.2953, 2623.964
451.7774, 2620.874
452.2595, 2614.065
452.7416, 2602.259
453.2237, 2588.075
453.7059, 2570.180
454.1880, 2550.769
454.6701, 2536.202
455.1522, 2531.576
455.6343, 2535.874
456.1165, 2545.908
456.5986, 2566.247
457.0807, 2581.503
457.5628, 2578.150
458.0449, 2570.606
458.5270, 2574.272
459.0092, 2592.885
459.4913, 2612.568
459.9734, 2623.522
460.4555, 2629.056
460.9376, 2635.584
461.4197, 2643.751
461.9019, 2656.085
462.3840, 2676.866
462.8661, 2705.046
463.3482, 2723.707
463.8303, 2720.507
464.3124, 2722.578
464.7946, 2741.588
465.2767, 2770.641
465.7588, 2801.851
466.2409, 2832.290
466.7230, 2859.039
467.2051, 2877.890
467.6873, 2887.940
468.1694, 2894.306
468.6515, 2883.549
469.1336, 2883.444
469.6157, 2915.611
470.0978, 2963.528
470.5800, 2995.723
471.0621, 2995.537
471.5442, 2982.286
472.0263, 2979.430
472.5084, 2986.691
472.9905, 3000.820
473.4727, 3026.041
473.9548, 3049.877
474.4369, 3053.473
474.9190, 3038.183
475.4011, 3027.477
475.8832, 3029.519
476.3654, 3034.317
476.8475, 3035.681
477.3296, 3033.392
477.8117, 3029.397
478.2938, 3025.159
478.7759, 3017.307
479.2581, 2996.840
479.7402, 2951.659
480.2223, 2915.227
480.7044, 2890.619
481.1865, 2871.536
481.6686, 2856.958
482.1508, 2844.902
482.6329, 2831.503
483.1150, 2815.256
483.5971, 2795.003
484.0792, 2766.006
484.5613, 2726.697
485.0435, 2687.968
485.5256, 2653.486
486.0077, 2621.453
486.4898, 2590.389
486.9719, 2560.678
487.4540, 2527.531
487.9362, 2483.500
488.4183, 2438.457
488.9004, 2406.485
489.3825, 2386.571
489.8646, 2364.328
490.3467, 2329.593
490.8289, 2286.277
491.3110, 2250.524
491.7931, 2228.889
492.2752, 2206.662
492.7573, 2185.165
493.2394, 2161.350
493.7216, 2131.055
494.2037, 2095.184
494.6858, 2059.934
495.1679, 2028.786
495.6500, 2002.490
496.1321, 1986.139
496.6143, 1983.615
497.0964, 1979.176
497.5785, 1964.167
498.0606, 1945.211
498.5427, 1931.915
499.0248, 1926.988
499.5070, 1916.364
499.9891, 1884.648
500.4712, 1847.289
500.9533, 1827.118
501.4354, 1825.797
501.9175, 1831.685
502.3997, 1838.024
502.8818, 1843.865
503.3639, 1843.551
503.8460, 1833.534
504.3281, 1821.557
504.8102, 1805.436
505.2924, 1789.492
505.7745, 1776.227
506.2566, 1766.643
506.7387, 1762.312
507.2208, 1766.340
507.7029, 1776.820
508.1851, 1783.868
508.6672, 1786.708
509.1493, 1788.521
509.6314, 1792.763
510.1135, 1795.429
510.5956, 1790.096
511.0778, 1774.246
511.5599, 1760.092
512.0420, 1753.797
512.5241, 1752.112
513.0062, 1749.699
513.4883, 1746.575
513.9705, 1748.816
514.4526, 1762.031
514.9347, 1783.191
515.4168, 1796.018
515.8989, 1789.171
516.3810, 1788.992
516.8632, 1802.026
517.3453, 1818.842
517.8274, 1833.076
518.3095, 1843.472
518.7916, 1851.191
519.2737, 1857.238
519.7559, 1861.167
520.2380, 1860.101
520.7201, 1852.384
521.2022, 1847.816
521.6843, 1851.542
522.1664, 1859.954
522.6486, 1867.793
523.1307, 1875.432
523.6128, 1880.761
524.0949, 1882.179
524.5770, 1881.585
525.0591, 1880.582
525.5413, 1879.363
526.0234, 1878.034
526.5055, 1876.822
526.9876, 1875.100
527.4697, 1869.983
527.9518, 1854.510
528.4340, 1848.987
528.9161, 1863.028
529.3982, 1879.210
529.8803, 1885.532
530.3624, 1883.553
530.8445, 1883.409
531.3267, 1896.077
531.8088, 1909.847
532.2909, 1896.895
532.7730, 1857.832
533.2551, 1835.141
533.7372, 1848.134
534.2194, 1875.924
534.7015, 1886.818
535.1836, 1877.206
535.6657, 1879.299
536.1478, 1908.704
536.6299, 1939.318
537.1121, 1954.304
537.5942, 1957.476
538.0763, 1958.876
538.5584, 1963.076
539.0405, 1969.418
539.5226, 1977.256
540.0048, 1987.374
540.4869, 1995.513
540.9690, 2000.433
541.4511, 2004.440
541.9332, 2008.927
542.4153, 2013.458
542.8975, 2016.401
543.3796, 2014.416
543.8617, 2015.634
544.3438, 2031.507
544.8259, 2056.183
545.3080, 2072.681
545.7902, 2076.785
546.2723, 2075.597
546.7544, 2075.449
547.2365, 2076.279
547.7186, 2080.064
548.2007, 2087.613
548.6829, 2096.842
549.1650, 2109.689
549.6471, 2122.718
550.1292, 2131.099
550.6113, 2134.198
551.0934, 2137.274
551.5756, 2147.313
552.0577, 2162.511
552.5398, 2170.132
553.0219, 2166.056
553.5040, 2169.352
553.9861, 2196.759
554.4683, 2234.083
554.9504, 2252.469
555.4325, 2244.833
555.9146, 2239.382
556.3967, 2244.083
556.8788, 2255.412
557.3610, 2273.450
557.8431, 2295.677
558.3252, 2313.774
558.8073, 2321.878
559.2894, 2323.907
559.7715, 2332.959
560.2537, 2355.056
560.7358, 2369.348
561.2179, 2363.586
561.7000, 2357.548
562.1821, 2361.014
562.6642, 2373.595
563.1464, 2391.748
563.6285, 2418.030
564.1106, 2444.784
564.5927, 2463.188
565.0748, 2474.697
565.5569, 2484.774
566.0391, 2495.143
566.5212, 2503.627
567.0033, 2505.649
567.4854, 2498.290
567.9675, 2507.551
568.4496, 2552.739
568.9318, 2589.962
569.4139, 2595.844
569.8960, 2591.043
570.3781, 2602.899
570.8602, 2638.305
571.3423, 2680.555
571.8245, 2713.110
572.3066, 2737.818
572.7887, 2764.556
573.2708, 2793.713
573.7529, 2824.579
574.2350, 2857.034
574.7172, 2891.034
575.1993, 2927.044
575.6814, 2966.468
576.1635, 3004.280
576.6456, 3037.137
577.1277, 3069.533
577.6099, 3105.690
578.0920, 3145.175
578.5741, 3184.910
579.0562, 3222.684
579.5383, 3261.458
580.0204, 3309.288
580.5026, 3368.883
580.9847, 3426.443
581.4668, 3478.609
581.9489, 3529.768
582.4310, 3578.330
582.9131, 3628.008
583.3953, 3689.746
583.8774, 3774.513
584.3595, 3862.309
584.8416, 3938.751
585.3237, 4009.208
585.8058, 4084.607
586.2880, 4166.964
586.7701, 4250.675
587.2522, 4329.205
587.7343, 4402.865
588.2164, 4482.607
588.6985, 4570.165
589.1807, 4661.891
589.6628, 4757.171
590.1449, 4855.651
590.6270, 4958.932
591.1091, 5066.342
591.5912, 5173.122
592.0734, 5268.796
592.5555, 5366.082
593.0376, 5491.140
593.5197, 5640.343
594.0018, 5779.538
594.4839, 5892.902
594.9661, 5995.995
595.4482, 6112.450
595.9303, 6248.836
596.4124, 6377.984
596.8945, 6486.987
597.3766, 6604.276
597.8588, 6745.445
598.3409, 6900.396
598.8230, 7053.510
599.3051, 7199.891
599.7872, 7340.771
600.2693, 7475.361
600.7515, 7605.493
601.2336, 7742.744
601.7157, 7889.196
602.1978, 8029.834
602.6799, 8153.180
603.1620, 8266.449
603.6442, 8394.196
604.1263, 8555.706
604.6084, 8690.398
605.0905, 8767.756
605.5726, 8836.820
606.0547, 8939.160
606.5369, 9061.657
607.0190, 9165.736
607.5011, 9230.140
607.9832, 9270.845
608.4653, 9310.719
608.9474, 9349.564
609.4296, 9390.797
609.9117, 9438.458
610.3938, 9480.089
610.8759, 9513.790
611.3580, 9533.507
611.8401, 9518.962
612.3223, 9441.769
612.8044, 9369.741
613.2865, 9332.917
613.7686, 9303.459
614.2507, 9248.403
614.7328, 9169.521
615.2150, 9096.158
615.6971, 9052.587
616.1792, 9022.517
616.6613, 8958.264
617.1434, 8855.561
617.6255, 8744.785
618.1077, 8627.464
618.5898, 8510.022
619.0719, 8403.321
619.5540, 8303.489
620.0361, 8193.539
620.5182, 8061.294
621.0004, 7928.770
