##NAMES=Magnesiotaaffeite-2N2S
##RRUFFID=R070555
##IDEAL CHEMISTRY=Mg_3_BeAl_8_O_16_
##LOCALITY=Tunduru, Tanzania
##OWNER=RRUFF
##SOURCE=www.multicolour.com 
##DESCRIPTION=Slightly pink cut gemstone, 0.15 ct.
##STATUS=The identification of this mineral is confirmed by single-crystal X-ray diffraction and chemical analysis.
##URL=rruff.info/R070555
##MEASURED CHEMISTRY=(Mg_2.92_Fe_0.08_)_Î£=3_Be_1.00_Al_8.00_O_16_ ; BeO estimated by difference
147.5659, 1354.912
148.0480, 1426.405
148.5301, 1504.472
149.0122, 1551.161
149.4943, 1557.881
149.9765, 1549.611
150.4586, 1572.088
150.9407, 1652.937
151.4228, 1716.662
151.9049, 1774.220
152.3870, 1808.328
152.8692, 1787.236
153.3513, 1702.294
153.8334, 1587.118
154.3155, 1503.824
154.7976, 1445.943
155.2797, 1432.511
155.7619, 1503.242
156.2440, 1594.898
156.7261, 1643.191
157.2082, 1622.563
157.6903, 1560.390
158.1724, 1527.105
158.6546, 1554.502
159.1367, 1572.071
159.6188, 1586.202
160.1009, 1585.497
160.5830, 1549.473
161.0651, 1466.917
161.5473, 1357.776
162.0294, 1289.653
162.5115, 1279.581
162.9936, 1293.307
163.4757, 1342.371
163.9578, 1409.631
164.4400, 1476.322
164.9221, 1533.341
165.4042, 1579.062
165.8863, 1605.199
166.3684, 1610.986
166.8505, 1598.508
167.3327, 1554.142
167.8148, 1493.489
168.2969, 1439.788
168.7790, 1405.779
169.2611, 1389.295
169.7432, 1379.317
170.2254, 1399.149
170.7075, 1399.439
171.1896, 1342.998
171.6717, 1260.695
172.1538, 1213.150
172.6359, 1240.728
173.1181, 1329.917
173.6002, 1370.641
174.0823, 1311.583
174.5644, 1267.890
175.0465, 1288.850
175.5286, 1349.490
176.0108, 1392.479
176.4929, 1379.045
176.9750, 1317.865
177.4571, 1297.979
177.9392, 1366.741
178.4213, 1418.460
178.9035, 1401.800
179.3856, 1340.075
179.8677, 1291.537
180.3498, 1295.769
180.8319, 1347.212
181.3140, 1370.501
181.7962, 1347.964
182.2783, 1323.074
182.7604, 1306.638
183.2425, 1299.656
183.7246, 1300.637
184.2067, 1307.339
184.6889, 1320.720
185.1710, 1358.882
185.6531, 1466.439
186.1352, 1548.513
186.6173, 1568.602
187.0994, 1533.768
187.5816, 1463.289
188.0637, 1363.248
188.5458, 1237.153
189.0279, 1144.213
189.5100, 1060.998
189.9921, 1025.166
190.4743, 1080.388
190.9564, 1199.533
191.4385, 1312.418
191.9206, 1372.530
192.4027, 1382.798
192.8848, 1390.538
193.3670, 1410.238
193.8491, 1414.054
194.3312, 1377.121
194.8133, 1312.897
195.2954, 1258.365
195.7775, 1239.142
196.2597, 1252.316
196.7418, 1257.292
197.2239, 1245.443
197.7060, 1235.910
198.1881, 1239.125
198.6702, 1250.965
199.1524, 1258.922
199.6345, 1253.188
200.1166, 1236.072
200.5987, 1238.521
201.0808, 1286.874
201.5629, 1322.805
202.0451, 1310.411
202.5272, 1267.808
203.0093, 1242.934
203.4914, 1269.701
203.9735, 1338.740
204.4556, 1363.750
204.9378, 1298.188
205.4199, 1247.745
205.9020, 1264.735
206.3841, 1322.771
206.8662, 1359.362
207.3483, 1333.278
207.8305, 1257.949
208.3126, 1229.976
208.7947, 1301.882
209.2768, 1355.233
209.7589, 1352.486
210.2410, 1309.328
210.7232, 1253.265
211.2053, 1196.555
211.6874, 1143.547
212.1695, 1118.437
212.6516, 1115.724
213.1337, 1143.469
213.6159, 1244.250
214.0980, 1371.182
214.5801, 1444.915
215.0622, 1420.564
215.5443, 1322.586
216.0264, 1253.533
216.5086, 1210.155
216.9907, 1198.282
217.4728, 1261.070
217.9549, 1346.695
218.4370, 1372.621
218.9191, 1296.217
219.4013, 1156.427
219.8834, 1080.654
220.3655, 1122.062
220.8476, 1170.352
221.3297, 1229.064
221.8118, 1286.511
222.2940, 1335.395
222.7761, 1372.675
223.2582, 1388.819
223.7403, 1357.643
224.2224, 1186.392
224.7046, 1084.454
225.1867, 1093.063
225.6688, 1157.227
226.1509, 1234.699
226.6330, 1307.861
227.1151, 1363.581
227.5973, 1373.786
228.0794, 1313.034
228.5615, 1239.792
229.0436, 1116.664
229.5257, 1003.701
230.0078, 962.4162
230.4900, 1007.621
230.9721, 1094.285
231.4542, 1145.841
231.9363, 1134.143
232.4184, 1139.162
232.9005, 1166.405
233.3827, 1204.898
233.8648, 1257.835
234.3469, 1321.343
234.8290, 1373.005
235.3111, 1373.385
235.7932, 1284.687
236.2754, 1239.325
236.7575, 1264.503
237.2396, 1305.681
237.7217, 1337.214
238.2038, 1353.214
238.6859, 1357.306
239.1681, 1352.836
239.6502, 1339.050
240.1323, 1319.195
240.6144, 1292.399
241.0965, 1260.290
241.5786, 1203.683
242.0608, 1134.843
242.5429, 1098.877
243.0250, 1165.444
243.5071, 1351.623
243.9892, 1432.666
244.4713, 1282.558
244.9535, 1140.369
245.4356, 1108.253
245.9177, 1163.794
246.3998, 1225.754
246.8819, 1232.702
247.3640, 1189.418
247.8462, 1151.322
248.3283, 1102.490
248.8104, 1082.054
249.2925, 1126.225
249.7746, 1206.963
250.2567, 1267.433
250.7389, 1264.881
251.2210, 1218.639
251.7031, 1204.438
252.1852, 1250.798
252.6673, 1275.477
253.1494, 1202.191
253.6316, 1094.139
254.1137, 1056.197
254.5958, 1172.233
255.0779, 1348.540
255.5600, 1384.192
256.0421, 1226.468
256.5243, 1100.531
257.0064, 1148.527
257.4885, 1275.250
257.9706, 1381.321
258.4527, 1448.208
258.9348, 1473.449
259.4170, 1434.655
259.8991, 1324.864
260.3812, 1239.127
260.8633, 1228.948
261.3454, 1258.511
261.8275, 1283.052
262.3097, 1300.862
262.7918, 1306.530
263.2739, 1281.751
263.7560, 1233.227
264.2381, 1212.331
264.7202, 1245.439
265.2024, 1307.089
265.6845, 1362.829
266.1666, 1418.760
266.6487, 1447.782
267.1308, 1393.246
267.6129, 1300.710
268.0951, 1301.972
268.5772, 1458.130
269.0593, 1658.619
269.5414, 1725.020
270.0235, 1645.521
270.5056, 1596.611
270.9878, 1652.167
271.4699, 1753.534
271.9520, 1820.486
272.4341, 1836.362
272.9162, 1837.427
273.3983, 1868.176
273.8805, 1938.084
274.3626, 1976.786
274.8447, 1967.137
275.3268, 1934.341
275.8089, 1882.564
276.2910, 1818.827
276.7732, 1778.970
277.2553, 1795.984
277.7374, 1875.310
278.2195, 1963.498
278.7016, 2084.192
279.1837, 2190.609
279.6659, 2267.167
280.1480, 2310.994
280.6301, 2318.057
281.1122, 2282.854
281.5943, 2208.993
282.0764, 2136.088
282.5586, 2038.194
283.0407, 1969.919
283.5228, 1969.419
284.0049, 2001.518
284.4870, 2016.827
284.9691, 1991.188
285.4513, 1927.762
285.9334, 1833.399
286.4155, 1647.418
286.8976, 1518.653
287.3797, 1478.579
287.8618, 1488.287
288.3440, 1523.588
288.8261, 1574.260
289.3082, 1620.710
289.7903, 1621.622
290.2724, 1542.841
290.7545, 1508.920
291.2367, 1576.025
291.7188, 1652.940
292.2009, 1678.096
292.6830, 1647.020
293.1651, 1605.802
293.6472, 1596.991
294.1294, 1621.618
294.6115, 1668.668
295.0936, 1758.583
295.5757, 1851.113
296.0578, 1936.464
296.5399, 2009.489
297.0221, 2056.456
297.5042, 2063.351
297.9863, 2036.017
298.4684, 1998.096
298.9505, 1948.442
299.4326, 1889.116
299.9148, 1801.599
300.3969, 1706.688
300.8790, 1646.925
301.3611, 1650.532
301.8432, 1686.994
302.3253, 1714.795
302.8075, 1732.773
303.2896, 1756.667
303.7717, 1807.296
304.2538, 1863.952
304.7359, 1883.089
305.2180, 1834.834
305.7002, 1788.162
306.1823, 1793.673
306.6644, 1840.517
307.1465, 1894.681
307.6286, 1953.335
308.1107, 1997.036
308.5929, 1974.583
309.0750, 1860.290
309.5571, 1765.907
310.0392, 1748.773
310.5213, 1759.809
311.0034, 1713.459
311.4856, 1587.558
311.9677, 1463.313
312.4498, 1454.291
312.9319, 1624.016
313.4140, 1719.169
313.8961, 1684.649
314.3783, 1619.140
314.8604, 1589.539
315.3425, 1598.523
315.8246, 1611.835
316.3067, 1597.904
316.7888, 1554.481
317.2710, 1532.156
317.7531, 1570.658
318.2352, 1587.022
318.7173, 1524.872
319.1994, 1425.759
319.6815, 1367.169
320.1637, 1398.514
320.6458, 1493.130
321.1279, 1548.694
321.6100, 1530.068
322.0921, 1527.476
322.5742, 1577.208
323.0564, 1637.302
323.5385, 1662.758
324.0206, 1638.666
324.5027, 1597.164
324.9848, 1596.901
325.4669, 1656.547
325.9491, 1656.919
326.4312, 1506.025
326.9133, 1344.529
327.3954, 1256.823
327.8775, 1246.953
328.3596, 1273.840
328.8418, 1335.312
329.3239, 1415.294
329.8060, 1436.424
330.2881, 1373.142
330.7702, 1287.231
331.2523, 1212.649
331.7345, 1151.303
332.2166, 1113.139
332.6987, 1107.518
333.1808, 1123.327
333.6629, 1149.742
334.1451, 1186.376
334.6272, 1232.791
335.1093, 1295.046
335.5914, 1365.141
336.0735, 1415.344
336.5556, 1431.315
337.0378, 1444.790
337.5199, 1471.268
338.0020, 1505.411
338.4841, 1540.163
338.9662, 1575.191
339.4483, 1598.809
339.9305, 1583.677
340.4126, 1469.602
340.8947, 1423.883
341.3768, 1534.201
341.8589, 1665.461
342.3410, 1677.179
342.8232, 1559.317
343.3053, 1429.480
343.7874, 1422.328
344.2695, 1567.975
344.7516, 1663.510
345.2337, 1671.227
345.7159, 1668.806
346.1980, 1678.109
346.6801, 1700.188
347.1622, 1731.075
347.6443, 1769.426
348.1265, 1813.321
348.6086, 1857.000
349.0907, 1913.209
349.5728, 1944.039
350.0549, 1931.284
350.5370, 1895.252
351.0192, 1852.889
351.5013, 1808.176
351.9834, 1767.254
352.4655, 1745.659
352.9476, 1744.186
353.4297, 1716.846
353.9119, 1625.175
354.3940, 1534.065
354.8761, 1517.661
355.3582, 1575.397
355.8403, 1615.893
356.3224, 1573.767
356.8046, 1491.737
357.2867, 1445.646
357.7688, 1446.237
358.2509, 1469.586
358.7330, 1503.719
359.2151, 1546.944
359.6973, 1579.862
360.1794, 1599.459
360.6615, 1610.510
361.1436, 1615.350
361.6257, 1613.980
362.1078, 1601.223
362.5900, 1570.295
363.0721, 1534.950
363.5542, 1539.974
364.0363, 1617.654
364.5184, 1695.568
365.0005, 1785.531
365.4827, 1865.826
365.9648, 1903.034
366.4469, 1894.633
366.9290, 1882.496
367.4111, 1928.952
367.8932, 2062.148
368.3754, 2140.284
368.8575, 2113.842
369.3396, 2077.255
369.8217, 2052.520
370.3038, 2047.801
370.7859, 2075.551
371.2681, 2156.612
371.7502, 2269.736
372.2323, 2343.968
372.7144, 2374.101
373.1965, 2377.592
373.6786, 2332.916
374.1608, 2276.939
374.6429, 2252.429
375.1250, 2274.062
375.6071, 2311.179
376.0892, 2344.119
376.5714, 2371.604
377.0535, 2385.885
377.5356, 2383.214
378.0177, 2369.520
378.4998, 2350.763
378.9819, 2327.280
379.4641, 2300.698
379.9462, 2274.329
380.4283, 2243.285
380.9104, 2199.871
381.3925, 2144.700
381.8746, 2085.779
382.3568, 2026.259
382.8389, 1966.923
383.3210, 1933.176
383.8031, 1939.751
384.2852, 1950.410
384.7673, 1952.480
385.2495, 1953.341
385.7316, 1973.281
386.2137, 2020.280
386.6958, 2065.115
387.1779, 2039.442
387.6600, 1886.296
388.1422, 1800.143
388.6243, 1842.072
389.1064, 1908.084
389.5885, 1924.419
390.0706, 1898.805
390.5527, 1795.070
391.0349, 1995.083
391.5170, 2131.505
391.9991, 2207.771
392.4812, 2043.690
392.9633, 2189.963
393.4454, 2211.864
393.9276, 2228.675
394.4097, 2418.629
394.8918, 2289.508
395.3739, 2476.717
395.8560, 2537.651
396.3381, 2656.381
396.8203, 2588.560
397.3024, 2655.069
397.7845, 2752.127
398.2666, 2871.467
398.7487, 3023.044
399.2308, 3156.546
399.7130, 3242.594
400.1951, 3321.169
400.6772, 3431.299
401.1593, 3574.063
401.6414, 3721.176
402.1235, 3844.982
402.6057, 3946.752
403.0878, 4093.775
403.5699, 4362.374
404.0520, 4589.456
404.5341, 4719.315
405.0162, 4795.775
405.4984, 4876.511
405.9805, 4984.119
406.4626, 5103.414
406.9447, 5205.425
407.4268, 5282.667
407.9089, 5379.199
408.3911, 5471.324
408.8732, 5614.080
409.3553, 5836.599
409.8374, 6139.611
410.3195, 6510.625
410.8016, 6961.258
411.2838, 7469.949
411.7659, 8005.498
412.2480, 8569.693
412.7301, 9140.441
413.2122, 9717.909
413.6943, 10287.36
414.1765, 10826.81
414.6586, 11442.49
415.1407, 11882.43
415.6228, 12004.13
416.1049, 11882.28
416.5870, 11634.00
417.0692, 11294.39
417.5513, 10846.44
418.0334, 10248.51
418.5155, 9432.646
418.9976, 8689.600
419.4797, 8039.403
419.9619, 7428.768
420.4440, 6802.641
420.9261, 6192.803
421.4082, 5680.463
421.8903, 5323.576
422.3724, 5089.366
422.8546, 4873.389
423.3367, 4678.066
423.8188, 4496.065
424.3009, 4327.610
424.7830, 4170.192
425.2651, 4014.440
425.7473, 3858.523
426.2294, 3732.236
426.7115, 3656.092
427.1936, 3627.964
427.6757, 3654.524
428.1578, 3752.186
428.6400, 3845.740
429.1221, 3850.710
429.6042, 3788.251
430.0863, 3801.920
430.5684, 3958.827
431.0505, 4138.794
431.5327, 4264.295
432.0148, 4361.341
432.4969, 4499.953
432.9790, 4710.737
433.4611, 4954.316
433.9432, 5151.993
434.4254, 5293.632
434.9075, 5403.710
435.3896, 5504.981
435.8717, 5560.694
436.3538, 5535.902
436.8359, 5440.635
437.3181, 5316.460
437.8002, 5194.424
438.2823, 5068.396
438.7644, 4899.544
439.2465, 4663.119
439.7286, 4443.087
440.2108, 4266.299
440.6929, 4123.990
441.1750, 4016.163
441.6571, 3948.213
442.1392, 3889.373
442.6213, 3815.485
443.1035, 3733.969
443.5856, 3659.000
444.0677, 3589.523
444.5498, 3545.296
445.0319, 3543.042
445.5140, 3586.632
445.9962, 3668.603
446.4783, 3834.980
446.9604, 3993.297
447.4425, 4106.596
447.9246, 4178.513
448.4067, 4217.536
448.8889, 4226.753
449.3710, 4216.275
449.8531, 4211.153
450.3352, 4237.382
450.8173, 4207.295
451.2994, 4091.135
451.7816, 3944.848
452.2637, 3794.155
452.7458, 3639.820
453.2279, 3470.896
453.7100, 3273.827
454.1921, 3060.502
454.6743, 2851.084
455.1564, 2640.865
455.6385, 2464.769
456.1206, 2347.449
456.6027, 2270.644
457.0848, 2198.417
457.5670, 2131.417
458.0491, 2066.417
458.5312, 1998.691
459.0133, 1933.756
459.4954, 1883.542
459.9775, 1848.435
460.4597, 1813.841
460.9418, 1766.764
461.4239, 1707.222
461.9060, 1641.947
462.3881, 1531.333
462.8702, 1460.347
463.3524, 1479.368
463.8345, 1537.122
464.3166, 1572.944
464.7987, 1565.797
465.2808, 1532.072
465.7629, 1478.203
466.2451, 1398.667
466.7272, 1379.483
467.2093, 1467.990
467.6914, 1566.283
468.1735, 1621.488
468.6556, 1637.823
469.1378, 1625.162
469.6199, 1564.002
470.1020, 1495.170
470.5841, 1454.760
471.0662, 1440.271
471.5483, 1447.207
472.0305, 1479.871
472.5126, 1515.353
472.9947, 1511.198
473.4768, 1435.773
473.9589, 1396.573
474.4410, 1407.036
474.9232, 1442.775
475.4053, 1504.057
475.8874, 1578.020
476.3695, 1636.726
476.8516, 1661.241
477.3337, 1659.381
477.8159, 1652.727
478.2980, 1631.649
478.7801, 1630.026
479.2622, 1662.982
479.7443, 1713.551
480.2264, 1772.716
480.7086, 1839.216
481.1907, 1912.462
481.6728, 1983.776
482.1549, 2064.124
482.6370, 2192.557
483.1191, 2373.905
483.6013, 2511.622
484.0834, 2532.119
484.5655, 2468.597
485.0476, 2460.695
485.5297, 2541.036
486.0118, 2622.479
486.4940, 2681.227
486.9761, 2737.920
487.4582, 2814.202
487.9403, 2912.787
488.4224, 3024.806
488.9045, 3149.280
489.3867, 3284.216
489.8688, 3362.618
490.3509, 3346.405
490.8330, 3331.419
491.3151, 3373.238
491.7972, 3422.156
492.2794, 3411.667
492.7615, 3318.452
493.2436, 3214.183
493.7257, 3187.669
494.2078, 3197.536
494.6899, 3106.192
495.1721, 2881.419
495.6542, 2624.974
496.1363, 2406.073
496.6184, 2228.737
497.1005, 2103.056
497.5826, 2061.347
498.0648, 2030.622
498.5469, 1978.797
499.0290, 1925.905
499.5111, 1907.402
499.9932, 1931.686
500.4753, 1966.363
500.9575, 1972.134
501.4396, 1948.102
501.9217, 1897.862
502.4038, 1777.652
502.8859, 1688.812
503.3680, 1697.627
503.8502, 1758.378
504.3323, 1786.903
504.8144, 1741.257
505.2965, 1692.427
505.7786, 1713.428
506.2607, 1786.196
506.7429, 1851.156
507.2250, 1896.662
507.7071, 1921.534
508.1892, 1927.700
508.6713, 1915.917
509.1534, 1859.868
509.6356, 1699.793
510.1177, 1562.520
510.5998, 1519.323
511.0819, 1526.508
511.5641, 1513.334
512.0461, 1452.797
512.5283, 1372.561
513.0104, 1314.600
513.4925, 1282.546
513.9746, 1241.627
514.4567, 1174.467
514.9388, 1119.229
515.4210, 1099.044
515.9031, 1105.888
516.3852, 1124.925
516.8673, 1176.004
517.3494, 1206.159
517.8315, 1152.170
518.3137, 1043.873
518.7958, 958.7371
519.2779, 918.5797
519.7600, 909.8583
520.2421, 919.2095
520.7242, 950.6686
521.2064, 976.7264
521.6885, 980.1479
522.1706, 997.7567
522.6527, 1052.946
523.1348, 1127.663
523.6169, 1206.302
524.0991, 1284.771
524.5812, 1325.701
525.0633, 1247.101
525.5454, 1052.832
526.0275, 940.6541
526.5096, 958.7593
526.9918, 1009.858
527.4739, 1015.100
527.9560, 993.4636
528.4381, 1002.752
528.9202, 1108.564
529.4023, 1186.356
529.8845, 1136.961
530.3666, 1023.339
530.8487, 957.3140
531.3308, 968.6615
531.8129, 1008.171
532.2950, 1016.320
532.7772, 987.0617
533.2593, 984.4872
533.7414, 1046.678
534.2235, 1090.917
534.7056, 1090.260
535.1877, 1061.191
535.6699, 1018.596
536.1520, 963.8472
536.6341, 924.3388
537.1162, 942.5999
537.5983, 997.8256
538.0804, 1009.179
538.5626, 957.9417
539.0447, 923.5194
539.5268, 981.0840
540.0089, 1112.607
540.4910, 1173.301
540.9731, 1101.755
541.4553, 1045.078
541.9374, 1019.513
542.4195, 1035.438
542.9016, 1130.568
543.3837, 1294.967
543.8658, 1444.370
544.3480, 1496.455
544.8301, 1460.716
545.3122, 1407.305
545.7943, 1319.257
546.2764, 1254.958
546.7585, 1261.809
547.2407, 1291.981
547.7228, 1285.165
548.2049, 1227.314
548.6870, 1188.355
549.1691, 1222.762
549.6512, 1280.726
550.1334, 1306.191
550.6155, 1294.435
551.0976, 1248.992
551.5797, 1163.400
552.0618, 1062.672
552.5439, 1038.687
553.0261, 1163.198
553.5082, 1241.266
553.9903, 1228.331
554.4724, 1198.251
554.9545, 1204.772
555.4366, 1240.737
555.9188, 1259.331
556.4009, 1227.735
556.8830, 1168.163
557.3651, 1105.880
557.8472, 1042.419
558.3293, 1004.280
558.8115, 1002.433
559.2936, 1025.639
559.7757, 1063.182
560.2578, 1123.223
560.7399, 1162.769
561.2220, 1176.979
561.7042, 1175.109
562.1863, 1157.537
562.6684, 1128.295
563.1505, 1088.386
563.6326, 1038.030
564.1147, 993.5593
564.5969, 989.8060
565.0790, 1028.939
565.5611, 1024.644
566.0432, 932.5939
566.5253, 863.1210
567.0074, 926.1738
567.4896, 1065.362
567.9717, 1153.372
568.4538, 1157.435
568.9359, 1132.050
569.4180, 1083.410
569.9001, 1029.150
570.3823, 992.9875
570.8644, 979.2062
571.3465, 978.7473
571.8286, 984.2795
572.3107, 995.5754
572.7928, 1010.519
573.2750, 1033.556
573.7571, 1052.532
574.2392, 1056.648
574.7213, 1061.064
575.2034, 1086.394
575.6855, 1133.090
576.1677, 1163.397
576.6498, 1130.310
577.1319, 1083.673
577.6140, 1112.855
578.0961, 1204.130
578.5782, 1240.165
579.0604, 1153.973
579.5425, 1019.331
580.0246, 988.9175
580.5067, 1123.618
580.9888, 1226.482
581.4709, 1320.871
581.9531, 1365.434
582.4352, 1303.319
582.9173, 1182.326
583.3994, 1093.199
583.8815, 1075.365
584.3636, 1101.510
584.8458, 1163.469
585.3279, 1247.460
585.8100, 1278.475
586.2921, 1235.403
586.7742, 1173.863
587.2563, 1130.588
587.7385, 1107.503
588.2206, 1125.474
588.7027, 1234.221
589.1848, 1316.231
589.6669, 1335.802
590.1490, 1323.286
590.6312, 1300.985
591.1133, 1276.908
591.5954, 1259.423
592.0775, 1255.381
592.5597, 1263.195
593.0418, 1280.514
593.5239, 1309.394
594.0060, 1335.983
594.4882, 1367.062
594.9703, 1381.580
595.4524, 1327.160
595.9345, 1188.866
596.4166, 1118.159
596.8987, 1180.553
597.3809, 1276.076
597.8630, 1367.279
598.3451, 1438.921
598.8272, 1470.861
599.3093, 1454.602
599.7914, 1400.846
600.2736, 1300.528
600.7557, 1147.068
601.2378, 1091.178
601.7199, 1175.863
602.2020, 1291.101
602.6841, 1396.609
603.1663, 1483.771
603.6484, 1530.724
604.1305, 1513.501
604.6126, 1502.625
605.0947, 1543.855
605.5768, 1595.011
606.0590, 1606.184
606.5411, 1577.250
607.0232, 1537.985
607.5053, 1506.407
607.9874, 1486.104
608.4695, 1489.372
608.9517, 1520.160
609.4338, 1561.915
609.9159, 1614.658
610.3980, 1675.622
610.8801, 1752.923
611.3622, 1839.081
611.8444, 1900.415
612.3265, 1894.542
612.8086, 1893.651
613.2907, 1967.374
613.7728, 2074.605
614.2549, 2134.024
614.7371, 2127.407
615.2192, 2101.483
615.7013, 2106.781
616.1834, 2140.914
616.6655, 2142.438
617.1476, 2098.137
617.6298, 2045.067
618.1119, 1986.079
618.5940, 1927.203
619.0761, 1872.896
619.5582, 1823.446
620.0403, 1781.143
620.5225, 1753.659
621.0046, 1728.716
621.4867, 1704.006
621.9688, 1671.922
622.4509, 1594.546
622.9330, 1453.992
623.4152, 1319.042
623.8973, 1307.221
624.3794, 1451.940
624.8615, 1538.583
625.3436, 1528.788
625.8257, 1509.220
626.3079, 1513.545
626.7900, 1526.755
627.2721, 1525.365
627.7542, 1501.496
628.2363, 1484.004
628.7184, 1510.615
629.2006, 1541.605
629.6827, 1506.874
630.1648, 1415.652
630.6469, 1343.138
631.1290, 1330.829
631.6111, 1364.504
632.0933, 1417.886
632.5754, 1511.058
633.0575, 1566.729
633.5396, 1556.292
634.0217, 1534.445
634.5038, 1523.211
634.9860, 1519.576
635.4681, 1518.110
635.9502, 1523.650
636.4323, 1515.703
636.9144, 1465.927
637.3965, 1399.735
637.8787, 1355.726
638.3608, 1338.845
638.8429, 1342.292
639.3250, 1366.116
639.8071, 1397.284
640.2892, 1379.485
640.7714, 1270.376
641.2535, 1217.741
641.7356, 1307.491
642.2177, 1394.829
642.6998, 1381.853
643.1819, 1294.637
