##NAMES=Magnesiotaaffeite-2N2S
##RRUFFID=X090001
##IDEAL CHEMISTRY=Mg_3_BeAl_8_O_16_
##LOCALITY=Ratnapura, Sri Lanka
##OWNER=Bill Pinch
##SOURCE=William W. Pinch
##DESCRIPTION=Dark grey with a hint of purple, flattened tabular hexagonal crystal
##STATUS=The identification of this mineral has been confirmed by single-crystal X-ray diffraction.
##URL=rruff.info/X090001
90.92609, 0.0000000E+00
91.40820, 23.81578
91.89032, 24.53699
92.37244, 24.23481
92.85455, 23.05414
93.33667, 21.86219
93.81879, 21.35066
94.30090, 21.33247
94.78302, 21.20329
95.26514, 20.75294
95.74725, 20.18550
96.22937, 20.07011
96.71149, 20.45205
97.19360, 20.78458
97.67572, 20.39337
98.15784, 19.29999
98.63995, 18.43490
99.12207, 18.06697
99.60419, 18.16222
100.0863, 18.43441
100.5684, 18.93881
101.0505, 19.51142
101.5327, 19.88168
102.0148, 19.91701
102.4969, 20.20422
102.9790, 21.14253
103.4611, 23.00718
103.9432, 23.90682
104.4253, 23.51238
104.9075, 22.32290
105.3896, 21.27932
105.8717, 20.14235
106.3538, 19.46399
106.8359, 19.46873
107.3180, 20.49095
107.8002, 21.63107
108.2823, 23.17194
108.7644, 24.88373
109.2465, 25.97472
109.7286, 25.73239
110.2107, 25.36420
110.6929, 25.38730
111.1750, 25.29980
111.6571, 26.17530
112.1392, 29.00948
112.6213, 33.39448
113.1034, 36.31783
113.5856, 35.71539
114.0677, 34.36060
114.5498, 34.23555
115.0319, 36.45666
115.5140, 39.27361
115.9961, 42.56216
116.4783, 46.28845
116.9604, 49.34124
117.4425, 50.63176
117.9246, 51.27470
118.4067, 52.49451
118.8888, 55.59508
119.3710, 58.76241
119.8531, 60.67286
120.3352, 61.08103
120.8173, 61.83637
121.2994, 64.23833
121.7815, 67.75569
122.2637, 71.48076
122.7458, 75.29869
123.2279, 78.92549
123.7100, 81.96429
124.1921, 84.26546
124.6742, 86.43050
125.1564, 88.92248
125.6385, 91.71452
126.1206, 94.73486
126.6027, 97.66435
127.0848, 100.8138
127.5669, 104.8891
128.0491, 110.3152
128.5312, 116.0350
129.0133, 120.6482
129.4954, 124.1693
129.9775, 127.1194
130.4596, 129.7224
130.9418, 131.9992
131.4239, 134.1558
131.9060, 136.2996
132.3881, 138.2845
132.8702, 139.3376
133.3523, 139.3531
133.8345, 139.8776
134.3166, 142.9157
134.7987, 148.4593
135.2808, 152.6010
135.7629, 154.0170
136.2450, 153.4353
136.7272, 154.5242
137.2093, 157.5783
137.6914, 161.4006
138.1735, 164.9704
138.6556, 168.3345
139.1377, 171.0703
139.6199, 173.0324
140.1020, 174.2072
140.5841, 174.9310
141.0662, 174.7542
141.5483, 174.7167
142.0304, 176.3837
142.5126, 180.6597
142.9947, 184.4524
143.4768, 186.1030
143.9589, 184.8231
144.4410, 184.2358
144.9231, 184.5941
145.4053, 185.4441
145.8874, 186.1490
146.3695, 186.9268
146.8516, 187.2822
147.3337, 187.1370
147.8158, 186.7054
148.2980, 185.2661
148.7801, 182.0472
149.2622, 177.9706
149.7443, 174.9652
150.2264, 173.3937
150.7085, 172.4824
151.1907, 172.0047
151.6728, 172.0749
152.1549, 172.3314
152.6370, 172.9666
153.1191, 173.7915
153.6012, 174.3238
154.0834, 174.3566
154.5655, 174.2195
155.0476, 174.0665
155.5297, 174.2317
156.0118, 173.9502
156.4939, 172.8257
156.9761, 171.1047
157.4582, 169.6452
157.9403, 168.6859
158.4224, 168.0027
158.9045, 167.4645
159.3866, 167.0664
159.8688, 166.7913
160.3509, 166.5760
160.8330, 166.4571
161.3151, 166.6098
161.7972, 167.0970
162.2793, 167.8762
162.7615, 168.9247
163.2436, 171.1918
163.7257, 172.8239
164.2078, 172.8629
164.6899, 171.4675
165.1720, 169.7267
165.6541, 167.1678
166.1363, 164.9016
166.6184, 164.0239
167.1005, 166.2567
167.5826, 168.9131
168.0647, 170.3710
168.5468, 170.6940
169.0290, 170.7542
169.5111, 171.2848
169.9932, 171.8338
170.4753, 171.8026
170.9574, 170.2352
171.4395, 168.4632
171.9217, 167.6746
172.4038, 167.8718
172.8859, 168.2700
173.3680, 168.5560
173.8501, 168.6117
174.3322, 168.2323
174.8144, 166.6913
175.2965, 164.9562
175.7786, 164.4001
176.2607, 165.0664
176.7428, 165.9163
177.2249, 165.8507
177.7071, 165.2238
178.1892, 164.9053
178.6713, 165.7032
179.1534, 166.9344
179.6355, 167.3985
180.1176, 167.0078
180.5998, 166.3742
181.0819, 165.9818
181.5640, 165.8430
182.0461, 165.9953
182.5282, 166.7671
183.0103, 167.8146
183.4925, 168.2281
183.9746, 167.8748
184.4567, 167.3868
184.9388, 167.6720
185.4209, 168.6007
185.9030, 169.3669
186.3852, 169.6732
186.8673, 169.5263
187.3494, 168.7863
187.8315, 167.3049
188.3136, 165.7461
188.7957, 164.9534
189.2779, 164.9056
189.7600, 165.2242
190.2421, 165.9473
190.7242, 166.9599
191.2063, 167.6318
191.6884, 167.9331
192.1706, 167.8829
192.6527, 167.2937
193.1348, 166.1527
193.6169, 165.2667
194.0990, 165.2487
194.5811, 166.0165
195.0633, 166.2881
195.5454, 165.8987
196.0275, 165.2085
196.5096, 164.9003
196.9917, 165.0003
197.4738, 165.1567
197.9560, 165.1994
198.4381, 165.1302
198.9202, 165.0353
199.4023, 164.8853
199.8844, 164.7672
200.3665, 164.8989
200.8487, 165.3274
201.3308, 165.7438
201.8129, 166.2206
202.2950, 166.8434
202.7771, 166.1953
203.2592, 163.6338
203.7414, 160.4130
204.2235, 159.4941
204.7056, 161.4243
205.1877, 163.5520
205.6698, 164.4651
206.1519, 163.9428
206.6341, 163.6623
207.1162, 163.7711
207.5983, 164.0662
208.0804, 164.0533
208.5625, 163.6270
209.0446, 163.2148
209.5268, 163.0991
210.0089, 163.4126
210.4910, 163.3494
210.9731, 162.7234
211.4552, 161.8249
211.9373, 161.3671
212.4195, 161.4572
212.9016, 161.7186
213.3837, 162.0163
213.8658, 162.4025
214.3479, 162.6562
214.8300, 162.8244
215.3121, 162.8322
215.7943, 162.3630
216.2764, 161.0374
216.7585, 160.0359
217.2406, 160.0092
217.7227, 161.3846
218.2048, 162.3431
218.6870, 162.7869
219.1691, 162.8450
219.6512, 162.8106
220.1333, 162.6528
220.6154, 162.4549
221.0975, 162.2012
221.5797, 161.7609
222.0618, 161.6855
222.5439, 162.1624
223.0260, 162.9190
223.5081, 163.3234
223.9902, 163.1713
224.4724, 163.0310
224.9545, 163.2529
225.4366, 164.2646
225.9187, 164.3305
226.4008, 162.8271
226.8829, 160.6737
227.3651, 159.9176
227.8472, 161.3338
228.3293, 162.8465
228.8114, 163.6214
229.2935, 163.3630
229.7757, 163.2378
230.2578, 163.1306
230.7399, 163.2079
231.2220, 163.9119
231.7041, 165.8244
232.1862, 167.4134
232.6684, 168.0648
233.1505, 167.4587
233.6326, 166.8982
234.1147, 166.2015
234.5968, 165.6452
235.0789, 165.8698
235.5611, 167.6411
236.0432, 168.9408
236.5253, 168.9113
237.0074, 166.9512
237.4895, 165.9117
237.9716, 166.2487
238.4538, 167.2289
238.9359, 167.6117
239.4180, 166.8430
239.9001, 166.4003
240.3822, 166.9322
240.8643, 168.8391
241.3465, 169.7835
241.8286, 169.2984
242.3107, 168.1802
242.7928, 167.5286
243.2749, 167.4071
243.7570, 167.6513
244.2392, 168.3484
244.7213, 169.6471
245.2034, 170.4802
245.6855, 170.6670
246.1676, 170.5488
246.6497, 170.5336
247.1319, 170.6173
247.6140, 170.8212
248.0961, 171.1937
248.5782, 171.7687
249.0603, 172.2074
249.5424, 172.3796
250.0246, 172.5468
250.5067, 172.9959
250.9888, 173.7758
251.4709, 174.7667
251.9530, 176.1257
252.4351, 177.9115
252.9173, 178.8220
253.3994, 178.3199
253.8815, 177.5695
254.3636, 177.7666
254.8457, 179.3906
255.3278, 180.8945
255.8100, 182.0185
256.2921, 182.7678
256.7742, 183.2549
257.2563, 183.2536
257.7384, 183.2918
258.2205, 183.9000
258.7026, 185.4504
259.1848, 186.6382
259.6669, 187.1568
260.1490, 187.0997
260.6311, 187.1887
261.1132, 187.3777
261.5953, 187.7929
262.0775, 188.5605
262.5596, 189.8045
263.0417, 191.0800
263.5238, 192.4324
264.0059, 193.7794
264.4880, 194.6974
264.9702, 194.9189
265.4523, 195.2132
265.9344, 196.1519
266.4165, 197.9910
266.8986, 199.5646
267.3807, 200.7873
267.8629, 201.6907
268.3450, 202.2754
268.8271, 202.3086
269.3092, 202.6196
269.7913, 203.8291
270.2734, 206.2018
270.7556, 208.1144
271.2377, 209.3375
271.7198, 210.2185
272.2019, 211.7552
272.6840, 214.2777
273.1661, 216.3435
273.6483, 217.0217
274.1304, 216.0722
274.6125, 215.7675
275.0946, 216.3439
275.5767, 217.2912
276.0588, 217.6778
276.5410, 217.4037
277.0231, 217.0535
277.5052, 216.8215
277.9873, 216.7004
278.4694, 216.6554
278.9515, 216.5483
279.4337, 216.7975
279.9158, 218.1700
280.3979, 220.7585
280.8800, 223.4412
281.3621, 226.0331
281.8442, 228.4555
282.3264, 229.6032
282.8085, 229.2345
283.2906, 228.4411
283.7727, 228.5292
284.2548, 229.5111
284.7369, 230.4265
285.2191, 230.9203
285.7012, 231.1429
286.1833, 231.7045
286.6654, 232.6142
287.1475, 233.8105
287.6296, 235.6012
288.1118, 237.8637
288.5939, 239.1147
289.0760, 238.5671
289.5581, 237.1222
290.0402, 237.3932
290.5223, 239.4453
291.0045, 241.1991
291.4866, 240.5152
291.9687, 237.9666
292.4508, 236.3552
292.9329, 236.3823
293.4150, 237.2445
293.8972, 237.6466
294.3793, 237.6147
294.8614, 237.4256
295.3435, 237.3416
295.8256, 237.2517
296.3077, 236.8684
296.7899, 236.1883
297.2720, 235.1312
297.7541, 233.1203
298.2362, 230.4592
298.7183, 228.4759
299.2004, 228.7181
299.6826, 229.9721
300.1647, 229.6751
300.6468, 227.4072
301.1289, 225.0595
301.6110, 224.7359
302.0931, 225.8910
302.5753, 227.0842
303.0574, 227.4869
303.5395, 227.6146
304.0216, 228.1653
304.5037, 229.1669
304.9858, 230.2502
305.4680, 231.2644
305.9501, 232.1344
306.4322, 232.7357
306.9143, 233.2983
307.3964, 233.3832
307.8785, 232.4680
308.3607, 230.6140
308.8428, 228.3835
309.3249, 225.9797
309.8070, 223.4664
310.2891, 220.9234
310.7712, 218.3167
311.2534, 215.7104
311.7355, 212.9148
312.2176, 210.0603
312.6997, 207.7352
313.1818, 206.7547
313.6639, 206.1718
314.1461, 205.1289
314.6282, 203.0954
315.1103, 201.3833
315.5924, 201.0021
316.0745, 201.4165
316.5566, 201.5051
317.0388, 200.6524
317.5209, 199.4662
318.0030, 198.1326
318.4851, 196.5152
318.9672, 195.4319
319.4493, 195.4874
319.9315, 196.1556
320.4136, 196.7415
320.8957, 197.2121
321.3778, 197.4201
321.8599, 197.1565
322.3420, 196.3503
322.8242, 195.8539
323.3063, 196.2997
323.7884, 196.9138
324.2705, 197.0210
324.7526, 195.7758
325.2347, 194.7962
325.7169, 194.4823
326.1990, 194.7872
326.6811, 195.1592
327.1632, 195.6081
327.6453, 196.0812
328.1274, 196.5506
328.6096, 197.3911
329.0917, 197.7578
329.5738, 197.3452
330.0559, 196.4155
330.5380, 195.8118
331.0201, 195.7963
331.5023, 195.8205
331.9844, 195.5904
332.4665, 194.7085
332.9486, 194.6151
333.4307, 195.8757
333.9128, 197.6301
334.3950, 198.3195
334.8771, 197.3580
335.3592, 196.4460
335.8413, 196.1883
336.3234, 196.6863
336.8055, 196.7688
337.2877, 196.3337
337.7698, 195.6225
338.2519, 194.8167
338.7340, 193.8380
339.2161, 193.1237
339.6982, 192.8985
340.1803, 193.0351
340.6624, 192.6882
341.1446, 191.7242
341.6267, 190.7070
342.1088, 190.0266
342.5909, 189.6937
343.0730, 189.5730
343.5551, 189.7197
344.0373, 189.9839
344.5194, 189.9408
345.0015, 189.5696
345.4836, 189.3189
345.9657, 189.6782
346.4478, 190.4686
346.9300, 190.5709
347.4121, 189.7683
347.8942, 188.8305
348.3763, 188.8298
348.8584, 189.6548
349.3405, 190.6323
349.8227, 191.7434
350.3048, 192.7459
350.7869, 192.9790
351.2690, 192.4300
351.7511, 191.7587
352.2332, 191.4102
352.7154, 191.4005
353.1975, 191.7862
353.6796, 192.7625
354.1617, 193.9562
354.6438, 194.9610
355.1259, 195.8042
355.6081, 196.6400
356.0902, 197.5417
356.5723, 198.5029
357.0544, 199.4706
357.5365, 200.2951
358.0186, 201.4218
358.5008, 203.4931
358.9829, 206.0935
359.4650, 208.3336
359.9471, 209.6474
360.4292, 210.5868
360.9113, 211.3930
361.3935, 212.0376
361.8756, 212.9161
362.3577, 214.2796
362.8398, 215.9357
363.3219, 217.6652
363.8040, 219.7086
364.2862, 221.5310
364.7683, 222.6117
365.2504, 223.0359
365.7325, 224.2771
366.2146, 227.5159
366.6967, 231.1002
367.1789, 234.0039
367.6610, 234.7126
368.1431, 236.4124
368.6252, 240.1366
369.1073, 245.1420
369.5894, 248.9983
370.0716, 250.9503
370.5537, 252.5584
371.0358, 254.3414
371.5179, 256.3212
372.0000, 258.4383
372.4821, 260.8620
372.9643, 263.2827
373.4464, 265.3441
373.9285, 267.2186
374.4106, 268.3124
374.8927, 268.4122
375.3748, 267.5334
375.8570, 266.2552
376.3391, 264.4640
376.8212, 262.4803
377.3033, 260.4480
377.7854, 258.3251
378.2675, 256.6223
378.7497, 255.5852
379.2318, 254.8295
379.7139, 253.0672
380.1960, 250.1933
380.6781, 247.7467
381.1602, 247.1470
381.6424, 247.9957
382.1245, 247.4720
382.6066, 245.1745
383.0887, 242.6479
383.5708, 241.7997
384.0529, 242.4334
384.5351, 243.5814
385.0172, 245.1236
385.4993, 246.7974
385.9814, 248.0926
386.4635, 249.0201
386.9456, 250.0684
387.4278, 251.5863
387.9099, 253.4752
388.3920, 255.5182
388.8741, 257.3551
389.3562, 259.8524
389.8383, 264.3801
390.3205, 270.3170
390.8026, 275.7925
391.2847, 279.2671
391.7668, 282.2434
392.2489, 285.8113
392.7310, 290.0795
393.2132, 295.0049
393.6953, 300.5678
394.1774, 306.7064
394.6595, 313.4044
395.1416, 320.5419
395.6237, 328.2855
396.1059, 336.3834
396.5880, 344.9125
397.0701, 355.0426
397.5522, 367.8432
398.0343, 381.6548
398.5164, 395.4777
398.9986, 409.0360
399.4807, 422.8550
399.9628, 437.0304
400.4449, 451.4820
400.9270, 466.1538
401.4091, 481.5346
401.8913, 496.3047
402.3734, 510.1201
402.8555, 523.0358
403.3376, 534.5561
403.8197, 544.0424
404.3018, 552.8773
404.7840, 562.7982
405.2661, 574.5227
405.7482, 584.7515
406.2303, 592.2602
406.7124, 597.9515
407.1945, 605.9993
407.6767, 616.6056
408.1588, 628.5281
408.6409, 640.6544
409.1230, 653.0670
409.6051, 667.5872
410.0872, 684.3226
410.5694, 703.5580
411.0515, 725.8844
411.5336, 751.1314
412.0157, 777.7496
412.4978, 806.1608
412.9799, 835.2089
413.4621, 864.1472
413.9442, 893.1359
414.4263, 917.6448
414.9084, 936.0733
415.3905, 947.3837
415.8727, 949.9716
416.3548, 942.2627
416.8369, 927.5593
417.3190, 908.0377
417.8011, 883.7886
418.2832, 854.5647
418.7654, 818.0280
419.2475, 778.2234
419.7296, 737.1920
420.2117, 694.0613
420.6938, 654.2987
421.1759, 619.8782
421.6581, 590.0528
422.1402, 563.6352
422.6223, 541.3113
423.1044, 521.6919
423.5865, 504.6707
424.0686, 490.2978
424.5508, 478.4235
425.0329, 469.3640
425.5150, 462.7160
425.9971, 458.3981
426.4792, 457.0536
426.9613, 456.7052
427.4435, 457.1758
427.9256, 458.7563
428.4077, 461.9728
428.8898, 467.2621
429.3719, 473.3208
429.8540, 479.7304
430.3362, 486.5233
430.8183, 495.1620
431.3004, 506.2989
431.7825, 517.2762
432.2646, 525.5969
432.7467, 531.2242
433.2289, 537.2811
433.7110, 544.3806
434.1931, 551.5292
434.6752, 557.1998
435.1573, 561.3633
435.6394, 563.7266
436.1216, 564.4263
436.6036, 563.1544
437.0858, 558.6007
437.5679, 550.6668
438.0500, 542.0046
438.5321, 534.4114
439.0142, 527.7745
439.4963, 521.9514
439.9785, 517.1699
440.4606, 512.7991
440.9427, 507.9272
441.4248, 503.0052
441.9069, 499.4373
442.3890, 498.1210
442.8712, 498.2361
443.3533, 499.4213
443.8354, 501.7574
444.3175, 504.5332
444.7996, 508.4301
445.2817, 512.2357
445.7639, 514.7130
446.2460, 516.0365
446.7281, 515.5726
447.2102, 512.7407
447.6923, 507.7584
448.1744, 502.4178
448.6566, 497.8998
449.1387, 491.7257
449.6208, 482.8774
450.1029, 471.1763
450.5850, 456.9440
451.0671, 439.4599
451.5493, 420.3810
452.0314, 402.0612
452.5135, 384.8756
452.9956, 367.3869
453.4777, 348.7704
453.9598, 329.8305
454.4420, 313.9961
454.9241, 301.6337
455.4062, 290.2183
455.8883, 277.4782
456.3704, 264.0467
456.8525, 253.1374
457.3347, 245.4849
457.8168, 239.6561
458.2989, 234.5953
458.7810, 230.1062
459.2631, 225.7747
459.7452, 220.7978
460.2274, 216.1856
460.7095, 213.4622
461.1916, 212.3725
461.6737, 211.2713
462.1558, 208.8761
462.6379, 206.1363
463.1201, 203.9420
463.6022, 202.6108
464.0843, 201.4350
464.5664, 200.0688
465.0485, 198.6803
465.5306, 197.5383
466.0128, 196.6956
466.4949, 196.1143
466.9770, 195.8644
467.4591, 195.9558
467.9412, 196.0314
468.4233, 196.0480
468.9055, 196.0791
469.3876, 196.1717
469.8697, 196.3630
470.3518, 196.5215
470.8339, 196.5516
471.3160, 196.6229
471.7982, 197.1296
472.2803, 198.2139
472.7624, 199.1493
473.2445, 199.5324
473.7266, 199.5341
474.2087, 200.3178
474.6909, 201.9676
475.1730, 203.6358
475.6551, 204.3642
476.1372, 204.4287
476.6193, 205.0583
477.1014, 206.5347
477.5836, 208.2721
478.0657, 209.4676
478.5478, 210.3214
479.0299, 211.3848
479.5120, 213.0171
479.9941, 214.9277
480.4763, 216.9213
480.9584, 218.9822
481.4405, 220.9227
481.9226, 222.4084
482.4047, 223.8685
482.8868, 225.6889
483.3690, 228.1174
483.8511, 230.5105
484.3332, 232.7431
484.8153, 234.8074
485.2974, 236.7396
485.7795, 238.1301
486.2617, 239.8097
486.7438, 242.2464
487.2259, 245.4197
487.7080, 247.6803
488.1901, 248.9053
488.6722, 249.4090
489.1544, 249.2929
489.6365, 248.3989
490.1186, 247.5195
490.6007, 246.7158
491.0828, 245.8772
491.5649, 244.8546
492.0471, 243.6616
492.5292, 242.1584
493.0113, 240.2475
493.4934, 238.0387
493.9755, 235.7034
494.4576, 233.2677
494.9398, 230.9128
495.4219, 228.8235
495.9040, 226.9019
496.3861, 225.0044
496.8682, 223.0454
497.3503, 221.3230
497.8325, 220.0401
498.3146, 219.1508
498.7967, 218.5580
499.2788, 218.4016
499.7609, 218.3841
500.2430, 218.2568
500.7252, 218.1121
501.2073, 218.3549
501.6894, 219.3126
502.1715, 220.5219
502.6536, 221.7044
503.1357, 222.5814
503.6179, 224.2063
504.1000, 227.3956
504.5821, 230.8109
505.0642, 233.1092
505.5463, 233.9175
506.0284, 234.3850
506.5106, 234.5168
506.9927, 234.4606
507.4748, 234.9122
507.9569, 236.0986
508.4390, 236.6735
508.9211, 235.6946
509.4033, 233.3645
509.8854, 231.2943
510.3675, 229.4723
510.8496, 228.0031
511.3317, 226.9644
511.8138, 226.3588
512.2960, 226.1770
512.7781, 226.3510
513.2602, 227.0739
513.7423, 228.8439
514.2244, 231.3384
514.7065, 233.7700
515.1887, 235.6142
515.6708, 237.3947
516.1529, 239.4353
516.6350, 241.7523
517.1171, 244.1327
517.5992, 246.2567
518.0814, 248.5575
518.5635, 251.3739
519.0456, 255.5701
519.5277, 258.9332
520.0098, 261.3576
520.4919, 262.8985
520.9741, 263.6833
521.4562, 264.0774
521.9383, 262.9209
522.4204, 259.6252
522.9025, 254.5053
523.3846, 249.5468
523.8668, 244.8510
524.3489, 240.0065
524.8310, 234.4908
525.3131, 228.4157
525.7952, 223.0139
526.2773, 218.3459
526.7595, 214.1125
527.2416, 209.9069
527.7237, 205.9147
528.2058, 202.5683
528.6879, 200.1857
529.1700, 198.3000
529.6522, 196.5859
530.1343, 195.0338
530.6164, 193.5581
531.0985, 191.7655
531.5806, 190.3322
532.0627, 189.7645
532.5449, 190.1296
533.0270, 190.7623
533.5091, 192.1166
533.9912, 193.2752
534.4733, 193.5541
534.9554, 191.5229
535.4376, 190.5851
535.9197, 191.3023
536.4018, 192.8369
536.8839, 193.7102
537.3660, 193.7114
537.8481, 193.6302
538.3303, 193.6841
538.8124, 193.8252
539.2945, 193.7492
539.7766, 193.4242
540.2587, 193.1570
540.7408, 193.1422
541.2230, 193.3576
541.7051, 193.8042
542.1872, 194.5220
542.6693, 195.1589
543.1514, 195.3376
543.6335, 195.1958
544.1157, 194.9877
544.5978, 194.7706
545.0799, 194.5434
545.5620, 194.2139
546.0441, 193.8716
546.5262, 193.7368
547.0084, 193.8209
547.4905, 194.1922
547.9726, 195.0786
548.4547, 196.5525
548.9368, 197.5194
549.4189, 197.3345
549.9011, 197.0623
550.3832, 197.3519
550.8653, 198.6269
551.3474, 199.4520
551.8295, 199.6929
552.3116, 199.6037
552.7938, 199.4817
553.2759, 199.3049
553.7580, 199.3521
554.2401, 199.8831
554.7222, 200.5288
555.2043, 200.0656
555.6865, 198.6190
556.1686, 197.5253
556.6507, 197.8857
557.1328, 199.0093
557.6149, 199.9505
558.0970, 200.6590
558.5792, 201.1476
559.0613, 201.6499
559.5434, 201.8291
560.0255, 201.2284
560.5076, 199.0584
560.9897, 197.3652
561.4719, 196.9189
561.9540, 197.3482
562.4361, 198.0349
562.9182, 199.2872
563.4003, 200.3381
563.8824, 200.8430
564.3646, 200.9444
564.8467, 201.7641
565.3288, 203.5702
565.8109, 205.5391
566.2930, 207.2429
566.7751, 208.6558
567.2573, 210.2964
567.7394, 212.2188
568.2215, 214.1716
568.7036, 215.7564
569.1857, 217.1321
569.6678, 218.9655
570.1500, 221.4052
570.6321, 224.2764
571.1142, 227.6941
571.5963, 231.3640
572.0784, 234.6097
572.5605, 236.3280
573.0427, 238.2661
573.5248, 241.8568
574.0069, 246.8095
574.4890, 251.3392
574.9711, 254.5591
575.4532, 257.4070
575.9354, 260.2180
576.4175, 262.8953
576.8996, 265.9774
577.3817, 269.8203
577.8638, 273.6823
578.3459, 276.9419
578.8281, 279.4525
579.3102, 281.7655
579.7923, 283.9488
580.2744, 285.9377
580.7565, 287.6579
581.2386, 289.0923
581.7208, 289.9754
582.2029, 290.3351
582.6850, 289.9931
583.1671, 288.5944
583.6492, 286.1870
584.1313, 283.0649
584.6134, 278.7791
585.0955, 274.2191
585.5776, 270.1236
586.0598, 266.5520
586.5419, 263.5378
587.0240, 261.9603
587.5061, 260.4203
587.9882, 257.7278
