##NAMES=Magnesiocoulsonite
##RRUFFID=R070218
##IDEAL CHEMISTRY=MgV^3+^_2_O_4_
##LOCALITY=Pereval Marble Quarry, Sludyanka (Slyudyanka), Baikal area, Buriatia (Buryatia) Republic, Transbaikalia (Zabaykalye), Eastern-Siberian Region, Russia
##OWNER=RRUFF
##SOURCE=Michael Scott
##DESCRIPTION=Black grains with internal hints of red
##STATUS=The identification of this mineral has been confirmed only by single crystal X-ray diffraction.
##URL=rruff.info/R070218
181.4815, 13513.61
181.9637, 13551.03
182.4458, 13578.57
182.9279, 13594.82
183.4100, 13603.11
183.8921, 13616.83
184.3742, 13644.12
184.8564, 13677.42
185.3385, 13695.35
185.8206, 13696.86
186.3027, 13697.69
186.7848, 13712.11
187.2669, 13739.61
187.7491, 13776.92
188.2312, 13829.34
188.7133, 13890.75
189.1954, 13939.36
189.6775, 13974.00
190.1596, 13999.57
190.6418, 14022.78
191.1239, 14043.37
191.6060, 14056.55
192.0881, 14055.62
192.5702, 14042.93
193.0524, 14037.44
193.5345, 14037.93
194.0166, 14048.64
194.4987, 14086.08
194.9808, 14153.06
195.4629, 14204.44
195.9451, 14207.69
196.4272, 14164.16
196.9093, 14144.42
197.3914, 14154.54
197.8735, 14182.36
198.3556, 14205.04
198.8378, 14221.12
199.3199, 14240.73
199.8020, 14271.57
200.2841, 14314.40
200.7662, 14353.20
201.2483, 14387.78
201.7305, 14417.15
202.2126, 14436.79
202.6947, 14444.09
203.1768, 14451.28
203.6589, 14468.34
204.1410, 14497.82
204.6232, 14514.27
205.1053, 14504.05
205.5874, 14484.30
206.0695, 14524.42
206.5516, 14649.35
207.0337, 14768.62
207.5159, 14811.34
207.9980, 14757.24
208.4801, 14720.05
208.9622, 14717.20
209.4443, 14741.75
209.9264, 14759.60
210.4086, 14768.39
210.8907, 14775.27
211.3728, 14783.41
211.8549, 14789.70
212.3370, 14810.20
212.8191, 14857.06
213.3013, 14923.58
213.7834, 14951.79
214.2655, 14924.44
214.7476, 14886.41
215.2297, 14878.66
215.7118, 14913.58
216.1940, 14944.66
216.6761, 14965.10
217.1582, 14975.06
217.6403, 14971.49
218.1224, 14942.56
218.6045, 14915.92
219.0867, 14921.87
219.5688, 14976.57
220.0509, 15025.64
220.5330, 15055.93
221.0151, 15067.44
221.4972, 15080.60
221.9794, 15097.64
222.4615, 15113.99
222.9436, 15123.41
223.4257, 15119.08
223.9078, 15122.45
224.3899, 15141.84
224.8721, 15179.71
225.3542, 15202.79
225.8363, 15200.10
226.3184, 15193.20
226.8005, 15210.72
227.2827, 15270.16
227.7648, 15320.39
228.2469, 15347.53
228.7290, 15348.90
229.2111, 15346.56
229.6932, 15335.70
230.1754, 15325.05
230.6575, 15327.81
231.1396, 15354.82
231.6217, 15375.44
232.1038, 15374.96
232.5859, 15343.39
233.0681, 15347.75
233.5502, 15409.49
234.0323, 15491.61
234.5144, 15538.74
234.9965, 15527.42
235.4786, 15520.37
235.9608, 15540.95
236.4429, 15599.86
236.9250, 15633.91
237.4071, 15629.04
237.8892, 15607.77
238.3713, 15607.86
238.8535, 15646.83
239.3356, 15677.49
239.8177, 15679.49
240.2998, 15638.23
240.7819, 15626.67
241.2640, 15661.46
241.7462, 15716.06
242.2283, 15743.57
242.7104, 15728.40
243.1925, 15711.63
243.6746, 15705.42
244.1567, 15709.93
244.6389, 15725.95
245.1210, 15759.65
245.6031, 15801.11
246.0852, 15833.25
246.5673, 15856.10
247.0494, 15869.39
247.5316, 15869.21
248.0137, 15846.17
248.4958, 15842.98
248.9779, 15869.10
249.4600, 15909.82
249.9421, 15935.91
250.4243, 15937.39
250.9064, 15942.38
251.3885, 15961.17
251.8706, 15996.47
252.3527, 16040.37
252.8348, 16107.56
253.3170, 16174.29
253.7991, 16188.72
254.2812, 16122.22
254.7633, 16057.92
255.2454, 16026.82
255.7275, 16035.99
256.2097, 16054.67
256.6918, 16088.13
257.1739, 16127.29
257.6560, 16155.94
258.1381, 16172.64
258.6202, 16181.74
259.1024, 16182.54
259.5845, 16170.96
260.0666, 16168.10
260.5487, 16175.19
261.0308, 16190.10
261.5129, 16211.25
261.9951, 16242.62
262.4772, 16270.25
262.9593, 16288.76
263.4414, 16297.91
263.9235, 16296.75
264.4056, 16275.17
264.8878, 16252.81
265.3699, 16272.30
265.8520, 16354.59
266.3341, 16419.14
266.8162, 16424.49
267.2983, 16355.64
267.7805, 16326.11
268.2626, 16347.02
268.7447, 16395.37
269.2268, 16435.64
269.7089, 16469.44
270.1910, 16489.25
270.6732, 16488.51
271.1553, 16464.60
271.6374, 16442.80
272.1195, 16418.30
272.6016, 16402.97
273.0837, 16423.16
273.5659, 16486.79
274.0480, 16545.72
274.5301, 16581.03
275.0122, 16591.78
275.4943, 16598.49
275.9764, 16599.59
276.4586, 16599.58
276.9407, 16606.04
277.4228, 16619.66
277.9049, 16632.92
278.3870, 16641.56
278.8691, 16645.96
279.3513, 16656.40
279.8334, 16674.70
280.3155, 16694.39
280.7976, 16706.59
281.2798, 16710.99
281.7619, 16712.81
282.2440, 16707.70
282.7261, 16699.04
283.2082, 16719.59
283.6903, 16776.12
284.1725, 16836.94
284.6546, 16858.90
285.1367, 16843.26
285.6188, 16827.44
286.1009, 16823.75
286.5830, 16830.49
287.0652, 16844.75
287.5473, 16868.66
288.0294, 16886.62
288.5115, 16868.21
288.9936, 16819.90
289.4757, 16796.37
289.9579, 16830.56
290.4400, 16898.86
290.9221, 16934.38
291.4042, 16935.25
291.8863, 16926.85
292.3684, 16926.95
292.8506, 16937.22
293.3327, 16966.89
293.8148, 17038.19
294.2969, 17119.75
294.7790, 17140.82
295.2611, 17101.29
295.7433, 17057.32
296.2254, 17058.30
296.7075, 17093.66
297.1896, 17134.65
297.6717, 17182.45
298.1538, 17224.29
298.6360, 17233.91
299.1181, 17213.79
299.6002, 17192.08
300.0823, 17189.32
300.5644, 17200.29
301.0465, 17216.23
301.5287, 17239.67
302.0108, 17261.07
302.4929, 17263.16
302.9750, 17249.92
303.4571, 17244.00
303.9392, 17268.75
304.4214, 17307.57
304.9035, 17338.50
305.3856, 17353.56
305.8677, 17362.75
306.3498, 17370.53
306.8319, 17378.31
307.3141, 17391.41
307.7962, 17420.37
308.2783, 17452.52
308.7604, 17474.35
309.2425, 17477.96
309.7246, 17481.40
310.2068, 17500.46
310.6889, 17528.92
311.1710, 17550.85
311.6531, 17551.04
312.1352, 17546.36
312.6173, 17552.30
313.0995, 17578.63
313.5816, 17594.05
314.0637, 17569.31
314.5458, 17524.37
315.0279, 17496.60
315.5100, 17519.16
315.9922, 17548.48
316.4743, 17558.02
316.9564, 17537.72
317.4385, 17526.77
317.9206, 17541.28
318.4027, 17572.15
318.8849, 17606.72
319.3670, 17652.54
319.8491, 17691.84
320.3312, 17716.64
320.8133, 17724.52
321.2954, 17729.52
321.7776, 17732.07
322.2597, 17734.03
322.7418, 17737.36
323.2239, 17734.85
323.7060, 17741.21
324.1881, 17766.86
324.6703, 17814.88
325.1524, 17845.56
325.6345, 17830.24
326.1166, 17809.96
326.5987, 17817.95
327.0808, 17894.40
327.5630, 17951.92
328.0451, 17975.10
328.5272, 17965.54
329.0093, 17958.08
329.4914, 17955.72
329.9735, 17952.92
330.4557, 17944.74
330.9378, 17918.84
331.4199, 17909.65
331.9020, 17925.21
332.3841, 17960.36
332.8662, 17990.71
333.3484, 18016.48
333.8305, 18036.68
334.3126, 18048.79
334.7947, 18047.06
335.2768, 18056.00
335.7589, 18082.81
336.2411, 18117.63
336.7232, 18134.39
337.2053, 18127.42
337.6874, 18118.58
338.1695, 18116.05
338.6516, 18119.33
339.1338, 18135.67
339.6159, 18169.48
340.0980, 18209.39
340.5801, 18233.74
341.0622, 18241.07
341.5443, 18249.16
342.0265, 18267.65
342.5086, 18294.77
342.9907, 18314.35
343.4728, 18325.08
343.9549, 18332.79
344.4370, 18343.72
344.9192, 18357.65
345.4013, 18373.46
345.8834, 18391.67
346.3655, 18411.04
346.8476, 18429.27
347.3297, 18446.46
347.8119, 18457.97
348.2940, 18450.59
348.7761, 18432.67
349.2582, 18430.62
349.7403, 18460.93
350.2225, 18501.17
350.7046, 18517.55
351.1867, 18512.71
351.6688, 18505.95
352.1509, 18507.86
352.6331, 18517.56
353.1152, 18534.49
353.5973, 18560.64
354.0794, 18589.97
354.5615, 18623.97
355.0436, 18658.19
355.5258, 18679.10
356.0079, 18658.82
356.4900, 18633.32
356.9721, 18638.22
357.4542, 18688.23
357.9363, 18737.38
358.4185, 18762.63
358.9006, 18769.31
359.3827, 18766.59
359.8648, 18749.50
360.3469, 18730.71
360.8290, 18712.93
361.3112, 18694.41
361.7933, 18691.97
362.2754, 18727.83
362.7575, 18776.07
363.2396, 18808.64
363.7217, 18805.22
364.2039, 18799.07
364.6860, 18795.33
365.1681, 18794.26
365.6502, 18803.16
366.1323, 18825.97
366.6144, 18857.08
367.0966, 18892.95
367.5787, 18951.72
368.0608, 18992.06
368.5429, 19001.93
369.0250, 18988.34
369.5071, 18987.64
369.9893, 19012.43
370.4714, 19035.47
370.9535, 19042.44
371.4356, 19023.38
371.9177, 19010.26
372.3998, 19002.01
372.8820, 19000.68
373.3641, 19013.68
373.8462, 19048.21
374.3283, 19078.27
374.8104, 19091.62
375.2925, 19086.69
375.7747, 19082.54
376.2568, 19075.53
376.7389, 19076.48
377.2210, 19108.85
377.7031, 19175.95
378.1852, 19225.79
378.6674, 19236.88
379.1495, 19218.40
379.6316, 19207.90
380.1137, 19205.50
380.5958, 19210.78
381.0779, 19227.73
381.5601, 19253.78
382.0422, 19275.20
382.5243, 19290.01
383.0064, 19297.94
383.4885, 19298.98
383.9706, 19293.06
384.4528, 19279.58
384.9349, 19237.61
385.4170, 19192.90
385.8991, 19193.74
386.3812, 19258.25
386.8633, 19333.04
387.3455, 19364.83
387.8276, 19368.52
388.3097, 19378.68
388.7918, 19427.80
389.2739, 19480.56
389.7560, 19503.14
390.2382, 19490.11
390.7203, 19481.63
391.2024, 19514.58
391.6845, 19558.80
392.1666, 19579.89
392.6487, 19529.76
393.1309, 19488.54
393.6130, 19496.84
394.0951, 19550.29
394.5772, 19593.43
395.0593, 19605.10
395.5414, 19606.52
396.0236, 19610.78
396.5057, 19620.85
396.9878, 19632.50
397.4699, 19643.60
397.9520, 19655.76
398.4341, 19674.05
398.9163, 19705.70
399.3984, 19736.00
399.8805, 19760.31
400.3626, 19779.08
400.8447, 19790.19
401.3268, 19791.17
401.8090, 19786.30
402.2911, 19779.02
402.7732, 19763.36
403.2553, 19762.18
403.7374, 19789.21
404.2195, 19841.62
404.7017, 19864.47
405.1838, 19850.74
405.6659, 19826.34
406.1480, 19810.20
406.6301, 19802.10
407.1122, 19812.00
407.5944, 19848.42
408.0765, 19897.01
408.5586, 19921.95
409.0407, 19923.73
409.5228, 19919.61
410.0049, 19914.75
410.4871, 19912.65
410.9692, 19924.89
411.4513, 19954.44
411.9334, 19991.31
412.4155, 20030.07
412.8976, 20068.29
413.3798, 20097.70
413.8619, 20103.22
414.3440, 20105.26
414.8261, 20137.36
415.3082, 20199.76
415.7903, 20238.03
416.2725, 20181.81
416.7546, 20095.14
417.2367, 20049.82
417.7188, 20095.07
418.2009, 20158.01
418.6830, 20217.28
419.1652, 20270.29
419.6473, 20305.19
420.1294, 20298.82
420.6115, 20287.87
421.0937, 20295.18
421.5758, 20340.66
422.0579, 20367.41
422.5400, 20349.26
423.0221, 20311.96
423.5042, 20297.65
423.9864, 20330.46
424.4685, 20360.95
424.9506, 20380.06
425.4327, 20387.45
425.9148, 20381.80
426.3969, 20346.47
426.8791, 20317.06
427.3612, 20329.69
427.8433, 20401.60
428.3254, 20461.13
428.8075, 20496.89
429.2896, 20513.96
429.7718, 20529.79
430.2539, 20545.90
430.7360, 20553.32
431.2181, 20535.26
431.7002, 20495.41
432.1823, 20494.96
432.6645, 20545.33
433.1466, 20607.23
433.6287, 20621.38
434.1108, 20596.54
434.5929, 20576.13
435.0750, 20580.01
435.5572, 20598.72
436.0393, 20619.86
436.5214, 20643.03
437.0035, 20660.25
437.4856, 20651.47
437.9677, 20636.75
438.4499, 20648.04
438.9320, 20712.63
439.4141, 20772.38
439.8962, 20768.75
440.3783, 20726.32
440.8604, 20708.36
441.3426, 20789.00
441.8247, 20867.23
442.3068, 20871.99
442.7889, 20773.77
443.2710, 20707.70
443.7531, 20743.11
444.2353, 20816.07
444.7174, 20856.49
445.1995, 20821.65
445.6816, 20789.10
446.1637, 20765.07
446.6458, 20750.91
447.1280, 20761.96
447.6101, 20814.35
448.0922, 20874.36
448.5743, 20926.30
449.0564, 20978.12
449.5385, 20997.90
450.0207, 20970.21
450.5028, 20923.52
450.9849, 20915.32
451.4670, 20953.29
451.9491, 20991.38
452.4312, 21013.98
452.9134, 21021.81
453.3955, 21016.14
453.8776, 20994.30
454.3597, 20978.08
454.8418, 21001.66
455.3239, 21052.78
455.8061, 21076.69
456.2882, 21051.20
456.7703, 21008.87
457.2524, 20991.97
457.7345, 20997.70
458.2166, 21014.66
458.6988, 21042.75
459.1809, 21075.21
459.6630, 21105.04
460.1451, 21131.96
460.6272, 21155.38
461.1093, 21180.94
461.5915, 21200.91
462.0736, 21205.04
462.5557, 21157.77
463.0378, 21125.65
463.5199, 21148.44
464.0020, 21217.00
464.4842, 21262.24
464.9663, 21249.29
465.4484, 21224.11
465.9305, 21210.71
466.4126, 21216.32
466.8947, 21222.49
467.3769, 21228.78
467.8590, 21235.79
468.3411, 21244.86
468.8232, 21257.23
469.3053, 21269.19
469.7874, 21280.08
470.2696, 21289.86
470.7517, 21296.28
471.2338, 21296.87
471.7159, 21301.57
472.1980, 21324.78
472.6801, 21365.83
473.1623, 21390.69
473.6444, 21392.19
474.1265, 21380.56
474.6086, 21367.85
475.0907, 21355.33
475.5728, 21351.26
476.0550, 21365.21
476.5371, 21388.65
477.0192, 21410.13
477.5013, 21429.44
477.9834, 21441.84
478.4655, 21431.50
478.9477, 21415.86
479.4298, 21418.43
479.9119, 21457.35
480.3940, 21501.98
480.8761, 21545.40
481.3582, 21583.12
481.8404, 21601.40
482.3225, 21568.52
482.8046, 21537.67
483.2867, 21537.07
483.7688, 21581.57
484.2509, 21612.98
484.7331, 21617.15
485.2152, 21610.73
485.6973, 21608.77
486.1794, 21611.55
486.6615, 21618.91
487.1436, 21634.26
487.6258, 21654.38
488.1079, 21661.27
488.5900, 21648.48
489.0721, 21640.28
489.5542, 21654.02
490.0363, 21689.99
490.5185, 21715.28
491.0006, 21727.49
491.4827, 21733.53
491.9648, 21743.00
492.4470, 21754.54
492.9291, 21759.52
493.4112, 21747.81
493.8933, 21734.07
494.3754, 21745.39
494.8575, 21778.24
495.3397, 21809.79
495.8218, 21819.18
496.3039, 21822.61
496.7860, 21842.14
497.2681, 21888.71
497.7502, 21921.99
498.2324, 21900.61
498.7145, 21858.82
499.1966, 21842.78
499.6787, 21904.90
500.1608, 21955.86
500.6429, 21956.96
501.1251, 21912.08
501.6072, 21891.54
502.0893, 21926.20
502.5714, 21962.92
503.0535, 21973.75
503.5356, 21934.83
504.0178, 21929.45
504.4999, 21973.27
504.9820, 22036.50
505.4641, 22074.13
505.9462, 22082.14
506.4283, 22084.55
506.9105, 22085.11
507.3926, 22085.92
507.8747, 22099.50
508.3568, 22126.84
508.8389, 22149.05
509.3210, 22143.15
509.8032, 22121.55
510.2853, 22120.84
510.7674, 22148.74
511.2495, 22184.00
511.7316, 22209.94
512.2137, 22226.95
512.6959, 22235.58
513.1780, 22219.86
513.6601, 22209.51
514.1422, 22232.43
514.6243, 22282.99
515.1064, 22321.97
515.5886, 22329.38
516.0707, 22323.74
516.5528, 22313.34
517.0349, 22286.40
517.5170, 22281.44
517.9991, 22327.01
518.4813, 22386.87
518.9634, 22413.96
519.4455, 22388.20
519.9276, 22363.19
520.4097, 22344.37
520.8918, 22334.14
521.3740, 22353.71
521.8561, 22414.31
522.3382, 22467.52
522.8203, 22468.90
523.3024, 22423.23
523.7845, 22422.30
524.2667, 22480.88
524.7488, 22547.19
525.2309, 22548.83
525.7130, 22503.52
526.1951, 22473.49
526.6772, 22488.95
527.1594, 22521.68
527.6415, 22534.83
528.1236, 22534.41
528.6057, 22547.26
529.0878, 22611.81
529.5699, 22680.20
530.0521, 22712.58
530.5342, 22696.80
531.0163, 22678.77
531.4984, 22673.66
531.9805, 22673.39
532.4626, 22669.35
532.9448, 22646.41
533.4269, 22636.67
533.9090, 22647.97
534.3911, 22675.53
534.8732, 22701.50
535.3553, 22729.29
535.8375, 22749.44
536.3196, 22754.92
536.8017, 22744.77
537.2838, 22741.07
537.7659, 22743.55
538.2480, 22753.37
538.7302, 22777.85
539.2123, 22813.88
539.6944, 22836.15
540.1765, 22833.33
540.6586, 22825.17
541.1407, 22844.77
541.6229, 22884.39
542.1050, 22916.51
542.5871, 22918.54
543.0692, 22911.61
543.5513, 22909.50
544.0334, 22913.23
544.5156, 22933.34
544.9977, 23002.36
545.4798, 23073.93
545.9619, 23109.54
546.4440, 23073.65
546.9261, 23043.79
547.4083, 23030.22
547.8904, 23029.32
548.3725, 23035.66
548.8546, 23057.27
549.3367, 23072.83
549.8188, 23075.84
550.3010, 23067.38
550.7831, 23056.69
551.2652, 23039.30
551.7473, 23034.58
552.2294, 23064.51
552.7115, 23124.76
553.1937, 23171.33
553.6758, 23200.31
554.1579, 23217.29
554.6400, 23219.58
555.1221, 23214.48
555.6042, 23223.48
556.0864, 23265.99
556.5685, 23314.10
557.0506, 23342.18
557.5327, 23353.17
558.0148, 23357.32
558.4969, 23354.75
558.9791, 23350.54
559.4612, 23346.14
559.9433, 23340.23
560.4254, 23342.00
560.9075, 23357.02
561.3896, 23378.37
561.8718, 23400.72
562.3539, 23432.18
562.8360, 23449.21
563.3181, 23439.53
563.8002, 23419.26
564.2823, 23432.58
564.7645, 23488.36
565.2466, 23537.51
565.7287, 23560.40
566.2108, 23560.61
566.6929, 23549.27
567.1750, 23525.71
567.6572, 23507.74
568.1393, 23517.12
568.6214, 23541.93
569.1035, 23556.02
569.5856, 23552.24
570.0677, 23550.72
570.5499, 23577.68
571.0320, 23616.03
571.5141, 23638.95
571.9962, 23608.84
572.4783, 23589.08
572.9604, 23623.20
573.4426, 23696.56
573.9247, 23733.25
574.4068, 23674.63
574.8889, 23619.26
575.3710, 23606.88
575.8531, 23646.78
576.3353, 23680.40
576.8174, 23702.63
577.2995, 23725.71
577.7816, 23770.80
578.2637, 23842.92
578.7458, 23875.08
579.2280, 23847.72
579.7101, 23794.44
580.1922, 23767.44
580.6743, 23765.82
581.1564, 23784.46
581.6385, 23839.23
582.1207, 23903.20
582.6028, 23936.94
583.0849, 23943.62
583.5670, 23950.41
584.0491, 23977.99
584.5313, 24009.00
585.0134, 24030.44
585.4955, 24039.61
585.9776, 24041.39
586.4597, 24024.32
586.9418, 24005.79
587.4240, 24006.37
587.9061, 24042.78
588.3882, 24072.88
588.8703, 24092.12
589.3524, 24102.21
589.8345, 24105.47
590.3167, 24098.27
590.7988, 24098.65
591.2809, 24119.54
591.7630, 24155.19
592.2451, 24172.93
592.7272, 24172.18
593.2094, 24168.34
593.6915, 24171.72
594.1736, 24181.68
594.6557, 24196.94
595.1378, 24216.80
595.6199, 24242.88
596.1021, 24288.33
596.5842, 24337.51
597.0663, 24368.20
597.5485, 24358.05
598.0306, 24343.56
598.5127, 24331.32
598.9948, 24322.97
599.4769, 24324.99
599.9590, 24350.42
600.4412, 24370.62
600.9233, 24373.15
601.4054, 24356.13
601.8875, 24350.87
602.3696, 24357.57
602.8517, 24375.80
603.3339, 24411.41
603.8160, 24462.52
604.2981, 24500.40
604.7802, 24521.40
605.2623, 24529.05
605.7444, 24521.46
606.2266, 24503.43
606.7087, 24487.97
607.1908, 24475.70
607.6729, 24471.83
608.1550, 24485.51
608.6371, 24511.82
609.1193, 24535.20
609.6014, 24538.24
610.0835, 24546.39
610.5656, 24574.71
611.0477, 24627.48
611.5298, 24674.09
612.0120, 24716.75
612.4941, 24749.45
612.9762, 24765.82
613.4583, 24760.40
613.9404, 24758.82
614.4225, 24763.50
614.9047, 24769.69
615.3868, 24767.04
615.8689, 24756.89
616.3510, 24757.38
616.8331, 24776.25
617.3152, 24805.13
617.7974, 24838.23
618.2795, 24871.99
618.7616, 24894.48
619.2437, 24881.93
619.7258, 24868.28
620.2079, 24885.80
620.6901, 24935.60
621.1722, 24973.26
621.6543, 24978.23
622.1364, 24969.66
622.6185, 24957.57
623.1006, 24931.95
623.5828, 24927.88
624.0649, 24957.72
624.5470, 24997.79
625.0291, 25015.50
625.5112, 25003.29
625.9933, 25013.39
626.4755, 25065.81
626.9576, 25130.96
627.4397, 25139.86
627.9218, 25099.23
628.4039, 25060.38
628.8860, 25038.42
629.3682, 25038.10
629.8503, 25079.41
630.3324, 25156.14
630.8145, 25221.63
631.2966, 25249.31
631.7787, 25254.91
632.2609, 25246.84
632.7430, 25223.37
633.2251, 25197.46
633.7072, 25155.71
634.1893, 25122.80
634.6714, 25119.90
635.1536, 25158.90
635.6357, 25205.02
636.1178, 25265.44
636.5999, 25321.22
637.0820, 25328.82
637.5641, 25285.92
638.0463, 25248.61
638.5284, 25229.45
639.0105, 25231.64
639.4926, 25280.38
639.9747, 25365.33
640.4568, 25425.41
640.9390, 25401.81
641.4211, 25351.17
641.9032, 25325.22
642.3853, 25327.71
642.8674, 25333.97
643.3495, 25330.84
643.8317, 25330.30
644.3138, 25340.58
644.7959, 25364.28
645.2780, 25398.81
645.7601, 25466.55
646.2422, 25525.49
646.7244, 25511.47
647.2065, 25401.50
647.6886, 25342.03
648.1707, 25370.21
648.6528, 25445.76
649.1349, 25495.24
649.6171, 25520.40
650.0992, 25535.61
650.5813, 25541.18
651.0634, 25544.42
651.5455, 25559.51
652.0276, 25582.83
652.5098, 25594.04
652.9919, 25569.23
653.4740, 25539.11
653.9561, 25525.60
654.4382, 25535.29
654.9203, 25533.31
655.4025, 25478.83
655.8846, 25441.08
656.3667, 25475.43
656.8488, 25621.00
657.3309, 25718.32
657.8130, 25751.87
658.2952, 25755.56
658.7773, 25781.16
659.2594, 25825.31
659.7415, 25842.54
660.2236, 25812.28
660.7057, 25764.20
661.1879, 25731.77
661.6700, 25715.55
662.1521, 25717.83
662.6342, 25756.45
663.1163, 25799.47
663.5984, 25834.32
664.0806, 25858.82
664.5627, 25861.23
665.0448, 25816.85
665.5269, 25769.18
666.0090, 25731.44
666.4911, 25700.85
666.9733, 25709.29
667.4554, 25776.91
667.9375, 25843.57
668.4196, 25846.78
668.9017, 25789.64
669.3839, 25775.82
669.8660, 25820.95
670.3481, 25879.51
670.8302, 25895.18
671.3123, 25884.54
671.7944, 25884.19
672.2766, 25911.58
672.7587, 25942.04
673.2408, 25962.74
673.7229, 25974.61
674.2050, 25979.88
674.6871, 25958.47
675.1693, 25953.20
675.6514, 25990.98
676.1335, 26058.99
676.6156, 26086.38
