##NAMES=Magnesiocopiapite
##RRUFFID=R060155
##IDEAL CHEMISTRY=MgFe^3+^_4_(S^6+^O_4_)_6_(OH)_2_&#183;20H_2_O
##LOCALITY=Denver mine, Santa Cruz County, Arizona, USA
##OWNER=RRUFF
##SOURCE=University of Arizona Mineral Museum
##DESCRIPTION=Yellow fine-grained efflorescence
##STATUS=The identification of this mineral has been confirmed by X-ray diffraction and chemical analysis
##URL=rruff.info/R060155
##MEASURED CHEMISTRY=(Mg_0.95_Mn_0.05_)_Σ=1_(Fe^3+^_3.56_Al_0.44_)_Σ=4_(S_1.00_O_4_)_6_(OH)_2_·17H_2_O ; H not measured but estimated by difference
92.02539, 237.0550
92.50751, 239.7996
92.98962, 242.8148
93.47174, 242.4933
93.95386, 240.9741
94.43597, 238.3768
94.91809, 234.9974
95.40021, 231.2075
95.88232, 227.2872
96.36444, 222.9670
96.84656, 218.9178
97.32867, 215.4916
97.81078, 212.5592
98.29290, 209.8948
98.77502, 207.2193
99.25713, 204.2373
99.73925, 201.1215
100.2214, 197.4522
100.7035, 194.0839
101.1856, 191.4252
101.6677, 189.4521
102.1498, 187.8537
102.6320, 186.2554
103.1141, 184.5048
103.5962, 183.1591
104.0783, 182.4401
104.5604, 181.9983
105.0425, 181.4630
105.5247, 180.7114
106.0068, 179.8422
106.4889, 178.9502
106.9710, 177.9910
107.4531, 177.1288
107.9352, 176.3787
108.4173, 175.7538
108.8995, 175.3835
109.3816, 175.6245
109.8637, 175.8923
110.3458, 175.5209
110.8279, 174.3316
111.3100, 172.8973
111.7922, 171.8324
112.2743, 171.1349
112.7564, 170.8579
113.2385, 171.1987
113.7206, 171.8310
114.2027, 172.5169
114.6849, 173.1560
115.1670, 173.7511
115.6491, 174.3016
116.1312, 174.8234
116.6133, 175.2734
117.0954, 175.6328
117.5776, 175.9200
118.0597, 176.1392
118.5418, 176.2764
119.0239, 176.3264
119.5060, 176.6359
119.9881, 177.3754
120.4703, 178.1533
120.9524, 178.8464
121.4345, 179.4376
121.9166, 179.9485
122.3987, 180.3967
122.8808, 180.7689
123.3630, 181.0485
123.8451, 181.3282
124.3272, 181.4685
124.8093, 181.2293
125.2914, 180.5171
125.7735, 179.7610
126.2557, 179.5238
126.7378, 179.6963
127.2199, 179.8824
127.7020, 179.9518
128.1841, 179.9226
128.6662, 179.8552
129.1483, 179.7834
129.6305, 179.6324
130.1126, 179.2983
130.5947, 178.8048
131.0768, 178.3617
131.5589, 178.2363
132.0410, 178.4977
132.5232, 178.5143
133.0053, 177.8492
133.4874, 177.1579
133.9695, 176.7542
134.4516, 176.7063
134.9337, 176.9066
135.4159, 177.2221
135.8980, 177.7872
136.3801, 178.2097
136.8622, 178.4066
137.3443, 178.5120
137.8264, 178.6463
138.3086, 178.8549
138.7907, 179.0852
139.2728, 179.1885
139.7549, 178.9801
140.2370, 178.8526
140.7191, 178.9683
141.2013, 179.1621
141.6834, 179.1465
142.1655, 178.3365
142.6476, 178.9596
143.1297, 179.3613
143.6118, 179.5535
144.0939, 178.9087
144.5761, 179.3447
145.0582, 179.3476
145.5403, 179.3327
146.0224, 179.9208
146.5045, 179.3977
146.9866, 179.9763
147.4688, 180.1151
147.9509, 180.4552
148.4330, 180.3595
148.9151, 180.3983
149.3972, 180.8732
149.8793, 181.1066
150.3615, 180.9607
150.8436, 181.3136
151.3257, 180.7753
151.8078, 181.0190
152.2899, 181.6001
152.7720, 181.2480
153.2542, 181.2578
153.7363, 181.0240
154.2184, 180.7253
154.7005, 180.2475
155.1826, 180.6791
155.6647, 180.8893
156.1469, 180.8900
156.6290, 180.0537
157.1111, 180.2982
157.5932, 180.1096
158.0753, 179.9032
158.5574, 179.9204
159.0396, 179.6331
159.5217, 179.3017
160.0038, 178.8355
160.4859, 178.2610
160.9680, 177.5529
161.4501, 176.7339
161.9323, 175.7834
162.4144, 174.6192
162.8965, 173.1354
163.3786, 171.2026
163.8607, 169.4644
164.3428, 168.0177
164.8250, 166.6838
165.3071, 165.3879
165.7892, 164.1062
166.2713, 162.7802
166.7534, 161.3013
167.2355, 159.6355
167.7177, 158.1081
168.1998, 156.6534
168.6819, 155.3837
169.1640, 154.5894
169.6461, 154.4510
170.1282, 154.3394
170.6104, 153.3179
171.0925, 151.5064
171.5746, 149.8250
172.0567, 148.5134
172.5388, 147.5965
173.0209, 147.2463
173.5031, 147.8450
173.9852, 148.5390
174.4673, 148.5387
174.9494, 147.9035
175.4315, 147.1822
175.9136, 146.7379
176.3958, 146.5626
176.8779, 146.4689
177.3600, 146.5573
177.8421, 146.6152
178.3242, 146.4399
178.8063, 146.0576
179.2885, 145.7378
179.7706, 145.8420
180.2527, 146.5269
180.7348, 146.9496
181.2169, 146.7124
181.6990, 146.4568
182.1812, 146.5699
182.6633, 147.0880
183.1454, 147.7349
183.6275, 148.1139
184.1096, 148.0640
184.5917, 148.0738
185.0738, 147.9912
185.5560, 148.0529
186.0381, 148.5403
186.5202, 149.4802
187.0023, 150.5491
187.4844, 151.1664
187.9665, 150.6965
188.4487, 150.8064
188.9308, 151.9331
189.4129, 153.3935
189.8950, 154.5488
190.3771, 155.1844
190.8592, 155.5521
191.3414, 156.1362
191.8235, 157.0809
192.3056, 157.9664
192.7877, 158.8080
193.2698, 159.5467
193.7519, 160.1339
194.2341, 160.5672
194.7162, 160.7862
195.1983, 160.5834
195.6804, 159.9100
196.1625, 159.1689
196.6446, 158.5478
197.1268, 157.9458
197.6089, 157.0789
198.0910, 155.7423
198.5731, 154.2741
199.0552, 153.2444
199.5373, 152.7129
200.0195, 152.1800
200.5016, 151.2328
200.9837, 149.9890
201.4658, 149.0871
201.9479, 148.8615
202.4300, 148.9281
202.9122, 148.8488
203.3943, 148.6045
203.8764, 148.3063
204.3585, 147.9707
204.8406, 147.5981
205.3227, 147.4212
205.8048, 147.5393
206.2870, 147.8680
206.7691, 148.3835
207.2512, 149.0792
207.7333, 149.8585
208.2154, 150.6600
208.6975, 151.5102
209.1797, 152.2222
209.6618, 152.5356
210.1439, 152.8546
210.6260, 153.4018
211.1081, 154.2138
211.5902, 155.1805
212.0724, 156.2105
212.5545, 157.3804
213.0366, 158.3494
213.5187, 158.8833
214.0008, 159.3739
214.4829, 160.0854
214.9651, 161.0556
215.4472, 162.1225
215.9293, 163.0193
216.4114, 163.5359
216.8935, 164.3364
217.3756, 165.5711
217.8578, 166.9317
218.3399, 168.3019
218.8220, 169.6131
219.3041, 170.7697
219.7862, 171.5807
220.2683, 171.6785
220.7505, 172.1558
221.2326, 173.0518
221.7147, 174.2542
222.1968, 175.7484
222.6789, 177.5068
223.1610, 179.3953
223.6432, 181.2066
224.1253, 182.7986
224.6074, 184.6382
225.0895, 187.5013
225.5716, 190.1902
226.0537, 191.3629
226.5358, 190.7524
227.0180, 189.4950
227.5001, 189.1665
227.9822, 190.0939
228.4643, 190.9963
228.9464, 191.8052
229.4285, 192.5521
229.9107, 193.2392
230.3928, 193.8642
230.8749, 194.4843
231.3570, 195.1683
231.8391, 195.9188
232.3212, 196.6952
232.8034, 197.5493
233.2855, 198.4029
233.7676, 199.1849
234.2497, 199.8946
234.7318, 200.4618
235.2139, 200.6433
235.6961, 200.4995
236.1782, 200.6472
236.6603, 201.6074
237.1424, 202.8419
237.6245, 203.4419
238.1066, 203.1549
238.5888, 202.7159
239.0709, 203.0405
239.5530, 203.8482
240.0351, 204.1762
240.5172, 203.3673
240.9993, 201.9294
241.4815, 200.7871
241.9636, 199.9829
242.4457, 199.5065
242.9278, 199.6369
243.4099, 200.0836
243.8920, 200.2205
244.3742, 199.6876
244.8563, 198.6812
245.3384, 197.5862
245.8205, 196.2959
246.3026, 195.1716
246.7847, 194.4761
247.2668, 194.0571
247.7490, 193.6937
248.2311, 193.3109
248.7132, 192.9096
249.1953, 192.4243
249.6774, 191.6721
250.1595, 191.2392
250.6417, 191.4880
251.1238, 192.1219
251.6059, 192.7741
252.0880, 193.2682
252.5701, 193.6939
253.0522, 194.3319
253.5344, 195.4069
254.0165, 196.2326
254.4986, 196.2334
254.9807, 196.0535
255.4628, 196.4347
255.9449, 197.7343
256.4271, 199.6237
256.9092, 201.3766
257.3913, 202.9715
257.8734, 204.4424
258.3555, 205.6789
258.8376, 206.8757
259.3198, 208.1859
259.8019, 209.6631
260.2840, 211.3430
260.7661, 213.3400
261.2482, 215.8907
261.7303, 218.3121
262.2125, 220.4886
262.6946, 222.5649
263.1767, 224.6873
263.6588, 226.9035
264.1409, 229.0738
264.6230, 230.9226
265.1052, 232.1139
265.5873, 233.6507
266.0694, 235.9927
266.5515, 238.3620
267.0336, 240.2252
267.5157, 241.4431
267.9979, 242.1773
268.4800, 242.6423
268.9621, 242.7885
269.4442, 242.7321
269.9263, 242.7616
270.4084, 242.4322
270.8906, 241.5117
271.3727, 239.9428
271.8548, 237.7466
272.3369, 234.9084
272.8190, 231.3191
273.3011, 227.4536
273.7833, 223.2540
274.2654, 218.8978
274.7475, 214.4344
275.2296, 209.9009
275.7117, 205.3931
276.1938, 201.0073
276.6760, 196.7524
277.1581, 192.5393
277.6402, 188.2614
278.1223, 184.0984
278.6044, 180.0177
279.0865, 176.0812
279.5686, 172.4873
280.0508, 169.4242
280.5329, 166.9096
281.0150, 164.3052
281.4971, 161.2338
281.9792, 158.4564
282.4613, 156.3987
282.9435, 154.8703
283.4256, 153.3947
283.9077, 151.6609
284.3898, 149.7060
284.8719, 147.9746
285.3540, 146.3937
285.8362, 145.0623
286.3183, 144.0688
286.8004, 143.3381
287.2825, 142.7612
287.7646, 142.2938
288.2467, 141.9072
288.7289, 141.4944
289.2110, 140.9178
289.6931, 140.4859
290.1752, 140.3621
290.6573, 140.3846
291.1394, 140.3138
291.6216, 140.0526
292.1037, 139.7085
292.5858, 139.4989
293.0679, 139.4629
293.5500, 139.4906
294.0321, 139.5213
294.5143, 139.6336
294.9964, 139.9456
295.4785, 140.4894
295.9606, 141.1462
296.4427, 141.7798
296.9248, 142.4497
297.4070, 142.8659
297.8891, 142.7500
298.3712, 142.5359
298.8533, 142.6776
299.3354, 143.2204
299.8175, 143.7948
300.2997, 144.0512
300.7818, 143.9402
301.2639, 143.6028
301.7460, 142.8191
302.2281, 141.9885
302.7102, 141.4051
303.1924, 141.0591
303.6745, 140.7036
304.1566, 140.1131
304.6387, 139.3165
305.1208, 138.7929
305.6029, 139.3643
306.0851, 139.4002
306.5672, 137.8846
307.0493, 135.1050
307.5314, 131.9788
308.0135, 128.9392
308.4956, 126.0139
308.9778, 123.3712
309.4599, 120.8957
309.9420, 118.7663
310.4241, 117.3015
310.9062, 116.2054
311.3883, 114.8966
311.8705, 113.1159
312.3526, 111.0870
312.8347, 109.3531
313.3168, 108.0790
313.7989, 106.6488
314.2810, 104.7161
314.7632, 102.6403
315.2453, 100.8710
315.7274, 99.53653
316.2095, 98.51420
316.6916, 97.70081
317.1737, 97.17915
317.6559, 96.47820
318.1380, 95.45162
318.6201, 94.29475
319.1022, 93.15725
319.5843, 92.06126
320.0664, 91.02125
320.5485, 90.04787
321.0306, 89.15343
321.5128, 88.31069
321.9949, 87.49801
322.4770, 86.74858
322.9591, 86.09899
323.4412, 85.53965
323.9233, 84.99829
324.4055, 84.40873
324.8876, 83.80317
325.3697, 83.42011
325.8518, 83.66530
326.3339, 83.66261
326.8160, 82.88946
327.2982, 81.63072
327.7803, 80.48302
328.2624, 79.71166
328.7445, 79.24065
329.2266, 78.89147
329.7087, 78.71748
330.1909, 78.54807
330.6730, 78.46778
331.1551, 78.33550
331.6372, 77.87973
332.1193, 77.01572
332.6014, 76.08228
333.0836, 75.58013
333.5657, 75.69602
334.0478, 75.72702
334.5299, 75.54316
335.0120, 75.33768
335.4941, 75.36514
335.9763, 75.61309
336.4584, 75.71732
336.9405, 75.27796
337.4226, 74.22240
337.9047, 73.56128
338.3868, 73.63471
338.8690, 73.72857
339.3511, 73.35472
339.8332, 72.66303
340.3153, 72.19479
340.7974, 72.33318
341.2795, 72.94890
341.7617, 73.20328
342.2438, 72.79477
342.7259, 72.43932
343.2080, 72.39152
343.6901, 72.47301
344.1722, 72.41090
344.6544, 72.09251
345.1365, 71.60142
345.6186, 71.10204
346.1007, 70.41866
346.5828, 70.02348
347.0649, 70.26488
347.5471, 70.59739
348.0292, 70.52148
348.5113, 69.95580
348.9934, 69.15310
349.4755, 68.37917
349.9576, 67.54990
350.4398, 67.14877
350.9219, 67.55472
351.4040, 67.97439
351.8861, 67.92852
352.3682, 67.50938
352.8503, 67.12633
353.3325, 67.10924
353.8146, 67.42220
354.2967, 67.49223
354.7788, 67.09428
355.2609, 66.71172
355.7430, 66.43739
356.2252, 66.24157
356.7073, 66.07973
357.1894, 65.93204
357.6715, 65.79016
358.1536, 65.62945
358.6357, 65.41905
359.1179, 65.23884
359.5999, 65.10954
360.0821, 64.99789
360.5642, 64.85640
361.0463, 64.68595
361.5284, 64.55482
362.0105, 64.56332
362.4926, 64.76755
362.9748, 64.89525
363.4569, 64.84481
363.9390, 64.81789
364.4211, 65.05025
364.9032, 65.39933
365.3853, 65.46036
365.8675, 64.85805
366.3496, 63.69504
366.8317, 62.96333
367.3138, 62.93788
367.7959, 63.03354
368.2780, 63.19906
368.7602, 63.37899
369.2423, 63.53457
369.7244, 63.65168
370.2065, 63.69137
370.6886, 63.52538
371.1707, 62.98425
371.6529, 62.67426
372.1350, 62.83452
372.6171, 63.12480
373.0992, 63.35841
373.5813, 63.49577
374.0634, 63.56923
374.5456, 63.62139
375.0277, 63.65605
375.5098, 63.57860
375.9919, 63.22043
376.4740, 62.93674
376.9561, 62.89973
377.4383, 63.05826
377.9204, 63.29952
378.4025, 63.62343
378.8846, 63.95032
379.3667, 64.00935
379.8488, 63.65857
380.3310, 63.40934
380.8131, 63.56857
381.2952, 63.88726
381.7773, 64.11889
382.2594, 64.19213
382.7415, 64.21201
383.2237, 64.28359
383.7058, 64.40668
384.1879, 64.53691
384.6700, 64.59155
385.1521, 64.73592
385.6342, 65.19090
386.1164, 65.92480
386.5985, 66.53776
387.0806, 66.71599
387.5627, 66.61864
388.0448, 66.63667
388.5269, 66.83060
389.0091, 67.03945
389.4912, 67.17648
389.9733, 67.23957
390.4554, 67.19621
390.9375, 66.83533
391.4196, 66.55337
391.9018, 66.80464
392.3839, 67.53350
392.8660, 68.20602
393.3481, 68.53716
393.8302, 68.73008
394.3123, 69.26625
394.7945, 70.36311
395.2766, 71.09284
395.7587, 70.66215
396.2408, 69.73280
396.7229, 69.52763
397.2050, 70.36633
397.6872, 71.46703
398.1693, 71.98367
398.6514, 71.85322
399.1335, 71.73174
399.6156, 71.55681
400.0977, 71.47056
400.5798, 71.59449
401.0620, 71.90730
401.5441, 72.33799
402.0262, 72.89713
402.5083, 73.49680
402.9904, 73.65792
403.4725, 72.70034
403.9547, 72.21085
404.4368, 72.85007
404.9189, 73.98373
405.4010, 74.81339
405.8831, 75.09111
406.3652, 75.10484
406.8474, 75.26128
407.3295, 75.58522
407.8116, 75.99769
408.2937, 76.68917
408.7758, 77.29070
409.2579, 77.53002
409.7401, 77.48029
410.2222, 77.39567
410.7043, 77.44180
411.1864, 77.63129
411.6685, 78.07912
412.1506, 79.22505
412.6328, 80.08434
413.1149, 80.29903
413.5970, 80.25512
414.0791, 80.39921
414.5612, 80.87954
415.0433, 81.47688
415.5255, 81.82291
416.0076, 81.80913
416.4897, 81.92559
416.9718, 82.15208
417.4539, 82.56169
417.9360, 83.30544
418.4182, 84.29729
418.9003, 85.25080
419.3824, 85.95698
419.8645, 86.46230
420.3466, 86.97395
420.8287, 87.45396
421.3109, 88.01675
421.7930, 88.73827
422.2751, 89.54415
422.7572, 90.36972
423.2393, 91.20932
423.7214, 92.00341
424.2036, 92.62357
424.6857, 93.08070
425.1678, 93.70956
425.6499, 94.69744
426.1320, 95.73675
426.6141, 96.53819
427.0963, 97.12630
427.5784, 97.69498
428.0605, 98.24362
428.5426, 98.85676
429.0247, 99.67471
429.5068, 100.7159
429.9890, 101.8746
430.4711, 103.1848
430.9532, 104.5323
431.4353, 105.5589
431.9174, 105.9367
432.3995, 106.4816
432.8817, 107.7741
433.3638, 109.5070
433.8459, 111.0138
434.3280, 112.0618
434.8101, 112.9609
435.2922, 114.1756
435.7744, 115.8497
436.2565, 117.2133
436.7386, 117.9250
437.2207, 118.5699
437.7028, 119.2882
438.1849, 120.2522
438.6671, 122.0962
439.1492, 125.4463
439.6313, 129.8184
440.1134, 132.2684
440.5955, 131.0744
441.0776, 130.0522
441.5598, 129.5975
442.0418, 129.5132
442.5240, 129.6339
443.0061, 129.8950
443.4882, 130.2489
443.9703, 130.6085
444.4524, 130.9198
444.9345, 131.5025
445.4167, 132.8707
445.8988, 134.0017
446.3809, 134.3330
446.8630, 134.1677
447.3451, 134.1045
447.8272, 134.4713
448.3094, 135.1705
448.7915, 135.9785
449.2736, 136.9188
449.7557, 137.8980
450.2378, 138.9803
450.7199, 140.0393
451.2021, 140.9673
451.6842, 141.7578
452.1663, 142.5183
452.6484, 143.3638
453.1305, 144.2580
453.6126, 144.9919
454.0948, 145.4805
454.5769, 145.9755
455.0590, 146.7139
455.5411, 147.5694
456.0232, 148.3083
456.5053, 148.7748
456.9875, 149.2516
457.4696, 149.9528
457.9517, 150.8634
458.4338, 151.9478
458.9159, 153.2300
459.3980, 154.6158
459.8802, 155.9854
460.3623, 157.3418
460.8444, 158.6616
461.3265, 159.8951
461.8086, 161.1146
462.2907, 162.3661
462.7729, 163.6598
463.2550, 165.0434
463.7371, 166.6050
464.2192, 168.2568
464.7013, 169.5314
465.1834, 170.0024
465.6656, 170.6663
466.1477, 172.0264
466.6298, 173.4748
467.1119, 174.2222
467.5940, 174.1514
468.0761, 173.9266
468.5583, 174.4230
469.0404, 175.8642
469.5225, 176.5971
470.0046, 176.0568
470.4867, 175.3780
470.9688, 174.8354
471.4510, 174.3942
471.9331, 173.9992
472.4152, 173.6427
472.8973, 173.1941
473.3794, 172.3626
473.8615, 171.0605
474.3437, 169.7502
474.8258, 168.4082
475.3079, 167.1792
475.7900, 166.3256
476.2721, 165.7481
476.7542, 164.8946
477.2364, 163.2666
477.7185, 161.1656
478.2006, 159.3149
478.6827, 157.7987
479.1648, 156.0841
479.6469, 153.7861
480.1291, 151.1559
480.6112, 148.7066
481.0933, 146.5766
481.5754, 144.3125
482.0575, 141.6383
482.5396, 138.6858
483.0217, 135.6556
483.5038, 132.5825
483.9860, 129.5146
484.4681, 126.4271
484.9502, 123.3326
485.4323, 120.6101
485.9144, 118.5846
486.3965, 116.5664
486.8787, 114.2480
487.3608, 111.7218
487.8429, 109.1553
488.3250, 106.6076
488.8071, 104.1128
489.2892, 101.7643
489.7714, 99.63314
490.2535, 97.43027
490.7356, 94.91438
491.2177, 92.56558
491.6998, 90.70791
492.1819, 89.23080
492.6641, 87.81013
493.1462, 86.22211
493.6283, 84.61115
494.1104, 83.48744
494.5925, 83.14517
495.0746, 82.49744
495.5568, 80.97366
496.0389, 79.28011
496.5210, 77.87073
497.0031, 76.78996
497.4852, 75.85777
497.9673, 75.06972
498.4495, 74.33468
498.9316, 73.33766
499.4137, 71.98808
499.8958, 70.75249
500.3779, 69.95677
500.8600, 69.43071
501.3422, 68.80386
501.8243, 67.98515
502.3064, 67.21884
502.7885, 66.56507
503.2706, 66.05654
503.7527, 65.85040
504.2349, 65.98814
504.7170, 66.03728
505.1991, 65.53077
505.6812, 64.42382
506.1633, 63.54283
506.6454, 63.00382
507.1276, 62.53442
507.6097, 62.03251
508.0918, 61.53539
508.5739, 61.08295
509.0560, 60.69474
509.5381, 60.43731
510.0203, 60.48690
510.5024, 61.06728
510.9845, 61.18561
511.4666, 60.33456
511.9487, 59.52293
512.4308, 59.18855
512.9130, 59.17822
513.3951, 59.14515
513.8772, 58.91375
514.3593, 58.57363
514.8414, 58.28889
515.3235, 58.06861
515.8057, 57.82140
516.2878, 57.47995
516.7699, 57.15142
517.2520, 56.89521
517.7341, 56.71833
518.2162, 56.66048
518.6984, 56.82121
519.1805, 57.06228
519.6626, 57.23911
520.1447, 57.34459
520.6268, 57.32356
521.1089, 57.11069
521.5911, 56.80096
522.0732, 56.60807
522.5553, 56.52030
523.0374, 56.54378
523.5195, 56.82786
524.0016, 57.12090
524.4838, 57.20189
524.9659, 57.06629
525.4480, 56.81001
525.9301, 56.48439
526.4122, 56.12127
526.8943, 55.88052
527.3765, 55.82882
527.8586, 55.81700
528.3407, 55.93524
528.8228, 56.01487
529.3049, 55.83081
529.7870, 55.41798
530.2692, 55.09948
530.7513, 55.21313
531.2334, 55.67203
531.7155, 55.94471
532.1976, 55.94494
532.6797, 55.95842
533.1619, 55.58321
533.6440, 56.28057
534.1261, 56.75654
534.6082, 57.02302
535.0903, 56.45248
535.5724, 56.96277
536.0546, 57.03997
536.5367, 57.09933
537.0188, 57.76173
537.5009, 57.31296
537.9830, 57.96577
538.4651, 58.17886
538.9473, 58.59326
539.4294, 58.57178
539.9115, 58.68494
540.3936, 59.23404
540.8757, 58.92545
541.3578, 58.94430
541.8400, 58.95111
542.3221, 58.96333
542.8042, 58.98308
543.2863, 59.00768
543.7684, 59.21003
544.2505, 59.75607
544.7326, 60.28740
545.2147, 60.88757
545.6968, 61.36332
546.1790, 61.42519
546.6611, 61.02724
547.1432, 60.54437
547.6253, 60.34607
548.1074, 60.42133
548.5895, 60.68942
549.0717, 61.25616
549.5538, 61.77911
550.0359, 62.10044
550.5180, 62.23275
551.0001, 62.13374
551.4822, 61.69319
551.9644, 61.27354
552.4465, 61.08985
552.9286, 61.08962
553.4107, 61.22829
553.8928, 61.50250
554.3749, 61.68341
554.8571, 61.53013
555.3392, 61.05439
555.8213, 60.74836
556.3034, 60.67109
556.7855, 60.66295
557.2676, 60.71102
557.7498, 60.79197
558.2319, 60.91814
558.7140, 61.07410
559.1961, 61.16230
559.6782, 61.08162
560.1603, 60.83290
560.6425, 60.42854
561.1246, 59.68679
561.6067, 59.06397
562.0888, 58.66002
562.5709, 58.45138
563.0530, 58.49390
563.5352, 58.81392
564.0173, 59.04380
564.4994, 58.80134
564.9815, 58.21384
565.4636, 57.65264
565.9457, 57.12103
566.4279, 56.78649
566.9100, 56.86899
567.3921, 57.22553
567.8742, 57.32889
568.3563, 57.03593
568.8384, 56.73139
569.3206, 56.48298
569.8027, 56.32539
570.2848, 56.36750
570.7669, 56.58826
571.2490, 56.74269
571.7311, 56.57806
572.2133, 56.15129
572.6954, 56.10520
573.1775, 56.88457
573.6596, 57.43867
574.1417, 57.40915
574.6238, 57.26160
575.1060, 57.38453
575.5881, 57.82969
576.0702, 58.43272
576.5523, 59.19691
577.0344, 59.99937
577.5165, 60.30251
577.9987, 59.98124
578.4808, 59.70472
578.9629, 59.72880
579.4450, 59.97632
579.9271, 60.35119
580.4092, 60.87440
580.8914, 61.36405
581.3735, 61.77088
581.8556, 62.09715
582.3377, 62.23132
582.8198, 62.24091
583.3019, 62.50511
583.7841, 63.27123
584.2662, 64.36958
584.7483, 65.34019
