##NAMES=Magnetite
##RRUFFID=R060191
##IDEAL CHEMISTRY=Fe^2+^Fe^3+^_2_O_4_
##LOCALITY=Merrry Widow mine, Vancouver Island, British Columbia, Canada
##OWNER=RRUFF
##SOURCE=Lloyd Twaites
##DESCRIPTION=Grayish-black octahedral crystals
##STATUS=The identification of this mineral has been confirmed by X-ray diffraction and chemical analysis
##URL=rruff.info/R060191
##MEASURED CHEMISTRY=(Fe^2+^_0.97_Mg_0.03_)(Fe^3+^_0.97_Al_0.03_)_2_O_4_
92.07813, 16.72372
92.56024, 16.98997
93.04236, 16.77614
93.52448, 16.21273
94.00659, 15.78222
94.48871, 15.79858
94.97083, 16.15541
95.45294, 16.65073
95.93506, 17.36463
96.41718, 17.99993
96.89929, 17.86421
97.38141, 16.94743
97.86353, 16.05692
98.34564, 15.93799
98.82776, 16.54537
99.30988, 16.77188
99.79199, 16.33397
100.2741, 15.42626
100.7562, 14.75497
101.2383, 14.33695
101.7205, 14.10682
102.2026, 14.10010
102.6847, 14.44794
103.1668, 14.48306
103.6489, 13.89208
104.1310, 12.65259
104.6132, 12.07039
105.0953, 12.41204
105.5774, 13.16589
106.0595, 13.68647
106.5416, 13.76496
107.0237, 13.94628
107.5059, 14.50109
107.9880, 15.79214
108.4701, 16.30088
108.9522, 15.56737
109.4343, 14.14287
109.9164, 13.01038
110.3986, 12.19089
110.8807, 11.66587
111.3628, 11.42352
111.8449, 11.51555
112.3270, 11.81353
112.8091, 12.65591
113.2913, 13.74814
113.7734, 14.27503
114.2555, 13.57873
114.7376, 12.63408
115.2197, 11.95345
115.7018, 11.47570
116.1840, 11.43232
116.6661, 12.30732
117.1482, 13.86390
117.6303, 14.86755
118.1124, 13.50634
118.5945, 12.00378
119.0767, 12.26797
119.5588, 17.68302
120.0409, 22.71397
120.5230, 24.09221
121.0051, 21.95837
121.4872, 19.40961
121.9694, 17.91226
122.4515, 17.21653
122.9336, 16.97591
123.4157, 17.08437
123.8978, 17.56651
124.3799, 18.59879
124.8621, 20.22889
125.3442, 21.87741
125.8263, 22.90083
126.3084, 23.53751
126.7905, 24.37465
127.2726, 25.81071
127.7548, 27.59999
128.2369, 29.39256
128.7190, 31.19350
129.2011, 32.87339
129.6832, 34.07899
130.1653, 34.90399
130.6474, 35.97689
131.1296, 38.01014
131.6117, 40.64897
132.0938, 42.60913
132.5759, 43.56258
133.0580, 44.10205
133.5401, 45.29847
134.0223, 47.16409
134.5044, 49.34174
134.9865, 51.68033
135.4686, 54.19435
135.9507, 56.62471
136.4328, 58.95105
136.9150, 61.21054
137.3971, 63.46098
137.8792, 65.70491
138.3613, 67.97636
138.8434, 70.35176
139.3255, 72.85690
139.8077, 75.21959
140.2898, 77.35419
140.7719, 79.28316
141.2540, 81.47611
141.7361, 84.10822
142.2182, 86.67579
142.7004, 88.71091
143.1825, 90.16185
143.6646, 91.12280
144.1467, 91.30803
144.6288, 90.60557
145.1109, 91.04527
145.5931, 93.28255
146.0752, 96.13911
146.5573, 98.23534
147.0394, 99.03451
147.5215, 99.82150
148.0036, 100.8702
148.4858, 102.2431
148.9679, 103.6913
149.4500, 105.1842
149.9321, 106.7668
150.4142, 108.4714
150.8963, 110.3289
151.3785, 112.3120
151.8606, 114.4099
152.3427, 116.7406
152.8248, 118.9934
153.3069, 120.8511
153.7890, 122.6680
154.2712, 124.6966
154.7533, 127.4808
155.2354, 129.8963
155.7175, 131.2966
156.1996, 131.0399
156.6817, 130.8860
157.1639, 131.1562
157.6460, 131.6891
158.1281, 132.1369
158.6102, 132.1965
159.0923, 132.3174
159.5744, 132.7638
160.0566, 133.9270
160.5387, 134.8484
161.0208, 134.9880
161.5029, 134.6358
161.9850, 134.6361
162.4671, 135.9173
162.9493, 137.2744
163.4314, 137.8718
163.9135, 137.0315
164.3956, 136.0415
164.8777, 135.3066
165.3598, 134.8286
165.8420, 134.6319
166.3241, 134.8985
166.8062, 135.3645
167.2883, 135.7934
167.7704, 136.0491
168.2525, 136.3138
168.7346, 136.7318
169.2168, 137.2767
169.6989, 137.7915
170.1810, 138.1188
170.6631, 138.3805
171.1452, 138.7306
171.6273, 139.4366
172.1095, 140.0757
172.5916, 140.1317
173.0737, 139.6647
173.5558, 139.3686
174.0379, 139.9516
174.5201, 141.0054
175.0022, 141.8838
175.4843, 142.2466
175.9664, 142.3752
176.4485, 142.4576
176.9306, 142.4964
177.4128, 142.7969
177.8949, 143.9974
178.3770, 145.6653
178.8591, 146.8680
179.3412, 146.9102
179.8233, 146.3678
180.3055, 146.1103
180.7876, 146.1393
181.2697, 146.3539
181.7518, 146.7793
182.2339, 147.3364
182.7160, 147.7818
183.1982, 147.9095
183.6803, 147.8656
184.1624, 147.9238
184.6445, 148.0739
185.1266, 148.4135
185.6087, 149.3270
186.0909, 150.6635
186.5730, 151.5642
187.0551, 151.3051
187.5372, 150.2850
188.0193, 149.9189
188.5014, 150.3210
188.9836, 150.9520
189.4657, 151.2397
189.9478, 151.1847
190.4299, 150.8213
190.9120, 149.9160
191.3941, 148.6260
191.8763, 147.8285
192.3584, 147.5926
192.8405, 147.6937
193.3226, 147.9386
193.8047, 148.3279
194.2868, 148.5402
194.7690, 148.4672
195.2511, 148.1074
195.7332, 147.3620
196.2153, 146.1540
196.6974, 144.7380
197.1795, 143.5809
197.6617, 142.6949
198.1438, 141.8489
198.6259, 140.8618
199.1080, 139.7382
199.5901, 139.0146
200.0722, 138.8826
200.5544, 138.8713
201.0365, 137.9450
201.5186, 135.9219
202.0007, 134.1098
202.4828, 133.2647
202.9649, 133.4757
203.4471, 133.3635
203.9292, 132.8159
204.4113, 132.0342
204.8934, 131.3938
205.3755, 130.9137
205.8576, 130.5135
206.3398, 130.1769
206.8219, 129.9171
207.3040, 129.6147
207.7861, 129.2374
208.2682, 128.8514
208.7503, 128.6235
209.2325, 128.6101
209.7146, 128.5866
210.1967, 128.4522
210.6788, 128.1934
211.1609, 127.8905
211.6430, 127.5274
212.1252, 127.1340
212.6073, 126.7621
213.0894, 126.3821
213.5715, 126.1039
214.0536, 126.0096
214.5357, 126.1706
215.0179, 126.2411
215.5000, 126.1811
215.9821, 126.0541
216.4642, 126.0013
216.9463, 126.0361
217.4284, 126.1146
217.9105, 126.2269
218.3927, 126.3876
218.8748, 126.5406
219.3569, 126.7376
219.8390, 126.8975
220.3211, 126.7875
220.8032, 126.1795
221.2854, 125.7286
221.7675, 125.7381
222.2496, 126.3803
222.7317, 126.9798
223.2138, 127.6782
223.6959, 128.2625
224.1781, 128.1810
224.6602, 126.9790
225.1423, 125.9092
225.6244, 125.5403
226.1065, 126.1414
226.5886, 126.6214
227.0708, 126.9592
227.5529, 127.1899
228.0350, 127.3765
228.5171, 127.4715
228.9992, 127.6082
229.4813, 127.8983
229.9635, 128.5275
230.4456, 128.6877
230.9277, 128.0479
231.4098, 127.1091
231.8919, 126.8976
232.3740, 127.9640
232.8562, 128.8697
233.3383, 129.0041
233.8204, 127.9717
234.3025, 127.4701
234.7846, 127.6574
235.2667, 128.2876
235.7489, 128.9727
236.2310, 129.9561
236.7131, 130.5959
237.1952, 130.5725
237.6773, 129.5986
238.1594, 129.0400
238.6416, 129.0940
239.1237, 129.4438
239.6058, 129.5221
240.0879, 128.9152
240.5700, 128.7204
241.0521, 129.4617
241.5343, 130.4021
242.0164, 131.9987
242.4985, 132.9839
242.9806, 133.3904
243.4627, 131.4853
243.9448, 132.5651
244.4270, 132.4488
244.9091, 132.2834
245.3912, 133.7834
245.8733, 132.2145
246.3554, 133.6881
246.8375, 133.9472
247.3197, 134.7622
247.8018, 134.3734
248.2839, 134.3565
248.7660, 135.5436
249.2481, 136.0640
249.7302, 135.5367
250.2124, 136.3871
250.6945, 134.7761
251.1766, 135.3249
251.6587, 136.8056
252.1408, 136.3388
252.6229, 137.2111
253.1051, 137.5735
253.5872, 135.6181
254.0693, 137.6934
254.5514, 138.0256
255.0335, 136.5679
255.5156, 138.5051
255.9978, 138.9134
256.4799, 139.5318
256.9620, 139.1711
257.4441, 138.8087
257.9262, 138.3244
258.4083, 137.9896
258.8904, 138.0986
259.3726, 138.8488
259.8547, 139.5499
260.3368, 140.0552
260.8189, 140.3925
261.3010, 140.8906
261.7831, 141.7675
262.2653, 142.4635
262.7474, 142.3433
263.2295, 140.8412
263.7116, 140.2258
264.1937, 141.1454
264.6758, 143.2370
265.1580, 144.3870
265.6401, 144.1865
266.1222, 143.8004
266.6043, 144.1227
267.0864, 145.4760
267.5685, 146.3637
268.0507, 146.5001
268.5328, 146.1049
269.0149, 146.0112
269.4970, 146.2910
269.9791, 146.7020
270.4612, 147.1335
270.9434, 147.5986
271.4255, 147.9815
271.9076, 148.1909
272.3897, 148.3730
272.8718, 148.9603
273.3539, 150.0562
273.8361, 151.2125
274.3182, 152.2101
274.8003, 153.0336
275.2824, 153.7854
275.7645, 154.4733
276.2466, 155.0732
276.7288, 155.5237
277.2109, 155.8052
277.6930, 156.0242
278.1751, 156.1945
278.6572, 156.3112
279.1393, 156.5031
279.6215, 156.7722
280.1036, 157.1174
280.5857, 157.5045
281.0678, 157.9176
281.5499, 158.5324
282.0320, 159.5539
282.5142, 160.9314
282.9963, 161.8594
283.4784, 162.2793
283.9605, 162.4342
284.4426, 162.4906
284.9247, 162.4404
285.4069, 162.7122
285.8890, 163.6187
286.3711, 164.9750
286.8532, 165.8946
287.3353, 166.3383
287.8174, 166.5605
288.2996, 166.6902
288.7817, 166.7553
289.2638, 167.1197
289.7459, 168.0491
290.2280, 169.2590
290.7101, 169.8873
291.1923, 169.9034
291.6744, 169.8768
292.1565, 170.3694
292.6386, 171.2748
293.1207, 172.0107
293.6028, 172.3209
294.0850, 172.5539
294.5671, 173.0173
295.0492, 173.7733
295.5313, 174.3009
296.0134, 174.6123
296.4955, 174.0604
296.9777, 174.6234
297.4598, 174.7396
297.9419, 174.8375
298.4240, 175.5574
298.9061, 175.6577
299.3882, 176.1600
299.8704, 176.4795
300.3525, 176.6205
300.8346, 176.5431
301.3167, 176.2012
301.7988, 175.8367
302.2809, 175.7270
302.7631, 175.8138
303.2452, 175.9150
303.7273, 176.0571
304.2094, 176.1146
304.6915, 175.8610
305.1736, 175.2628
305.6558, 174.6001
306.1379, 174.1312
306.6200, 173.7700
307.1021, 173.3573
307.5842, 172.6970
308.0663, 171.5087
308.5485, 171.5409
309.0306, 171.3448
309.5127, 170.9326
309.9948, 169.6570
310.4769, 169.4963
310.9590, 168.8888
311.4412, 168.2629
311.9233, 168.2591
312.4054, 167.1091
312.8875, 167.0954
313.3696, 166.6282
313.8517, 166.3685
314.3339, 165.6592
314.8160, 165.0888
315.2981, 164.9682
315.7802, 164.5985
316.2623, 163.9990
316.7444, 164.1631
317.2266, 164.0961
317.7087, 163.3689
318.1908, 162.4587
318.6729, 161.6733
319.1550, 161.1432
319.6371, 160.5141
320.1193, 159.5080
320.6014, 158.3504
321.0835, 157.3966
321.5656, 156.8481
322.0477, 156.4456
322.5298, 156.1368
323.0120, 155.9615
323.4941, 155.6206
323.9762, 154.8410
324.4583, 153.9422
324.9404, 153.2705
325.4225, 153.0679
325.9047, 152.9080
326.3868, 152.6495
326.8689, 152.2805
327.3510, 152.1089
327.8331, 152.6846
328.3152, 153.1559
328.7974, 152.9306
329.2795, 150.9858
329.7616, 149.5503
330.2437, 149.1088
330.7258, 149.4333
331.2079, 149.2267
331.6901, 147.9196
332.1722, 146.6435
332.6543, 145.9747
333.1364, 146.4060
333.6185, 146.5382
334.1006, 146.2240
334.5828, 145.6400
335.0649, 145.2117
335.5470, 144.9957
336.0291, 144.8262
336.5112, 144.6504
336.9933, 144.4685
337.4755, 144.2823
337.9576, 144.1128
338.4397, 143.9193
338.9218, 143.6374
339.4039, 143.2547
339.8860, 142.8383
340.3681, 142.4077
340.8503, 141.9600
341.3324, 141.4979
341.8145, 141.0090
342.2966, 140.5289
342.7787, 140.0562
343.2608, 139.5911
343.7430, 139.2160
344.2251, 138.9464
344.7072, 138.7810
345.1893, 138.7635
345.6714, 138.9057
346.1535, 139.0452
346.6357, 138.9792
347.1178, 138.7716
347.5999, 138.5174
348.0820, 138.8479
348.5641, 138.9501
349.0462, 138.8362
349.5284, 137.8589
350.0105, 137.9965
350.4926, 137.6873
350.9747, 137.3598
351.4568, 137.6543
351.9389, 136.8026
352.4211, 137.0871
352.9032, 136.9182
353.3853, 136.9568
353.8674, 136.5459
354.3495, 136.2738
354.8316, 136.4514
355.3138, 136.3800
355.7959, 135.0663
356.2780, 134.5031
356.7601, 134.5599
357.2422, 134.8529
357.7243, 134.8487
358.2065, 134.1515
358.6886, 133.5118
359.1707, 133.5732
359.6528, 134.1385
360.1349, 134.6135
360.6170, 134.6932
361.0992, 134.5840
361.5813, 134.3800
362.0634, 134.0259
362.5455, 133.8170
363.0276, 134.0767
363.5097, 134.5127
363.9919, 134.6907
364.4740, 134.1236
364.9561, 133.5972
365.4382, 133.5322
365.9203, 134.0077
366.4024, 134.1575
366.8846, 133.5472
367.3667, 132.6867
367.8488, 131.9892
368.3309, 131.3320
368.8130, 131.0334
369.2951, 131.4596
369.7773, 132.4394
370.2594, 132.7809
370.7415, 131.8565
371.2236, 130.8806
371.7057, 130.4100
372.1878, 130.7725
372.6700, 131.0161
373.1521, 131.0941
373.6342, 131.0726
374.1163, 131.0720
374.5984, 131.0871
375.0805, 131.1317
375.5627, 131.2105
376.0448, 131.3238
376.5269, 131.4763
377.0090, 131.7055
377.4911, 131.9074
377.9732, 131.9297
378.4554, 131.7278
378.9375, 131.6545
379.4196, 131.8775
379.9017, 132.2462
380.3838, 132.1091
380.8659, 131.3990
381.3481, 130.7251
381.8302, 130.6059
382.3123, 130.9661
382.7944, 131.2441
383.2765, 131.3696
383.7586, 131.4305
384.2408, 131.6538
384.7229, 131.9844
385.2050, 132.0887
385.6871, 131.5680
386.1692, 130.7642
386.6513, 130.1336
387.1335, 129.6740
387.6156, 129.8520
388.0977, 131.2891
388.5798, 131.7426
389.0619, 131.9677
389.5440, 131.9767
390.0262, 131.1223
390.5083, 131.3828
390.9904, 131.1965
391.4725, 130.9918
391.9546, 131.4092
392.4367, 130.6804
392.9189, 131.0879
393.4010, 131.0418
393.8831, 131.2034
394.3652, 130.9154
394.8473, 130.7662
395.3294, 131.0667
395.8116, 131.1182
396.2937, 130.7785
396.7758, 130.9532
397.2579, 130.2087
397.7400, 130.2708
398.2221, 130.1631
398.7043, 130.1217
399.1864, 130.2930
399.6685, 130.9796
400.1506, 131.5276
400.6327, 131.8504
401.1148, 131.9771
401.5970, 132.0370
402.0791, 131.9431
402.5612, 131.8830
403.0433, 131.9776
403.5254, 132.3891
404.0075, 132.4847
404.4897, 132.1284
404.9718, 131.5796
405.4539, 131.2053
405.9360, 130.9974
406.4181, 131.0127
406.9002, 131.3633
407.3824, 131.9900
407.8645, 132.3097
408.3466, 132.2644
408.8287, 132.1317
409.3108, 132.2215
409.7929, 132.5115
410.2751, 132.4910
410.7572, 131.9523
411.2393, 131.2796
411.7214, 131.3285
412.2035, 132.0179
412.6856, 132.6078
413.1678, 132.4738
413.6499, 131.9715
414.1320, 131.9613
414.6141, 132.5266
415.0962, 133.1037
415.5783, 133.1485
416.0605, 132.8351
416.5426, 132.4837
417.0247, 132.1174
417.5068, 131.8458
417.9889, 131.6438
418.4710, 131.5716
418.9532, 131.6547
419.4353, 132.2665
419.9174, 132.6499
420.3995, 132.8172
420.8816, 132.1211
421.3637, 132.5399
421.8459, 132.5119
422.3280, 132.4656
422.8101, 133.0413
423.2922, 132.4708
423.7743, 133.0366
424.2564, 133.1489
424.7386, 133.4687
425.2207, 133.3390
425.7028, 133.3482
426.1849, 133.8070
426.6670, 133.2827
427.1491, 133.3764
427.6313, 133.5274
428.1134, 133.8245
428.5955, 134.1650
429.0776, 134.2252
429.5597, 133.8148
430.0418, 133.5165
430.5240, 133.6760
431.0061, 134.3687
431.4882, 134.3968
431.9703, 133.5272
432.4524, 132.5025
432.9345, 132.2077
433.4167, 132.6591
433.8988, 133.1669
434.3809, 133.6262
434.8630, 133.9829
435.3451, 133.9709
435.8272, 133.6067
436.3094, 133.3905
436.7915, 133.8769
437.2736, 134.7455
437.7557, 135.1538
438.2378, 134.9777
438.7199, 134.6727
439.2020, 134.7064
439.6841, 134.9513
440.1663, 135.1462
440.6484, 135.0858
441.1305, 135.0022
441.6126, 135.1188
442.0947, 135.4035
442.5768, 135.6588
443.0590, 135.5542
443.5411, 135.1275
444.0232, 135.6919
444.5053, 136.0280
444.9874, 136.1479
445.4695, 135.4045
445.9517, 135.7759
446.4338, 135.7006
446.9159, 135.6069
447.3980, 136.1353
447.8801, 135.5174
448.3622, 136.0359
448.8444, 136.1008
449.3265, 136.3733
449.8086, 136.1962
450.2907, 136.1580
450.7728, 136.5695
451.2549, 136.7319
451.7371, 136.5031
452.2192, 136.7888
452.7013, 136.1553
453.1834, 136.3284
453.6655, 136.6400
454.1476, 137.3177
454.6298, 137.7670
455.1119, 138.0003
455.5940, 137.3701
456.0761, 137.8548
456.5582, 137.8927
457.0403, 137.9123
457.5225, 138.5539
458.0046, 138.0494
458.4867, 138.6811
458.9688, 138.8593
459.4509, 139.2450
459.9330, 139.1812
460.4152, 139.2563
460.8973, 139.7810
461.3794, 139.5959
461.8615, 139.7472
462.3436, 139.9084
462.8257, 140.3718
463.3079, 140.9018
463.7900, 141.2283
464.2721, 141.1118
464.7542, 140.9817
465.2363, 141.0110
465.7184, 141.1600
466.2006, 141.3147
466.6827, 141.3899
467.1648, 141.5164
467.6469, 141.7646
468.1290, 142.1812
468.6111, 142.5517
469.0933, 142.8427
469.5754, 143.1090
470.0575, 143.4131
470.5396, 143.8268
471.0217, 144.1271
471.5038, 144.2469
471.9860, 144.2480
472.4681, 144.3399
472.9502, 144.5340
473.4323, 144.7809
473.9144, 145.0154
474.3965, 145.2444
474.8787, 145.7860
475.3608, 146.7191
475.8429, 147.5812
476.3250, 147.6356
476.8071, 147.0760
477.2892, 146.9140
477.7714, 147.5254
478.2535, 148.4832
478.7356, 149.2252
479.2177, 149.7874
479.6998, 150.3087
480.1819, 150.9044
480.6641, 151.4917
481.1462, 151.7517
481.6283, 151.6055
482.1104, 151.7247
482.5925, 152.8463
483.0746, 153.7396
483.5568, 154.4170
484.0389, 154.2308
484.5210, 155.1595
485.0031, 155.6414
485.4852, 156.1050
485.9673, 157.1906
486.4495, 157.1302
486.9316, 158.2059
487.4137, 158.8280
487.8958, 159.6578
488.3779, 160.0380
488.8600, 160.5570
489.3422, 161.5259
489.8243, 162.2457
490.3064, 162.5741
490.7885, 163.4171
491.2706, 163.3407
491.7527, 164.0711
492.2349, 165.1496
492.7170, 165.5007
493.1991, 166.3518
493.6812, 167.0125
494.1633, 166.8076
494.6454, 168.1080
495.1276, 168.7576
495.6097, 168.7386
496.0918, 169.9874
496.5739, 170.0606
497.0560, 170.5533
497.5381, 171.3620
498.0203, 171.8415
498.5024, 172.8400
498.9845, 173.8552
499.4666, 174.8597
499.9487, 175.1113
500.4308, 175.2920
500.9130, 175.8245
501.3951, 176.7234
501.8772, 177.6055
502.3593, 178.4160
502.8414, 179.1213
503.3235, 179.6922
503.8057, 179.7351
504.2878, 180.2197
504.7699, 181.4623
505.2520, 183.0482
505.7341, 184.1742
506.2162, 184.1742
506.6984, 185.0866
507.1805, 187.8589
507.6626, 192.1798
508.1447, 195.0150
508.6268, 196.1307
509.1089, 196.6224
509.5911, 197.0300
510.0732, 197.3936
510.5553, 198.2764
511.0374, 199.8277
511.5195, 201.4876
512.0016, 202.3934
512.4838, 202.7862
512.9659, 203.4505
513.4480, 204.8187
513.9301, 206.4656
514.4122, 207.9259
514.8943, 209.2466
515.3765, 210.6220
515.8586, 212.2876
516.3407, 213.9736
516.8228, 215.4776
517.3049, 216.7883
517.7870, 217.9020
518.2692, 218.4942
518.7513, 219.0296
519.2334, 219.9533
519.7155, 221.8081
520.1976, 223.4829
520.6797, 224.7447
521.1619, 225.7489
521.6440, 226.9582
522.1261, 228.5760
522.6082, 230.0095
523.0903, 230.9541
523.5724, 231.3962
524.0546, 232.2478
524.5367, 233.6157
525.0188, 235.0510
525.5009, 236.0948
525.9830, 236.7985
526.4651, 237.7560
526.9473, 239.1418
527.4294, 240.5748
527.9115, 241.4453
528.3936, 241.8694
528.8757, 242.2493
529.3578, 242.7635
529.8400, 243.3154
530.3221, 243.9137
530.8042, 244.5052
531.2863, 244.8036
531.7684, 244.2949
532.2505, 243.6507
532.7327, 243.4739
533.2148, 244.0972
533.6969, 244.3526
534.1790, 243.6164
534.6611, 242.4807
535.1432, 241.6231
535.6254, 241.3961
536.1075, 241.0740
536.5896, 240.6514
537.0717, 240.0856
537.5538, 239.2070
538.0359, 237.8770
538.5181, 236.5461
539.0002, 235.3626
539.4823, 234.3331
539.9644, 233.5498
540.4465, 233.0907
540.9286, 232.4901
541.4108, 231.2176
541.8929, 229.3966
542.3750, 227.6263
542.8571, 226.0276
543.3392, 224.4509
543.8214, 222.6636
544.3035, 220.7495
544.7856, 218.8547
545.2677, 216.9250
545.7498, 215.1355
546.2319, 213.6708
546.7141, 212.4983
547.1962, 211.4182
547.6783, 210.6477
548.1604, 209.7222
548.6425, 208.2749
549.1246, 206.0010
549.6068, 204.0465
550.0889, 202.7918
550.5710, 201.7229
551.0531, 200.3751
551.5352, 198.6558
552.0173, 196.8169
552.4995, 194.7775
552.9816, 192.7240
553.4637, 191.2695
553.9458, 190.5273
554.4279, 189.5851
554.9100, 187.8717
555.3922, 185.6637
555.8743, 184.0950
556.3564, 183.1794
556.8385, 182.4564
557.3206, 181.5955
557.8027, 180.6753
558.2849, 179.8746
558.7670, 179.2814
559.2491, 178.5061
559.7312, 176.9834
560.2133, 175.1793
560.6954, 173.7323
561.1776, 173.1970
561.6597, 172.7185
562.1418, 172.0198
562.6239, 171.1456
563.1060, 170.2845
563.5881, 169.3420
564.0703, 168.5344
564.5524, 168.0145
565.0345, 167.8380
565.5166, 167.2372
565.9987, 165.9913
566.4808, 164.6958
566.9630, 163.8029
567.4451, 163.3428
567.9272, 162.9810
568.4093, 162.7253
568.8914, 162.4612
569.3735, 161.9548
569.8557, 161.2709
570.3378, 160.6663
570.8199, 160.0664
571.3020, 159.3029
571.7841, 159.6462
572.2662, 159.7612
572.7484, 159.6599
573.2305, 158.6954
573.7126, 158.8457
574.1947, 158.5493
574.6768, 158.2345
575.1589, 158.5417
575.6411, 157.7027
576.1232, 158.0001
576.6053, 157.8439
577.0874, 157.8953
577.5695, 157.4971
578.0516, 157.2378
578.5338, 157.4281
579.0159, 157.3695
579.4980, 156.9196
579.9801, 156.9841
580.4622, 156.1295
580.9443, 156.0815
581.4265, 156.3814
581.9086, 155.6766
582.3907, 155.3280
582.8728, 155.9544
583.3549, 156.3524
583.8370, 156.5343
584.3192, 155.8528
584.8013, 156.2862
585.2834, 156.2728
585.7655, 156.2411
586.2476, 156.8314
586.7297, 156.2755
587.2118, 156.8559
587.6939, 156.9827
