##NAMES=Magnesite
##RRUFFID=R050443
##IDEAL CHEMISTRY=MgCO_3_
##LOCALITY=Brumado, Bahia, Brazil
##OWNER=RRUFF
##SOURCE=Eugene Schlepp
##DESCRIPTION=Group of colorless crystals
##STATUS=The identification of this mineral has been confirmed by X-ray diffraction and chemical analysis
##URL=rruff.info/R050443
##MEASURED CHEMISTRY=Mg_1.00_CO_3_
91.00781, 4.207948
91.48993, 4.113063
91.97205, 4.075253
92.45416, 4.216744
92.93628, 4.410640
93.41840, 4.323364
93.90051, 3.793642
94.38263, 3.152416
94.86475, 2.967193
95.34686, 3.234555
95.82898, 3.625957
96.31110, 3.886611
96.79321, 4.031325
97.27533, 4.215549
97.75745, 4.508747
98.23956, 4.861165
98.72168, 4.977193
99.20380, 4.766964
99.68591, 4.597617
100.1680, 5.009258
100.6501, 6.176535
101.1323, 7.042308
101.6144, 7.180462
102.0965, 6.507729
102.5786, 6.131961
103.0607, 6.127644
103.5428, 6.350960
104.0250, 6.545270
104.5071, 6.584975
104.9892, 6.806418
105.4713, 7.393836
105.9534, 8.688593
106.4355, 9.587152
106.9177, 9.867010
107.3998, 9.741549
107.8819, 9.900802
108.3640, 10.72708
108.8461, 11.52976
109.3282, 11.99619
109.8104, 11.74619
110.2925, 11.58714
110.7746, 11.51794
111.2567, 11.54873
111.7388, 11.75884
112.2209, 12.33251
112.7031, 12.99182
113.1852, 13.55136
113.6673, 13.95044
114.1494, 14.26593
114.6315, 14.46834
115.1136, 14.55417
115.5958, 14.72128
116.0779, 15.12492
116.5600, 15.61506
117.0421, 16.02177
117.5242, 16.06437
118.0063, 16.17827
118.4885, 16.68267
118.9706, 17.68985
119.4527, 18.61613
119.9348, 18.94670
120.4169, 18.97534
120.8990, 19.24748
121.3812, 20.49645
121.8633, 21.89780
122.3454, 22.59306
122.8275, 22.28478
123.3096, 21.70099
123.7917, 21.42189
124.2739, 21.39026
124.7560, 21.39613
125.2381, 21.11506
125.7202, 20.81070
126.2023, 21.00282
126.6844, 22.05571
127.1666, 23.32752
127.6487, 23.85278
128.1308, 23.66993
128.6129, 23.38225
129.0950, 23.51479
129.5771, 23.96036
130.0593, 24.32961
130.5414, 24.45910
131.0235, 24.45570
131.5056, 24.60904
131.9877, 24.85269
132.4698, 24.95901
132.9520, 24.68690
133.4341, 24.06764
133.9162, 23.72496
134.3983, 24.03680
134.8804, 24.87677
135.3625, 25.17994
135.8447, 24.77847
136.3268, 24.27940
136.8089, 24.68727
137.2910, 26.19004
137.7731, 27.46707
138.2552, 27.93321
138.7374, 27.48263
139.2195, 27.13584
139.7016, 26.91640
140.1837, 26.76917
140.6658, 26.57869
141.1479, 26.31533
141.6301, 26.07052
142.1122, 25.91623
142.5943, 25.95927
143.0764, 25.76974
143.5585, 25.17519
144.0406, 24.35584
144.5228, 23.95157
145.0049, 24.15971
145.4870, 24.53284
145.9691, 24.84581
146.4512, 25.21517
146.9333, 25.34151
147.4155, 25.15487
147.8976, 24.68231
148.3797, 24.17806
148.8618, 23.41580
149.3439, 22.77597
149.8260, 22.50042
150.3082, 22.80816
150.7903, 23.22945
151.2724, 23.88000
151.7545, 24.77229
152.2366, 25.24687
152.7188, 24.91491
153.2009, 24.34007
153.6830, 23.97764
154.1651, 24.03247
154.6472, 24.14097
155.1293, 24.23003
155.6115, 24.29339
156.0936, 24.36224
156.5757, 24.49492
157.0578, 24.61895
157.5399, 24.65294
158.0220, 24.50791
158.5042, 24.33212
158.9863, 24.15161
159.4684, 23.94427
159.9505, 23.85096
160.4326, 24.03250
160.9147, 24.33653
161.3969, 24.53622
161.8790, 24.47844
162.3611, 24.35132
162.8432, 24.23561
163.3253, 24.12188
163.8074, 24.08673
164.2896, 24.28077
164.7717, 24.57874
165.2538, 24.73054
165.7359, 24.51108
166.2180, 24.16714
166.7001, 23.85479
167.1823, 23.55482
167.6644, 23.40342
168.1465, 23.62165
168.6286, 24.08431
169.1107, 24.43950
169.5928, 24.36808
170.0750, 24.14349
170.5571, 24.06703
171.0392, 24.29695
171.5213, 24.54087
172.0034, 24.46458
172.4855, 24.14965
172.9677, 23.95755
173.4498, 24.28777
173.9319, 24.84204
174.4140, 25.18213
174.8961, 25.09127
175.3782, 24.85948
175.8604, 24.78669
176.3425, 24.86171
176.8246, 24.99215
177.3067, 25.19168
177.7888, 25.39472
178.2709, 25.44867
178.7531, 25.18209
179.2352, 24.84386
179.7173, 24.85320
180.1994, 25.19741
180.6815, 25.58137
181.1636, 25.77238
181.6458, 25.79793
182.1279, 25.72689
182.6100, 25.51821
183.0921, 25.25505
183.5742, 25.00795
184.0563, 24.76763
184.5385, 24.79712
185.0206, 25.64495
185.5027, 27.11537
185.9848, 28.21905
186.4669, 28.46821
186.9490, 28.11726
187.4312, 27.87829
187.9133, 27.75047
188.3954, 27.76362
188.8775, 27.97947
189.3596, 28.38540
189.8417, 28.88052
190.3239, 29.34294
190.8060, 29.84100
191.2881, 30.67623
191.7702, 31.82784
192.2523, 33.34965
192.7344, 35.23591
193.2166, 37.48093
193.6987, 40.39131
194.1808, 44.30218
194.6629, 49.12328
195.1450, 54.06852
195.6271, 59.23952
196.1093, 64.28119
196.5914, 68.73260
197.0735, 72.59404
197.5556, 75.88389
198.0377, 78.43584
198.5198, 80.26630
199.0020, 82.08632
199.4841, 83.76077
199.9662, 85.66748
200.4483, 88.64173
200.9304, 92.85907
201.4125, 97.06748
201.8947, 100.5606
202.3768, 103.2365
202.8589, 106.4534
203.3410, 110.1903
203.8231, 114.5224
204.3052, 119.5291
204.7874, 125.2525
205.2695, 131.5607
205.7516, 138.2641
206.2337, 145.2420
206.7158, 153.2189
207.1979, 161.7106
207.6801, 171.7253
208.1622, 185.1001
208.6443, 202.0067
209.1264, 221.8774
209.6085, 244.4708
210.0906, 269.7695
210.5728, 298.2543
211.0549, 330.5525
211.5370, 365.4241
212.0191, 402.3139
212.5012, 447.8735
212.9833, 479.9448
213.4655, 488.0230
213.9476, 470.4131
214.4297, 433.8104
214.9118, 370.3579
215.3939, 292.1854
215.8760, 226.8073
216.3581, 175.8184
216.8403, 135.4398
217.3224, 105.3370
217.8045, 87.40584
218.2866, 73.43010
218.7687, 64.21439
219.2508, 58.56683
219.7330, 53.66940
220.2151, 49.64092
220.6972, 46.15207
221.1793, 43.09102
221.6614, 40.39923
222.1435, 38.23360
222.6257, 36.64204
223.1078, 35.55518
223.5899, 34.79818
224.0720, 34.59003
224.5541, 34.35859
225.0362, 33.78700
225.5184, 32.63372
226.0005, 31.76711
226.4826, 31.31391
226.9647, 31.12567
227.4468, 30.75766
227.9289, 30.08829
228.4111, 29.43147
228.8932, 28.93274
229.3753, 28.64420
229.8574, 28.38767
230.3395, 28.13054
230.8216, 27.91288
231.3038, 27.87421
231.7859, 28.18954
232.2680, 28.42622
232.7501, 28.35931
233.2322, 27.78258
233.7143, 27.37714
234.1965, 27.23545
234.6786, 27.24590
235.1607, 27.06899
235.6428, 26.51308
236.1249, 26.04763
236.6070, 25.90815
237.0892, 26.30732
237.5713, 26.55470
238.0534, 26.57505
238.5355, 26.46277
239.0176, 26.48148
239.4997, 26.78991
239.9819, 27.00035
240.4640, 26.90701
240.9461, 26.27805
241.4282, 25.90182
241.9103, 25.86762
242.3924, 26.05783
242.8746, 26.18984
243.3567, 26.21352
243.8388, 26.25637
244.3209, 26.39708
244.8030, 26.74617
245.2851, 26.87975
245.7673, 26.67409
246.2494, 26.30392
246.7315, 26.15190
247.2136, 26.30903
247.6957, 26.54265
248.1778, 26.82616
248.6600, 27.31451
249.1421, 27.33446
249.6242, 26.62393
250.1063, 25.58526
250.5884, 25.01105
251.0705, 25.08465
251.5527, 25.31235
252.0348, 25.53866
252.5169, 25.78201
252.9990, 25.95080
253.4811, 25.98006
253.9632, 25.97849
254.4454, 26.15456
254.9275, 26.61280
255.4096, 27.05390
255.8917, 27.41790
256.3738, 27.74722
256.8560, 27.75277
257.3381, 27.25579
257.8202, 26.58584
258.3023, 26.24722
258.7844, 26.35158
259.2665, 26.55553
259.7487, 26.80431
260.2308, 27.13203
260.7129, 27.22297
261.1950, 26.95009
261.6771, 26.57888
262.1592, 26.49678
262.6414, 26.82666
263.1235, 27.13493
263.6056, 27.27995
264.0877, 27.24733
264.5698, 27.30780
265.0519, 27.53118
265.5341, 27.75234
266.0162, 27.73774
266.4983, 27.37875
266.9804, 27.12142
267.4625, 27.09364
267.9446, 27.29200
268.4268, 27.48291
268.9089, 27.64315
269.3910, 27.83009
269.8731, 28.15566
270.3552, 28.69677
270.8373, 29.04849
271.3195, 29.07969
271.8016, 28.82227
272.2837, 28.59802
272.7658, 28.37792
273.2479, 28.25115
273.7300, 28.36762
274.2122, 28.79478
274.6943, 29.02047
275.1764, 28.84085
275.6585, 28.37884
276.1406, 28.34505
276.6227, 28.84971
277.1049, 29.41886
277.5870, 29.60988
278.0691, 29.37694
278.5512, 29.31157
279.0333, 29.55467
279.5154, 30.00560
279.9976, 30.38876
280.4797, 30.73435
280.9618, 30.85781
281.4439, 30.38058
281.9260, 29.29351
282.4081, 28.97551
282.8903, 29.86744
283.3724, 31.33259
283.8545, 31.71914
284.3366, 30.93060
284.8187, 30.08466
285.3008, 29.97500
285.7830, 30.53325
286.2651, 30.96141
286.7472, 31.17495
287.2293, 31.26159
287.7114, 31.32261
288.1935, 31.35904
288.6757, 31.51091
289.1578, 31.97724
289.6399, 32.66829
290.1220, 33.04324
290.6041, 33.00263
291.0862, 32.87814
291.5684, 33.23566
292.0505, 34.01921
292.5326, 34.68435
293.0147, 34.81037
293.4968, 34.60958
293.9789, 34.78851
294.4611, 35.41213
294.9432, 36.11990
295.4253, 36.48566
295.9074, 36.56928
296.3895, 36.62122
296.8716, 36.69108
297.3538, 36.81479
297.8359, 37.08419
298.3180, 37.50553
298.8001, 37.98307
299.2822, 38.41397
299.7643, 38.83462
300.2465, 39.33335
300.7286, 39.95832
301.2107, 40.66471
301.6928, 41.29744
302.1749, 41.87356
302.6570, 42.74500
303.1392, 44.38970
303.6213, 46.48756
304.1034, 48.46169
304.5855, 50.19860
305.0676, 51.71336
305.5497, 52.74586
306.0319, 53.45353
306.5140, 54.71066
306.9961, 57.09074
307.4782, 60.31956
307.9603, 64.02616
308.4424, 67.81615
308.9246, 72.60909
309.4067, 78.73352
309.8888, 86.32954
310.3709, 95.96812
310.8530, 107.0014
311.3351, 120.6601
311.8173, 137.9178
312.2994, 159.1749
312.7815, 183.9096
313.2636, 213.7942
313.7457, 246.5320
314.2278, 278.2628
314.7100, 309.7392
315.1921, 337.6163
315.6742, 358.8656
316.1563, 372.2268
316.6384, 384.8220
317.1205, 398.6186
317.6027, 413.4522
318.0848, 429.0489
318.5669, 444.0928
319.0490, 460.9790
319.5311, 480.5460
320.0132, 502.8451
320.4954, 527.7584
320.9775, 553.9974
321.4596, 583.2466
321.9417, 616.5831
322.4238, 651.3491
322.9059, 693.2084
323.3881, 742.1806
323.8702, 798.2692
324.3523, 865.8507
324.8344, 944.3022
325.3165, 1035.128
325.7986, 1139.857
326.2808, 1266.825
326.7629, 1398.000
327.2450, 1533.483
327.7271, 1672.615
328.2092, 1813.376
328.6913, 1973.844
329.1735, 2119.900
329.6556, 2246.468
330.1377, 2394.684
330.6198, 2444.871
331.1019, 2380.691
331.5840, 2223.379
332.0662, 2003.734
332.5483, 1669.223
333.0304, 1344.884
333.5125, 1072.139
333.9946, 849.8226
334.4767, 669.2697
334.9589, 539.1724
335.4410, 444.3714
335.9231, 368.9637
336.4052, 317.4430
336.8873, 275.3974
337.3694, 240.8724
337.8516, 213.7774
338.3336, 190.8096
338.8158, 172.3259
339.2979, 157.1359
339.7800, 144.2007
340.2621, 133.7583
340.7442, 124.6782
341.2263, 117.1203
341.7085, 110.7582
342.1906, 105.0169
342.6727, 99.89453
343.1548, 95.09328
343.6369, 90.09991
344.1190, 85.02471
344.6012, 81.13963
345.0833, 78.85427
345.5654, 77.34088
346.0475, 75.04597
346.5296, 72.04052
347.0117, 69.29398
347.4939, 67.59758
347.9760, 66.61557
348.4581, 65.12188
348.9402, 62.96072
349.4223, 60.88766
349.9044, 59.95006
350.3866, 59.83659
350.8687, 59.46647
351.3508, 58.18842
351.8329, 56.47724
352.3150, 55.00080
352.7971, 53.75271
353.2793, 52.70202
353.7614, 51.98156
354.2435, 51.38914
354.7256, 50.55998
355.2077, 49.15713
355.6898, 47.77637
356.1720, 47.03910
356.6541, 46.81178
357.1362, 46.52164
357.6183, 45.67012
358.1004, 44.69227
358.5826, 43.98985
359.0647, 43.69959
359.5468, 43.52987
360.0289, 43.42307
360.5110, 43.32076
360.9931, 43.11061
361.4753, 42.70296
361.9574, 42.21602
362.4395, 41.65783
362.9216, 40.99519
363.4037, 40.48972
363.8858, 40.24594
364.3680, 40.18802
364.8501, 40.23640
365.3322, 40.73998
365.8143, 40.97545
366.2964, 40.66158
366.7785, 39.80780
367.2607, 39.02773
367.7428, 38.23763
368.2249, 37.62679
368.7070, 37.31688
369.1891, 37.64406
369.6712, 37.82578
370.1534, 37.80515
370.6355, 37.62284
371.1176, 37.39842
371.5997, 37.07940
372.0818, 36.78271
372.5639, 36.53553
373.0461, 36.30254
373.5282, 36.27227
374.0103, 36.62037
374.4924, 37.00632
374.9745, 36.81222
375.4566, 35.77294
375.9388, 34.99568
376.4209, 34.90673
376.9030, 35.44941
377.3851, 35.67054
377.8672, 35.50524
378.3493, 35.23930
378.8315, 35.19799
379.3136, 35.38880
379.7957, 35.36796
380.2778, 34.97919
380.7599, 34.40511
381.2420, 34.07792
381.7242, 34.00260
382.2063, 34.01300
382.6884, 34.04677
383.1705, 34.08501
383.6526, 34.05352
384.1347, 33.93569
384.6169, 33.78389
385.0990, 33.66430
385.5811, 33.56652
386.0632, 33.46346
386.5453, 33.39977
387.0274, 33.29701
387.5096, 32.92265
387.9917, 32.28334
388.4738, 31.86860
388.9559, 32.31219
389.4380, 33.14321
389.9201, 33.75254
390.4023, 33.96902
390.8844, 33.87627
391.3665, 33.34844
391.8486, 32.50402
392.3307, 31.79629
392.8128, 31.47975
393.2950, 31.34978
393.7771, 31.25640
394.2592, 31.13812
394.7413, 31.15609
395.2234, 31.53324
395.7055, 32.04524
396.1877, 32.34553
396.6698, 32.21635
397.1519, 31.99891
397.6340, 31.78410
398.1161, 31.57813
398.5982, 31.35956
399.0804, 30.94788
399.5625, 30.63340
400.0446, 30.65059
400.5267, 31.53588
401.0088, 31.94941
401.4909, 31.49151
401.9731, 30.45217
402.4552, 30.06575
402.9373, 30.72915
403.4194, 31.39766
403.9015, 31.51235
404.3836, 30.85744
404.8658, 30.52624
405.3479, 30.60835
405.8300, 30.89627
406.3121, 31.12420
406.7942, 31.30172
407.2763, 31.34101
407.7585, 31.16389
408.2406, 30.81755
408.7227, 30.53952
409.2048, 30.32131
409.6869, 30.24114
410.1690, 30.54609
410.6512, 31.10921
411.1333, 31.25919
411.6154, 30.71682
412.0975, 29.99095
412.5796, 29.94996
413.0617, 30.46301
413.5439, 30.87502
414.0260, 30.78096
414.5081, 30.37436
414.9902, 29.85678
415.4723, 29.22126
415.9544, 28.69601
416.4366, 28.48421
416.9187, 28.50254
417.4008, 28.62553
417.8829, 28.92628
418.3650, 29.21457
418.8471, 29.38038
419.3293, 29.43377
419.8114, 29.44799
420.2935, 29.41362
420.7756, 29.37595
421.2577, 29.37619
421.7398, 29.48072
422.2220, 29.50730
422.7041, 29.42236
423.1862, 29.23405
423.6683, 28.95866
424.1504, 28.30099
424.6325, 27.84938
425.1147, 27.81502
425.5968, 28.24881
426.0789, 28.63214
426.5610, 29.00089
427.0431, 29.28736
427.5252, 29.43409
428.0074, 29.43251
428.4895, 29.29030
428.9716, 28.91653
429.4537, 28.43444
429.9358, 28.29670
430.4179, 28.61269
430.9001, 28.88633
431.3822, 28.79396
431.8643, 28.32694
432.3464, 28.09040
432.8285, 28.10611
433.3106, 28.28562
433.7928, 28.66213
434.2749, 29.18315
434.7570, 29.37318
435.2391, 28.90428
435.7212, 28.15897
436.2033, 27.94287
436.6855, 28.21090
437.1676, 28.48961
437.6497, 28.40191
438.1318, 28.12069
438.6139, 27.87888
439.0960, 27.68499
439.5782, 27.63924
440.0603, 28.02404
440.5424, 28.60074
441.0245, 28.91836
441.5066, 28.50790
441.9887, 28.01445
442.4709, 27.83895
442.9530, 27.98249
443.4351, 28.11184
443.9172, 27.96292
444.3993, 27.83262
444.8814, 27.95368
445.3636, 28.83482
445.8457, 29.33590
446.3278, 29.05517
446.8099, 28.28413
447.2920, 27.73825
447.7741, 27.48831
448.2563, 27.40680
448.7384, 27.51779
449.2205, 27.86940
449.7026, 28.02552
450.1847, 27.88479
450.6668, 27.67502
451.1490, 27.63524
451.6311, 27.84449
452.1132, 27.89174
452.5953, 27.63061
453.0774, 27.23498
453.5595, 27.23564
454.0417, 27.68063
454.5238, 28.07342
455.0059, 28.09951
455.4880, 27.82708
455.9701, 27.60441
456.4522, 27.44359
456.9344, 27.32461
457.4165, 27.20436
457.8986, 27.10590
458.3807, 27.11063
458.8628, 27.33665
459.3449, 27.57246
459.8271, 27.53022
460.3092, 27.26800
460.7913, 27.03576
461.2734, 27.07848
461.7555, 27.15570
462.2376, 27.00269
462.7198, 26.50548
463.2019, 26.15573
463.6840, 26.29176
464.1661, 26.66998
464.6482, 26.99564
465.1303, 27.25964
465.6125, 27.39182
466.0946, 27.36249
466.5767, 27.17766
467.0588, 26.89150
467.5409, 26.28972
468.0230, 25.77957
468.5052, 25.54494
468.9873, 25.66798
469.4694, 25.88524
469.9515, 26.30605
470.4336, 26.72662
470.9157, 26.78020
471.3979, 26.28063
471.8800, 26.08271
472.3621, 26.55119
472.8442, 27.47920
473.3263, 27.85052
473.8084, 27.61504
474.2906, 27.21361
474.7727, 26.92166
475.2548, 26.72636
475.7369, 26.55823
476.2190, 26.40067
476.7011, 26.30627
477.1833, 26.48076
477.6654, 26.78439
478.1475, 26.82831
478.6296, 26.05692
479.1117, 25.22209
479.5938, 25.24023
480.0760, 25.98784
480.5581, 26.63306
481.0402, 26.64748
481.5223, 26.39734
482.0044, 26.15184
482.4865, 25.92909
482.9687, 25.80124
483.4508, 25.83508
483.9329, 25.96804
484.4150, 26.10987
484.8971, 26.21424
485.3792, 26.35844
485.8614, 26.63411
486.3435, 27.02067
486.8256, 27.18392
487.3077, 26.99587
487.7898, 26.73390
488.2719, 26.52912
488.7541, 26.37426
489.2362, 26.32898
489.7183, 26.44764
490.2004, 26.60430
490.6825, 26.54545
491.1646, 26.23076
491.6468, 26.13682
492.1289, 26.53080
492.6110, 27.17702
493.0931, 27.34742
493.5752, 27.04745
494.0573, 26.70237
494.5395, 26.66182
495.0216, 26.78789
495.5037, 26.73822
495.9858, 26.42857
496.4679, 26.20375
496.9500, 26.53798
497.4322, 27.14699
497.9143, 27.55324
498.3964, 27.47009
498.8785, 27.22199
499.3606, 26.85652
499.8427, 26.43272
500.3249, 26.24276
500.8070, 26.71461
501.2891, 27.18675
501.7712, 27.29432
502.2533, 26.88106
502.7354, 26.44553
503.2176, 25.78139
503.6997, 25.24165
504.1818, 25.23866
504.6639, 26.23446
505.1460, 26.89015
505.6281, 26.88538
506.1103, 26.41809
506.5924, 26.25075
507.0745, 26.41841
507.5566, 26.76078
508.0387, 27.33195
508.5208, 28.10242
509.0030, 28.44725
509.4851, 28.33496
509.9672, 27.97405
510.4493, 27.37072
510.9314, 26.66805
511.4135, 26.40993
511.8957, 26.92804
512.3778, 27.60953
512.8599, 27.72722
513.3420, 27.41604
513.8242, 27.07072
514.3063, 26.81532
514.7884, 26.65864
515.2705, 26.61283
515.7526, 26.67833
516.2347, 26.82946
516.7169, 27.20259
517.1990, 27.57093
517.6811, 27.75801
518.1632, 27.55852
518.6453, 27.41618
519.1274, 27.49416
519.6096, 27.63322
520.0917, 27.51588
520.5738, 26.88556
521.0559, 26.42859
521.5380, 26.37101
522.0201, 26.68513
522.5023, 26.88621
522.9844, 26.95771
523.4665, 26.96419
523.9486, 26.92645
524.4307, 26.84869
524.9128, 26.83711
525.3950, 26.91735
525.8771, 27.00363
526.3592, 26.97339
526.8413, 26.84997
527.3234, 26.71657
527.8055, 26.60376
528.2877, 26.49693
528.7698, 26.37953
529.2519, 26.25320
529.7340, 26.12077
530.2161, 25.81382
530.6982, 25.61724
531.1804, 25.84656
531.6625, 26.63761
532.1446, 27.22160
532.6267, 27.28373
533.1088, 27.05037
533.5909, 26.72956
534.0731, 26.13809
534.5552, 25.71987
535.0373, 25.52938
535.5194, 25.52674
536.0015, 25.63677
536.4836, 25.97823
536.9658, 26.17942
537.4479, 26.02814
537.9300, 25.55199
538.4121, 25.41475
538.8942, 25.67362
539.3763, 26.03599
539.8585, 26.31128
540.3406, 26.49178
540.8227, 26.50044
541.3048, 26.29074
541.7869, 26.04258
542.2690, 25.98728
542.7512, 26.06984
543.2333, 26.15278
543.7154, 26.19144
544.1975, 26.19710
544.6796, 26.18851
545.1617, 26.15849
545.6439, 26.07495
546.1260, 25.77203
546.6081, 25.52703
547.0902, 25.53875
547.5723, 25.90357
548.0544, 26.20494
548.5366, 26.45136
549.0187, 26.57192
549.5008, 26.48840
549.9829, 25.98529
550.4650, 25.68408
550.9471, 25.73075
551.4293, 25.95829
551.9114, 25.91776
552.3935, 25.51993
552.8756, 25.29399
553.3577, 25.52715
553.8398, 26.09518
554.3220, 26.45032
554.8041, 26.59197
555.2862, 26.55358
555.7683, 26.15660
556.2504, 25.63844
556.7325, 25.53888
557.2147, 25.99568
557.6968, 26.50060
558.1789, 26.70591
558.6610, 26.66491
559.1431, 26.45512
559.6252, 25.88386
560.1074, 25.37712
560.5895, 25.09021
561.0716, 24.99940
561.5537, 25.02805
562.0358, 25.37779
562.5179, 25.63253
563.0001, 25.54465
563.4822, 25.04344
563.9643, 25.00623
564.4464, 25.74092
564.9285, 26.50687
565.4106, 26.67983
565.8928, 26.13166
566.3749, 25.87729
566.8570, 26.07143
567.3391, 26.40532
567.8212, 26.34996
568.3033, 25.96523
568.7855, 25.71057
569.2676, 25.84636
569.7497, 26.08811
570.2318, 25.90371
570.7139, 25.40890
571.1960, 25.09533
571.6782, 25.56932
572.1603, 26.13369
572.6424, 26.08344
573.1245, 25.30687
573.6066, 24.80733
574.0887, 25.32902
574.5709, 26.06297
575.0530, 26.37406
575.5351, 25.71557
576.0172, 25.30626
576.4993, 25.22588
576.9814, 25.38647
577.4636, 25.71057
577.9457, 26.37100
578.4278, 26.71178
578.9099, 26.45896
579.3920, 25.80479
579.8741, 25.48559
580.3563, 25.52155
580.8384, 25.64564
581.3205, 25.68137
581.8026, 25.68347
582.2847, 25.86075
582.7668, 26.22413
583.2490, 26.52085
583.7311, 26.50813
584.2132, 26.31422
584.6953, 26.07714
585.1774, 25.76420
585.6595, 25.57100
586.1416, 25.69181
586.6237, 25.97433
587.1058, 26.18932
587.5880, 26.15462
588.0701, 26.18841
588.5522, 26.43539
589.0343, 26.83069
