##NAMES=Magnetite
##RRUFFID=R060191
##IDEAL CHEMISTRY=Fe^2+^Fe^3+^_2_O_4_
##LOCALITY=Merrry Widow mine, Vancouver Island, British Columbia, Canada
##OWNER=RRUFF
##SOURCE=Lloyd Twaites
##DESCRIPTION=Grayish-black octahedral crystals
##STATUS=The identification of this mineral has been confirmed by X-ray diffraction and chemical analysis
##URL=rruff.info/R060191
##MEASURED CHEMISTRY=(Fe^2+^_0.97_Mg_0.03_)(Fe^3+^_0.97_Al_0.03_)_2_O_4_
91.82715, 110.7784
92.30927, 116.3496
92.79138, 115.2730
93.27350, 105.8517
93.75562, 96.33176
94.23773, 90.95396
94.71985, 89.25672
95.20197, 87.75323
95.68408, 85.37089
96.16620, 82.72749
96.64832, 80.44675
97.13043, 78.65807
97.61255, 77.07808
98.09467, 75.36599
98.57678, 73.53718
99.05890, 71.36652
99.54102, 68.96219
100.0231, 66.46021
100.5052, 63.85123
100.9874, 61.04017
101.4695, 58.18990
101.9516, 56.28399
102.4337, 56.27557
102.9158, 56.27799
103.3979, 56.07125
103.8801, 55.64924
104.3622, 55.06975
104.8443, 54.36798
105.3264, 53.52120
105.8085, 52.69776
106.2906, 51.97590
106.7728, 51.19453
107.2549, 50.22542
107.7370, 49.07008
108.2191, 47.86522
108.7012, 46.76197
109.1833, 45.76345
109.6655, 44.78562
110.1476, 43.67768
110.6297, 42.61747
111.1118, 41.89308
111.5939, 41.62837
112.0760, 41.60040
112.5582, 41.62577
113.0403, 41.69797
113.5224, 41.68069
114.0045, 41.44748
114.4866, 41.00822
114.9687, 40.58627
115.4509, 40.13186
115.9330, 39.78907
116.4151, 39.70240
116.8972, 39.88460
117.3793, 40.13423
117.8614, 40.16028
118.3436, 39.82213
118.8257, 39.60265
119.3078, 39.61075
119.7899, 39.70675
120.2720, 39.79115
120.7541, 39.82334
121.2363, 39.82075
121.7184, 39.83465
122.2005, 40.08136
122.6826, 40.08914
123.1647, 39.67175
123.6468, 39.01967
124.1290, 38.40141
124.6111, 37.96672
125.0932, 37.69423
125.5753, 37.40307
126.0574, 36.92452
126.5395, 36.58884
127.0217, 36.66190
127.5038, 37.06218
127.9859, 37.37769
128.4680, 37.28848
128.9501, 36.83714
129.4323, 36.43396
129.9144, 36.08134
130.3965, 35.78708
130.8786, 35.58732
131.3607, 35.50726
131.8428, 35.40947
132.3250, 35.14922
132.8071, 34.79600
133.2892, 34.47393
133.7713, 34.25772
134.2534, 34.11712
134.7355, 33.93474
135.2176, 33.64680
135.6998, 33.40862
136.1819, 33.34755
136.6640, 33.40010
137.1461, 33.41042
137.6282, 33.24093
138.1103, 32.87386
138.5925, 32.52268
139.0746, 32.13784
139.5567, 31.81145
140.0388, 31.59912
140.5209, 31.49130
141.0030, 31.42939
141.4852, 31.34719
141.9673, 31.23613
142.4494, 31.12516
142.9315, 31.15947
143.4136, 31.10169
143.8957, 30.66170
144.3779, 29.81425
144.8600, 28.92609
145.3421, 28.61548
145.8242, 29.35791
146.3063, 29.81413
146.7884, 29.79438
147.2706, 29.50836
147.7527, 29.18835
148.2348, 28.90396
148.7169, 28.65310
149.1990, 28.43804
149.6811, 28.26301
150.1633, 28.09067
150.6454, 27.89250
151.1275, 27.68267
151.6096, 27.50524
152.0917, 27.36310
152.5738, 27.28234
153.0560, 27.29405
153.5381, 27.42608
154.0202, 27.56216
154.5023, 27.60710
154.9844, 27.55797
155.4665, 27.48604
155.9487, 27.44202
156.4308, 27.36982
156.9129, 27.19085
157.3950, 26.86530
157.8771, 26.52591
158.3592, 26.39050
158.8414, 26.55322
159.3235, 26.68855
159.8056, 26.75428
160.2877, 26.74556
160.7698, 26.62795
161.2519, 26.37926
161.7341, 26.06338
162.2162, 25.87267
162.6983, 25.91098
163.1804, 25.94641
163.6625, 26.00606
164.1446, 26.02801
164.6268, 25.90241
165.1089, 25.55255
165.5910, 25.04571
166.0731, 24.81727
166.5552, 25.22627
167.0373, 25.52166
167.5195, 25.49749
168.0016, 25.24898
168.4837, 24.96714
168.9658, 24.76856
169.4479, 24.65187
169.9300, 24.59418
170.4122, 24.68309
170.8943, 24.73592
171.3764, 24.64377
171.8585, 24.43026
172.3406, 24.19962
172.8227, 23.99146
173.3049, 23.83929
173.7870, 23.85983
174.2691, 24.23199
174.7512, 24.65200
175.2333, 24.88775
175.7154, 24.92981
176.1976, 24.84768
176.6797, 24.50969
177.1618, 24.03277
177.6439, 24.05567
178.1260, 24.04454
178.6081, 24.00120
179.0903, 23.82917
179.5724, 23.82331
180.0545, 23.75086
180.5366, 23.67568
181.0187, 23.69321
181.5008, 23.53991
181.9830, 23.55595
182.4651, 23.50440
182.9472, 23.48380
183.4293, 23.39619
183.9114, 23.32928
184.3935, 23.32939
184.8757, 23.29237
185.3578, 23.43116
185.8399, 23.76751
186.3220, 24.17796
186.8041, 24.21764
187.2862, 23.40946
187.7684, 22.71358
188.2505, 22.44780
188.7326, 22.50721
189.2147, 22.65398
189.6968, 22.71087
190.1789, 22.67518
190.6611, 22.62629
191.1432, 22.60116
191.6253, 22.52749
192.1074, 22.29312
192.5895, 21.97424
193.0716, 21.75858
193.5538, 21.82495
194.0359, 22.21628
194.5180, 22.54074
195.0001, 22.84496
195.4822, 23.06141
195.9643, 23.13667
196.4465, 23.08500
196.9286, 22.97256
197.4107, 22.86161
197.8928, 22.75644
198.3749, 22.57661
198.8570, 22.11891
199.3392, 21.74559
199.8213, 21.78704
200.3034, 22.23579
200.7855, 22.70909
201.2676, 22.85311
201.7497, 22.63950
202.2319, 22.44100
202.7140, 22.26890
203.1961, 22.11753
203.6782, 21.94546
204.1603, 21.74189
204.6424, 21.63749
205.1246, 21.79872
205.6067, 22.17898
206.0888, 22.57294
206.5709, 22.94510
207.0530, 23.30819
207.5351, 23.71293
208.0173, 24.20044
208.4994, 24.59239
208.9815, 24.64530
209.4636, 24.49422
209.9457, 24.41043
210.4278, 24.52450
210.9100, 24.76948
211.3921, 25.02649
211.8742, 25.35109
212.3563, 25.55499
212.8384, 25.40396
213.3205, 25.07210
213.8027, 24.88846
214.2848, 25.13362
214.7669, 25.65149
215.2490, 25.85294
215.7311, 25.54612
216.2132, 25.20307
216.6953, 25.06190
217.1775, 25.02695
217.6596, 24.91975
218.1417, 24.59075
218.6238, 24.10061
219.1059, 23.83879
219.5880, 24.15356
220.0702, 24.26154
220.5523, 23.72545
221.0344, 22.86340
221.5165, 22.19155
221.9986, 22.07205
222.4807, 22.44530
222.9629, 22.75482
223.4450, 23.09860
223.9271, 23.25134
224.4092, 23.04951
224.8913, 22.63531
225.3734, 22.24042
225.8556, 22.01746
226.3377, 21.95226
226.8198, 21.87097
227.3019, 21.74895
227.7840, 21.63668
228.2661, 21.50199
228.7483, 21.38774
229.2304, 21.39085
229.7125, 21.59140
230.1946, 21.95412
230.6767, 22.08261
231.1588, 21.62085
231.6410, 21.33154
232.1231, 21.59412
232.6052, 22.16123
233.0873, 22.52106
233.5694, 22.33713
234.0515, 21.70906
234.5337, 21.36399
235.0158, 21.41350
235.4979, 21.55597
235.9800, 21.83877
236.4621, 22.15228
236.9442, 22.23168
237.4264, 21.87827
237.9085, 21.23449
238.3906, 20.96539
238.8727, 21.47088
239.3548, 21.82801
239.8369, 21.51046
240.3191, 20.78871
240.8012, 20.36763
241.2833, 20.66855
241.7654, 21.41446
242.2475, 21.77734
242.7296, 21.62908
243.2118, 21.38530
243.6939, 21.17859
244.1760, 21.00816
244.6581, 20.86888
245.1402, 20.75214
245.6223, 20.67748
246.1045, 20.68484
246.5866, 20.80120
247.0687, 20.91427
247.5508, 21.05123
248.0329, 21.15906
248.5150, 20.99143
248.9972, 20.28356
249.4793, 19.48696
249.9614, 19.28358
250.4435, 19.74368
250.9256, 20.25826
251.4077, 20.51973
251.8899, 20.55964
252.3720, 20.52952
252.8541, 20.48719
253.3362, 20.34720
253.8183, 19.94485
254.3004, 19.28074
254.7826, 18.77693
255.2647, 18.77059
255.7468, 19.17625
256.2289, 19.59254
256.7110, 20.07893
257.1931, 20.37353
257.6753, 20.19258
258.1574, 19.60881
258.6395, 19.08616
259.1216, 18.91094
259.6037, 19.04610
260.0858, 19.31996
260.5680, 19.88137
261.0501, 20.35437
261.5322, 20.49446
262.0143, 20.36788
262.4964, 20.17739
262.9785, 19.97267
263.4607, 19.78464
263.9428, 19.82350
264.4249, 20.28638
264.9070, 20.69537
265.3891, 20.72243
265.8712, 20.53607
266.3534, 20.48984
266.8355, 20.88103
267.3176, 21.56789
267.7997, 21.91169
268.2818, 21.63197
268.7639, 21.42898
269.2461, 21.60506
269.7282, 21.99884
270.2103, 22.37457
270.6924, 22.60554
271.1745, 22.73770
271.6566, 22.90821
272.1388, 23.08612
272.6209, 23.36529
273.1030, 23.80411
273.5851, 24.32673
274.0672, 24.84837
274.5493, 25.33533
275.0315, 25.79415
275.5136, 26.25217
275.9957, 26.79035
276.4778, 27.16256
276.9599, 27.24769
277.4420, 27.22061
277.9242, 27.23462
278.4063, 27.34464
278.8884, 27.51023
279.3705, 27.65845
279.8526, 27.77862
280.3347, 27.90276
280.8169, 28.05352
281.2990, 28.19685
281.7811, 28.33927
282.2632, 28.47028
282.7453, 28.52283
283.2274, 28.39418
283.7096, 28.04644
284.1917, 27.59747
284.6738, 26.86179
285.1559, 26.18203
285.6380, 25.81692
286.1201, 25.76161
286.6023, 25.77950
287.0844, 25.59611
287.5665, 25.15765
288.0486, 24.72988
288.5307, 24.27276
289.0128, 23.86115
289.4950, 23.56800
289.9771, 23.36334
290.4592, 23.14231
290.9413, 22.79592
291.4234, 22.30729
291.9055, 21.92732
292.3877, 21.82944
292.8698, 21.66480
293.3519, 21.17695
293.8340, 20.52932
294.3161, 20.10717
294.7982, 20.22470
295.2804, 20.81545
295.7625, 21.00892
296.2446, 20.35202
296.7267, 19.76479
297.2088, 19.41419
297.6909, 19.24293
298.1731, 19.18486
298.6552, 19.21320
299.1373, 19.27303
299.6194, 19.15002
300.1015, 18.56052
300.5836, 18.12804
301.0658, 17.98627
301.5479, 17.99266
302.0300, 17.99547
302.5121, 17.93495
302.9942, 17.84902
303.4763, 17.81918
303.9585, 17.91997
304.4406, 17.96444
304.9227, 17.93403
305.4048, 17.86214
305.8869, 17.76754
306.3690, 17.65791
306.8512, 17.53890
307.3333, 17.41412
307.8154, 17.26362
308.2975, 17.16561
308.7796, 17.19084
309.2617, 17.20266
309.7439, 17.11747
310.2260, 16.93320
310.7081, 16.68366
311.1902, 16.37540
311.6723, 15.95898
312.1544, 15.85203
312.6366, 16.34588
313.1187, 16.81496
313.6008, 17.00633
314.0829, 16.96710
314.5650, 16.86735
315.0471, 16.83063
315.5293, 16.84727
316.0114, 16.78814
316.4935, 16.55094
316.9756, 16.35142
317.4577, 16.28766
317.9398, 16.27870
318.4220, 16.17433
318.9041, 15.89179
319.3862, 15.52397
319.8683, 15.36743
320.3504, 15.67966
320.8326, 15.89241
321.3147, 15.93096
321.7968, 15.88184
322.2789, 15.82621
322.7610, 15.79187
323.2431, 15.75825
323.7253, 15.68558
324.2074, 15.52058
324.6895, 15.42446
325.1716, 15.46246
325.6537, 15.51072
326.1358, 15.43188
326.6180, 15.24246
327.1001, 15.12468
327.5822, 15.31623
328.0643, 15.94238
328.5464, 16.22204
329.0285, 15.89952
329.5107, 15.52638
329.9928, 15.34208
330.4749, 15.30493
330.9570, 15.23188
331.4391, 14.96369
331.9212, 14.52935
332.4034, 14.36438
332.8855, 14.86237
333.3676, 15.21132
333.8497, 15.14685
334.3318, 14.86658
334.8139, 14.66096
335.2961, 14.67750
335.7782, 14.83387
336.2603, 14.88353
336.7424, 14.67997
337.2245, 14.59098
337.7066, 14.78019
338.1888, 15.00833
338.6708, 15.04311
339.1530, 14.83027
339.6351, 14.51247
340.1172, 14.29929
340.5993, 14.22297
341.0814, 14.17538
341.5635, 14.22025
342.0457, 14.23784
342.5278, 14.13420
343.0099, 13.92800
343.4920, 13.71768
343.9741, 13.58910
344.4562, 13.54355
344.9384, 13.55500
345.4205, 13.66985
345.9026, 13.80131
346.3847, 13.92029
346.8668, 14.04089
347.3489, 14.20572
347.8311, 14.45304
348.3132, 14.73890
348.7953, 14.86917
349.2774, 14.68718
349.7595, 14.59449
350.2416, 14.77262
350.7238, 15.01329
351.2059, 15.08079
351.6880, 14.89766
352.1701, 14.62590
352.6522, 14.55965
353.1343, 14.80569
353.6165, 14.92822
354.0986, 14.70212
354.5807, 14.48159
355.0628, 14.50771
355.5449, 14.77446
356.0270, 15.07559
356.5092, 15.24612
356.9913, 15.28650
357.4734, 15.16290
357.9555, 14.65904
358.4376, 14.23181
358.9197, 14.07796
359.4019, 14.13639
359.8840, 14.27725
360.3661, 14.44378
360.8482, 14.62697
361.3303, 14.80704
361.8124, 14.99644
362.2946, 15.15145
362.7767, 15.30014
363.2588, 15.39188
363.7409, 15.33061
364.2230, 15.06396
364.7051, 14.78432
365.1873, 14.78104
365.6694, 15.09269
366.1515, 15.32146
366.6336, 15.32171
367.1157, 15.24962
367.5978, 15.18896
368.0800, 15.15092
368.5621, 15.17242
369.0442, 15.32393
369.5263, 15.57041
370.0084, 15.73745
370.4905, 15.78477
370.9727, 15.79883
371.4548, 15.80396
371.9369, 15.82075
372.4190, 15.90646
372.9011, 16.15303
373.3832, 16.43442
373.8654, 16.53758
374.3475, 16.44015
374.8296, 16.35044
375.3117, 16.35237
375.7938, 16.43462
376.2759, 16.57708
376.7581, 16.78350
377.2402, 17.03806
377.7223, 17.43129
378.2044, 17.89362
378.6865, 18.06945
379.1686, 17.73039
379.6508, 17.29160
380.1329, 17.29533
380.6150, 17.71827
381.0971, 18.20638
381.5792, 18.72800
382.0613, 19.21884
382.5435, 19.59177
383.0256, 19.83813
383.5077, 19.97224
383.9898, 19.96993
384.4719, 19.84889
384.9540, 19.77170
385.4362, 19.71279
385.9183, 19.72649
386.4004, 19.86475
386.8825, 20.10739
387.3646, 20.39176
387.8467, 20.69246
388.3289, 21.00887
388.8110, 21.36195
389.2931, 21.87309
389.7752, 22.17116
390.2573, 21.99444
390.7394, 21.64600
391.2216, 21.53010
391.7037, 21.72762
392.1858, 21.95395
392.6679, 21.83942
393.1500, 21.25448
393.6321, 21.04416
394.1143, 21.61715
394.5964, 22.16092
395.0785, 22.17640
395.5606, 21.76243
396.0427, 21.29810
396.5248, 21.02329
397.0070, 20.90045
397.4891, 20.71767
397.9712, 20.30766
398.4533, 20.04382
398.9354, 20.10669
399.4175, 20.27108
399.8997, 20.26869
400.3818, 20.02505
400.8639, 19.70226
401.3460, 19.55888
401.8281, 19.70490
402.3102, 19.72296
402.7924, 19.58531
403.2745, 19.36449
403.7566, 19.04502
404.2387, 18.66703
404.7208, 18.31779
405.2029, 18.06704
405.6851, 17.90304
406.1672, 17.74944
406.6493, 17.61183
407.1314, 17.47875
407.6135, 17.36206
408.0956, 17.24196
408.5778, 17.08825
409.0599, 16.89005
409.5420, 16.68481
410.0241, 16.50846
410.5062, 16.34778
410.9883, 16.29764
411.4705, 16.65579
411.9526, 16.88239
412.4347, 16.52316
412.9168, 15.69097
413.3989, 14.95852
413.8810, 14.79208
414.3632, 15.04849
414.8453, 15.22289
415.3274, 15.34414
415.8095, 15.30894
416.2916, 14.88226
416.7737, 14.31843
417.2559, 13.96549
417.7380, 13.95232
418.2201, 14.07389
418.7022, 14.14131
419.1843, 14.16324
419.6664, 14.24057
420.1486, 14.46332
420.6307, 14.67016
421.1128, 14.64317
421.5949, 14.38814
422.0770, 14.10592
422.5591, 13.79635
423.0413, 13.53321
423.5234, 13.44082
424.0055, 13.53328
424.4876, 13.67759
424.9697, 13.78488
425.4518, 13.86029
425.9340, 13.94625
426.4161, 14.16433
426.8982, 14.26572
427.3803, 14.02291
427.8624, 13.59124
428.3445, 13.30983
428.8267, 13.31219
429.3088, 13.45813
429.7909, 13.51092
430.2730, 13.42419
430.7551, 13.33939
431.2372, 13.20303
431.7194, 13.11022
432.2015, 13.18057
432.6836, 13.38088
433.1657, 13.54481
433.6478, 13.53259
434.1299, 13.36001
434.6121, 13.23597
435.0942, 13.23674
435.5763, 13.19780
436.0584, 13.03018
436.5405, 12.83609
437.0226, 12.72661
437.5048, 12.74156
437.9869, 12.85161
438.4690, 13.05059
438.9511, 13.42799
439.4332, 13.60021
439.9153, 13.33883
440.3975, 13.06965
440.8796, 13.01185
441.3617, 13.11100
441.8438, 13.16915
442.3259, 13.01374
442.8080, 12.75184
443.2902, 12.80359
443.7723, 13.36886
444.2544, 13.74365
444.7365, 13.46926
445.2186, 13.00925
445.7007, 12.78120
446.1829, 12.87432
446.6650, 13.06761
447.1471, 13.22420
447.6292, 13.33232
448.1113, 13.29356
448.5934, 13.00689
449.0756, 12.74276
449.5577, 12.79937
450.0398, 13.07342
450.5219, 13.26349
451.0040, 13.25907
451.4861, 13.15852
451.9683, 13.00125
452.4504, 12.80684
452.9325, 12.71270
453.4146, 12.79426
453.8967, 12.99499
454.3788, 13.22157
454.8610, 13.52460
455.3431, 13.70036
455.8252, 13.61519
456.3073, 13.42750
456.7894, 13.30854
457.2715, 13.28008
457.7537, 13.25067
458.2358, 13.11360
458.7179, 12.86875
459.2000, 12.89865
459.6821, 13.51889
460.1642, 14.00384
460.6464, 14.07053
461.1285, 13.90711
461.6106, 13.76613
462.0927, 13.74542
462.5748, 13.80501
463.0569, 13.89356
463.5391, 14.05648
464.0212, 14.12068
464.5033, 14.02361
464.9854, 13.89313
465.4675, 13.72062
465.9496, 13.56207
466.4318, 13.55023
466.9139, 13.81596
467.3960, 14.23152
467.8781, 14.35953
468.3602, 14.05297
468.8423, 13.84433
469.3245, 14.01271
469.8066, 14.26152
470.2887, 14.35512
470.7708, 14.26048
471.2529, 14.11603
471.7350, 14.00982
472.2172, 13.93857
472.6993, 13.88220
473.1814, 13.82282
473.6635, 13.82744
474.1456, 14.03849
474.6277, 14.34288
475.1099, 14.47019
475.5920, 14.23893
476.0741, 13.99983
476.5562, 14.04038
477.0383, 14.27301
477.5204, 14.44291
478.0026, 14.46621
478.4847, 14.39829
478.9668, 14.29217
479.4489, 14.12055
479.9310, 14.05749
480.4131, 14.16762
480.8953, 14.34302
481.3774, 14.56699
481.8595, 14.79895
482.3416, 14.93603
482.8237, 14.91116
483.3058, 14.76970
483.7880, 14.66892
484.2701, 14.69152
484.7522, 14.63336
485.2343, 14.40060
485.7164, 14.15015
486.1985, 14.01572
486.6807, 13.99914
487.1628, 13.99707
487.6449, 13.89960
488.1270, 13.72121
488.6091, 13.67767
489.0912, 13.87533
489.5734, 14.04018
490.0555, 14.07827
490.5376, 14.04929
491.0197, 14.02167
491.5018, 14.01532
491.9839, 13.99269
492.4661, 13.88717
492.9482, 13.71392
493.4303, 13.63386
493.9124, 13.73645
494.3945, 13.80562
494.8766, 13.53999
495.3588, 13.09084
495.8409, 12.88843
496.3230, 13.22579
496.8051, 13.66905
497.2872, 13.85414
497.7693, 13.83743
498.2515, 13.84290
498.7336, 13.97301
499.2157, 14.10121
499.6978, 14.00480
500.1799, 13.60534
500.6620, 13.28036
501.1442, 13.05581
501.6263, 12.90995
502.1084, 12.81748
502.5905, 12.78787
503.0726, 12.88758
503.5547, 13.17951
504.0368, 13.55752
504.5190, 13.64082
505.0011, 13.11661
505.4832, 12.79003
505.9653, 12.83481
506.4474, 12.97257
506.9295, 12.98936
507.4117, 12.88458
507.8938, 12.80622
508.3759, 12.89497
508.8580, 13.11435
509.3401, 13.23975
509.8222, 13.22657
510.3044, 13.21739
510.7865, 13.31752
511.2686, 13.41861
511.7507, 13.39260
512.2328, 13.20833
512.7150, 13.01840
513.1971, 12.93170
513.6792, 12.92818
514.1613, 12.94635
514.6434, 12.97579
515.1255, 13.05176
515.6077, 13.27693
516.0898, 13.57210
516.5719, 13.61094
517.0540, 13.03168
517.5361, 12.61914
518.0182, 12.94865
518.5004, 13.62108
518.9825, 13.93143
519.4646, 13.69123
519.9467, 13.25363
520.4288, 13.04620
520.9109, 13.12617
521.3931, 13.04732
521.8752, 12.55562
522.3573, 12.20693
522.8394, 12.32437
523.3215, 12.67148
523.8036, 12.86240
524.2858, 12.74504
524.7679, 12.52704
525.2500, 12.59104
525.7321, 13.03709
526.2142, 13.25519
526.6964, 13.03723
527.1785, 12.76315
527.6606, 12.54706
528.1427, 12.41549
528.6248, 12.42348
529.1069, 12.65007
529.5891, 12.92961
530.0712, 13.04807
530.5533, 13.01105
531.0354, 12.89640
531.5175, 12.67497
531.9996, 12.46255
532.4818, 12.44780
532.9639, 12.61206
533.4460, 12.67737
533.9281, 12.46772
534.4102, 12.23935
534.8923, 12.22146
535.3745, 12.36261
535.8566, 12.46933
536.3387, 12.45087
536.8208, 12.35026
537.3029, 12.25036
537.7850, 12.11714
538.2672, 12.06049
538.7493, 12.18363
539.2314, 12.28426
539.7135, 12.16632
540.1956, 11.92647
540.6777, 11.84590
541.1599, 12.11458
541.6420, 12.56536
542.1241, 12.76918
542.6062, 12.66794
543.0883, 12.50723
543.5704, 12.25886
544.0526, 12.02210
544.5347, 11.80462
545.0168, 11.63752
545.4989, 11.64568
545.9810, 12.07096
546.4631, 12.61068
546.9453, 12.72045
547.4274, 12.41407
547.9095, 12.19956
548.3916, 12.33627
548.8737, 12.60535
549.3558, 12.57692
549.8380, 12.19415
550.3201, 11.95654
550.8022, 12.03303
551.2843, 12.23199
551.7664, 12.48249
552.2485, 12.72557
552.7307, 12.79956
553.2128, 12.59589
553.6949, 12.23519
554.1770, 12.06135
554.6591, 12.21475
555.1412, 12.30886
555.6234, 12.38057
556.1055, 12.36040
556.5876, 12.07762
557.0697, 11.65386
557.5518, 11.45417
558.0339, 11.77002
558.5161, 12.34112
558.9982, 12.53259
559.4803, 12.27303
559.9624, 12.05872
560.4445, 12.01430
560.9266, 12.07543
561.4088, 12.21156
561.8909, 12.41088
562.3730, 12.54728
562.8551, 12.57280
563.3372, 12.51435
563.8193, 12.32628
564.3015, 12.05343
564.7836, 11.92962
565.2657, 12.07765
565.7478, 12.36776
566.2299, 12.56978
566.7120, 12.66873
567.1942, 12.69644
567.6763, 12.49193
568.1584, 12.36525
568.6405, 12.57995
569.1226, 13.01043
569.6047, 13.36493
570.0869, 13.49031
570.5690, 13.45369
571.0511, 13.36803
571.5332, 13.20141
572.0153, 13.10568
572.4974, 13.09803
572.9796, 13.16787
573.4617, 13.37943
573.9438, 13.66331
574.4259, 13.83862
574.9080, 13.78892
575.3901, 13.66535
575.8723, 13.66218
576.3544, 13.74928
576.8365, 13.72878
577.3186, 13.50790
577.8007, 13.28142
578.2828, 13.27387
578.7650, 13.50005
579.2471, 13.74859
579.7292, 14.03666
580.2113, 14.32238
580.6934, 14.68143
581.1755, 14.99802
581.6577, 15.02224
582.1398, 14.68926
582.6219, 14.29524
583.1040, 14.26099
583.5861, 14.64479
584.0682, 14.92623
584.5504, 15.03356
585.0325, 15.12299
585.5145, 15.27659
585.9966, 15.42612
586.4788, 15.45994
586.9609, 15.34120
587.4430, 15.21706
