##NAMES=Magnetite
##RRUFFID=R060222
##IDEAL CHEMISTRY=Fe^2+^Fe^3+^_2_O_4_
##LOCALITY=Cerro Hua√±aquino, Potosi Department, Bolivia
##OWNER=RRUFF
##SOURCE=Rock Currier
##DESCRIPTION=Black octahedra, the surface is hematite and the interior is magnetite
##STATUS=The identification of this mineral has been confirmed by X-ray diffraction and chemical analysis
##URL=rruff.info/R060222
##MEASURED CHEMISTRY=(Fe^2+^_0.95_Mg_0.05_)(Fe^3+^_0.99_Al_0.01_)_2_O_4_
91.82715, 195.7269
92.30927, 192.1370
92.79138, 193.8217
93.27350, 200.2692
93.75562, 202.8686
94.23773, 196.2677
94.71985, 182.4052
95.20197, 170.5213
95.68408, 164.6089
96.16620, 161.2760
96.64832, 157.6761
97.13043, 153.4600
97.61255, 149.0155
98.09467, 144.8856
98.57678, 141.2726
99.05890, 137.0532
99.54102, 132.3071
100.0231, 127.3069
100.5052, 122.1739
100.9874, 116.8752
101.4695, 111.4963
101.9516, 106.7109
102.4337, 101.8678
102.9158, 98.26383
103.3979, 96.54923
103.8801, 96.21040
104.3622, 96.40583
104.8443, 96.53558
105.3264, 96.61823
105.8085, 96.23726
106.2906, 95.65697
106.7728, 94.50712
107.2549, 92.33142
107.7370, 89.17091
108.2191, 85.74262
108.7012, 82.81953
109.1833, 80.42538
109.6655, 78.13152
110.1476, 75.69502
110.6297, 73.37366
111.1118, 71.59428
111.5939, 70.56958
112.0760, 69.89002
112.5582, 69.10429
113.0403, 68.22799
113.5224, 67.41100
114.0045, 66.74886
114.4866, 66.23552
114.9688, 65.81935
115.4509, 65.58108
115.9330, 65.37453
116.4151, 65.06490
116.8972, 64.64192
117.3793, 64.25971
117.8615, 64.15480
118.3436, 64.47929
118.8257, 64.71626
119.3078, 64.58648
119.7899, 64.47372
120.2720, 64.77049
120.7542, 65.62421
121.2363, 66.76378
121.7184, 67.41959
122.2005, 67.23542
122.6826, 66.86994
123.1647, 66.34775
123.6468, 65.67005
124.1290, 64.75509
124.6111, 63.49475
125.0932, 61.99736
125.5753, 61.19368
126.0574, 61.48013
126.5395, 61.87251
127.0217, 62.07364
127.5038, 62.06447
127.9859, 61.82029
128.4680, 61.21963
128.9501, 60.34071
129.4323, 59.67939
129.9144, 59.46296
130.3965, 59.35695
130.8786, 58.98574
131.3607, 58.28956
131.8428, 57.55348
132.3250, 56.96140
132.8071, 56.47792
133.2892, 56.07974
133.7713, 55.74102
134.2534, 55.47732
134.7355, 55.36064
135.2177, 55.52516
135.6998, 55.65597
136.1819, 55.60188
136.6640, 55.39441
137.1461, 55.11847
137.6282, 54.81308
138.1104, 54.46893
138.5925, 54.19857
139.0746, 54.23256
139.5567, 54.14878
140.0388, 53.64897
140.5209, 52.80779
141.0031, 51.97898
141.4852, 51.61335
141.9673, 51.98985
142.4494, 52.10912
142.9315, 51.82808
143.4136, 51.44262
143.8958, 51.13788
144.3779, 50.96230
144.8600, 50.84625
145.3421, 50.68080
145.8242, 50.45402
146.3063, 50.19062
146.7885, 49.83897
147.2706, 49.46674
147.7527, 49.14595
148.2348, 48.89669
148.7169, 48.72550
149.1990, 48.65537
149.6812, 48.67073
150.1633, 48.76937
150.6454, 49.11867
151.1275, 49.58694
151.6096, 49.72028
152.0917, 49.22020
152.5739, 48.40645
153.0560, 47.79052
153.5381, 47.39217
154.0202, 47.13607
154.5023, 47.00349
154.9844, 46.99970
155.4665, 47.00197
155.9487, 46.98763
156.4308, 46.94726
156.9129, 46.86398
157.3950, 46.72882
157.8771, 46.57207
158.3592, 46.42567
158.8414, 46.26814
159.3235, 46.18381
159.8056, 46.26416
160.2877, 46.38324
160.7698, 46.42529
161.2519, 46.33733
161.7341, 46.16391
162.2162, 46.03789
162.6983, 46.01451
163.1804, 45.96594
163.6625, 45.92036
164.1446, 45.82923
164.6268, 45.59242
165.1089, 45.13646
165.5910, 44.53453
166.0731, 44.26014
166.5552, 44.64343
167.0373, 44.99224
167.5195, 45.18286
168.0016, 45.23834
168.4837, 45.21888
168.9658, 45.15685
169.4479, 45.05469
169.9300, 44.96146
170.4122, 44.87918
170.8943, 44.80183
171.3764, 44.70168
171.8585, 44.59369
172.3406, 44.55230
172.8227, 44.67286
173.3049, 44.91835
173.7870, 44.99149
174.2691, 44.78198
174.7512, 44.47902
175.2333, 44.22059
175.7154, 44.01163
176.1976, 43.82417
176.6797, 43.60883
177.1618, 43.40179
177.6439, 43.30326
178.1260, 43.45596
178.6081, 43.68410
179.0903, 43.67531
179.5724, 43.32201
180.0545, 43.05258
180.5366, 43.31193
181.0187, 43.81465
181.5008, 44.09275
181.9830, 43.82241
182.4651, 43.18800
182.9472, 42.75436
183.4293, 42.57945
183.9114, 42.54583
184.3935, 42.62041
184.8757, 42.77264
185.3578, 42.96537
185.8399, 43.21803
186.3220, 43.50713
186.8041, 43.57163
187.2862, 43.19222
187.7684, 42.79967
188.2505, 42.48145
188.7326, 42.24546
189.2147, 42.08720
189.6968, 42.01299
190.1789, 42.02599
190.6611, 42.02592
191.1432, 41.95031
191.6253, 41.92079
192.1074, 42.04751
192.5895, 42.26696
193.0716, 42.41309
193.5538, 42.32521
194.0359, 41.96019
194.5180, 41.71832
195.0001, 41.70093
195.4822, 41.68435
195.9643, 41.50787
196.4465, 41.20872
196.9286, 40.98350
197.4107, 41.04359
197.8928, 41.44687
198.3749, 41.62649
198.8570, 41.43903
199.3392, 41.16188
199.8213, 40.94112
200.3034, 40.79751
200.7855, 40.73093
201.2676, 40.76231
201.7497, 40.89841
202.2319, 40.99140
202.7140, 41.09005
203.1961, 41.11234
203.6782, 40.91066
204.1603, 40.45632
204.6424, 40.03878
205.1246, 39.94627
205.6067, 40.12416
206.0888, 40.33984
206.5709, 40.58099
207.0530, 40.82358
207.5351, 41.09211
208.0173, 41.44624
208.4994, 41.60894
208.9815, 41.05758
209.4636, 40.13208
209.9457, 39.57098
210.4278, 40.06828
210.9100, 41.06268
211.3921, 41.15888
211.8742, 39.85168
212.3563, 38.69012
212.8384, 38.86694
213.3205, 39.80322
213.8027, 40.44178
214.2848, 40.01255
214.7669, 38.88101
215.2490, 38.43289
215.7311, 39.15472
216.2132, 39.82732
216.6954, 39.86676
217.1775, 39.51430
217.6596, 39.17968
218.1417, 39.09282
218.6238, 39.22847
219.1059, 39.45757
219.5881, 39.94540
220.0702, 40.31520
220.5523, 40.39800
221.0344, 40.30235
221.5165, 40.21302
221.9986, 40.26406
222.4808, 40.42852
222.9629, 40.44971
223.4450, 40.17255
223.9271, 39.90353
224.4092, 39.69606
224.8913, 39.54086
225.3735, 39.40636
225.8556, 39.26551
226.3377, 39.12733
226.8198, 39.09291
227.3019, 39.37299
227.7840, 39.53732
228.2662, 39.34382
228.7483, 38.97901
229.2304, 38.80189
229.7125, 39.06748
230.1946, 39.71291
230.6767, 40.03914
231.1589, 39.74827
231.6410, 39.49253
232.1231, 39.45191
232.6052, 39.56192
233.0873, 39.68314
233.5694, 39.73355
234.0516, 39.72205
234.5337, 39.70988
235.0158, 39.68021
235.4979, 39.66809
235.9800, 39.66980
236.4621, 39.69667
236.9443, 39.80174
237.4264, 40.04740
237.9085, 40.35805
238.3906, 40.37748
238.8727, 39.87745
239.3548, 39.40631
239.8370, 39.17063
240.3191, 39.10600
240.8012, 39.04174
241.2833, 38.86821
241.7654, 38.67486
242.2475, 38.73598
242.7297, 39.23718
243.2118, 39.65050
243.6939, 39.66866
244.1760, 39.40394
244.6581, 39.20266
245.1402, 39.23338
245.6224, 39.37390
246.1045, 39.36121
246.5866, 39.13289
247.0687, 38.93953
247.5508, 38.99926
248.0329, 39.21976
248.5151, 39.23711
248.9972, 38.81875
249.4793, 38.27703
249.9614, 38.06354
250.4435, 38.20230
250.9256, 38.44790
251.4078, 38.77015
251.8899, 39.11752
252.3720, 39.26844
252.8541, 39.13969
253.3362, 38.80735
253.8183, 38.29437
254.3005, 37.60029
254.7826, 37.05735
255.2647, 36.96358
255.7468, 37.23149
256.2289, 37.42373
256.7110, 37.47836
257.1931, 37.41396
257.6753, 37.17342
258.1574, 36.79974
258.6395, 36.56844
259.1216, 36.74576
259.6037, 37.25091
260.0858, 37.65199
260.5680, 37.96418
261.0501, 38.07187
261.5322, 37.79345
262.0143, 37.25774
262.4964, 36.85295
262.9785, 36.95532
263.4607, 37.45090
263.9428, 37.64328
264.4249, 37.31982
264.9070, 36.98407
265.3891, 36.85190
265.8712, 36.88627
266.3534, 37.02449
266.8355, 37.30603
267.3176, 37.65450
267.7997, 37.71499
268.2818, 37.27520
268.7639, 36.85922
269.2461, 36.69271
269.7282, 36.66195
270.2103, 36.58033
270.6924, 36.31570
271.1745, 35.97184
271.6566, 35.91314
272.1388, 36.31599
272.6209, 36.71980
273.1030, 37.08026
273.5851, 37.34708
274.0672, 37.43350
274.5493, 37.28810
275.0315, 37.00753
275.5136, 36.84365
275.9957, 36.90685
276.4778, 36.87516
276.9599, 36.58121
277.4420, 36.23902
277.9242, 36.06028
278.4063, 36.11816
278.8884, 36.29785
279.3705, 36.37376
279.8526, 36.24831
280.3347, 36.23103
280.8169, 36.49025
281.2990, 36.76320
281.7811, 36.81947
282.2632, 36.61779
282.7453, 36.33308
283.2274, 36.23127
283.7096, 36.40472
284.1917, 36.53514
284.6738, 36.61292
285.1559, 36.65474
285.6380, 36.65037
286.1201, 36.60969
286.6023, 36.57343
287.0844, 36.60521
287.5665, 36.75312
288.0486, 36.76935
288.5307, 36.47200
289.0128, 36.21509
289.4950, 36.20733
289.9771, 36.40581
290.4592, 36.60401
290.9413, 36.59365
291.4234, 36.34484
291.9055, 36.28596
292.3877, 36.64301
292.8698, 36.96145
293.3519, 37.14230
293.8340, 37.16866
294.3161, 37.00707
294.7982, 36.59935
295.2804, 35.98466
295.7625, 35.69356
296.2446, 36.15857
296.7267, 36.49594
297.2088, 36.45882
297.6909, 36.20520
298.1731, 35.98829
298.6552, 35.95088
299.1373, 36.02851
299.6194, 35.97378
300.1015, 35.57838
300.5836, 35.30028
301.0658, 35.16862
301.5479, 35.17531
302.0300, 35.39082
302.5121, 35.83097
302.9942, 36.30020
303.4763, 36.37028
303.9585, 35.54489
304.4406, 35.06444
304.9227, 35.10973
305.4048, 35.37075
305.8869, 35.65027
306.3690, 35.88161
306.8512, 36.05525
307.3333, 36.16216
307.8154, 36.21936
308.2975, 36.14579
308.7796, 35.79480
309.2617, 35.45250
309.7439, 35.33937
310.2260, 35.43303
310.7081, 35.52436
311.1902, 35.39038
311.6723, 34.97702
312.1544, 34.73191
312.6366, 34.76313
313.1187, 34.82809
313.6008, 34.79938
314.0829, 34.72213
314.5650, 34.75414
315.0471, 35.04047
315.5293, 35.53844
316.0114, 35.67548
316.4935, 35.01756
316.9756, 34.48269
317.4577, 34.33682
317.9398, 34.41774
318.4220, 34.45845
318.9041, 34.31969
319.3862, 34.08205
319.8683, 34.00299
320.3504, 34.28135
320.8326, 34.47680
321.3147, 34.56134
321.7968, 34.55798
322.2789, 34.45473
322.7610, 34.25805
323.2431, 34.04777
323.7253, 33.96867
324.2074, 34.12201
324.6895, 34.21162
325.1716, 34.19552
325.6537, 34.15693
326.1358, 34.19404
326.6180, 34.29300
327.1001, 34.31636
327.5822, 34.08327
328.0643, 33.49575
328.5464, 33.16198
329.0285, 33.25877
329.5107, 33.40219
329.9928, 33.38804
330.4749, 33.27895
330.9570, 33.29715
331.4391, 33.64359
331.9212, 34.27578
332.4034, 34.55621
332.8855, 34.11946
333.3676, 33.71044
333.8497, 33.42122
334.3318, 33.25726
334.8139, 33.23717
335.2961, 33.37434
335.7782, 33.60209
336.2603, 33.72357
336.7424, 33.69737
337.2245, 33.61383
337.7066, 33.37342
338.1888, 33.14315
338.6709, 33.11057
339.1530, 33.31052
339.6351, 33.57849
340.1172, 33.65184
340.5993, 33.41222
341.0815, 33.27888
341.5636, 33.33398
342.0457, 33.41228
342.5278, 33.43690
343.0099, 33.39877
343.4920, 33.31197
343.9742, 33.15921
344.4563, 32.92609
344.9384, 32.89515
345.4205, 33.43406
345.9026, 33.82010
346.3847, 33.75282
346.8669, 33.40549
347.3490, 33.10124
347.8311, 33.04019
348.3132, 33.16096
348.7953, 33.21178
349.2774, 33.08281
349.7596, 33.06180
350.2417, 33.34076
350.7238, 33.67270
351.2059, 33.79344
351.6880, 33.61526
352.1701, 33.28641
352.6523, 33.04361
353.1344, 32.90691
353.6165, 32.79706
354.0986, 32.75233
354.5807, 32.69552
355.0628, 32.57923
355.5450, 32.40211
356.0271, 32.19527
356.5092, 31.93654
356.9913, 31.61811
357.4734, 31.51728
357.9555, 31.85358
358.4377, 32.17293
358.9198, 32.27351
359.4019, 32.21902
359.8840, 32.14687
360.3661, 32.12518
360.8482, 32.14983
361.3304, 32.22513
361.8125, 32.40319
362.2946, 32.51312
362.7767, 32.44932
363.2588, 32.31448
363.7409, 32.20377
364.2231, 32.14271
364.7052, 32.12543
365.1873, 32.16703
365.6694, 32.27948
366.1515, 32.34129
366.6336, 32.32392
367.1158, 32.24099
367.5979, 32.02805
368.0800, 31.70610
368.5621, 31.51478
369.0442, 31.75467
369.5263, 32.30973
370.0085, 32.60450
370.4906, 32.50371
370.9727, 32.29969
371.4548, 32.16191
371.9369, 32.07666
372.4190, 32.01676
372.9012, 31.97900
373.3833, 31.95711
373.8654, 31.96199
374.3475, 32.00336
374.8296, 31.98217
375.3117, 31.76115
375.7939, 31.49229
376.2760, 31.41101
376.7581, 31.59118
377.2402, 31.82151
377.7223, 31.98344
378.2044, 32.07584
378.6866, 32.08744
379.1687, 31.99993
379.6508, 31.85340
380.1329, 31.65207
380.6150, 31.39426
381.0971, 31.26011
381.5793, 31.40560
382.0614, 31.66779
382.5435, 31.82395
383.0256, 31.84799
383.5077, 31.80715
383.9898, 31.75164
384.4720, 31.67263
384.9541, 31.53635
385.4362, 31.19545
385.9183, 30.93047
386.4004, 30.99124
386.8825, 31.28875
387.3647, 31.51264
387.8468, 31.50734
388.3289, 31.35410
388.8110, 31.25800
389.2931, 31.25174
389.7752, 31.21967
390.2574, 31.06961
390.7395, 30.91131
391.2216, 30.92201
391.7037, 31.13204
392.1858, 31.34337
392.6679, 31.30419
393.1501, 30.93242
393.6322, 30.74130
394.1143, 30.76629
394.5964, 30.92043
395.0785, 31.27285
395.5606, 31.72927
396.0428, 32.05593
396.5249, 32.10383
397.0070, 31.90132
397.4891, 31.59259
397.9712, 31.00902
398.4533, 30.52515
398.9355, 30.18804
399.4176, 29.96625
399.8997, 29.81370
400.3818, 29.71938
400.8639, 29.71957
401.3460, 29.89685
401.8282, 30.37993
402.3103, 30.67615
402.7924, 30.66733
403.2745, 30.60691
403.7566, 30.65685
404.2387, 30.77432
404.7209, 30.79042
405.2030, 30.55453
405.6851, 30.11027
406.1672, 29.78519
406.6493, 29.46749
407.1314, 29.46552
407.6136, 30.20006
408.0957, 31.09888
408.5778, 31.47309
409.0599, 31.07202
409.5420, 30.36540
410.0241, 30.04785
410.5063, 30.19891
410.9884, 30.31779
411.4705, 30.30433
411.9526, 30.26398
412.4347, 30.25577
412.9168, 30.27624
413.3990, 30.29004
413.8811, 30.31151
414.3632, 30.31064
414.8453, 30.12053
415.3274, 29.60850
415.8095, 29.23721
416.2917, 29.42307
416.7738, 29.85132
417.2559, 30.10382
417.7380, 30.02938
418.2201, 29.86268
418.7022, 29.81680
419.1844, 29.88274
419.6665, 30.00079
420.1486, 30.23917
420.6307, 30.40361
421.1128, 30.15558
421.5949, 29.49360
422.0771, 29.02984
422.5592, 29.12863
423.0413, 29.48753
423.5234, 29.72864
424.0055, 29.81236
424.4876, 29.76706
424.9698, 29.54993
425.4519, 29.21103
425.9340, 29.06018
426.4161, 29.25458
426.8982, 29.46392
427.3803, 29.57547
427.8625, 29.59221
428.3446, 29.49632
428.8267, 29.27137
429.3088, 29.00221
429.7909, 28.83078
430.2730, 28.78045
430.7552, 28.79593
431.2373, 28.95863
431.7194, 29.12570
432.2015, 29.21666
432.6836, 29.21549
433.1657, 29.10003
433.6479, 28.82350
434.1300, 28.41455
434.6121, 28.25814
435.0942, 28.63056
435.5763, 28.94299
436.0584, 29.14177
436.5406, 29.21614
437.0227, 29.09038
437.5048, 28.75654
437.9869, 28.41981
438.4690, 28.45557
438.9511, 29.05560
439.4333, 29.40311
439.9154, 29.29143
440.3975, 29.09601
440.8796, 28.97092
441.3617, 28.90176
441.8438, 28.80158
442.3260, 28.59722
442.8081, 28.33174
443.2902, 28.16155
443.7723, 28.12073
444.2544, 28.08871
444.7365, 27.95855
445.2187, 27.85216
445.7008, 27.92603
446.1829, 28.22213
446.6650, 28.50858
447.1471, 28.54745
447.6292, 28.38533
448.1114, 28.28904
448.5935, 28.32566
449.0756, 28.37750
449.5577, 28.33027
450.0398, 28.21534
450.5219, 28.12341
451.0041, 28.08426
451.4862, 28.07427
451.9683, 28.06951
452.4504, 28.07221
452.9325, 28.11687
453.4146, 28.25854
453.8968, 28.40199
454.3789, 28.28906
454.8610, 27.80711
455.3431, 27.48008
455.8252, 27.49247
456.3073, 27.68266
456.7895, 27.92508
457.2716, 28.18393
457.7537, 28.38985
458.2358, 28.48000
458.7179, 28.45436
459.2000, 28.39991
459.6822, 28.25817
460.1643, 28.15952
460.6464, 28.17153
461.1285, 28.23832
461.6106, 28.28040
462.0927, 28.26824
462.5748, 28.23164
463.0569, 28.23272
463.5391, 28.32968
464.0212, 28.30241
464.5033, 28.11999
464.9854, 27.85176
465.4675, 27.34962
465.9496, 26.78036
466.4318, 26.55556
466.9139, 27.02870
467.3960, 27.92160
467.8781, 28.32413
468.3602, 28.03727
468.8423, 27.78156
469.3245, 27.92075
469.8066, 28.07572
470.2887, 27.86225
470.7708, 27.23703
471.2529, 26.66698
471.7350, 26.54543
472.2172, 26.77948
472.6993, 27.06307
473.1814, 27.42863
473.6635, 27.67181
474.1456, 27.53121
474.6277, 27.16609
475.1099, 26.92659
475.5920, 26.90001
476.0741, 26.97047
476.5562, 27.13336
477.0383, 27.33536
477.5204, 27.40796
478.0026, 27.28249
478.4847, 27.05785
478.9668, 26.84884
479.4489, 26.63577
479.9310, 26.55341
480.4131, 26.66123
480.8953, 26.85901
481.3774, 27.19501
481.8595, 27.57685
482.3416, 27.72085
482.8237, 27.43106
483.3058, 26.87464
483.7880, 26.62963
484.2701, 27.02717
484.7522, 27.27170
485.2343, 27.30919
485.7164, 27.21259
486.1985, 26.93098
486.6807, 26.53136
487.1628, 26.27974
487.6449, 26.49082
488.1270, 27.10863
488.6091, 27.29940
489.0912, 26.69692
489.5734, 26.24839
490.0555, 26.37373
490.5376, 26.72193
491.0197, 26.88839
491.5018, 26.75597
491.9839, 26.54754
492.4661, 26.45070
492.9482, 26.46675
493.4303, 26.65230
493.9124, 27.13556
494.3945, 27.55884
494.8766, 27.58104
495.3588, 27.31480
495.8409, 27.02852
496.3230, 26.72572
496.8051, 26.48157
497.2872, 26.36823
497.7693, 26.36904
498.2515, 26.47128
498.7336, 26.72161
499.2157, 26.91516
499.6978, 26.63636
500.1799, 25.63369
500.6620, 25.14474
501.1442, 25.72761
501.6263, 26.44768
502.1084, 26.62227
502.5905, 26.34105
503.0726, 26.07959
503.5547, 26.13727
504.0369, 26.39376
504.5190, 26.41112
505.0011, 25.78726
505.4832, 25.57586
505.9653, 26.21242
506.4474, 26.95374
506.9296, 27.22763
507.4117, 27.03482
507.8938, 26.77046
508.3759, 26.77835
508.8580, 26.99296
509.3401, 27.01026
509.8223, 26.72531
510.3044, 26.47278
510.7865, 26.37063
511.2686, 26.36078
511.7507, 26.41058
512.2328, 26.51873
512.7150, 26.62578
513.1971, 26.75950
513.6792, 26.85755
514.1613, 26.67500
514.6434, 26.11870
515.1255, 25.59232
515.6077, 25.43114
516.0898, 25.55795
516.5719, 25.59345
517.0540, 25.37854
517.5361, 25.24961
518.0182, 25.45839
518.5004, 25.82740
518.9825, 26.03666
519.4646, 26.00153
519.9467, 25.90584
520.4288, 25.98990
520.9109, 26.31460
521.3931, 26.40035
521.8752, 26.03223
522.3573, 25.70065
522.8394, 25.57529
523.3215, 25.59725
523.8036, 25.69242
524.2858, 25.82724
524.7679, 25.94399
525.2500, 25.91272
525.7321, 25.67570
526.2142, 25.58516
526.6964, 25.78302
527.1785, 26.00456
527.6606, 26.14271
528.1427, 26.20873
528.6248, 26.23085
529.1069, 26.19531
529.5891, 26.16514
530.0712, 26.26627
530.5533, 26.48574
531.0354, 26.59406
531.5175, 26.50130
531.9996, 26.31658
532.4818, 26.16896
532.9639, 26.05556
533.4460, 25.89801
533.9281, 25.51817
534.4102, 25.22398
534.8923, 25.39144
535.3745, 25.87176
535.8566, 26.14612
536.3387, 25.95906
536.8208, 25.50083
537.3029, 25.15178
537.7850, 24.89706
538.2672, 24.79828
538.7493, 24.91653
539.2314, 25.12207
539.7135, 25.44905
540.1956, 25.80130
540.6777, 25.96531
541.1599, 25.79615
541.6420, 25.42410
542.1241, 25.16766
542.6062, 25.03514
543.0883, 24.98852
543.5704, 25.04226
544.0526, 25.16892
544.5347, 25.45441
545.0168, 25.83365
545.4989, 26.01558
545.9810, 25.61578
546.4631, 25.05979
546.9453, 25.12653
547.4274, 25.79533
547.9095, 26.30873
548.3916, 26.33576
548.8737, 26.07775
549.3558, 25.81062
549.8380, 25.48521
550.3201, 25.40393
550.8022, 25.93743
551.2843, 26.49478
551.7664, 26.51290
552.2485, 26.09370
552.7307, 25.72916
553.2128, 25.70753
553.6949, 25.88298
554.1770, 25.83626
554.6591, 25.37527
555.1412, 25.03318
555.6234, 24.81206
556.1055, 24.70300
556.5876, 24.71997
557.0697, 24.84464
557.5518, 25.04613
558.0339, 25.33660
558.5161, 25.64208
558.9982, 25.80085
559.4803, 25.80989
559.9624, 25.67781
560.4445, 25.30902
560.9266, 24.89081
561.4088, 24.58352
561.8909, 24.38619
562.3730, 24.26366
562.8551, 24.22630
563.3372, 24.24110
563.8193, 24.26456
564.3015, 24.30491
564.7836, 24.42708
565.2657, 24.67903
565.7478, 24.96924
566.2299, 25.13317
566.7120, 25.14066
567.1942, 25.07124
567.6763, 24.83530
568.1584, 24.60651
568.6405, 24.44958
569.1226, 24.38320
569.6047, 24.45012
570.0869, 24.68070
570.5690, 24.96371
571.0511, 25.07250
571.5332, 24.98924
572.0153, 24.79458
572.4974, 24.29623
572.9796, 23.89168
573.4617, 23.82131
573.9438, 24.00875
574.4259, 24.24947
574.9080, 24.49470
575.3901, 24.70866
575.8723, 24.85181
576.3544, 24.92738
576.8365, 24.94283
577.3186, 24.88540
577.8007, 24.81585
578.2828, 24.84337
578.7650, 24.97603
579.2471, 24.88718
579.7292, 24.27068
580.2113, 23.74355
580.6934, 23.60780
581.1755, 23.75344
581.6577, 24.04548
582.1398, 24.42085
582.6219, 24.75322
583.1040, 24.86798
583.5861, 24.74807
584.0682, 24.53711
584.5504, 23.98376
585.0325, 23.64957
585.5146, 23.91961
585.9967, 24.40659
586.4788, 24.57048
586.9609, 24.24691
