##NAMES=Magnesite
##RRUFFID=R050676
##IDEAL CHEMISTRY=MgCO_3_
##LOCALITY=Tyrol, Austria
##OWNER=RRUFF
##SOURCE=University of Arizona Mineral Museum
##DESCRIPTION=Brown rhombohedral crystals
##STATUS=The identification of this mineral has been confirmed by X-ray diffraction and chemical analysis
##URL=rruff.info/R050676
##MEASURED CHEMISTRY=(Mg_0.87_Fe^2+^_0.12_Ca_0.01_)_Î£=1_CO_3_; trace amounts of Mn and Cd; CO_2_ estimated by difference
92.02539, 50.27632
92.50751, 51.75175
92.98962, 52.81376
93.47174, 52.33097
93.95386, 51.18994
94.43597, 49.79391
94.91809, 48.32458
95.40021, 46.86972
95.88232, 45.55487
96.36444, 44.51301
96.84656, 43.43020
97.32867, 42.32344
97.81078, 41.15296
98.29290, 39.84729
98.77502, 38.30461
99.25713, 36.43349
99.73925, 34.67050
100.2214, 32.85428
100.7035, 31.23689
101.1856, 29.92399
101.6677, 28.91284
102.1498, 28.15496
102.6320, 27.61524
103.1141, 27.40982
103.5962, 27.14199
104.0783, 26.84026
104.5604, 26.46348
105.0425, 25.91487
105.5247, 25.12559
106.0068, 24.29223
106.4889, 23.79546
106.9710, 23.67190
107.4531, 23.52502
107.9352, 23.14571
108.4173, 22.57378
108.8995, 22.02495
109.3816, 21.56528
109.8637, 21.17253
110.3458, 20.80189
110.8279, 20.43376
111.3100, 20.13668
111.7922, 20.02313
112.2743, 20.15938
112.7564, 20.26819
113.2385, 20.24108
113.7206, 20.16571
114.2027, 20.11881
114.6849, 20.13777
115.1670, 20.19851
115.6491, 20.21952
116.1312, 20.23183
116.6133, 20.15391
117.0954, 19.89478
117.5776, 19.54819
118.0597, 19.25110
118.5418, 19.09992
119.0239, 19.09650
119.5060, 19.09977
119.9881, 19.07750
120.4703, 19.08832
120.9524, 19.17289
121.4345, 19.32090
121.9166, 19.49323
122.3987, 19.68345
122.8808, 19.89749
123.3630, 19.88970
123.8451, 19.40963
124.3272, 18.83454
124.8093, 18.58009
125.2914, 18.74523
125.7735, 19.01265
126.2557, 19.00084
126.7378, 18.76919
127.2199, 18.54089
127.7020, 18.39321
128.1841, 18.31326
128.6662, 18.25947
129.1483, 18.21015
129.6305, 18.21325
130.1126, 18.35658
130.5947, 18.61820
131.0768, 18.80652
131.5589, 18.69940
132.0410, 18.24729
132.5232, 17.90640
133.0053, 17.88142
133.4874, 17.88261
133.9695, 17.73427
134.4516, 17.41258
134.9337, 17.05251
135.4159, 16.86355
135.8980, 16.93967
136.3801, 17.02450
136.8622, 17.14009
137.3443, 17.23903
137.8264, 17.26845
138.3086, 17.21038
138.7907, 17.10219
139.2728, 17.04784
139.7549, 17.20131
140.2370, 17.23007
140.7191, 17.00749
141.2013, 16.66096
141.6834, 16.37750
142.1655, 16.25811
142.6476, 16.27161
143.1297, 16.27929
143.6118, 16.27565
144.0939, 16.27337
144.5761, 16.28156
145.0582, 16.29733
145.5403, 16.30761
146.0224, 16.30527
146.5045, 16.29026
146.9866, 16.26944
147.4688, 16.26167
147.9509, 16.23269
148.4330, 16.13423
148.9151, 15.95409
149.3972, 15.77972
149.8793, 15.64603
150.3615, 15.55266
150.8436, 15.51241
151.3257, 15.54957
151.8078, 15.63319
152.2899, 15.69105
152.7720, 15.70737
153.2542, 15.72567
153.7363, 15.76446
154.2184, 15.81639
154.7005, 15.87584
155.1826, 15.95236
155.6647, 16.03767
156.1469, 16.04075
156.6290, 15.84491
157.1111, 15.67630
157.5932, 15.58472
158.0753, 15.56695
158.5574, 15.61130
159.0396, 15.72074
159.5217, 15.91213
160.0038, 16.00838
160.4859, 15.93960
160.9680, 15.85332
161.4501, 15.80977
161.9323, 15.80934
162.4144, 15.81857
162.8965, 15.80460
163.3786, 15.76312
163.8607, 15.70762
164.3428, 15.61298
164.8250, 15.52272
165.3071, 15.46096
165.7892, 15.43279
166.2713, 15.44476
166.7534, 15.52053
167.2355, 15.67327
167.7177, 15.78944
168.1998, 15.86445
168.6819, 15.89443
169.1640, 15.85061
169.6461, 15.70770
170.1282, 15.56365
170.6104, 15.57214
171.0925, 15.71354
171.5746, 15.81900
172.0567, 15.76153
172.5388, 15.61034
173.0209, 15.58897
173.5031, 15.82372
173.9852, 16.07712
174.4673, 16.12486
174.9494, 15.98548
175.4315, 15.83288
175.9136, 15.80097
176.3958, 15.88491
176.8779, 15.94356
177.3600, 15.93161
177.8421, 15.91012
178.3242, 15.90726
178.8063, 15.92649
179.2885, 15.96544
179.7706, 16.03109
180.2527, 16.13571
180.7348, 16.21311
181.2169, 16.24439
181.6990, 16.25902
182.1812, 16.24339
182.6633, 16.20834
183.1454, 16.20711
183.6275, 16.32695
184.1096, 16.65095
184.5917, 16.92342
185.0738, 17.11760
185.5560, 17.28692
186.0381, 17.47493
186.5202, 17.68988
187.0023, 17.89904
187.4844, 18.03874
187.9665, 17.97889
188.4487, 18.06748
188.9308, 18.38715
189.4129, 18.80572
189.8950, 19.20852
190.3771, 19.55548
190.8592, 19.87567
191.3414, 20.22779
191.8235, 20.65802
192.3056, 21.03001
192.7877, 21.29724
193.2698, 21.50540
193.7519, 21.70217
194.2341, 21.89673
194.7162, 22.11467
195.1983, 22.41182
195.6804, 22.76962
196.1625, 23.21191
196.6446, 23.79452
197.1268, 24.46853
197.6089, 25.10313
198.0910, 25.60798
198.5731, 26.13552
199.0552, 26.91815
199.5373, 27.97209
200.0195, 29.13194
200.5016, 30.27778
200.9837, 31.44483
201.4658, 32.78556
201.9479, 34.31066
202.4300, 36.10996
202.9122, 38.16491
203.3943, 40.47931
203.8764, 43.10111
204.3585, 45.99190
204.8406, 49.15736
205.3227, 52.87307
205.8048, 57.21712
206.2870, 62.19831
206.7691, 67.85927
207.2512, 74.19011
207.7333, 80.97562
208.2154, 88.41056
208.6975, 96.86416
209.1797, 103.7480
209.6618, 109.4073
210.1439, 112.7575
210.6260, 112.8534
211.1081, 109.5814
211.5902, 103.6342
212.0724, 95.34077
212.5545, 83.67787
213.0366, 72.92447
213.5187, 63.08370
214.0008, 54.37020
214.4829, 46.93436
214.9651, 40.82572
215.4472, 35.87616
215.9293, 31.94688
216.4114, 29.40298
216.8935, 27.23141
217.3756, 25.42386
217.8578, 23.89164
218.3399, 22.57212
218.8220, 21.45421
219.3041, 20.54487
219.7862, 19.87736
220.2683, 19.59209
220.7505, 19.30334
221.2326, 19.03187
221.7147, 18.74405
222.1968, 18.39676
222.6789, 17.98563
223.1610, 17.56073
223.6432, 17.19410
224.1253, 16.89875
224.6074, 16.65281
225.0895, 16.46860
225.5716, 16.32531
226.0537, 16.21430
226.5358, 16.13164
227.0180, 16.06053
227.5001, 15.97644
227.9822, 15.87158
228.4643, 15.78037
228.9464, 15.70340
229.4285, 15.64183
229.9107, 15.60109
230.3928, 15.58277
230.8749, 15.57644
231.3570, 15.57503
231.8391, 15.58129
232.3212, 15.56647
232.8034, 15.48355
233.2855, 15.39351
233.7676, 15.39447
234.2497, 15.51736
234.7318, 15.65197
235.2139, 15.66518
235.6961, 15.57260
236.1782, 15.46276
236.6603, 15.31580
237.1424, 15.17726
237.6245, 15.12980
238.1066, 15.20239
238.5888, 15.30223
239.0709, 15.32657
239.5530, 15.30164
240.0351, 15.31659
240.5172, 15.43809
240.9993, 15.61188
241.4815, 15.72977
241.9636, 15.77075
242.4457, 15.79429
242.9278, 15.85822
243.4099, 15.93920
243.8920, 15.98420
244.3742, 15.94621
244.8563, 15.86071
245.3384, 15.82343
245.8205, 15.87667
246.3026, 15.88009
246.7847, 15.68321
247.2668, 15.39784
247.7490, 15.21127
248.2311, 15.25154
248.7132, 15.42402
249.1953, 15.48844
249.6774, 15.38906
250.1595, 15.29199
250.6417, 15.29844
251.1238, 15.34085
251.6059, 15.32626
252.0880, 15.19793
252.5701, 15.00542
253.0522, 14.86584
253.5344, 14.77785
254.0165, 14.75455
254.4986, 14.87523
254.9807, 15.02332
255.4628, 15.05312
255.9449, 14.88680
256.4271, 14.62304
256.9092, 14.49240
257.3913, 14.54710
257.8734, 14.64796
258.3555, 14.80545
258.8376, 14.96712
259.3198, 15.08506
259.8019, 15.14001
260.2840, 15.14755
260.7661, 15.12866
261.2482, 15.02934
261.7303, 15.01298
262.2125, 15.15674
262.6946, 15.34199
263.1767, 15.46630
263.6588, 15.49892
264.1409, 15.48603
264.6230, 15.51797
265.1052, 15.66215
265.5873, 15.71319
266.0694, 15.56710
266.5515, 15.40257
267.0336, 15.36900
267.5157, 15.49140
267.9979, 15.66753
268.4800, 15.73698
268.9621, 15.60779
269.4442, 15.57364
269.9263, 15.73032
270.4084, 15.89285
270.8906, 15.91033
271.3727, 15.78068
271.8548, 15.64108
272.3369, 15.67445
272.8190, 15.97928
273.3011, 16.12319
273.7833, 16.01163
274.2654, 15.85228
274.7475, 15.72044
275.2296, 15.64314
275.7117, 15.65293
276.1938, 15.79938
276.6760, 16.12536
277.1581, 16.31954
277.6402, 16.33829
278.1223, 16.30030
278.6044, 16.21310
279.0865, 16.10851
279.5686, 16.05575
280.0508, 16.11294
280.5329, 16.28155
281.0150, 16.47671
281.4971, 16.73985
281.9792, 16.98275
282.4613, 17.20599
282.9435, 17.38487
283.4256, 17.44764
283.9077, 17.32611
284.3898, 17.05865
284.8719, 17.00350
285.3540, 17.30194
285.8362, 17.61631
286.3183, 17.92752
286.8004, 18.18742
287.2825, 18.28315
287.7646, 18.13508
288.2467, 17.84788
288.7289, 17.79513
289.2110, 18.19927
289.6931, 18.54300
290.1752, 18.73784
290.6573, 18.82801
291.1394, 18.84778
291.6216, 18.80488
292.1037, 18.75372
292.5858, 18.80844
293.0679, 18.98291
293.5500, 19.23733
294.0321, 19.62965
294.5143, 20.07416
294.9964, 20.47916
295.4785, 20.82154
295.9606, 21.12177
296.4427, 21.39750
296.9248, 21.61625
297.4070, 21.92420
297.8891, 22.30626
298.3712, 22.79158
298.8533, 23.47618
299.3354, 24.35189
299.8175, 25.19897
300.2997, 25.74206
300.7818, 25.90023
301.2639, 26.42679
301.7460, 27.48150
302.2281, 28.76318
302.7102, 30.07871
303.1924, 31.42305
303.6745, 32.91050
304.1566, 34.63765
304.6387, 36.61034
305.1208, 38.72309
305.6029, 40.95170
306.0851, 43.33378
306.5672, 46.01253
307.0493, 48.88818
307.5314, 51.62603
308.0135, 53.98655
308.4956, 56.10575
308.9778, 58.54676
309.4599, 61.47151
309.9420, 64.45098
310.4241, 67.14478
310.9062, 69.81010
311.3883, 72.89420
311.8705, 76.55474
312.3526, 80.76147
312.8347, 85.43228
313.3168, 90.42780
313.7989, 96.10129
314.2810, 102.4005
314.7632, 109.4542
315.2453, 117.4841
315.7274, 126.5294
316.2095, 136.5072
316.6916, 147.2647
317.1737, 158.6470
317.6559, 171.9372
318.1380, 187.0665
318.6201, 204.2601
319.1022, 223.6058
319.5843, 245.2144
320.0664, 269.1989
320.5485, 295.7981
321.0306, 325.2086
321.5128, 356.6945
321.9949, 392.2150
322.4770, 428.2295
322.9591, 464.6522
323.4412, 500.2358
323.9233, 531.6071
324.4055, 557.2316
324.8876, 576.2040
325.3697, 583.1162
325.8518, 578.8274
326.3339, 564.0056
326.8160, 535.5618
327.2982, 496.8499
327.7803, 453.6955
328.2624, 407.9193
328.7445, 361.2962
329.2266, 318.4030
329.7087, 278.5232
330.1909, 242.7941
330.6730, 211.9059
331.1551, 185.2729
331.6372, 162.4340
332.1193, 143.2706
332.6014, 127.1923
333.0836, 113.4518
333.5657, 102.6076
334.0478, 93.02524
334.5299, 84.88107
335.0120, 77.89492
335.4941, 71.97701
335.9763, 67.08758
336.4584, 62.86996
336.9405, 59.07744
337.4226, 55.73421
337.9047, 52.60188
338.3868, 49.55758
338.8690, 46.77558
339.3511, 44.36822
339.8332, 42.29358
340.3153, 40.47384
340.7974, 38.88552
341.2795, 37.48862
341.7617, 36.04914
342.2438, 34.40162
342.7259, 32.91412
343.2080, 31.73722
343.6901, 30.75336
344.1722, 29.77993
344.6544, 28.74312
345.1365, 27.72726
345.6186, 26.91633
346.1007, 26.51507
346.5828, 26.01775
347.0649, 25.33848
347.5471, 24.61475
348.0292, 23.93773
348.5113, 23.34033
348.9934, 22.84378
349.4755, 22.50173
349.9576, 22.38349
350.4398, 22.11920
350.9219, 21.61399
351.4040, 21.07368
351.8861, 20.58476
352.3682, 20.15727
352.8503, 19.77270
353.3325, 19.41744
353.8146, 19.09417
354.2967, 18.84097
354.7788, 18.73179
355.2609, 18.60826
355.7430, 18.41651
356.2252, 18.19616
356.7073, 18.01036
357.1894, 17.89009
357.6715, 17.80382
358.1536, 17.66502
358.6357, 17.37243
359.1179, 17.18731
359.5999, 17.23455
360.0821, 17.31105
360.5642, 17.24150
361.0463, 16.99732
361.5284, 16.68458
362.0105, 16.43366
362.4926, 16.26432
362.9748, 16.08121
363.4569, 15.82858
363.9390, 15.61495
364.4211, 15.51612
364.9032, 15.50031
365.3853, 15.47959
365.8675, 15.38456
366.3496, 15.22452
366.8317, 15.09010
367.3138, 15.01699
367.7959, 14.92410
368.2780, 14.75045
368.7602, 14.56342
369.2423, 14.45814
369.7244, 14.47892
370.2065, 14.55804
370.6886, 14.56309
371.1707, 14.47479
371.6529, 14.35718
372.1350, 14.18082
372.6171, 14.00745
373.0992, 13.85797
373.5813, 13.74451
374.0634, 13.69448
374.5456, 13.81309
375.0277, 14.11976
375.5098, 14.15615
375.9919, 13.63006
376.4740, 13.13507
376.9561, 12.96510
377.4383, 13.03552
377.9204, 13.13963
378.4025, 13.17111
378.8846, 13.14858
379.3667, 13.12685
379.8488, 13.11689
380.3310, 13.07830
380.8131, 12.98049
381.2952, 12.85289
381.7773, 12.70662
382.2594, 12.53147
382.7415, 12.39876
383.2237, 12.44240
383.7058, 12.66075
384.1879, 12.74538
384.6700, 12.53087
385.1521, 12.24882
385.6342, 12.10556
386.1164, 12.09687
386.5985, 12.12237
387.0806, 12.13987
387.5627, 12.15091
388.0448, 12.17142
388.5269, 12.21838
389.0091, 12.22099
389.4912, 12.07971
389.9733, 11.85436
390.4554, 11.67289
390.9375, 11.52550
391.4196, 11.46386
391.9018, 11.62826
392.3839, 11.98185
392.8660, 12.15870
393.3481, 11.92296
393.8302, 11.48740
394.3123, 11.28579
394.7945, 11.38327
395.2766, 11.47391
395.7587, 11.42163
396.2408, 11.28897
396.7229, 11.17787
397.2050, 11.10972
397.6872, 11.06649
398.1693, 11.03734
398.6514, 11.02474
399.1335, 10.97834
399.6156, 10.84619
400.0977, 10.71905
400.5798, 10.66529
401.0620, 10.67766
401.5441, 10.71340
402.0262, 10.75271
402.5083, 10.78923
402.9904, 10.78794
403.4725, 10.70080
403.9547, 10.64109
404.4368, 10.65367
404.9189, 10.69637
405.4010, 10.71875
405.8831, 10.70478
406.3652, 10.66597
406.8474, 10.61685
407.3295, 10.55047
407.8116, 10.49526
408.2937, 10.47633
408.7758, 10.44559
409.2579, 10.34802
409.7401, 10.20922
410.2222, 10.11873
410.7043, 10.15467
411.1864, 10.29139
411.6685, 10.29871
412.1506, 9.911122
412.6328, 9.726808
413.1149, 9.938594
413.5970, 10.34687
414.0791, 10.78311
414.5612, 11.17925
415.0433, 11.46741
415.5255, 11.52414
416.0076, 11.29510
416.4897, 11.02042
416.9718, 10.60909
417.4539, 10.24581
417.9360, 10.03470
418.4182, 9.955364
418.9003, 9.921363
419.3824, 9.880029
419.8645, 9.832114
420.3466, 9.780857
420.8287, 9.729092
421.3109, 9.668042
421.7930, 9.565586
422.2751, 9.464496
422.7572, 9.422153
423.2393, 9.462172
423.7214, 9.524962
424.2036, 9.551528
424.6857, 9.542532
425.1678, 9.511851
425.6499, 9.433611
426.1320, 9.372360
426.6141, 9.415281
427.0963, 9.544879
427.5784, 9.619930
428.0605, 9.561138
428.5426, 9.420137
429.0247, 9.234953
429.5068, 8.997712
429.9890, 8.868047
430.4711, 9.005801
430.9532, 9.317939
431.4353, 9.485455
431.9174, 9.427387
432.3995, 9.343652
432.8817, 9.352973
433.3638, 9.406900
433.8459, 9.388912
434.3280, 9.255402
434.8101, 9.090405
435.2922, 9.011136
435.7744, 9.039960
436.2565, 9.074653
436.7386, 9.125431
437.2207, 9.170229
437.7028, 9.198882
438.1849, 9.208179
438.6671, 9.186920
439.1492, 9.121421
439.6313, 9.025657
440.1134, 8.983838
440.5955, 9.077909
441.0776, 9.124883
441.5598, 9.059649
442.0418, 8.960996
442.5240, 8.908868
443.0061, 8.924235
443.4882, 8.976307
443.9703, 9.029629
444.4524, 9.088306
444.9345, 9.129683
445.4167, 9.123654
445.8988, 9.129962
446.3809, 9.206417
446.8630, 9.307241
447.3451, 9.333009
447.8272, 9.210699
448.3094, 9.018732
448.7915, 8.975368
449.2736, 9.154716
449.7557, 9.270321
450.2378, 9.179746
450.7199, 9.048293
451.2021, 8.986164
451.6842, 9.006819
452.1663, 9.065814
452.6484, 9.173869
453.1305, 9.301560
453.6126, 9.277564
454.0948, 9.003592
454.5769, 8.790068
455.0590, 8.955585
455.5411, 9.314210
456.0232, 9.541128
456.5053, 9.517629
456.9875, 9.407694
457.4696, 9.334302
457.9517, 9.289963
458.4338, 9.233663
458.9159, 9.142444
459.3980, 9.052048
459.8802, 9.018102
460.3623, 9.039287
460.8444, 9.089805
461.3265, 9.235581
461.8086, 9.360593
462.2907, 9.307978
462.7729, 9.104714
463.2550, 8.963108
463.7371, 9.042101
464.2192, 9.293496
464.7013, 9.440406
465.1834, 9.407119
465.6656, 9.373878
466.1477, 9.368451
466.6298, 9.374254
467.1119, 9.359716
467.5940, 9.323403
468.0761, 9.311544
468.5583, 9.388715
469.0404, 9.577661
469.5225, 9.712307
470.0046, 9.785664
470.4867, 9.809931
470.9688, 9.725680
471.4510, 9.607108
471.9331, 9.575356
472.4152, 9.692102
472.8973, 9.893460
473.3794, 10.07179
473.8615, 10.23399
474.3437, 10.34249
474.8258, 10.35503
475.3079, 10.33668
475.7900, 10.31788
476.2721, 10.30250
476.7542, 10.29346
477.2364, 10.27884
477.7185, 10.27469
478.2006, 10.33624
478.6827, 10.47952
479.1648, 10.59057
479.6469, 10.59324
480.1291, 10.53298
480.6112, 10.49308
481.0933, 10.47963
481.5754, 10.47923
482.0575, 10.50229
482.5396, 10.52997
483.0217, 10.50996
483.5038, 10.42860
483.9860, 10.36873
484.4681, 10.42159
484.9502, 10.59265
485.4323, 10.70999
485.9144, 10.73349
486.3965, 10.74927
486.8787, 10.81958
487.3608, 10.90319
487.8429, 10.90303
488.3250, 10.78057
488.8071, 10.62481
489.2892, 10.59919
489.7714, 10.76890
490.2535, 10.91202
490.7356, 11.01456
491.2177, 11.10798
491.6998, 11.23647
492.1819, 11.36923
492.6641, 11.42270
493.1462, 11.33041
493.6283, 11.15282
494.1104, 11.06462
494.5925, 11.08014
495.0746, 11.14693
495.5568, 11.32232
496.0389, 11.49628
496.5210, 11.59113
497.0031, 11.60188
497.4852, 11.57357
497.9673, 11.50797
498.4495, 11.42906
498.9316, 11.40808
499.4137, 11.45483
499.8958, 11.52643
500.3779, 11.62256
500.8600, 11.71940
501.3422, 11.76697
501.8243, 11.74460
502.3064, 11.71308
502.7885, 11.69122
503.2706, 11.68351
503.7527, 11.70057
504.2349, 11.74491
504.7170, 11.80671
505.1991, 11.88863
505.6812, 11.99440
506.1633, 12.01307
506.6454, 11.85125
507.1276, 11.71609
507.6097, 11.73718
508.0918, 11.81883
508.5739, 11.78067
509.0560, 11.56159
509.5381, 11.30832
510.0203, 11.28084
510.5024, 11.59420
510.9845, 11.73832
511.4666, 11.52872
511.9487, 11.33200
512.4308, 11.31800
512.9130, 11.41934
513.3951, 11.48527
513.8772, 11.43541
514.3593, 11.32520
514.8414, 11.24710
515.3235, 11.20065
515.8057, 11.18804
516.2878, 11.21535
516.7699, 11.27406
517.2520, 11.39477
517.7341, 11.55770
518.2162, 11.62797
518.6984, 11.47587
519.1805, 11.24211
519.6626, 11.11234
520.1447, 11.08266
520.6268, 11.04854
521.1089, 10.95294
521.5911, 10.83168
522.0732, 10.77419
522.5553, 10.80070
523.0374, 10.81705
523.5195, 10.83220
524.0016, 10.81396
524.4838, 10.70347
524.9659, 10.52051
525.4480, 10.36342
525.9301, 10.30797
526.4122, 10.33160
526.8943, 10.31260
527.3765, 10.14163
527.8586, 10.09088
528.3407, 10.31658
528.8228, 10.57204
529.3049, 10.65349
529.7870, 10.54390
530.2692, 10.35867
530.7513, 10.17118
531.2334, 9.992014
531.7155, 9.887800
532.1976, 9.879092
532.6797, 9.898664
533.1619, 9.967755
533.6440, 10.02663
534.1261, 9.992924
534.6082, 9.841060
535.0903, 9.706221
535.5724, 9.719519
536.0546, 9.803620
536.5367, 9.771944
537.0188, 9.593301
537.5009, 9.417318
537.9830, 9.352774
538.4651, 9.385275
538.9473, 9.420842
539.4294, 9.494864
539.9115, 9.527655
540.3936, 9.476171
540.8757, 9.381165
541.3578, 9.280666
541.8400, 9.187739
542.3221, 9.116642
542.8042, 9.085770
543.2863, 9.095921
543.7684, 9.096756
544.2505, 9.098853
544.7326, 9.077083
545.2147, 8.986446
545.6968, 8.889923
546.1790, 8.874906
546.6611, 8.957431
547.1432, 9.042027
547.6253, 8.994651
548.1074, 8.833381
548.5895, 8.792841
549.0717, 8.959994
549.5538, 9.080370
550.0359, 8.943765
550.5180, 8.677279
551.0001, 8.452425
551.4822, 8.279751
551.9644, 8.194489
552.4465, 8.282166
552.9286, 8.460617
553.4107, 8.568449
553.8928, 8.574492
554.3749, 8.500267
554.8571, 8.336384
555.3392, 8.088717
555.8213, 7.984982
556.3034, 8.174824
556.7855, 8.303977
557.2676, 8.223441
557.7498, 8.060918
558.2319, 7.971991
558.7140, 7.990833
559.1961, 8.044153
559.6782, 8.049461
560.1603, 8.005870
560.6425, 7.995367
561.1246, 8.066419
561.6067, 8.098035
562.0888, 8.026219
562.5709, 7.913587
563.0530, 7.829329
563.5352, 7.790444
564.0173, 7.769080
564.4994, 7.757905
564.9815, 7.745918
565.4636, 7.676211
565.9457, 7.523998
566.4279, 7.418202
566.9100, 7.468911
567.3921, 7.632594
567.8742, 7.741569
568.3563, 7.769991
568.8384, 7.787481
569.3206, 7.842075
569.8027, 7.886217
570.2848, 7.845845
570.7669, 7.719714
571.2490, 7.579503
571.7311, 7.485828
572.2133, 7.436296
572.6954, 7.408814
573.1775, 7.411432
573.6596, 7.426809
574.1417, 7.468081
574.6238, 7.510368
575.1060, 7.541067
575.5881, 7.553868
576.0702, 7.534084
576.5523, 7.456159
577.0344, 7.337027
577.5165, 7.229181
577.9987, 7.122789
578.4808, 7.074987
578.9629, 7.157579
579.4450, 7.281662
579.9271, 7.314788
580.4092, 7.240988
580.8914, 7.176390
581.3735, 7.184400
581.8556, 7.211394
582.3377, 7.185015
582.8198, 7.112621
583.3019, 7.065289
583.7841, 7.087837
584.2662, 7.153333
584.7483, 7.187994
585.2304, 7.178542
585.7125, 7.157659
586.1946, 7.084048
586.6768, 7.035798
587.1589, 7.089020
587.6410, 7.209595
