##NAMES=Magnesio-hastingsite
##RRUFFID=R040010
##IDEAL CHEMISTRY=NaCa_2_(Mg_4_Fe^3+^)Si_6_Al_2_O_22_(OH)_2_
##LOCALITY=Amity, New York, USA
##OWNER=RRUFF
##SOURCE=University of Arizona Mineral Museum
##DESCRIPTION=Group of black prismatic crystals
##STATUS=The identification of this mineral has been confirmed by X-ray diffraction and chemical analysis
##URL=rruff.info/R040010
##MEASURED CHEMISTRY=(Na_0.50_K_0.43_[box]_0.07_)_Σ=1_(Ca_1.77_Na_0.23_)_Σ=2_(Mg_1.74_Fe_1.22_Fe^3+^_0.79_Mn_0.57_Al_0.30_Zn_0.25_Ti_0.13_)_Σ=5_(Si_5.95_Al_2.05_)_Σ=8_O_22_((OH)_1.75_F_0.22_Cl_0.03_)_Σ=2_; OH estimated by charge balance
161.0617, 3279.727
161.5438, 3281.751
162.0259, 3296.167
162.5080, 3314.877
162.9902, 3326.340
163.4723, 3326.072
163.9544, 3328.484
164.4365, 3336.787
164.9186, 3346.680
165.4007, 3351.812
165.8829, 3350.554
166.3650, 3350.197
166.8471, 3362.948
167.3292, 3395.144
167.8113, 3423.198
168.2934, 3443.739
168.7756, 3459.577
169.2577, 3474.213
169.7398, 3488.766
170.2219, 3501.019
170.7040, 3507.533
171.1861, 3508.932
171.6683, 3503.739
172.1504, 3485.039
172.6325, 3461.738
173.1146, 3445.105
173.5967, 3438.232
174.0788, 3438.733
174.5610, 3445.085
175.0431, 3459.634
175.5252, 3470.076
176.0073, 3472.375
176.4894, 3469.472
176.9715, 3464.060
177.4537, 3455.851
177.9358, 3449.291
178.4179, 3453.865
178.9000, 3471.804
179.3821, 3486.218
179.8642, 3488.721
180.3464, 3485.903
180.8285, 3489.235
181.3106, 3502.606
181.7927, 3520.041
182.2748, 3533.506
182.7569, 3543.976
183.2391, 3549.097
183.7212, 3545.465
184.2033, 3536.489
184.6854, 3527.476
185.1675, 3519.416
185.6496, 3512.692
186.1318, 3508.397
186.6139, 3506.510
187.0960, 3505.221
187.5781, 3501.006
188.0602, 3497.534
188.5423, 3505.886
189.0245, 3533.926
189.5066, 3560.159
189.9887, 3544.560
190.4708, 3485.326
190.9529, 3441.436
191.4350, 3445.452
191.9172, 3475.072
192.3993, 3487.248
192.8814, 3467.738
193.3635, 3441.614
193.8456, 3445.120
194.3277, 3477.466
194.8099, 3507.160
195.2920, 3527.621
195.7741, 3538.419
196.2562, 3535.558
196.7383, 3514.642
197.2204, 3490.359
197.7026, 3480.626
198.1847, 3483.978
198.6668, 3493.290
199.1489, 3510.907
199.6310, 3532.146
200.1131, 3549.067
200.5953, 3559.684
201.0774, 3567.415
201.5595, 3575.966
202.0416, 3585.304
202.5237, 3592.975
203.0058, 3594.395
203.4880, 3594.808
203.9701, 3602.722
204.4522, 3620.007
204.9343, 3642.505
205.4164, 3667.343
205.8985, 3694.188
206.3807, 3720.836
206.8628, 3748.163
207.3449, 3774.544
207.8270, 3797.503
208.3091, 3816.462
208.7912, 3833.156
209.2734, 3843.557
209.7555, 3849.863
210.2376, 3872.441
210.7197, 3931.185
211.2018, 4001.666
211.6839, 4049.360
212.1660, 4068.615
212.6482, 4087.741
213.1303, 4136.900
213.6124, 4210.636
214.0945, 4271.898
214.5766, 4301.783
215.0587, 4323.854
215.5409, 4363.368
216.0230, 4422.452
216.5051, 4487.657
216.9872, 4548.497
217.4693, 4606.242
217.9514, 4668.685
218.4336, 4743.909
218.9157, 4819.233
219.3978, 4884.716
219.8799, 4939.950
220.3620, 4985.750
220.8441, 5020.734
221.3263, 5045.671
221.8084, 5069.496
222.2905, 5095.489
222.7726, 5118.033
223.2547, 5136.565
223.7368, 5150.041
224.2190, 5149.465
224.7011, 5125.123
225.1832, 5081.597
225.6653, 5044.860
226.1474, 5029.441
226.6295, 5007.567
227.1117, 4957.170
227.5938, 4884.037
228.0759, 4813.624
228.5580, 4761.335
229.0401, 4721.271
229.5222, 4671.968
230.0044, 4602.085
230.4865, 4536.848
230.9686, 4493.147
231.4507, 4463.757
231.9328, 4426.630
232.4149, 4368.715
232.8971, 4300.377
233.3792, 4251.593
233.8613, 4232.457
234.3434, 4212.573
234.8255, 4182.127
235.3076, 4144.474
235.7898, 4103.040
236.2719, 4057.087
236.7540, 4014.027
237.2361, 3992.353
237.7182, 4003.941
238.2003, 4009.100
238.6825, 3993.484
239.1646, 3968.997
239.6467, 3953.800
240.1288, 3953.985
240.6109, 3958.926
241.0930, 3950.506
241.5752, 3921.941
242.0573, 3896.161
242.5394, 3872.599
243.0215, 3853.673
243.5036, 3842.330
243.9857, 3839.134
244.4679, 3842.094
244.9500, 3850.584
245.4321, 3872.010
245.9142, 3874.747
246.3963, 3839.076
246.8784, 3798.814
247.3606, 3779.825
247.8427, 3784.269
248.3248, 3797.860
248.8069, 3807.121
249.2890, 3811.806
249.7711, 3811.400
250.2533, 3802.142
250.7354, 3791.711
251.2175, 3781.465
251.6996, 3773.136
252.1817, 3771.171
252.6638, 3780.469
253.1460, 3801.599
253.6281, 3814.245
254.1102, 3811.502
254.5923, 3808.501
255.0744, 3812.490
255.5565, 3820.133
256.0387, 3822.925
256.5208, 3814.562
257.0029, 3797.433
257.4850, 3789.180
257.9671, 3803.447
258.4492, 3811.983
258.9314, 3803.396
259.4135, 3788.327
259.8956, 3783.877
260.3777, 3799.162
260.8598, 3824.283
261.3419, 3828.868
261.8241, 3789.525
262.3062, 3763.341
262.7883, 3762.311
263.2704, 3772.666
263.7525, 3783.260
264.2346, 3789.934
264.7168, 3792.945
265.1989, 3791.348
265.6810, 3779.690
266.1631, 3776.374
266.6452, 3791.115
267.1273, 3807.673
267.6095, 3813.430
268.0916, 3807.178
268.5737, 3799.065
269.0558, 3800.949
269.5379, 3814.441
270.0201, 3830.036
270.5022, 3856.258
270.9843, 3877.222
271.4664, 3883.270
271.9485, 3876.276
272.4306, 3866.192
272.9128, 3857.416
273.3949, 3850.448
273.8770, 3858.382
274.3591, 3894.657
274.8412, 3929.065
275.3233, 3945.798
275.8055, 3950.140
276.2876, 3954.313
276.7697, 3964.385
277.2518, 3979.266
277.7339, 3996.926
278.2160, 4019.183
278.6982, 4039.721
279.1803, 4051.045
279.6624, 4059.930
280.1445, 4076.967
280.6266, 4110.203
281.1087, 4146.561
281.5909, 4167.563
282.0730, 4171.858
282.5551, 4173.887
283.0372, 4180.260
283.5193, 4187.008
284.0014, 4188.875
284.4836, 4184.412
284.9657, 4177.752
285.4478, 4167.160
285.9299, 4154.976
286.4120, 4157.192
286.8941, 4185.248
287.3763, 4221.394
287.8584, 4242.549
288.3405, 4249.427
288.8226, 4244.204
289.3047, 4210.609
289.7868, 4168.802
290.2690, 4160.712
290.7511, 4198.718
291.2332, 4251.151
291.7153, 4284.351
292.1974, 4298.183
292.6795, 4304.904
293.1617, 4303.843
293.6438, 4297.651
294.1259, 4286.759
294.6080, 4271.808
295.0901, 4257.132
295.5722, 4245.146
296.0544, 4236.321
296.5365, 4235.461
297.0186, 4250.854
297.5007, 4265.323
297.9828, 4269.305
298.4649, 4265.464
298.9471, 4262.614
299.4292, 4266.473
299.9113, 4273.996
300.3934, 4270.903
300.8755, 4248.213
301.3576, 4226.123
301.8398, 4209.320
302.3219, 4194.108
302.8040, 4173.932
303.2861, 4146.611
303.7682, 4118.700
304.2503, 4102.089
304.7325, 4098.932
305.2146, 4105.292
305.6967, 4137.261
306.1788, 4166.089
306.6609, 4168.347
307.1430, 4143.278
307.6252, 4110.209
308.1073, 4090.981
308.5894, 4088.532
309.0715, 4081.197
309.5536, 4065.651
310.0357, 4047.940
310.5179, 4028.405
311.0000, 4008.244
311.4821, 3989.305
311.9642, 3972.185
312.4463, 3957.398
312.9284, 3948.776
313.4106, 3952.818
313.8927, 3951.680
314.3748, 3936.635
314.8569, 3914.616
315.3390, 3894.560
315.8211, 3880.494
316.3033, 3867.594
316.7854, 3847.272
317.2675, 3818.165
317.7496, 3792.219
318.2317, 3777.514
318.7138, 3764.685
319.1960, 3741.079
319.6781, 3703.404
320.1602, 3674.521
320.6423, 3678.203
321.1244, 3705.964
321.6065, 3722.526
322.0887, 3718.122
322.5708, 3707.097
323.0529, 3705.128
323.5350, 3710.883
324.0171, 3713.909
324.4992, 3714.130
324.9814, 3708.510
325.4635, 3688.959
325.9456, 3654.887
326.4277, 3624.442
326.9098, 3611.909
327.3919, 3616.156
327.8741, 3617.974
328.3562, 3619.117
328.8383, 3616.310
329.3204, 3604.052
329.8025, 3586.450
330.2846, 3573.861
330.7668, 3571.708
331.2489, 3576.515
331.7310, 3578.702
332.2131, 3573.620
332.6952, 3572.265
333.1773, 3584.048
333.6595, 3595.461
334.1415, 3588.645
334.6237, 3561.090
335.1058, 3530.610
335.5879, 3522.641
336.0700, 3549.386
336.5521, 3556.473
337.0342, 3525.170
337.5164, 3494.024
337.9985, 3481.560
338.4806, 3485.311
338.9627, 3493.767
339.4448, 3499.602
339.9269, 3502.478
340.4091, 3499.174
340.8912, 3482.165
341.3733, 3470.157
341.8554, 3469.838
342.3375, 3476.093
342.8196, 3484.062
343.3018, 3492.677
343.7839, 3498.440
344.2660, 3492.852
344.7481, 3473.103
345.2302, 3461.842
345.7123, 3470.307
346.1945, 3485.373
346.6766, 3498.995
347.1587, 3510.476
347.6408, 3514.839
348.1229, 3500.653
348.6050, 3476.702
349.0872, 3471.559
349.5693, 3494.059
350.0514, 3519.388
350.5335, 3524.616
351.0156, 3513.999
351.4977, 3504.216
351.9799, 3494.858
352.4620, 3489.857
352.9441, 3496.162
353.4262, 3511.739
353.9083, 3523.436
354.3904, 3523.165
354.8726, 3514.531
355.3547, 3511.425
355.8368, 3518.799
356.3189, 3523.742
356.8010, 3518.295
357.2831, 3510.780
357.7653, 3514.953
358.2474, 3534.281
358.7295, 3555.652
359.2116, 3559.495
359.6937, 3535.790
360.1758, 3523.815
360.6580, 3529.350
361.1401, 3539.619
361.6222, 3549.101
362.1043, 3557.303
362.5864, 3566.443
363.0685, 3579.719
363.5507, 3595.037
364.0328, 3595.082
364.5149, 3564.041
364.9970, 3540.873
365.4791, 3541.375
365.9612, 3551.022
366.4434, 3551.204
366.9255, 3534.666
367.4076, 3515.861
367.8897, 3516.045
368.3718, 3536.977
368.8539, 3555.945
369.3361, 3568.418
369.8182, 3577.451
370.3003, 3585.584
370.7824, 3592.814
371.2645, 3598.283
371.7466, 3598.670
372.2288, 3597.674
372.7109, 3605.055
373.1930, 3623.113
373.6751, 3636.831
374.1572, 3631.586
374.6393, 3612.761
375.1215, 3604.717
375.6036, 3620.822
376.0857, 3635.669
376.5678, 3630.025
377.0499, 3612.539
377.5320, 3607.662
378.0142, 3627.050
378.4963, 3654.040
378.9784, 3655.881
379.4605, 3611.905
379.9426, 3579.817
380.4247, 3564.928
380.9069, 3558.820
381.3890, 3559.144
381.8711, 3563.150
382.3532, 3563.420
382.8353, 3552.161
383.3174, 3529.379
383.7996, 3513.359
384.2817, 3508.629
384.7638, 3506.177
385.2459, 3507.352
385.7280, 3508.571
386.2101, 3504.554
386.6923, 3492.709
387.1744, 3477.707
387.6565, 3467.243
388.1386, 3461.929
388.6207, 3457.770
389.1028, 3454.430
389.5850, 3451.723
390.0671, 3450.204
390.5492, 3449.642
391.0313, 3447.748
391.5134, 3442.064
391.9955, 3434.314
392.4777, 3428.281
392.9598, 3424.353
393.4419, 3420.812
393.9240, 3413.803
394.4061, 3406.520
394.8882, 3409.808
395.3704, 3437.875
395.8525, 3461.698
396.3346, 3466.408
396.8167, 3455.886
397.2988, 3435.561
397.7809, 3406.321
398.2631, 3375.928
398.7452, 3357.325
399.2273, 3355.827
399.7094, 3355.229
400.1915, 3358.937
400.6736, 3360.766
401.1558, 3354.781
401.6379, 3342.656
402.1200, 3331.302
402.6021, 3325.870
403.0842, 3325.762
403.5663, 3326.378
404.0485, 3331.207
404.5306, 3331.430
405.0127, 3323.002
405.4948, 3310.794
405.9769, 3298.232
406.4590, 3286.291
406.9412, 3278.749
407.4233, 3281.179
407.9054, 3293.435
408.3875, 3307.942
408.8696, 3330.243
409.3517, 3345.012
409.8339, 3336.030
410.3160, 3308.876
410.7981, 3285.182
411.2802, 3270.830
411.7623, 3264.258
412.2444, 3266.738
412.7266, 3277.164
413.2087, 3285.782
413.6908, 3286.362
414.1729, 3283.061
414.6550, 3288.410
415.1371, 3308.101
415.6193, 3323.851
416.1014, 3331.203
416.5835, 3333.403
417.0656, 3331.545
417.5477, 3326.889
418.0298, 3324.306
418.5120, 3329.103
418.9941, 3341.898
419.4762, 3353.371
419.9583, 3363.861
420.4404, 3372.643
420.9225, 3379.574
421.4047, 3384.706
421.8868, 3387.806
422.3689, 3388.674
422.8510, 3388.580
423.3331, 3389.677
423.8152, 3392.205
424.2974, 3394.482
424.7795, 3398.165
425.2616, 3399.417
425.7437, 3393.147
426.2258, 3380.862
426.7079, 3372.392
427.1901, 3371.811
427.6722, 3378.123
428.1543, 3394.504
428.6364, 3420.889
429.1185, 3439.266
429.6006, 3438.500
430.0828, 3422.965
430.5649, 3406.172
431.0470, 3382.129
431.5291, 3366.866
432.0112, 3373.597
432.4933, 3387.308
432.9755, 3389.458
433.4576, 3376.724
433.9397, 3358.442
434.4218, 3344.213
434.9039, 3334.544
435.3860, 3324.185
435.8682, 3309.453
436.3503, 3298.041
436.8324, 3294.312
437.3145, 3294.617
437.7966, 3294.124
438.2787, 3290.923
438.7609, 3284.882
439.2430, 3274.427
439.7251, 3258.670
440.2072, 3245.667
440.6893, 3236.298
441.1714, 3230.680
441.6536, 3231.587
442.1357, 3237.177
442.6178, 3237.373
443.0999, 3225.282
443.5820, 3206.950
444.0641, 3186.271
444.5463, 3164.083
445.0284, 3152.114
445.5105, 3159.588
445.9926, 3177.993
446.4747, 3183.366
446.9568, 3168.760
447.4390, 3157.178
447.9211, 3154.311
448.4032, 3155.000
448.8853, 3155.574
449.3674, 3154.941
449.8495, 3151.911
450.3317, 3144.963
450.8138, 3134.341
451.2959, 3126.350
451.7780, 3123.221
452.2601, 3120.025
452.7422, 3116.385
453.2244, 3111.874
453.7065, 3104.813
454.1886, 3094.703
454.6707, 3086.492
455.1528, 3089.808
455.6349, 3102.776
456.1171, 3102.311
456.5992, 3079.563
457.0813, 3054.761
457.5634, 3043.430
458.0455, 3042.516
458.5276, 3044.768
459.0098, 3051.236
459.4919, 3058.059
459.9740, 3064.554
460.4561, 3069.342
460.9382, 3067.918
461.4203, 3058.252
461.9025, 3044.041
462.3846, 3030.809
462.8667, 3018.070
463.3488, 3008.016
463.8309, 2996.269
464.3130, 2991.016
464.7952, 3000.970
465.2773, 3021.176
465.7594, 3040.639
466.2415, 3053.590
466.7236, 3059.334
467.2057, 3054.188
467.6879, 3033.928
468.1700, 3016.272
468.6521, 3002.196
469.1342, 2994.530
469.6163, 3000.567
470.0984, 3018.550
470.5806, 3029.250
471.0627, 3015.644
471.5448, 2990.680
472.0269, 2974.426
472.5090, 2967.599
472.9911, 2967.573
473.4733, 2976.123
473.9554, 2988.471
474.4375, 2988.584
474.9196, 2967.394
475.4017, 2952.488
475.8839, 2952.235
476.3660, 2958.258
476.8481, 2963.218
477.3302, 2965.977
477.8123, 2968.580
478.2944, 2972.940
478.7766, 2978.881
479.2587, 2983.917
479.7408, 2990.907
480.2229, 2992.319
480.7050, 2980.333
481.1871, 2966.027
481.6693, 2961.545
482.1514, 2969.449
482.6335, 2979.953
483.1156, 2984.967
483.5977, 2985.658
484.0798, 2986.670
484.5620, 2989.046
485.0441, 2988.688
485.5262, 2980.012
486.0083, 2966.083
486.4904, 2960.226
486.9725, 2968.459
487.4547, 2977.585
487.9368, 2984.682
488.4189, 2988.864
488.9010, 2985.694
489.3831, 2975.126
489.8652, 2967.510
490.3474, 2975.689
490.8295, 3001.331
491.3116, 3021.160
491.7937, 3034.518
492.2758, 3042.078
492.7579, 3041.255
493.2401, 3035.789
493.7222, 3028.779
494.2043, 3020.956
494.6864, 3016.983
495.1685, 3025.797
495.6506, 3045.096
496.1328, 3055.262
496.6149, 3050.377
497.0970, 3044.881
497.5791, 3052.064
498.0612, 3068.577
498.5433, 3080.567
499.0254, 3083.511
499.5075, 3085.128
499.9897, 3088.039
500.4718, 3092.553
500.9539, 3099.830
501.4360, 3110.075
501.9181, 3120.990
502.4002, 3129.608
502.8824, 3135.621
503.3645, 3141.353
503.8466, 3152.285
504.3287, 3156.865
504.8108, 3144.348
505.2929, 3125.866
505.7751, 3116.764
506.2572, 3122.643
506.7393, 3138.116
507.2214, 3160.866
507.7035, 3189.580
508.1856, 3210.891
508.6678, 3221.637
509.1499, 3227.873
509.6320, 3234.719
510.1141, 3241.211
510.5962, 3242.862
511.0783, 3225.956
511.5605, 3218.340
512.0426, 3243.060
512.5247, 3283.313
513.0068, 3308.411
513.4890, 3310.240
513.9711, 3308.000
514.4532, 3327.141
514.9353, 3372.402
515.4174, 3402.523
515.8995, 3407.706
516.3817, 3407.900
516.8638, 3402.965
517.3459, 3398.251
517.8280, 3400.183
518.3101, 3410.776
518.7922, 3428.166
519.2744, 3454.837
519.7565, 3487.743
520.2386, 3512.649
520.7207, 3526.639
521.2028, 3536.020
521.6849, 3543.236
522.1671, 3549.455
522.6492, 3561.272
523.1313, 3586.059
523.6134, 3607.690
524.0955, 3614.834
524.5776, 3618.432
525.0598, 3633.544
525.5419, 3662.849
526.0240, 3696.735
526.5061, 3725.049
526.9882, 3748.037
527.4703, 3778.254
527.9525, 3830.540
528.4346, 3866.817
528.9167, 3867.344
529.3988, 3852.680
529.8809, 3843.632
530.3630, 3844.478
530.8452, 3848.741
531.3273, 3853.893
531.8094, 3858.686
532.2915, 3859.407
532.7736, 3855.596
533.2557, 3853.046
533.7379, 3856.060
534.2200, 3862.975
534.7021, 3866.910
535.1842, 3860.880
535.6663, 3861.553
536.1484, 3884.423
536.6306, 3904.930
537.1127, 3896.640
537.5948, 3862.764
538.0769, 3829.804
538.5590, 3819.734
539.0411, 3824.586
539.5233, 3814.297
540.0054, 3784.545
540.4875, 3755.550
540.9696, 3732.880
541.4517, 3714.023
541.9338, 3696.918
542.4160, 3681.584
542.8981, 3667.152
543.3802, 3652.935
543.8623, 3639.958
544.3444, 3633.638
544.8265, 3630.463
545.3087, 3615.783
545.7908, 3581.759
546.2729, 3537.876
546.7550, 3502.178
547.2371, 3474.215
547.7192, 3456.089
548.2014, 3456.285
548.6835, 3456.846
549.1656, 3451.292
549.6477, 3439.635
550.1298, 3422.509
550.6119, 3399.077
551.0941, 3374.024
551.5762, 3351.824
552.0583, 3332.819
552.5404, 3322.126
553.0225, 3323.237
553.5046, 3325.028
553.9868, 3316.001
554.4689, 3296.933
554.9510, 3284.756
555.4331, 3291.273
555.9152, 3291.203
556.3973, 3268.712
556.8795, 3237.359
557.3616, 3213.590
557.8437, 3201.559
558.3258, 3197.336
558.8079, 3199.191
559.2900, 3206.201
559.7722, 3203.814
560.2543, 3189.739
560.7364, 3170.861
561.2185, 3141.655
561.7006, 3113.063
562.1827, 3099.099
562.6649, 3102.679
563.1470, 3103.709
563.6291, 3088.289
564.1112, 3067.314
564.5933, 3055.882
565.0754, 3053.239
565.5576, 3048.587
566.0397, 3035.805
566.5218, 3017.677
567.0039, 3001.214
567.4860, 2986.745
567.9681, 2973.590
568.4503, 2958.784
568.9324, 2947.906
569.4145, 2946.300
569.8966, 2950.992
570.3787, 2955.671
570.8608, 2958.888
571.3430, 2957.376
571.8251, 2943.443
572.3072, 2919.454
572.7893, 2899.778
573.2714, 2886.731
573.7535, 2881.875
574.2357, 2889.742
574.7178, 2909.987
575.1999, 2921.455
575.6820, 2918.620
576.1641, 2914.259
576.6462, 2913.885
577.1284, 2912.945
577.6105, 2903.838
578.0926, 2886.561
578.5747, 2870.969
579.0568, 2869.028
579.5389, 2876.558
580.0211, 2866.721
580.5032, 2831.135
580.9852, 2809.381
581.4673, 2824.819
581.9495, 2855.365
582.4316, 2872.956
582.9137, 2877.151
583.3958, 2871.526
583.8779, 2846.406
584.3600, 2820.580
584.8422, 2809.426
585.3243, 2810.854
585.8064, 2817.451
586.2885, 2826.012
586.7706, 2834.981
587.2527, 2843.459
587.7349, 2854.728
588.2170, 2850.856
588.6991, 2816.802
589.1812, 2786.233
589.6633, 2777.388
590.1454, 2780.507
590.6276, 2779.657
591.1097, 2770.758
591.5918, 2758.700
592.0739, 2739.286
592.5560, 2721.520
593.0381, 2728.715
593.5203, 2760.759
594.0024, 2782.952
594.4845, 2768.494
594.9666, 2727.942
595.4487, 2704.991
595.9308, 2705.518
596.4130, 2714.830
596.8951, 2743.731
597.3772, 2770.109
597.8593, 2778.378
598.3414, 2771.498
598.8235, 2762.336
599.3057, 2757.261
599.7878, 2752.804
600.2699, 2741.355
600.7520, 2725.724
601.2341, 2721.627
601.7162, 2734.495
602.1984, 2748.801
602.6805, 2747.425
603.1626, 2730.232
603.6447, 2725.184
604.1268, 2738.933
604.6089, 2755.204
605.0911, 2776.043
605.5732, 2794.603
606.0553, 2801.786
606.5374, 2798.128
607.0195, 2794.665
607.5016, 2800.768
607.9838, 2812.767
608.4659, 2821.730
608.9480, 2827.524
609.4301, 2834.153
609.9122, 2844.433
610.3943, 2853.607
610.8765, 2854.099
611.3586, 2843.879
611.8407, 2837.363
612.3228, 2832.653
612.8049, 2834.081
613.2870, 2848.020
613.7692, 2867.592
614.2513, 2882.359
614.7334, 2889.688
615.2155, 2896.155
615.6976, 2913.008
616.1797, 2936.937
616.6619, 2941.344
617.1440, 2920.226
617.6261, 2907.655
618.1082, 2921.705
618.5903, 2951.032
619.0724, 2975.790
619.5546, 2995.051
620.0367, 3015.063
620.5188, 3035.408
621.0009, 3058.021
621.4830, 3087.914
621.9651, 3120.486
622.4473, 3144.974
622.9294, 3157.042
623.4115, 3164.813
623.8936, 3181.395
624.3757, 3206.549
624.8578, 3221.676
625.3400, 3220.000
625.8221, 3224.304
626.3042, 3254.675
626.7863, 3295.808
627.2684, 3314.737
627.7505, 3300.540
628.2327, 3296.058
628.7148, 3320.856
629.1969, 3353.415
629.6790, 3375.005
630.1611, 3388.524
630.6432, 3407.929
631.1254, 3440.627
631.6075, 3476.553
632.0896, 3495.745
632.5717, 3496.313
633.0538, 3508.812
633.5359, 3542.477
634.0181, 3574.087
634.5002, 3584.995
634.9823, 3585.235
635.4644, 3596.761
635.9465, 3629.067
636.4286, 3653.378
636.9108, 3646.845
637.3929, 3637.796
637.8750, 3660.245
638.3571, 3706.520
638.8392, 3742.294
639.3214, 3748.219
639.8035, 3736.428
640.2856, 3727.394
640.7677, 3720.250
641.2498, 3727.527
641.7319, 3762.356
642.2141, 3790.405
642.6962, 3778.916
643.1783, 3745.878
643.6604, 3732.061
644.1425, 3747.230
644.6246, 3767.989
645.1068, 3795.706
645.5889, 3819.194
646.0710, 3823.554
646.5531, 3812.652
647.0352, 3803.400
647.5173, 3805.837
647.9995, 3814.061
648.4816, 3811.415
648.9637, 3795.047
649.4458, 3807.437
649.9279, 3874.089
650.4100, 3930.085
650.8922, 3914.323
651.3743, 3856.054
651.8564, 3835.352
652.3385, 3875.002
