##NAMES=Magnesioaubertite
##RRUFFID=R060344
##IDEAL CHEMISTRY=MgAl(S^6+^O_4_)_2_Cl&#183;14H_2_O
##LOCALITY=Grotta de Faraglione, Vulcano, Italy
##OWNER=RRUFF
##SOURCE=Michael Scott
##DESCRIPTION=Blue massive with a parallel fibrous texture associated with white pickeringite, co-type specimen
##STATUS=The identification of this mineral has been confirmed only by single crystal X-ray diffraction.
##URL=rruff.info/R060344
125.6867, 12.93046
126.1688, 13.76597
126.6509, 14.87354
127.1331, 15.39779
127.6152, 15.42467
128.0973, 15.38144
128.5794, 15.48971
129.0615, 15.74292
129.5436, 16.10902
130.0258, 16.53403
130.5079, 17.12145
130.9900, 18.23542
131.4721, 19.86582
131.9542, 21.41767
132.4363, 22.09184
132.9185, 22.06557
133.4006, 22.61513
133.8827, 24.41692
134.3648, 26.98925
134.8469, 28.52658
135.3290, 28.82346
135.8112, 28.99014
136.2933, 30.24117
136.7754, 32.61465
137.2575, 35.50997
137.7396, 38.82408
138.2217, 42.49522
138.7039, 46.43120
139.1860, 50.70956
139.6681, 55.14153
140.1502, 59.55190
140.6323, 63.90556
141.1144, 68.21049
141.5966, 72.49825
142.0787, 76.77603
142.5608, 80.93887
143.0429, 85.10499
143.5250, 89.08362
144.0071, 92.32276
144.4893, 94.38599
144.9714, 96.37279
145.4535, 98.83837
145.9356, 102.4963
146.4177, 105.2047
146.8998, 106.4320
147.3820, 106.6320
147.8641, 107.7184
148.3462, 109.6724
148.8283, 112.5138
149.3104, 116.3329
149.7925, 122.1032
150.2747, 127.5644
150.7568, 132.5772
151.2389, 137.1430
151.7210, 141.2050
152.2031, 143.7555
152.6852, 146.3710
153.1674, 150.0622
153.6495, 156.2786
154.1316, 162.0703
154.6137, 167.0423
155.0958, 171.1793
155.5779, 174.8272
156.0601, 177.9203
156.5422, 180.5974
157.0243, 182.9382
157.5064, 184.6867
157.9885, 186.3535
158.4706, 187.9868
158.9528, 189.5567
159.4349, 191.4213
159.9170, 193.7065
160.3991, 196.3250
160.8812, 199.1758
161.3633, 202.4815
161.8455, 205.8119
162.3276, 208.9776
162.8097, 211.8857
163.2918, 214.7973
163.7739, 217.7548
164.2560, 220.5259
164.7382, 221.7436
165.2203, 222.2446
165.7024, 223.0442
166.1845, 224.6290
166.6666, 227.3563
167.1487, 229.8803
167.6309, 231.2142
168.1130, 231.8331
168.5951, 232.7139
169.0772, 234.5411
169.5593, 236.7102
170.0414, 238.6840
170.5236, 240.2803
171.0057, 241.8913
171.4878, 244.0090
171.9699, 246.4446
172.4520, 248.5777
172.9341, 249.8677
173.4163, 250.7594
173.8984, 251.7935
174.3805, 253.1979
174.8626, 254.5918
175.3447, 255.6047
175.8268, 256.2959
176.3090, 256.9452
176.7911, 257.3708
177.2732, 257.9295
177.7553, 259.3371
178.2374, 262.4160
178.7195, 265.6956
179.2017, 267.1596
179.6838, 266.9570
180.1659, 266.3220
180.6480, 266.1529
181.1301, 266.2756
181.6122, 266.3222
182.0944, 266.4305
182.5765, 266.2333
183.0586, 264.9084
183.5407, 262.4926
184.0228, 259.7727
184.5049, 257.5340
184.9871, 255.6082
185.4692, 253.4594
185.9513, 250.7006
186.4334, 247.6775
186.9155, 245.3636
187.3976, 243.8506
187.8798, 242.1087
188.3619, 238.7214
188.8440, 233.9404
189.3261, 229.6046
189.8082, 226.4269
190.2903, 224.1382
190.7725, 221.6939
191.2546, 219.0076
191.7367, 216.4500
192.2188, 214.6700
192.7009, 213.5903
193.1830, 212.0250
193.6652, 209.1808
194.1473, 205.3331
194.6294, 202.4868
195.1115, 200.7979
195.5936, 199.5753
196.0757, 197.9134
196.5579, 195.7963
197.0400, 193.7115
197.5221, 191.7800
198.0042, 190.0173
198.4863, 188.5772
198.9684, 187.4846
199.4506, 186.6777
199.9327, 186.1946
200.4148, 186.0843
200.8969, 185.8323
201.3790, 185.1163
201.8611, 183.9127
202.3433, 183.0091
202.8254, 182.4333
203.3075, 182.1028
203.7896, 181.9556
204.2717, 182.0419
204.7538, 182.0377
205.2360, 181.7108
205.7181, 180.9890
206.2002, 180.6287
206.6823, 180.7324
207.1644, 181.0706
207.6465, 181.1302
208.1287, 180.7474
208.6108, 180.6576
209.0929, 181.3721
209.5750, 183.1624
210.0571, 184.2870
210.5392, 184.6058
211.0214, 184.4021
211.5035, 184.1741
211.9856, 183.8300
212.4677, 183.7271
212.9498, 184.0605
213.4319, 184.9065
213.9140, 185.8431
214.3962, 186.8281
214.8783, 187.9296
215.3604, 189.3829
215.8425, 191.4648
216.3246, 193.2973
216.8067, 194.3868
217.2889, 194.3988
217.7710, 194.7973
218.2531, 195.7539
218.7352, 197.0234
219.2173, 198.0511
219.6994, 198.7953
220.1816, 199.3764
220.6637, 199.9477
221.1458, 200.7732
221.6279, 200.7108
222.1100, 199.1528
222.5921, 196.9343
223.0743, 196.4007
223.5564, 198.5565
224.0385, 200.6478
224.5206, 201.2736
225.0027, 199.7651
225.4848, 198.5925
225.9670, 197.6360
226.4491, 197.0962
226.9312, 197.6272
227.4133, 199.8138
227.8954, 202.1206
228.3775, 203.8268
228.8597, 204.8701
229.3418, 205.4672
229.8239, 205.2965
230.3060, 204.7574
230.7881, 205.0146
231.2702, 206.4781
231.7524, 208.1123
232.2345, 209.4118
232.7166, 210.1672
233.1987, 211.1356
233.6808, 212.4729
234.1629, 213.9800
234.6451, 215.1165
235.1272, 215.6305
235.6093, 216.1462
236.0914, 216.9505
236.5735, 218.1821
237.0556, 219.3918
237.5378, 220.5043
238.0199, 221.6257
238.5020, 223.1396
238.9841, 225.7891
239.4662, 227.7681
239.9483, 228.0822
240.4305, 225.4556
240.9126, 224.1872
241.3947, 224.6989
241.8768, 226.4284
242.3589, 228.0859
242.8410, 229.8945
243.3232, 231.2783
243.8053, 231.8517
244.2874, 230.9822
244.7695, 230.8831
245.2516, 231.9825
245.7337, 233.6816
246.2159, 234.6626
246.6980, 234.8052
247.1801, 234.4190
247.6622, 233.4919
248.1443, 231.6133
248.6264, 230.3830
249.1086, 230.0501
249.5907, 230.2364
250.0728, 230.1757
250.5549, 229.8060
251.0370, 229.2935
251.5191, 228.6973
252.0013, 228.0375
252.4834, 227.2117
252.9655, 226.1076
253.4476, 224.9067
253.9297, 224.0002
254.4118, 223.6395
254.8940, 223.1169
255.3761, 222.1833
255.8582, 220.7817
256.3403, 219.1171
256.8224, 216.9646
257.3046, 214.7222
257.7867, 213.1356
258.2688, 212.4360
258.7509, 211.8951
259.2330, 211.4085
259.7151, 211.0982
260.1973, 210.0524
260.6794, 207.9591
261.1615, 205.4637
261.6436, 203.5095
262.1257, 202.1029
262.6078, 201.1959
263.0900, 200.9358
263.5721, 201.4255
264.0542, 201.5116
264.5363, 201.1387
265.0184, 200.4245
265.5005, 199.3575
265.9827, 197.6572
266.4648, 196.4527
266.9469, 196.2027
267.4290, 196.9300
267.9111, 197.4322
268.3932, 197.7039
268.8754, 197.7489
269.3575, 197.5535
269.8396, 197.0853
270.3217, 196.4827
270.8038, 195.7393
271.2859, 194.8616
271.7681, 194.0518
272.2502, 193.2582
272.7323, 192.6408
273.2144, 192.4979
273.6965, 192.9661
274.1786, 193.1398
274.6608, 192.6804
275.1429, 191.7276
275.6250, 191.2676
276.1071, 191.3329
276.5892, 191.7950
277.0714, 192.9128
277.5535, 194.8963
278.0356, 195.5846
278.5177, 194.1783
278.9998, 191.2765
279.4819, 189.2866
279.9641, 188.2524
280.4462, 187.8766
280.9283, 188.1778
281.4104, 189.1879
281.8925, 189.7666
282.3746, 189.5667
282.8568, 188.9573
283.3389, 189.0467
283.8210, 189.9034
284.3031, 190.9176
284.7852, 191.7441
285.2673, 192.3726
285.7495, 192.6949
286.2316, 192.5412
286.7137, 192.2904
287.1958, 192.8642
287.6779, 194.2859
288.1600, 195.7343
288.6422, 196.6539
289.1243, 197.1231
289.6064, 197.5519
290.0885, 197.8549
290.5706, 198.4350
291.0527, 200.3284
291.5349, 203.4279
292.0170, 206.1430
292.4991, 207.0785
292.9812, 206.8396
293.4633, 207.6728
293.9454, 209.8312
294.4276, 212.5072
294.9097, 215.0115
295.3918, 217.2502
295.8739, 218.6464
296.3560, 218.4507
296.8381, 217.2505
297.3203, 216.4155
297.8024, 216.0010
298.2845, 215.7068
298.7666, 215.5081
299.2487, 215.2296
299.7308, 214.3220
300.2130, 211.9561
300.6951, 209.0462
301.1772, 207.2343
301.6593, 206.5240
302.1414, 205.8604
302.6235, 204.0627
303.1057, 201.6637
303.5878, 199.7858
304.0699, 198.9952
304.5520, 198.7329
305.0341, 198.2493
305.5162, 197.6114
305.9984, 197.3843
306.4805, 198.3457
306.9626, 199.8770
307.4447, 201.1098
307.9268, 201.8160
308.4089, 202.1572
308.8911, 201.8670
309.3732, 201.1853
309.8553, 201.1047
310.3374, 202.2431
310.8195, 204.2522
311.3016, 206.9584
311.7838, 210.7970
312.2659, 214.2999
312.7480, 216.1031
313.2301, 216.7615
313.7122, 217.6922
314.1943, 219.5123
314.6765, 221.8858
315.1586, 224.7304
315.6407, 228.2285
316.1228, 231.4808
316.6049, 233.9745
317.0870, 235.9367
317.5692, 237.7065
318.0513, 239.0384
318.5334, 240.5220
319.0155, 242.8517
319.4976, 246.3869
319.9797, 248.6123
320.4619, 248.2021
320.9440, 246.2148
321.4261, 243.8515
321.9082, 241.0997
322.3903, 238.2870
322.8724, 235.9047
323.3546, 233.9852
323.8367, 230.7372
324.3188, 224.3414
324.8009, 217.2799
325.2830, 211.5220
325.7651, 208.3369
326.2473, 205.2666
326.7294, 201.8874
327.2115, 198.2737
327.6936, 195.0197
328.1757, 192.6442
328.6578, 190.3202
329.1400, 187.6178
329.6221, 183.8209
330.1042, 180.6588
330.5863, 178.3457
331.0684, 176.6688
331.5505, 175.0534
332.0327, 173.4627
332.5148, 171.9543
332.9969, 170.5381
333.4790, 169.2425
333.9611, 168.0532
334.4432, 167.1315
334.9254, 166.2155
335.4075, 164.8957
335.8896, 163.1611
336.3717, 160.9998
336.8538, 158.1851
337.3359, 154.5391
337.8180, 152.0385
338.3001, 151.0740
338.7823, 150.6618
339.2644, 149.6624
339.7465, 147.8976
340.2286, 146.3184
340.7107, 145.2441
341.1928, 144.5616
341.6750, 143.6116
342.1571, 142.3717
342.6392, 140.9022
343.1213, 139.1084
343.6034, 136.9962
344.0855, 135.0993
344.5677, 133.5198
345.0498, 132.2089
345.5319, 131.0974
346.0140, 130.1852
346.4961, 129.4689
346.9782, 129.1223
347.4604, 129.0237
347.9425, 128.5306
348.4246, 127.4945
348.9067, 126.3120
349.3888, 125.5347
349.8709, 125.1184
350.3531, 124.8118
350.8352, 124.5927
351.3173, 124.3776
351.7994, 123.9704
352.2815, 123.3553
352.7636, 122.6841
353.2458, 121.9167
353.7279, 121.2018
354.2100, 120.8707
354.6921, 121.4441
355.1742, 122.1896
355.6563, 122.2322
356.1385, 121.6340
356.6206, 121.0609
357.1027, 121.0469
357.5848, 121.2847
358.0669, 121.4124
358.5490, 121.3025
359.0312, 121.1066
359.5133, 120.7944
359.9954, 120.4473
360.4775, 120.3129
360.9596, 120.6996
361.4417, 121.2148
361.9239, 121.6090
362.4060, 121.8445
362.8881, 121.9530
363.3702, 121.7163
363.8523, 121.4029
364.3344, 121.4245
364.8166, 122.3054
365.2987, 123.1817
365.7808, 123.6263
366.2629, 123.5485
366.7450, 123.7099
367.2271, 124.4568
367.7093, 125.3843
368.1914, 126.1363
368.6735, 126.6706
369.1556, 127.0433
369.6377, 127.0004
370.1198, 126.6484
370.6020, 126.9815
371.0841, 128.6977
371.5662, 130.4550
372.0483, 131.4755
372.5304, 131.1210
373.0125, 131.2761
373.4947, 132.2645
373.9768, 133.6792
374.4589, 134.5249
374.9410, 134.5028
375.4231, 134.5333
375.9052, 135.0757
376.3874, 136.2632
376.8695, 136.8031
377.3516, 136.3909
377.8337, 135.8537
378.3158, 136.4000
378.7979, 138.2164
379.2801, 139.7094
379.7622, 140.3175
380.2443, 140.2801
380.7264, 140.7293
381.2085, 141.7086
381.6906, 142.8548
382.1728, 143.9657
382.6549, 145.0211
383.1370, 145.8116
383.6191, 146.2739
384.1012, 146.5210
384.5833, 146.5082
385.0655, 146.3255
385.5476, 146.6184
386.0297, 148.3509
386.5118, 150.6728
386.9939, 151.9392
387.4760, 151.9012
387.9582, 151.5748
388.4403, 151.5833
388.9224, 152.0236
389.4045, 153.0794
389.8866, 156.1189
390.3687, 158.9232
390.8509, 158.9420
391.3330, 156.4375
391.8151, 154.4174
392.2972, 155.1625
392.7793, 157.0345
393.2614, 158.4092
393.7436, 158.1115
394.2257, 158.3064
394.7078, 160.6221
395.1899, 164.1931
395.6720, 166.7460
396.1541, 166.1329
396.6363, 165.4786
397.1184, 166.3961
397.6005, 169.6056
398.0826, 172.6410
398.5647, 175.3537
399.0468, 177.6243
399.5290, 179.3076
400.0111, 179.2257
400.4932, 179.8237
400.9753, 181.6779
401.4574, 184.7952
401.9395, 187.8819
402.4217, 190.7757
402.9038, 193.8325
403.3859, 197.3369
403.8680, 201.5518
404.3501, 205.5519
404.8322, 209.0012
405.3144, 212.3088
405.7965, 216.6753
406.2786, 222.5692
406.7607, 228.0342
407.2428, 231.7233
407.7249, 233.5510
408.2071, 237.2467
408.6892, 243.1765
409.1713, 249.9390
409.6534, 255.7521
410.1355, 260.6508
410.6176, 265.7980
411.0998, 271.4916
411.5819, 277.7245
412.0640, 284.6715
412.5461, 292.2536
413.0282, 299.9943
413.5103, 307.7145
413.9925, 315.2030
414.4746, 321.9245
414.9567, 327.5252
415.4388, 333.1791
415.9209, 340.2287
416.4030, 348.3287
416.8852, 356.8294
417.3673, 365.9810
417.8494, 374.8906
418.3315, 382.6960
418.8136, 389.2650
419.2957, 395.9058
419.7779, 403.9405
420.2600, 412.1060
420.7421, 419.0075
421.2242, 424.1916
421.7063, 428.1986
422.1884, 431.0163
422.6706, 432.7917
423.1527, 434.1884
423.6348, 436.0511
424.1169, 436.9982
424.5990, 436.3560
425.0811, 433.6584
425.5633, 430.3037
426.0454, 426.1253
426.5275, 421.4427
427.0096, 416.5487
427.4917, 411.1233
427.9738, 406.0263
428.4560, 401.4887
428.9381, 397.4538
429.4202, 393.4897
429.9023, 389.5408
430.3844, 385.8430
430.8665, 382.7018
431.3487, 380.2191
431.8308, 377.6172
432.3129, 374.7579
432.7950, 371.8351
433.2771, 369.1308
433.7592, 366.6438
434.2414, 364.8983
434.7235, 364.2961
435.2056, 364.6549
435.6877, 365.3744
436.1698, 366.4749
436.6519, 367.6160
437.1341, 368.5004
437.6162, 369.1466
438.0983, 369.5663
438.5804, 369.5227
439.0625, 369.6024
439.5446, 370.5161
440.0268, 372.1464
440.5089, 374.0577
440.9910, 376.4929
441.4731, 378.8077
441.9552, 380.2805
442.4373, 380.6319
442.9195, 381.2032
443.4016, 382.6600
443.8837, 384.7266
444.3658, 387.0674
444.8479, 390.0560
445.3300, 392.8307
445.8122, 394.8738
446.2943, 396.2994
446.7764, 398.2983
447.2585, 401.7960
447.7406, 405.3263
448.2227, 408.1508
448.7049, 409.8380
449.1870, 411.5985
449.6691, 413.5540
450.1512, 415.5146
450.6333, 417.1442
451.1154, 418.4045
451.5976, 419.4373
452.0797, 420.2348
452.5618, 420.8117
453.0439, 421.3807
453.5260, 421.9934
454.0081, 422.4054
454.4903, 422.3777
454.9724, 421.9157
455.4545, 421.3232
455.9366, 420.6197
456.4187, 419.8470
456.9008, 419.4638
457.3830, 419.3003
457.8651, 418.1326
458.3472, 414.3087
458.8293, 409.4231
459.3114, 406.7677
459.7935, 406.3600
460.2757, 405.5791
460.7578, 401.7581
461.2399, 396.4443
461.7220, 391.8151
462.2041, 388.6163
462.6862, 385.8290
463.1684, 382.9911
463.6505, 380.0447
464.1326, 376.9237
464.6147, 373.5783
465.0968, 370.0449
465.5789, 366.1588
466.0611, 361.7552
466.5432, 358.1964
467.0253, 356.8965
467.5074, 355.9680
467.9895, 353.8361
468.4716, 349.1010
468.9538, 344.7725
469.4359, 341.0653
469.9180, 337.9234
470.4001, 335.2264
470.8822, 333.2810
471.3643, 331.2827
471.8465, 328.9374
472.3286, 326.2409
472.8107, 323.3191
473.2928, 320.2804
473.7749, 316.8653
474.2570, 312.5797
474.7392, 307.4350
475.2213, 302.8613
475.7034, 299.4860
476.1855, 296.4717
476.6676, 291.6797
477.1497, 285.3027
477.6319, 279.4064
478.1140, 275.6595
478.5961, 273.0000
479.0782, 269.7010
479.5603, 265.6272
480.0424, 261.1775
480.5246, 256.2633
481.0067, 251.2812
481.4888, 246.7982
481.9709, 243.3800
482.4530, 240.0102
482.9352, 236.1882
483.4173, 231.9954
483.8994, 227.6899
484.3815, 222.9915
484.8636, 218.4866
485.3457, 214.4245
485.8279, 210.7815
486.3100, 207.6517
486.7921, 205.6775
487.2742, 203.8786
487.7563, 201.3317
488.2384, 197.3869
488.7206, 193.7777
489.2027, 190.6664
489.6848, 188.0324
490.1669, 185.9318
490.6490, 184.5338
491.1311, 183.2126
491.6133, 181.6693
492.0954, 179.9041
492.5775, 178.2533
493.0596, 176.7260
493.5417, 175.3163
494.0238, 174.1252
494.5060, 173.0792
494.9881, 171.7944
495.4702, 170.0173
495.9523, 168.2287
496.4344, 167.1823
496.9165, 166.7564
497.3987, 166.4964
497.8808, 166.3140
498.3629, 166.0720
498.8450, 165.6373
499.3271, 164.9927
499.8092, 164.2192
500.2914, 163.0212
500.7735, 161.8731
501.2556, 161.2022
501.7377, 161.7248
502.2198, 162.0070
502.7019, 161.3850
503.1841, 160.2754
503.6662, 159.8169
504.1483, 161.0249
504.6304, 161.8949
505.1125, 161.6511
505.5946, 160.1467
506.0768, 159.5179
506.5589, 160.1962
507.0410, 161.1225
507.5231, 161.2019
508.0052, 160.1401
508.4873, 160.3992
508.9695, 162.7455
509.4516, 165.7407
509.9337, 166.3595
510.4158, 164.7320
510.8979, 163.3148
511.3800, 163.3576
511.8622, 164.2818
512.3443, 164.7783
512.8264, 164.8650
513.3085, 164.9721
513.7906, 165.4717
514.2728, 166.1680
514.7549, 166.8115
515.2370, 167.3502
515.7191, 167.8465
516.2012, 168.2663
516.6833, 168.6843
517.1655, 169.2218
517.6476, 169.8135
518.1297, 170.6366
518.6118, 171.9170
519.0939, 173.5959
519.5760, 175.0118
520.0582, 176.1655
520.5403, 176.9510
521.0224, 177.1565
521.5045, 176.2301
521.9866, 176.4176
522.4688, 178.2318
522.9509, 180.5926
523.4330, 182.1941
523.9151, 182.9238
524.3972, 183.5025
524.8793, 184.0553
525.3615, 184.5670
525.8436, 184.9511
526.3257, 185.2126
526.8078, 185.5692
527.2899, 186.3317
527.7720, 187.2571
528.2542, 187.7956
528.7363, 187.9217
529.2184, 187.7613
529.7005, 187.1951
530.1826, 186.4796
530.6647, 186.0033
531.1469, 186.1335
531.6290, 186.0969
532.1111, 185.4257
532.5932, 184.2822
533.0753, 183.0025
533.5574, 181.6777
534.0396, 180.2275
534.5217, 178.6677
535.0038, 177.0197
535.4859, 174.9575
535.9680, 172.0491
536.4501, 169.1626
536.9323, 166.8905
537.4144, 165.6587
537.8965, 163.6919
538.3786, 160.6413
538.8607, 157.2831
539.3428, 154.9909
539.8250, 153.8430
540.3071, 152.4285
540.7892, 150.3379
541.2713, 147.7505
541.7534, 144.9081
542.2355, 141.8751
542.7177, 139.3387
543.1998, 138.0857
543.6819, 137.4500
544.1640, 136.3761
544.6461, 134.7650
545.1282, 133.1449
545.6104, 132.0887
546.0925, 131.1602
546.5746, 129.8577
547.0567, 127.8068
547.5388, 125.6970
548.0209, 123.3455
548.5031, 121.1362
548.9852, 119.8576
549.4673, 120.7678
549.9494, 121.4228
550.4315, 121.1121
550.9136, 119.8408
551.3958, 118.7726
551.8779, 117.8176
552.3600, 117.2166
552.8421, 117.3119
553.3242, 118.2422
553.8063, 118.4526
554.2885, 117.7180
554.7706, 116.7022
555.2527, 116.4934
555.7348, 116.9064
556.2169, 116.6793
556.6990, 114.9905
557.1812, 113.0598
557.6633, 112.9078
558.1454, 114.1122
558.6275, 115.0881
559.1096, 114.8219
559.5917, 114.0224
560.0739, 113.0418
560.5560, 111.8947
561.0381, 111.2629
561.5202, 111.8821
562.0023, 112.8490
562.4844, 113.5019
562.9666, 113.6380
563.4487, 113.6101
563.9308, 113.3826
564.4129, 113.0340
564.8950, 112.6247
565.3771, 111.9348
565.8593, 111.7112
566.3414, 112.2696
566.8235, 113.4019
567.3056, 114.1964
567.7877, 114.6198
568.2698, 114.9071
568.7520, 115.2149
569.2341, 115.5045
569.7162, 115.5745
570.1983, 115.4027
570.6804, 115.2728
571.1625, 115.6344
571.6447, 116.1697
572.1268, 116.2799
572.6089, 115.5134
573.0910, 114.9706
573.5731, 115.7139
574.0552, 117.1066
574.5374, 118.0516
575.0195, 117.3656
575.5016, 117.0063
575.9837, 117.9439
576.4658, 120.0391
576.9479, 121.4264
577.4301, 121.7580
577.9122, 121.7241
578.3943, 121.4572
578.8764, 120.7736
579.3585, 121.0147
579.8406, 122.4450
580.3228, 124.2105
580.8049, 125.3930
581.2870, 126.0249
581.7691, 126.7339
582.2512, 127.5496
582.7333, 128.6500
583.2155, 130.6623
583.6975, 133.2274
584.1796, 135.3166
584.6617, 135.6241
585.1439, 135.8162
585.6260, 137.6000
586.1081, 140.7046
586.5902, 143.7493
587.0723, 146.2401
587.5544, 148.3541
588.0366, 150.0288
588.5187, 150.9612
589.0008, 152.7313
589.4829, 156.3270
589.9650, 160.2964
590.4471, 163.5728
590.9293, 165.9210
591.4114, 168.0820
591.8935, 169.9405
592.3756, 171.8296
592.8577, 174.3659
593.3398, 177.5447
593.8220, 181.1035
594.3041, 185.0973
594.7862, 189.3059
595.2683, 193.3291
595.7504, 197.1203
596.2325, 200.5913
596.7147, 203.0195
597.1968, 205.4392
597.6789, 209.3297
598.1610, 214.8183
598.6431, 220.2699
599.1252, 224.8995
599.6074, 228.9699
600.0895, 232.7245
600.5716, 236.1925
601.0537, 239.3843
601.5358, 242.5444
602.0179, 245.3040
602.5001, 247.0965
602.9822, 247.4454
603.4643, 247.8179
603.9464, 248.8033
604.4285, 249.8435
604.9106, 248.8009
605.3928, 245.4589
605.8749, 242.0516
606.3570, 239.5622
606.8391, 237.8670
607.3212, 236.6976
607.8033, 236.0362
608.2855, 235.3687
608.7676, 234.0002
609.2497, 232.5279
609.7318, 231.7113
610.2139, 231.6729
610.6960, 232.2149
611.1782, 233.7177
611.6603, 235.5215
612.1424, 236.9435
612.6245, 237.2809
613.1066, 237.8692
613.5887, 238.7224
614.0709, 239.9666
614.5530, 242.0964
615.0351, 245.9020
615.5172, 248.7367
615.9993, 249.3738
616.4814, 248.4721
616.9636, 250.0196
617.4457, 254.2349
617.9278, 258.3351
618.4099, 260.1168
618.8920, 260.4398
619.3741, 261.8162
619.8563, 264.3614
620.3384, 266.9731
620.8205, 268.6287
621.3026, 269.8864
621.7847, 271.4875
