##NAMES=Magnesio-fluoro-hastingsite
##RRUFFID=R141082
##IDEAL CHEMISTRY=NaCa_2_(Mg_4_Fe^3+^)(Si_6_Al_2_)O_22_F_2_
##LOCALITY=Caspar quarry, Bellerberg volcano, Mayen, Eifel, Germany
##OWNER=RRUFF
##SOURCE=Ch. and H. Sch√§fer
##DESCRIPTION=Euhedral brown crystal embedded in matrix
##STATUS=The identification of this mineral has been confirmed only by single crystal X-ray diffraction.
##URL=rruff.info/R141082
8.813672e+001, 1.789278e+002
8.861884e+001, 1.813187e+002
8.910095e+001, 1.836191e+002
8.958307e+001, 1.862915e+002
9.006519e+001, 1.895104e+002
9.054730e+001, 1.932737e+002
9.102942e+001, 1.983344e+002
9.151154e+001, 2.027002e+002
9.199365e+001, 2.035752e+002
9.247577e+001, 2.015332e+002
9.295789e+001, 1.993144e+002
9.344000e+001, 1.989668e+002
9.392212e+001, 1.997930e+002
9.440424e+001, 2.002357e+002
9.488635e+001, 2.002562e+002
9.536847e+001, 2.000262e+002
9.585059e+001, 1.996938e+002
9.633270e+001, 1.992137e+002
9.681482e+001, 1.989162e+002
9.729694e+001, 1.988759e+002
9.777905e+001, 1.990912e+002
9.826117e+001, 2.003707e+002
9.874329e+001, 2.034993e+002
9.922540e+001, 2.080306e+002
9.970752e+001, 2.105805e+002
1.001896e+002, 2.106829e+002
1.006718e+002, 2.097882e+002
1.011539e+002, 2.096201e+002
1.016360e+002, 2.102535e+002
1.021181e+002, 2.113037e+002
1.026002e+002, 2.126318e+002
1.030823e+002, 2.142074e+002
1.035645e+002, 2.161888e+002
1.040466e+002, 2.184967e+002
1.045287e+002, 2.212620e+002
1.050108e+002, 2.248613e+002
1.054929e+002, 2.296760e+002
1.059750e+002, 2.347502e+002
1.064572e+002, 2.399063e+002
1.069393e+002, 2.466079e+002
1.074214e+002, 2.507756e+002
1.079035e+002, 2.512764e+002
1.083856e+002, 2.491473e+002
1.088677e+002, 2.479738e+002
1.093499e+002, 2.482556e+002
1.098320e+002, 2.491163e+002
1.103141e+002, 2.501809e+002
1.107962e+002, 2.513103e+002
1.112783e+002, 2.528161e+002
1.117604e+002, 2.548370e+002
1.122426e+002, 2.573343e+002
1.127247e+002, 2.599045e+002
1.132068e+002, 2.620477e+002
1.136889e+002, 2.644840e+002
1.141710e+002, 2.676904e+002
1.146531e+002, 2.734570e+002
1.151353e+002, 2.783969e+002
1.156174e+002, 2.811026e+002
1.160995e+002, 2.815500e+002
1.165816e+002, 2.823229e+002
1.170637e+002, 2.851618e+002
1.175458e+002, 2.885663e+002
1.180280e+002, 2.909408e+002
1.185101e+002, 2.907360e+002
1.189922e+002, 2.899477e+002
1.194743e+002, 2.895722e+002
1.199564e+002, 2.896534e+002
1.204385e+002, 2.903083e+002
1.209207e+002, 2.913994e+002
1.214028e+002, 2.931276e+002
1.218849e+002, 2.958318e+002
1.223670e+002, 3.018468e+002
1.228491e+002, 3.079878e+002
1.233312e+002, 3.104379e+002
1.238134e+002, 3.081154e+002
1.242955e+002, 3.046132e+002
1.247776e+002, 3.030147e+002
1.252597e+002, 3.029925e+002
1.257418e+002, 3.034267e+002
1.262239e+002, 3.035367e+002
1.267061e+002, 3.036649e+002
1.271882e+002, 3.045231e+002
1.276703e+002, 3.064042e+002
1.281524e+002, 3.087136e+002
1.286345e+002, 3.104403e+002
1.291166e+002, 3.116684e+002
1.295988e+002, 3.132688e+002
1.300809e+002, 3.166540e+002
1.305630e+002, 3.211957e+002
1.310451e+002, 3.241265e+002
1.315272e+002, 3.243765e+002
1.320093e+002, 3.230393e+002
1.324915e+002, 3.225147e+002
1.329736e+002, 3.228325e+002
1.334557e+002, 3.237169e+002
1.339378e+002, 3.250510e+002
1.344199e+002, 3.268273e+002
1.349020e+002, 3.286393e+002
1.353842e+002, 3.303845e+002
1.358663e+002, 3.320560e+002
1.363484e+002, 3.337372e+002
1.368305e+002, 3.353234e+002
1.373126e+002, 3.371957e+002
1.377947e+002, 3.400855e+002
1.382769e+002, 3.443715e+002
1.387590e+002, 3.477522e+002
1.392411e+002, 3.494984e+002
1.397232e+002, 3.495980e+002
1.402053e+002, 3.490561e+002
1.406874e+002, 3.475831e+002
1.411696e+002, 3.458507e+002
1.416517e+002, 3.448557e+002
1.421338e+002, 3.449961e+002
1.426159e+002, 3.449969e+002
1.430980e+002, 3.444158e+002
1.435801e+002, 3.430854e+002
1.440623e+002, 3.420570e+002
1.445444e+002, 3.412398e+002
1.450265e+002, 3.407999e+002
1.455086e+002, 3.411133e+002
1.459907e+002, 3.429836e+002
1.464728e+002, 3.445630e+002
1.469550e+002, 3.452081e+002
1.474371e+002, 3.444162e+002
1.479192e+002, 3.438355e+002
1.484013e+002, 3.435179e+002
1.488834e+002, 3.434061e+002
1.493655e+002, 3.433697e+002
1.498477e+002, 3.431737e+002
1.503298e+002, 3.432526e+002
1.508119e+002, 3.438089e+002
1.512940e+002, 3.455992e+002
1.517761e+002, 3.467468e+002
1.522583e+002, 3.465235e+002
1.527404e+002, 3.455168e+002
1.532225e+002, 3.453975e+002
1.537046e+002, 3.472907e+002
1.541867e+002, 3.493899e+002
1.546688e+002, 3.508719e+002
1.551510e+002, 3.515237e+002
1.556331e+002, 3.517338e+002
1.561152e+002, 3.512226e+002
1.565973e+002, 3.502100e+002
1.570794e+002, 3.495709e+002
1.575615e+002, 3.494663e+002
1.580437e+002, 3.498050e+002
1.585258e+002, 3.505332e+002
1.590079e+002, 3.520838e+002
1.594900e+002, 3.535614e+002
1.599721e+002, 3.546689e+002
1.604542e+002, 3.554636e+002
1.609364e+002, 3.562753e+002
1.614185e+002, 3.574155e+002
1.619006e+002, 3.585298e+002
1.623827e+002, 3.593333e+002
1.628648e+002, 3.598534e+002
1.633469e+002, 3.599468e+002
1.638291e+002, 3.594279e+002
1.643112e+002, 3.583414e+002
1.647933e+002, 3.571060e+002
1.652754e+002, 3.558070e+002
1.657575e+002, 3.545053e+002
1.662396e+002, 3.532655e+002
1.667218e+002, 3.519950e+002
1.672039e+002, 3.508784e+002
1.676860e+002, 3.499745e+002
1.681681e+002, 3.492977e+002
1.686502e+002, 3.489658e+002
1.691323e+002, 3.494205e+002
1.696145e+002, 3.501976e+002
1.700966e+002, 3.506608e+002
1.705787e+002, 3.503262e+002
1.710608e+002, 3.497096e+002
1.715429e+002, 3.492994e+002
1.720250e+002, 3.491164e+002
1.725072e+002, 3.488284e+002
1.729893e+002, 3.479595e+002
1.734714e+002, 3.468108e+002
1.739535e+002, 3.459372e+002
1.744356e+002, 3.456792e+002
1.749177e+002, 3.457861e+002
1.753999e+002, 3.459805e+002
1.758820e+002, 3.462552e+002
1.763641e+002, 3.466082e+002
1.768462e+002, 3.471761e+002
1.773283e+002, 3.478411e+002
1.778104e+002, 3.483051e+002
1.782926e+002, 3.483347e+002
1.787747e+002, 3.480873e+002
1.792568e+002, 3.477256e+002
1.797389e+002, 3.472164e+002
1.802210e+002, 3.468452e+002
1.807031e+002, 3.471968e+002
1.811853e+002, 3.480484e+002
1.816674e+002, 3.485816e+002
1.821495e+002, 3.479354e+002
1.826316e+002, 3.466932e+002
1.831137e+002, 3.463849e+002
1.835958e+002, 3.472405e+002
1.840780e+002, 3.484286e+002
1.845601e+002, 3.488991e+002
1.850422e+002, 3.487267e+002
1.855243e+002, 3.484304e+002
1.860064e+002, 3.482707e+002
1.864885e+002, 3.482126e+002
1.869707e+002, 3.481646e+002
1.874528e+002, 3.481627e+002
1.879349e+002, 3.480617e+002
1.884170e+002, 3.475924e+002
1.888991e+002, 3.467703e+002
1.893812e+002, 3.458626e+002
1.898634e+002, 3.448229e+002
1.903455e+002, 3.437374e+002
1.908276e+002, 3.432069e+002
1.913097e+002, 3.433789e+002
1.917918e+002, 3.438549e+002
1.922739e+002, 3.439157e+002
1.927561e+002, 3.435414e+002
1.932382e+002, 3.431552e+002
1.937203e+002, 3.430518e+002
1.942024e+002, 3.431977e+002
1.946845e+002, 3.431192e+002
1.951666e+002, 3.427120e+002
1.956488e+002, 3.421797e+002
1.961309e+002, 3.419197e+002
1.966130e+002, 3.419481e+002
1.970951e+002, 3.421112e+002
1.975772e+002, 3.424267e+002
1.980593e+002, 3.429010e+002
1.985415e+002, 3.430468e+002
1.990236e+002, 3.427164e+002
1.995057e+002, 3.421830e+002
1.999878e+002, 3.421404e+002
2.004699e+002, 3.426904e+002
2.009520e+002, 3.432281e+002
2.014342e+002, 3.433492e+002
2.019163e+002, 3.430109e+002
2.023984e+002, 3.427975e+002
2.028805e+002, 3.427743e+002
2.033626e+002, 3.428711e+002
2.038447e+002, 3.429152e+002
2.043269e+002, 3.428949e+002
2.048090e+002, 3.428597e+002
2.052911e+002, 3.427796e+002
2.057732e+002, 3.426068e+002
2.062553e+002, 3.427320e+002
2.067374e+002, 3.432751e+002
2.072196e+002, 3.440695e+002
2.077017e+002, 3.446275e+002
2.081838e+002, 3.448577e+002
2.086659e+002, 3.451098e+002
2.091480e+002, 3.456256e+002
2.096301e+002, 3.465077e+002
2.101123e+002, 3.472075e+002
2.105944e+002, 3.476796e+002
2.110765e+002, 3.479660e+002
2.115586e+002, 3.481338e+002
2.120407e+002, 3.480783e+002
2.125228e+002, 3.481434e+002
2.130050e+002, 3.485799e+002
2.134871e+002, 3.495302e+002
2.139692e+002, 3.502709e+002
2.144513e+002, 3.506035e+002
2.149334e+002, 3.507553e+002
2.154155e+002, 3.515038e+002
2.158977e+002, 3.531465e+002
2.163798e+002, 3.547947e+002
2.168619e+002, 3.559447e+002
2.173440e+002, 3.564498e+002
2.178261e+002, 3.568762e+002
2.183082e+002, 3.571861e+002
2.187904e+002, 3.574427e+002
2.192725e+002, 3.578436e+002
2.197546e+002, 3.584115e+002
2.202367e+002, 3.590749e+002
2.207188e+002, 3.598165e+002
2.212009e+002, 3.607198e+002
2.216831e+002, 3.615175e+002
2.221652e+002, 3.622438e+002
2.226473e+002, 3.628592e+002
2.231294e+002, 3.631823e+002
2.236115e+002, 3.630524e+002
2.240936e+002, 3.629190e+002
2.245758e+002, 3.630510e+002
2.250579e+002, 3.637047e+002
2.255400e+002, 3.639765e+002
2.260221e+002, 3.636792e+002
2.265042e+002, 3.630426e+002
2.269863e+002, 3.627325e+002
2.274685e+002, 3.629701e+002
2.279506e+002, 3.631850e+002
2.284327e+002, 3.630690e+002
2.289148e+002, 3.623198e+002
2.293969e+002, 3.619583e+002
2.298790e+002, 3.621994e+002
2.303612e+002, 3.627634e+002
2.308433e+002, 3.629571e+002
2.313254e+002, 3.627331e+002
2.318075e+002, 3.621963e+002
2.322896e+002, 3.612723e+002
2.327717e+002, 3.594976e+002
2.332539e+002, 3.585204e+002
2.337360e+002, 3.587951e+002
2.342181e+002, 3.597154e+002
2.347002e+002, 3.598214e+002
2.351823e+002, 3.584826e+002
2.356644e+002, 3.572708e+002
2.361466e+002, 3.568478e+002
2.366287e+002, 3.575382e+002
2.371108e+002, 3.581496e+002
2.375929e+002, 3.587691e+002
2.380750e+002, 3.592640e+002
2.385571e+002, 3.593080e+002
2.390393e+002, 3.586052e+002
2.395214e+002, 3.579256e+002
2.400035e+002, 3.575861e+002
2.404856e+002, 3.577647e+002
2.409677e+002, 3.577462e+002
2.414498e+002, 3.574724e+002
2.419320e+002, 3.570440e+002
2.424141e+002, 3.566195e+002
2.428962e+002, 3.561717e+002
2.433783e+002, 3.557899e+002
2.438604e+002, 3.555382e+002
2.443425e+002, 3.554970e+002
2.448247e+002, 3.552838e+002
2.453068e+002, 3.547148e+002
2.457889e+002, 3.540934e+002
2.462710e+002, 3.539516e+002
2.467531e+002, 3.546797e+002
2.472352e+002, 3.552052e+002
2.477174e+002, 3.551028e+002
2.481995e+002, 3.541701e+002
2.486816e+002, 3.536382e+002
2.491637e+002, 3.537040e+002
2.496458e+002, 3.540132e+002
2.501279e+002, 3.540451e+002
2.506101e+002, 3.536079e+002
2.510922e+002, 3.532517e+002
2.515743e+002, 3.531965e+002
2.520564e+002, 3.535225e+002
2.525385e+002, 3.534986e+002
2.530206e+002, 3.529686e+002
2.535028e+002, 3.522272e+002
2.539849e+002, 3.516101e+002
2.544670e+002, 3.510351e+002
2.549491e+002, 3.507470e+002
2.554312e+002, 3.508673e+002
2.559133e+002, 3.514200e+002
2.563955e+002, 3.519744e+002
2.568776e+002, 3.526925e+002
2.573597e+002, 3.532310e+002
2.578418e+002, 3.531184e+002
2.583239e+002, 3.519181e+002
2.588061e+002, 3.511070e+002
2.592882e+002, 3.510841e+002
2.597703e+002, 3.518352e+002
2.602524e+002, 3.523710e+002
2.607345e+002, 3.526714e+002
2.612166e+002, 3.527925e+002
2.616988e+002, 3.527361e+002
2.621809e+002, 3.523885e+002
2.626630e+002, 3.522045e+002
2.631451e+002, 3.523156e+002
2.636272e+002, 3.526841e+002
2.641093e+002, 3.529515e+002
2.645915e+002, 3.531216e+002
2.650736e+002, 3.531964e+002
2.655557e+002, 3.531423e+002
2.660378e+002, 3.528946e+002
2.665199e+002, 3.527260e+002
2.670020e+002, 3.525399e+002
2.674842e+002, 3.524619e+002
2.679663e+002, 3.533999e+002
2.684484e+002, 3.559447e+002
2.689305e+002, 3.581404e+002
2.694126e+002, 3.582574e+002
2.698947e+002, 3.555716e+002
2.703769e+002, 3.540587e+002
2.708590e+002, 3.544085e+002
2.713411e+002, 3.560202e+002
2.718232e+002, 3.569379e+002
2.723053e+002, 3.569770e+002
2.727874e+002, 3.568784e+002
2.732696e+002, 3.571441e+002
2.737517e+002, 3.578759e+002
2.742338e+002, 3.582438e+002
2.747159e+002, 3.580714e+002
2.751980e+002, 3.576376e+002
2.756801e+002, 3.576737e+002
2.761623e+002, 3.583067e+002
2.766444e+002, 3.588535e+002
2.771265e+002, 3.588566e+002
2.776086e+002, 3.582552e+002
2.780907e+002, 3.580194e+002
2.785728e+002, 3.582562e+002
2.790550e+002, 3.587350e+002
2.795371e+002, 3.590409e+002
2.800192e+002, 3.591487e+002
2.805013e+002, 3.592873e+002
2.809834e+002, 3.595550e+002
2.814655e+002, 3.599481e+002
2.819477e+002, 3.604194e+002
2.824298e+002, 3.609948e+002
2.829119e+002, 3.615555e+002
2.833940e+002, 3.618924e+002
2.838761e+002, 3.619950e+002
2.843582e+002, 3.621279e+002
2.848404e+002, 3.624597e+002
2.853225e+002, 3.629211e+002
2.858046e+002, 3.630568e+002
2.862867e+002, 3.628122e+002
2.867688e+002, 3.624821e+002
2.872509e+002, 3.624492e+002
2.877331e+002, 3.626872e+002
2.882152e+002, 3.628026e+002
2.886973e+002, 3.625703e+002
2.891794e+002, 3.621585e+002
2.896615e+002, 3.622113e+002
2.901436e+002, 3.627743e+002
2.906258e+002, 3.633215e+002
2.911079e+002, 3.633157e+002
2.915900e+002, 3.628499e+002
2.920721e+002, 3.624008e+002
2.925542e+002, 3.620961e+002
2.930363e+002, 3.618840e+002
2.935185e+002, 3.616375e+002
2.940006e+002, 3.613587e+002
2.944827e+002, 3.611571e+002
2.949648e+002, 3.611895e+002
2.954469e+002, 3.613703e+002
2.959290e+002, 3.614153e+002
2.964112e+002, 3.612213e+002
2.968933e+002, 3.609479e+002
2.973754e+002, 3.608351e+002
2.978575e+002, 3.608649e+002
2.983396e+002, 3.609411e+002
2.988217e+002, 3.609855e+002
2.993039e+002, 3.610301e+002
2.997860e+002, 3.611114e+002
3.002681e+002, 3.612003e+002
3.007502e+002, 3.614257e+002
3.012323e+002, 3.621476e+002
3.017144e+002, 3.631953e+002
3.021966e+002, 3.639452e+002
3.026787e+002, 3.636710e+002
3.031608e+002, 3.630652e+002
3.036429e+002, 3.632695e+002
3.041250e+002, 3.644987e+002
3.046071e+002, 3.655860e+002
3.050893e+002, 3.652858e+002
3.055714e+002, 3.640514e+002
3.060535e+002, 3.628470e+002
3.065356e+002, 3.618863e+002
3.070177e+002, 3.612710e+002
3.074998e+002, 3.612028e+002
3.079820e+002, 3.616864e+002
3.084641e+002, 3.623449e+002
3.089462e+002, 3.632300e+002
3.094283e+002, 3.640556e+002
3.099104e+002, 3.644159e+002
3.103925e+002, 3.637424e+002
3.108747e+002, 3.628910e+002
3.113568e+002, 3.624413e+002
3.118389e+002, 3.623561e+002
3.123210e+002, 3.623421e+002
3.128031e+002, 3.620328e+002
3.132852e+002, 3.618118e+002
3.137674e+002, 3.620885e+002
3.142495e+002, 3.634524e+002
3.147316e+002, 3.647049e+002
3.152137e+002, 3.652130e+002
3.156958e+002, 3.651098e+002
3.161779e+002, 3.648453e+002
3.166601e+002, 3.643846e+002
3.171422e+002, 3.639623e+002
3.176243e+002, 3.637378e+002
3.181064e+002, 3.637826e+002
3.185885e+002, 3.639298e+002
3.190706e+002, 3.643285e+002
3.195528e+002, 3.647762e+002
3.200349e+002, 3.648832e+002
3.205170e+002, 3.639536e+002
3.209991e+002, 3.631382e+002
3.214812e+002, 3.629715e+002
3.219633e+002, 3.636441e+002
3.224455e+002, 3.644413e+002
3.229276e+002, 3.656606e+002
3.234097e+002, 3.667953e+002
3.238918e+002, 3.672238e+002
3.243739e+002, 3.657867e+002
3.248560e+002, 3.646845e+002
3.253382e+002, 3.646726e+002
3.258203e+002, 3.659253e+002
3.263024e+002, 3.668036e+002
3.267845e+002, 3.671474e+002
3.272666e+002, 3.671109e+002
3.277487e+002, 3.668082e+002
3.282309e+002, 3.657537e+002
3.287130e+002, 3.650213e+002
3.291951e+002, 3.648583e+002
3.296772e+002, 3.651959e+002
3.301593e+002, 3.653399e+002
3.306414e+002, 3.650641e+002
3.311236e+002, 3.648040e+002
3.316057e+002, 3.648016e+002
3.320878e+002, 3.652226e+002
3.325699e+002, 3.656001e+002
3.330520e+002, 3.659416e+002
3.335341e+002, 3.662178e+002
3.340163e+002, 3.663537e+002
3.344984e+002, 3.663599e+002
3.349805e+002, 3.661982e+002
3.354626e+002, 3.657923e+002
3.359447e+002, 3.650128e+002
3.364268e+002, 3.644879e+002
3.369090e+002, 3.642350e+002
3.373911e+002, 3.642172e+002
3.378732e+002, 3.644604e+002
3.383553e+002, 3.651020e+002
3.388374e+002, 3.655311e+002
3.393195e+002, 3.654723e+002
3.398017e+002, 3.649533e+002
3.402838e+002, 3.647587e+002
3.407659e+002, 3.650143e+002
3.412480e+002, 3.652826e+002
3.417301e+002, 3.650150e+002
3.422122e+002, 3.641657e+002
3.426944e+002, 3.634769e+002
3.431765e+002, 3.631352e+002
3.436586e+002, 3.630570e+002
3.441407e+002, 3.629360e+002
3.446228e+002, 3.627511e+002
3.451049e+002, 3.627403e+002
3.455871e+002, 3.632700e+002
3.460692e+002, 3.642292e+002
3.465513e+002, 3.648029e+002
3.470334e+002, 3.648429e+002
3.475155e+002, 3.645469e+002
3.479977e+002, 3.639896e+002
3.484798e+002, 3.632421e+002
3.489619e+002, 3.629439e+002
3.494440e+002, 3.639424e+002
3.499261e+002, 3.656024e+002
3.504082e+002, 3.663913e+002
3.508904e+002, 3.661349e+002
3.513725e+002, 3.655571e+002
3.518546e+002, 3.653172e+002
3.523367e+002, 3.653460e+002
3.528188e+002, 3.654559e+002
3.533009e+002, 3.656382e+002
3.537831e+002, 3.658193e+002
3.542652e+002, 3.658649e+002
3.547473e+002, 3.657836e+002
3.552294e+002, 3.657686e+002
3.557115e+002, 3.661210e+002
3.561936e+002, 3.665760e+002
3.566758e+002, 3.667735e+002
3.571579e+002, 3.664723e+002
3.576400e+002, 3.660626e+002
3.581221e+002, 3.658320e+002
3.586042e+002, 3.657337e+002
3.590863e+002, 3.655866e+002
3.595685e+002, 3.649173e+002
3.600506e+002, 3.644043e+002
3.605327e+002, 3.646952e+002
3.610148e+002, 3.662968e+002
3.614969e+002, 3.676312e+002
3.619790e+002, 3.678741e+002
3.624612e+002, 3.674446e+002
3.629433e+002, 3.670582e+002
3.634254e+002, 3.669067e+002
3.639075e+002, 3.668550e+002
3.643896e+002, 3.668714e+002
3.648717e+002, 3.669609e+002
3.653539e+002, 3.670295e+002
3.658360e+002, 3.669691e+002
3.663181e+002, 3.669161e+002
3.668002e+002, 3.669933e+002
3.672823e+002, 3.676880e+002
3.677644e+002, 3.679865e+002
3.682466e+002, 3.675123e+002
3.687287e+002, 3.663473e+002
3.692108e+002, 3.655163e+002
3.696929e+002, 3.652709e+002
3.701750e+002, 3.651333e+002
3.706571e+002, 3.648687e+002
3.711393e+002, 3.644051e+002
3.716214e+002, 3.639288e+002
3.721035e+002, 3.633350e+002
3.725856e+002, 3.627643e+002
3.730677e+002, 3.626187e+002
3.735498e+002, 3.632714e+002
3.740320e+002, 3.636284e+002
3.745141e+002, 3.631069e+002
3.749962e+002, 3.615239e+002
3.754783e+002, 3.607806e+002
3.759604e+002, 3.611336e+002
3.764425e+002, 3.619167e+002
3.769247e+002, 3.624041e+002
3.774068e+002, 3.625877e+002
3.778889e+002, 3.624712e+002
3.783710e+002, 3.619356e+002
3.788531e+002, 3.611234e+002
3.793352e+002, 3.606914e+002
3.798174e+002, 3.606992e+002
3.802995e+002, 3.607038e+002
3.807816e+002, 3.602770e+002
3.812637e+002, 3.594813e+002
3.817458e+002, 3.588741e+002
3.822279e+002, 3.585458e+002
3.827101e+002, 3.583934e+002
3.831922e+002, 3.582429e+002
3.836743e+002, 3.581040e+002
3.841564e+002, 3.580507e+002
3.846385e+002, 3.583599e+002
3.851206e+002, 3.587356e+002
3.856028e+002, 3.584128e+002
3.860849e+002, 3.572969e+002
3.865670e+002, 3.562286e+002
3.870491e+002, 3.560025e+002
3.875312e+002, 3.563866e+002
3.880133e+002, 3.569262e+002
3.884955e+002, 3.576739e+002
3.889776e+002, 3.583191e+002
3.894597e+002, 3.585008e+002
3.899418e+002, 3.582743e+002
3.904239e+002, 3.579780e+002
3.909060e+002, 3.578030e+002
3.913882e+002, 3.576561e+002
3.918703e+002, 3.574129e+002
3.923524e+002, 3.569022e+002
3.928345e+002, 3.565995e+002
3.933166e+002, 3.570883e+002
3.937987e+002, 3.579315e+002
3.942809e+002, 3.582484e+002
3.947630e+002, 3.571596e+002
3.952451e+002, 3.559950e+002
3.957272e+002, 3.552999e+002
3.962093e+002, 3.551645e+002
3.966914e+002, 3.552424e+002
3.971736e+002, 3.557120e+002
3.976557e+002, 3.562441e+002
3.981378e+002, 3.565366e+002
3.986199e+002, 3.565981e+002
3.991020e+002, 3.563553e+002
3.995841e+002, 3.554567e+002
4.000663e+002, 3.540874e+002
4.005484e+002, 3.535302e+002
4.010305e+002, 3.544144e+002
4.015126e+002, 3.554335e+002
4.019947e+002, 3.559835e+002
4.024768e+002, 3.559930e+002
4.029590e+002, 3.556460e+002
4.034411e+002, 3.546631e+002
4.039232e+002, 3.535403e+002
4.044053e+002, 3.532462e+002
4.048874e+002, 3.540787e+002
4.053695e+002, 3.548642e+002
4.058517e+002, 3.552500e+002
4.063338e+002, 3.552544e+002
4.068159e+002, 3.551055e+002
4.072980e+002, 3.547682e+002
4.077801e+002, 3.544077e+002
4.082622e+002, 3.541532e+002
4.087444e+002, 3.540029e+002
4.092265e+002, 3.539796e+002
4.097086e+002, 3.540710e+002
4.101907e+002, 3.543063e+002
4.106728e+002, 3.548764e+002
4.111549e+002, 3.557393e+002
4.116371e+002, 3.564396e+002
4.121192e+002, 3.566261e+002
4.126013e+002, 3.564506e+002
4.130834e+002, 3.561510e+002
