##NAMES=Malayaite
##RRUFFID=R061106
##IDEAL CHEMISTRY=CaSn^4+^O(SiO_4_)
##LOCALITY=Meldon, Dartmoor, Devon, England
##OWNER=RRUFF
##SOURCE=Michael Scott
##DESCRIPTION=Dark yellow massive associated with wollastonite and garnet
##STATUS=The identification of this mineral is confirmed by single-crystal X-ray diffraction and chemical analysis.
##URL=rruff.info/R061106
##MEASURED CHEMISTRY=Ca_1.00_Sn_1.00_O(Si_1.00_O_4_)
124.9396, 2673.204
125.4217, 2754.535
125.9038, 2850.853
126.3860, 2981.467
126.8681, 3136.851
127.3502, 3292.241
127.8323, 3443.404
128.3144, 3587.419
128.7965, 3713.956
129.2787, 3818.669
129.7608, 3916.988
130.2429, 4034.355
130.7250, 4168.306
131.2071, 4295.713
131.6892, 4387.556
132.1714, 4452.601
132.6535, 4552.523
133.1356, 4702.743
133.6177, 4884.758
134.0998, 5073.169
134.5819, 5279.327
135.0640, 5421.939
135.5462, 5421.984
136.0283, 5275.325
136.5104, 5076.248
136.9925, 4825.263
137.4746, 4528.232
137.9567, 4288.580
138.4389, 4105.738
138.9210, 3968.671
139.4031, 3868.014
139.8852, 3805.466
140.3673, 3767.849
140.8494, 3755.382
141.3316, 3776.005
141.8137, 3785.473
142.2958, 3777.118
142.7779, 3761.705
143.2600, 3765.261
143.7421, 3796.776
144.2243, 3833.134
144.7064, 3863.003
145.1885, 3882.647
145.6706, 3903.601
146.1527, 3928.625
146.6348, 3956.227
147.1170, 3976.382
147.5991, 3985.857
148.0812, 3989.902
148.5633, 3991.616
149.0454, 3978.963
149.5275, 3977.273
150.0097, 3993.142
150.4918, 4029.086
150.9739, 4060.030
151.4560, 4083.119
151.9381, 4101.741
152.4202, 4119.673
152.9024, 4133.481
153.3845, 4149.542
153.8666, 4171.133
154.3487, 4201.989
154.8308, 4227.520
155.3129, 4239.620
155.7950, 4246.070
156.2772, 4260.089
156.7593, 4284.312
157.2414, 4316.837
157.7235, 4357.882
158.2056, 4413.438
158.6877, 4467.566
159.1699, 4504.819
159.6520, 4534.201
160.1341, 4586.404
160.6162, 4685.996
161.0983, 4804.420
161.5804, 4921.786
162.0626, 5019.579
162.5447, 5125.772
163.0268, 5253.176
163.5089, 5400.594
163.9910, 5554.197
164.4731, 5703.367
164.9553, 5856.484
165.4374, 6022.785
165.9195, 6208.093
166.4016, 6405.572
166.8837, 6614.315
167.3658, 6834.566
167.8480, 7061.029
168.3301, 7285.047
168.8122, 7513.037
169.2943, 7756.441
169.7764, 8041.988
170.2585, 8335.106
170.7407, 8607.471
171.2228, 8860.087
171.7049, 9083.278
172.1870, 9284.293
172.6691, 9453.869
173.1512, 9560.727
173.6334, 9561.345
174.1155, 9497.665
174.5976, 9428.051
175.0797, 9370.043
175.5618, 9299.532
176.0439, 9180.876
176.5260, 9019.705
177.0082, 8856.456
177.4903, 8705.641
177.9724, 8571.580
178.4545, 8468.033
178.9366, 8399.693
179.4187, 8359.492
179.9009, 8348.145
180.3830, 8365.150
180.8651, 8380.080
181.3472, 8380.475
181.8293, 8359.891
182.3114, 8297.370
182.7936, 8184.073
183.2757, 8024.409
183.7578, 7815.376
184.2399, 7555.875
184.7220, 7267.215
185.2041, 6965.177
185.6863, 6651.032
186.1684, 6352.930
186.6505, 6073.320
187.1326, 5818.009
187.6147, 5597.271
188.0968, 5412.216
188.5790, 5253.641
189.0611, 5108.217
189.5432, 4976.501
190.0253, 4852.581
190.5074, 4727.962
190.9895, 4606.198
191.4717, 4502.793
191.9538, 4420.087
192.4359, 4353.077
192.9180, 4292.088
193.4001, 4236.583
193.8822, 4186.428
194.3644, 4141.478
194.8465, 4101.632
195.3286, 4066.699
195.8107, 4037.658
196.2928, 4012.743
196.7749, 3986.664
197.2570, 3959.279
197.7392, 3931.410
198.2213, 3900.943
198.7034, 3866.706
199.1855, 3844.711
199.6676, 3842.220
200.1497, 3854.826
200.6319, 3857.169
201.1140, 3848.070
201.5961, 3832.532
202.0782, 3812.842
202.5603, 3787.011
203.0424, 3770.192
203.5246, 3772.513
204.0067, 3792.794
204.4888, 3788.810
204.9709, 3751.670
205.4530, 3706.058
205.9352, 3686.319
206.4173, 3698.905
206.8994, 3713.155
207.3815, 3718.394
207.8636, 3713.750
208.3457, 3710.504
208.8279, 3707.903
209.3100, 3707.379
209.7921, 3711.889
210.2742, 3722.608
210.7563, 3734.937
211.2384, 3745.442
211.7206, 3751.877
212.2027, 3767.771
212.6848, 3797.539
213.1669, 3833.960
213.6490, 3859.966
214.1311, 3873.569
214.6133, 3881.379
215.0954, 3883.138
215.5775, 3871.768
216.0596, 3878.731
216.5417, 3912.056
217.0238, 3962.733
217.5059, 4002.264
217.9881, 4025.410
218.4702, 4046.671
218.9523, 4075.412
219.4344, 4115.397
219.9165, 4152.649
220.3986, 4187.080
220.8808, 4218.188
221.3629, 4245.957
221.8450, 4275.454
222.3271, 4294.583
222.8092, 4295.207
223.2913, 4274.824
223.7735, 4240.412
224.2556, 4186.765
224.7377, 4116.186
225.2198, 4061.328
225.7019, 4029.182
226.1840, 4003.602
226.6662, 3969.198
227.1483, 3914.642
227.6304, 3875.014
228.1125, 3859.931
228.5946, 3869.350
229.0767, 3868.714
229.5589, 3850.158
230.0410, 3829.501
230.5231, 3823.741
231.0052, 3846.507
231.4873, 3858.482
231.9694, 3847.591
232.4516, 3811.206
232.9337, 3788.872
233.4158, 3781.445
233.8979, 3787.375
234.3800, 3808.267
234.8621, 3860.903
235.3443, 3899.004
235.8264, 3908.150
236.3085, 3883.179
236.7906, 3864.913
237.2727, 3855.538
237.7548, 3851.281
238.2369, 3846.532
238.7191, 3837.317
239.2012, 3834.333
239.6833, 3844.723
240.1654, 3876.029
240.6475, 3883.952
241.1296, 3853.599
241.6118, 3808.545
242.0939, 3786.704
242.5760, 3797.657
243.0581, 3816.238
243.5402, 3836.774
244.0223, 3862.099
244.5045, 3878.004
244.9866, 3881.201
245.4687, 3876.843
245.9508, 3874.281
246.4329, 3874.844
246.9150, 3875.556
247.3972, 3875.650
247.8793, 3875.581
248.3614, 3873.731
248.8435, 3867.790
249.3256, 3861.212
249.8077, 3861.880
250.2899, 3873.724
250.7720, 3886.301
251.2541, 3895.677
251.7362, 3901.452
252.2183, 3904.039
252.7004, 3900.956
253.1826, 3895.370
253.6647, 3895.320
254.1468, 3903.431
254.6289, 3912.467
255.1110, 3919.630
255.5931, 3925.283
256.0753, 3927.699
256.5574, 3925.370
257.0395, 3920.450
257.5216, 3919.006
258.0037, 3922.856
258.4858, 3927.176
258.9680, 3929.342
259.4501, 3927.983
259.9322, 3928.764
260.4143, 3931.695
260.8964, 3937.090
261.3785, 3946.396
261.8607, 3962.137
262.3428, 3977.194
262.8249, 3987.011
263.3070, 3988.594
263.7891, 3995.021
264.2712, 4008.608
264.7534, 4026.799
265.2355, 4042.218
265.7176, 4056.730
266.1997, 4064.526
266.6818, 4057.868
267.1639, 4028.480
267.6461, 4018.389
268.1282, 4035.808
268.6103, 4071.770
269.0924, 4100.282
269.5745, 4120.403
270.0566, 4134.705
270.5387, 4143.323
271.0208, 4144.578
271.5030, 4147.495
271.9851, 4151.125
272.4672, 4157.727
272.9493, 4177.813
273.4314, 4216.638
273.9135, 4251.488
274.3957, 4263.015
274.8778, 4246.637
275.3599, 4242.375
275.8420, 4255.199
276.3241, 4281.736
276.8062, 4315.222
277.2884, 4357.860
277.7705, 4398.235
278.2526, 4425.108
278.7347, 4437.189
279.2168, 4461.091
279.6989, 4503.018
280.1811, 4555.907
280.6632, 4602.134
281.1453, 4640.541
281.6274, 4680.184
282.1095, 4726.352
282.5916, 4779.059
283.0738, 4837.526
283.5559, 4902.333
284.0380, 4972.393
284.5201, 5042.744
285.0022, 5113.201
285.4843, 5189.421
285.9665, 5269.829
286.4486, 5355.987
286.9307, 5470.657
287.4128, 5624.497
287.8949, 5795.095
288.3770, 5933.201
288.8592, 6039.445
289.3413, 6134.957
289.8234, 6242.092
290.3055, 6354.117
290.7876, 6430.689
291.2697, 6462.388
291.7519, 6466.607
292.2340, 6469.529
292.7161, 6471.116
293.1982, 6470.382
293.6803, 6466.215
294.1624, 6459.231
294.6446, 6452.802
295.1267, 6449.517
295.6088, 6442.090
296.0909, 6411.193
296.5730, 6361.899
297.0551, 6322.674
297.5373, 6318.506
298.0194, 6336.517
298.5015, 6346.520
298.9836, 6339.350
299.4657, 6338.412
299.9478, 6375.175
300.4300, 6443.850
300.9121, 6522.491
301.3942, 6607.153
301.8763, 6690.828
302.3584, 6760.950
302.8405, 6816.176
303.3227, 6859.546
303.8048, 6887.717
304.2869, 6905.450
304.7690, 6928.087
305.2511, 6947.931
305.7332, 6983.713
306.2154, 7057.788
306.6975, 7173.706
307.1796, 7320.761
307.6617, 7487.694
308.1438, 7676.806
308.6259, 7899.967
309.1081, 8144.887
309.5901, 8433.591
310.0723, 8793.914
310.5544, 9232.826
311.0365, 9708.937
311.5186, 10194.82
312.0007, 10706.15
312.4828, 11265.12
312.9650, 11897.29
313.4471, 12574.65
313.9292, 13268.77
314.4113, 13973.34
314.8934, 14725.53
315.3755, 15551.16
315.8577, 16438.86
316.3398, 17348.52
316.8219, 18244.39
317.3040, 19187.35
317.7861, 20218.48
318.2682, 21346.64
318.7504, 22480.54
319.2325, 23632.19
319.7146, 24773.43
320.1967, 25864.34
320.6788, 27016.33
321.1609, 28014.35
321.6431, 28836.92
322.1252, 29489.23
322.6073, 29818.84
323.0894, 29792.16
323.5715, 29433.65
324.0536, 28761.59
324.5358, 27619.75
325.0179, 26338.72
325.5000, 24922.69
325.9821, 23382.88
326.4642, 21882.20
326.9464, 20391.78
327.4285, 18966.46
327.9106, 17636.56
328.3927, 16408.38
328.8748, 15282.84
329.3569, 14268.86
329.8391, 13361.98
330.3212, 12568.58
330.8033, 11930.46
331.2854, 11364.68
331.7675, 10826.72
332.2496, 10293.75
332.7318, 9822.291
333.2139, 9419.986
333.6960, 9081.986
334.1781, 8773.245
334.6602, 8494.467
335.1423, 8242.976
335.6245, 8014.852
336.1066, 7808.007
336.5887, 7628.140
337.0708, 7476.288
337.5529, 7347.629
338.0350, 7234.142
338.5172, 7137.676
338.9993, 7048.078
339.4814, 6957.672
339.9635, 6865.610
340.4456, 6787.457
340.9277, 6727.017
341.4099, 6674.921
341.8920, 6607.079
342.3741, 6520.924
342.8562, 6449.928
343.3383, 6417.979
343.8204, 6421.203
344.3026, 6411.455
344.7847, 6384.265
345.2668, 6356.793
345.7489, 6352.401
346.2310, 6369.939
346.7131, 6397.984
347.1953, 6430.667
347.6774, 6470.121
348.1595, 6521.325
348.6416, 6583.257
349.1237, 6659.088
349.6058, 6739.440
350.0880, 6833.001
350.5700, 6969.726
351.0522, 7179.033
351.5343, 7426.171
352.0164, 7656.118
352.4985, 7870.352
352.9806, 8098.620
353.4627, 8361.769
353.9449, 8655.291
354.4270, 8972.072
354.9091, 9310.236
355.3912, 9670.787
355.8733, 10045.55
356.3554, 10435.30
356.8376, 10861.45
357.3197, 11334.09
357.8018, 11849.74
358.2839, 12402.84
358.7660, 12981.20
359.2481, 13614.99
359.7303, 14387.43
360.2124, 15231.25
360.6945, 15995.99
361.1766, 16605.69
361.6587, 17117.49
362.1408, 17572.21
362.6230, 18020.53
363.1051, 18314.42
363.5872, 18534.89
364.0693, 18558.82
364.5514, 18166.39
365.0335, 17024.84
365.5157, 15710.06
365.9978, 14384.07
366.4799, 13014.84
366.9620, 11786.90
367.4441, 10733.52
367.9262, 9831.183
368.4084, 9070.619
368.8905, 8498.271
369.3726, 8003.205
369.8547, 7576.770
370.3368, 7218.847
370.8189, 6906.698
371.3011, 6651.685
371.7832, 6432.865
372.2653, 6226.912
372.7474, 6024.384
373.2295, 5859.826
373.7116, 5749.030
374.1938, 5684.025
374.6759, 5611.508
375.1580, 5526.268
375.6401, 5446.049
376.1222, 5384.515
376.6043, 5345.184
377.0865, 5309.199
377.5686, 5276.078
378.0507, 5244.262
378.5328, 5210.209
379.0149, 5173.355
379.4970, 5137.445
379.9792, 5104.080
380.4613, 5073.059
380.9434, 5046.764
381.4255, 5024.681
381.9076, 5007.682
382.3897, 5001.088
382.8719, 5002.836
383.3540, 4999.323
383.8361, 4978.240
384.3182, 4948.070
384.8003, 4928.351
385.2824, 4920.008
385.7646, 4914.897
386.2467, 4907.509
386.7288, 4897.542
387.2109, 4884.229
387.6930, 4861.080
388.1751, 4838.831
388.6573, 4831.022
389.1394, 4836.053
389.6215, 4839.186
390.1036, 4825.285
390.5857, 4807.000
391.0678, 4797.951
391.5499, 4808.795
392.0320, 4820.559
392.5142, 4826.485
392.9963, 4825.922
393.4784, 4816.630
393.9605, 4788.762
394.4426, 4758.151
394.9247, 4732.427
395.4069, 4708.766
395.8890, 4698.803
396.3711, 4718.139
396.8532, 4750.911
397.3353, 4770.070
397.8174, 4764.963
398.2996, 4752.705
398.7817, 4736.622
399.2638, 4715.478
399.7459, 4696.350
400.2280, 4675.106
400.7101, 4658.538
401.1923, 4653.989
401.6744, 4668.685
402.1565, 4682.902
402.6386, 4694.295
403.1207, 4702.741
403.6028, 4706.031
404.0850, 4701.952
404.5671, 4696.727
405.0492, 4693.899
405.5313, 4692.995
406.0134, 4698.080
406.4955, 4711.704
406.9777, 4729.500
407.4598, 4741.773
407.9419, 4748.575
408.4240, 4748.739
408.9061, 4735.163
409.3882, 4711.766
409.8704, 4704.241
410.3525, 4715.750
410.8346, 4735.850
411.3167, 4753.586
411.7988, 4769.197
412.2809, 4783.026
412.7631, 4798.356
413.2452, 4811.260
413.7273, 4813.797
414.2094, 4806.216
414.6915, 4796.028
415.1736, 4789.818
415.6558, 4784.902
416.1379, 4776.882
416.6200, 4758.064
417.1021, 4743.372
417.5842, 4746.261
418.0663, 4763.093
418.5485, 4779.289
419.0306, 4787.913
419.5127, 4793.427
419.9948, 4798.466
420.4769, 4801.830
420.9590, 4807.958
421.4412, 4821.136
421.9233, 4837.286
422.4054, 4849.601
422.8875, 4848.163
423.3696, 4850.287
423.8517, 4863.906
424.3339, 4893.091
424.8160, 4913.765
425.2981, 4921.153
425.7802, 4922.727
426.2623, 4923.464
426.7444, 4911.902
427.2266, 4920.678
427.7087, 4962.756
428.1908, 5030.927
428.6729, 5082.255
429.1550, 5110.692
429.6371, 5135.968
430.1193, 5172.174
430.6014, 5221.795
431.0835, 5259.905
431.5656, 5279.058
432.0477, 5295.400
432.5298, 5342.487
433.0119, 5420.603
433.4940, 5500.325
433.9762, 5561.453
434.4583, 5612.464
434.9404, 5687.320
435.4225, 5787.891
435.9046, 5895.533
436.3867, 5989.334
436.8689, 6074.682
437.3510, 6163.404
437.8331, 6257.203
438.3152, 6358.092
438.7973, 6474.127
439.2794, 6601.896
439.7616, 6724.066
440.2437, 6821.770
440.7258, 6911.744
441.2079, 7013.989
441.6900, 7147.579
442.1721, 7255.790
442.6543, 7311.177
443.1364, 7323.243
443.6185, 7309.212
444.1006, 7274.488
444.5827, 7214.732
445.0648, 7123.108
445.5470, 6995.208
446.0291, 6864.491
446.5112, 6738.407
446.9933, 6609.269
447.4754, 6467.673
447.9576, 6291.631
448.4397, 6138.029
448.9218, 6019.371
449.4039, 5929.412
449.8860, 5838.458
450.3681, 5741.281
450.8503, 5654.802
451.3324, 5591.357
451.8145, 5555.976
452.2966, 5514.106
452.7787, 5461.510
453.2608, 5407.336
453.7430, 5364.489
454.2251, 5333.289
454.7072, 5308.556
455.1893, 5291.465
455.6714, 5278.858
456.1535, 5260.046
456.6357, 5234.994
457.1178, 5207.877
457.5999, 5176.124
458.0820, 5145.620
458.5641, 5132.237
459.0462, 5148.203
459.5284, 5167.715
460.0105, 5163.340
460.4926, 5141.000
460.9747, 5117.595
461.4568, 5097.129
461.9389, 5081.991
462.4211, 5075.712
462.9032, 5080.189
463.3853, 5083.776
463.8674, 5081.509
464.3495, 5075.805
464.8316, 5069.395
465.3138, 5059.087
465.7959, 5051.961
466.2780, 5052.657
466.7601, 5060.153
467.2422, 5060.820
467.7243, 5044.487
468.2065, 5030.335
468.6886, 5028.651
469.1707, 5047.714
469.6528, 5061.173
470.1349, 5068.028
470.6170, 5069.961
471.0992, 5068.163
471.5813, 5060.298
472.0634, 5058.254
472.5455, 5067.518
473.0276, 5086.665
473.5097, 5108.138
473.9918, 5134.156
474.4739, 5150.008
474.9561, 5129.628
475.4382, 5083.050
475.9203, 5060.398
476.4024, 5078.081
476.8845, 5111.839
477.3666, 5130.971
477.8488, 5137.630
478.3309, 5140.346
478.8130, 5140.497
479.2951, 5140.985
479.7772, 5145.357
480.2593, 5154.208
480.7415, 5163.488
481.2236, 5169.881
481.7057, 5175.781
482.1878, 5183.919
482.6699, 5193.766
483.1520, 5207.491
483.6342, 5233.801
484.1163, 5267.926
484.5984, 5283.836
485.0805, 5254.111
485.5626, 5225.086
486.0447, 5218.068
486.5269, 5245.355
487.0090, 5265.172
487.4911, 5269.509
487.9732, 5272.015
488.4553, 5294.768
488.9374, 5346.750
489.4196, 5391.015
489.9017, 5416.458
490.3838, 5426.113
490.8659, 5437.338
491.3480, 5449.413
491.8301, 5466.478
492.3123, 5490.851
492.7944, 5522.522
493.2765, 5565.178
493.7586, 5621.286
494.2407, 5680.708
494.7228, 5723.585
495.2050, 5757.039
495.6871, 5802.804
496.1692, 5878.954
496.6513, 5967.763
497.1334, 6052.598
497.6155, 6132.997
498.0977, 6218.383
498.5798, 6308.037
499.0619, 6408.189
499.5440, 6523.210
500.0261, 6663.127
500.5082, 6804.603
500.9904, 6935.902
501.4725, 7062.921
501.9546, 7200.755
502.4367, 7349.155
502.9188, 7509.591
503.4009, 7680.042
503.8831, 7859.175
504.3652, 8060.995
504.8473, 8292.946
505.3294, 8537.960
505.8115, 8775.424
506.2936, 8996.958
506.7758, 9250.137
507.2579, 9550.355
507.7400, 9875.696
508.2221, 10179.22
508.7042, 10461.02
509.1863, 10725.99
509.6685, 10982.81
510.1506, 11224.92
510.6327, 11440.83
511.1148, 11631.81
511.5969, 11768.86
512.0790, 11834.55
512.5612, 11826.32
513.0433, 11737.28
513.5254, 11551.13
514.0075, 11304.93
514.4896, 11002.97
514.9717, 10661.34
515.4539, 10315.78
515.9360, 9974.428
516.4181, 9639.021
516.9002, 9306.467
517.3823, 8977.107
517.8644, 8666.606
518.3466, 8372.196
518.8287, 8100.752
519.3108, 7859.437
519.7929, 7645.018
520.2750, 7464.861
520.7571, 7332.080
521.2393, 7231.768
521.7214, 7109.913
522.2035, 6953.060
522.6856, 6812.830
523.1677, 6718.867
523.6498, 6668.953
524.1320, 6610.827
524.6141, 6542.252
525.0962, 6474.704
525.5783, 6417.055
526.0604, 6369.251
526.5425, 6332.686
527.0247, 6313.590
527.5068, 6297.475
527.9889, 6266.447
528.4710, 6224.140
528.9531, 6180.612
529.4352, 6132.945
529.9174, 6093.012
530.3995, 6074.414
530.8816, 6080.032
531.3637, 6083.295
531.8458, 6072.328
532.3279, 6055.313
532.8101, 6039.340
533.2922, 6016.110
533.7743, 6005.194
534.2564, 6016.733
534.7385, 6040.916
535.2206, 6054.577
535.7027, 6050.348
536.1848, 6047.097
536.6669, 6050.387
537.1490, 6060.157
537.6312, 6074.861
538.1133, 6095.160
538.5954, 6118.248
539.0775, 6143.087
539.5596, 6169.297
540.0417, 6193.524
540.5239, 6217.516
541.0060, 6234.893
541.4881, 6230.534
541.9702, 6209.908
542.4523, 6193.060
542.9344, 6186.688
543.4166, 6191.009
543.8987, 6211.556
544.3808, 6247.272
544.8629, 6278.294
545.3450, 6283.718
545.8271, 6285.456
546.3093, 6302.698
546.7914, 6352.376
547.2735, 6392.961
547.7556, 6399.052
548.2377, 6393.878
548.7198, 6419.259
549.2020, 6506.949
549.6841, 6581.510
550.1662, 6617.298
550.6483, 6620.056
551.1304, 6661.559
551.6125, 6748.689
552.0947, 6857.078
552.5768, 6975.448
553.0589, 7103.741
553.5410, 7222.702
554.0231, 7324.116
554.5052, 7442.407
554.9874, 7625.302
555.4695, 7862.911
555.9516, 8117.787
556.4337, 8369.854
556.9158, 8639.828
557.3979, 8954.829
557.8801, 9312.991
558.3622, 9697.306
558.8443, 10099.99
559.3264, 10530.37
559.8085, 10988.00
560.2906, 11472.93
560.7728, 11996.76
561.2549, 12563.30
561.7370, 13171.08
562.2191, 13818.54
562.7012, 14500.19
563.1833, 15235.22
563.6655, 16007.07
564.1476, 16832.18
564.6297, 17746.88
565.1118, 18733.97
565.5939, 19833.29
566.0760, 21065.56
566.5582, 22411.02
567.0403, 23895.08
567.5224, 25505.18
568.0045, 27255.13
568.4866, 29141.94
568.9688, 31161.82
569.4509, 33350.43
569.9330, 35749.30
570.4151, 38089.83
570.8972, 40381.53
571.3793, 42382.20
571.8615, 43559.24
572.3436, 43819.87
572.8257, 43100.22
573.3078, 41121.19
573.7899, 37962.15
574.2720, 34602.74
574.7542, 30821.48
575.2363, 27195.13
575.7184, 24002.12
576.2005, 21231.18
576.6826, 18845.35
577.1647, 16892.94
577.6469, 15269.78
578.1290, 13928.44
578.6111, 12889.51
579.0932, 11997.88
579.5753, 11241.83
580.0574, 10608.55
580.5396, 10087.99
581.0217, 9672.532
581.5038, 9307.848
581.9859, 8973.601
582.4680, 8668.860
582.9501, 8395.874
583.4323, 8152.426
583.9144, 7939.027
584.3965, 7763.310
584.8786, 7613.615
585.3607, 7478.344
585.8428, 7359.324
586.3250, 7248.908
586.8071, 7149.570
587.2892, 7056.440
587.7713, 6961.646
588.2534, 6845.870
588.7355, 6750.568
589.2177, 6690.005
589.6998, 6658.597
590.1819, 6613.073
590.6640, 6545.532
591.1461, 6482.966
591.6282, 6445.931
592.1104, 6433.718
592.5925, 6400.692
593.0746, 6343.852
593.5567, 6278.926
594.0388, 6216.163
594.5209, 6159.021
595.0031, 6120.880
595.4852, 6114.828
595.9673, 6110.549
596.4494, 6075.109
596.9315, 6019.459
597.4136, 5969.162
597.8958, 5930.611
598.3779, 5904.518
598.8600, 5898.841
599.3421, 5912.921
599.8242, 5914.497
600.3063, 5888.070
600.7885, 5856.542
601.2706, 5831.755
601.7527, 5816.802
602.2348, 5797.703
602.7169, 5771.756
603.1990, 5745.732
603.6812, 5728.065
604.1633, 5719.061
604.6454, 5715.111
605.1275, 5718.537
605.6096, 5722.095
606.0917, 5708.720
606.5739, 5681.691
607.0560, 5657.245
607.5381, 5642.743
608.0202, 5636.237
608.5023, 5638.395
608.9844, 5648.550
609.4666, 5658.140
609.9487, 5667.945
610.4308, 5672.157
610.9129, 5665.047
611.3950, 5637.308
611.8771, 5617.039
612.3593, 5614.547
612.8414, 5617.640
613.3235, 5611.979
613.8056, 5590.040
614.2877, 5578.448
614.7698, 5586.693
615.2520, 5604.775
615.7341, 5601.013
616.2162, 5574.173
616.6983, 5547.676
617.1804, 5530.781
617.6625, 5523.068
618.1446, 5527.841
618.6267, 5544.375
619.1088, 5557.276
619.5909, 5545.954
620.0731, 5528.391
620.5552, 5527.575
621.0373, 5552.219
