##NAMES=Malachite
##RRUFFID=R050531
##IDEAL CHEMISTRY=Cu^2+^_2_CO_3_(OH)_2_
##LOCALITY=Tsumeb mine, Tsumeb, Otavi District, Oshikoto, Namibia
##OWNER=RRUFF
##SOURCE=University of Arizona Mineral Museum
##DESCRIPTION=Spherical aggregates of green radiating acicular crystals associated with olivenite and bayldonite
##STATUS=The identification of this mineral has been confirmed by X-ray diffraction and chemical analysis
##URL=rruff.info/R050531
##MEASURED CHEMISTRY=(Cu_1.95_Zn_0.05_)_Î£=2_(CO_3_)(OH)_2_ ; C not measured but estimated by stoichiometry
93.275, 338.896
93.757, 368.765
94.239, 404.010
94.721, 443.910
95.203, 486.361
95.685, 531.181
96.168, 577.991
96.650, 628.185
97.132, 682.065
97.614, 738.369
98.096, 797.399
98.578, 859.377
99.060, 921.055
99.542, 982.159
100.025, 1042.520
100.507, 1102.336
100.989, 1161.255
101.471, 1221.407
101.953, 1284.554
102.435, 1351.207
102.917, 1421.019
103.399, 1495.464
103.882, 1575.369
104.364, 1654.719
104.846, 1735.222
105.328, 1814.426
105.810, 1884.765
106.292, 1944.205
106.774, 1998.453
107.256, 2049.882
107.738, 2092.811
108.221, 2141.934
108.703, 2204.419
109.185, 2274.816
109.667, 2330.844
110.149, 2364.175
110.631, 2388.417
111.113, 2410.046
111.595, 2429.822
112.077, 2446.268
112.560, 2458.922
113.042, 2467.849
113.524, 2474.425
114.006, 2477.616
114.488, 2479.055
114.970, 2479.971
115.452, 2479.707
115.934, 2479.797
116.417, 2481.758
116.899, 2485.781
117.381, 2487.204
117.863, 2480.406
118.345, 2471.140
118.827, 2466.172
119.309, 2472.325
119.791, 2480.389
120.273, 2484.805
120.756, 2484.566
121.238, 2483.738
121.720, 2482.790
122.202, 2482.992
122.684, 2486.761
123.166, 2501.200
123.648, 2517.094
124.130, 2524.598
124.613, 2520.785
125.095, 2512.886
125.577, 2503.976
126.059, 2495.418
126.541, 2492.003
127.023, 2502.826
127.505, 2520.030
127.987, 2529.930
128.469, 2530.215
128.952, 2521.553
129.434, 2496.884
129.916, 2457.977
130.398, 2427.589
130.880, 2429.990
131.362, 2457.926
131.844, 2482.812
132.326, 2498.485
132.809, 2506.688
133.291, 2509.277
133.773, 2505.551
134.255, 2503.066
134.737, 2511.089
135.219, 2529.396
135.701, 2545.198
136.183, 2552.790
136.665, 2554.169
137.148, 2564.500
137.630, 2586.323
138.112, 2609.912
138.594, 2620.805
139.076, 2615.394
139.558, 2616.253
140.040, 2633.028
140.522, 2666.971
141.005, 2694.736
141.487, 2714.832
141.969, 2730.059
142.451, 2744.786
142.933, 2759.069
143.415, 2772.416
143.897, 2784.216
144.379, 2793.823
144.861, 2804.251
145.344, 2814.299
145.826, 2825.517
146.308, 2841.415
146.790, 2866.859
147.272, 2891.049
147.754, 2909.253
148.236, 2915.204
148.718, 2926.579
149.200, 2947.643
149.683, 2974.563
150.165, 2994.845
150.647, 3004.132
151.129, 3010.455
151.611, 3017.330
152.093, 3020.837
152.575, 3029.379
153.057, 3041.595
153.540, 3058.345
154.022, 3084.396
154.504, 3132.487
154.986, 3181.919
155.468, 3221.164
155.950, 3237.778
156.432, 3255.965
156.914, 3278.265
157.396, 3304.657
157.879, 3336.567
158.361, 3382.177
158.843, 3429.020
159.325, 3468.773
159.807, 3483.879
160.289, 3506.075
160.771, 3549.359
161.253, 3613.066
161.736, 3673.869
162.218, 3721.212
162.700, 3763.413
163.182, 3808.055
163.664, 3862.375
164.146, 3916.192
164.628, 3963.223
165.110, 4003.310
165.592, 4045.408
166.075, 4099.766
166.557, 4157.559
167.039, 4207.824
167.521, 4241.897
168.003, 4269.995
168.485, 4300.788
168.967, 4335.450
169.449, 4363.782
169.932, 4381.804
170.414, 4388.665
170.896, 4382.742
171.378, 4346.893
171.860, 4306.724
172.342, 4289.307
172.824, 4299.223
173.306, 4312.157
173.788, 4308.226
174.271, 4292.262
174.753, 4275.062
175.235, 4270.945
175.717, 4264.996
176.199, 4233.763
176.681, 4170.683
177.163, 4103.922
177.645, 4065.888
178.127, 4049.131
178.610, 4027.753
179.092, 3986.071
179.574, 3930.970
180.056, 3872.026
180.538, 3809.036
181.020, 3745.749
181.502, 3687.567
181.984, 3633.291
182.467, 3575.869
182.949, 3508.560
183.431, 3434.930
183.913, 3359.161
184.395, 3279.297
184.877, 3204.844
185.359, 3156.712
185.841, 3132.125
186.323, 3108.920
186.806, 3070.156
187.288, 3020.314
187.770, 2974.073
188.252, 2933.808
188.734, 2898.044
189.216, 2864.518
189.698, 2833.392
190.180, 2806.486
190.663, 2789.341
191.145, 2779.658
191.627, 2763.127
192.109, 2735.449
192.591, 2702.810
193.073, 2681.451
193.555, 2672.184
194.037, 2662.273
194.519, 2639.359
195.002, 2604.589
195.484, 2578.367
195.966, 2565.032
196.448, 2560.620
196.930, 2554.092
197.412, 2545.009
197.894, 2536.738
198.376, 2532.565
198.859, 2532.706
199.341, 2531.572
199.823, 2528.927
200.305, 2524.121
200.787, 2512.816
201.269, 2493.055
201.751, 2475.312
202.233, 2470.033
202.715, 2478.833
203.198, 2483.796
203.680, 2480.750
204.162, 2472.164
204.644, 2469.186
205.126, 2473.479
205.608, 2478.408
206.090, 2478.238
206.572, 2471.849
207.054, 2466.469
207.537, 2462.938
208.019, 2461.255
208.501, 2462.776
208.983, 2469.986
209.465, 2474.650
209.947, 2467.879
210.429, 2445.231
210.911, 2429.734
211.394, 2426.022
211.876, 2432.473
212.358, 2439.048
212.840, 2445.618
213.322, 2452.429
213.804, 2461.074
214.286, 2474.404
214.768, 2479.453
215.250, 2470.865
215.733, 2451.402
216.215, 2441.749
216.697, 2444.225
217.179, 2452.684
217.661, 2463.618
218.143, 2479.371
218.625, 2490.919
219.107, 2495.557
219.590, 2494.351
220.072, 2496.629
220.554, 2504.318
221.036, 2512.605
221.518, 2516.891
222.000, 2513.353
222.482, 2516.169
222.964, 2531.909
223.446, 2557.507
223.929, 2565.718
224.411, 2547.827
224.893, 2524.620
225.375, 2510.780
225.857, 2505.646
226.339, 2512.275
226.821, 2538.354
227.303, 2579.317
227.786, 2598.948
228.268, 2586.673
228.750, 2566.702
229.232, 2556.691
229.714, 2560.657
230.196, 2565.932
230.678, 2572.319
231.160, 2579.259
231.642, 2582.137
232.125, 2580.113
232.607, 2575.142
233.089, 2567.623
233.571, 2554.027
234.053, 2545.676
234.535, 2545.416
235.017, 2551.977
235.499, 2556.260
235.982, 2558.450
236.464, 2558.193
236.946, 2555.628
237.428, 2552.517
237.910, 2542.811
238.392, 2522.075
238.874, 2493.088
239.356, 2474.584
239.838, 2470.029
240.321, 2471.127
240.803, 2473.291
241.285, 2477.107
241.767, 2480.818
242.249, 2484.764
242.731, 2488.561
243.213, 2490.313
243.695, 2489.199
244.177, 2487.169
244.660, 2485.149
245.142, 2482.550
245.624, 2481.472
246.106, 2483.539
246.588, 2487.160
247.070, 2485.455
247.552, 2473.098
248.034, 2463.320
248.517, 2464.922
248.999, 2487.827
249.481, 2498.097
249.963, 2488.091
250.445, 2465.806
250.927, 2456.684
251.409, 2466.971
251.891, 2480.485
252.373, 2490.389
252.856, 2497.278
253.338, 2498.496
253.820, 2491.161
254.302, 2479.213
254.784, 2472.778
255.266, 2474.575
255.748, 2477.211
256.230, 2476.709
256.713, 2469.839
257.195, 2470.256
257.677, 2482.595
258.159, 2499.585
258.641, 2504.743
259.123, 2492.455
259.605, 2479.508
260.087, 2471.959
260.569, 2470.578
261.052, 2471.667
261.534, 2475.323
262.016, 2481.376
262.498, 2490.334
262.980, 2504.618
263.462, 2516.214
263.944, 2521.440
264.426, 2519.300
264.909, 2518.132
265.391, 2518.404
265.873, 2519.113
266.355, 2518.266
266.837, 2514.625
267.319, 2513.244
267.801, 2517.623
268.283, 2528.440
268.765, 2529.272
269.248, 2515.281
269.730, 2498.732
270.212, 2494.310
270.694, 2503.620
271.176, 2519.946
271.658, 2546.407
272.140, 2581.704
272.622, 2596.004
273.104, 2581.012
273.587, 2562.661
274.069, 2574.101
274.551, 2623.606
275.033, 2657.585
275.515, 2658.616
275.997, 2632.313
276.479, 2617.423
276.961, 2615.830
277.444, 2619.632
277.926, 2621.360
278.408, 2620.491
278.890, 2623.334
279.372, 2632.124
279.854, 2645.325
280.336, 2656.905
280.818, 2667.307
281.300, 2674.294
281.783, 2672.344
282.265, 2661.229
282.747, 2660.728
283.229, 2676.766
283.711, 2702.743
284.193, 2719.978
284.675, 2727.830
285.157, 2734.756
285.640, 2748.126
286.122, 2767.125
286.604, 2780.918
287.086, 2787.437
287.568, 2789.614
288.050, 2789.945
288.532, 2788.436
289.014, 2794.292
289.496, 2818.220
289.979, 2856.054
290.461, 2885.059
290.943, 2902.136
291.425, 2914.093
291.907, 2930.898
292.389, 2951.884
292.871, 2973.593
293.353, 2993.805
293.836, 3013.372
294.318, 3034.039
294.800, 3055.713
295.282, 3079.908
295.764, 3109.355
296.246, 3142.911
296.728, 3178.034
297.210, 3215.614
297.692, 3253.410
298.175, 3286.751
298.657, 3315.504
299.139, 3343.694
299.621, 3374.080
300.103, 3406.879
300.585, 3444.203
301.067, 3487.176
301.549, 3534.701
302.032, 3589.167
302.514, 3649.537
302.996, 3707.248
303.478, 3750.227
303.960, 3786.061
304.442, 3827.821
304.924, 3881.268
305.406, 3940.078
305.888, 4000.153
306.371, 4060.766
306.853, 4121.288
307.335, 4182.118
307.817, 4241.664
308.299, 4297.406
308.781, 4346.677
309.263, 4395.976
309.745, 4452.015
310.227, 4511.863
310.710, 4568.448
311.192, 4612.163
311.674, 4653.506
312.156, 4704.243
312.638, 4771.115
313.120, 4830.826
313.602, 4868.492
314.084, 4889.794
314.567, 4904.185
315.049, 4905.959
315.531, 4909.332
316.013, 4927.573
316.495, 4965.348
316.977, 4992.091
317.459, 4986.375
317.941, 4964.794
318.423, 4947.401
318.906, 4949.246
319.388, 4948.541
319.870, 4933.375
320.352, 4903.359
320.834, 4878.320
321.316, 4870.346
321.798, 4866.517
322.280, 4856.250
322.763, 4830.782
323.245, 4805.627
323.727, 4781.558
324.209, 4759.615
324.691, 4745.254
325.173, 4746.227
325.655, 4750.289
326.137, 4750.851
326.619, 4753.294
327.102, 4744.811
327.584, 4719.264
328.066, 4681.366
328.548, 4646.138
329.030, 4613.001
329.512, 4583.011
329.994, 4557.696
330.476, 4543.208
330.959, 4520.001
331.441, 4487.685
331.923, 4446.506
332.405, 4396.959
332.887, 4333.506
333.369, 4269.155
333.851, 4207.061
334.333, 4147.438
334.815, 4087.093
335.298, 4024.940
335.780, 3962.663
336.262, 3902.256
336.744, 3846.785
337.226, 3787.831
337.708, 3720.908
338.190, 3648.104
338.672, 3585.157
339.154, 3534.042
339.637, 3489.751
340.119, 3449.878
340.601, 3416.124
341.083, 3379.215
341.565, 3336.445
342.047, 3291.062
342.529, 3254.287
343.011, 3226.648
343.494, 3202.309
343.976, 3177.345
344.458, 3152.008
344.940, 3130.017
345.422, 3112.861
345.904, 3096.256
346.386, 3068.916
346.868, 3032.193
347.351, 3003.772
347.833, 3001.622
348.315, 3015.384
348.797, 3007.313
349.279, 2975.036
349.761, 2938.517
350.243, 2918.257
350.725, 2910.984
351.207, 2905.410
351.690, 2896.195
352.172, 2887.354
352.654, 2888.869
353.136, 2899.367
353.618, 2903.978
354.100, 2883.183
354.582, 2850.853
355.064, 2828.994
355.546, 2825.565
356.029, 2829.785
356.511, 2835.738
356.993, 2842.107
357.475, 2844.624
357.957, 2837.104
358.439, 2826.841
358.921, 2821.092
359.403, 2822.482
359.886, 2822.166
360.368, 2813.263
360.850, 2799.662
361.332, 2787.513
361.814, 2777.493
362.296, 2770.868
362.778, 2769.688
363.260, 2774.353
363.742, 2777.906
364.225, 2777.973
364.707, 2775.922
365.189, 2773.023
365.671, 2768.301
366.153, 2764.054
366.635, 2759.162
367.117, 2754.344
367.599, 2754.579
368.082, 2771.102
368.564, 2785.103
369.046, 2786.463
369.528, 2761.878
370.010, 2743.917
370.492, 2731.743
370.974, 2726.323
371.456, 2730.771
371.938, 2756.021
372.421, 2776.596
372.903, 2782.282
373.385, 2769.180
373.867, 2762.073
374.349, 2763.143
374.831, 2767.942
375.313, 2772.041
375.795, 2776.416
376.278, 2776.634
376.760, 2769.207
377.242, 2756.103
377.724, 2753.909
378.206, 2765.328
378.688, 2778.852
379.170, 2784.258
379.652, 2781.152
380.134, 2783.570
380.617, 2795.581
381.099, 2810.769
381.581, 2813.791
382.063, 2804.811
382.545, 2799.412
383.027, 2811.356
383.509, 2834.721
383.991, 2846.056
384.473, 2842.934
384.956, 2836.265
385.438, 2838.738
385.920, 2847.914
386.402, 2856.073
386.884, 2857.083
387.366, 2857.238
387.848, 2867.599
388.330, 2887.008
388.813, 2904.397
389.295, 2909.457
389.777, 2908.332
390.259, 2908.890
390.741, 2913.868
391.223, 2919.626
391.705, 2923.214
392.187, 2925.567
392.669, 2928.984
393.152, 2937.665
393.634, 2945.544
394.116, 2945.960
394.598, 2934.803
395.080, 2932.681
395.562, 2958.832
396.044, 2994.331
396.526, 3015.943
397.009, 3008.127
397.491, 2996.553
397.973, 2985.301
398.455, 2974.615
398.937, 2970.350
399.419, 2980.165
399.901, 2991.777
400.383, 2997.856
400.865, 2996.146
401.348, 2991.782
401.830, 2981.164
402.312, 2968.470
402.794, 2965.157
403.276, 2976.321
403.758, 2988.788
404.240, 2998.800
404.722, 3007.051
405.205, 3006.999
405.687, 2995.698
406.169, 2980.642
406.651, 2970.032
407.133, 2963.865
407.615, 2962.748
408.097, 2969.177
408.579, 2980.188
409.061, 2981.406
409.544, 2971.576
410.026, 2963.907
410.508, 2971.396
410.990, 2990.771
411.472, 3004.235
411.954, 3008.329
412.436, 3008.899
412.918, 3012.901
413.400, 3020.199
413.883, 3030.031
414.365, 3041.020
414.847, 3054.762
415.329, 3076.112
415.811, 3105.545
416.293, 3132.805
416.775, 3143.919
417.257, 3150.299
417.740, 3168.145
418.222, 3211.511
418.704, 3257.345
419.186, 3292.835
419.668, 3319.158
420.150, 3341.844
420.632, 3347.403
421.114, 3360.852
421.596, 3401.627
422.079, 3484.781
422.561, 3557.986
423.043, 3604.877
423.525, 3635.455
424.007, 3661.982
424.489, 3676.422
424.971, 3697.204
425.453, 3734.551
425.936, 3788.609
426.418, 3826.171
426.900, 3842.192
427.382, 3846.550
427.864, 3843.150
428.346, 3822.658
428.828, 3816.937
429.310, 3837.253
429.792, 3867.612
430.275, 3870.206
430.757, 3839.441
431.239, 3798.829
431.721, 3756.799
432.203, 3713.064
432.685, 3663.018
433.167, 3604.220
433.649, 3545.706
434.132, 3499.128
434.614, 3463.026
435.096, 3423.191
435.578, 3374.958
436.060, 3322.837
436.542, 3272.730
437.024, 3225.713
437.506, 3184.615
437.988, 3155.068
438.471, 3132.113
438.953, 3106.069
439.435, 3074.704
439.917, 3048.753
440.399, 3044.010
440.881, 3049.932
441.363, 3049.551
441.845, 3028.554
442.327, 3005.575
442.810, 2991.941
443.292, 2986.642
443.774, 2981.799
444.256, 2975.383
444.738, 2967.580
445.220, 2957.687
445.702, 2941.313
446.184, 2931.101
446.667, 2936.647
447.149, 2948.455
447.631, 2949.992
448.113, 2928.355
448.595, 2909.157
449.077, 2896.547
449.559, 2890.462
450.041, 2893.777
450.523, 2913.172
451.006, 2933.574
451.488, 2943.620
451.970, 2941.101
452.452, 2934.594
452.934, 2921.693
453.416, 2908.116
453.898, 2909.092
454.380, 2926.393
454.863, 2942.523
455.345, 2947.906
455.827, 2944.706
456.309, 2947.222
456.791, 2956.213
457.273, 2963.709
457.755, 2958.776
458.237, 2945.553
458.719, 2936.136
459.202, 2933.437
459.684, 2935.862
460.166, 2944.272
460.648, 2956.783
461.130, 2967.332
461.612, 2970.631
462.094, 2971.476
462.576, 2974.012
463.059, 2978.772
463.541, 2983.784
464.023, 2988.376
464.505, 2992.489
464.987, 2996.177
465.469, 2998.818
465.951, 3001.649
466.433, 3005.441
466.915, 3009.843
467.398, 3013.308
467.880, 3013.712
468.362, 3014.863
468.844, 3017.934
469.326, 3022.489
469.808, 3030.835
470.290, 3046.422
470.772, 3062.778
471.254, 3070.956
471.737, 3067.425
472.219, 3066.476
472.701, 3070.607
473.183, 3079.489
473.665, 3094.242
474.147, 3116.518
474.629, 3134.688
475.111, 3138.662
475.594, 3130.917
476.076, 3124.818
476.558, 3120.007
477.040, 3122.883
477.522, 3148.283
478.004, 3188.518
478.486, 3220.793
478.968, 3233.396
479.450, 3237.167
479.933, 3239.393
480.415, 3241.719
480.897, 3252.439
481.379, 3285.900
481.861, 3323.954
482.343, 3350.789
482.825, 3361.242
483.307, 3370.696
483.790, 3385.037
484.272, 3401.951
484.754, 3418.534
485.236, 3424.759
485.718, 3440.812
486.200, 3479.538
486.682, 3537.203
487.164, 3577.344
487.646, 3586.835
488.129, 3593.158
488.611, 3609.239
489.093, 3639.040
489.575, 3666.088
490.057, 3690.120
490.539, 3711.356
491.021, 3728.656
491.503, 3740.958
491.986, 3756.619
492.468, 3778.953
492.950, 3805.204
493.432, 3828.727
493.914, 3849.323
494.396, 3866.072
494.878, 3879.084
495.360, 3887.561
495.842, 3888.941
496.325, 3882.801
496.807, 3871.335
497.289, 3854.826
497.771, 3834.839
498.253, 3813.722
498.735, 3792.645
499.217, 3770.660
499.699, 3747.172
500.181, 3722.395
500.664, 3697.146
501.146, 3670.769
501.628, 3644.737
502.110, 3620.890
502.592, 3601.365
503.074, 3577.592
503.556, 3544.395
504.038, 3508.837
504.521, 3477.112
505.003, 3451.743
505.485, 3426.429
505.967, 3399.245
506.449, 3371.522
506.931, 3348.985
507.413, 3334.087
507.895, 3317.125
508.378, 3290.775
508.860, 3255.391
509.342, 3230.281
509.824, 3216.601
510.306, 3207.554
510.788, 3196.191
511.270, 3183.384
511.752, 3172.418
512.234, 3164.473
512.717, 3158.409
513.199, 3153.288
513.681, 3148.960
514.163, 3144.948
514.645, 3141.844
515.127, 3138.359
515.609, 3133.382
516.091, 3126.831
516.573, 3119.576
517.056, 3109.387
517.538, 3100.135
518.020, 3095.099
518.502, 3098.857
518.984, 3101.386
519.466, 3101.172
519.948, 3098.697
520.430, 3094.652
520.913, 3084.451
521.395, 3079.589
521.877, 3086.996
522.359, 3105.921
522.841, 3106.031
523.323, 3078.792
523.805, 3053.129
524.287, 3056.024
524.769, 3087.764
525.252, 3098.273
525.734, 3079.633
526.216, 3050.862
526.698, 3037.369
527.180, 3037.270
527.662, 3042.675
528.144, 3054.455
528.626, 3066.828
529.108, 3069.441
529.591, 3064.467
530.073, 3063.005
530.555, 3077.178
531.037, 3094.495
531.519, 3102.464
532.001, 3096.982
532.483, 3095.805
532.965, 3113.924
533.448, 3136.314
533.930, 3147.372
534.412, 3130.981
534.894, 3119.023
535.376, 3117.072
535.858, 3122.581
536.340, 3128.532
536.822, 3136.454
537.304, 3142.149
537.787, 3143.783
538.269, 3141.291
538.751, 3137.733
539.233, 3132.903
539.715, 3127.660
540.197, 3121.937
540.679, 3116.007
541.161, 3112.165
541.644, 3110.533
542.126, 3111.591
542.608, 3118.830
543.090, 3129.923
543.572, 3136.953
544.054, 3133.449
544.536, 3126.381
545.018, 3124.040
545.500, 3125.122
545.983, 3120.878
546.465, 3101.885
546.947, 3079.195
547.429, 3059.515
547.911, 3041.728
548.393, 3032.438
548.875, 3044.927
549.357, 3061.278
549.840, 3060.695
550.322, 3020.494
550.804, 2998.560
551.286, 3008.445
551.768, 3039.564
552.250, 3058.519
552.732, 3063.665
553.214, 3061.829
553.696, 3051.024
554.179, 3033.592
554.661, 3036.352
555.143, 3061.726
555.625, 3086.394
556.107, 3084.667
556.589, 3066.124
557.071, 3057.443
557.553, 3066.036
558.035, 3076.734
558.518, 3073.694
559.000, 3062.083
559.482, 3051.324
559.964, 3041.644
560.446, 3037.164
560.928, 3044.414
561.410, 3060.677
561.892, 3070.476
562.375, 3063.965
562.857, 3054.862
563.339, 3050.159
563.821, 3051.644
564.303, 3050.534
564.785, 3043.728
565.267, 3037.557
565.749, 3039.910
566.231, 3054.554
566.714, 3060.040
567.196, 3049.972
567.678, 3034.208
568.160, 3034.924
568.642, 3051.229
569.124, 3064.654
569.606, 3061.809
570.088, 3053.054
570.571, 3064.763
571.053, 3093.996
571.535, 3114.412
572.017, 3094.537
572.499, 3063.222
572.981, 3054.465
573.463, 3079.277
573.945, 3096.167
574.427, 3073.770
574.910, 3038.915
575.392, 3020.569
575.874, 3037.130
576.356, 3055.079
576.838, 3074.706
577.320, 3092.453
577.802, 3096.563
578.284, 3077.054
578.767, 3063.034
579.249, 3066.003
579.731, 3084.288
580.213, 3098.178
580.695, 3107.380
581.177, 3113.247
581.659, 3117.898
582.141, 3120.356
582.623, 3113.911
583.106, 3096.304
583.588, 3079.516
584.070, 3077.460
584.552, 3084.804
585.034, 3091.998
585.516, 3096.385
585.998, 3098.932
586.480, 3099.290
586.963, 3098.198
587.445, 3097.548
587.927, 3096.688
588.409, 3097.538
588.891, 3102.517
589.373, 3112.295
589.855, 3116.414
590.337, 3112.759
590.819, 3105.907
591.302, 3095.983
591.784, 3078.949
592.266, 3078.952
592.748, 3100.825
593.230, 3129.751
593.712, 3149.202
594.194, 3159.179
594.676, 3158.097
595.159, 3141.781
595.641, 3120.583
596.123, 3108.888
596.605, 3105.173
597.087, 3104.047
597.569, 3103.301
598.051, 3103.638
598.533, 3106.312
599.015, 3111.098
599.498, 3115.121
599.980, 3117.826
600.462, 3119.067
600.944, 3118.342
601.426, 3113.833
601.908, 3111.567
602.390, 3110.778
602.872, 3112.941
603.355, 3121.056
603.837, 3138.535
604.319, 3149.890
604.801, 3152.864
605.283, 3149.061
605.765, 3138.078
606.247, 3120.361
606.729, 3109.929
607.211, 3117.336
607.694, 3132.840
608.176, 3138.176
608.658, 3134.827
609.140, 3132.981
609.622, 3145.280
610.104, 3158.138
610.586, 3157.228
611.068, 3138.765
611.551, 3124.088
612.033, 3121.164
612.515, 3124.885
612.997, 3130.960
613.479, 3146.240
613.961, 3153.101
