##NAMES=Malachite
##RRUFFID=R050531
##IDEAL CHEMISTRY=Cu^2+^_2_CO_3_(OH)_2_
##LOCALITY=Tsumeb mine, Tsumeb, Otavi District, Oshikoto, Namibia
##OWNER=RRUFF
##SOURCE=University of Arizona Mineral Museum
##DESCRIPTION=Spherical aggregates of green radiating acicular crystals associated with olivenite and bayldonite
##STATUS=The identification of this mineral has been confirmed by X-ray diffraction and chemical analysis
##URL=rruff.info/R050531
##MEASURED CHEMISTRY=(Cu_1.95_Zn_0.05_)_Î£=2_(CO_3_)(OH)_2_ ; C not measured but estimated by stoichiometry
93.275, 290.827
93.757, 315.762
94.239, 342.552
94.721, 370.797
95.203, 398.964
95.685, 425.621
96.168, 452.791
96.650, 487.816
97.132, 531.497
97.614, 575.936
98.096, 615.278
98.578, 649.661
99.060, 678.650
99.542, 699.680
100.025, 714.115
100.507, 736.493
100.989, 768.638
101.471, 805.341
101.953, 838.199
102.435, 865.449
102.917, 895.981
103.399, 934.228
103.882, 982.000
104.364, 1027.906
104.846, 1070.979
105.328, 1112.790
105.810, 1156.094
106.292, 1204.993
106.774, 1250.248
107.256, 1287.322
107.738, 1302.003
108.221, 1331.753
108.703, 1388.596
109.185, 1463.582
109.667, 1519.026
110.149, 1534.642
110.631, 1544.347
111.113, 1564.716
111.595, 1614.310
112.077, 1654.546
112.560, 1675.392
113.042, 1678.923
113.524, 1691.740
114.006, 1730.144
114.488, 1772.963
114.970, 1804.079
115.452, 1803.650
115.934, 1806.692
116.417, 1827.514
116.899, 1867.249
117.381, 1904.039
117.863, 1928.486
118.345, 1945.894
118.827, 1962.499
119.309, 1986.873
119.791, 2006.620
120.273, 2012.603
120.756, 2002.183
121.238, 1989.000
121.720, 1982.938
122.202, 1979.941
122.684, 1972.276
123.166, 1951.781
123.648, 1926.723
124.130, 1905.921
124.613, 1892.205
125.095, 1878.718
125.577, 1860.286
126.059, 1837.153
126.541, 1810.173
127.023, 1774.860
127.505, 1736.706
127.987, 1706.082
128.469, 1687.182
128.952, 1673.782
129.434, 1655.187
129.916, 1632.135
130.398, 1614.154
130.880, 1611.139
131.362, 1620.263
131.844, 1630.872
132.326, 1643.044
132.809, 1653.666
133.291, 1652.721
133.773, 1639.426
134.255, 1622.767
134.737, 1611.537
135.219, 1605.625
135.701, 1598.600
136.183, 1587.557
136.665, 1573.500
137.148, 1563.878
137.630, 1558.748
138.112, 1557.892
138.594, 1561.912
139.076, 1571.424
139.558, 1582.103
140.040, 1590.870
140.522, 1596.865
141.005, 1615.238
141.487, 1652.099
141.969, 1694.209
142.451, 1719.869
142.933, 1721.073
143.415, 1723.348
143.897, 1735.888
144.379, 1761.490
144.861, 1788.101
145.344, 1815.191
145.826, 1843.207
146.308, 1872.315
146.790, 1904.260
147.272, 1935.518
147.754, 1964.328
148.236, 1987.496
148.718, 2014.314
149.200, 2045.127
149.683, 2079.625
150.165, 2116.685
150.647, 2158.187
151.129, 2201.004
151.611, 2244.277
152.093, 2301.593
152.575, 2342.939
153.057, 2358.774
153.540, 2354.458
154.022, 2358.971
154.504, 2385.029
154.986, 2413.352
155.468, 2433.378
155.950, 2441.074
156.432, 2443.426
156.914, 2442.969
157.396, 2438.979
157.879, 2425.830
158.361, 2390.678
158.843, 2352.303
159.325, 2323.620
159.807, 2321.012
160.289, 2316.069
160.771, 2299.732
161.253, 2272.080
161.736, 2241.375
162.218, 2204.303
162.700, 2167.779
163.182, 2138.393
163.664, 2120.590
164.146, 2108.013
164.628, 2100.930
165.110, 2099.422
165.592, 2092.709
166.075, 2068.021
166.557, 2036.949
167.039, 2013.890
167.521, 2005.853
168.003, 2006.790
168.485, 2015.556
168.967, 2032.780
169.449, 2048.464
169.932, 2054.583
170.414, 2054.925
170.896, 2055.483
171.378, 2059.772
171.860, 2065.060
172.342, 2068.217
172.824, 2068.616
173.306, 2069.865
173.788, 2075.661
174.271, 2084.598
174.753, 2093.417
175.235, 2101.322
175.717, 2107.962
176.199, 2113.688
176.681, 2119.055
177.163, 2120.816
177.645, 2114.550
178.127, 2101.714
178.610, 2086.550
179.092, 2071.023
179.574, 2054.844
180.056, 2036.760
180.538, 2015.997
181.020, 1995.151
181.502, 1975.315
181.984, 1957.192
182.467, 1943.822
182.949, 1938.683
183.431, 1939.563
183.913, 1942.197
184.395, 1947.559
184.877, 1951.031
185.359, 1945.001
185.841, 1929.870
186.323, 1911.182
186.806, 1889.475
187.288, 1866.399
187.770, 1847.943
188.252, 1836.482
188.734, 1827.592
189.216, 1811.826
189.698, 1789.436
190.180, 1768.997
190.663, 1759.781
191.145, 1759.476
191.627, 1753.411
192.109, 1737.913
192.591, 1717.665
193.073, 1701.705
193.555, 1689.934
194.037, 1684.441
194.519, 1691.547
195.002, 1710.055
195.484, 1719.555
195.966, 1714.681
196.448, 1701.079
196.930, 1692.491
197.412, 1688.629
197.894, 1691.648
198.376, 1707.102
198.859, 1735.309
199.341, 1757.010
199.823, 1767.640
200.305, 1770.595
200.787, 1776.517
201.269, 1785.299
201.751, 1797.337
202.233, 1813.172
202.715, 1832.807
203.198, 1855.290
203.680, 1882.188
204.162, 1911.431
204.644, 1932.360
205.126, 1941.838
205.608, 1952.398
206.090, 1975.315
206.572, 2013.229
207.054, 2049.175
207.537, 2079.995
208.019, 2106.978
208.501, 2137.366
208.983, 2172.485
209.465, 2208.137
209.947, 2240.302
210.429, 2267.144
210.911, 2298.964
211.394, 2339.060
211.876, 2385.855
212.358, 2429.404
212.840, 2468.539
213.322, 2505.839
213.804, 2542.705
214.286, 2578.649
214.768, 2616.493
215.250, 2657.367
215.733, 2700.757
216.215, 2742.477
216.697, 2784.729
217.179, 2821.715
217.661, 2849.147
218.143, 2865.683
218.625, 2875.852
219.107, 2877.235
219.590, 2871.603
220.072, 2875.793
220.554, 2896.089
221.036, 2916.754
221.518, 2926.340
222.000, 2923.740
222.482, 2912.536
222.964, 2892.800
223.446, 2864.858
223.929, 2829.364
224.411, 2784.291
224.893, 2734.906
225.375, 2683.981
225.857, 2625.189
226.339, 2579.344
226.821, 2554.303
227.303, 2546.843
227.786, 2524.906
228.268, 2481.094
228.750, 2432.750
229.232, 2392.434
229.714, 2361.345
230.196, 2336.425
230.678, 2321.738
231.160, 2314.822
231.642, 2294.404
232.125, 2252.241
232.607, 2207.457
233.089, 2172.647
233.571, 2151.622
234.053, 2133.437
234.535, 2118.356
235.017, 2105.577
235.499, 2089.395
235.982, 2068.622
236.464, 2045.904
236.946, 2022.338
237.428, 1994.546
237.910, 1973.365
238.392, 1962.476
238.874, 1959.595
239.356, 1952.169
239.838, 1940.194
240.321, 1923.651
240.803, 1901.037
241.285, 1865.311
241.767, 1838.824
242.249, 1825.710
242.731, 1823.354
243.213, 1820.302
243.695, 1817.920
244.177, 1813.034
244.660, 1802.892
245.142, 1782.389
245.624, 1767.860
246.106, 1761.948
246.588, 1762.617
247.070, 1763.294
247.552, 1766.544
248.034, 1766.019
248.517, 1756.700
248.999, 1730.485
249.481, 1714.817
249.963, 1714.382
250.445, 1724.465
250.927, 1730.662
251.409, 1731.714
251.891, 1730.754
252.373, 1728.688
252.856, 1723.898
253.338, 1722.356
253.820, 1725.778
254.302, 1731.870
254.784, 1734.436
255.266, 1730.649
255.748, 1728.222
256.230, 1731.607
256.713, 1745.143
257.195, 1751.213
257.677, 1746.589
258.159, 1736.289
258.641, 1730.238
259.123, 1727.845
259.605, 1731.146
260.087, 1743.848
260.569, 1771.092
261.052, 1783.685
261.534, 1773.684
262.016, 1755.474
262.498, 1755.830
262.980, 1782.530
263.462, 1809.411
263.944, 1826.776
264.426, 1833.620
264.909, 1838.792
265.391, 1840.582
265.873, 1842.658
266.355, 1850.668
266.837, 1865.598
267.319, 1883.708
267.801, 1904.992
268.283, 1929.666
268.765, 1950.091
269.248, 1962.933
269.730, 1976.350
270.212, 2002.803
270.694, 2046.665
271.176, 2086.008
271.658, 2112.633
272.140, 2127.016
272.622, 2151.401
273.104, 2187.126
273.587, 2230.659
274.069, 2277.545
274.551, 2327.266
275.033, 2386.542
275.515, 2461.619
275.997, 2548.274
276.479, 2621.602
276.961, 2680.733
277.444, 2731.242
277.926, 2772.018
278.408, 2800.357
278.890, 2849.771
279.372, 2934.575
279.854, 3043.746
280.336, 3124.884
280.818, 3174.792
281.300, 3214.721
281.783, 3262.324
282.265, 3317.802
282.747, 3365.037
283.229, 3401.372
283.711, 3428.318
284.193, 3451.682
284.675, 3472.523
285.157, 3480.380
285.640, 3464.675
286.122, 3426.870
286.604, 3386.337
287.086, 3346.660
287.568, 3302.681
288.050, 3241.928
288.532, 3163.877
289.014, 3085.057
289.496, 3012.083
289.979, 2945.239
290.461, 2887.583
290.943, 2841.110
291.425, 2798.855
291.907, 2747.690
292.389, 2689.761
292.871, 2636.710
293.353, 2592.323
293.836, 2557.315
294.318, 2537.996
294.800, 2536.474
295.282, 2538.909
295.764, 2526.304
296.246, 2502.444
296.728, 2482.502
297.210, 2474.027
297.692, 2473.835
298.175, 2476.964
298.657, 2483.696
299.139, 2489.480
299.621, 2487.419
300.103, 2480.785
300.585, 2477.843
301.067, 2481.449
301.549, 2490.435
302.032, 2505.125
302.514, 2525.066
302.996, 2545.196
303.478, 2559.490
303.960, 2571.329
304.442, 2586.832
304.924, 2610.197
305.406, 2635.104
305.888, 2657.142
306.371, 2675.809
306.853, 2689.624
307.335, 2692.626
307.817, 2691.799
308.299, 2696.833
308.781, 2714.079
309.263, 2729.259
309.745, 2726.159
310.227, 2710.965
310.710, 2700.854
311.192, 2711.036
311.674, 2727.179
312.156, 2738.561
312.638, 2744.924
313.120, 2741.786
313.602, 2719.518
314.084, 2686.364
314.567, 2657.630
315.049, 2642.350
315.531, 2631.575
316.013, 2621.171
316.495, 2610.905
316.977, 2598.516
317.459, 2581.032
317.941, 2561.469
318.423, 2543.474
318.906, 2528.120
319.388, 2514.592
319.870, 2502.835
320.352, 2492.945
320.834, 2484.271
321.316, 2479.448
321.798, 2474.356
322.280, 2465.618
322.763, 2443.901
323.245, 2427.572
323.727, 2423.061
324.209, 2428.928
324.691, 2433.683
325.173, 2436.188
325.655, 2436.722
326.137, 2435.443
326.619, 2432.777
327.102, 2427.765
327.584, 2417.663
328.066, 2404.770
328.548, 2396.314
329.030, 2389.433
329.512, 2389.554
329.994, 2399.287
330.476, 2423.018
330.959, 2446.460
331.441, 2460.841
331.923, 2478.455
332.405, 2525.145
332.887, 2656.552
333.369, 2735.019
333.851, 2706.357
334.333, 2546.682
334.815, 2435.854
335.298, 2386.416
335.780, 2371.630
336.262, 2364.518
336.744, 2367.581
337.226, 2372.165
337.708, 2377.201
338.190, 2382.458
338.672, 2386.652
339.154, 2390.962
339.637, 2391.498
340.119, 2382.716
340.601, 2362.628
341.083, 2348.231
341.565, 2342.854
342.047, 2344.039
342.529, 2345.307
343.011, 2346.635
343.494, 2348.255
343.976, 2351.700
344.458, 2356.640
344.940, 2356.152
345.422, 2348.574
345.904, 2338.308
346.386, 2333.041
346.868, 2332.425
347.351, 2330.170
347.833, 2321.750
348.315, 2309.216
348.797, 2300.536
349.279, 2296.375
349.761, 2290.991
350.243, 2275.355
350.725, 2252.817
351.207, 2234.603
351.690, 2227.976
352.172, 2225.424
352.654, 2214.468
353.136, 2195.832
353.618, 2176.571
354.100, 2161.629
354.582, 2149.856
355.064, 2139.499
355.546, 2130.191
356.029, 2122.054
356.511, 2115.870
356.993, 2111.217
357.475, 2106.859
357.957, 2104.575
358.439, 2100.896
358.921, 2090.622
359.403, 2070.151
359.886, 2054.589
360.368, 2058.626
360.850, 2072.506
361.332, 2080.894
361.814, 2077.288
362.296, 2067.348
362.778, 2050.400
363.260, 2025.875
363.742, 2007.672
364.225, 2005.766
364.707, 2009.760
365.189, 2010.147
365.671, 2000.515
366.153, 1991.907
366.635, 1986.364
367.117, 1983.799
367.599, 1983.275
368.082, 1986.596
368.564, 1990.559
369.046, 1993.628
369.528, 1998.005
370.010, 1998.262
370.492, 1993.844
370.974, 1985.335
371.456, 1973.554
371.938, 1952.188
372.421, 1935.837
372.903, 1930.619
373.385, 1939.087
373.867, 1945.338
374.349, 1949.612
374.831, 1951.410
375.313, 1949.240
375.795, 1940.827
376.278, 1935.231
376.760, 1934.762
377.242, 1938.918
377.724, 1944.620
378.206, 1952.667
378.688, 1959.831
379.170, 1963.851
379.652, 1964.699
380.134, 1962.382
380.617, 1955.200
381.099, 1947.261
381.581, 1948.865
382.063, 1959.857
382.545, 1968.678
383.027, 1966.934
383.509, 1957.453
383.991, 1949.736
384.473, 1943.961
384.956, 1941.374
385.438, 1946.062
385.920, 1955.606
386.402, 1962.376
386.884, 1962.925
387.366, 1959.323
387.848, 1952.723
388.330, 1943.567
388.813, 1935.693
389.295, 1934.195
389.777, 1934.953
390.259, 1932.000
390.741, 1920.611
391.223, 1910.894
391.705, 1913.478
392.187, 1923.729
392.669, 1929.327
393.152, 1916.678
393.634, 1903.285
394.116, 1902.294
394.598, 1918.455
395.080, 1931.170
395.562, 1928.962
396.044, 1920.570
396.526, 1916.612
397.009, 1925.631
397.491, 1933.099
397.973, 1934.040
398.455, 1928.535
398.937, 1924.584
399.419, 1924.106
399.901, 1924.656
400.383, 1924.547
400.865, 1917.662
401.348, 1919.401
401.830, 1937.015
402.312, 1962.537
402.794, 1974.525
403.276, 1965.490
403.758, 1954.962
404.240, 1950.448
404.722, 1952.975
405.205, 1954.414
405.687, 1954.545
406.169, 1953.923
406.651, 1951.161
407.133, 1944.564
407.615, 1947.672
408.097, 1968.817
408.579, 2000.928
409.061, 2011.880
409.544, 1999.721
410.026, 1985.717
410.508, 1986.321
410.990, 1999.172
411.472, 2012.889
411.954, 2026.972
412.436, 2038.587
412.918, 2040.042
413.400, 2034.065
413.883, 2032.200
414.365, 2042.644
414.847, 2059.632
415.329, 2076.795
415.811, 2094.106
416.293, 2107.707
416.775, 2114.303
417.257, 2115.843
417.740, 2114.640
418.222, 2107.523
418.704, 2102.477
419.186, 2105.853
419.668, 2115.779
420.150, 2125.881
420.632, 2131.172
421.114, 2137.120
421.596, 2148.377
422.079, 2169.319
422.561, 2184.312
423.043, 2182.948
423.525, 2175.325
424.007, 2174.646
424.489, 2196.896
424.971, 2211.691
425.453, 2206.008
425.936, 2180.018
426.418, 2169.866
426.900, 2189.606
427.382, 2211.831
427.864, 2218.508
428.346, 2200.721
428.828, 2187.024
429.310, 2179.319
429.792, 2176.080
430.275, 2175.420
430.757, 2179.777
431.239, 2178.607
431.721, 2165.452
432.203, 2140.667
432.685, 2121.381
433.167, 2107.827
433.649, 2097.716
434.132, 2089.877
434.614, 2083.939
435.096, 2076.107
435.578, 2064.648
436.060, 2051.851
436.542, 2040.245
437.024, 2030.417
437.506, 2025.554
437.988, 2033.927
438.471, 2046.869
438.953, 2048.380
439.435, 2035.194
439.917, 2021.838
440.399, 2022.287
440.881, 2030.691
441.363, 2037.669
441.845, 2038.879
442.327, 2037.926
442.810, 2035.777
443.292, 2032.802
443.774, 2031.312
444.256, 2033.253
444.738, 2036.335
445.220, 2039.403
445.702, 2043.895
446.184, 2045.250
446.667, 2039.037
447.149, 2029.811
447.631, 2025.495
448.113, 2032.429
448.595, 2038.014
449.077, 2039.464
449.559, 2036.627
450.041, 2032.285
450.523, 2022.791
451.006, 2016.313
451.488, 2020.948
451.970, 2041.849
452.452, 2054.837
452.934, 2055.295
453.416, 2049.087
453.898, 2050.287
454.380, 2059.804
454.863, 2068.636
455.345, 2072.615
455.827, 2072.322
456.309, 2070.923
456.791, 2068.364
457.273, 2065.444
457.755, 2063.378
458.237, 2061.654
458.719, 2058.407
459.202, 2051.616
459.684, 2045.506
460.166, 2048.091
460.648, 2056.362
461.130, 2060.369
461.612, 2046.369
462.094, 2030.636
462.576, 2029.681
463.059, 2046.841
463.541, 2062.103
464.023, 2060.841
464.505, 2054.007
464.987, 2053.204
465.469, 2069.026
465.951, 2083.243
466.433, 2090.247
466.915, 2091.458
467.398, 2093.859
467.880, 2101.938
468.362, 2108.033
468.844, 2108.053
469.326, 2097.844
469.808, 2095.025
470.290, 2104.323
470.772, 2116.855
471.254, 2120.728
471.737, 2111.632
472.219, 2107.219
472.701, 2111.451
473.183, 2122.821
473.665, 2138.550
474.147, 2160.557
474.629, 2175.194
475.111, 2167.008
475.594, 2141.083
476.076, 2129.531
476.558, 2135.216
477.040, 2150.856
477.522, 2175.465
478.004, 2204.098
478.486, 2221.808
478.968, 2217.506
479.450, 2204.773
479.933, 2194.863
480.415, 2188.694
480.897, 2190.348
481.379, 2207.862
481.861, 2230.810
482.343, 2250.199
482.825, 2263.180
483.307, 2278.085
483.790, 2303.272
484.272, 2330.637
484.754, 2350.123
485.236, 2348.853
485.718, 2351.311
486.200, 2365.992
486.682, 2391.274
487.164, 2410.061
487.646, 2416.348
488.129, 2422.743
488.611, 2435.457
489.093, 2457.193
489.575, 2476.427
490.057, 2491.939
490.539, 2506.252
491.021, 2522.272
491.503, 2539.753
491.986, 2560.485
492.468, 2587.373
492.950, 2616.100
493.432, 2632.296
493.914, 2635.890
494.396, 2638.832
494.878, 2650.951
495.360, 2668.291
495.842, 2679.265
496.325, 2681.618
496.807, 2686.870
497.289, 2711.224
497.771, 2744.955
498.253, 2771.990
498.735, 2783.846
499.217, 2789.138
499.699, 2793.373
500.181, 2795.582
500.664, 2792.034
501.146, 2772.535
501.628, 2753.713
502.110, 2745.297
502.592, 2751.425
503.074, 2757.346
503.556, 2762.141
504.038, 2765.415
504.521, 2766.976
505.003, 2767.657
505.485, 2764.839
505.967, 2755.398
506.449, 2742.431
506.931, 2738.275
507.413, 2745.115
507.895, 2754.364
508.378, 2761.670
508.860, 2767.122
509.342, 2775.650
509.824, 2787.533
510.306, 2801.129
510.788, 2815.536
511.270, 2830.318
511.752, 2844.382
512.234, 2857.948
512.717, 2869.293
513.199, 2876.999
513.681, 2880.727
514.163, 2879.397
514.645, 2866.746
515.127, 2852.566
515.609, 2846.667
516.091, 2849.542
516.573, 2850.869
517.056, 2848.303
517.538, 2840.860
518.020, 2827.266
518.502, 2797.066
518.984, 2774.831
519.466, 2769.115
519.948, 2773.432
520.430, 2774.521
520.913, 2769.710
521.395, 2765.446
521.877, 2763.531
522.359, 2763.885
522.841, 2763.905
523.323, 2763.853
523.805, 2762.842
524.287, 2759.950
524.769, 2755.191
525.252, 2750.474
525.734, 2746.099
526.216, 2741.327
526.698, 2735.621
527.180, 2728.762
527.662, 2720.011
528.144, 2709.473
528.626, 2696.617
529.108, 2678.469
529.591, 2656.507
530.073, 2637.291
530.555, 2628.949
531.037, 2622.740
531.519, 2611.111
532.001, 2592.358
532.483, 2572.438
532.965, 2552.022
533.448, 2532.433
533.930, 2515.357
534.412, 2501.688
534.894, 2489.651
535.376, 2479.084
535.858, 2469.980
536.340, 2462.052
536.822, 2457.139
537.304, 2450.372
537.787, 2439.365
538.269, 2424.031
538.751, 2410.451
539.233, 2398.839
539.715, 2388.534
540.197, 2378.226
540.679, 2368.193
541.161, 2361.033
541.644, 2357.515
542.126, 2355.736
542.608, 2353.272
543.090, 2350.281
543.572, 2347.419
544.054, 2343.143
544.536, 2340.363
545.018, 2343.792
545.500, 2352.284
545.983, 2358.293
546.465, 2354.258
546.947, 2348.816
547.429, 2349.551
547.911, 2361.629
548.393, 2366.474
548.875, 2352.580
549.357, 2332.994
549.840, 2322.172
550.322, 2324.677
550.804, 2329.916
551.286, 2341.133
551.768, 2353.398
552.250, 2346.590
552.732, 2312.496
553.214, 2287.214
553.696, 2292.392
554.179, 2323.441
554.661, 2334.206
555.143, 2322.796
555.625, 2307.599
556.107, 2306.975
556.589, 2315.366
557.071, 2317.550
557.553, 2309.631
558.035, 2298.816
558.518, 2291.912
559.000, 2287.344
559.482, 2282.138
559.964, 2274.575
560.446, 2266.534
560.928, 2256.889
561.410, 2246.777
561.892, 2242.087
562.375, 2253.608
562.857, 2263.311
563.339, 2259.929
563.821, 2237.170
564.303, 2226.021
564.785, 2233.875
565.267, 2245.785
565.749, 2246.940
566.231, 2234.419
566.714, 2223.335
567.196, 2214.995
567.678, 2209.983
568.160, 2211.638
568.642, 2219.512
569.124, 2224.478
569.606, 2219.027
570.088, 2209.562
570.571, 2211.584
571.053, 2223.590
571.535, 2231.450
572.017, 2218.016
572.499, 2199.224
572.981, 2193.700
573.463, 2207.300
573.945, 2218.307
574.427, 2214.079
574.910, 2203.287
575.392, 2195.393
575.874, 2197.294
576.356, 2195.852
576.838, 2183.198
577.320, 2166.336
577.802, 2166.044
578.284, 2193.918
578.767, 2216.226
579.249, 2219.326
579.731, 2205.264
580.213, 2199.866
580.695, 2204.564
581.177, 2210.666
581.659, 2209.883
582.141, 2204.455
582.623, 2206.058
583.106, 2217.405
583.588, 2226.600
584.070, 2216.793
584.552, 2196.739
585.034, 2182.781
585.516, 2184.159
585.998, 2188.645
586.480, 2190.130
586.963, 2188.947
587.445, 2185.906
587.927, 2175.208
588.409, 2168.431
588.891, 2171.293
589.373, 2184.904
589.855, 2196.908
590.337, 2208.452
590.819, 2217.038
591.302, 2221.100
591.784, 2220.062
592.266, 2215.763
592.748, 2206.135
593.230, 2197.966
593.712, 2203.512
594.194, 2220.999
594.676, 2231.659
595.159, 2228.319
595.641, 2220.197
596.123, 2223.873
596.605, 2234.933
597.087, 2239.014
597.569, 2216.868
598.051, 2193.548
598.533, 2193.154
599.015, 2214.238
599.498, 2229.125
599.980, 2218.786
600.462, 2205.545
600.944, 2203.690
601.426, 2221.643
601.908, 2233.927
602.390, 2239.287
602.872, 2239.582
603.355, 2235.291
603.837, 2223.605
604.319, 2217.618
604.801, 2220.081
605.283, 2227.800
605.765, 2236.738
606.247, 2246.644
606.729, 2249.784
607.211, 2236.929
607.694, 2218.792
608.176, 2214.489
608.658, 2222.794
609.140, 2235.335
609.622, 2253.365
610.104, 2268.952
610.586, 2274.240
611.068, 2267.458
611.551, 2257.972
612.033, 2240.674
612.515, 2226.762
612.997, 2225.818
613.479, 2259.239
613.961, 2276.619
614.443, 2271.390
