##NAMES=Malachite
##RRUFFID=R050508
##IDEAL CHEMISTRY=Cu^2+^_2_CO_3_(OH)_2_
##LOCALITY=Kambova, Kantanga, Zaire
##OWNER=RRUFF
##SOURCE=University of Arizona Mineral Museum
##DESCRIPTION=Green short bladed crystals
##STATUS=The identification of this mineral has been confirmed by X-ray diffraction and chemical analysis
##URL=rruff.info/R050508
##MEASURED CHEMISTRY=Cu_2.00_(CO_3_)(OH)_2_
91.00781, 9.473571
91.48993, 9.220455
91.97205, 9.119535
92.45416, 9.302458
92.93628, 9.631681
93.41840, 9.783032
93.90051, 9.652658
94.38263, 9.416794
94.86475, 9.341044
95.34686, 9.424837
95.82898, 9.612597
96.31110, 9.903905
96.79321, 10.28768
97.27533, 10.61692
97.75745, 10.77751
98.23956, 10.86394
98.72168, 11.31486
99.20380, 12.18873
99.68591, 13.22884
100.1680, 14.11030
100.6501, 14.74863
101.1323, 15.61008
101.6144, 16.88269
102.0965, 18.60711
102.5786, 20.22729
103.0607, 21.68967
103.5428, 23.10715
104.0250, 24.67513
104.5071, 26.30806
104.9892, 28.21429
105.4713, 30.48316
105.9534, 33.26310
106.4355, 36.06044
106.9177, 38.76675
107.3998, 41.48299
107.8819, 44.64033
108.3640, 48.61514
108.8461, 52.69239
109.3282, 56.59624
109.8104, 59.98337
110.2925, 63.50196
110.7746, 67.15809
111.2567, 70.93394
111.7388, 74.84773
112.2209, 79.05342
112.7031, 83.27090
113.1852, 87.35497
113.6673, 90.46307
114.1494, 94.16998
114.6315, 98.92226
115.1136, 104.7884
115.5958, 111.2757
116.0779, 118.1063
116.5600, 125.5182
117.0421, 133.7419
117.5242, 143.8344
118.0063, 154.1269
118.4885, 164.2944
118.9706, 174.5840
119.4527, 183.1493
119.9348, 188.5913
120.4169, 191.5960
120.8990, 193.4853
121.3812, 193.2361
121.8633, 192.9254
122.3454, 194.4753
122.8275, 198.2669
123.3096, 203.7279
123.7917, 210.7649
124.2739, 219.1876
124.7560, 228.2983
125.2381, 237.3349
125.7202, 246.8548
126.2023, 257.6931
126.6844, 270.2945
127.1666, 284.0744
127.6487, 298.4122
128.1308, 313.3590
128.6129, 328.5742
129.0950, 345.3443
129.5771, 362.6714
130.0593, 377.1642
130.5414, 388.4028
131.0235, 395.8338
131.5056, 395.8767
131.9877, 386.5164
132.4698, 373.9012
132.9520, 365.7289
133.4341, 361.8354
133.9162, 360.8659
134.3983, 362.4601
134.8804, 366.5194
135.3625, 372.9403
135.8447, 381.8187
136.3268, 392.7088
136.8089, 404.9862
137.2910, 418.5276
137.7731, 434.2869
138.2552, 452.4338
138.7374, 472.6362
139.2195, 496.9399
139.7016, 525.8433
140.1837, 558.5441
140.6658, 593.2885
141.1479, 631.1853
141.6301, 669.2190
142.1122, 709.0944
142.5943, 759.2851
143.0764, 788.9477
143.5585, 796.6368
144.0406, 784.1774
144.5228, 755.3635
145.0049, 699.2854
145.4870, 640.9340
145.9691, 594.0622
146.4512, 558.5790
146.9333, 533.6035
147.4155, 520.5529
147.8976, 518.5118
148.3797, 520.4059
148.8618, 527.3312
149.3439, 537.3679
149.8260, 549.2333
150.3082, 565.4296
150.7903, 580.7836
151.2724, 596.0092
151.7545, 611.1262
152.2366, 622.3622
152.7188, 631.4313
153.2009, 635.7667
153.6830, 633.1719
154.1651, 620.0222
154.6472, 603.3278
155.1293, 583.5854
155.6115, 560.2338
156.0936, 538.5784
156.5757, 518.4992
157.0578, 500.8039
157.5399, 486.6768
158.0220, 476.7731
158.5042, 470.0444
158.9863, 466.3459
159.4684, 465.7401
159.9505, 467.4253
160.4326, 471.2160
160.9147, 477.1350
161.3969, 485.2206
161.8790, 496.4551
162.3611, 509.1481
162.8432, 522.4421
163.3253, 535.9785
163.8074, 550.4310
164.2896, 566.0571
164.7717, 582.7853
165.2538, 600.4813
165.7359, 619.7070
166.2180, 639.4991
166.7001, 659.7200
167.1823, 681.3129
167.6644, 700.5939
168.1465, 716.4866
168.6286, 728.4476
169.1107, 734.9209
169.5928, 731.7928
170.0750, 724.1133
170.5571, 716.5453
171.0392, 708.8730
171.5213, 703.7758
172.0034, 703.4238
172.4855, 707.6080
172.9677, 715.3302
173.4498, 726.6379
173.9319, 740.9380
174.4140, 757.5318
174.8961, 777.0662
175.3782, 797.8907
175.8604, 819.3402
176.3425, 841.3711
176.8246, 862.6673
177.3067, 885.2941
177.7888, 906.6600
178.2709, 921.3395
178.7531, 928.7101
179.2352, 928.0842
179.7173, 918.6075
180.1994, 900.3367
180.6815, 873.5247
181.1636, 836.3558
181.6458, 790.4418
182.1279, 741.6071
182.6100, 688.9462
183.0921, 635.4702
183.5742, 585.2190
184.0563, 539.0123
184.5385, 496.6134
185.0206, 458.7458
185.5027, 425.0312
185.9848, 395.6133
186.4669, 371.0773
186.9490, 350.6602
187.4312, 331.0583
187.9133, 312.4477
188.3954, 295.7368
188.8775, 282.7561
189.3596, 273.3181
189.8417, 265.1861
190.3239, 257.8085
190.8060, 251.1120
191.2881, 245.0080
191.7702, 239.5088
192.2523, 234.7919
192.7344, 231.2045
193.2166, 228.7644
193.6987, 226.7884
194.1808, 224.9416
194.6629, 223.2693
195.1450, 222.2244
195.6271, 221.8602
196.1093, 221.9820
196.5914, 222.3168
197.0735, 222.8559
197.5556, 223.6943
198.0377, 224.8007
198.5198, 226.1812
199.0020, 228.1425
199.4841, 230.7416
199.9662, 233.8226
200.4483, 237.1950
200.9304, 240.8521
201.4125, 244.8252
201.8947, 249.0960
202.3768, 253.6510
202.8589, 258.7229
203.3410, 264.4510
203.8231, 270.5392
204.3052, 276.3399
204.7874, 281.8286
205.2695, 287.2743
205.7516, 292.9355
206.2337, 298.9467
206.7158, 304.1349
207.1979, 308.1126
207.6801, 311.6524
208.1622, 316.3459
208.6443, 322.4828
209.1264, 328.9457
209.6085, 335.2918
210.0906, 341.5357
210.5728, 347.5922
211.0549, 353.3000
211.5370, 358.8999
212.0191, 364.6981
212.5012, 370.5997
212.9833, 377.0473
213.4655, 384.3595
213.9476, 392.9546
214.4297, 400.9530
214.9118, 408.0380
215.3939, 414.6436
215.8760, 422.0563
216.3581, 430.3401
216.8403, 439.1709
217.3224, 448.4793
217.8045, 458.7611
218.2866, 468.2086
218.7687, 476.7448
219.2508, 484.3937
219.7330, 491.1751
220.2151, 497.6220
220.6972, 502.1798
221.1793, 504.3033
221.6614, 504.6070
222.1435, 500.7072
222.6257, 491.8042
223.1078, 478.9201
223.5899, 464.5651
224.0720, 448.6832
224.5541, 431.3459
225.0362, 411.8761
225.5184, 388.9563
226.0005, 367.5487
226.4826, 347.6169
226.9647, 329.2360
227.4468, 311.9642
227.9289, 295.7223
228.4111, 280.9171
228.8932, 267.8449
229.3753, 257.0707
229.8574, 246.7103
230.3395, 236.5178
230.8216, 226.8639
231.3038, 218.6068
231.7859, 211.9468
232.2680, 206.4776
232.7501, 202.1257
233.2322, 199.3463
233.7143, 196.6566
234.1965, 193.9321
234.6786, 191.2982
235.1607, 189.0570
235.6428, 187.1735
236.1249, 185.7270
236.6070, 184.7425
237.0892, 184.1859
237.5713, 184.1719
238.0534, 184.7847
238.5355, 185.9151
239.0176, 187.2904
239.4997, 188.9482
239.9819, 190.8267
240.4640, 192.8403
240.9461, 194.8038
241.4282, 197.3665
241.9103, 200.5853
242.3924, 204.3847
242.8746, 208.6624
243.3567, 213.8124
243.8388, 218.8409
244.3209, 223.1809
244.8030, 226.0018
245.2851, 230.2997
245.7673, 236.6350
246.2494, 244.2207
246.7315, 251.2812
247.2136, 257.1568
247.6957, 263.5603
248.1778, 271.2715
248.6600, 280.6850
249.1421, 290.0043
249.6242, 298.9146
250.1063, 307.9561
250.5884, 318.2472
251.0705, 330.2803
251.5527, 342.7693
252.0348, 355.0394
252.5169, 366.8954
252.9990, 379.6805
253.4811, 393.8318
253.9632, 408.7696
254.4454, 423.1959
254.9275, 436.8087
255.4096, 450.6751
255.8917, 465.4758
256.3738, 481.6428
256.8560, 496.2724
257.3381, 509.1137
257.8202, 520.7405
258.3023, 532.2355
258.7844, 543.4762
259.2665, 554.6113
259.7487, 565.8603
260.2308, 577.3201
260.7129, 587.5883
261.1950, 595.7414
261.6771, 603.6545
262.1592, 613.8271
262.6414, 626.4300
263.1235, 640.6842
263.6056, 656.5861
264.0877, 674.4188
264.5698, 691.8226
265.0519, 708.9170
265.5341, 725.3551
266.0162, 741.4332
266.4983, 757.9983
266.9804, 771.2904
267.4625, 780.7473
267.9446, 786.2943
268.4268, 787.5145
268.9089, 784.7914
269.3910, 777.0628
269.8731, 762.6998
270.3552, 741.0560
270.8373, 715.5276
271.3195, 685.8228
271.8016, 652.4078
272.2837, 618.8627
272.7658, 584.4518
273.2479, 550.6091
273.7300, 517.7375
274.2122, 485.7296
274.6943, 456.0598
275.1764, 429.3886
275.6585, 405.4647
276.1406, 382.9697
276.6227, 361.8463
277.1049, 342.3420
277.5870, 324.7510
278.0691, 309.1237
278.5512, 294.7994
279.0333, 281.6289
279.5154, 269.7075
279.9976, 259.5504
280.4797, 251.2825
280.9618, 244.0099
281.4439, 237.0499
281.9260, 230.4326
282.4081, 224.1415
282.8903, 218.2788
283.3724, 212.6230
283.8545, 206.5592
284.3366, 200.0389
284.8187, 193.5971
285.3008, 187.5473
285.7830, 181.8511
286.2651, 176.7603
286.7472, 172.3662
287.2293, 168.3758
287.7114, 164.1738
288.1935, 159.7643
288.6757, 155.6675
289.1578, 152.3051
289.6399, 149.5474
290.1220, 146.8848
290.6041, 144.2396
291.0862, 141.7842
291.5684, 139.8712
292.0505, 138.4434
292.5326, 137.0475
293.0147, 135.3128
293.4968, 133.4293
293.9789, 131.9917
294.4611, 131.0838
294.9432, 130.2900
295.4253, 129.1283
295.9074, 127.6600
296.3895, 126.1803
296.8716, 124.8270
297.3538, 123.5311
297.8359, 122.2128
298.3180, 120.8700
298.8001, 119.3180
299.2822, 117.1608
299.7643, 114.6144
300.2465, 112.2803
300.7286, 110.4931
301.2107, 108.9552
301.6928, 107.2063
302.1749, 105.2776
302.6570, 103.4093
303.1392, 101.7385
303.6213, 100.2780
304.1034, 99.10070
304.5855, 98.29552
305.0676, 97.68156
305.5497, 97.12183
306.0319, 96.60207
306.5140, 96.01841
306.9961, 95.08275
307.4782, 94.13350
307.9603, 93.63615
308.4424, 93.95767
308.9246, 94.26910
309.4067, 93.72988
309.8888, 92.62413
310.3709, 91.75415
310.8530, 91.72032
311.3351, 92.02650
311.8173, 92.27872
312.2994, 92.42960
312.7815, 92.48347
313.2636, 92.34477
313.7457, 92.11914
314.2278, 91.99599
314.7100, 92.02554
315.1921, 92.20810
315.6742, 92.57420
316.1563, 93.14732
316.6384, 93.76830
317.1205, 94.32351
317.6027, 94.89165
318.0848, 95.56992
318.5669, 96.62830
319.0490, 97.58849
319.5311, 98.12450
320.0132, 98.19832
320.4954, 98.56103
320.9775, 99.72381
321.4596, 101.1173
321.9417, 102.2416
322.4238, 102.4596
322.9059, 102.9546
323.3881, 104.1864
323.8702, 106.0721
324.3523, 107.7005
324.8344, 108.6186
325.3165, 109.4528
325.7986, 110.5824
326.2808, 112.0151
326.7629, 113.7707
327.2450, 116.0575
327.7271, 118.7230
328.2092, 121.1715
328.6913, 123.3006
329.1735, 125.2940
329.6556, 127.2290
330.1377, 128.9350
330.6198, 130.9098
331.1019, 133.2686
331.5840, 135.8535
332.0662, 138.4348
332.5483, 141.1234
333.0304, 143.6531
333.5125, 145.7483
333.9946, 147.2029
334.4767, 149.4800
334.9589, 152.9514
335.4410, 156.8489
335.9231, 160.2341
336.4052, 163.0094
336.8873, 165.4311
337.3694, 167.4043
337.8516, 168.9644
338.3336, 170.9350
338.8158, 173.4575
339.2979, 176.1073
339.7800, 178.5042
340.2621, 180.5724
340.7442, 182.7708
341.2263, 185.0400
341.7085, 187.5311
342.1906, 190.8231
342.6727, 195.0847
343.1548, 199.2727
343.6369, 202.5552
344.1190, 204.9777
344.6012, 207.8188
345.0833, 211.2805
345.5654, 215.0388
346.0475, 218.5735
346.5296, 221.8746
347.0117, 225.0582
347.4939, 228.3853
347.9760, 231.6207
348.4581, 234.0426
348.9402, 235.5705
349.4223, 236.4803
349.9044, 237.1862
350.3866, 237.5790
350.8687, 237.3125
351.3508, 236.4542
351.8329, 234.7562
352.3150, 231.6280
352.7971, 227.0775
353.2793, 221.9966
353.7614, 216.9907
354.2435, 211.8522
354.7256, 206.1763
355.2077, 199.5814
355.6898, 192.7683
356.1720, 186.2693
356.6541, 180.0127
357.1362, 173.7437
357.6183, 166.9964
358.1004, 160.2684
358.5826, 153.9954
359.0647, 148.2730
359.5468, 142.9735
360.0289, 138.2260
360.5110, 133.8415
360.9931, 129.4417
361.4753, 124.4425
361.9574, 119.7942
362.4395, 116.1309
362.9216, 113.6596
363.4037, 111.1919
363.8858, 108.2988
364.3680, 105.2628
364.8501, 102.3693
365.3322, 99.62296
365.8143, 97.12233
366.2964, 94.93783
366.7785, 93.05694
367.2607, 91.29241
367.7428, 89.58872
368.2249, 88.00603
368.7070, 86.57812
369.1891, 85.35768
369.6712, 84.23939
370.1534, 83.30006
370.6355, 82.45736
371.1176, 81.42915
371.5997, 79.92724
372.0818, 78.60883
372.5639, 77.80907
373.0461, 77.81522
373.5282, 77.31802
374.0103, 76.00792
374.4924, 74.47012
374.9745, 73.71101
375.4566, 74.04157
375.9388, 74.14767
376.4209, 73.57083
376.9030, 72.35655
377.3851, 71.36796
377.8672, 70.60838
378.3493, 70.02466
378.8315, 69.60088
379.3136, 69.33641
379.7957, 69.13668
380.2778, 68.98741
380.7599, 68.88802
381.2420, 68.81654
381.7242, 68.77398
382.2063, 68.81825
382.6884, 69.08115
383.1705, 69.47432
383.6526, 69.66855
384.1347, 69.60885
384.6169, 69.43829
385.0990, 69.23666
385.5811, 69.05019
386.0632, 69.04299
386.5453, 69.49860
387.0274, 70.08305
387.5096, 70.28618
387.9917, 70.10594
388.4738, 69.92507
388.9559, 70.04082
389.4380, 70.33665
389.9201, 70.66943
390.4023, 71.06486
390.8844, 71.40087
391.3665, 71.54668
391.8486, 71.55193
392.3307, 71.59225
392.8128, 71.56458
393.2950, 71.72411
393.7771, 72.32046
394.2592, 73.61136
394.7413, 74.74090
395.2234, 75.26292
395.7055, 75.47771
396.1877, 75.85011
396.6698, 76.64185
397.1519, 77.45295
397.6340, 78.08401
398.1161, 78.47351
398.5982, 79.20081
399.0804, 80.50230
399.5625, 82.03777
400.0446, 83.57192
400.5267, 85.20218
401.0088, 86.68925
401.4909, 87.88269
401.9731, 88.90301
402.4552, 90.18629
402.9373, 91.65620
403.4194, 93.51566
403.9015, 95.95097
404.3836, 99.15623
404.8658, 102.1323
405.3479, 104.7155
405.8300, 107.2487
406.3121, 110.2026
406.7942, 113.5606
407.2763, 117.4536
407.7585, 121.9781
408.2406, 127.0982
408.7227, 132.4606
409.2048, 138.0224
409.6869, 143.9551
410.1690, 150.4373
410.6512, 157.3847
411.1333, 164.6261
411.6154, 172.0340
412.0975, 179.9159
412.5796, 188.7865
413.0617, 198.6256
413.5439, 209.4431
414.0260, 221.6521
414.5081, 234.8217
414.9902, 248.1344
415.4723, 261.5658
415.9544, 275.5323
416.4366, 290.5362
416.9187, 306.1516
417.4008, 321.6742
417.8829, 336.8333
418.3650, 351.9663
418.8471, 367.2043
419.3293, 382.5320
419.8114, 398.7294
420.2935, 415.9577
420.7756, 434.2187
421.2577, 453.0822
421.7398, 472.7862
422.2220, 493.0994
422.7041, 514.4498
423.1862, 536.4490
423.6683, 558.4587
424.1504, 580.1865
424.6325, 602.5097
425.1147, 625.4159
425.5968, 649.2168
426.0789, 673.5361
426.5610, 699.3084
427.0431, 724.7685
427.5252, 748.3284
428.0074, 770.0341
428.4895, 789.7849
428.9716, 807.6370
429.4537, 823.2216
429.9358, 835.3616
430.4179, 844.3027
430.9001, 848.8834
431.3822, 848.8141
431.8643, 844.1198
432.3464, 833.2628
432.8285, 816.1393
433.3106, 793.2158
433.7928, 763.9454
434.2749, 728.7654
434.7570, 691.1641
435.2391, 651.4932
435.7212, 610.6417
436.2033, 569.1973
436.6855, 527.7435
437.1676, 488.4980
437.6497, 453.0882
438.1318, 421.0038
438.6139, 391.5457
439.0960, 364.6703
439.5782, 340.1429
440.0603, 318.0491
440.5424, 298.0567
441.0245, 279.8727
441.5066, 263.1870
441.9887, 248.1760
442.4709, 235.3364
442.9530, 224.6055
443.4351, 214.3688
443.9172, 203.5817
444.3993, 193.3826
444.8814, 184.7801
445.3636, 178.9901
445.8457, 173.2705
446.3278, 167.0713
446.8099, 160.7130
447.2920, 154.8185
447.7741, 149.3347
448.2563, 144.3565
448.7384, 140.0884
449.2205, 136.5717
449.7026, 133.0993
450.1847, 129.7276
450.6668, 126.3827
451.1490, 122.8909
451.6311, 119.0256
452.1132, 115.9081
452.5953, 113.8291
453.0774, 112.4811
453.5595, 110.9694
454.0417, 109.2773
454.5238, 107.5143
455.0059, 105.7270
455.4880, 103.9157
455.9701, 101.9056
456.4522, 99.65163
456.9344, 97.52878
457.4165, 95.95252
457.8986, 94.82544
458.3807, 93.95036
458.8628, 93.41523
459.3449, 92.91740
459.8271, 92.08995
460.3092, 90.98184
460.7913, 89.79226
461.2734, 88.32627
461.7555, 87.02169
462.2376, 86.37392
462.7198, 86.63059
463.2019, 86.71844
463.6840, 85.87733
464.1661, 84.67459
464.6482, 83.79666
465.1303, 83.79626
465.6125, 83.74741
466.0946, 83.28990
466.5767, 82.48469
467.0588, 81.97649
467.5409, 82.10214
468.0230, 82.27722
468.5052, 82.20479
468.9873, 81.60886
469.4694, 81.49475
469.9515, 82.14158
470.4336, 83.02863
470.9157, 83.31640
471.3979, 82.71316
471.8800, 82.54575
472.3621, 83.33627
472.8442, 84.81129
473.3263, 85.59655
473.8084, 85.60582
474.2906, 85.59459
474.7727, 86.08340
475.2548, 87.01546
475.7369, 88.21220
476.2190, 89.74165
476.7011, 91.19956
477.1833, 92.01234
477.6654, 92.36327
478.1475, 92.75240
478.6296, 93.16335
479.1117, 93.86861
479.5938, 95.42504
480.0760, 97.69077
480.5581, 99.66042
481.0402, 100.4554
481.5223, 100.9179
482.0044, 101.7390
482.4865, 103.1302
482.9687, 104.6207
483.4508, 106.0584
483.9329, 107.5045
484.4150, 109.0247
484.8971, 110.8176
485.3792, 112.5040
485.8614, 114.1308
486.3435, 115.6746
486.8256, 116.6550
487.3077, 116.7467
487.7898, 116.6467
488.2719, 116.8214
488.7541, 117.6153
489.2362, 117.4570
489.7183, 115.9540
490.2004, 114.0045
490.6825, 113.0276
491.1646, 113.1261
491.6468, 113.1230
492.1289, 112.6446
492.6110, 111.8343
493.0931, 111.0216
493.5752, 110.2049
494.0573, 109.4936
494.5395, 108.9051
495.0216, 108.4822
495.5037, 108.3458
495.9858, 108.5465
496.4679, 108.8403
496.9500, 108.9180
497.4322, 108.9530
497.9143, 109.2319
498.3964, 109.8225
498.8785, 110.7291
499.3606, 112.1253
499.8427, 113.9137
500.3249, 115.5449
500.8070, 116.7835
501.2891, 117.8726
501.7712, 118.8522
502.2533, 119.5356
502.7354, 120.6511
503.2176, 122.4884
503.6997, 124.6557
504.1818, 126.8123
504.6639, 129.2154
505.1460, 131.0786
505.6281, 132.0060
506.1103, 132.3515
506.5924, 133.5786
507.0745, 135.9439
507.5566, 138.2776
508.0387, 139.9706
508.5208, 141.0486
509.0030, 142.0799
509.4851, 143.0988
509.9672, 143.8820
510.4493, 144.0081
510.9314, 143.6722
511.4135, 143.5664
511.8957, 143.9880
512.3778, 144.5016
512.8599, 144.5681
513.3420, 144.3037
513.8242, 144.0447
514.3063, 143.2503
514.7884, 143.0378
515.2705, 144.3980
515.7526, 147.3918
516.2347, 150.9546
516.7169, 154.8663
517.1990, 159.0576
517.6811, 163.4718
518.1632, 167.9747
518.6453, 172.8657
519.1274, 178.1420
519.6096, 183.8580
520.0917, 190.0501
520.5738, 196.7102
521.0559, 203.8167
521.5380, 211.4557
522.0201, 219.5948
522.5023, 227.5189
522.9844, 234.9809
523.4665, 243.0400
523.9486, 252.7301
524.4307, 263.9997
524.9128, 274.8937
525.3950, 285.0211
525.8771, 295.2233
526.3592, 306.7410
526.8413, 319.2189
527.3234, 331.8146
527.8055, 344.1276
528.2877, 356.2871
528.7698, 368.7550
529.2519, 381.3035
529.7340, 393.4621
530.2161, 405.0092
530.6982, 415.9870
531.1804, 427.0053
531.6625, 438.2525
532.1446, 447.5271
532.6267, 454.0396
533.1088, 458.1991
533.5909, 460.2848
534.0731, 460.9699
534.5552, 458.7939
535.0373, 453.5012
535.5194, 445.4022
536.0015, 434.7418
536.4836, 420.9539
536.9658, 405.8820
537.4479, 389.9445
537.9300, 373.2570
538.4121, 356.8941
538.8942, 340.9360
539.3763, 325.3007
539.8585, 309.6672
540.3406, 294.1996
540.8227, 279.9335
541.3048, 266.9230
541.7869, 254.9065
542.2690, 243.5637
542.7512, 232.9048
543.2333, 222.9568
543.7154, 213.8686
544.1975, 205.3828
544.6796, 197.3321
545.1617, 189.6694
545.6439, 182.5161
546.1260, 175.9134
546.6081, 169.8315
547.0902, 164.1856
547.5723, 158.9493
548.0544, 154.4816
548.5366, 151.2474
549.0187, 148.5374
549.5008, 145.6969
549.9829, 142.4121
550.4650, 139.5837
550.9471, 137.3887
551.4293, 135.6427
551.9114, 133.7721
552.3935, 131.6461
552.8756, 130.0383
553.3577, 129.3613
553.8398, 129.4404
554.3220, 129.5000
554.8041, 129.5383
555.2862, 129.6218
555.7683, 129.6237
556.2504, 129.7408
556.7325, 130.4834
557.2147, 132.0181
557.6968, 133.6232
558.1789, 134.5594
558.6610, 135.2115
559.1431, 136.1381
559.6252, 137.5443
560.1074, 139.2492
560.5895, 141.2813
561.0716, 143.5802
561.5537, 145.8997
562.0358, 148.5173
562.5179, 150.8636
563.0001, 152.8689
563.4822, 154.5925
563.9643, 155.2481
564.4464, 154.3392
564.9285, 153.0616
565.4106, 152.5552
565.8928, 153.1479
566.3749, 152.2221
566.8570, 149.3698
567.3391, 145.3792
567.8212, 141.3447
568.3033, 137.2053
568.7855, 132.7497
569.2676, 127.5976
569.7497, 122.3490
570.2318, 117.8005
570.7139, 113.9266
571.1960, 110.2348
571.6782, 106.6021
572.1603, 102.9759
572.6424, 99.19912
573.1245, 95.18086
573.6066, 91.79363
574.0887, 89.74860
574.5709, 88.20727
575.0530, 86.48085
575.5351, 83.96197
576.0172, 81.98959
576.4993, 80.71809
576.9814, 79.94329
577.4636, 79.38428
577.9457, 79.08070
578.4278, 78.90785
578.9099, 78.92052
579.3920, 79.01938
579.8741, 78.71120
580.3563, 77.95548
580.8384, 77.36211
581.3205, 77.36732
581.8026, 77.81228
582.2847, 78.16534
582.7668, 78.40412
583.2490, 78.92754
583.7311, 80.45132
584.2132, 82.31078
584.6953, 83.58608
585.1774, 83.76265
585.6595, 84.02573
586.1416, 85.10763
586.6237, 86.63589
587.1058, 88.06261
587.5880, 89.14247
588.0701, 90.23572
