##NAMES=Malayaite
##RRUFFID=R080024
##IDEAL CHEMISTRY=CaSn^4+^O(SiO_4_)
##LOCALITY=Ash Mountain, McDame, British Columbia, Canada
##OWNER=RRUFF
##SOURCE=Mark N. Feinglos, William P. Pinch
##DESCRIPTION=Tan colored tabular crystals with a subconchoidal  fracture on a broken surface.
##STATUS=The identification of this mineral is confirmed by single-crystal X-ray diffraction and chemical analysis.
##URL=rruff.info/R080024
##MEASURED CHEMISTRY=Ca_1.01_(Sn_1.01_Ti_0.01_)Si_0.98_O_5_; = bright part. (Ca_1.01_Fe_0.01_)(Sn_0.96_Ti_0.05_)Si_0.98_O_5_ = dark part
93.40625, 83.08828
93.88837, 81.05807
94.37048, 82.47873
94.85260, 86.67747
95.33472, 91.79856
95.81683, 97.69291
96.29895, 104.0966
96.78107, 110.2348
97.26318, 116.0619
97.74530, 122.4804
98.22742, 130.6506
98.70953, 140.5702
99.19165, 150.2752
99.67377, 158.6547
100.1559, 165.9702
100.6380, 175.5691
101.1201, 187.9852
101.6022, 201.4701
102.0844, 213.3397
102.5665, 223.3127
103.0486, 232.9216
103.5307, 242.5301
104.0128, 252.2297
104.4949, 262.0011
104.9771, 271.8196
105.4592, 281.8196
105.9413, 292.6127
106.4234, 304.3156
106.9055, 316.5314
107.3876, 328.8884
107.8698, 340.9096
108.3519, 354.0797
108.8340, 368.2777
109.3161, 383.7073
109.7982, 400.6380
110.2803, 419.8464
110.7624, 440.2317
111.2446, 461.1825
111.7267, 480.1356
112.2088, 502.7088
112.6909, 529.9968
113.1730, 562.1151
113.6551, 596.4353
114.1373, 633.0311
114.6194, 671.3136
115.1015, 711.2658
115.5836, 756.0845
116.0657, 799.5107
116.5478, 839.7619
117.0300, 877.4805
117.5121, 910.1953
117.9942, 934.4716
118.4763, 953.8589
118.9584, 972.8514
119.4405, 992.0006
119.9227, 1012.347
120.4048, 1034.388
120.8869, 1058.372
121.3690, 1083.730
121.8511, 1111.256
122.3332, 1139.967
122.8154, 1167.790
123.2975, 1191.279
123.7796, 1214.256
124.2617, 1240.963
124.7438, 1271.823
125.2259, 1306.139
125.7081, 1342.730
126.1902, 1381.255
126.6723, 1416.571
127.1544, 1451.965
127.6365, 1491.419
128.1186, 1533.285
128.6008, 1575.751
129.0829, 1621.419
129.5650, 1672.510
130.0471, 1729.049
130.5292, 1793.574
131.0113, 1862.412
131.4935, 1938.820
131.9756, 2037.069
132.4577, 2155.467
132.9398, 2299.187
133.4219, 2489.228
133.9040, 2730.473
134.3862, 2984.845
134.8683, 3251.299
135.3504, 3530.202
135.8325, 3682.048
136.3146, 3646.197
136.7967, 3436.172
137.2789, 3161.000
137.7610, 2796.963
138.2431, 2418.591
138.7252, 2117.536
139.2073, 1897.565
139.6894, 1728.091
140.1716, 1602.324
140.6537, 1523.153
141.1358, 1458.769
141.6179, 1408.914
142.1000, 1372.124
142.5821, 1347.774
143.0643, 1339.386
143.5464, 1335.174
144.0285, 1330.007
144.5106, 1321.702
144.9927, 1318.325
145.4748, 1321.304
145.9570, 1328.929
146.4391, 1336.348
146.9212, 1344.117
147.4033, 1351.104
147.8854, 1356.551
148.3675, 1356.490
148.8497, 1361.037
149.3318, 1371.350
149.8139, 1386.629
150.2960, 1403.347
150.7781, 1422.193
151.2602, 1441.847
151.7424, 1461.408
152.2245, 1478.696
152.7066, 1498.318
153.1887, 1520.853
153.6708, 1545.988
154.1529, 1572.300
154.6351, 1600.740
155.1172, 1629.937
155.5993, 1658.922
156.0814, 1688.559
156.5635, 1717.377
157.0456, 1744.558
157.5278, 1769.882
158.0099, 1796.351
158.4920, 1824.021
158.9741, 1853.547
159.4562, 1885.605
159.9383, 1920.619
160.4205, 1957.959
160.9026, 1997.385
161.3847, 2038.881
161.8668, 2082.770
162.3489, 2129.710
162.8310, 2178.961
163.3132, 2229.652
163.7953, 2280.934
164.2774, 2333.996
164.7595, 2389.011
165.2416, 2446.028
165.7237, 2506.176
166.2059, 2569.774
166.6880, 2637.274
167.1701, 2709.384
167.6522, 2787.424
168.1343, 2869.451
168.6164, 2954.090
169.0986, 3041.463
169.5807, 3131.813
170.0628, 3228.499
170.5449, 3328.468
171.0270, 3424.927
171.5091, 3518.791
171.9913, 3605.572
172.4734, 3683.405
172.9555, 3755.159
173.4376, 3808.614
173.9197, 3836.887
174.4018, 3839.743
174.8840, 3815.319
175.3661, 3753.634
175.8482, 3667.335
176.3303, 3569.675
176.8124, 3457.786
177.2945, 3345.969
177.7767, 3247.958
178.2588, 3161.954
178.7409, 3084.932
179.2230, 3012.153
179.7051, 2946.264
180.1872, 2894.997
180.6694, 2863.130
181.1515, 2838.724
181.6336, 2809.359
182.1157, 2774.695
182.5978, 2732.372
183.0799, 2682.802
183.5621, 2624.020
184.0442, 2550.789
184.5263, 2458.386
185.0084, 2355.268
185.4905, 2250.497
185.9726, 2144.711
186.4547, 2042.422
186.9369, 1946.822
187.4190, 1857.040
187.9011, 1773.594
188.3832, 1695.555
188.8653, 1623.611
189.3474, 1558.535
189.8296, 1499.743
190.3117, 1447.952
190.7938, 1404.526
191.2759, 1368.982
191.7580, 1338.104
192.2401, 1312.086
192.7223, 1289.450
193.2044, 1264.832
193.6865, 1237.515
194.1686, 1211.869
194.6507, 1192.764
195.1328, 1179.903
195.6150, 1167.761
196.0971, 1155.058
196.5792, 1142.191
197.0613, 1130.781
197.5434, 1120.936
198.0255, 1112.066
198.5077, 1103.825
198.9898, 1096.155
199.4719, 1089.465
199.9540, 1084.141
200.4361, 1079.919
200.9182, 1074.941
201.4004, 1068.884
201.8825, 1063.183
202.3646, 1059.517
202.8467, 1058.154
203.3288, 1056.801
203.8109, 1054.459
204.2931, 1051.488
204.7752, 1051.302
205.2573, 1054.586
205.7394, 1059.016
206.2215, 1062.316
206.7036, 1064.347
207.1858, 1065.844
207.6679, 1067.015
208.1500, 1067.834
208.6321, 1067.703
209.1142, 1066.170
209.5963, 1064.525
210.0785, 1064.159
210.5606, 1065.266
211.0427, 1066.971
211.5248, 1069.253
212.0069, 1072.096
212.4890, 1074.363
212.9712, 1075.407
213.4533, 1076.902
213.9354, 1080.969
214.4175, 1088.562
214.8996, 1095.980
215.3817, 1102.510
215.8639, 1108.095
216.3460, 1112.531
216.8281, 1113.930
217.3102, 1116.697
217.7923, 1126.117
218.2744, 1144.287
218.7566, 1163.949
219.2387, 1183.164
219.7208, 1202.066
220.2029, 1222.227
220.6850, 1244.817
221.1671, 1267.063
221.6493, 1286.599
222.1314, 1306.354
222.6135, 1317.024
223.0956, 1315.691
223.5777, 1302.097
224.0598, 1282.826
224.5420, 1255.498
225.0241, 1224.969
225.5062, 1195.396
225.9883, 1166.067
226.4704, 1139.611
226.9525, 1117.031
227.4347, 1098.040
227.9168, 1082.503
228.3989, 1071.119
228.8810, 1062.427
229.3631, 1055.320
229.8452, 1050.453
230.3274, 1045.693
230.8095, 1040.233
231.2916, 1033.973
231.7737, 1029.870
232.2558, 1028.555
232.7379, 1028.736
233.2201, 1029.531
233.7022, 1032.464
234.1843, 1032.872
234.6664, 1028.391
235.1485, 1018.937
235.6306, 1014.404
236.1128, 1017.433
236.5949, 1022.628
237.0770, 1024.834
237.5591, 1022.438
238.0412, 1020.197
238.5233, 1019.176
239.0055, 1019.370
239.4876, 1018.396
239.9697, 1014.870
240.4518, 1011.671
240.9339, 1011.727
241.4160, 1017.584
241.8982, 1021.604
242.3803, 1021.725
242.8624, 1018.105
243.3445, 1016.684
243.8266, 1018.538
244.3087, 1021.345
244.7909, 1023.132
245.2730, 1023.130
245.7551, 1023.683
246.2372, 1025.560
246.7193, 1028.558
247.2014, 1029.771
247.6836, 1027.643
248.1657, 1025.564
248.6478, 1026.419
249.1299, 1032.193
249.6120, 1036.534
250.0941, 1038.283
250.5762, 1037.784
251.0584, 1037.711
251.5405, 1037.966
252.0226, 1038.801
252.5047, 1040.535
252.9868, 1043.809
253.4689, 1046.523
253.9511, 1048.281
254.4332, 1049.302
254.9153, 1050.567
255.3974, 1051.563
255.8795, 1053.625
256.3617, 1057.994
256.8438, 1066.316
257.3259, 1072.723
257.8080, 1076.509
258.2901, 1078.064
258.7722, 1078.739
259.2544, 1077.630
259.7365, 1077.150
260.2186, 1078.849
260.7007, 1083.564
261.1828, 1087.839
261.6649, 1091.412
262.1471, 1094.410
262.6292, 1097.449
263.1113, 1100.799
263.5934, 1103.538
264.0755, 1104.878
264.5576, 1104.094
265.0398, 1104.506
265.5219, 1106.245
266.0040, 1109.185
266.4861, 1113.044
266.9682, 1117.649
267.4503, 1123.595
267.9325, 1131.507
268.4146, 1142.260
268.8967, 1151.407
269.3788, 1158.417
269.8609, 1164.386
270.3430, 1170.954
270.8252, 1177.879
271.3073, 1186.185
271.7894, 1196.493
272.2715, 1209.021
272.7536, 1220.856
273.2357, 1231.245
273.7179, 1241.831
274.2000, 1255.981
274.6821, 1274.615
275.1642, 1292.206
275.6463, 1305.702
276.1284, 1315.073
276.6106, 1329.250
277.0927, 1349.320
277.5748, 1371.812
278.0569, 1392.345
278.5390, 1410.584
279.0211, 1429.100
279.5032, 1448.713
279.9854, 1469.150
280.4675, 1489.136
280.9496, 1508.330
281.4317, 1528.265
281.9138, 1550.577
282.3959, 1575.310
282.8781, 1601.396
283.3602, 1628.175
283.8423, 1656.286
284.3244, 1687.584
284.8065, 1722.213
285.2886, 1759.937
285.7708, 1800.741
286.2529, 1844.581
286.7350, 1890.676
287.2171, 1938.471
287.6992, 1988.879
288.1813, 2043.962
288.6635, 2104.061
289.1456, 2166.369
289.6277, 2232.278
290.1098, 2300.380
290.5919, 2359.126
291.0740, 2406.757
291.5562, 2445.074
292.0383, 2476.155
292.5204, 2500.323
293.0025, 2518.662
293.4846, 2531.185
293.9667, 2538.555
294.4489, 2543.028
294.9310, 2544.895
295.4131, 2543.896
295.8952, 2538.128
296.3773, 2528.333
296.8594, 2519.008
297.3416, 2508.857
297.8237, 2501.292
298.3058, 2503.278
298.7879, 2514.893
299.2700, 2538.054
299.7521, 2574.768
300.2343, 2624.737
300.7164, 2685.367
301.1985, 2757.190
301.6806, 2839.094
302.1627, 2929.217
302.6448, 3028.488
303.1270, 3132.541
303.6091, 3237.955
304.0912, 3345.260
304.5733, 3460.608
305.0554, 3590.719
305.5375, 3726.742
306.0197, 3855.680
306.5018, 3977.483
306.9839, 4102.438
307.4660, 4238.167
307.9481, 4380.493
308.4302, 4522.353
308.9124, 4655.192
309.3945, 4795.179
309.8766, 4956.666
310.3587, 5138.899
310.8408, 5330.108
311.3229, 5520.134
311.8051, 5718.668
312.2872, 5930.384
312.7693, 6157.753
313.2514, 6398.462
313.7335, 6648.032
314.2156, 6910.358
314.6978, 7199.472
315.1799, 7523.245
315.6620, 7877.241
316.1441, 8250.633
316.6262, 8641.795
317.1083, 9058.744
317.5905, 9507.614
318.0726, 9982.095
318.5547, 10478.68
319.0368, 11015.54
319.5189, 11555.86
320.0010, 12087.71
320.4832, 12621.93
320.9653, 13100.20
321.4474, 13539.35
321.9295, 13903.09
322.4116, 14149.01
322.8937, 14300.42
323.3759, 14302.17
323.8580, 14125.02
324.3401, 13766.39
324.8222, 13300.58
325.3043, 12693.14
325.7864, 12007.34
326.2686, 11291.93
326.7507, 10494.55
327.2328, 9730.654
327.7149, 9005.259
328.1970, 8325.666
328.6791, 7697.288
329.1613, 7128.437
329.6434, 6609.021
330.1255, 6135.354
330.6076, 5711.016
331.0897, 5327.340
331.5718, 4986.754
332.0540, 4686.871
332.5361, 4418.209
333.0182, 4184.479
333.5003, 3973.402
333.9824, 3782.818
334.4645, 3612.643
334.9467, 3459.405
335.4288, 3326.300
335.9109, 3208.856
336.3930, 3102.658
336.8751, 3006.427
337.3572, 2922.436
337.8394, 2851.692
338.3215, 2795.132
338.8036, 2744.105
339.2857, 2699.377
339.7678, 2658.706
340.2499, 2617.328
340.7321, 2574.417
341.2142, 2540.164
341.6963, 2518.442
342.1784, 2507.219
342.6605, 2497.823
343.1426, 2490.164
343.6248, 2485.044
344.1069, 2482.604
344.5890, 2482.911
345.0711, 2488.107
345.5532, 2498.759
346.0353, 2514.027
346.5175, 2533.232
346.9996, 2556.468
347.4817, 2579.513
347.9638, 2598.500
348.4459, 2615.033
348.9280, 2635.411
349.4102, 2660.499
349.8923, 2687.430
350.3744, 2710.072
350.8565, 2730.286
351.3386, 2755.999
351.8207, 2790.706
352.3029, 2833.068
352.7850, 2882.421
353.2671, 2939.214
353.7492, 2999.693
354.2313, 3057.811
354.7134, 3117.604
355.1956, 3187.112
355.6777, 3268.748
356.1598, 3360.835
356.6419, 3459.711
357.1240, 3567.079
357.6061, 3692.014
358.0883, 3843.533
358.5704, 4013.997
359.0525, 4194.913
359.5346, 4386.454
360.0167, 4585.202
360.4988, 4793.410
360.9810, 5006.321
361.4631, 5211.531
361.9452, 5429.250
362.4273, 5618.696
362.9094, 5769.375
363.3915, 5891.393
363.8737, 5919.581
364.3558, 5818.640
364.8379, 5616.866
365.3200, 5347.088
365.8021, 4965.176
366.2842, 4565.391
366.7664, 4161.042
367.2485, 3751.025
367.7306, 3387.907
368.2127, 3082.456
368.6948, 2823.581
369.1769, 2600.962
369.6591, 2425.845
370.1412, 2272.432
370.6233, 2140.993
371.1054, 2029.943
371.5875, 1933.421
372.0696, 1855.345
372.5518, 1788.250
373.0339, 1728.964
373.5160, 1677.672
373.9981, 1633.532
374.4802, 1597.546
374.9623, 1567.378
375.4445, 1539.837
375.9266, 1514.453
376.4087, 1492.353
376.8908, 1474.717
377.3729, 1461.290
377.8550, 1446.297
378.3372, 1429.097
378.8193, 1412.376
379.3014, 1399.672
379.7835, 1391.093
380.2656, 1381.619
380.7477, 1369.987
381.2299, 1357.185
381.7120, 1345.587
382.1941, 1335.309
382.6762, 1325.015
383.1583, 1313.109
383.6404, 1300.310
384.1226, 1290.140
384.6047, 1283.256
385.0868, 1277.868
385.5689, 1272.483
386.0510, 1266.835
386.5331, 1259.889
387.0153, 1249.382
387.4974, 1237.972
387.9795, 1229.752
388.4616, 1224.776
388.9437, 1220.530
389.4258, 1214.366
389.9080, 1207.881
390.3901, 1203.635
390.8722, 1204.420
391.3543, 1205.302
391.8364, 1201.964
392.3185, 1195.525
392.8007, 1190.003
393.2828, 1187.722
393.7649, 1186.795
394.2470, 1186.082
394.7291, 1185.563
395.2112, 1184.709
395.6934, 1182.394
396.1755, 1179.798
396.6576, 1178.702
397.1397, 1181.901
397.6218, 1184.393
398.1039, 1184.443
398.5861, 1181.813
399.0682, 1178.628
399.5503, 1173.655
400.0324, 1169.062
400.5145, 1166.527
400.9966, 1168.381
401.4788, 1168.940
401.9609, 1166.317
402.4430, 1161.984
402.9251, 1162.168
403.4072, 1170.627
403.8893, 1177.913
404.3714, 1179.033
404.8535, 1171.800
405.3357, 1167.730
405.8178, 1167.760
406.2999, 1169.740
406.7820, 1170.531
407.2641, 1169.832
407.7462, 1169.684
408.2284, 1170.938
408.7105, 1173.230
409.1926, 1174.742
409.6747, 1175.385
410.1568, 1175.949
410.6389, 1177.606
411.1211, 1179.986
411.6032, 1180.553
412.0853, 1178.012
412.5674, 1175.303
413.0495, 1177.627
413.5316, 1184.134
414.0138, 1190.371
414.4959, 1193.623
414.9780, 1195.239
415.4601, 1196.767
415.9422, 1198.235
416.4243, 1200.769
416.9065, 1205.964
417.3886, 1212.665
417.8707, 1219.038
418.3528, 1223.767
418.8349, 1228.664
419.3170, 1234.648
419.7992, 1241.787
420.2813, 1250.028
420.7634, 1260.724
421.2455, 1271.754
421.7276, 1281.500
422.2097, 1288.921
422.6919, 1297.163
423.1740, 1305.444
423.6561, 1315.385
424.1382, 1329.710
424.6203, 1355.027
425.1024, 1378.171
425.5846, 1394.342
426.0667, 1402.853
426.5488, 1416.094
427.0309, 1438.002
427.5130, 1461.331
427.9951, 1480.764
428.4773, 1493.036
428.9594, 1508.527
429.4415, 1528.223
429.9236, 1551.339
430.4057, 1576.429
430.8878, 1603.456
431.3700, 1632.233
431.8521, 1663.023
432.3342, 1695.839
432.8163, 1728.497
433.2984, 1760.627
433.7805, 1793.946
434.2627, 1830.894
434.7448, 1871.183
435.2269, 1911.607
435.7090, 1951.457
436.1911, 1991.618
436.6732, 2034.194
437.1554, 2078.999
437.6375, 2123.177
438.1196, 2164.649
438.6017, 2206.256
439.0838, 2243.992
439.5659, 2284.646
440.0481, 2322.633
440.5302, 2357.894
441.0123, 2388.406
441.4944, 2410.782
441.9765, 2422.694
442.4586, 2426.856
442.9408, 2424.427
443.4229, 2415.539
443.9050, 2400.744
444.3871, 2380.625
444.8692, 2354.649
445.3513, 2322.242
445.8335, 2281.568
446.3156, 2237.477
446.7977, 2190.128
447.2798, 2140.269
447.7619, 2089.309
448.2440, 2033.638
448.7262, 1981.307
449.2083, 1935.023
449.6904, 1894.795
450.1725, 1855.876
450.6546, 1819.124
451.1367, 1783.168
451.6189, 1745.862
452.1010, 1704.031
452.5831, 1672.137
453.0652, 1654.254
453.5473, 1643.693
454.0294, 1623.547
454.5116, 1592.298
454.9937, 1563.205
455.4758, 1542.841
455.9579, 1529.834
456.4400, 1515.735
456.9221, 1500.193
457.4043, 1485.652
457.8864, 1474.129
458.3685, 1465.404
458.8506, 1458.582
459.3327, 1453.717
459.8148, 1450.314
460.2970, 1448.587
460.7791, 1448.004
461.2612, 1446.871
461.7433, 1444.068
462.2254, 1440.417
462.7076, 1436.376
463.1897, 1431.880
463.6718, 1428.026
464.1539, 1426.797
464.6360, 1425.924
465.1181, 1423.163
465.6003, 1415.058
466.0824, 1408.131
466.5645, 1405.272
467.0466, 1405.238
467.5287, 1403.235
468.0108, 1396.049
468.4930, 1389.221
468.9751, 1385.065
469.4572, 1384.796
469.9393, 1382.503
470.4214, 1376.584
470.9035, 1370.089
471.3857, 1366.371
471.8678, 1366.013
472.3499, 1366.630
472.8320, 1368.074
473.3141, 1370.091
473.7962, 1371.783
474.2784, 1373.109
474.7605, 1374.487
475.2426, 1376.005
475.7247, 1377.759
476.2068, 1380.444
476.6889, 1384.267
477.1711, 1388.039
477.6532, 1389.656
478.1353, 1390.094
478.6174, 1392.146
479.0995, 1397.587
479.5816, 1404.045
480.0638, 1407.933
480.5459, 1410.222
481.0280, 1414.531
481.5101, 1424.559
481.9922, 1436.366
482.4743, 1446.564
482.9565, 1454.470
483.4386, 1462.695
483.9207, 1472.920
484.4028, 1483.655
484.8849, 1493.342
485.3670, 1498.576
485.8492, 1506.057
486.3313, 1517.710
486.8134, 1532.939
487.2955, 1548.513
487.7776, 1563.904
488.2597, 1579.881
488.7419, 1596.692
489.2240, 1614.105
489.7061, 1632.970
490.1882, 1653.896
490.6703, 1675.445
491.1524, 1695.390
491.6346, 1713.189
492.1167, 1734.887
492.5988, 1762.189
493.0809, 1794.064
493.5630, 1827.971
494.0451, 1864.130
494.5273, 1901.015
495.0094, 1937.947
495.4915, 1975.233
495.9736, 2013.889
496.4557, 2053.783
496.9378, 2095.155
497.4200, 2137.280
497.9021, 2180.921
498.3842, 2226.442
498.8663, 2275.154
499.3484, 2324.996
499.8305, 2374.256
500.3127, 2423.716
500.7948, 2475.118
501.2769, 2529.725
501.7590, 2586.585
502.2411, 2645.036
502.7232, 2705.444
503.2054, 2768.603
503.6875, 2834.542
504.1696, 2902.869
504.6517, 2972.417
505.1338, 3043.380
505.6159, 3114.852
506.0981, 3185.870
506.5802, 3257.247
507.0623, 3331.244
507.5444, 3410.175
508.0265, 3487.294
508.5086, 3562.036
508.9908, 3633.829
509.4729, 3700.173
509.9550, 3761.835
510.4371, 3810.944
510.9192, 3838.695
511.4013, 3847.333
511.8835, 3846.671
512.3655, 3840.571
512.8477, 3818.468
513.3298, 3765.370
513.8119, 3686.640
514.2940, 3594.933
514.7761, 3491.673
515.2582, 3381.104
515.7404, 3262.157
516.2225, 3136.144
516.7046, 3012.101
517.1867, 2891.281
517.6688, 2775.616
518.1509, 2665.726
518.6331, 2559.766
519.1152, 2463.829
519.5973, 2382.474
520.0794, 2310.936
520.5615, 2244.095
521.0436, 2180.230
521.5258, 2123.119
522.0079, 2074.578
522.4900, 2033.339
522.9721, 1992.343
523.4542, 1950.765
523.9363, 1914.090
524.4185, 1886.781
524.9006, 1868.699
525.3827, 1849.892
525.8648, 1830.135
526.3469, 1810.469
526.8290, 1790.629
527.3112, 1771.597
527.7933, 1757.005
528.2754, 1748.399
528.7575, 1743.104
529.2396, 1739.294
529.7217, 1736.251
530.2039, 1731.939
530.6860, 1722.978
531.1681, 1714.058
531.6502, 1708.146
532.1323, 1705.358
532.6144, 1704.771
533.0966, 1707.849
533.5787, 1711.744
534.0608, 1714.339
534.5429, 1713.033
535.0250, 1714.094
535.5071, 1719.844
535.9893, 1727.510
536.4714, 1732.675
536.9535, 1732.642
537.4356, 1735.502
537.9177, 1744.133
538.3998, 1757.327
538.8820, 1767.005
539.3641, 1772.625
539.8462, 1776.815
540.3283, 1780.348
540.8104, 1783.484
541.2925, 1788.707
541.7747, 1796.390
542.2568, 1804.201
542.7389, 1808.675
543.2210, 1811.381
543.7031, 1816.067
544.1852, 1824.160
544.6674, 1833.973
545.1495, 1842.957
545.6316, 1852.332
546.1137, 1865.133
546.5958, 1882.930
547.0779, 1904.357
547.5601, 1928.709
548.0422, 1955.939
548.5243, 1986.498
549.0064, 2017.396
549.4885, 2053.896
549.9706, 2099.179
550.4528, 2153.760
550.9349, 2215.341
551.4170, 2281.980
551.8991, 2358.172
552.3812, 2450.788
552.8633, 2560.374
553.3455, 2683.683
553.8276, 2818.710
554.3097, 2967.548
554.7918, 3142.071
555.2739, 3339.384
555.7560, 3544.762
556.2382, 3753.281
556.7203, 3961.970
557.2024, 4163.827
557.6845, 4358.488
558.1666, 4550.429
558.6487, 4735.922
559.1309, 4922.455
559.6130, 5114.824
560.0951, 5310.691
560.5772, 5522.610
561.0593, 5756.056
561.5414, 6010.729
562.0236, 6282.220
562.5057, 6561.658
562.9878, 6868.497
563.4699, 7206.426
563.9520, 7573.647
564.4341, 7987.659
564.9163, 8445.525
565.3984, 8955.219
565.8805, 9525.112
566.3626, 10162.24
566.8447, 10849.54
567.3268, 11599.46
567.8090, 12387.74
568.2911, 13184.06
568.7732, 13993.91
569.2553, 14810.86
569.7374, 15663.98
570.2195, 16480.97
570.7017, 17255.18
571.1838, 17946.10
571.6659, 18413.32
572.1480, 18682.10
572.6301, 18636.33
573.1122, 18143.98
573.5944, 17222.43
574.0765, 16059.41
574.5586, 14537.50
575.0407, 12953.52
575.5228, 11450.64
576.0049, 10025.27
576.4871, 8777.424
576.9692, 7720.879
577.4513, 6828.700
577.9334, 6066.329
578.4155, 5463.927
578.8976, 4952.142
579.3798, 4536.629
579.8619, 4196.125
580.3440, 3893.318
580.8261, 3629.367
581.3082, 3400.018
581.7903, 3211.134
582.2725, 3055.044
582.7546, 2915.219
583.2367, 2791.297
583.7188, 2679.848
584.2009, 2581.344
584.6830, 2494.043
585.1652, 2416.875
585.6473, 2350.132
586.1294, 2288.718
