##NAMES=Malayaite
##RRUFFID=R061106
##IDEAL CHEMISTRY=CaSn^4+^O(SiO_4_)
##LOCALITY=Meldon, Dartmoor, Devon, England
##OWNER=RRUFF
##SOURCE=Michael Scott
##DESCRIPTION=Dark yellow massive associated with wollastonite and garnet
##STATUS=The identification of this mineral is confirmed by single-crystal X-ray diffraction and chemical analysis.
##URL=rruff.info/R061106
##MEASURED CHEMISTRY=Ca_1.00_Sn_1.00_O(Si_1.00_O_4_)
127.4148, 1089.773
127.8969, 1156.453
128.3790, 1229.305
128.8611, 1308.406
129.3432, 1399.560
129.8254, 1510.738
130.3075, 1641.525
130.7896, 1783.905
131.2717, 1940.506
131.7538, 2106.420
132.2359, 2275.882
132.7181, 2448.577
133.2002, 2621.571
133.6823, 2808.986
134.1644, 3010.230
134.6465, 3155.285
135.1286, 3228.169
135.6108, 3226.229
136.0929, 3128.523
136.5750, 2894.660
137.0571, 2622.396
137.5392, 2403.629
138.0213, 2234.792
138.5035, 2108.041
138.9856, 2026.844
139.4677, 1987.412
139.9498, 1974.623
140.4319, 1990.822
140.9140, 2030.466
141.3961, 2084.025
141.8783, 2151.575
142.3604, 2233.229
142.8425, 2332.554
143.3246, 2448.842
143.8067, 2568.668
144.2888, 2691.830
144.7710, 2817.001
145.2531, 2948.694
145.7352, 3061.901
146.2173, 3129.045
146.6994, 3142.393
147.1815, 3124.149
147.6637, 3115.838
148.1458, 3136.066
148.6279, 3158.655
149.1100, 3169.576
149.5921, 3167.276
150.0742, 3158.983
150.5564, 3151.028
151.0385, 3142.368
151.5206, 3136.601
152.0027, 3141.238
152.4848, 3142.710
152.9669, 3129.571
153.4491, 3100.144
153.9312, 3066.278
154.4133, 3042.186
154.8954, 3026.527
155.3775, 3022.981
155.8596, 3037.910
156.3418, 3058.633
156.8239, 3074.608
157.3060, 3083.916
157.7881, 3096.006
158.2702, 3124.728
158.7523, 3170.376
159.2345, 3232.415
159.7166, 3313.118
160.1987, 3404.526
160.6808, 3500.979
161.1629, 3600.971
161.6451, 3707.527
162.1272, 3824.658
162.6093, 3951.722
163.0914, 4093.141
163.5735, 4247.788
164.0556, 4414.071
164.5378, 4589.565
165.0199, 4773.566
165.5020, 4968.565
165.9841, 5178.200
166.4662, 5403.763
166.9483, 5646.655
167.4305, 5916.089
167.9126, 6195.350
168.3947, 6471.723
168.8768, 6741.837
169.3589, 7010.828
169.8410, 7291.045
170.3232, 7611.683
170.8053, 7897.990
171.2874, 8160.167
171.7695, 8386.337
172.2516, 8576.137
172.7337, 8727.504
173.2159, 8825.258
173.6980, 8839.060
174.1801, 8736.634
174.6622, 8577.738
175.1443, 8337.820
175.6264, 8056.759
176.1085, 7760.465
176.5907, 7461.225
177.0728, 7167.942
177.5549, 6903.693
178.0370, 6675.644
178.5191, 6472.695
179.0012, 6300.905
179.4834, 6151.166
179.9655, 6020.331
180.4476, 5906.100
180.9297, 5801.359
181.4118, 5692.865
181.8939, 5589.315
182.3761, 5467.596
182.8582, 5326.928
183.3403, 5169.291
183.8224, 4995.465
184.3045, 4805.542
184.7866, 4602.730
185.2688, 4387.785
185.7509, 4135.211
186.2330, 3914.625
186.7151, 3742.154
187.1972, 3595.260
187.6793, 3453.608
188.1615, 3310.152
188.6436, 3171.884
189.1257, 3050.894
189.6078, 2955.245
190.0899, 2864.174
190.5720, 2774.608
191.0542, 2690.778
191.5363, 2615.670
192.0184, 2550.354
192.5005, 2494.807
192.9826, 2450.059
193.4647, 2422.377
193.9469, 2392.106
194.4290, 2354.332
194.9111, 2315.898
195.3932, 2283.627
195.8753, 2258.977
196.3574, 2238.825
196.8396, 2218.994
197.3217, 2197.790
197.8038, 2182.501
198.2859, 2182.745
198.7680, 2183.744
199.2501, 2168.300
199.7323, 2133.917
200.2144, 2097.260
200.6965, 2079.572
201.1786, 2090.310
201.6607, 2091.452
202.1428, 2074.067
202.6250, 2052.456
203.1071, 2038.994
203.5892, 2035.366
204.0713, 2035.136
204.5534, 2031.223
205.0355, 2022.080
205.5177, 2016.081
205.9998, 2018.817
206.4819, 2020.799
206.9640, 2012.901
207.4461, 1994.898
207.9282, 1975.296
208.4104, 1961.916
208.8925, 1955.784
209.3746, 1951.839
209.8567, 1950.164
210.3388, 1950.460
210.8209, 1952.712
211.3030, 1956.834
211.7852, 1962.489
212.2673, 1969.766
212.7494, 1978.777
213.2315, 1986.952
213.7136, 1994.331
214.1957, 2000.957
214.6779, 2004.430
215.1600, 2006.183
215.6421, 2012.641
216.1242, 2029.455
216.6063, 2056.463
217.0884, 2080.441
217.5706, 2096.254
218.0527, 2114.517
218.5348, 2142.858
219.0169, 2178.675
219.4990, 2213.007
219.9811, 2240.023
220.4633, 2260.390
220.9454, 2280.812
221.4275, 2315.476
221.9096, 2335.811
222.3917, 2324.178
222.8738, 2289.664
223.3560, 2254.261
223.8381, 2230.834
224.3202, 2215.372
224.8023, 2186.490
225.2844, 2131.594
225.7665, 2080.328
226.2487, 2042.111
226.7308, 2012.560
227.2129, 1982.471
227.6950, 1946.944
228.1771, 1910.784
228.6592, 1888.839
229.1414, 1894.291
229.6235, 1896.636
230.1056, 1887.105
230.5877, 1873.611
231.0698, 1868.483
231.5519, 1876.694
232.0341, 1890.062
232.5162, 1891.089
232.9983, 1866.002
233.4804, 1849.137
233.9625, 1846.935
234.4446, 1851.043
234.9268, 1853.676
235.4089, 1852.498
235.8910, 1848.732
236.3731, 1844.091
236.8552, 1837.709
237.3373, 1832.270
237.8195, 1829.362
238.3016, 1826.403
238.7837, 1819.225
239.2658, 1808.111
239.7479, 1799.576
240.2300, 1802.606
240.7122, 1823.664
241.1943, 1834.287
241.6764, 1825.629
242.1585, 1815.303
242.6406, 1814.041
243.1227, 1821.840
243.6049, 1832.518
244.0870, 1841.067
244.5691, 1848.208
245.0512, 1846.858
245.5333, 1825.489
246.0154, 1807.993
246.4975, 1807.626
246.9797, 1820.013
247.4618, 1832.360
247.9439, 1834.978
248.4260, 1828.209
248.9081, 1822.927
249.3902, 1819.317
249.8724, 1816.998
250.3545, 1816.868
250.8366, 1817.854
251.3187, 1817.817
251.8008, 1815.244
252.2829, 1811.408
252.7651, 1812.278
253.2472, 1825.753
253.7293, 1834.226
254.2114, 1831.132
254.6935, 1823.679
255.1756, 1820.805
255.6578, 1826.451
256.1399, 1836.122
256.6220, 1839.512
257.1041, 1834.768
257.5862, 1826.396
258.0684, 1807.681
258.5505, 1790.303
259.0326, 1784.608
259.5147, 1793.084
259.9968, 1809.269
260.4789, 1825.220
260.9611, 1843.194
261.4432, 1854.314
261.9253, 1853.434
262.4074, 1849.633
262.8895, 1845.771
263.3716, 1843.193
263.8537, 1844.264
264.3358, 1854.111
264.8180, 1874.642
265.3001, 1886.817
265.7822, 1882.320
266.2643, 1876.680
266.7464, 1876.340
267.2285, 1880.479
267.7107, 1885.265
268.1928, 1887.814
268.6749, 1888.538
269.1570, 1890.229
269.6391, 1892.234
270.1212, 1896.375
270.6034, 1904.983
271.0855, 1915.619
271.5676, 1923.868
272.0497, 1925.858
272.5318, 1925.477
273.0139, 1932.238
273.4961, 1948.861
273.9782, 1964.682
274.4603, 1972.101
274.9424, 1977.546
275.4245, 1988.526
275.9066, 2008.209
276.3888, 2031.275
276.8709, 2052.377
277.3530, 2071.629
277.8351, 2088.106
278.3172, 2097.057
278.7993, 2106.453
279.2815, 2125.204
279.7636, 2155.154
280.2457, 2187.769
280.7278, 2215.835
281.2099, 2241.149
281.6920, 2271.955
282.1742, 2310.373
282.6563, 2354.748
283.1384, 2404.536
283.6205, 2459.572
284.1026, 2514.119
284.5847, 2565.589
285.0669, 2615.329
285.5490, 2664.635
286.0311, 2712.255
286.5132, 2765.633
286.9953, 2833.639
287.4774, 2914.794
287.9596, 2996.090
288.4417, 3078.375
288.9238, 3158.093
289.4059, 3237.521
289.8880, 3315.206
290.3701, 3374.542
290.8523, 3402.233
291.3344, 3401.221
291.8165, 3398.671
292.2986, 3394.454
292.7807, 3388.910
293.2628, 3378.946
293.7450, 3367.600
294.2271, 3365.004
294.7092, 3378.281
295.1913, 3396.568
295.6734, 3388.796
296.1555, 3330.541
296.6377, 3284.530
297.1198, 3261.902
297.6019, 3253.930
298.0840, 3250.621
298.5661, 3249.299
299.0482, 3254.892
299.5304, 3275.254
300.0125, 3318.096
300.4946, 3357.263
300.9767, 3388.251
301.4588, 3419.772
301.9409, 3459.301
302.4231, 3505.752
302.9052, 3550.928
303.3873, 3585.844
303.8694, 3609.336
304.3515, 3646.880
304.8336, 3701.356
305.3158, 3767.124
305.7979, 3843.409
306.2800, 3930.056
306.7621, 4024.521
307.2442, 4123.653
307.7263, 4233.935
308.2085, 4381.251
308.6906, 4576.032
309.1727, 4794.631
309.6548, 5017.173
310.1369, 5264.991
310.6190, 5554.061
311.1012, 5890.802
311.5833, 6278.952
312.0654, 6728.858
312.5475, 7241.460
313.0296, 7802.233
313.5117, 8401.291
313.9939, 9056.181
314.4760, 9782.421
314.9581, 10578.98
315.4402, 11436.15
315.9223, 12347.11
316.4044, 13312.18
316.8866, 14339.28
317.3687, 15446.42
317.8508, 16586.47
318.3329, 17743.61
318.8150, 18911.00
319.2971, 20062.38
319.7793, 21250.98
320.2614, 22393.31
320.7435, 23425.58
321.2256, 24353.46
321.7077, 25050.47
322.1898, 25460.96
322.6720, 25560.61
323.1541, 25360.98
323.6362, 24835.65
324.1183, 24058.09
324.6004, 22995.53
325.0826, 21707.76
325.5647, 20330.77
326.0468, 18888.26
326.5289, 17438.21
327.0110, 16072.29
327.4931, 14777.33
327.9753, 13585.58
328.4574, 12518.19
328.9395, 11551.75
329.4216, 10669.25
329.9037, 9865.060
330.3858, 9144.075
330.8680, 8514.863
331.3501, 7984.774
331.8322, 7506.455
332.3143, 7084.534
332.7964, 6704.158
333.2785, 6366.672
333.7606, 6065.199
334.2427, 5787.841
334.7249, 5527.212
335.2070, 5285.354
335.6891, 5076.328
336.1712, 4914.826
336.6533, 4769.930
337.1354, 4643.307
337.6176, 4529.485
338.0997, 4423.182
338.5818, 4323.248
339.0639, 4230.080
339.5460, 4145.935
340.0281, 4071.506
340.5103, 4003.040
340.9924, 3938.684
341.4745, 3881.507
341.9566, 3838.371
342.4387, 3805.352
342.9208, 3769.406
343.4030, 3716.104
343.8851, 3651.264
344.3672, 3607.482
344.8493, 3592.698
345.3314, 3584.508
345.8135, 3566.639
346.2957, 3550.168
346.7778, 3551.867
347.2599, 3580.001
347.7420, 3622.244
348.2241, 3660.984
348.7062, 3696.735
349.1884, 3751.175
349.6705, 3828.662
350.1526, 3933.351
350.6347, 4066.303
351.1168, 4227.609
351.5989, 4411.580
352.0811, 4602.326
352.5632, 4817.879
353.0453, 5088.875
353.5274, 5421.624
354.0095, 5801.896
354.4916, 6219.137
354.9738, 6678.682
355.4559, 7193.240
355.9380, 7776.888
356.4201, 8403.508
356.9022, 9061.654
357.3843, 9753.471
357.8665, 10493.98
358.3486, 11296.75
358.8307, 12153.02
359.3128, 13032.97
359.7949, 13982.17
360.2770, 14911.49
360.7592, 15899.51
361.2413, 16819.76
361.7234, 17605.47
362.2055, 18216.58
362.6876, 18564.50
363.1697, 18532.73
363.6519, 18105.95
364.1340, 17352.37
364.6161, 16062.68
365.0982, 14642.27
365.5803, 13137.79
366.0624, 11622.42
366.5446, 10221.94
367.0267, 8998.492
367.5088, 7950.903
367.9909, 7057.959
368.4730, 6348.577
368.9551, 5740.593
369.4373, 5233.319
369.9194, 4802.556
370.4015, 4429.551
370.8836, 4114.261
371.3657, 3849.727
371.8478, 3641.850
372.3300, 3483.611
372.8121, 3339.986
373.2942, 3205.009
373.7763, 3080.459
374.2584, 2968.552
374.7405, 2867.868
375.2227, 2777.057
375.7048, 2697.095
376.1869, 2625.053
376.6690, 2557.890
377.1511, 2495.415
377.6332, 2439.217
378.1154, 2390.571
378.5975, 2348.438
379.0796, 2309.305
379.5617, 2268.479
380.0438, 2235.397
380.5259, 2220.562
381.0081, 2211.400
381.4902, 2189.685
381.9723, 2150.407
382.4544, 2105.523
382.9365, 2071.628
383.4186, 2051.074
383.9008, 2034.599
384.3829, 2026.004
384.8650, 2017.265
385.3471, 2005.088
385.8292, 1989.552
386.3113, 1971.797
386.7935, 1952.333
387.2756, 1931.672
387.7577, 1911.119
388.2398, 1887.854
388.7219, 1870.872
389.2040, 1868.454
389.6862, 1869.737
390.1683, 1864.391
390.6504, 1850.069
391.1325, 1834.116
391.6146, 1823.398
392.0967, 1817.294
392.5789, 1812.204
393.0610, 1809.006
393.5431, 1804.199
394.0252, 1792.216
394.5073, 1775.366
394.9894, 1762.771
395.4716, 1759.803
395.9537, 1759.793
396.4358, 1755.864
396.9179, 1748.721
397.4000, 1744.060
397.8821, 1745.569
398.3643, 1750.444
398.8464, 1750.461
399.3285, 1742.538
399.8106, 1735.789
400.2927, 1730.786
400.7748, 1728.035
401.2570, 1730.077
401.7391, 1736.341
402.2212, 1740.814
402.7033, 1736.436
403.1854, 1722.008
403.6675, 1712.358
404.1497, 1709.036
404.6317, 1708.985
405.1139, 1714.121
405.5960, 1721.408
406.0781, 1726.277
406.5602, 1726.536
407.0423, 1724.533
407.5244, 1725.087
408.0066, 1729.341
408.4887, 1730.984
408.9708, 1728.705
409.4529, 1723.339
409.9350, 1712.375
410.4171, 1697.094
410.8993, 1687.172
411.3814, 1690.929
411.8635, 1703.171
412.3456, 1714.459
412.8277, 1724.548
413.3098, 1732.497
413.7920, 1737.592
414.2741, 1739.924
414.7562, 1740.551
415.2383, 1736.908
415.7204, 1735.293
416.2025, 1741.352
416.6847, 1750.462
417.1668, 1753.980
417.6489, 1749.563
418.1310, 1743.118
418.6131, 1742.541
419.0952, 1750.170
419.5774, 1753.660
420.0595, 1748.843
420.5416, 1744.648
421.0237, 1744.766
421.5058, 1748.678
421.9879, 1754.789
422.4701, 1762.325
422.9522, 1770.981
423.4343, 1780.492
423.9164, 1792.554
424.3985, 1801.164
424.8806, 1800.592
425.3628, 1799.697
425.8449, 1801.499
426.3270, 1807.430
426.8091, 1822.781
427.2912, 1858.469
427.7733, 1906.436
428.2555, 1940.776
428.7376, 1957.726
429.2197, 1973.913
429.7018, 1995.464
430.1839, 2024.632
430.6660, 2066.026
431.1482, 2124.094
431.6303, 2188.125
432.1124, 2251.294
432.5945, 2316.743
433.0766, 2390.367
433.5587, 2474.026
434.0409, 2567.249
434.5230, 2670.315
435.0051, 2785.145
435.4872, 2902.230
435.9693, 3014.232
436.4514, 3136.617
436.9336, 3278.704
437.4157, 3436.103
437.8978, 3599.675
438.3799, 3765.755
438.8620, 3932.566
439.3441, 4096.364
439.8263, 4261.971
440.3084, 4412.930
440.7905, 4553.208
441.2726, 4672.794
441.7547, 4772.218
442.2368, 4847.000
442.7190, 4880.373
443.2011, 4855.021
443.6832, 4782.315
444.1653, 4686.227
444.6474, 4566.939
445.1295, 4420.871
445.6117, 4233.088
446.0938, 4022.326
446.5759, 3829.568
447.0580, 3660.983
447.5401, 3499.513
448.0222, 3336.994
448.5044, 3178.850
448.9865, 3029.950
449.4686, 2891.581
449.9507, 2765.138
450.4328, 2652.344
450.9149, 2553.365
451.3971, 2468.362
451.8792, 2407.644
452.3613, 2347.864
452.8434, 2277.222
453.3255, 2206.410
453.8076, 2152.226
454.2898, 2119.840
454.7719, 2095.948
455.2540, 2059.535
455.7361, 2007.864
456.2182, 1968.500
456.7003, 1952.162
457.1825, 1937.560
457.6646, 1912.048
458.1467, 1878.844
458.6288, 1846.024
459.1109, 1813.068
459.5930, 1785.330
460.0752, 1772.699
460.5573, 1772.719
461.0394, 1769.280
461.5215, 1756.032
462.0036, 1738.645
462.4857, 1726.081
462.9679, 1719.682
463.4500, 1711.802
463.9321, 1698.693
464.4142, 1686.434
464.8963, 1682.771
465.3784, 1684.212
465.8606, 1678.163
466.3427, 1655.972
466.8248, 1624.645
467.3069, 1607.338
467.7890, 1611.525
468.2711, 1615.904
468.7533, 1620.305
469.2354, 1622.651
469.7175, 1620.233
470.1996, 1613.741
470.6817, 1607.509
471.1638, 1604.740
471.6460, 1604.617
472.1281, 1605.692
472.6102, 1608.642
473.0923, 1609.000
473.5744, 1604.065
474.0565, 1595.315
474.5387, 1585.592
475.0208, 1573.751
475.5029, 1564.240
475.9850, 1558.292
476.4671, 1555.905
476.9492, 1559.293
477.4313, 1567.792
477.9135, 1574.166
478.3956, 1571.727
478.8777, 1561.441
479.3598, 1556.009
479.8419, 1562.559
480.3240, 1565.486
480.8062, 1558.723
481.2883, 1549.674
481.7704, 1546.173
482.2525, 1549.655
482.7346, 1555.353
483.2167, 1558.736
483.6989, 1559.919
484.1810, 1560.556
484.6631, 1559.722
485.1452, 1560.271
485.6273, 1565.052
486.1094, 1571.866
486.5916, 1577.553
487.0737, 1581.324
487.5558, 1584.576
488.0379, 1586.574
488.5200, 1588.981
489.0021, 1596.594
489.4843, 1610.472
489.9664, 1623.826
490.4485, 1629.573
490.9306, 1627.314
491.4127, 1628.323
491.8948, 1635.162
492.3770, 1641.784
492.8591, 1644.335
493.3412, 1646.702
493.8233, 1653.095
494.3054, 1664.954
494.7875, 1682.328
495.2697, 1708.337
495.7518, 1743.824
496.2339, 1768.368
496.7160, 1771.361
497.1981, 1779.287
497.6802, 1810.851
498.1624, 1855.080
498.6445, 1892.514
499.1266, 1912.860
499.6087, 1937.387
500.0908, 1984.532
500.5729, 2048.079
501.0551, 2112.271
501.5372, 2173.785
502.0193, 2237.574
502.5014, 2309.113
502.9835, 2388.728
503.4656, 2471.629
503.9478, 2551.185
504.4299, 2640.977
504.9120, 2752.973
505.3941, 2874.559
505.8762, 2989.125
506.3583, 3091.738
506.8405, 3191.830
507.3226, 3300.744
507.8047, 3418.574
508.2868, 3540.554
508.7689, 3672.200
509.2510, 3798.084
509.7332, 3923.575
510.2153, 4035.530
510.6974, 4110.207
511.1795, 4137.819
511.6616, 4137.529
512.1437, 4125.885
512.6259, 4095.921
513.1080, 4027.577
513.5901, 3916.441
514.0722, 3783.430
514.5543, 3645.108
515.0364, 3501.345
515.5186, 3359.006
516.0007, 3209.042
516.4828, 3070.357
516.9649, 2948.612
517.4470, 2839.869
517.9291, 2741.547
518.4113, 2651.895
518.8934, 2568.496
519.3755, 2487.274
519.8576, 2408.381
520.3397, 2338.614
520.8218, 2278.229
521.3040, 2226.544
521.7861, 2189.612
522.2682, 2159.032
522.7503, 2121.380
523.2324, 2069.539
523.7145, 2026.707
524.1967, 2012.424
524.6788, 2011.822
525.1609, 2000.810
525.6430, 1976.467
526.1251, 1951.547
526.6072, 1935.718
527.0894, 1928.187
527.5715, 1922.840
528.0536, 1926.549
528.5357, 1923.410
529.0178, 1901.478
529.4999, 1879.231
529.9821, 1876.818
530.4642, 1893.648
530.9463, 1908.082
531.4284, 1898.939
531.9105, 1874.537
532.3926, 1862.030
532.8748, 1862.490
533.3569, 1869.592
533.8390, 1884.397
534.3211, 1901.776
534.8032, 1913.156
535.2853, 1917.275
535.7675, 1921.754
536.2496, 1927.308
536.7317, 1935.047
537.2138, 1948.062
537.6959, 1964.632
538.1780, 1978.845
538.6602, 1987.212
539.1423, 1991.185
539.6244, 1993.825
540.1065, 1991.425
540.5886, 1996.385
541.0707, 2017.981
541.5529, 2039.508
542.0350, 2052.063
542.5171, 2057.066
542.9992, 2060.359
543.4813, 2063.672
543.9634, 2067.911
544.4456, 2074.244
544.9277, 2082.527
545.4098, 2091.156
545.8919, 2098.543
546.3740, 2109.917
546.8561, 2133.776
547.3383, 2172.827
547.8204, 2201.246
548.3025, 2207.266
548.7846, 2215.597
549.2667, 2238.050
549.7488, 2268.541
550.2310, 2296.542
550.7131, 2318.750
551.1952, 2343.113
551.6773, 2381.806
552.1594, 2434.918
552.6415, 2482.092
553.1237, 2519.347
553.6058, 2558.044
554.0879, 2597.092
554.5700, 2643.892
555.0521, 2712.805
555.5342, 2812.330
556.0164, 2915.293
556.4985, 2997.734
556.9806, 3080.679
557.4627, 3189.265
557.9448, 3327.304
558.4269, 3492.888
558.9091, 3682.495
559.3912, 3900.378
559.8733, 4162.165
560.3554, 4456.736
560.8375, 4819.816
561.3196, 5246.477
561.8018, 5738.097
562.2839, 6284.494
562.7660, 6895.049
563.2481, 7588.170
563.7302, 8374.290
564.2123, 9250.744
564.6945, 10213.43
565.1766, 11256.60
565.6587, 12361.79
566.1408, 13505.71
566.6229, 14732.14
567.1050, 16095.74
567.5872, 17607.66
568.0693, 19228.66
568.5514, 21064.51
569.0335, 22889.22
569.5156, 24734.67
569.9977, 26454.83
570.4799, 27973.14
570.9620, 29231.95
571.4441, 29974.38
571.9262, 29871.81
572.4083, 28930.50
572.8904, 27342.29
573.3726, 24897.86
573.8547, 22259.86
574.3368, 19559.70
574.8189, 16950.38
575.3010, 14657.04
575.7831, 12703.60
576.2653, 11028.66
576.7474, 9662.573
577.2295, 8525.851
577.7116, 7563.005
578.1937, 6758.443
578.6758, 6092.988
579.1580, 5564.180
579.6401, 5147.393
580.1222, 4771.760
580.6042, 4435.127
581.0864, 4145.090
581.5685, 3927.967
582.0506, 3737.075
582.5327, 3549.586
583.0148, 3370.188
583.4969, 3212.032
583.9791, 3085.030
584.4612, 2976.612
584.9433, 2880.008
585.4254, 2792.821
585.9075, 2709.782
586.3896, 2628.917
586.8718, 2552.033
587.3539, 2480.723
587.8360, 2414.973
588.3181, 2352.649
588.8002, 2290.363
589.2823, 2235.135
589.7645, 2189.771
590.2466, 2150.841
590.7287, 2117.762
591.2108, 2088.839
591.6929, 2057.943
592.1750, 2017.275
592.6572, 1972.481
593.1393, 1936.726
593.6214, 1910.148
594.1035, 1884.696
594.5856, 1857.507
595.0677, 1829.969
595.5499, 1803.400
596.0320, 1777.336
596.5141, 1755.406
596.9962, 1736.404
597.4783, 1723.084
597.9604, 1723.859
598.4426, 1728.779
598.9247, 1720.660
599.4068, 1694.188
599.8889, 1663.497
600.3710, 1647.243
600.8531, 1643.463
601.3353, 1629.635
601.8174, 1600.841
602.2995, 1576.545
602.7816, 1569.342
603.2637, 1571.659
603.7458, 1567.488
604.2280, 1555.106
604.7101, 1541.931
605.1922, 1529.562
605.6743, 1517.183
606.1564, 1502.772
606.6385, 1487.702
607.1207, 1476.624
607.6028, 1472.119
608.0849, 1469.756
608.5670, 1459.292
609.0491, 1438.431
609.5313, 1428.151
610.0134, 1436.821
610.4955, 1445.736
610.9776, 1442.290
611.4597, 1431.128
611.9418, 1420.372
612.4240, 1409.628
612.9061, 1402.525
613.3882, 1402.971
613.8703, 1406.673
614.3524, 1409.452
614.8345, 1410.381
615.3167, 1408.764
615.7988, 1403.932
616.2809, 1396.824
616.7630, 1389.860
617.2451, 1382.139
617.7272, 1377.652
618.2094, 1382.952
618.6915, 1385.131
619.1736, 1372.485
619.6557, 1350.329
620.1378, 1334.742
620.6199, 1332.374
621.1021, 1334.057
621.5842, 1334.998
622.0663, 1335.506
622.5484, 1336.839
623.0305, 1338.889
623.5126, 1339.171
