##NAMES=Malayaite
##RRUFFID=R061131
##IDEAL CHEMISTRY=CaSn^4+^O(SiO_4_)
##LOCALITY=Humpolec, Czech Republic
##OWNER=RRUFF
##SOURCE=Michael Scott
##DESCRIPTION=Pale tan colored grains disseminated through the rock
##STATUS=The identification of this mineral is confirmed by single-crystal X-ray diffraction and chemical analysis.
##URL=rruff.info/R061131
##MEASURED CHEMISTRY=(Ca_1.01_Fe_0.01_)(Sn_0.99_Ti_0.01_)Si_0.99_O_5_
115.0425, 88.23155
115.5246, 93.65260
116.0067, 101.8038
116.4888, 109.7036
116.9709, 114.9261
117.4530, 117.3457
117.9352, 119.1769
118.4173, 122.9524
118.8994, 129.2589
119.3815, 136.3909
119.8636, 144.5487
120.3457, 153.4011
120.8279, 162.3499
121.3100, 171.2469
121.7921, 181.0407
122.2742, 193.2977
122.7563, 208.1170
123.2384, 224.1274
123.7206, 239.4433
124.2027, 256.3431
124.6848, 278.8623
125.1669, 309.0941
125.6490, 342.2021
126.1311, 371.5675
126.6133, 397.6606
127.0954, 421.5013
127.5775, 443.7451
128.0596, 464.1296
128.5417, 482.2919
129.0238, 498.3441
129.5060, 511.7015
129.9881, 521.4152
130.4702, 527.4323
130.9523, 533.0890
131.4344, 541.6616
131.9165, 552.0787
132.3987, 558.3875
132.8808, 557.6221
133.3629, 553.4191
133.8450, 549.3826
134.3271, 545.5949
134.8092, 542.0488
135.2914, 537.5741
135.7735, 532.2316
136.2556, 530.9172
136.7377, 536.6504
137.2198, 545.8136
137.7019, 555.9145
138.1841, 566.6196
138.6662, 578.6721
139.1483, 593.0772
139.6304, 610.0908
140.1125, 627.4955
140.5946, 640.7382
141.0768, 657.0984
141.5589, 683.1157
142.0410, 719.8107
142.5231, 759.5359
143.0052, 792.5728
143.4873, 817.2797
143.9695, 840.6076
144.4516, 864.4786
144.9337, 887.0352
145.4158, 905.9799
145.8979, 921.0159
146.3800, 935.3278
146.8622, 954.7170
147.3443, 983.4514
147.8264, 1007.476
148.3085, 1025.148
148.7906, 1038.780
149.2727, 1050.157
149.7549, 1059.767
150.2370, 1066.778
150.7191, 1068.814
151.2012, 1059.694
151.6833, 1057.033
152.1654, 1064.853
152.6476, 1076.744
153.1297, 1088.142
153.6118, 1097.436
154.0939, 1104.959
154.5760, 1111.234
155.0581, 1114.058
155.5403, 1119.020
156.0224, 1130.065
156.5045, 1141.270
156.9866, 1144.465
157.4687, 1137.343
157.9508, 1127.961
158.4330, 1133.568
158.9151, 1174.123
159.3972, 1205.051
159.8793, 1218.085
160.3614, 1225.375
160.8435, 1239.717
161.3257, 1265.792
161.8078, 1297.766
162.2899, 1323.715
162.7720, 1340.532
163.2541, 1354.526
163.7362, 1360.251
164.2184, 1365.254
164.7005, 1379.414
165.1826, 1406.479
165.6647, 1440.081
166.1468, 1467.221
166.6289, 1484.621
167.1111, 1500.901
167.5932, 1514.706
168.0753, 1528.486
168.5574, 1547.173
169.0395, 1573.182
169.5216, 1599.894
170.0038, 1612.735
170.4859, 1602.538
170.9680, 1598.527
171.4501, 1606.455
171.9322, 1622.534
172.4143, 1643.971
172.8965, 1670.894
173.3786, 1697.399
173.8607, 1711.933
174.3428, 1712.724
174.8249, 1709.483
175.3070, 1701.093
175.7892, 1690.518
176.2713, 1681.862
176.7534, 1676.201
177.2355, 1673.460
177.7176, 1675.129
178.1997, 1682.782
178.6819, 1687.233
179.1640, 1686.246
179.6461, 1680.682
180.1282, 1670.201
180.6103, 1653.373
181.0924, 1636.156
181.5745, 1627.630
182.0567, 1626.954
182.5388, 1632.045
183.0209, 1645.713
183.5030, 1664.134
183.9851, 1680.743
184.4672, 1693.642
184.9494, 1705.450
185.4315, 1720.869
185.9136, 1739.978
186.3957, 1755.758
186.8778, 1766.134
187.3599, 1771.868
187.8421, 1772.688
188.3242, 1766.804
188.8063, 1761.377
189.2884, 1768.811
189.7705, 1787.302
190.2526, 1798.588
190.7348, 1788.336
191.2169, 1769.259
191.6990, 1764.539
192.1811, 1779.811
192.6632, 1802.143
193.1453, 1820.472
193.6275, 1835.525
194.1096, 1848.553
194.5917, 1859.071
195.0738, 1868.054
195.5559, 1876.519
196.0380, 1884.076
196.5202, 1892.947
197.0023, 1908.761
197.4844, 1928.550
197.9665, 1941.891
198.4486, 1939.582
198.9307, 1931.018
199.4129, 1931.982
199.8950, 1945.193
200.3771, 1960.511
200.8592, 1971.245
201.3413, 1978.370
201.8234, 1982.964
202.3056, 1984.927
202.7877, 1984.667
203.2698, 1981.680
203.7519, 1975.128
204.2340, 1969.942
204.7161, 1969.894
205.1983, 1973.564
205.6804, 1979.080
206.1625, 1987.635
206.6446, 1996.721
207.1267, 2005.365
207.6088, 2014.665
208.0910, 2015.516
208.5731, 1993.176
209.0552, 1961.285
209.5373, 1941.356
210.0194, 1944.236
210.5015, 1953.341
210.9837, 1950.196
211.4658, 1934.031
211.9479, 1916.270
212.4300, 1901.929
212.9121, 1889.161
213.3942, 1875.295
213.8764, 1858.999
214.3585, 1843.244
214.8406, 1830.991
215.3227, 1822.155
215.8048, 1814.728
216.2869, 1810.363
216.7691, 1805.336
217.2512, 1794.268
217.7333, 1774.833
218.2154, 1755.608
218.6975, 1744.598
219.1796, 1741.112
219.6618, 1735.893
220.1439, 1722.259
220.6260, 1709.665
221.1081, 1710.388
221.5902, 1726.500
222.0723, 1741.828
222.5545, 1742.580
223.0366, 1731.895
223.5187, 1726.849
224.0008, 1733.712
224.4829, 1744.732
224.9650, 1752.651
225.4472, 1757.567
225.9293, 1759.417
226.4114, 1756.440
226.8935, 1750.128
227.3756, 1745.910
227.8577, 1746.228
228.3399, 1745.743
228.8220, 1738.498
229.3041, 1725.732
229.7862, 1713.719
230.2683, 1705.157
230.7504, 1699.194
231.2325, 1694.641
231.7147, 1692.162
232.1968, 1688.880
232.6789, 1679.769
233.1610, 1667.510
233.6431, 1659.865
234.1252, 1662.553
234.6074, 1669.967
235.0895, 1674.028
235.5716, 1674.269
236.0537, 1672.600
236.5358, 1670.066
237.0179, 1666.484
237.5001, 1661.208
237.9822, 1651.648
238.4643, 1642.194
238.9464, 1638.922
239.4285, 1642.002
239.9106, 1643.308
240.3928, 1637.349
240.8749, 1626.934
241.3570, 1618.258
241.8391, 1612.633
242.3212, 1607.469
242.8033, 1599.108
243.2855, 1588.441
243.7676, 1582.939
244.2497, 1588.979
244.7318, 1599.145
245.2139, 1599.348
245.6960, 1586.218
246.1782, 1572.659
246.6603, 1563.513
247.1424, 1559.054
247.6245, 1561.374
248.1066, 1573.534
248.5887, 1588.630
249.0709, 1596.106
249.5530, 1595.527
250.0351, 1594.052
250.5172, 1595.784
250.9993, 1597.900
251.4814, 1595.163
251.9636, 1586.153
252.4457, 1573.582
252.9278, 1556.277
253.4099, 1533.902
253.8920, 1525.054
254.3741, 1544.313
254.8563, 1573.041
255.3384, 1589.767
255.8205, 1591.987
256.3026, 1592.256
256.7847, 1601.694
257.2668, 1620.331
257.7490, 1636.030
258.2311, 1649.081
258.7132, 1658.754
259.1953, 1662.049
259.6774, 1660.214
260.1595, 1660.864
260.6417, 1670.125
261.1238, 1685.930
261.6059, 1695.001
262.0880, 1694.802
262.5701, 1691.390
263.0522, 1686.863
263.5344, 1681.027
264.0165, 1673.067
264.4986, 1662.501
264.9807, 1649.861
265.4628, 1636.305
265.9449, 1616.610
266.4271, 1603.767
266.9092, 1604.359
267.3913, 1611.872
267.8734, 1618.660
268.3555, 1622.271
268.8376, 1622.564
269.3198, 1618.660
269.8019, 1604.680
270.2840, 1598.940
270.7661, 1607.691
271.2482, 1620.783
271.7303, 1631.591
272.2125, 1638.408
272.6946, 1640.303
273.1767, 1635.126
273.6588, 1619.877
274.1409, 1613.402
274.6230, 1619.858
275.1052, 1629.851
275.5873, 1641.108
276.0694, 1652.096
276.5515, 1659.683
277.0336, 1660.637
277.5157, 1655.619
277.9979, 1659.257
278.4800, 1680.567
278.9621, 1700.446
279.4442, 1714.953
279.9263, 1725.335
280.4084, 1733.802
280.8906, 1741.441
281.3727, 1748.272
281.8548, 1754.137
282.3369, 1756.109
282.8190, 1761.655
283.3011, 1774.748
283.7833, 1789.549
284.2654, 1800.604
284.7475, 1806.387
285.2296, 1809.849
285.7117, 1814.883
286.1938, 1820.927
286.6760, 1830.384
287.1581, 1844.925
287.6402, 1861.361
288.1223, 1879.261
288.6044, 1897.797
289.0865, 1914.903
289.5687, 1928.859
290.0508, 1939.692
290.5329, 1947.578
291.0150, 1950.740
291.4971, 1952.605
291.9792, 1952.657
292.4614, 1952.503
292.9435, 1954.791
293.4256, 1960.514
293.9077, 1970.168
294.3898, 1987.946
294.8719, 2022.547
295.3541, 2045.376
295.8362, 2038.105
296.3183, 2017.829
296.8004, 2002.027
297.2825, 1996.094
297.7646, 1995.187
298.2468, 1994.702
298.7289, 1994.925
299.2110, 1991.520
299.6931, 1977.312
300.1752, 1963.866
300.6573, 1961.845
301.1395, 1972.074
301.6216, 1986.381
302.1037, 1999.696
302.5858, 2012.657
303.0679, 2028.581
303.5500, 2050.058
304.0321, 2070.214
304.5143, 2078.147
304.9964, 2077.638
305.4785, 2085.998
305.9606, 2114.186
306.4427, 2151.550
306.9248, 2185.388
307.4070, 2214.952
307.8891, 2241.014
308.3712, 2259.539
308.8533, 2275.487
309.3354, 2305.773
309.8175, 2362.648
310.2997, 2421.710
310.7818, 2469.632
311.2639, 2508.544
311.7460, 2543.732
312.2281, 2575.477
312.7102, 2608.626
313.1924, 2655.768
313.6745, 2721.729
314.1566, 2787.188
314.6387, 2849.458
315.1208, 2908.540
315.6029, 2962.690
316.0851, 3011.908
316.5672, 3061.347
317.0493, 3118.401
317.5314, 3186.076
318.0135, 3247.633
318.4956, 3295.409
318.9778, 3343.852
319.4599, 3404.385
319.9420, 3473.568
320.4241, 3541.056
320.9062, 3600.016
321.3883, 3650.077
321.8705, 3685.028
322.3526, 3705.590
322.8347, 3709.348
323.3168, 3689.872
323.7989, 3655.245
324.2810, 3616.545
324.7632, 3578.317
325.2453, 3533.109
325.7274, 3464.985
326.2095, 3363.070
326.6916, 3261.542
327.1737, 3159.528
327.6559, 3060.440
328.1380, 2965.839
328.6201, 2876.715
329.1022, 2793.844
329.5843, 2720.330
330.0664, 2656.275
330.5486, 2587.135
331.0307, 2501.987
331.5128, 2425.881
331.9949, 2372.203
332.4770, 2333.927
332.9591, 2298.637
333.4413, 2261.322
333.9234, 2222.340
334.4055, 2180.583
334.8876, 2133.888
335.3697, 2093.266
335.8518, 2063.277
336.3340, 2041.588
336.8161, 2027.349
337.2982, 2021.381
337.7803, 2017.986
338.2624, 2014.309
338.7445, 2009.946
339.2267, 2003.671
339.7088, 1996.396
340.1909, 1984.806
340.6730, 1958.333
341.1551, 1919.261
341.6372, 1895.556
342.1194, 1908.509
342.6015, 1932.523
343.0836, 1938.388
343.5657, 1924.942
344.0478, 1907.727
344.5299, 1896.394
345.0121, 1890.296
345.4942, 1884.110
345.9763, 1875.020
346.4584, 1868.947
346.9405, 1868.859
347.4226, 1873.155
347.9048, 1879.831
348.3869, 1888.301
348.8690, 1896.563
349.3511, 1900.874
349.8332, 1897.910
350.3153, 1897.140
350.7975, 1899.872
351.2796, 1903.727
351.7617, 1905.737
352.2438, 1906.608
352.7259, 1910.579
353.2080, 1922.030
353.6902, 1940.919
354.1723, 1957.701
354.6544, 1975.735
355.1365, 1987.536
355.6186, 1987.245
356.1007, 1980.968
356.5829, 1975.735
357.0650, 1974.432
357.5471, 1978.683
358.0292, 1995.233
358.5113, 2032.098
358.9934, 2055.448
359.4756, 2041.472
359.9577, 2025.219
360.4398, 2029.923
360.9219, 2056.224
361.4040, 2086.349
361.8861, 2106.682
362.3683, 2119.162
362.8504, 2133.640
363.3325, 2152.740
363.8146, 2169.089
364.2967, 2176.404
364.7788, 2177.831
365.2610, 2179.077
365.7431, 2187.533
366.2252, 2189.856
366.7073, 2169.182
367.1894, 2128.352
367.6715, 2087.616
368.1537, 2055.653
368.6358, 2027.466
369.1179, 1994.244
369.6000, 1955.979
370.0821, 1914.996
370.5642, 1865.276
371.0464, 1816.644
371.5285, 1782.460
372.0106, 1764.263
372.4927, 1752.186
372.9748, 1738.013
373.4569, 1721.725
373.9391, 1703.052
374.4212, 1678.400
374.9033, 1655.630
375.3854, 1638.578
375.8675, 1625.135
376.3496, 1611.013
376.8318, 1594.110
377.3139, 1576.528
377.7960, 1562.690
378.2781, 1551.858
378.7602, 1546.622
379.2423, 1551.890
379.7245, 1558.080
380.2066, 1558.320
380.6887, 1552.688
381.1708, 1546.431
381.6529, 1545.363
382.1350, 1548.596
382.6172, 1543.594
383.0993, 1520.617
383.5814, 1505.637
384.0635, 1517.698
384.5456, 1540.298
385.0277, 1549.490
385.5099, 1534.533
385.9920, 1512.651
386.4741, 1504.530
386.9562, 1509.439
387.4383, 1513.296
387.9204, 1512.086
388.4026, 1508.994
388.8847, 1507.646
389.3668, 1507.970
389.8489, 1508.373
390.3310, 1508.452
390.8131, 1508.258
391.2953, 1508.343
391.7774, 1508.623
392.2595, 1506.844
392.7416, 1500.112
393.2237, 1490.233
393.7058, 1488.058
394.1880, 1505.130
394.6701, 1514.919
395.1522, 1503.125
395.6343, 1482.715
396.1164, 1472.514
396.5985, 1477.867
397.0807, 1487.746
397.5628, 1486.092
398.0449, 1467.611
398.5270, 1456.263
399.0091, 1459.678
399.4912, 1461.802
399.9734, 1453.265
400.4555, 1438.002
400.9376, 1425.742
401.4197, 1422.761
401.9018, 1425.404
402.3839, 1422.492
402.8660, 1410.534
403.3481, 1402.181
403.8303, 1403.614
404.3124, 1407.785
404.7945, 1408.819
405.2766, 1406.152
405.7587, 1405.392
406.2408, 1411.390
406.7230, 1422.735
407.2051, 1435.876
407.6872, 1452.135
408.1693, 1464.723
408.6514, 1463.191
409.1335, 1454.289
409.6157, 1457.089
410.0978, 1485.963
410.5799, 1513.884
411.0620, 1518.813
411.5441, 1509.211
412.0262, 1508.372
412.5084, 1525.487
412.9905, 1548.751
413.4726, 1559.580
413.9547, 1551.566
414.4368, 1547.624
414.9189, 1547.180
415.4011, 1551.260
415.8832, 1564.727
416.3653, 1583.877
416.8474, 1596.963
417.3295, 1594.914
417.8116, 1583.553
418.2938, 1590.142
418.7759, 1632.792
419.2580, 1663.959
419.7401, 1672.587
420.2222, 1671.915
420.7043, 1671.036
421.1865, 1672.144
421.6686, 1674.668
422.1507, 1677.898
422.6328, 1681.945
423.1149, 1687.876
423.5970, 1695.630
424.0792, 1705.527
424.5613, 1720.682
425.0434, 1737.453
425.5255, 1749.191
426.0076, 1751.899
426.4897, 1753.314
426.9719, 1758.164
427.4540, 1766.777
427.9361, 1782.357
428.4182, 1808.075
428.9003, 1834.192
429.3824, 1846.891
429.8646, 1843.731
430.3467, 1843.157
430.8288, 1843.693
431.3109, 1849.374
431.7930, 1868.870
432.2751, 1896.370
432.7573, 1915.905
433.2394, 1918.325
433.7215, 1907.347
434.2036, 1893.244
434.6857, 1862.189
435.1678, 1851.830
435.6500, 1877.741
436.1321, 1912.036
436.6142, 1937.980
437.0963, 1952.948
437.5784, 1960.546
438.0605, 1963.328
438.5427, 1961.310
439.0248, 1953.375
439.5069, 1935.671
439.9890, 1920.831
440.4711, 1915.167
440.9532, 1914.885
441.4354, 1917.280
441.9175, 1922.762
442.3996, 1926.956
442.8817, 1923.104
443.3638, 1915.777
443.8459, 1917.568
444.3281, 1931.376
444.8102, 1950.034
445.2923, 1967.706
445.7744, 1984.431
446.2565, 2002.602
446.7386, 2023.062
447.2208, 2043.872
447.7029, 2061.515
448.1850, 2079.480
448.6671, 2106.273
449.1492, 2144.804
449.6313, 2185.457
450.1135, 2211.128
450.5956, 2213.149
451.0777, 2227.182
451.5598, 2261.312
452.0419, 2298.923
452.5240, 2332.039
453.0062, 2363.341
453.4883, 2399.894
453.9704, 2446.094
454.4525, 2497.980
454.9346, 2547.656
455.4167, 2594.468
455.8989, 2644.480
456.3810, 2699.706
456.8631, 2758.687
457.3452, 2817.804
457.8273, 2877.533
458.3094, 2943.976
458.7916, 3018.964
459.2737, 3102.521
459.7558, 3199.960
460.2379, 3309.416
460.7200, 3413.906
461.2021, 3505.770
461.6843, 3584.729
462.1664, 3648.776
462.6485, 3697.284
463.1306, 3732.322
463.6127, 3765.632
464.0948, 3777.228
464.5770, 3748.351
465.0591, 3679.608
465.5412, 3582.533
466.0233, 3462.352
466.5054, 3324.087
466.9875, 3200.382
467.4697, 3102.734
467.9518, 3000.410
468.4339, 2876.214
468.9160, 2750.934
469.3981, 2643.361
469.8802, 2556.562
470.3624, 2479.155
470.8445, 2401.066
471.3266, 2325.310
471.8087, 2263.740
472.2908, 2218.096
472.7729, 2179.484
473.2551, 2144.407
473.7372, 2111.862
474.2193, 2078.265
474.7014, 2037.872
475.1835, 2005.281
475.6656, 1991.709
476.1478, 1986.738
476.6299, 1975.854
477.1120, 1956.346
477.5941, 1934.406
478.0762, 1916.300
478.5583, 1902.150
479.0405, 1887.042
479.5226, 1868.143
480.0047, 1851.665
480.4868, 1839.783
480.9689, 1830.537
481.4510, 1821.809
481.9332, 1812.939
482.4153, 1804.629
482.8974, 1797.226
483.3795, 1790.838
483.8616, 1786.266
484.3438, 1783.129
484.8259, 1782.714
485.3080, 1787.821
485.7901, 1795.963
486.2722, 1803.343
486.7543, 1812.244
487.2365, 1815.397
487.7186, 1801.323
488.2007, 1779.428
488.6828, 1771.501
489.1649, 1782.866
489.6470, 1797.537
490.1292, 1798.337
490.6113, 1783.811
491.0934, 1773.921
491.5755, 1770.951
492.0576, 1769.225
492.5397, 1765.792
493.0219, 1763.203
493.5040, 1766.182
493.9861, 1775.826
494.4682, 1786.383
494.9503, 1791.122
495.4324, 1790.011
495.9146, 1783.608
496.3967, 1767.659
496.8788, 1753.183
497.3609, 1747.232
497.8430, 1746.288
498.3251, 1744.539
498.8073, 1740.120
499.2894, 1735.844
499.7715, 1731.925
500.2536, 1729.898
500.7357, 1736.518
501.2178, 1754.020
501.6999, 1768.404
502.1820, 1764.460
502.6642, 1741.584
503.1463, 1726.857
503.6284, 1723.749
504.1105, 1723.643
504.5926, 1727.259
505.0747, 1731.079
505.5569, 1730.775
506.0390, 1725.283
506.5211, 1717.192
507.0032, 1709.069
507.4853, 1700.910
507.9674, 1693.461
508.4496, 1684.998
508.9317, 1680.240
509.4138, 1685.856
509.8959, 1694.535
510.3780, 1695.287
510.8601, 1683.823
511.3423, 1672.242
511.8244, 1671.789
512.3065, 1676.752
512.7886, 1673.859
513.2708, 1660.991
513.7529, 1646.734
514.2350, 1637.668
514.7171, 1633.465
515.1992, 1630.783
515.6813, 1629.436
516.1635, 1629.622
516.6456, 1634.279
517.1277, 1638.804
517.6098, 1639.179
518.0919, 1634.473
518.5740, 1624.989
519.0562, 1608.918
519.5383, 1587.941
520.0204, 1575.845
520.5025, 1575.800
520.9846, 1577.124
521.4667, 1577.234
521.9489, 1575.992
522.4310, 1572.214
522.9131, 1565.410
523.3952, 1560.738
523.8773, 1562.055
524.3594, 1566.414
524.8416, 1570.704
525.3237, 1574.386
525.8058, 1575.009
526.2879, 1570.205
526.7700, 1562.737
527.2521, 1561.425
527.7343, 1574.662
528.2164, 1582.059
528.6985, 1579.249
529.1806, 1574.341
529.6627, 1572.353
530.1448, 1573.315
530.6270, 1575.290
531.1091, 1577.537
531.5912, 1579.132
532.0733, 1576.359
532.5554, 1567.844
533.0375, 1565.769
533.5197, 1579.281
534.0018, 1593.229
534.4839, 1589.219
534.9660, 1569.820
535.4481, 1558.558
535.9302, 1569.168
536.4124, 1583.492
536.8945, 1588.507
537.3766, 1585.936
537.8587, 1579.755
538.3408, 1571.318
538.8229, 1564.402
539.3051, 1565.160
539.7872, 1575.822
540.2693, 1584.624
540.7514, 1586.619
541.2335, 1592.117
541.7156, 1608.420
542.1978, 1628.960
542.6799, 1644.695
543.1620, 1652.651
543.6441, 1654.766
544.1262, 1650.628
544.6083, 1641.772
545.0905, 1635.902
545.5726, 1634.025
546.0547, 1634.197
546.5368, 1633.519
547.0189, 1634.129
547.5010, 1644.153
547.9832, 1675.414
548.4653, 1698.203
548.9474, 1700.281
549.4295, 1692.529
549.9116, 1682.321
550.3937, 1672.943
550.8758, 1670.559
551.3579, 1681.514
551.8400, 1701.829
552.3221, 1712.220
552.8043, 1705.516
553.2864, 1705.770
553.7685, 1720.197
554.2506, 1742.384
554.7327, 1772.037
555.2148, 1807.444
555.6970, 1838.818
556.1791, 1858.647
556.6612, 1874.263
557.1433, 1890.812
557.6254, 1909.760
558.1075, 1938.080
558.5897, 1979.408
559.0718, 2026.273
559.5539, 2067.267
560.0360, 2098.978
560.5181, 2139.933
561.0002, 2196.582
561.4824, 2254.244
561.9645, 2306.626
562.4466, 2356.825
562.9287, 2408.549
563.4108, 2463.048
563.8929, 2520.448
564.3751, 2579.631
564.8572, 2640.926
565.3393, 2710.480
565.8214, 2791.289
566.3035, 2869.696
566.7856, 2933.995
567.2678, 2991.222
567.7499, 3060.120
568.2320, 3143.504
568.7141, 3231.797
569.1962, 3333.812
569.6783, 3431.409
570.1605, 3510.323
570.6426, 3568.783
571.1247, 3610.739
571.6068, 3638.905
572.0889, 3650.971
572.5710, 3640.498
573.0532, 3607.402
573.5353, 3551.512
574.0174, 3468.809
574.4995, 3365.520
574.9816, 3237.592
575.4637, 3091.452
575.9459, 2944.817
576.4280, 2799.367
576.9101, 2661.547
577.3922, 2533.901
577.8743, 2418.564
578.3564, 2323.438
578.8386, 2250.518
579.3207, 2185.430
579.8028, 2113.151
580.2849, 2033.963
580.7670, 1966.818
581.2491, 1914.997
581.7313, 1872.126
582.2134, 1842.484
582.6955, 1818.360
583.1776, 1793.690
583.6597, 1767.617
584.1418, 1741.886
584.6240, 1717.058
585.1061, 1693.907
585.5882, 1675.003
586.0703, 1660.373
586.5524, 1644.601
587.0345, 1624.057
587.5167, 1604.883
587.9988, 1597.807
588.4809, 1606.973
588.9630, 1605.926
589.4451, 1581.344
589.9272, 1559.919
590.4094, 1558.320
590.8915, 1566.551
591.3736, 1568.576
591.8557, 1559.308
592.3378, 1544.731
592.8199, 1529.430
593.3021, 1513.916
593.7842, 1506.735
594.2663, 1511.227
594.7484, 1514.230
595.2305, 1509.124
595.7126, 1499.075
596.1948, 1488.072
596.6769, 1474.301
597.1590, 1468.115
597.6411, 1479.086
598.1232, 1493.551
598.6053, 1497.204
599.0875, 1493.883
599.5696, 1499.993
600.0517, 1523.852
600.5338, 1549.607
601.0159, 1544.463
601.4980, 1499.733
601.9802, 1470.200
602.4623, 1463.223
602.9444, 1463.413
603.4265, 1463.372
603.9086, 1465.128
604.3907, 1473.848
604.8729, 1493.979
605.3550, 1508.531
605.8371, 1503.326
606.3192, 1489.147
606.8013, 1478.912
607.2834, 1474.541
607.7656, 1478.126
608.2477, 1492.425
608.7298, 1510.532
609.2119, 1512.787
609.6940, 1491.766
610.1761, 1471.924
610.6583, 1446.188
611.1404, 1429.702
