##NAMES=Manaksite
##RRUFFID=R060693
##IDEAL CHEMISTRY=KNaMn^2+^Si_4_O_10_
##LOCALITY=Palitra pegmatite, Kedykverpakhk Mountain, Lovozero massif, Kola Peninsula, Russia
##OWNER=RRUFF
##SOURCE=Michael Scott
##DESCRIPTION=Pale brown massive associated with grayish-green bario-olgite, R060614, purple ussingite and colorless serandite
##STATUS=The identification of this mineral is confirmed by single-crystal X-ray diffraction and chemical analysis.
##URL=rruff.info/R060693
##MEASURED CHEMISTRY=(K_0.98_Na_0.02_)_Σ=1_Na_1.00_(Mn^2+^_0.78_Fe^2+^_0.21_Mg_0.01_)_Σ=1_Si_4.00_O_10_
147.0608, 46.92002
147.5429, 46.96445
148.0250, 47.12333
148.5071, 47.63405
148.9893, 48.41945
149.4714, 49.26448
149.9535, 50.01157
150.4356, 50.65465
150.9177, 51.27999
151.3998, 51.83933
151.8820, 52.41525
152.3641, 53.00766
152.8462, 53.63662
153.3283, 54.35130
153.8104, 55.23669
154.2925, 56.38403
154.7747, 57.43682
155.2568, 58.40633
155.7389, 59.30095
156.2210, 60.12310
156.7031, 60.87211
157.1852, 61.54252
157.6673, 62.11156
158.1495, 62.39002
158.6316, 62.90539
159.1137, 63.67982
159.5958, 64.67273
160.0779, 65.93863
160.5600, 67.51604
161.0422, 69.16666
161.5243, 70.36498
162.0064, 70.96432
162.4885, 71.54294
162.9706, 72.29746
163.4527, 73.11340
163.9349, 73.74995
164.4170, 74.08188
164.8991, 74.23251
165.3812, 74.45621
165.8633, 74.78692
166.3454, 75.08873
166.8276, 75.34995
167.3097, 75.55107
167.7918, 75.55703
168.2739, 75.36170
168.7560, 74.87341
169.2381, 74.00853
169.7203, 72.71738
170.2024, 71.18258
170.6845, 69.58930
171.1666, 67.96823
171.6487, 66.14181
172.1308, 63.78009
172.6130, 61.32101
173.0951, 59.07119
173.5772, 57.11914
174.0593, 55.42966
174.5414, 53.94453
175.0235, 52.70898
175.5057, 51.61855
175.9878, 50.61692
176.4699, 49.73193
176.9520, 48.97541
177.4341, 48.35540
177.9162, 47.87801
178.3984, 47.56340
178.8805, 47.58467
179.3626, 47.56005
179.8447, 47.42809
180.3268, 47.22832
180.8089, 46.98319
181.2911, 46.69780
181.7732, 46.40863
182.2553, 46.33071
182.7374, 46.64823
183.2195, 46.97370
183.7016, 47.25573
184.1838, 47.49458
184.6659, 47.67876
185.1480, 47.78307
185.6301, 47.83455
186.1122, 48.11300
186.5943, 48.71568
187.0765, 49.38312
187.5586, 50.07442
188.0407, 50.76072
188.5228, 51.37458
189.0049, 51.87057
189.4870, 52.24049
189.9692, 52.53408
190.4513, 52.84758
190.9334, 53.01438
191.4155, 52.85008
191.8976, 52.37412
192.3797, 51.87685
192.8619, 51.51912
193.3440, 51.29613
193.8261, 51.16963
194.3082, 51.20891
194.7903, 51.29656
195.2724, 51.29600
195.7546, 51.19181
196.2367, 51.10250
196.7188, 51.13822
197.2009, 51.23097
197.6830, 51.29150
198.1651, 51.27703
198.6473, 51.22707
199.1294, 51.21489
199.6115, 51.26089
200.0936, 51.29322
200.5757, 51.26155
201.0578, 51.20156
201.5400, 51.14333
202.0221, 51.06592
202.5042, 51.02407
202.9863, 51.21392
203.4684, 51.84652
203.9505, 52.36153
204.4327, 52.38810
204.9148, 52.24568
205.3969, 52.41343
205.8790, 53.22861
206.3611, 54.51591
206.8432, 55.39510
207.3254, 55.59373
207.8075, 55.65741
208.2896, 55.69387
208.7717, 55.68527
209.2538, 55.58089
209.7359, 55.34013
210.2181, 54.98084
210.7002, 54.67723
211.1823, 54.51109
211.6644, 54.31873
212.1465, 54.06983
212.6286, 53.77255
213.1108, 53.42671
213.5929, 53.01924
214.0750, 52.56509
214.5571, 52.30232
215.0392, 52.42366
215.5213, 52.51030
216.0035, 52.35163
216.4856, 52.06324
216.9677, 51.92273
217.4498, 52.13578
217.9319, 52.66573
218.4140, 53.01794
218.8962, 52.95079
219.3783, 52.98769
219.8604, 53.38015
220.3425, 54.05601
220.8246, 54.76775
221.3067, 55.34460
221.7889, 55.83106
222.2710, 56.52563
222.7531, 57.47526
223.2352, 58.55300
223.7173, 59.69426
224.1994, 60.90733
224.6816, 62.25962
225.1637, 63.83417
225.6458, 65.57578
226.1279, 67.23170
226.6100, 68.65417
227.0921, 70.13519
227.5743, 71.90418
228.0564, 73.93334
228.5385, 76.03857
229.0206, 78.24548
229.5027, 80.38847
229.9848, 82.15020
230.4670, 83.59195
230.9491, 84.55409
231.4312, 84.91839
231.9133, 84.68746
232.3954, 83.87093
232.8775, 82.24006
233.3597, 80.08637
233.8418, 77.78144
234.3239, 75.30293
234.8060, 72.77974
235.2881, 70.26511
235.7702, 67.73346
236.2524, 65.45169
236.7345, 63.75499
237.2166, 62.25883
237.6987, 60.60456
238.1808, 58.67262
238.6629, 56.78247
239.1451, 55.33363
239.6272, 54.36754
240.1093, 53.60807
240.5914, 53.06168
241.0735, 52.65795
241.5556, 52.38708
242.0378, 52.24670
242.5199, 52.18307
243.0020, 52.11072
243.4841, 51.99818
243.9662, 52.00006
244.4483, 52.12577
244.9305, 52.38296
245.4126, 52.79282
245.8947, 53.35797
246.3768, 54.05670
246.8589, 54.88611
247.3410, 55.89854
247.8232, 56.87671
248.3053, 57.78322
248.7874, 58.66982
249.2695, 59.55608
249.7516, 60.45100
250.2337, 61.36823
250.7159, 62.33102
251.1980, 63.35903
251.6801, 64.38142
252.1622, 65.51775
252.6443, 66.56127
253.1264, 67.45901
253.6086, 68.17036
254.0907, 68.61813
254.5728, 68.68855
255.0549, 68.30247
255.5370, 67.74817
256.0191, 66.93602
256.5013, 66.05932
256.9834, 65.19386
257.4655, 64.36437
257.9476, 63.57794
258.4297, 62.82734
258.9118, 62.06044
259.3940, 61.55761
259.8761, 61.40818
260.3582, 61.38288
260.8403, 61.37500
261.3224, 61.37801
261.8045, 61.44880
262.2867, 61.66283
262.7688, 62.06714
263.2509, 62.27508
263.7330, 62.03468
264.2151, 61.87109
264.6972, 62.07486
265.1794, 62.59529
265.6615, 63.18873
266.1436, 63.65526
266.6257, 63.98959
267.1078, 64.35661
267.5899, 64.65702
268.0721, 65.07897
268.5542, 65.83245
269.0363, 66.79807
269.5184, 67.65324
270.0005, 68.16701
270.4826, 68.35741
270.9648, 68.47822
271.4469, 68.52116
271.9290, 68.52107
272.4111, 68.54343
272.8932, 68.53734
273.3753, 68.37923
273.8575, 67.99255
274.3396, 67.40122
274.8217, 66.71648
275.3038, 65.93756
275.7859, 65.09250
276.2680, 64.01748
276.7502, 62.88689
277.2323, 62.09058
277.7144, 61.85539
278.1965, 61.98515
278.6786, 61.85082
279.1607, 60.98866
279.6429, 60.69916
280.1250, 61.90358
280.6071, 63.84803
281.0892, 65.08196
281.5713, 64.99763
282.0534, 64.25187
282.5356, 64.13703
283.0177, 64.75755
283.4998, 65.43905
283.9819, 66.14799
284.4640, 66.78421
284.9461, 67.20112
285.4283, 67.36103
285.9104, 67.28877
286.3925, 66.98349
286.8746, 66.45810
287.3567, 65.75100
287.8388, 64.82528
288.3210, 63.73463
288.8031, 62.56736
289.2852, 61.33606
289.7673, 59.97272
290.2494, 58.34027
290.7315, 56.44913
291.2137, 54.64798
291.6958, 52.91346
292.1779, 51.32442
292.6600, 50.06488
293.1421, 49.16332
293.6242, 48.22972
294.1064, 46.83245
294.5885, 45.10105
295.0706, 43.75899
295.5527, 43.15897
296.0348, 42.77906
296.5169, 42.11906
296.9991, 41.18607
297.4812, 40.39119
297.9633, 40.08997
298.4454, 40.10786
298.9275, 39.86887
299.4096, 39.17878
299.8918, 38.42585
300.3739, 37.86486
300.8560, 37.47957
301.3381, 37.16115
301.8202, 36.85005
302.3023, 36.59272
302.7845, 36.45957
303.2666, 36.48170
303.7487, 36.55126
304.2308, 36.63649
304.7129, 36.72606
305.1950, 36.77290
305.6772, 36.74349
306.1593, 36.69115
306.6414, 36.68300
307.1235, 36.71415
307.6056, 36.79763
308.0877, 36.97562
308.5699, 37.20854
309.0520, 37.40386
309.5341, 37.53691
310.0162, 37.64343
310.4983, 37.74915
310.9804, 37.85567
311.4626, 37.98821
311.9447, 38.12032
312.4268, 38.29437
312.9089, 38.59480
313.3910, 39.04872
313.8731, 39.54226
314.3553, 40.00133
314.8374, 40.42736
315.3195, 40.82452
315.8016, 41.17237
316.2837, 41.50414
316.7658, 41.84118
317.2480, 42.18291
317.7301, 42.55758
318.2122, 42.94927
318.6943, 43.40583
319.1764, 44.03537
319.6585, 45.01814
320.1407, 45.95906
320.6228, 46.49825
321.1049, 46.68639
321.5870, 46.90183
322.0691, 47.31206
322.5512, 47.83317
323.0334, 48.29022
323.5155, 48.64264
323.9976, 49.05087
324.4797, 49.66173
324.9618, 50.40347
325.4439, 51.06297
325.9261, 51.60103
326.4082, 52.00307
326.8903, 52.22165
327.3724, 52.26118
327.8545, 52.28575
328.3366, 52.48688
328.8188, 52.67274
329.3009, 52.48896
329.7830, 51.84238
330.2651, 51.00743
330.7472, 50.19779
331.2293, 49.41181
331.7115, 48.64018
332.1936, 47.86492
332.6757, 47.11255
333.1578, 46.42537
333.6399, 45.80376
334.1220, 45.17866
334.6042, 44.50026
335.0863, 43.77736
335.5684, 43.05788
336.0505, 42.15014
336.5326, 41.44300
337.0147, 41.35097
337.4969, 41.73700
337.9790, 41.94448
338.4611, 41.59096
338.9432, 40.97644
339.4253, 40.78447
339.9074, 41.14968
340.3896, 41.52264
340.8717, 41.62664
341.3538, 41.59608
341.8359, 41.72201
342.3180, 42.11001
342.8001, 42.58999
343.2823, 42.90965
343.7644, 43.05254
344.2465, 43.24466
344.7286, 43.50605
345.2107, 43.84845
345.6928, 44.33313
346.1750, 44.96759
346.6571, 45.58268
347.1392, 46.03249
347.6213, 46.30087
348.1034, 46.49786
348.5855, 46.56520
349.0677, 46.61077
349.5498, 46.70895
350.0319, 46.85205
350.5140, 46.98714
350.9961, 47.07949
351.4782, 47.14166
351.9604, 47.23334
352.4425, 47.42593
352.9246, 47.55891
353.4067, 47.57507
353.8888, 47.50032
354.3709, 47.34639
354.8531, 47.10348
355.3352, 46.87067
355.8173, 46.85847
356.2994, 47.21254
356.7815, 47.44724
357.2636, 47.34277
357.7458, 47.20001
358.2279, 47.33769
358.7100, 47.79987
359.1921, 48.37080
359.6742, 48.78541
360.1563, 48.97320
360.6385, 49.50733
361.1206, 50.60288
361.6027, 51.80902
362.0848, 52.90145
362.5669, 53.88897
363.0490, 54.85604
363.5312, 55.82461
364.0133, 56.83396
364.4954, 58.21681
364.9775, 60.33250
365.4596, 62.36623
365.9417, 64.09653
366.4239, 65.66387
366.9060, 67.27581
367.3881, 69.02383
367.8702, 70.81551
368.3523, 72.47880
368.8344, 74.10336
369.3166, 75.40911
369.7987, 76.37521
370.2808, 77.07357
370.7629, 77.54790
371.2450, 77.81039
371.7271, 77.86064
372.2093, 77.69874
372.6914, 77.32307
373.1735, 76.72500
373.6556, 75.83501
374.1377, 74.81018
374.6198, 73.56813
375.1020, 72.23570
375.5841, 71.04755
376.0662, 70.14503
376.5483, 69.51439
377.0304, 69.11616
377.5125, 69.05930
377.9947, 69.10222
378.4768, 69.10335
378.9589, 69.22501
379.4410, 69.63105
379.9231, 70.37463
380.4052, 71.38419
380.8874, 72.62944
381.3695, 74.25082
381.8516, 75.63005
382.3337, 76.54468
382.8158, 77.35231
383.2979, 78.25092
383.7801, 79.22469
384.2622, 80.12663
384.7443, 80.89453
385.2264, 81.50908
385.7085, 81.77803
386.1906, 81.78967
386.6728, 81.26394
387.1549, 80.02328
387.6370, 78.27623
388.1191, 76.34118
388.6012, 74.34783
389.0833, 72.22644
389.5655, 69.82643
390.0476, 67.09266
390.5297, 64.33479
391.0118, 61.52085
391.4939, 58.79074
391.9760, 56.25105
392.4582, 53.91494
392.9403, 51.81072
393.4224, 49.96134
393.9045, 48.36403
394.3866, 47.04357
394.8687, 46.14001
395.3509, 45.29150
395.8330, 44.08732
396.3151, 42.66668
396.7972, 41.50837
397.2793, 40.95647
397.7614, 40.69518
398.2436, 40.22653
398.7257, 39.52406
399.2078, 38.96447
399.6899, 38.83492
400.1720, 38.97680
400.6541, 39.00335
401.1363, 38.79618
401.6184, 38.66922
402.1005, 38.88684
402.5826, 39.33533
403.0647, 39.67822
403.5468, 39.78308
404.0290, 39.83021
404.5111, 40.08086
404.9932, 40.53543
405.4753, 41.06298
405.9574, 41.66906
406.4395, 42.31787
406.9217, 43.00582
407.4038, 43.72325
407.8859, 44.36746
408.3680, 44.81175
408.8501, 45.09465
409.3322, 45.66285
409.8144, 46.63536
410.2965, 47.71644
410.7786, 48.89166
411.2607, 50.09035
411.7428, 51.17865
412.2249, 52.09043
412.7071, 52.95395
413.1892, 54.03111
413.6713, 55.56812
414.1534, 56.86615
414.6355, 57.68062
415.1176, 58.44672
415.5998, 59.53939
416.0819, 60.93508
416.5640, 62.30742
417.0461, 63.35999
417.5282, 64.08781
418.0103, 64.77038
418.4925, 65.26943
418.9746, 65.87340
419.4567, 66.82226
419.9388, 67.86250
420.4209, 68.68514
420.9030, 69.14540
421.3852, 69.27480
421.8673, 69.09094
422.3494, 68.45934
422.8315, 67.85318
423.3136, 67.51071
423.7957, 67.05141
424.2779, 66.21745
424.7600, 65.01379
425.2421, 63.64020
425.7242, 62.25579
426.2063, 60.84728
426.6884, 59.30878
427.1706, 57.48619
427.6527, 55.80210
428.1348, 54.40892
428.6169, 53.25141
429.0990, 52.24797
429.5811, 51.35962
430.0633, 50.64369
430.5454, 50.24439
431.0275, 50.16923
431.5096, 50.01061
431.9917, 49.42093
432.4738, 48.95848
432.9560, 49.24377
433.4381, 50.26826
433.9202, 51.34951
434.4023, 52.08526
434.8844, 52.68849
435.3665, 53.50427
435.8487, 54.56469
436.3308, 55.83794
436.8129, 57.28617
437.2950, 58.94825
437.7771, 60.87705
438.2592, 63.27151
438.7414, 65.73047
439.2235, 68.09762
439.7056, 70.35854
440.1877, 72.51988
440.6698, 74.61348
441.1519, 76.49026
441.6341, 77.98129
442.1162, 79.22050
442.5983, 79.55128
443.0804, 78.80392
443.5625, 77.24248
444.0446, 74.85685
444.5268, 71.78523
445.0089, 68.36852
445.4910, 64.81926
445.9731, 61.16925
446.4552, 57.67854
446.9373, 54.15562
447.4195, 50.98269
447.9016, 48.20607
448.3837, 45.80876
448.8658, 43.82819
449.3479, 42.26160
449.8300, 40.99061
450.3122, 39.87399
450.7943, 38.92175
451.2764, 38.08873
451.7585, 37.39596
452.2406, 36.80732
452.7227, 36.29347
453.2049, 35.87862
453.6870, 35.61669
454.1691, 35.54408
454.6512, 35.63831
455.1333, 35.89064
455.6154, 36.39864
456.0976, 36.76995
456.5797, 36.84257
457.0618, 36.74699
457.5439, 36.56159
458.0260, 36.29819
458.5081, 35.94555
458.9903, 35.47221
459.4724, 34.90159
459.9545, 34.30126
460.4366, 33.65934
460.9187, 33.03700
461.4008, 32.48643
461.8830, 31.99078
462.3651, 31.51658
462.8472, 31.04207
463.3293, 30.60142
463.8114, 30.24753
464.2935, 29.95465
464.7756, 29.62152
465.2578, 29.20142
465.7399, 28.74925
466.2220, 28.35137
466.7041, 27.99081
467.1862, 27.74007
467.6683, 27.76742
468.1505, 27.79199
468.6326, 27.46987
469.1147, 26.87277
469.5968, 26.45016
470.0789, 26.54666
470.5610, 27.06754
471.0432, 27.37330
471.5253, 27.20590
472.0074, 27.13938
472.4895, 27.29461
472.9716, 27.54682
473.4537, 27.82162
473.9359, 28.07665
474.4180, 28.21940
474.9001, 28.07915
475.3822, 27.59040
475.8643, 27.37055
476.3464, 27.64756
476.8286, 27.96720
477.3107, 28.22641
477.7928, 28.42106
478.2749, 28.53707
478.7570, 28.54743
479.2391, 28.55477
479.7213, 28.75426
480.2034, 29.17384
480.6855, 29.54487
481.1676, 29.73042
481.6497, 29.93003
482.1318, 30.34419
482.6140, 30.94565
483.0961, 31.49468
483.5782, 31.76606
484.0603, 31.96327
484.5424, 32.41570
485.0245, 33.13750
485.5067, 33.98688
485.9888, 34.92286
486.4709, 35.91946
486.9530, 36.89828
487.4351, 37.86444
487.9172, 38.80510
488.3994, 39.72069
488.8815, 40.61128
489.3636, 41.50476
489.8457, 42.39981
490.3278, 43.17383
490.8099, 43.68725
491.2921, 43.92165
491.7742, 44.28724
492.2563, 44.85238
492.7384, 45.44364
493.2205, 45.94861
493.7026, 46.46508
494.1848, 47.14002
494.6669, 48.02464
495.1490, 49.04099
495.6311, 50.02936
496.1132, 50.85395
496.5953, 52.08624
497.0775, 54.14463
497.5596, 56.23209
498.0417, 57.94208
498.5238, 59.44096
499.0059, 61.10504
499.4880, 63.12117
499.9702, 65.46069
500.4523, 68.12720
500.9344, 71.18350
501.4165, 74.20712
501.8986, 77.05408
502.3807, 79.82773
502.8629, 82.74686
503.3450, 85.77455
503.8271, 88.35195
504.3092, 90.24743
504.7913, 91.51616
505.2734, 92.36572
505.7556, 92.80295
506.2377, 92.24647
506.7198, 90.24484
507.2019, 87.03851
507.6840, 83.40256
508.1661, 79.06241
508.6483, 74.87923
509.1304, 70.98709
509.6125, 67.41090
510.0946, 64.20999
510.5767, 61.38902
511.0588, 58.91399
511.5410, 56.76194
512.0231, 54.93211
512.5052, 53.36169
512.9873, 52.09863
513.4694, 51.03756
513.9515, 50.19428
514.4337, 49.53282
514.9158, 49.00417
515.3979, 48.59835
515.8800, 48.37123
516.3621, 48.43538
516.8442, 48.82042
517.3264, 49.20079
517.8085, 49.73738
518.2906, 50.04407
518.7727, 49.99932
519.2548, 49.62872
519.7369, 48.97286
520.2191, 48.03249
520.7012, 46.83712
521.1833, 45.25879
521.6654, 43.37152
522.1475, 41.81602
522.6296, 40.89174
523.1118, 40.04048
523.5939, 38.50727
524.0760, 36.41175
524.5581, 34.65172
525.0402, 33.54136
525.5223, 32.66682
526.0045, 31.79146
526.4866, 30.91202
526.9687, 30.00863
527.4508, 29.06290
527.9329, 28.18545
528.4150, 27.59982
528.8972, 27.47559
529.3793, 27.26867
529.8614, 26.94341
530.3435, 26.57614
530.8256, 26.16437
531.3077, 25.74611
531.7899, 25.39512
532.2720, 25.15817
532.7541, 25.00122
533.2362, 24.83969
533.7183, 24.67099
534.2004, 24.50294
534.6826, 24.27111
535.1647, 24.09344
535.6468, 24.10484
536.1289, 24.25965
536.6110, 24.33695
537.0931, 24.12484
537.5753, 23.79290
538.0574, 23.69080
538.5395, 23.83039
539.0216, 23.92354
539.5037, 23.81634
539.9858, 23.62940
540.4680, 23.58285
540.9501, 23.70663
541.4322, 23.77206
541.9143, 23.64895
542.3964, 23.48151
542.8785, 23.41331
543.3607, 23.44517
543.8428, 23.51671
544.3249, 23.60124
544.8070, 23.67554
545.2891, 23.65263
545.7712, 23.45069
546.2534, 23.25800
546.7355, 22.97468
547.2176, 22.78152
547.6997, 22.91489
548.1818, 23.30064
548.6639, 23.59253
549.1461, 23.47847
549.6282, 23.08511
550.1103, 22.96430
550.5924, 23.22412
551.0745, 23.47400
551.5566, 23.54033
552.0388, 23.58704
552.5209, 23.78364
553.0030, 24.13580
553.4851, 24.41739
553.9672, 24.38969
554.4493, 24.24662
554.9315, 24.40170
555.4136, 24.87728
555.8957, 25.25062
556.3778, 25.25053
556.8599, 25.02463
557.3420, 24.96826
557.8242, 25.10789
558.3063, 25.31393
558.7884, 25.63319
559.2705, 25.95911
559.7526, 26.20655
560.2347, 26.36320
560.7169, 26.42365
561.1990, 26.36246
561.6811, 26.23804
562.1632, 26.33097
562.6453, 26.79713
563.1274, 27.21731
563.6096, 27.52374
564.0917, 27.78894
564.5738, 28.03748
565.0559, 28.28910
565.5380, 28.59066
566.0201, 28.98494
566.5023, 29.44875
566.9844, 29.91470
567.4665, 30.37702
567.9486, 30.89536
568.4307, 31.50973
568.9128, 32.17699
569.3950, 32.82948
569.8771, 33.46743
570.3592, 34.13042
570.8413, 34.78965
571.3234, 35.51362
571.8055, 36.35474
572.2877, 37.32123
572.7698, 38.41010
573.2519, 39.60582
573.7340, 40.94844
574.2161, 42.52336
574.6982, 44.37910
575.1804, 46.42046
575.6625, 48.63374
576.1446, 51.02372
576.6267, 53.52245
577.1088, 56.19416
577.5909, 59.19268
578.0731, 62.58519
578.5552, 66.39025
579.0373, 70.72475
579.5194, 75.66563
580.0015, 80.67698
580.4836, 85.76591
580.9658, 90.75352
581.4479, 95.40013
581.9300, 99.81707
582.4121, 104.4896
582.8942, 109.7429
583.3763, 115.2143
583.8585, 120.4529
584.3406, 125.5628
584.8227, 130.9597
585.3048, 136.7704
585.7869, 142.9813
586.2690, 149.5266
586.7512, 156.3818
587.2333, 163.8105
587.7154, 171.4388
588.1975, 180.0089
588.6796, 189.9317
589.1617, 201.0154
589.6439, 212.9556
590.1260, 225.5683
590.6081, 239.0990
591.0902, 253.6432
591.5723, 269.1307
592.0544, 286.3819
592.5366, 305.6266
593.0187, 326.2515
593.5008, 348.5270
593.9829, 371.5629
594.4650, 394.7029
594.9471, 418.2234
595.4293, 439.6366
595.9114, 458.1535
596.3935, 472.8237
596.8756, 481.6360
597.3577, 484.3493
597.8398, 479.8687
598.3220, 466.7192
598.8041, 445.5954
599.2862, 420.7377
599.7683, 390.4295
600.2504, 359.3288
600.7325, 326.3746
601.2147, 293.9734
601.6968, 263.8983
602.1789, 236.5574
602.6610, 211.8272
603.1431, 189.7924
603.6252, 170.2908
604.1074, 153.3312
604.5895, 139.2052
605.0716, 126.8164
605.5537, 116.4097
606.0358, 107.2973
606.5179, 99.09895
607.0001, 91.81675
607.4822, 85.43840
607.9643, 80.24313
608.4464, 75.79795
608.9285, 71.71761
609.4106, 67.96349
609.8928, 64.41783
610.3749, 61.00595
610.8570, 57.88388
611.3391, 55.30693
611.8212, 53.44374
612.3033, 51.53914
612.7855, 49.39675
613.2676, 47.42609
613.7497, 45.85995
614.2318, 44.56482
614.7139, 43.32195
615.1960, 42.04649
615.6782, 40.80568
616.1603, 39.70842
616.6424, 38.75994
617.1245, 37.78625
617.6066, 36.74802
618.0887, 35.74472
618.5709, 34.75318
619.0530, 33.84251
619.5351, 33.12740
620.0172, 32.64894
620.4993, 32.25372
620.9814, 31.91089
621.4636, 31.56959
621.9457, 31.12550
622.4278, 30.57864
622.9099, 30.04963
623.3920, 29.62250
623.8741, 29.26430
624.3563, 28.86362
624.8384, 28.29510
625.3205, 27.87310
625.8026, 27.71297
626.2847, 27.59611
626.7668, 27.40459
627.2490, 27.13232
627.7311, 26.80404
628.2132, 26.42056
628.6953, 26.02448
629.1774, 25.64912
629.6595, 25.29103
630.1417, 25.14332
630.6238, 25.37481
631.1059, 25.60697
631.5880, 25.42833
632.0701, 24.96993
632.5522, 24.64126
633.0344, 24.60487
633.5165, 24.58907
633.9986, 24.44767
634.4807, 24.24356
634.9628, 24.06394
635.4449, 23.92972
635.9271, 23.83735
636.4092, 23.79541
636.8913, 23.79214
637.3734, 23.69551
637.8555, 23.37242
638.3376, 23.17381
638.8198, 23.25500
639.3019, 23.38813
