##NAMES=Manandonite
##RRUFFID=R060968
##IDEAL CHEMISTRY=Li_2_Al_4_(Si_2_AlB)O_10_(OH)_8_
##LOCALITY=Antandro Komby mine, Manandona River, Antsirabe, Madagascar
##OWNER=RRUFF
##SOURCE=Michael Scott
##DESCRIPTION=Botryoidal coating of tan colored pseudohexagonal plates on red tourmaline and gray feldspar.
##STATUS=The identification of this mineral has been confirmed only by single crystal X-ray diffraction.
##URL=rruff.info/R060968
165.4007, 4899.840
165.8828, 4928.723
166.3649, 4972.191
166.8470, 5044.358
167.3291, 5108.546
167.8112, 5157.220
168.2933, 5199.504
168.7755, 5244.088
169.2576, 5294.381
169.7397, 5346.505
170.2218, 5391.806
170.7039, 5427.498
171.1860, 5459.329
171.6682, 5487.547
172.1503, 5512.657
172.6324, 5535.672
173.1145, 5556.804
173.5966, 5575.188
174.0787, 5588.091
174.5609, 5584.536
175.0430, 5590.405
175.5251, 5612.323
176.0072, 5641.494
176.4893, 5669.027
176.9714, 5691.205
177.4536, 5710.844
177.9357, 5734.815
178.4178, 5772.812
178.8999, 5802.899
179.3820, 5819.576
179.8641, 5830.021
180.3463, 5839.327
180.8284, 5849.572
181.3105, 5863.833
181.7926, 5889.394
182.2747, 5933.598
182.7568, 5981.727
183.2390, 6040.485
183.7211, 6100.370
184.2032, 6148.435
184.6853, 6179.825
185.1674, 6204.391
185.6495, 6244.018
186.1317, 6315.561
186.6138, 6382.920
187.0959, 6445.116
187.5780, 6503.106
188.0601, 6557.388
188.5422, 6607.804
189.0244, 6656.890
189.5065, 6709.025
189.9886, 6780.255
190.4707, 6831.717
190.9528, 6842.374
191.4349, 6841.730
191.9170, 6863.041
192.3992, 6917.111
192.8813, 6988.357
193.3634, 7047.332
193.8455, 7084.749
194.3276, 7123.409
194.8097, 7164.519
195.2919, 7206.729
195.7740, 7250.508
196.2561, 7295.846
196.7382, 7338.416
197.2203, 7370.442
197.7024, 7382.189
198.1846, 7400.181
198.6667, 7434.997
199.1488, 7471.135
199.6309, 7491.167
200.1130, 7490.974
200.5951, 7483.383
201.0773, 7487.631
201.5594, 7512.871
202.0415, 7531.710
202.5236, 7543.863
203.0057, 7549.651
203.4878, 7547.827
203.9700, 7538.433
204.4521, 7525.434
204.9342, 7513.922
205.4163, 7504.640
205.8984, 7494.551
206.3805, 7485.681
206.8627, 7474.695
207.3448, 7455.211
207.8269, 7427.418
208.3090, 7402.873
208.7911, 7398.412
209.2732, 7427.182
209.7554, 7425.349
210.2375, 7369.688
210.7196, 7301.124
211.2017, 7248.386
211.6838, 7214.744
212.1659, 7188.605
212.6480, 7157.993
213.1302, 7120.273
213.6123, 7093.116
214.0944, 7084.639
214.5765, 7079.325
215.0586, 7068.938
215.5407, 7052.555
216.0229, 7031.032
216.5050, 7003.759
216.9871, 6969.340
217.4692, 6946.048
217.9513, 6935.621
218.4334, 6933.102
218.9156, 6940.635
219.3977, 6955.278
219.8798, 6967.726
220.3619, 6970.373
220.8440, 6963.040
221.3261, 6958.056
221.8083, 6961.698
222.2904, 6961.179
222.7725, 6948.268
223.2546, 6926.173
223.7367, 6904.742
224.2188, 6890.827
224.7010, 6883.386
225.1831, 6868.576
225.6652, 6844.173
226.1473, 6816.083
226.6294, 6782.605
227.1115, 6746.614
227.5937, 6713.487
228.0758, 6686.278
228.5579, 6664.174
229.0400, 6643.980
229.5221, 6626.911
230.0042, 6609.997
230.4864, 6593.328
230.9685, 6576.333
231.4506, 6557.535
231.9327, 6536.115
232.4148, 6513.799
232.8969, 6496.071
233.3791, 6489.465
233.8612, 6479.788
234.3433, 6458.378
234.8254, 6436.476
235.3075, 6428.617
235.7896, 6440.106
236.2717, 6462.152
236.7539, 6477.103
237.2360, 6477.199
237.7181, 6480.700
238.2002, 6489.314
238.6823, 6500.222
239.1644, 6511.143
239.6466, 6521.485
240.1287, 6531.684
240.6108, 6542.400
241.0929, 6553.238
241.5750, 6565.740
242.0571, 6590.040
242.5393, 6608.712
243.0214, 6606.475
243.5035, 6583.546
243.9856, 6554.063
244.4677, 6533.679
244.9498, 6523.785
245.4320, 6518.480
245.9141, 6528.598
246.3962, 6533.261
246.8783, 6518.957
247.3604, 6488.514
247.8425, 6454.921
248.3247, 6428.660
248.8068, 6410.054
249.2889, 6396.215
249.7710, 6397.267
250.2531, 6392.957
250.7352, 6369.010
251.2174, 6334.528
251.6995, 6310.628
252.1816, 6314.671
252.6637, 6341.649
253.1458, 6346.421
253.6279, 6303.797
254.1101, 6266.561
254.5922, 6246.867
255.0743, 6238.828
255.5564, 6234.478
256.0385, 6230.191
256.5206, 6225.227
257.0027, 6216.543
257.4849, 6198.278
257.9670, 6186.695
258.4491, 6198.383
258.9312, 6210.883
259.4133, 6197.096
259.8954, 6146.521
260.3776, 6083.745
260.8597, 6051.271
261.3418, 6057.363
261.8239, 6071.493
262.3060, 6098.815
262.7881, 6125.485
263.2703, 6141.259
263.7524, 6144.346
264.2345, 6141.328
264.7166, 6139.619
265.1987, 6139.839
265.6808, 6136.415
266.1630, 6125.609
266.6451, 6113.390
267.1272, 6102.016
267.6093, 6091.944
268.0914, 6083.762
268.5735, 6077.517
269.0557, 6073.370
269.5378, 6073.138
270.0199, 6080.154
270.5020, 6086.744
270.9841, 6084.478
271.4662, 6077.727
271.9484, 6078.768
272.4305, 6106.736
272.9126, 6145.523
273.3947, 6148.811
273.8768, 6104.023
274.3589, 6056.527
274.8411, 6028.721
275.3232, 6016.048
275.8053, 6015.023
276.2874, 6031.694
276.7695, 6052.589
277.2516, 6060.750
277.7338, 6055.428
278.2159, 6046.338
278.6980, 6037.523
279.1801, 6027.478
279.6622, 6013.546
280.1443, 5993.363
280.6265, 5973.510
281.1086, 5957.294
281.5907, 5944.973
282.0728, 5938.938
282.5549, 5942.421
283.0370, 5949.482
283.5192, 5950.452
284.0013, 5944.412
284.4834, 5938.089
284.9655, 5936.700
285.4476, 5936.312
285.9297, 5929.583
286.4119, 5914.545
286.8940, 5894.476
287.3761, 5870.599
287.8582, 5842.048
288.3403, 5821.521
288.8224, 5819.101
289.3046, 5820.503
289.7867, 5810.529
290.2688, 5788.507
290.7509, 5766.769
291.2330, 5756.588
291.7151, 5758.382
292.1972, 5752.552
292.6794, 5729.327
293.1615, 5708.498
293.6436, 5701.417
294.1257, 5705.145
294.6078, 5710.101
295.0899, 5710.646
295.5721, 5707.808
296.0542, 5707.079
296.5363, 5710.624
297.0184, 5713.336
297.5005, 5708.538
297.9826, 5704.218
298.4648, 5714.387
298.9469, 5744.132
299.4290, 5780.298
299.9111, 5795.440
300.3932, 5762.949
300.8753, 5752.115
301.3575, 5773.466
301.8396, 5806.763
302.3217, 5839.150
302.8038, 5867.732
303.2859, 5895.271
303.7680, 5925.613
304.2502, 5960.356
304.7323, 5989.267
305.2144, 6004.478
305.6965, 6021.245
306.1786, 6044.113
306.6607, 6073.357
307.1429, 6108.611
307.6250, 6150.227
308.1071, 6197.350
308.5892, 6243.810
309.0713, 6291.125
309.5534, 6335.386
310.0356, 6368.469
310.5177, 6400.471
310.9998, 6446.350
311.4819, 6514.301
311.9640, 6590.571
312.4461, 6650.989
312.9283, 6690.135
313.4104, 6736.607
313.8925, 6802.998
314.3746, 6877.648
314.8567, 6952.241
315.3388, 7025.385
315.8210, 7101.586
316.3031, 7184.230
316.7852, 7273.136
317.2673, 7368.352
317.7494, 7475.955
318.2315, 7581.500
318.7137, 7673.728
319.1958, 7753.658
319.6779, 7822.293
320.1600, 7881.293
320.6421, 7928.679
321.1242, 7959.439
321.6064, 7972.605
322.0885, 7977.345
322.5706, 7985.766
323.0527, 7990.331
323.5348, 7963.440
324.0169, 7893.580
324.4991, 7800.750
324.9812, 7686.912
325.4633, 7558.319
325.9454, 7433.558
326.4275, 7321.562
326.9096, 7219.439
327.3918, 7119.957
327.8739, 7021.051
328.3560, 6927.761
328.8381, 6840.999
329.3202, 6760.742
329.8023, 6687.073
330.2845, 6620.302
330.7666, 6559.766
331.2487, 6504.260
331.7308, 6453.959
332.2129, 6411.103
332.6950, 6373.400
333.1772, 6344.154
333.6593, 6329.046
334.1414, 6324.645
334.6235, 6319.967
335.1056, 6305.636
335.5877, 6283.477
336.0698, 6273.981
336.5519, 6285.902
337.0341, 6301.368
337.5162, 6318.379
337.9983, 6336.557
338.4804, 6356.503
338.9625, 6378.697
339.4446, 6400.504
339.9268, 6415.352
340.4089, 6418.710
340.8910, 6429.703
341.3731, 6452.244
341.8552, 6482.890
342.3373, 6523.270
342.8195, 6572.283
343.3016, 6620.763
343.7837, 6660.356
344.2658, 6692.354
344.7479, 6728.092
345.2300, 6775.446
345.7122, 6812.984
346.1943, 6819.763
346.6764, 6806.471
347.1585, 6797.350
347.6406, 6805.188
348.1227, 6818.358
348.6049, 6825.584
349.0870, 6826.830
349.5691, 6815.987
350.0512, 6783.931
350.5333, 6741.120
351.0154, 6711.775
351.4976, 6700.750
351.9797, 6692.625
352.4618, 6685.411
352.9439, 6675.816
353.4260, 6654.829
353.9081, 6618.938
354.3903, 6581.269
354.8724, 6561.013
355.3545, 6567.982
355.8366, 6557.302
356.3187, 6511.663
356.8008, 6462.016
357.2830, 6429.152
357.7651, 6412.419
358.2472, 6401.685
358.7293, 6391.549
359.2114, 6380.445
359.6935, 6351.299
360.1757, 6281.643
360.6578, 6219.146
361.1399, 6174.255
361.6220, 6139.225
362.1041, 6106.412
362.5862, 6072.817
363.0684, 6036.017
363.5505, 5989.372
364.0326, 5925.358
364.5147, 5875.190
364.9968, 5850.815
365.4789, 5833.024
365.9611, 5815.735
366.4432, 5796.931
366.9253, 5773.616
367.4074, 5737.745
367.8895, 5694.497
368.3716, 5668.804
368.8538, 5664.016
369.3359, 5669.691
369.8180, 5693.518
370.3001, 5720.878
370.7822, 5728.029
371.2643, 5700.578
371.7465, 5665.763
372.2286, 5647.039
372.7107, 5643.331
373.1928, 5649.316
373.6749, 5668.170
374.1570, 5689.024
374.6392, 5691.633
375.1213, 5672.830
375.6034, 5662.569
376.0855, 5677.540
376.5676, 5700.252
377.0497, 5710.330
377.5319, 5705.915
378.0140, 5697.868
378.4961, 5695.096
378.9782, 5697.604
379.4603, 5698.000
379.9424, 5694.931
380.4246, 5691.693
380.9066, 5687.211
381.3888, 5683.796
381.8709, 5685.268
382.3530, 5693.329
382.8351, 5705.645
383.3172, 5718.176
383.7993, 5733.954
384.2815, 5743.533
384.7636, 5744.814
385.2457, 5742.312
385.7278, 5735.471
386.2099, 5726.453
386.6920, 5721.933
387.1742, 5729.237
387.6563, 5746.491
388.1384, 5759.914
388.6205, 5768.955
389.1026, 5774.818
389.5847, 5776.358
390.0669, 5775.748
390.5490, 5775.666
391.0311, 5776.589
391.5132, 5778.810
391.9953, 5781.177
392.4774, 5784.287
392.9596, 5794.279
393.4417, 5815.824
393.9238, 5840.354
394.4059, 5854.393
394.8880, 5857.503
395.3701, 5868.452
395.8523, 5904.534
396.3344, 5942.937
396.8165, 5957.078
397.2986, 5947.395
397.7807, 5934.444
398.2628, 5931.313
398.7450, 5937.607
399.2271, 5950.917
399.7092, 5985.370
400.1913, 6008.912
400.6734, 6003.976
401.1555, 5988.924
401.6377, 5986.514
402.1198, 6003.395
402.6019, 6029.425
403.0840, 6051.667
403.5661, 6072.695
404.0482, 6081.023
404.5304, 6057.345
405.0125, 6039.408
405.4946, 6049.011
405.9767, 6076.874
406.4588, 6099.051
406.9409, 6100.010
407.4231, 6088.287
407.9052, 6082.527
408.3873, 6082.392
408.8694, 6090.236
409.3515, 6114.392
409.8336, 6142.630
410.3158, 6160.912
410.7979, 6166.570
411.2800, 6174.062
411.7621, 6195.368
412.2442, 6224.061
412.7263, 6247.100
413.2085, 6262.384
413.6906, 6271.523
414.1727, 6271.784
414.6548, 6264.437
415.1369, 6272.485
415.6190, 6317.433
416.1012, 6355.992
416.5833, 6364.461
417.0654, 6351.430
417.5475, 6332.701
418.0296, 6314.489
418.5117, 6299.232
418.9939, 6291.762
419.4760, 6295.203
419.9581, 6300.859
420.4402, 6312.511
420.9223, 6323.000
421.4044, 6326.026
421.8866, 6323.603
422.3687, 6322.990
422.8508, 6328.937
423.3329, 6341.199
423.8150, 6360.382
424.2971, 6392.313
424.7793, 6417.733
425.2614, 6428.515
425.7435, 6430.782
426.2256, 6426.840
426.7077, 6416.005
427.1898, 6410.023
427.6719, 6420.347
428.1541, 6443.064
428.6362, 6467.179
429.1183, 6492.590
429.6004, 6513.000
430.0825, 6519.542
430.5646, 6514.246
431.0468, 6516.294
431.5289, 6521.774
432.0110, 6539.934
432.4931, 6589.402
432.9752, 6654.920
433.4573, 6698.743
433.9395, 6704.164
434.4216, 6693.059
434.9037, 6707.376
435.3858, 6763.343
435.8679, 6811.660
436.3500, 6848.006
436.8322, 6881.426
437.3143, 6919.444
437.7964, 6959.529
438.2785, 6993.508
438.7606, 7015.326
439.2427, 7026.836
439.7249, 7034.139
440.2070, 7036.660
440.6891, 7036.218
441.1712, 7036.543
441.6533, 7032.084
442.1354, 7015.827
442.6176, 6986.493
443.0997, 6954.864
443.5818, 6922.820
444.0639, 6894.299
444.5460, 6882.966
445.0281, 6892.958
445.5103, 6901.863
445.9924, 6892.380
446.4745, 6866.404
446.9566, 6842.536
447.4387, 6824.044
447.9208, 6804.062
448.4030, 6785.508
448.8851, 6762.115
449.3672, 6718.624
449.8493, 6651.022
450.3314, 6581.299
450.8135, 6542.272
451.2957, 6546.844
451.7778, 6529.549
452.2599, 6463.765
452.7420, 6404.744
453.2241, 6381.570
453.7062, 6379.374
454.1884, 6367.267
454.6705, 6328.202
455.1526, 6278.274
455.6347, 6248.212
456.1168, 6240.911
456.5989, 6231.081
457.0811, 6210.536
457.5632, 6188.012
458.0453, 6170.269
458.5274, 6157.201
459.0095, 6148.060
459.4916, 6145.977
459.9738, 6145.533
460.4559, 6135.282
460.9380, 6117.229
461.4201, 6112.603
461.9022, 6134.982
462.3843, 6175.307
462.8665, 6207.795
463.3486, 6228.563
463.8307, 6248.311
464.3128, 6266.324
464.7949, 6284.902
465.2770, 6302.890
465.7592, 6322.248
466.2413, 6350.122
466.7234, 6393.684
467.2055, 6450.902
467.6876, 6507.375
468.1697, 6571.026
468.6519, 6619.420
469.1340, 6630.523
469.6161, 6634.895
470.0982, 6662.088
470.5803, 6718.140
471.0624, 6786.528
471.5445, 6858.249
472.0266, 6931.560
472.5088, 7003.598
472.9909, 7075.639
473.4730, 7138.916
473.9551, 7184.813
474.4372, 7215.883
474.9193, 7249.282
475.4015, 7277.534
475.8836, 7316.945
476.3657, 7379.498
476.8478, 7455.148
477.3299, 7532.605
477.8120, 7608.355
478.2942, 7676.157
478.7763, 7725.391
479.2584, 7750.734
479.7405, 7800.347
480.2226, 7897.254
480.7047, 7995.307
481.1869, 8086.516
481.6690, 8169.884
482.1511, 8243.256
482.6332, 8305.289
483.1153, 8363.872
483.5974, 8428.985
484.0796, 8500.495
484.5617, 8571.675
485.0438, 8646.494
485.5259, 8712.536
486.0080, 8754.381
486.4901, 8777.858
486.9723, 8799.788
487.4544, 8815.508
487.9365, 8837.814
488.4186, 8879.882
488.9007, 8934.525
489.3828, 8985.133
489.8650, 9025.839
490.3471, 9061.264
490.8292, 9098.233
491.3113, 9137.219
491.7934, 9175.623
492.2755, 9216.854
492.7577, 9254.087
493.2398, 9286.659
493.7219, 9313.166
494.2040, 9330.013
494.6861, 9334.752
495.1682, 9335.108
495.6504, 9349.920
496.1325, 9381.965
496.6146, 9387.272
497.0967, 9353.227
497.5788, 9296.622
498.0609, 9229.665
498.5431, 9152.536
499.0252, 9066.477
499.5073, 8965.459
499.9894, 8861.033
500.4715, 8762.358
500.9536, 8668.068
501.4358, 8573.917
501.9179, 8478.989
502.4000, 8380.598
502.8821, 8272.098
503.3642, 8143.465
503.8463, 8038.948
504.3285, 7978.652
504.8106, 7919.440
505.2927, 7837.752
505.7748, 7743.124
506.2569, 7658.934
506.7390, 7596.908
507.2212, 7543.815
507.7033, 7472.951
508.1854, 7382.125
508.6675, 7307.614
509.1496, 7264.694
509.6317, 7227.751
510.1139, 7176.239
510.5960, 7113.026
511.0781, 7048.512
511.5602, 6975.477
512.0423, 6911.124
512.5244, 6877.837
513.0065, 6863.785
513.4886, 6837.929
513.9708, 6789.046
514.4529, 6725.032
514.9350, 6655.927
515.4171, 6577.028
515.8992, 6510.630
516.3813, 6460.457
516.8635, 6417.200
517.3456, 6382.618
517.8277, 6351.202
518.3098, 6315.142
518.7919, 6271.247
519.2740, 6220.539
519.7562, 6158.575
520.2383, 6085.982
520.7204, 6030.287
521.2025, 6001.770
521.6846, 5978.847
522.1667, 5943.862
522.6489, 5900.390
523.1310, 5859.167
523.6131, 5819.920
524.0952, 5785.264
524.5773, 5760.448
525.0594, 5740.470
525.5416, 5715.278
526.0237, 5682.322
526.5058, 5648.942
526.9879, 5623.791
527.4700, 5607.873
527.9521, 5591.712
528.4343, 5573.062
528.9164, 5557.102
529.3985, 5544.988
529.8806, 5536.336
530.3627, 5532.318
530.8448, 5533.348
531.3270, 5532.725
531.8091, 5524.143
532.2912, 5508.541
532.7733, 5488.007
533.2554, 5461.313
533.7375, 5436.272
534.2197, 5415.268
534.7018, 5400.621
535.1839, 5399.735
535.6660, 5422.997
536.1481, 5443.852
536.6302, 5453.852
537.1124, 5458.504
537.5945, 5461.862
538.0766, 5465.404
538.5587, 5471.671
539.0408, 5484.079
539.5229, 5500.472
540.0051, 5504.875
540.4872, 5487.756
540.9693, 5478.197
541.4514, 5491.455
541.9335, 5509.412
542.4156, 5515.066
542.8978, 5508.086
543.3799, 5507.200
543.8620, 5532.535
544.3441, 5564.813
544.8262, 5574.238
545.3083, 5562.120
545.7905, 5546.020
546.2726, 5531.140
546.7547, 5524.191
547.2368, 5540.907
547.7189, 5603.434
548.2010, 5642.357
548.6832, 5638.684
549.1653, 5629.662
549.6474, 5638.816
550.1295, 5658.924
550.6116, 5669.084
551.0938, 5657.500
551.5759, 5637.385
552.0580, 5632.028
552.5401, 5642.013
553.0222, 5649.923
553.5043, 5655.765
553.9865, 5654.579
554.4686, 5636.725
554.9507, 5607.280
555.4328, 5583.684
555.9149, 5574.124
556.3970, 5564.899
556.8792, 5549.572
557.3613, 5529.696
557.8434, 5505.367
558.3255, 5477.584
558.8076, 5454.341
559.2897, 5446.925
559.7719, 5455.373
560.2540, 5443.566
560.7361, 5394.664
561.2182, 5350.206
561.7003, 5317.568
562.1824, 5295.675
562.6646, 5287.528
563.1467, 5293.282
563.6288, 5294.762
564.1109, 5278.399
564.5930, 5250.237
565.0751, 5215.923
565.5573, 5176.640
566.0394, 5149.928
566.5215, 5148.762
567.0036, 5159.671
567.4857, 5150.421
567.9678, 5100.723
568.4500, 5068.320
568.9321, 5063.175
569.4142, 5066.165
569.8963, 5072.427
570.3784, 5077.112
570.8605, 5070.113
571.3427, 5044.046
571.8248, 5014.804
572.3069, 5011.493
572.7890, 5033.992
573.2711, 5051.866
573.7532, 5062.423
574.2354, 5063.014
574.7175, 5044.686
575.1996, 5012.660
575.6817, 4992.121
576.1638, 4994.171
576.6459, 4997.461
577.1281, 4986.995
577.6102, 4975.738
578.0923, 4986.022
578.5744, 5018.930
579.0565, 5050.294
579.5386, 5055.630
580.0208, 5039.402
580.5029, 5037.509
580.9850, 5054.658
581.4671, 5075.920
581.9492, 5104.082
582.4313, 5130.022
582.9134, 5145.492
583.3955, 5150.240
583.8776, 5152.808
584.3597, 5157.668
584.8419, 5161.589
585.3240, 5157.712
585.8061, 5149.258
586.2882, 5149.209
586.7703, 5163.300
587.2524, 5184.182
587.7346, 5200.795
588.2167, 5213.529
588.6988, 5220.875
589.1809, 5212.878
589.6630, 5210.408
590.1451, 5229.295
590.6273, 5254.167
591.1094, 5261.177
591.5915, 5242.461
592.0736, 5219.583
592.5557, 5208.403
593.0378, 5207.588
593.5200, 5217.124
594.0021, 5237.267
594.4842, 5253.579
594.9663, 5256.187
595.4484, 5249.531
595.9305, 5247.342
596.4127, 5255.445
596.8948, 5258.821
597.3769, 5257.760
597.8590, 5251.461
598.3411, 5230.225
598.8232, 5203.659
599.3054, 5195.768
599.7875, 5221.962
600.2696, 5261.843
600.7517, 5287.313
601.2338, 5298.764
601.7159, 5297.105
602.1981, 5277.462
602.6802, 5259.654
603.1623, 5261.616
603.6444, 5280.858
604.1265, 5294.411
604.6086, 5302.796
605.0908, 5305.108
605.5729, 5294.884
606.0550, 5282.358
606.5371, 5278.180
607.0192, 5282.871
607.5013, 5290.074
607.9835, 5295.064
608.4656, 5298.842
608.9477, 5306.010
609.4298, 5318.122
609.9119, 5322.293
610.3940, 5310.627
610.8762, 5295.788
611.3583, 5292.585
611.8404, 5299.188
612.3225, 5300.993
612.8046, 5287.820
613.2867, 5277.914
613.7689, 5288.180
614.2510, 5304.980
614.7331, 5305.300
615.2152, 5285.132
615.6973, 5260.724
616.1794, 5248.750
616.6616, 5247.394
617.1437, 5239.974
617.6258, 5223.906
618.1079, 5209.056
618.5900, 5197.637
619.0721, 5189.579
619.5543, 5185.678
620.0364, 5185.894
620.5185, 5185.298
621.0006, 5182.499
621.4827, 5178.232
621.9648, 5174.664
622.4470, 5169.774
622.9291, 5157.800
623.4112, 5137.177
623.8933, 5114.362
624.3754, 5096.506
624.8575, 5083.451
625.3397, 5082.365
625.8218, 5103.570
626.3039, 5117.723
626.7860, 5107.996
627.2681, 5089.285
627.7502, 5077.376
628.2324, 5074.301
628.7145, 5065.854
629.1966, 5036.706
629.6787, 5007.174
630.1608, 5001.864
630.6429, 5013.214
631.1251, 5016.081
631.6072, 5000.289
632.0893, 4977.525
632.5714, 4966.283
633.0535, 4968.807
633.5356, 4963.714
634.0178, 4946.116
634.4999, 4928.147
634.9820, 4908.550
635.4641, 4893.905
635.9462, 4895.832
636.4283, 4918.067
636.9105, 4934.496
637.3926, 4930.052
637.8747, 4915.786
638.3568, 4900.460
638.8389, 4885.749
639.3210, 4872.761
639.8032, 4861.866
640.2853, 4856.518
640.7674, 4865.702
641.2495, 4895.192
641.7316, 4906.079
642.2137, 4885.895
642.6959, 4864.956
643.1780, 4853.412
643.6601, 4848.946
644.1422, 4849.361
644.6243, 4854.632
645.1064, 4862.851
645.5886, 4883.350
646.0707, 4899.368
646.5528, 4886.451
647.0349, 4851.244
647.5170, 4819.780
647.9991, 4803.970
648.4813, 4798.037
648.9634, 4793.607
649.4455, 4791.880
649.9276, 4784.354
650.4097, 4766.608
650.8918, 4749.719
651.3740, 4734.307
651.8561, 4724.010
652.3382, 4725.932
652.8203, 4743.175
653.3024, 4757.805
653.7845, 4762.287
654.2667, 4760.511
654.7488, 4752.394
655.2309, 4741.339
655.7130, 4737.816
656.1951, 4746.467
656.6772, 4757.842
657.1594, 4755.573
657.6415, 4737.566
658.1236, 4725.824
658.6057, 4722.058
659.0878, 4721.511
659.5699, 4727.699
660.0521, 4733.268
660.5342, 4726.195
661.0163, 4702.960
