##NAMES=Manaksite
##RRUFFID=R060693
##IDEAL CHEMISTRY=KNaMn^2+^Si_4_O_10_
##LOCALITY=Palitra pegmatite, Kedykverpakhk Mountain, Lovozero massif, Kola Peninsula, Russia
##OWNER=RRUFF
##SOURCE=Michael Scott
##DESCRIPTION=Pale brown massive associated with grayish-green bario-olgite, R060614, purple ussingite and colorless serandite
##STATUS=The identification of this mineral is confirmed by single-crystal X-ray diffraction and chemical analysis.
##URL=rruff.info/R060693
##MEASURED CHEMISTRY=(K_0.98_Na_0.02_)_Σ=1_Na_1.00_(Mn^2+^_0.78_Fe^2+^_0.21_Mg_0.01_)_Σ=1_Si_4.00_O_10_
149.484, 13592.490
149.967, 13643.340
150.449, 13686.890
150.931, 13721.660
151.413, 13768.190
151.895, 13839.080
152.377, 13917.150
152.859, 13986.040
153.342, 14036.800
153.824, 14086.840
154.306, 14140.060
154.788, 14197.880
155.270, 14257.640
155.752, 14321.160
156.234, 14387.560
156.716, 14455.960
157.198, 14532.000
157.680, 14605.390
158.163, 14666.460
158.645, 14698.180
159.127, 14754.460
159.609, 14862.620
160.091, 15005.100
160.573, 15144.740
161.055, 15273.880
161.538, 15390.720
162.020, 15488.820
162.502, 15544.390
162.984, 15612.790
163.466, 15735.060
163.948, 15894.010
164.430, 16027.830
164.912, 16096.010
165.394, 16131.270
165.876, 16162.800
166.359, 16203.940
166.841, 16238.860
167.323, 16255.680
167.805, 16256.540
168.287, 16255.990
168.769, 16270.360
169.251, 16287.030
169.733, 16290.960
170.216, 16290.190
170.698, 16266.830
171.180, 16194.910
171.662, 16073.890
172.144, 15952.510
172.626, 15865.100
173.108, 15801.190
173.590, 15742.920
174.072, 15682.650
174.555, 15623.300
175.037, 15562.810
175.519, 15499.180
176.001, 15448.800
176.483, 15433.380
176.965, 15444.670
177.447, 15461.090
177.929, 15474.790
178.412, 15485.660
178.894, 15488.600
179.376, 15478.640
179.858, 15477.300
180.340, 15497.834
180.822, 15532.884
181.304, 15564.416
181.786, 15592.608
182.268, 15607.479
182.751, 15639.551
183.233, 15664.730
183.715, 15689.627
184.197, 15720.330
184.679, 15731.560
185.161, 15770.270
185.643, 15820.990
186.125, 15878.100
186.607, 15923.520
187.090, 15950.680
187.572, 15967.400
188.054, 15985.490
188.536, 16004.520
189.018, 16032.390
189.500, 16087.160
189.982, 16161.950
190.464, 16213.980
190.947, 16228.220
191.429, 16215.790
191.911, 16206.480
192.393, 16200.600
192.875, 16196.580
193.357, 16193.190
193.839, 16190.540
194.321, 16188.820
194.803, 16188.230
195.286, 16188.830
195.768, 16189.490
196.250, 16189.660
196.732, 16192.880
197.214, 16204.430
197.696, 16225.040
198.178, 16246.580
198.661, 16267.980
199.143, 16289.110
199.625, 16307.180
200.107, 16322.980
200.589, 16334.910
201.071, 16336.860
201.553, 16325.910
202.035, 16324.720
202.517, 16344.580
202.999, 16385.539
203.482, 16418.711
203.964, 16440.551
204.446, 16459.150
204.928, 16486.561
205.410, 16523.141
205.892, 16564.801
206.374, 16611.920
206.857, 16665.920
207.339, 16712.029
207.821, 16753.410
208.303, 16782.789
208.785, 16781.109
209.267, 16737.080
209.749, 16695.869
210.231, 16680.400
210.713, 16699.301
211.195, 16706.949
211.678, 16705.000
212.160, 16691.570
212.642, 16654.289
213.124, 16575.939
213.606, 16516.801
214.088, 16513.051
214.570, 16585.230
215.052, 16640.881
215.535, 16676.270
216.017, 16694.279
216.499, 16701.330
216.981, 16694.061
217.463, 16681.289
217.945, 16660.051
218.427, 16611.910
218.909, 16611.350
219.391, 16679.770
219.874, 16794.449
220.356, 16873.221
220.838, 16903.320
221.320, 16916.930
221.802, 16929.199
222.284, 16934.100
222.766, 16955.010
223.248, 16998.270
223.731, 17059.920
224.213, 17117.930
224.695, 17171.170
225.177, 17224.471
225.659, 17283.711
226.141, 17357.430
226.623, 17416.301
227.105, 17448.330
227.587, 17460.779
228.070, 17501.570
228.552, 17583.820
229.034, 17676.039
229.516, 17757.471
229.998, 17828.240
230.480, 17886.779
230.962, 17933.109
231.444, 17966.480
231.926, 17979.109
232.409, 17960.449
232.891, 17933.400
233.373, 17915.570
233.855, 17916.801
234.337, 17907.881
234.819, 17885.480
235.301, 17849.830
235.783, 17804.480
236.266, 17741.900
236.748, 17678.760
237.230, 17629.160
237.712, 17600.900
238.194, 17570.230
238.676, 17530.551
239.158, 17483.400
239.640, 17449.881
240.122, 17433.721
240.605, 17427.391
241.087, 17424.580
241.569, 17422.859
242.051, 17430.020
242.533, 17449.561
243.015, 17480.891
243.497, 17509.289
243.980, 17525.359
244.462, 17548.301
244.944, 17587.510
245.426, 17613.939
245.908, 17622.932
246.390, 17664.605
246.872, 17698.344
247.354, 17724.574
247.836, 17720.818
248.318, 17755.785
248.801, 17775.232
249.283, 17794.051
249.765, 17834.467
250.247, 17835.072
250.729, 17875.146
251.211, 17899.465
251.693, 17930.994
252.176, 17946.916
252.658, 17967.652
253.140, 18004.010
253.622, 18031.719
254.104, 18045.838
254.586, 18077.824
255.068, 18077.891
255.550, 18105.967
256.032, 18146.133
256.514, 18161.035
256.997, 18193.311
257.479, 18218.967
257.961, 18226.330
258.443, 18252.109
258.925, 18272.920
259.407, 18283.609
259.889, 18295.160
260.371, 18318.490
260.854, 18358.061
261.336, 18395.561
261.818, 18424.609
262.300, 18445.920
262.782, 18483.631
263.264, 18546.330
263.746, 18609.660
264.228, 18648.109
264.711, 18652.461
265.193, 18661.240
265.675, 18684.891
266.157, 18720.670
266.639, 18738.990
267.121, 18730.090
267.603, 18721.449
268.085, 18740.930
268.567, 18797.859
269.050, 18846.240
269.532, 18874.150
270.014, 18885.760
270.496, 18913.730
270.978, 18966.029
271.460, 19017.711
271.942, 19041.391
272.424, 19026.859
272.906, 19039.430
273.389, 19094.891
273.871, 19108.195
274.353, 19153.502
274.835, 19191.045
275.317, 19221.234
275.799, 19222.057
276.281, 19260.799
276.763, 19284.344
277.246, 19307.268
277.728, 19351.350
278.210, 19356.445
278.692, 19400.188
279.174, 19428.504
279.656, 19463.879
280.138, 19483.965
280.620, 19508.779
281.103, 19548.883
281.585, 19580.518
282.067, 19598.844
282.549, 19634.668
283.031, 19639.229
283.513, 19673.770
283.995, 19700.080
284.477, 19719.740
284.959, 19726.971
285.441, 19738.029
285.924, 19811.500
286.406, 19953.000
286.888, 20071.391
287.370, 20094.230
287.852, 20031.270
288.334, 19956.939
288.816, 19879.420
289.298, 19797.740
289.781, 19704.400
290.263, 19599.760
290.745, 19498.539
291.227, 19404.830
291.709, 19321.189
292.191, 19261.490
292.673, 19233.270
293.155, 19214.160
293.638, 19165.061
294.120, 19089.631
294.602, 19015.971
295.084, 18919.840
295.566, 18874.012
296.048, 18871.027
296.530, 18857.641
297.012, 18834.416
297.494, 18771.875
297.977, 18760.096
298.459, 18727.975
298.941, 18695.023
299.423, 18679.189
299.905, 18672.840
300.387, 18694.820
300.869, 18727.221
301.351, 18756.570
301.833, 18781.840
302.316, 18799.900
302.798, 18795.070
303.280, 18786.650
303.762, 18804.631
304.244, 18852.240
304.726, 18903.971
305.208, 18935.539
305.690, 18953.539
306.172, 18972.250
306.655, 19003.939
307.137, 19035.359
307.619, 19050.080
308.101, 19047.250
308.583, 19043.881
309.065, 19055.600
309.547, 19074.430
310.030, 19088.449
310.512, 19080.381
310.994, 19076.150
311.476, 19101.881
311.958, 19156.590
312.440, 19203.770
312.922, 19224.141
313.404, 19226.391
313.886, 19220.260
314.369, 19183.961
314.851, 19162.080
315.333, 19192.971
315.815, 19268.500
316.297, 19323.539
316.779, 19303.471
317.261, 19265.779
317.743, 19256.039
318.225, 19314.631
318.708, 19372.949
319.190, 19405.570
319.672, 19418.039
320.154, 19436.570
320.636, 19473.490
321.118, 19516.039
321.600, 19556.270
322.082, 19586.170
322.565, 19622.840
323.047, 19678.920
323.529, 19745.381
324.011, 19794.580
324.493, 19806.881
324.975, 19812.850
325.457, 19825.641
325.939, 19851.369
326.422, 19874.199
326.904, 19887.260
327.386, 19896.910
327.868, 19916.670
328.350, 19973.211
328.832, 20013.961
329.314, 20021.289
329.796, 19983.770
330.278, 19943.230
330.760, 19891.279
331.243, 19840.609
331.725, 19810.551
332.207, 19813.279
332.689, 19819.859
333.171, 19824.750
333.653, 19828.830
334.135, 19825.730
334.617, 19813.430
335.100, 19796.561
335.582, 19778.189
336.064, 19754.369
336.546, 19741.080
337.028, 19742.250
337.510, 19757.520
337.992, 19785.430
338.474, 19834.779
338.957, 19878.430
339.439, 19884.641
339.921, 19844.051
340.403, 19823.250
340.885, 19838.609
341.367, 19879.980
341.849, 19907.119
342.331, 19916.760
342.813, 19930.039
343.296, 19969.461
343.778, 20033.721
344.260, 20081.109
344.742, 20102.250
345.224, 20111.600
345.706, 20143.320
346.188, 20197.740
346.670, 20241.580
347.152, 20235.010
347.635, 20197.811
348.117, 20213.211
348.599, 20296.930
349.081, 20400.971
349.563, 20467.740
350.045, 20499.520
350.527, 20508.850
351.009, 20478.641
351.491, 20434.801
351.974, 20429.840
352.456, 20468.051
352.938, 20509.631
353.420, 20514.971
353.902, 20496.350
354.384, 20478.650
354.866, 20477.199
355.349, 20478.949
355.831, 20465.711
356.313, 20439.279
356.795, 20425.029
357.277, 20451.980
357.759, 20497.051
358.241, 20533.080
358.723, 20545.529
359.205, 20554.160
359.688, 20567.311
360.170, 20585.381
360.652, 20610.199
361.134, 20646.580
361.616, 20687.359
362.098, 20725.381
362.580, 20745.869
363.062, 20785.400
363.544, 20872.510
364.027, 20986.680
364.509, 21082.359
364.991, 21131.830
365.473, 21173.730
365.955, 21224.020
366.437, 21287.949
366.919, 21350.891
367.401, 21402.551
367.884, 21454.910
368.366, 21525.869
368.848, 21657.881
369.330, 21765.840
369.812, 21826.699
370.294, 21833.500
370.776, 21849.619
371.258, 21891.961
371.741, 21930.051
372.223, 21933.449
372.705, 21882.461
373.187, 21834.340
373.669, 21793.500
374.151, 21760.711
374.633, 21748.740
375.115, 21768.221
375.597, 21785.930
376.079, 21772.619
376.562, 21718.891
377.044, 21688.311
377.526, 21696.410
378.008, 21722.109
378.490, 21699.520
378.972, 21617.711
379.454, 21567.660
379.936, 21624.211
380.419, 21772.961
380.901, 21869.891
381.383, 21904.109
381.865, 21905.600
382.347, 21901.260
382.829, 21894.500
383.311, 21906.990
383.793, 21962.529
384.276, 22040.359
384.758, 22100.510
385.240, 22142.590
385.722, 22166.180
386.204, 22163.561
386.686, 22142.029
387.168, 22118.180
387.650, 22102.490
388.132, 22078.711
388.615, 22023.711
389.097, 21941.480
389.579, 21857.461
390.061, 21785.250
390.543, 21719.420
391.025, 21654.779
391.507, 21592.211
391.989, 21527.330
392.471, 21451.760
392.954, 21372.221
393.436, 21303.750
393.918, 21261.471
394.400, 21225.600
394.882, 21184.961
395.364, 21136.119
395.846, 21097.301
396.328, 21082.660
396.810, 21076.449
397.293, 21061.109
397.775, 21006.680
398.257, 20971.100
398.739, 20978.080
399.221, 21028.500
399.703, 21053.801
400.185, 21044.000
400.668, 21015.689
401.150, 20974.680
401.632, 20886.070
402.114, 20848.650
402.596, 20888.180
403.078, 20980.061
403.560, 21045.580
404.042, 21074.109
404.524, 21098.150
405.007, 21134.971
405.489, 21188.920
405.971, 21227.920
406.453, 21247.900
406.935, 21260.350
407.417, 21277.859
407.899, 21299.600
408.381, 21337.840
408.863, 21402.500
409.346, 21487.039
409.828, 21564.119
410.310, 21633.949
410.792, 21697.039
411.274, 21750.830
411.756, 21797.650
412.238, 21844.150
412.720, 21885.789
413.203, 21938.000
413.685, 22039.369
414.167, 22178.840
414.649, 22299.221
415.131, 22344.189
415.613, 22359.881
416.095, 22403.980
416.577, 22488.150
417.060, 22581.439
417.542, 22668.480
418.024, 22748.820
418.506, 22823.830
418.988, 22902.760
419.470, 22968.160
419.952, 23005.070
420.434, 23013.910
420.916, 23016.949
421.398, 23021.840
421.881, 23024.529
422.363, 23022.080
422.845, 23028.990
423.327, 23014.920
423.809, 22967.859
424.291, 22895.211
424.773, 22822.510
425.255, 22750.961
425.738, 22680.789
426.220, 22612.320
426.702, 22549.131
427.184, 22478.580
427.666, 22390.961
428.148, 22302.340
428.630, 22231.561
429.112, 22176.529
429.595, 22144.430
430.077, 22139.420
430.559, 22160.020
431.041, 22193.609
431.523, 22242.170
432.005, 22297.590
432.487, 22355.150
432.969, 22414.680
433.451, 22474.539
433.934, 22536.590
434.416, 22595.580
434.898, 22632.020
435.380, 22649.980
435.862, 22685.010
436.344, 22757.400
436.826, 22861.320
437.308, 22996.619
437.790, 23168.000
438.273, 23329.850
438.755, 23414.820
439.237, 23463.580
439.719, 23548.789
440.201, 23738.369
440.683, 23943.850
441.165, 24123.971
441.647, 24273.211
442.129, 24358.131
442.612, 24339.740
443.094, 24262.820
443.576, 24157.949
444.058, 24029.170
444.540, 23877.900
445.022, 23688.439
445.504, 23477.520
445.987, 23280.760
446.469, 23100.109
446.951, 22936.070
447.433, 22786.990
447.915, 22654.471
448.397, 22544.480
448.879, 22465.699
449.361, 22402.230
449.843, 22340.990
450.326, 22278.570
450.808, 22225.270
451.290, 22180.801
451.772, 22146.850
452.254, 22132.289
452.736, 22138.740
453.218, 22156.410
453.700, 22188.689
454.182, 22233.779
454.665, 22247.189
455.147, 22219.680
455.629, 22186.461
456.111, 22204.039
456.593, 22261.811
457.075, 22303.730
457.557, 22300.930
458.039, 22274.881
458.522, 22260.869
459.004, 22257.779
459.486, 22253.730
459.968, 22245.301
460.450, 22229.221
460.932, 22198.961
461.414, 22146.340
461.896, 22096.020
462.379, 22071.340
462.861, 22059.551
463.343, 22036.779
463.825, 21963.539
464.307, 21903.420
464.789, 21899.270
465.271, 21958.820
465.753, 21991.391
466.235, 21952.641
466.717, 21894.631
467.200, 21856.480
467.682, 21841.801
468.164, 21847.449
468.646, 21889.090
469.128, 21950.740
469.610, 21974.500
470.092, 21929.449
470.574, 21900.811
471.057, 21933.490
471.539, 22039.279
472.021, 22100.250
472.503, 22108.590
472.985, 22090.580
473.467, 22073.330
473.949, 22056.689
474.431, 22043.570
474.914, 22034.680
475.396, 22029.949
475.878, 22029.510
476.360, 22033.590
476.842, 22041.789
477.324, 22064.820
477.806, 22090.039
478.288, 22089.270
478.770, 22055.000
479.253, 22022.730
479.735, 22028.289
480.217, 22056.660
480.699, 22083.010
481.181, 22092.211
481.663, 22101.131
482.145, 22118.340
482.627, 22143.230
483.109, 22171.840
483.592, 22196.660
484.074, 22227.250
484.556, 22269.400
485.038, 22330.801
485.520, 22388.949
486.002, 22443.680
486.484, 22492.010
486.966, 22530.221
487.448, 22554.141
487.931, 22573.359
488.413, 22591.740
488.895, 22609.170
489.377, 22611.020
489.859, 22591.471
490.341, 22572.439
490.823, 22569.340
491.306, 22583.029
491.788, 22614.721
492.270, 22671.461
492.752, 22732.920
493.234, 22756.770
493.716, 22748.480
494.198, 22750.520
494.680, 22785.730
495.162, 22842.850
495.645, 22907.180
496.127, 22978.369
496.609, 23043.711
497.091, 23083.520
497.573, 23115.881
498.055, 23163.080
498.537, 23229.211
499.019, 23312.779
499.501, 23428.160
499.984, 23559.350
500.466, 23675.939
500.948, 23756.270
501.430, 23830.131
501.912, 23904.650
502.394, 23978.289
502.876, 24071.869
503.358, 24222.100
503.841, 24367.320
504.323, 24465.680
504.805, 24500.850
505.287, 24523.340
505.769, 24541.869
506.251, 24545.270
506.733, 24508.051
507.215, 24426.400
507.698, 24311.740
508.180, 24143.311
508.662, 23936.189
509.144, 23818.631
509.626, 23798.750
510.108, 23800.830
510.590, 23757.449
511.072, 23678.689
511.554, 23591.449
512.036, 23488.631
512.519, 23407.061
513.001, 23409.061
513.483, 23468.330
513.965, 23514.740
514.447, 23485.330
514.929, 23450.840
515.411, 23469.211
515.893, 23543.141
516.375, 23611.301
516.858, 23644.260
517.340, 23663.961
517.822, 23686.971
518.304, 23721.180
518.786, 23751.240
519.268, 23790.670
519.750, 23821.971
520.232, 23807.711
520.715, 23715.660
521.197, 23629.199
521.679, 23576.180
522.161, 23556.279
522.643, 23514.850
523.125, 23444.891
523.607, 23374.260
524.089, 23329.609
524.571, 23310.320
525.054, 23285.080
525.536, 23249.770
526.018, 23208.109
526.500, 23167.150
526.982, 23125.670
527.464, 23077.480
527.946, 22998.529
528.429, 22923.230
528.911, 22908.449
529.393, 22948.020
529.875, 22974.449
530.357, 22917.070
530.839, 22843.340
531.321, 22816.561
531.803, 22871.551
532.286, 22919.520
532.768, 22932.160
533.250, 22920.561
533.732, 22900.891
534.214, 22862.279
534.696, 22830.961
535.178, 22813.869
535.660, 22810.100
536.142, 22807.230
536.625, 22805.779
537.107, 22805.260
537.589, 22802.730
538.071, 22795.869
538.553, 22810.420
539.035, 22855.090
539.517, 22901.250
539.999, 22900.980
540.481, 22860.609
540.964, 22836.230
541.446, 22849.801
541.928, 22882.670
542.410, 22905.119
542.892, 22918.811
543.374, 22932.949
543.856, 22954.680
544.338, 22978.330
544.820, 22997.881
545.303, 23011.980
545.785, 23025.721
546.267, 23043.859
546.749, 23061.711
547.231, 23074.920
547.713, 23078.510
548.195, 23082.330
548.677, 23082.211
549.159, 23083.619
549.642, 23102.301
550.124, 23146.061
550.606, 23197.311
551.088, 23261.359
551.570, 23339.961
552.052, 23355.850
552.534, 23285.520
553.016, 23217.010
553.499, 23244.061
553.981, 23358.330
554.463, 23442.119
554.945, 23476.381
555.427, 23480.641
555.909, 23477.119
556.391, 23465.699
556.873, 23446.061
557.356, 23412.400
557.838, 23374.330
558.320, 23339.881
558.802, 23309.650
559.284, 23285.051
559.766, 23268.461
560.248, 23257.141
560.730, 23247.779
561.213, 23235.660
561.695, 23237.520
562.177, 23263.449
562.659, 23302.260
563.141, 23340.211
563.623, 23375.061
564.105, 23412.859
564.587, 23457.119
565.069, 23503.730
565.552, 23538.270
566.034, 23560.010
566.516, 23569.430
566.998, 23550.189
567.480, 23510.740
567.962, 23537.779
568.444, 23637.381
568.926, 23742.631
569.408, 23782.609
569.891, 23779.660
570.373, 23782.580
570.855, 23802.631
571.337, 23829.770
571.819, 23860.420
572.301, 23891.641
572.783, 23918.391
573.265, 23922.570
573.747, 23936.301
574.230, 23980.010
574.712, 24052.211
575.194, 24117.480
575.676, 24154.080
576.158, 24195.939
576.640, 24260.520
577.122, 24358.311
577.604, 24447.641
578.086, 24521.189
578.569, 24594.180
579.051, 24685.760
579.533, 24797.250
580.015, 24911.311
580.497, 25013.631
580.979, 25130.580
581.461, 25329.600
581.943, 25603.430
582.426, 25881.439
582.908, 26135.480
583.390, 26371.660
583.872, 26577.600
584.354, 26756.461
584.836, 26985.840
585.318, 27343.301
585.800, 27754.680
586.282, 28162.750
586.765, 28541.369
587.247, 28939.449
587.729, 29350.061
588.211, 29792.420
588.693, 30297.381
589.175, 30880.510
589.657, 31503.529
590.140, 32153.141
590.622, 32834.988
591.104, 33558.328
591.586, 34316.660
592.068, 35139.250
592.550, 36062.680
593.032, 37080.289
593.514, 38082.941
593.996, 39066.789
594.479, 40037.449
594.961, 41086.969
595.443, 42112.750
595.925, 42916.570
596.407, 43477.680
596.889, 43753.672
597.371, 43730.570
597.853, 43401.410
598.335, 42750.699
598.818, 41602.121
599.300, 40300.621
599.782, 38894.578
600.264, 37399.270
600.746, 35986.000
601.228, 34623.121
601.710, 33366.980
602.192, 32238.430
602.674, 31230.660
603.157, 30357.340
603.639, 29639.770
604.121, 29028.590
604.603, 28480.301
605.085, 27997.949
605.567, 27599.109
606.049, 27300.500
606.531, 27052.029
607.013, 26787.180
607.496, 26516.930
607.978, 26276.561
608.460, 26100.330
608.942, 25949.029
609.424, 25788.580
609.906, 25624.160
610.388, 25477.029
610.870, 25363.820
611.353, 25265.449
611.835, 25172.189
612.317, 25079.180
612.799, 25004.699
613.281, 24959.561
613.763, 24924.500
614.245, 24886.340
614.727, 24846.039
615.209, 24802.020
615.692, 24755.670
616.174, 24704.990
616.656, 24637.461
617.138, 24554.850
617.620, 24493.330
618.102, 24475.609
618.584, 24477.051
619.067, 24448.160
619.549, 24397.039
620.031, 24364.090
620.513, 24391.830
620.995, 24435.051
621.477, 24454.910
621.959, 24446.070
622.441, 24438.939
622.923, 24452.609
623.406, 24465.881
623.888, 24461.730
624.370, 24412.090
624.852, 24390.619
625.334, 24417.971
625.816, 24457.520
626.298, 24447.289
626.780, 24372.000
627.263, 24325.670
627.745, 24338.859
628.227, 24386.330
628.709, 24410.891
629.191, 24412.961
629.673, 24397.180
630.155, 24347.080
630.637, 24290.260
631.119, 24270.910
631.602, 24287.869
632.084, 24303.740
632.566, 24293.270
633.048, 24274.430
633.530, 24261.840
634.012, 24261.971
634.494, 24257.350
634.976, 24233.430
635.458, 24209.439
635.941, 24206.689
636.423, 24244.000
636.905, 24262.381
637.387, 24251.311
637.869, 24220.930
638.351, 24188.289
638.833, 24152.381
639.315, 24132.439
639.797, 24141.590
640.280, 24168.500
640.762, 24193.891
641.244, 24216.580
641.726, 24226.029
