##NAMES=Mangano-ferri-eckermannite
##RRUFFID=R070122
##IDEAL CHEMISTRY=NaNa_2_(Mn^2+^_4_Fe^3+^)Si_8_O_22_(OH)_2_
##LOCALITY=Tanohata mine, Iwate Prefecture, Tohoku Region, Honshu Island, Japan
##OWNER=RRUFF
##SOURCE=Michael Scott
##DESCRIPTION=Dark red bladed crystals and cleavages associated with braunite
##STATUS=The identification of this mineral is confirmed by single-crystal X-ray diffraction and chemical analysis.
##URL=rruff.info/R070122
##MEASURED CHEMISTRY=(Na_0.80_K_0.20_)_Σ=1_(Na_1.60_Ca_0.18_Mn^+2^_0.22_)_Σ=2_(Mn^2+^_2.14_Mn^+3^_0.25_Mg_1.61_)_Σ=4_(Fe^3+^_0.27_Al_0.14_Mg_0.59_)_Σ=1_(Si_7.92_Al_0.06_Ti_0.02_)_Σ=8_O_22_((OH)_1.86_F_0.14_)_Σ=2_
181.0925, 5521.313
181.5746, 5539.072
182.0567, 5556.319
182.5388, 5574.233
183.0210, 5592.768
183.5031, 5612.357
183.9852, 5635.361
184.4673, 5663.899
184.9494, 5687.834
185.4315, 5695.394
185.9137, 5694.610
186.3958, 5697.282
186.8779, 5709.241
187.3600, 5724.917
187.8421, 5734.435
188.3242, 5735.234
188.8064, 5740.045
189.2885, 5762.193
189.7706, 5791.334
190.2527, 5813.783
190.7348, 5821.663
191.2169, 5824.897
191.6991, 5842.727
192.1812, 5881.697
192.6633, 5907.480
193.1454, 5889.995
193.6275, 5854.255
194.1096, 5824.302
194.5918, 5805.548
195.0739, 5797.391
195.5560, 5802.229
196.0381, 5823.378
196.5202, 5842.539
197.0023, 5849.855
197.4845, 5852.416
197.9666, 5855.225
198.4487, 5858.658
198.9308, 5865.389
199.4129, 5882.038
199.8950, 5911.854
200.3772, 5934.442
200.8593, 5935.074
201.3414, 5929.152
201.8235, 5927.729
202.3056, 5933.432
202.7877, 5942.996
203.2699, 5954.748
203.7520, 5969.958
204.2341, 5979.146
204.7162, 5976.104
205.1983, 5967.884
205.6804, 5957.291
206.1626, 5944.652
206.6447, 5934.207
207.1268, 5930.242
207.6089, 5932.965
208.0910, 5940.063
208.5731, 5956.510
209.0553, 5973.333
209.5374, 5986.429
210.0195, 5994.979
210.5016, 5997.003
210.9837, 5987.194
211.4658, 5964.970
211.9480, 5948.159
212.4301, 5938.069
212.9122, 5935.852
213.3943, 5946.151
213.8764, 5967.094
214.3585, 5986.709
214.8407, 5996.395
215.3228, 5996.273
215.8049, 5987.014
216.2870, 5949.973
216.7691, 5925.378
217.2512, 5943.358
217.7334, 5994.363
218.2155, 6043.862
218.6976, 6064.985
219.1797, 6061.130
219.6618, 6060.753
220.1439, 6065.436
220.6261, 6071.886
221.1082, 6081.068
221.5903, 6090.671
222.0724, 6095.498
222.5545, 6091.041
223.0366, 6079.432
223.5188, 6067.832
224.0009, 6051.834
224.4830, 6044.209
224.9651, 6059.492
225.4472, 6084.224
225.9293, 6095.787
226.4115, 6077.438
226.8936, 6044.023
227.3757, 6034.011
227.8578, 6060.036
228.3399, 6079.400
228.8220, 6068.222
229.3041, 6043.978
229.7863, 6027.326
230.2684, 6027.990
230.7505, 6034.181
231.2326, 6023.076
231.7147, 5987.484
232.1968, 5961.164
232.6790, 5962.983
233.1611, 5976.042
233.6432, 5988.073
234.1253, 5996.390
234.6074, 6001.325
235.0895, 6002.478
235.5717, 5999.447
236.0538, 5996.034
236.5359, 5991.863
237.0180, 5988.673
237.5001, 5986.066
237.9822, 5983.928
238.4644, 5987.736
238.9465, 6010.902
239.4286, 6052.526
239.9107, 6070.950
240.3928, 6036.966
240.8749, 5998.746
241.3571, 5997.041
241.8392, 6029.538
242.3213, 6059.154
242.8034, 6056.874
243.2855, 6028.397
243.7676, 6003.726
244.2498, 5982.932
244.7319, 5971.128
245.2140, 5975.326
245.6961, 5991.337
246.1782, 6004.668
246.6603, 6008.997
247.1425, 6005.358
247.6246, 5992.177
248.1067, 5960.839
248.5888, 5941.446
249.0709, 5968.708
249.5530, 6020.263
250.0352, 6054.915
250.5173, 6050.083
250.9994, 6025.971
251.4815, 6010.608
251.9636, 6004.881
252.4457, 6002.910
252.9279, 6000.067
253.4100, 5999.808
253.8921, 6008.227
254.3742, 6029.820
254.8563, 6055.298
255.3384, 6080.528
255.8206, 6105.113
256.3027, 6114.517
256.7848, 6092.592
257.2669, 6059.205
257.7490, 6046.424
258.2311, 6061.052
258.7133, 6077.244
259.1954, 6077.452
259.6775, 6065.304
260.1596, 6055.586
260.6417, 6053.824
261.1238, 6053.844
261.6060, 6046.307
262.0881, 6030.812
262.5702, 6017.286
263.0523, 6006.858
263.5344, 6001.632
264.0165, 6008.154
264.4987, 6029.986
264.9808, 6053.908
265.4629, 6066.484
265.9450, 6068.640
266.4271, 6065.464
266.9092, 6046.299
267.3914, 6028.735
267.8735, 6037.314
268.3556, 6073.638
268.8377, 6108.161
269.3198, 6117.698
269.8019, 6103.209
270.2841, 6091.716
270.7662, 6083.153
271.2483, 6077.588
271.7304, 6075.688
272.2125, 6077.008
272.6946, 6080.598
273.1768, 6087.534
273.6589, 6095.168
274.1410, 6093.122
274.6231, 6076.734
275.1052, 6058.571
275.5873, 6034.220
276.0695, 6011.775
276.5516, 6010.479
277.0337, 6039.876
277.5158, 6081.142
277.9979, 6096.230
278.4800, 6069.266
278.9622, 6048.706
279.4443, 6032.767
279.9264, 6028.095
280.4085, 6051.139
280.8906, 6102.342
281.3727, 6150.778
281.8549, 6156.309
282.3370, 6100.483
282.8191, 6072.592
283.3012, 6095.698
283.7833, 6124.208
284.2654, 6129.304
284.7476, 6113.659
285.2297, 6098.314
285.7118, 6100.284
286.1939, 6119.426
286.6760, 6138.081
287.1581, 6159.036
287.6403, 6176.670
288.1224, 6192.167
288.6045, 6202.776
289.0866, 6201.182
289.5687, 6182.566
290.0508, 6155.520
290.5330, 6149.462
291.0151, 6185.749
291.4972, 6213.692
291.9793, 6231.536
292.4614, 6238.527
292.9435, 6228.691
293.4257, 6202.021
293.9078, 6172.701
294.3899, 6164.926
294.8720, 6190.504
295.3541, 6203.988
295.8362, 6191.169
296.3184, 6177.397
296.8005, 6179.923
297.2826, 6196.148
297.7647, 6208.836
298.2468, 6199.808
298.7289, 6169.299
299.2111, 6148.298
299.6932, 6140.443
300.1753, 6138.676
300.6574, 6145.377
301.1395, 6155.313
301.6216, 6158.875
302.1038, 6148.963
302.5859, 6131.914
303.0680, 6124.218
303.5501, 6130.344
304.0322, 6133.913
304.5143, 6121.949
304.9964, 6108.100
305.4785, 6108.233
305.9607, 6128.708
306.4428, 6150.323
306.9249, 6149.165
307.4070, 6125.432
307.8891, 6107.716
308.3712, 6106.033
308.8534, 6109.539
309.3355, 6108.158
309.8176, 6101.878
310.2997, 6094.407
310.7818, 6086.879
311.2639, 6079.648
311.7461, 6072.644
312.2282, 6064.801
312.7103, 6060.673
313.1924, 6067.524
313.6745, 6081.940
314.1566, 6092.956
314.6388, 6091.887
315.1209, 6090.921
315.6030, 6106.619
316.0851, 6137.113
316.5672, 6158.792
317.0493, 6155.792
317.5315, 6135.865
318.0136, 6125.513
318.4957, 6133.257
318.9778, 6136.860
319.4599, 6120.389
319.9420, 6095.062
320.4242, 6082.529
320.9063, 6090.560
321.3884, 6109.570
321.8705, 6125.787
322.3526, 6140.768
322.8347, 6147.453
323.3169, 6139.594
323.7990, 6127.301
324.2811, 6115.938
324.7632, 6107.321
325.2453, 6104.958
325.7274, 6113.222
326.2096, 6132.973
326.6917, 6145.278
327.1738, 6142.336
327.6559, 6141.466
328.1380, 6149.953
328.6201, 6164.187
329.1023, 6179.264
329.5844, 6193.045
330.0665, 6202.586
330.5486, 6197.795
331.0307, 6163.858
331.5128, 6139.309
331.9950, 6128.734
332.4771, 6126.734
332.9592, 6131.278
333.4413, 6140.931
333.9234, 6152.002
334.4055, 6162.348
334.8877, 6173.701
335.3698, 6172.719
335.8519, 6137.701
336.3340, 6111.219
336.8161, 6117.800
337.2982, 6147.486
337.7804, 6174.672
338.2625, 6184.980
338.7446, 6181.143
339.2267, 6168.096
339.7088, 6140.279
340.1909, 6118.528
340.6731, 6109.146
341.1552, 6111.509
341.6373, 6131.432
342.1194, 6176.438
342.6015, 6216.176
343.0836, 6213.538
343.5658, 6174.087
344.0479, 6147.992
344.5300, 6155.042
345.0121, 6168.969
345.4942, 6154.625
345.9763, 6113.185
346.4585, 6084.563
346.9406, 6090.771
347.4227, 6114.088
347.9048, 6134.130
348.3869, 6149.042
348.8690, 6153.730
349.3512, 6139.793
349.8333, 6110.637
350.3154, 6095.952
350.7975, 6103.479
351.2796, 6116.742
351.7617, 6138.367
352.2439, 6159.600
352.7260, 6157.177
353.2081, 6119.141
353.6902, 6066.041
354.1723, 6041.242
354.6544, 6069.525
355.1366, 6087.563
355.6187, 6091.974
356.1008, 6088.429
356.5829, 6075.486
357.0650, 6056.572
357.5471, 6045.356
358.0293, 6057.845
358.5114, 6096.145
358.9935, 6113.102
359.4756, 6084.543
359.9577, 6059.409
360.4398, 6049.432
360.9220, 6050.563
361.4041, 6057.113
361.8862, 6066.961
362.3683, 6076.754
362.8504, 6077.795
363.3326, 6065.064
363.8147, 6058.285
364.2968, 6066.173
364.7789, 6077.276
365.2610, 6085.124
365.7431, 6088.911
366.2253, 6090.780
366.7074, 6094.428
367.1895, 6098.243
367.6716, 6092.919
368.1537, 6075.377
368.6358, 6054.225
369.1180, 6025.285
369.6001, 5997.526
370.0822, 5990.902
370.5643, 6022.047
371.0464, 6063.489
371.5285, 6090.273
372.0107, 6103.800
372.4928, 6114.369
372.9749, 6126.670
373.4570, 6136.951
373.9391, 6137.315
374.4212, 6126.211
374.9034, 6114.772
375.3855, 6098.901
375.8676, 6087.704
376.3497, 6099.012
376.8318, 6132.831
377.3139, 6160.206
377.7961, 6152.789
378.2782, 6109.184
378.7603, 6085.221
379.2424, 6098.839
379.7245, 6108.481
380.2066, 6094.666
380.6888, 6069.016
381.1709, 6051.054
381.6530, 6049.296
382.1351, 6057.834
382.6172, 6065.469
383.0993, 6074.592
383.5815, 6077.469
384.0636, 6051.337
384.5457, 6038.057
385.0278, 6082.841
385.5099, 6171.313
385.9920, 6237.112
386.4742, 6215.515
386.9563, 6124.456
387.4384, 6080.044
387.9205, 6108.927
388.4026, 6134.209
388.8847, 6115.237
389.3669, 6079.851
389.8490, 6063.136
390.3311, 6077.873
390.8132, 6097.552
391.2953, 6094.543
391.7774, 6071.611
392.2596, 6049.406
392.7417, 6031.649
393.2238, 6017.449
393.7059, 6004.594
394.1880, 5993.228
394.6701, 5990.084
395.1523, 6001.787
395.6344, 6019.126
396.1165, 6036.979
396.5986, 6053.642
397.0807, 6060.604
397.5628, 6050.922
398.0450, 6029.407
398.5271, 6014.272
399.0092, 6010.245
399.4913, 6005.466
399.9734, 5995.054
400.4555, 5984.680
400.9377, 5980.590
401.4197, 5983.952
401.9019, 5991.386
402.3840, 5999.957
402.8661, 6010.507
403.3482, 6015.486
403.8303, 6012.093
404.3124, 6005.918
404.7946, 5994.662
405.2767, 5982.518
405.7588, 5976.054
406.2409, 5978.569
406.7230, 5986.660
407.2051, 5996.393
407.6873, 6010.484
408.1694, 6013.347
408.6515, 5993.539
409.1336, 5967.916
409.6157, 5947.718
410.0978, 5932.986
410.5800, 5918.563
411.0621, 5894.438
411.5442, 5870.510
412.0263, 5871.518
412.5084, 5901.490
412.9905, 5928.087
413.4727, 5930.849
413.9548, 5916.543
414.4369, 5907.190
414.9190, 5904.805
415.4011, 5904.147
415.8832, 5903.179
416.3654, 5902.489
416.8475, 5904.449
417.3296, 5909.586
417.8117, 5912.474
418.2938, 5905.972
418.7759, 5887.653
419.2581, 5874.856
419.7402, 5863.663
420.2223, 5860.961
420.7044, 5878.232
421.1865, 5904.579
421.6686, 5919.320
422.1508, 5911.923
422.6329, 5893.399
423.1150, 5889.582
423.5971, 5910.234
424.0792, 5919.602
424.5613, 5903.610
425.0435, 5884.110
425.5256, 5871.390
426.0077, 5866.228
426.4898, 5866.395
426.9719, 5873.932
427.4540, 5884.804
427.9362, 5888.403
428.4183, 5884.441
428.9004, 5873.841
429.3825, 5847.478
429.8646, 5819.667
430.3467, 5815.007
430.8289, 5842.755
431.3110, 5868.035
431.7931, 5871.450
432.2752, 5861.546
432.7573, 5850.693
433.2394, 5841.094
433.7216, 5835.974
434.2037, 5839.032
434.6858, 5850.446
435.1679, 5861.241
435.6500, 5878.695
436.1321, 5887.532
436.6143, 5873.682
437.0964, 5850.631
437.5785, 5841.157
438.0606, 5853.135
438.5427, 5870.801
439.0248, 5865.172
439.5070, 5821.457
439.9891, 5802.442
440.4712, 5829.939
440.9533, 5862.279
441.4354, 5884.999
441.9175, 5899.584
442.3997, 5913.292
442.8818, 5932.205
443.3639, 5948.317
443.8460, 5939.935
444.3281, 5903.272
444.8102, 5887.044
445.2924, 5923.568
445.7745, 5969.056
446.2566, 5966.396
446.7387, 5914.421
447.2208, 5877.606
447.7029, 5891.608
448.1851, 5926.175
448.6672, 5948.736
449.1493, 5957.253
449.6314, 5957.089
450.1135, 5948.571
450.5956, 5936.368
451.0778, 5938.672
451.5599, 5967.607
452.0420, 5994.025
452.5241, 6016.923
453.0062, 6035.112
453.4883, 6047.048
453.9705, 6052.902
454.4526, 6055.059
454.9347, 6056.955
455.4168, 6057.860
455.8989, 6042.594
456.3810, 5985.194
456.8632, 5951.850
457.3453, 5976.538
457.8274, 6023.245
458.3095, 6052.128
458.7916, 6053.017
459.2737, 6048.206
459.7559, 6060.601
460.2380, 6085.773
460.7201, 6103.729
461.2022, 6112.543
461.6843, 6112.255
462.1664, 6095.187
462.6486, 6068.048
463.1307, 6055.775
463.6128, 6075.902
464.0949, 6094.899
464.5770, 6089.117
465.0591, 6071.368
465.5413, 6068.692
466.0234, 6089.194
466.5055, 6114.331
466.9876, 6120.261
467.4697, 6103.491
467.9518, 6083.585
468.4340, 6044.539
468.9161, 6019.664
469.3982, 6039.163
469.8803, 6076.646
470.3624, 6085.403
470.8445, 6044.410
471.3267, 5984.827
471.8088, 5959.141
472.2909, 5972.299
472.7730, 5979.285
473.2551, 5973.687
473.7372, 5961.506
474.2194, 5941.519
474.7015, 5918.111
475.1836, 5905.685
475.6657, 5919.198
476.1478, 5936.973
476.6299, 5936.029
477.1121, 5919.402
477.5942, 5901.064
478.0763, 5885.363
478.5584, 5871.882
479.0405, 5859.635
479.5226, 5847.284
480.0048, 5841.615
480.4869, 5847.427
480.9690, 5855.700
481.4511, 5864.905
481.9332, 5872.037
482.4153, 5871.120
482.8975, 5858.788
483.3796, 5838.686
483.8617, 5817.108
484.3438, 5789.947
484.8259, 5773.427
485.3080, 5777.294
485.7902, 5785.854
486.2723, 5791.834
486.7544, 5795.757
487.2365, 5801.356
487.7186, 5812.407
488.2007, 5824.545
488.6829, 5832.476
489.1650, 5836.101
489.6471, 5832.020
490.1292, 5816.229
490.6113, 5796.017
491.0934, 5780.393
491.5756, 5767.596
492.0577, 5767.755
492.5398, 5796.305
493.0219, 5826.695
493.5040, 5841.033
493.9861, 5840.257
494.4683, 5830.102
494.9504, 5813.060
495.4325, 5793.110
495.9146, 5780.458
496.3967, 5777.667
496.8788, 5776.713
497.3610, 5776.762
497.8431, 5778.911
498.3252, 5787.681
498.8073, 5799.381
499.2894, 5803.664
499.7715, 5792.286
500.2536, 5773.800
500.7357, 5761.720
501.2179, 5756.064
501.7000, 5755.865
502.1821, 5763.079
502.6642, 5772.663
503.1463, 5779.703
503.6284, 5784.512
504.1106, 5783.111
504.5927, 5766.495
505.0748, 5750.533
505.5569, 5745.859
506.0390, 5751.547
506.5211, 5766.538
507.0033, 5791.157
507.4854, 5814.729
507.9675, 5813.092
508.4496, 5764.119
508.9317, 5744.223
509.4138, 5779.043
509.8960, 5816.295
510.3781, 5840.606
510.8602, 5848.555
511.3423, 5834.027
511.8244, 5787.627
512.3066, 5735.355
512.7887, 5718.230
513.2708, 5734.746
513.7529, 5752.746
514.2350, 5768.051
514.7172, 5777.885
515.1993, 5775.939
515.6814, 5764.104
516.1635, 5756.574
516.6456, 5753.224
517.1277, 5756.697
517.6099, 5775.700
518.0920, 5801.307
518.5741, 5815.942
519.0562, 5813.645
519.5383, 5802.692
520.0204, 5794.053
520.5026, 5788.335
520.9847, 5781.652
521.4668, 5773.242
521.9489, 5764.665
522.4310, 5754.464
522.9131, 5745.069
523.3953, 5740.280
523.8774, 5741.621
524.3595, 5744.743
524.8416, 5744.432
525.3237, 5741.844
525.8058, 5744.769
526.2880, 5756.987
526.7701, 5762.464
527.2522, 5743.395
527.7343, 5707.118
528.2164, 5690.446
528.6985, 5709.744
529.1807, 5726.481
529.6628, 5728.251
530.1449, 5721.447
530.6270, 5709.380
531.1091, 5694.961
531.5912, 5688.276
532.0734, 5701.221
532.5555, 5730.004
533.0376, 5738.072
533.5197, 5710.638
534.0018, 5688.938
534.4839, 5687.277
534.9661, 5691.548
535.4482, 5691.453
535.9303, 5685.530
536.4124, 5675.125
536.8945, 5657.464
537.3766, 5637.424
537.8588, 5623.816
538.3409, 5616.708
538.8230, 5611.229
539.3051, 5605.722
539.7872, 5599.426
540.2693, 5589.749
540.7515, 5570.968
541.2336, 5563.341
541.7157, 5582.540
542.1978, 5599.742
542.6799, 5590.632
543.1620, 5564.871
543.6442, 5548.514
544.1263, 5555.460
544.6084, 5573.700
545.0905, 5579.081
545.5726, 5568.956
546.0547, 5564.401
546.5369, 5568.363
547.0190, 5577.859
547.5011, 5593.346
547.9832, 5612.423
548.4653, 5629.341
548.9474, 5647.295
549.4296, 5656.184
549.9116, 5641.421
550.3937, 5613.726
550.8759, 5594.077
551.3580, 5587.371
551.8401, 5590.843
552.3222, 5603.825
552.8043, 5626.205
553.2864, 5638.459
553.7686, 5628.582
554.2507, 5622.738
554.7328, 5625.105
555.2149, 5632.938
555.6970, 5645.218
556.1791, 5660.857
556.6613, 5675.796
557.1434, 5686.084
557.6255, 5693.141
558.1076, 5703.366
558.5897, 5717.949
559.0718, 5722.966
559.5540, 5710.797
560.0361, 5687.515
560.5182, 5659.285
561.0003, 5620.785
561.4824, 5602.826
561.9645, 5625.029
562.4467, 5656.120
562.9288, 5677.751
563.4109, 5689.983
563.8930, 5697.160
564.3751, 5701.224
564.8572, 5702.633
565.3394, 5702.133
565.8215, 5699.752
566.3036, 5695.169
566.7857, 5687.366
567.2678, 5678.603
567.7499, 5669.655
568.2321, 5660.743
568.7142, 5651.574
569.1963, 5640.280
569.6784, 5633.428
570.1605, 5644.021
570.6426, 5659.459
571.1248, 5650.325
571.6069, 5614.335
572.0890, 5585.959
572.5711, 5595.045
573.0532, 5631.316
573.5353, 5636.519
574.0175, 5567.007
574.4996, 5530.939
574.9817, 5560.371
575.4638, 5602.959
575.9459, 5621.195
576.4280, 5616.909
576.9102, 5613.473
577.3923, 5626.689
577.8744, 5645.518
578.3565, 5651.186
578.8386, 5644.353
579.3207, 5633.494
579.8029, 5617.674
580.2850, 5606.657
580.7671, 5613.931
581.2492, 5640.834
581.7313, 5657.656
582.2134, 5658.540
582.6956, 5655.975
583.1777, 5651.383
583.6598, 5647.405
584.1419, 5649.542
584.6240, 5657.603
585.1061, 5662.024
585.5883, 5650.156
586.0704, 5626.015
586.5525, 5616.511
587.0346, 5624.656
587.5167, 5638.339
587.9988, 5658.757
588.4810, 5678.705
588.9631, 5688.311
589.4452, 5686.793
589.9273, 5688.596
590.4094, 5706.893
590.8915, 5722.705
591.3737, 5716.009
591.8558, 5694.235
592.3379, 5679.291
592.8200, 5679.797
593.3021, 5682.669
593.7842, 5664.345
594.2664, 5617.554
594.7485, 5600.250
595.2306, 5633.847
595.7127, 5668.559
596.1948, 5696.436
596.6769, 5711.436
597.1591, 5701.025
597.6412, 5660.549
598.1233, 5622.065
598.6054, 5611.885
599.0875, 5612.972
599.5696, 5599.336
600.0518, 5570.668
600.5339, 5537.589
601.0160, 5504.502
601.4981, 5474.440
601.9802, 5453.707
602.4623, 5441.921
602.9445, 5440.956
603.4266, 5464.382
603.9087, 5483.616
604.3908, 5485.152
604.8729, 5474.350
605.3550, 5459.786
605.8372, 5443.733
606.3193, 5429.869
606.8014, 5423.310
607.2835, 5421.802
607.7656, 5419.290
608.2477, 5415.220
608.7299, 5408.269
609.2120, 5396.601
609.6941, 5382.221
610.1762, 5371.207
610.6583, 5363.375
611.1404, 5359.354
611.6226, 5366.727
612.1047, 5371.035
612.5868, 5360.191
613.0689, 5339.330
613.5510, 5321.230
614.0331, 5312.029
614.5153, 5306.782
614.9974, 5300.509
615.4795, 5292.800
615.9616, 5277.694
616.4437, 5251.255
616.9258, 5231.311
617.4080, 5233.512
617.8901, 5251.413
618.3722, 5259.472
618.8543, 5254.871
619.3364, 5246.354
619.8185, 5229.206
620.3007, 5213.618
620.7828, 5208.313
621.2649, 5211.795
621.7470, 5217.799
622.2291, 5223.303
622.7112, 5227.263
623.1934, 5228.615
623.6755, 5227.366
624.1576, 5218.382
624.6397, 5195.574
625.1218, 5178.351
625.6039, 5188.547
626.0861, 5214.934
626.5682, 5215.959
627.0503, 5167.847
627.5324, 5133.717
628.0145, 5139.591
628.4966, 5159.898
628.9788, 5173.979
629.4609, 5180.244
629.9430, 5183.908
630.4251, 5187.669
630.9072, 5192.619
631.3893, 5205.651
631.8715, 5228.887
632.3536, 5228.032
632.8357, 5185.446
633.3178, 5143.533
633.7999, 5136.461
634.2820, 5152.788
634.7642, 5161.345
635.2463, 5157.626
635.7284, 5150.858
636.2105, 5141.452
636.6926, 5132.146
637.1747, 5123.865
637.6569, 5118.083
638.1390, 5119.427
638.6211, 5131.372
639.1032, 5147.870
639.5853, 5156.039
640.0674, 5155.149
640.5496, 5153.421
641.0317, 5151.722
641.5138, 5149.281
641.9959, 5147.808
642.4780, 5144.842
642.9601, 5134.020
643.4423, 5111.042
643.9244, 5088.130
644.4065, 5059.996
644.8886, 5040.568
645.3707, 5049.449
645.8528, 5080.517
646.3350, 5112.176
646.8171, 5133.420
647.2992, 5142.275
647.7813, 5128.877
648.2634, 5090.440
648.7455, 5070.332
649.2277, 5078.378
649.7098, 5092.680
650.1919, 5104.065
650.6740, 5111.544
651.1561, 5111.549
651.6382, 5097.168
652.1204, 5093.145
652.6025, 5122.039
653.0846, 5151.811
653.5667, 5148.987
654.0488, 5123.236
654.5309, 5106.472
655.0131, 5114.128
655.4952, 5132.217
655.9773, 5140.941
656.4594, 5140.297
656.9415, 5129.122
657.4236, 5099.967
657.9058, 5080.733
658.3879, 5092.625
658.8700, 5120.697
659.3521, 5134.982
659.8342, 5133.030
660.3163, 5127.370
660.7985, 5111.542
661.2806, 5101.173
661.7627, 5113.898
662.2448, 5138.846
662.7269, 5155.276
663.2090, 5155.289
663.6912, 5144.207
664.1733, 5120.713
664.6554, 5088.481
665.1375, 5084.458
665.6196, 5116.879
666.1017, 5136.523
666.5839, 5112.776
667.0660, 5075.034
667.5481, 5073.466
668.0302, 5114.072
668.5123, 5144.899
668.9944, 5156.675
669.4766, 5163.793
669.9587, 5169.982
670.4408, 5177.146
670.9229, 5187.280
