##NAMES=Manganoquadratite
##RRUFFID=R090021
##IDEAL CHEMISTRY=Ag^1+^Mn^2+^As^3+^S^2-^_3_
##LOCALITY=Uchucchacua, Lima Department, Peru
##OWNER=RRUFF
##SOURCE=William W. Pinch
##DESCRIPTION=Tetragonal stepped crystals associated with proustite and alabandite.
##STATUS=The identification of this mineral is confirmed by single-crystal X-ray diffraction and chemical analysis.
##URL=rruff.info/R090021
##MEASURED CHEMISTRY=Ag_0.99_Mn_1.02_(As_0.85_Sb_0.14_)S_3.00_
92.37695, 1076.659
92.85907, 1063.711
93.34119, 1066.687
93.82330, 1076.802
94.30542, 1083.962
94.78754, 1087.658
95.26965, 1089.550
95.75177, 1087.124
96.23389, 1078.460
96.71600, 1066.975
97.19812, 1056.086
97.68024, 1046.190
98.16235, 1037.939
98.64447, 1033.012
99.12659, 1033.612
99.60870, 1029.050
100.0908, 1017.919
100.5729, 1004.797
101.0551, 993.3317
101.5372, 985.0913
102.0193, 979.5510
102.5014, 974.9666
102.9835, 972.5086
103.4656, 969.6242
103.9478, 965.6851
104.4299, 960.8966
104.9120, 955.6965
105.3941, 950.3383
105.8762, 944.6458
106.3583, 940.0480
106.8405, 937.7162
107.3226, 935.0148
107.8047, 929.4026
108.2868, 920.9644
108.7689, 913.1216
109.2510, 910.1129
109.7332, 912.2568
110.2153, 914.6124
110.6974, 917.8049
111.1795, 920.5477
111.6616, 920.6846
112.1437, 917.2769
112.6259, 912.0890
113.1080, 906.3422
113.5901, 900.1261
114.0722, 895.2551
114.5543, 893.4523
115.0364, 894.5613
115.5185, 895.6230
116.0007, 896.6908
116.4828, 896.9653
116.9649, 895.6945
117.4470, 892.7994
117.9291, 889.2255
118.4112, 885.9984
118.8934, 882.7955
119.3755, 880.8836
119.8576, 881.4634
120.3397, 882.5610
120.8218, 882.9166
121.3039, 881.9930
121.7861, 879.7123
122.2682, 875.8024
122.7503, 865.5892
123.2324, 858.9164
123.7145, 858.5692
124.1966, 861.8561
124.6788, 864.9938
125.1609, 865.8127
125.6430, 864.5753
126.1251, 863.6068
126.6072, 863.5155
127.0893, 863.0399
127.5715, 861.3029
128.0536, 858.5350
128.5357, 855.9786
129.0178, 854.6522
129.4999, 854.3671
129.9821, 853.6203
130.4642, 851.8032
130.9463, 849.7884
131.4284, 848.4388
131.9105, 847.8254
132.3926, 847.7043
132.8748, 848.1063
133.3569, 848.8592
133.8390, 849.7005
134.3211, 850.9301
134.8032, 852.2294
135.2853, 852.5150
135.7674, 851.6631
136.2496, 849.7814
136.7317, 846.0308
137.2138, 841.2759
137.6959, 837.6190
138.1780, 836.9590
138.6601, 839.5775
139.1423, 842.2601
139.6244, 846.4341
140.1065, 849.4782
140.5886, 849.9916
141.0707, 848.1511
141.5528, 845.2013
142.0350, 842.4066
142.5171, 839.2026
142.9992, 837.8732
143.4813, 840.1898
143.9634, 842.8073
144.4455, 842.9291
144.9277, 840.0609
145.4098, 836.4997
145.8919, 836.0661
146.3740, 841.0050
146.8561, 845.1603
147.3382, 848.4819
147.8204, 850.8577
148.3025, 851.8905
148.7846, 851.2745
149.2667, 849.8727
149.7488, 849.6620
150.2309, 851.1635
150.7131, 851.9308
151.1952, 850.2057
151.6773, 846.8468
152.1594, 844.7458
152.6415, 845.6022
153.1236, 847.6906
153.6058, 847.9032
154.0879, 845.4808
154.5700, 843.5123
155.0521, 845.5749
155.5342, 851.9301
156.0163, 856.2816
156.4985, 853.2837
156.9806, 848.6703
157.4627, 847.3846
157.9448, 850.9876
158.4269, 856.3830
158.9090, 858.5850
159.3912, 855.7074
159.8733, 854.3807
160.3554, 857.7840
160.8375, 862.5415
161.3196, 865.8159
161.8017, 866.3548
162.2839, 864.7352
162.7660, 862.5682
163.2481, 858.7933
163.7302, 855.9331
164.2123, 854.4631
164.6944, 854.0143
165.1766, 854.1862
165.6587, 854.7703
166.1408, 855.7357
166.6229, 856.9042
167.1050, 859.5104
167.5871, 861.0020
168.0693, 859.8881
168.5514, 857.2650
169.0335, 855.3219
169.5156, 855.5913
169.9977, 857.9030
170.4798, 859.2993
170.9620, 858.5628
171.4441, 858.2590
171.9262, 860.0187
172.4083, 863.4592
172.8904, 866.7283
173.3725, 868.4767
173.8547, 868.7208
174.3368, 868.9473
174.8189, 869.4932
175.3010, 869.7938
175.7831, 868.8524
176.2652, 866.5707
176.7474, 865.1159
177.2295, 866.8846
177.7116, 870.7441
178.1937, 873.9076
178.6758, 875.5179
179.1579, 876.2117
179.6401, 876.9032
180.1222, 877.6237
180.6043, 878.2286
181.0864, 878.9437
181.5685, 879.4781
182.0506, 879.1839
182.5328, 876.9912
183.0149, 873.8371
183.4970, 872.8410
183.9791, 875.3939
184.4612, 878.0829
184.9433, 879.7130
185.4255, 880.4117
185.9076, 880.3226
186.3897, 879.1566
186.8718, 877.1219
187.3539, 876.5266
187.8360, 878.3532
188.3182, 880.7635
188.8003, 883.9664
189.2824, 887.3510
189.7645, 889.7654
190.2466, 890.0319
190.7287, 887.9979
191.2109, 887.5961
191.6930, 890.3303
192.1751, 893.2303
192.6572, 895.5264
193.1393, 897.1840
193.6214, 898.5107
194.1036, 899.8224
194.5857, 901.2560
195.0678, 901.4572
195.5499, 898.4874
196.0320, 896.2918
196.5141, 896.8299
196.9963, 899.9868
197.4784, 904.5939
197.9605, 909.8561
198.4426, 915.9828
198.9247, 920.2969
199.4068, 921.0743
199.8890, 921.5241
200.3711, 923.4246
200.8532, 927.0131
201.3353, 932.2369
201.8174, 940.1443
202.2995, 950.7985
202.7817, 956.8042
203.2638, 953.9069
203.7459, 948.5350
204.2280, 946.6611
204.7101, 948.9977
205.1922, 952.8226
205.6744, 955.8298
206.1565, 958.2828
206.6386, 961.4521
207.1207, 967.0916
207.6028, 973.0221
208.0849, 975.5703
208.5671, 973.5853
209.0492, 971.6561
209.5313, 973.6632
210.0134, 978.4546
210.4955, 984.0521
210.9776, 990.7259
211.4598, 997.6162
211.9419, 1002.748
212.4240, 1005.645
212.9061, 1007.586
213.3882, 1008.446
213.8703, 1009.005
214.3525, 1010.795
214.8346, 1014.773
215.3167, 1020.584
215.7988, 1027.246
216.2809, 1036.570
216.7630, 1043.759
217.2451, 1045.118
217.7273, 1043.422
218.2094, 1043.585
218.6915, 1049.093
219.1736, 1058.937
219.6557, 1067.024
220.1378, 1072.427
220.6200, 1076.935
221.1021, 1080.134
221.5842, 1082.976
222.0663, 1087.138
222.5484, 1094.076
223.0305, 1103.303
223.5127, 1110.054
223.9948, 1110.859
224.4769, 1112.660
224.9590, 1117.626
225.4411, 1124.552
225.9232, 1131.185
226.4054, 1135.995
226.8875, 1139.176
227.3696, 1143.385
227.8517, 1148.195
228.3338, 1154.532
228.8159, 1163.202
229.2981, 1173.533
229.7802, 1184.403
230.2623, 1195.189
230.7444, 1205.889
231.2265, 1216.166
231.7086, 1227.543
232.1908, 1236.921
232.6729, 1242.821
233.1550, 1246.168
233.6371, 1248.169
234.1192, 1249.076
234.6013, 1249.662
235.0835, 1256.213
235.5656, 1274.399
236.0477, 1291.161
236.5298, 1300.829
237.0119, 1306.085
237.4940, 1313.520
237.9762, 1327.344
238.4583, 1345.593
238.9404, 1358.961
239.4225, 1363.782
239.9046, 1368.783
240.3867, 1376.735
240.8689, 1387.062
241.3510, 1398.472
241.8331, 1410.590
242.3152, 1423.132
242.7973, 1435.239
243.2794, 1446.093
243.7616, 1457.798
244.2437, 1472.011
244.7258, 1487.868
245.2079, 1502.333
245.6900, 1513.129
246.1721, 1523.110
246.6543, 1538.541
247.1364, 1561.439
247.6185, 1583.598
248.1006, 1599.543
248.5827, 1610.996
249.0648, 1624.345
249.5470, 1641.897
250.0291, 1662.423
250.5112, 1684.165
250.9933, 1707.527
251.4754, 1730.014
251.9576, 1749.732
252.4397, 1767.264
252.9218, 1785.905
253.4039, 1806.982
253.8860, 1828.714
254.3681, 1848.311
254.8503, 1865.785
255.3324, 1884.834
255.8145, 1908.122
256.2966, 1935.039
256.7787, 1962.663
257.2608, 1991.095
257.7430, 2019.317
258.2251, 2046.683
258.7072, 2073.178
259.1893, 2098.706
259.6714, 2121.799
260.1535, 2143.281
260.6357, 2168.425
261.1178, 2199.771
261.5999, 2232.190
262.0820, 2262.596
262.5641, 2291.390
263.0462, 2319.858
263.5284, 2348.351
264.0105, 2376.961
264.4926, 2407.043
264.9747, 2438.749
265.4568, 2471.661
265.9389, 2506.407
266.4211, 2542.034
266.9032, 2576.322
267.3853, 2607.270
267.8674, 2635.835
268.3495, 2666.716
268.8316, 2701.493
269.3138, 2736.378
269.7959, 2771.588
270.2780, 2805.690
270.7601, 2836.301
271.2422, 2861.539
271.7243, 2883.071
272.2065, 2906.122
272.6886, 2931.583
273.1707, 2956.929
273.6528, 2981.087
274.1349, 3004.959
274.6170, 3029.438
275.0992, 3055.129
275.5813, 3081.363
276.0634, 3106.323
276.5455, 3130.078
277.0276, 3152.388
277.5097, 3174.151
277.9919, 3194.340
278.4740, 3211.959
278.9561, 3226.737
279.4382, 3239.110
279.9203, 3249.563
280.4024, 3256.109
280.8846, 3264.973
281.3667, 3280.489
281.8488, 3295.825
282.3309, 3305.441
282.8130, 3308.158
283.2951, 3307.272
283.7773, 3307.248
284.2594, 3307.788
284.7415, 3310.107
285.2236, 3316.614
285.7057, 3322.846
286.1878, 3325.992
286.6700, 3325.829
287.1521, 3324.150
287.6342, 3323.108
288.1163, 3323.313
288.5984, 3321.637
289.0805, 3317.234
289.5627, 3311.887
290.0448, 3304.995
290.5269, 3297.518
291.0090, 3292.245
291.4911, 3292.607
291.9732, 3299.556
292.4554, 3299.803
292.9375, 3285.554
293.4196, 3272.460
293.9017, 3266.394
294.3838, 3265.557
294.8659, 3265.252
295.3481, 3262.190
295.8302, 3256.563
296.3123, 3251.126
296.7944, 3245.521
297.2765, 3240.528
297.7586, 3235.939
298.2408, 3232.152
298.7229, 3229.994
299.2050, 3230.000
299.6871, 3231.565
300.1692, 3232.356
300.6513, 3231.671
301.1335, 3231.005
301.6156, 3229.715
302.0977, 3228.831
302.5798, 3229.870
303.0619, 3233.381
303.5440, 3237.962
304.0262, 3240.631
304.5083, 3239.568
304.9904, 3239.202
305.4725, 3239.758
305.9546, 3240.862
306.4367, 3243.035
306.9189, 3246.039
307.4010, 3247.942
307.8831, 3245.626
308.3652, 3236.188
308.8473, 3230.120
309.3294, 3231.955
309.8116, 3232.918
310.2937, 3228.607
310.7758, 3218.280
311.2579, 3202.621
311.7400, 3182.017
312.2221, 3155.573
312.7043, 3129.139
313.1864, 3104.040
313.6685, 3077.582
314.1506, 3048.756
314.6327, 3017.601
315.1148, 2984.243
315.5970, 2948.693
316.0791, 2911.148
316.5612, 2874.313
317.0433, 2841.824
317.5254, 2805.744
318.0075, 2761.578
318.4897, 2713.421
318.9718, 2667.601
319.4539, 2627.439
319.9360, 2591.168
320.4181, 2552.658
320.9002, 2510.718
321.3824, 2468.196
321.8645, 2423.906
322.3466, 2379.852
322.8287, 2337.023
323.3108, 2296.244
323.7929, 2258.238
324.2751, 2225.067
324.7572, 2200.606
325.2393, 2173.446
325.7214, 2141.701
326.2035, 2108.876
326.6856, 2076.836
327.1678, 2046.027
327.6499, 2015.838
328.1320, 1985.073
328.6141, 1952.569
329.0962, 1925.358
329.5783, 1907.796
330.0605, 1890.589
330.5426, 1869.880
331.0247, 1846.097
331.5068, 1821.419
331.9889, 1797.180
332.4710, 1773.508
332.9532, 1752.630
333.4353, 1735.646
333.9174, 1720.302
334.3995, 1707.356
334.8816, 1695.580
335.3637, 1683.405
335.8459, 1670.124
336.3280, 1655.958
336.8101, 1641.908
337.2922, 1627.760
337.7743, 1614.018
338.2564, 1599.631
338.7386, 1586.160
339.2206, 1575.847
339.7028, 1568.956
340.1849, 1562.921
340.6670, 1553.510
341.1491, 1538.549
341.6312, 1525.711
342.1133, 1517.309
342.5955, 1508.888
343.0776, 1497.635
343.5597, 1483.770
344.0418, 1469.544
344.5239, 1457.152
345.0060, 1446.734
345.4882, 1435.646
345.9703, 1422.150
346.4524, 1409.683
346.9345, 1398.599
347.4166, 1389.289
347.8987, 1382.548
348.3809, 1379.209
348.8630, 1378.276
349.3451, 1375.510
349.8272, 1368.079
350.3093, 1363.291
350.7914, 1364.349
351.2736, 1367.492
351.7557, 1369.062
352.2378, 1367.784
352.7199, 1364.757
353.2020, 1361.797
353.6841, 1359.135
354.1663, 1355.785
354.6484, 1352.427
355.1305, 1347.772
355.6126, 1340.939
356.0947, 1331.914
356.5768, 1321.369
357.0590, 1310.674
357.5411, 1300.084
358.0232, 1284.763
358.5053, 1262.591
358.9874, 1237.568
359.4695, 1211.036
359.9517, 1183.182
360.4338, 1154.102
360.9159, 1123.298
361.3980, 1091.701
361.8801, 1061.991
362.3622, 1035.480
362.8444, 1008.265
363.3265, 977.3959
363.8086, 945.8245
364.2907, 916.6445
364.7728, 890.7467
365.2549, 866.8304
365.7371, 843.5210
366.2192, 820.7949
366.7013, 797.9516
367.1834, 773.9664
367.6655, 750.5635
368.1476, 728.9783
368.6298, 709.1805
369.1119, 690.6547
369.5940, 673.5853
370.0761, 657.6486
370.5582, 641.3281
371.0403, 624.0416
371.5225, 607.2436
372.0046, 591.8020
372.4867, 577.5521
372.9688, 564.0513
373.4509, 551.4767
373.9330, 539.4304
374.4152, 527.2843
374.8973, 515.0314
375.3794, 503.0863
375.8615, 491.3632
376.3436, 480.3493
376.8257, 470.6273
377.3079, 462.2431
377.7900, 455.1519
378.2721, 450.0134
378.7542, 446.3408
379.2363, 441.8677
379.7184, 435.5331
380.2006, 428.8612
380.6827, 423.6507
381.1648, 419.8207
381.6469, 416.9478
382.1290, 416.2834
382.6111, 415.9255
383.0933, 412.5831
383.5754, 405.7217
384.0575, 398.9775
384.5396, 395.6263
385.0217, 395.1725
385.5038, 392.9830
385.9860, 386.9823
386.4681, 380.9896
386.9502, 377.1307
387.4323, 375.2117
387.9144, 374.6966
388.3965, 375.7648
388.8787, 377.4075
389.3608, 376.7630
389.8429, 372.9315
390.3250, 369.2071
390.8071, 366.1622
391.2892, 363.6185
391.7714, 361.2569
392.2535, 359.0269
392.7356, 357.3576
393.2177, 356.8817
393.6998, 357.9575
394.1819, 358.5116
394.6641, 359.3354
395.1462, 358.9932
395.6283, 355.6805
396.1104, 350.3479
396.5925, 345.7995
397.0746, 343.8824
397.5568, 344.1783
398.0389, 344.3105
398.5210, 344.0758
399.0031, 343.9187
399.4852, 344.6444
399.9673, 345.1309
400.4495, 343.4175
400.9316, 339.1247
401.4137, 334.7493
401.8958, 334.5407
402.3779, 341.1610
402.8600, 344.6693
403.3422, 344.0581
403.8243, 341.7285
404.3064, 337.6942
404.7885, 332.8481
405.2706, 329.0999
405.7527, 328.1186
406.2349, 329.4990
406.7170, 330.0305
407.1991, 328.8208
407.6812, 328.0262
408.1633, 328.4490
408.6454, 329.3839
409.1276, 330.1049
409.6097, 330.3535
410.0918, 330.2218
410.5739, 330.0095
411.0560, 329.9119
411.5381, 328.6641
412.0203, 324.4359
412.5024, 320.3665
412.9845, 318.7720
413.4666, 319.2495
413.9487, 319.3571
414.4308, 316.0290
414.9130, 310.8136
415.3951, 310.3568
415.8772, 316.8526
416.3593, 322.7199
416.8414, 323.3308
417.3235, 320.9114
417.8057, 317.9356
418.2878, 314.4222
418.7699, 311.6849
419.2520, 311.8182
419.7341, 314.4264
420.2162, 315.5034
420.6984, 313.1683
421.1805, 309.6809
421.6626, 307.9502
422.1447, 307.9304
422.6268, 308.1542
423.1089, 308.3476
423.5911, 308.3665
424.0732, 307.8299
424.5553, 306.6923
425.0374, 305.7238
425.5195, 305.5106
426.0016, 306.0147
426.4838, 306.6431
426.9659, 308.0161
427.4480, 308.8634
427.9301, 308.3176
428.4122, 306.8470
428.8943, 305.2936
429.3765, 303.9224
429.8586, 302.9877
430.3407, 303.0898
430.8228, 305.5207
431.3049, 306.0099
431.7870, 302.2997
432.2692, 298.3095
432.7513, 297.1736
433.2334, 298.7436
433.7155, 300.7464
434.1976, 301.3416
434.6797, 300.6522
435.1619, 300.4884
435.6440, 302.4223
436.1261, 303.0400
436.6082, 300.6544
437.0903, 297.1277
437.5724, 294.6238
438.0546, 293.8987
438.5367, 294.0958
439.0188, 293.9069
439.5009, 293.2030
439.9830, 292.5226
440.4651, 292.3300
440.9473, 291.7480
441.4294, 289.4269
441.9115, 286.2645
442.3936, 284.8071
442.8757, 287.3770
443.3578, 292.5052
443.8400, 294.8324
444.3221, 292.9934
444.8042, 291.7938
445.2863, 294.3486
445.7684, 297.6035
446.2505, 298.5364
446.7327, 296.4442
447.2148, 293.5839
447.6969, 292.1473
448.1790, 291.7657
448.6611, 289.9764
449.1432, 285.3948
449.6254, 281.3697
450.1075, 281.5213
450.5896, 284.6796
451.0717, 287.4697
451.5538, 289.4732
452.0359, 290.3831
452.5181, 289.2197
453.0002, 286.3267
453.4823, 284.1256
453.9644, 283.8633
454.4465, 284.7661
454.9286, 285.1356
455.4108, 284.9014
455.8929, 284.5044
456.3750, 283.9674
456.8571, 283.3576
457.3392, 282.8441
457.8214, 282.4107
458.3035, 281.7059
458.7856, 280.3658
459.2677, 278.3784
459.7498, 276.5853
460.2319, 274.0746
460.7141, 272.7512
461.1962, 274.1907
461.6783, 276.8174
462.1604, 278.2835
462.6425, 277.7224
463.1246, 276.3035
463.6068, 276.1097
464.0889, 277.8969
464.5710, 278.9042
465.0531, 278.5805
465.5352, 278.0418
466.0173, 277.7800
466.4995, 277.7502
466.9816, 277.7659
467.4637, 277.8466
467.9458, 277.7202
468.4279, 276.1106
468.9100, 271.7769
469.3922, 269.1919
469.8743, 272.1411
470.3564, 275.8536
470.8385, 275.9979
471.3206, 271.9842
471.8027, 267.6625
472.2849, 265.8749
472.7670, 266.2056
473.2491, 267.4995
473.7312, 270.2456
474.2133, 272.2255
474.6954, 271.0974
475.1776, 268.0186
475.6597, 265.5609
476.1418, 263.7886
476.6239, 263.1657
477.1060, 264.9423
477.5881, 268.2193
478.0703, 270.2376
478.5524, 269.9385
479.0345, 268.5375
479.5166, 267.6472
479.9987, 267.2894
480.4808, 267.4433
480.9630, 268.3210
481.4451, 269.5396
481.9272, 271.7945
482.4093, 274.2985
482.8914, 274.5816
483.3735, 270.9422
483.8557, 264.6310
484.3378, 260.0548
484.8199, 257.1097
485.3020, 256.3282
485.7841, 260.0033
486.2662, 264.1313
486.7484, 264.9724
487.2305, 262.6075
487.7126, 260.3838
488.1947, 261.6079
488.6768, 265.9959
489.1589, 268.9676
489.6411, 270.1806
490.1232, 270.4226
490.6053, 269.7265
491.0874, 268.4569
491.5695, 266.9026
492.0516, 265.1133
492.5338, 263.4610
493.0159, 262.1988
493.4980, 261.3577
493.9801, 261.4338
494.4622, 263.0233
494.9443, 264.5494
495.4265, 264.4161
495.9086, 263.1583
496.3907, 262.2115
496.8728, 261.8949
497.3549, 262.0376
497.8370, 263.3472
498.3192, 265.1947
498.8013, 264.8267
499.2834, 260.7530
499.7655, 255.2365
500.2476, 251.7648
500.7297, 250.4760
501.2119, 250.8957
501.6940, 254.9828
502.1761, 259.1492
502.6582, 260.6700
503.1403, 259.9435
503.6224, 258.9499
504.1045, 258.9112
504.5866, 259.5286
505.0688, 259.6918
505.5509, 258.7219
506.0330, 258.3877
506.5151, 259.6054
506.9972, 260.8328
507.4793, 260.6476
507.9615, 259.1792
508.4436, 257.8374
508.9257, 257.9310
509.4078, 259.1735
509.8899, 259.7707
510.3720, 259.4547
510.8542, 259.0768
511.3363, 258.7437
511.8184, 258.6147
512.3005, 259.1184
512.7827, 260.4299
513.2648, 261.2418
513.7469, 259.9994
514.2290, 257.4911
514.7111, 256.0070
515.1932, 255.8893
515.6754, 256.5699
516.1575, 258.0873
516.6396, 260.0960
517.1217, 261.0487
517.6038, 259.9674
518.0859, 258.8937
518.5681, 258.8137
519.0502, 259.3363
519.5323, 259.9114
520.0144, 260.3771
520.4965, 260.5973
520.9786, 260.4246
521.4608, 259.8703
521.9429, 258.8068
522.4250, 256.7718
522.9071, 254.8013
523.3892, 252.8309
523.8713, 251.2924
524.3535, 250.9785
524.8356, 252.1977
525.3177, 254.0802
525.7998, 255.3328
526.2819, 256.0071
526.7640, 255.7581
527.2462, 253.7087
527.7283, 251.6028
528.2104, 250.1198
528.6925, 249.2348
529.1746, 248.7758
529.6567, 248.5886
530.1389, 248.9229
530.6210, 250.7067
531.1031, 253.7906
531.5852, 255.3194
532.0673, 253.8004
532.5494, 251.4677
533.0316, 251.2139
533.5137, 252.8803
533.9958, 254.4079
534.4779, 255.3625
534.9600, 256.0449
535.4421, 257.1764
535.9243, 258.3206
536.4064, 257.6661
536.8885, 254.1181
537.3706, 249.4913
537.8527, 247.7339
538.3348, 250.8885
538.8170, 252.8996
539.2991, 253.2041
539.7812, 252.9621
540.2633, 252.2805
540.7454, 251.6239
541.2275, 252.1414
541.7097, 254.7890
542.1918, 258.2229
542.6739, 258.5855
543.1560, 254.7006
543.6381, 251.4908
544.1202, 249.3862
544.6024, 248.7443
545.0845, 250.8862
545.5666, 255.1475
546.0487, 258.2087
546.5308, 257.5020
547.0129, 254.9791
547.4951, 253.7575
547.9772, 253.7968
548.4593, 253.5520
548.9414, 252.1047
549.4235, 250.3654
549.9056, 250.2496
550.3878, 252.0662
550.8699, 253.2805
551.3520, 253.0327
551.8341, 252.2976
552.3162, 251.3799
552.7983, 250.6326
553.2805, 251.2857
553.7626, 254.2848
554.2447, 258.2377
554.7268, 258.8778
555.2089, 252.7679
555.6910, 249.4791
556.1732, 251.0294
556.6553, 253.5688
557.1374, 255.1862
557.6195, 255.6908
558.1016, 255.4283
558.5837, 254.5294
559.0659, 253.1357
559.5480, 251.0113
560.0301, 247.6475
560.5122, 246.8763
560.9943, 252.3156
561.4764, 258.3502
561.9586, 258.7567
562.4407, 253.9352
562.9228, 250.3453
563.4049, 251.2759
563.8870, 253.9661
564.3691, 256.1876
564.8513, 257.6883
565.3334, 257.2528
565.8155, 253.8079
566.2976, 249.7268
566.7797, 249.8347
567.2618, 257.5728
567.7440, 261.4338
568.2261, 258.0216
568.7082, 253.8690
569.1903, 253.3131
569.6724, 255.0947
570.1545, 255.1002
570.6367, 250.9646
571.1188, 245.4662
571.6009, 245.1743
572.0830, 252.0287
572.5651, 256.6373
573.0472, 256.5700
573.5294, 255.3586
574.0115, 254.6831
574.4936, 254.4233
574.9757, 254.0252
575.4578, 253.1333
575.9399, 252.1802
576.4221, 251.8049
576.9042, 251.8755
577.3863, 251.6855
577.8684, 251.1024
578.3505, 249.9562
578.8326, 247.5516
579.3148, 243.7227
579.7969, 242.1546
580.2790, 245.0214
580.7611, 248.0128
581.2432, 248.5828
581.7253, 247.9967
582.2075, 248.9499
582.6896, 252.2466
583.1717, 255.5712
583.6538, 255.3505
584.1359, 250.8258
584.6180, 248.2342
585.1002, 249.5927
585.5823, 250.5005
586.0643, 248.7074
586.5464, 246.0181
587.0286, 245.0520
587.5107, 246.6495
