##NAMES=Manganosite
##RRUFFID=R060757
##IDEAL CHEMISTRY=Mn^2+^O
##LOCALITY=Nordmark, Sweden
##OWNER=RRUFF
##SOURCE=Michael Scott
##DESCRIPTION=Dark green crystals
##STATUS=The identification of this mineral is confirmed by single-crystal X-ray diffraction and chemical analysis.
##URL=rruff.info/R060757
##MEASURED CHEMISTRY=(Mn^2+^_0.99_Mg_0.01_)_Î£=1_O
142.254, 2861.302
142.736, 2856.227
143.218, 2861.136
143.700, 2868.903
144.182, 2880.649
144.664, 2893.294
145.146, 2905.410
145.629, 2917.409
146.111, 2928.129
146.593, 2938.587
147.075, 2948.061
147.557, 2951.603
148.039, 2944.040
148.521, 2934.646
149.003, 2929.158
149.486, 2928.876
149.968, 2931.057
150.450, 2936.773
150.932, 2946.492
151.414, 2954.189
151.896, 2959.302
152.378, 2963.059
152.860, 2966.609
153.342, 2963.949
153.824, 2967.225
154.307, 2966.244
154.789, 2973.597
155.271, 2978.927
155.753, 2982.343
156.235, 2978.110
156.717, 2983.753
157.199, 2986.351
157.682, 3002.344
158.164, 3015.673
158.646, 3026.761
159.128, 3031.365
159.610, 3019.878
160.092, 2999.527
160.574, 2989.752
161.056, 3006.336
161.538, 3030.199
162.020, 3048.870
162.503, 3057.449
162.985, 3062.294
163.467, 3063.994
163.949, 3063.221
164.431, 3063.839
164.913, 3069.096
165.395, 3076.145
165.877, 3082.238
166.360, 3088.731
166.842, 3092.485
167.324, 3088.374
167.806, 3076.555
168.288, 3069.737
168.770, 3077.283
169.252, 3094.660
169.734, 3115.198
170.217, 3145.215
170.699, 3171.890
171.181, 3180.193
171.663, 3166.341
172.145, 3152.042
172.627, 3157.726
173.109, 3176.543
173.591, 3192.431
174.073, 3193.804
174.555, 3188.457
175.038, 3186.328
175.520, 3189.121
176.002, 3194.043
176.484, 3186.872
176.966, 3208.755
177.448, 3223.585
177.930, 3231.742
178.413, 3213.239
178.895, 3229.162
179.377, 3231.288
179.859, 3232.848
180.341, 3253.617
180.823, 3238.990
181.305, 3259.455
181.787, 3265.911
182.269, 3269.121
182.751, 3264.267
183.234, 3270.775
183.716, 3282.401
184.198, 3287.028
184.680, 3284.535
185.162, 3277.096
185.644, 3267.563
186.126, 3255.276
186.608, 3235.972
187.091, 3200.312
187.573, 3156.417
188.055, 3135.628
188.537, 3140.932
189.019, 3154.106
189.501, 3155.186
189.983, 3144.551
190.465, 3127.408
190.947, 3102.976
191.430, 3072.505
191.912, 3045.408
192.394, 3021.993
192.876, 3002.349
193.358, 2989.443
193.840, 2983.633
194.322, 2976.041
194.804, 2961.503
195.286, 2940.321
195.769, 2918.041
196.251, 2893.517
196.733, 2869.730
197.215, 2852.257
197.697, 2841.433
198.179, 2834.795
198.661, 2832.474
199.143, 2834.800
199.626, 2834.940
200.108, 2832.585
200.590, 2827.286
201.072, 2816.658
201.554, 2799.604
202.036, 2781.135
202.518, 2763.646
203.000, 2746.549
203.482, 2734.646
203.965, 2729.740
204.447, 2730.532
204.929, 2730.970
205.411, 2731.624
205.893, 2730.233
206.375, 2723.694
206.857, 2710.459
207.339, 2699.065
207.822, 2690.993
208.304, 2686.246
208.786, 2685.850
209.268, 2692.604
209.750, 2699.018
210.232, 2696.964
210.714, 2685.317
211.196, 2669.309
211.678, 2648.059
212.161, 2620.986
212.643, 2602.512
213.125, 2594.535
213.607, 2592.628
214.089, 2591.287
214.571, 2590.674
215.053, 2590.131
215.535, 2589.695
216.018, 2589.556
216.500, 2587.593
216.982, 2583.413
217.464, 2577.588
217.946, 2570.713
218.428, 2561.788
218.910, 2553.881
219.392, 2548.554
219.874, 2547.057
220.357, 2543.455
220.839, 2537.085
221.321, 2529.113
221.803, 2521.773
222.285, 2515.608
222.767, 2509.405
223.249, 2502.524
223.731, 2493.928
224.214, 2487.638
224.696, 2484.776
225.178, 2483.921
225.660, 2480.699
226.142, 2472.627
226.624, 2466.142
227.106, 2464.608
227.588, 2470.035
228.070, 2476.201
228.553, 2486.391
229.035, 2496.891
229.517, 2493.105
229.999, 2463.015
230.481, 2435.126
230.963, 2426.391
231.445, 2447.890
231.927, 2464.909
232.410, 2474.486
232.892, 2477.772
233.374, 2480.325
233.856, 2482.450
234.338, 2483.508
234.820, 2483.787
235.302, 2486.571
235.784, 2481.306
236.266, 2461.936
236.749, 2431.392
237.231, 2415.103
237.713, 2416.487
238.195, 2427.834
238.677, 2446.411
239.159, 2484.277
239.641, 2505.095
240.123, 2499.584
240.605, 2469.660
241.088, 2445.842
241.570, 2426.767
242.052, 2415.024
242.534, 2414.290
243.016, 2433.544
243.498, 2446.019
243.980, 2443.627
244.462, 2426.996
244.945, 2424.665
245.427, 2446.647
245.909, 2472.048
246.391, 2481.890
246.873, 2467.229
247.355, 2453.995
247.837, 2447.037
248.319, 2446.455
248.801, 2443.397
249.284, 2435.567
249.766, 2427.880
250.248, 2425.497
250.730, 2431.460
251.212, 2436.836
251.694, 2439.294
252.176, 2438.711
252.658, 2441.807
253.141, 2450.229
253.623, 2460.727
254.105, 2470.462
254.587, 2480.585
255.069, 2487.425
255.551, 2489.404
256.033, 2486.234
256.515, 2483.687
256.997, 2480.319
257.480, 2479.046
257.962, 2484.403
258.444, 2501.628
258.926, 2513.090
259.408, 2511.353
259.890, 2494.837
260.372, 2492.628
260.854, 2512.567
261.336, 2537.614
261.819, 2548.058
262.301, 2538.708
262.783, 2527.229
263.265, 2516.942
263.747, 2507.811
264.229, 2501.906
264.711, 2499.222
265.193, 2499.859
265.676, 2506.084
266.158, 2522.157
266.640, 2530.665
267.122, 2524.300
267.604, 2502.285
268.086, 2486.981
268.568, 2479.685
269.050, 2477.090
269.532, 2474.930
270.015, 2472.545
270.497, 2473.257
270.979, 2479.566
271.461, 2491.635
271.943, 2498.646
272.425, 2500.351
272.907, 2497.537
273.389, 2488.960
273.871, 2472.348
274.354, 2461.352
274.836, 2462.760
275.318, 2475.999
275.800, 2479.323
276.282, 2470.096
276.764, 2456.569
277.246, 2448.280
277.728, 2445.831
278.211, 2444.165
278.693, 2434.068
279.175, 2426.937
279.657, 2437.595
280.139, 2443.935
280.621, 2446.189
281.103, 2432.118
281.585, 2439.128
282.068, 2437.689
282.550, 2435.904
283.032, 2445.880
283.514, 2434.183
283.996, 2443.973
284.478, 2445.186
284.960, 2450.324
285.442, 2445.206
285.924, 2444.000
286.406, 2443.763
286.889, 2443.779
287.371, 2439.797
287.853, 2431.078
288.335, 2422.754
288.817, 2420.564
289.299, 2424.134
289.781, 2429.570
290.263, 2437.175
290.746, 2445.363
291.228, 2448.795
291.710, 2447.178
292.192, 2443.718
292.674, 2442.994
293.156, 2443.820
293.638, 2440.034
294.120, 2427.050
294.603, 2409.645
295.085, 2395.598
295.567, 2384.848
296.049, 2381.872
296.531, 2400.757
297.013, 2432.626
297.495, 2448.872
297.977, 2432.350
298.459, 2401.111
298.942, 2382.994
299.424, 2377.612
299.906, 2379.868
300.388, 2391.637
300.870, 2407.859
301.352, 2416.655
301.834, 2411.875
302.316, 2400.805
302.798, 2388.580
303.281, 2376.071
303.763, 2370.441
304.245, 2386.206
304.727, 2410.561
305.209, 2422.584
305.691, 2410.818
306.173, 2391.588
306.655, 2379.507
307.138, 2373.639
307.620, 2368.339
308.102, 2360.765
308.584, 2351.537
309.066, 2341.213
309.548, 2329.352
310.030, 2317.471
310.512, 2305.879
310.994, 2294.912
311.477, 2286.151
311.959, 2284.056
312.441, 2282.700
312.923, 2276.415
313.405, 2261.195
313.887, 2245.846
314.369, 2235.712
314.851, 2229.063
315.333, 2221.026
315.816, 2212.412
316.298, 2199.890
316.780, 2179.091
317.262, 2141.857
317.744, 2112.410
318.226, 2105.484
318.708, 2112.612
319.190, 2115.783
319.672, 2101.871
320.155, 2088.290
320.637, 2085.660
321.119, 2102.765
321.601, 2111.217
322.083, 2096.931
322.565, 2071.145
323.047, 2052.296
323.530, 2050.677
324.012, 2050.493
324.494, 2047.027
324.976, 2040.322
325.458, 2028.890
325.940, 2004.030
326.422, 1976.788
326.904, 1961.831
327.386, 1973.044
327.868, 1983.838
328.351, 1988.603
328.833, 1986.670
329.315, 1981.537
329.797, 1968.270
330.279, 1954.573
330.761, 1949.036
331.243, 1960.079
331.725, 1967.635
332.208, 1967.128
332.690, 1958.117
333.172, 1950.540
333.654, 1945.516
334.136, 1940.949
334.618, 1933.835
335.100, 1919.917
335.582, 1914.148
336.065, 1923.801
336.547, 1945.916
337.029, 1951.067
337.511, 1932.692
337.993, 1909.090
338.475, 1893.429
338.957, 1886.892
339.439, 1883.469
339.921, 1883.838
340.404, 1886.189
340.886, 1883.932
341.368, 1876.592
341.850, 1866.612
342.332, 1852.815
342.814, 1835.015
343.296, 1827.701
343.778, 1835.692
344.260, 1850.143
344.743, 1851.580
345.225, 1839.644
345.707, 1827.127
346.189, 1822.894
346.671, 1824.932
347.153, 1823.032
347.635, 1815.602
348.117, 1806.497
348.599, 1801.182
349.082, 1799.089
349.564, 1796.815
350.046, 1790.571
350.528, 1783.210
351.010, 1781.583
351.492, 1786.485
351.974, 1792.570
352.457, 1795.126
352.939, 1794.657
353.421, 1792.423
353.903, 1786.170
354.385, 1779.981
354.867, 1780.404
355.349, 1787.451
355.831, 1792.365
356.313, 1788.409
356.796, 1778.602
357.278, 1766.974
357.760, 1749.322
358.242, 1735.292
358.724, 1733.721
359.206, 1742.966
359.688, 1751.742
360.170, 1757.350
360.652, 1758.445
361.135, 1753.435
361.617, 1735.898
362.099, 1719.904
362.581, 1710.565
363.063, 1706.835
363.545, 1705.243
364.027, 1711.562
364.509, 1714.838
364.991, 1707.474
365.474, 1676.223
365.956, 1656.652
366.438, 1662.691
366.920, 1683.578
367.402, 1697.264
367.884, 1697.773
368.366, 1694.403
368.848, 1689.185
369.331, 1680.450
369.813, 1674.781
370.295, 1672.611
370.777, 1673.198
371.259, 1675.993
371.741, 1684.021
372.223, 1689.461
372.705, 1689.878
373.188, 1684.905
373.670, 1680.365
374.152, 1675.774
374.634, 1672.159
375.116, 1670.340
375.598, 1670.036
376.080, 1672.560
376.562, 1678.961
377.044, 1688.364
377.526, 1697.417
378.009, 1707.322
378.491, 1712.386
378.973, 1704.729
379.455, 1684.255
379.937, 1672.185
380.419, 1672.961
380.901, 1680.542
381.384, 1683.427
381.866, 1681.651
382.348, 1677.554
382.830, 1671.374
383.312, 1663.823
383.794, 1657.169
384.276, 1651.411
384.758, 1647.237
385.240, 1645.415
385.723, 1645.875
386.205, 1648.460
386.687, 1654.908
387.169, 1662.569
387.651, 1666.976
388.133, 1667.900
388.615, 1669.724
389.097, 1680.405
389.579, 1693.083
390.062, 1697.867
390.544, 1683.473
391.026, 1667.022
391.508, 1660.882
391.990, 1663.485
392.472, 1665.489
392.954, 1662.180
393.436, 1656.570
393.918, 1650.895
394.401, 1644.536
394.883, 1639.899
395.365, 1638.982
395.847, 1640.482
396.329, 1641.084
396.811, 1638.761
397.293, 1636.376
397.775, 1634.407
398.258, 1630.747
398.740, 1632.790
399.222, 1645.786
399.704, 1663.197
400.186, 1676.595
400.668, 1687.962
401.150, 1692.495
401.632, 1685.151
402.114, 1664.614
402.597, 1658.401
403.079, 1675.589
403.561, 1696.339
404.043, 1702.765
404.525, 1691.060
405.007, 1676.016
405.489, 1655.963
405.971, 1635.266
406.453, 1631.619
406.936, 1648.130
407.418, 1668.720
407.900, 1683.255
408.382, 1691.784
408.864, 1701.074
409.346, 1712.838
409.828, 1723.057
410.310, 1722.842
410.793, 1713.303
411.275, 1705.730
411.757, 1710.694
412.239, 1721.084
412.721, 1716.340
413.203, 1694.292
413.685, 1674.679
414.167, 1679.309
414.650, 1699.678
415.132, 1717.943
415.614, 1726.364
416.096, 1731.213
416.578, 1739.626
417.060, 1750.706
417.542, 1757.709
418.024, 1753.338
418.506, 1744.975
418.988, 1739.000
419.471, 1736.518
419.953, 1737.337
420.435, 1742.166
420.917, 1750.322
421.399, 1760.169
421.881, 1777.044
422.363, 1790.696
422.845, 1794.941
423.328, 1785.429
423.810, 1781.154
424.292, 1787.413
424.774, 1798.738
425.256, 1808.973
425.738, 1820.125
426.220, 1827.457
426.702, 1829.148
427.185, 1825.493
427.667, 1822.095
428.149, 1816.894
428.631, 1814.744
429.113, 1820.432
429.595, 1837.190
430.077, 1848.366
430.559, 1849.826
431.041, 1847.277
431.524, 1856.082
432.006, 1877.955
432.488, 1899.314
432.970, 1914.638
433.452, 1923.974
433.934, 1925.373
434.416, 1917.187
434.898, 1909.069
435.380, 1914.999
435.863, 1931.644
436.345, 1944.868
436.827, 1946.953
437.309, 1944.919
437.791, 1948.485
438.273, 1957.426
438.755, 1969.766
439.237, 1988.427
439.720, 2008.040
440.202, 2021.406
440.684, 2024.792
441.166, 2026.426
441.648, 2029.781
442.130, 2035.284
442.612, 2043.883
443.094, 2059.573
443.576, 2075.516
444.059, 2088.598
444.541, 2098.435
445.023, 2106.132
445.505, 2106.567
445.987, 2107.419
446.469, 2116.011
446.951, 2148.916
447.433, 2171.446
447.915, 2173.504
448.398, 2158.836
448.880, 2155.337
449.362, 2170.092
449.844, 2186.923
450.326, 2196.569
450.808, 2195.147
451.290, 2199.197
451.772, 2210.498
452.254, 2225.596
452.737, 2238.366
453.219, 2248.294
453.701, 2258.513
454.183, 2270.082
454.665, 2282.864
455.147, 2298.042
455.629, 2316.020
456.112, 2331.962
456.594, 2337.520
457.076, 2336.359
457.558, 2341.931
458.040, 2359.506
458.522, 2381.573
459.004, 2400.226
459.486, 2415.503
459.968, 2428.240
460.451, 2439.183
460.933, 2447.591
461.415, 2450.953
461.897, 2447.995
462.379, 2447.201
462.861, 2453.038
463.343, 2464.000
463.825, 2478.114
464.307, 2502.789
464.790, 2522.684
465.272, 2525.217
465.754, 2513.301
466.236, 2515.974
466.718, 2562.081
467.200, 2606.177
467.682, 2622.174
468.164, 2582.019
468.647, 2561.570
469.129, 2570.787
469.611, 2595.613
470.093, 2610.127
470.575, 2607.670
471.057, 2610.159
471.539, 2627.208
472.021, 2658.100
472.503, 2676.844
472.986, 2680.304
473.468, 2681.624
473.950, 2694.971
474.432, 2719.292
474.914, 2738.906
475.396, 2751.125
475.878, 2757.438
476.360, 2758.076
476.842, 2754.043
477.325, 2751.256
477.807, 2754.780
478.289, 2761.026
478.771, 2763.837
479.253, 2762.503
479.735, 2762.950
480.217, 2771.019
480.699, 2783.233
481.181, 2794.781
481.664, 2801.764
482.146, 2809.846
482.628, 2822.378
483.110, 2838.291
483.592, 2853.212
484.074, 2868.673
484.556, 2880.481
485.039, 2885.157
485.521, 2877.365
486.003, 2874.475
486.485, 2880.205
486.967, 2889.607
487.449, 2896.116
487.931, 2896.766
488.413, 2900.406
488.895, 2909.961
489.378, 2924.485
489.860, 2937.546
490.342, 2950.397
490.824, 2958.069
491.306, 2953.822
491.788, 2938.028
492.270, 2929.890
492.752, 2932.385
493.234, 2939.380
493.717, 2941.358
494.199, 2939.494
494.681, 2939.953
495.163, 2950.962
495.645, 2963.228
496.127, 2959.584
496.609, 2941.225
497.091, 2923.162
497.573, 2910.023
498.056, 2905.235
498.538, 2915.210
499.020, 2951.229
499.502, 2981.599
499.984, 2988.068
500.466, 2978.927
500.948, 2970.223
501.430, 2958.407
501.913, 2955.105
502.395, 2971.436
502.877, 3011.663
503.359, 3029.389
503.841, 3003.438
504.323, 2971.484
504.805, 2960.530
505.287, 2981.664
505.770, 2997.209
506.252, 3003.914
506.734, 3004.367
507.216, 3003.357
507.698, 3000.101
508.180, 2999.689
508.662, 3005.698
509.144, 3016.786
509.626, 3025.917
510.108, 3033.348
510.591, 3036.392
511.073, 3029.919
511.555, 3017.125
512.037, 3005.461
512.519, 2995.141
513.001, 2989.818
513.483, 2996.692
513.966, 3011.893
514.448, 3025.461
514.930, 3036.567
515.412, 3041.201
515.894, 3032.918
516.376, 3010.676
516.858, 2993.544
517.340, 2990.099
517.822, 2993.045
518.305, 2996.774
518.787, 2997.130
519.269, 3002.497
519.751, 3015.620
520.233, 3033.861
520.715, 3051.036
521.197, 3069.571
521.679, 3083.156
522.161, 3089.682
522.644, 3089.131
523.126, 3081.755
523.608, 3064.746
524.090, 3049.573
524.572, 3048.842
525.054, 3061.238
525.536, 3073.638
526.018, 3085.547
526.500, 3093.211
526.983, 3085.923
527.465, 3067.678
527.947, 3054.389
528.429, 3055.732
528.911, 3065.701
529.393, 3083.066
529.875, 3107.018
530.357, 3121.320
530.839, 3108.757
531.322, 3086.053
531.804, 3067.480
532.286, 3053.792
532.768, 3048.527
533.250, 3062.070
533.732, 3083.504
534.214, 3091.437
534.696, 3061.715
535.179, 3044.222
535.661, 3057.337
536.143, 3100.973
536.625, 3120.045
537.107, 3103.845
537.589, 3082.848
538.071, 3079.362
538.553, 3095.111
539.036, 3110.664
539.518, 3126.474
540.000, 3137.160
540.482, 3129.484
540.964, 3106.347
541.446, 3086.266
541.928, 3078.498
542.410, 3077.162
542.892, 3073.302
543.375, 3067.260
543.857, 3062.405
544.339, 3061.846
544.821, 3062.914
545.303, 3062.611
545.785, 3059.357
546.267, 3058.530
546.749, 3070.062
547.231, 3082.798
547.714, 3082.741
548.196, 3048.532
548.678, 3022.135
549.160, 3013.690
549.642, 3020.437
550.124, 3028.946
550.606, 3043.484
551.088, 3053.271
551.570, 3053.658
552.053, 3044.411
552.535, 3025.083
553.017, 2991.624
553.499, 2958.803
553.981, 2945.045
554.463, 2948.795
554.945, 2955.468
555.427, 2962.937
555.909, 2969.741
556.392, 2973.217
556.874, 2974.117
557.356, 2975.278
557.838, 2961.531
558.320, 2959.436
558.802, 2939.137
559.284, 2956.034
559.766, 2963.902
560.249, 2963.227
560.731, 2928.417
561.213, 2937.086
561.695, 2927.350
562.177, 2925.779
562.659, 2932.991
563.141, 2942.011
563.623, 2939.271
564.106, 2915.550
564.588, 2896.233
565.070, 2889.533
565.552, 2893.711
566.034, 2893.127
566.516, 2887.454
566.998, 2878.300
567.480, 2861.145
567.963, 2839.281
568.445, 2838.069
568.927, 2863.018
569.409, 2890.967
569.891, 2894.471
570.373, 2880.410
570.855, 2864.091
571.337, 2846.647
571.819, 2833.797
572.302, 2833.832
572.784, 2842.845
573.266, 2847.980
573.748, 2840.364
574.230, 2830.328
574.712, 2822.382
575.194, 2816.747
575.676, 2814.431
576.158, 2821.584
576.641, 2827.592
577.123, 2823.644
577.605, 2802.130
578.087, 2789.799
578.569, 2791.824
579.051, 2800.659
579.533, 2799.870
580.015, 2788.576
580.497, 2779.553
580.980, 2778.939
581.462, 2783.349
581.944, 2784.093
582.426, 2781.227
582.908, 2776.185
583.390, 2765.526
583.872, 2755.077
584.354, 2754.544
584.836, 2767.063
585.319, 2777.729
585.801, 2771.880
586.283, 2761.191
586.765, 2759.191
587.247, 2782.728
587.729, 2800.396
588.211, 2802.431
588.693, 2793.129
589.176, 2786.606
589.658, 2779.097
590.140, 2780.334
590.622, 2797.438
591.104, 2830.249
591.586, 2850.140
592.068, 2855.793
592.550, 2853.140
593.032, 2843.446
593.515, 2828.253
593.997, 2818.419
594.479, 2815.349
594.961, 2817.577
595.443, 2824.841
595.925, 2836.056
596.407, 2848.881
596.890, 2866.623
597.372, 2881.590
597.854, 2884.241
598.336, 2878.647
598.818, 2879.815
599.300, 2904.189
599.782, 2927.052
600.264, 2934.775
600.746, 2921.680
601.229, 2917.860
601.711, 2930.234
602.193, 2945.615
602.675, 2952.344
603.157, 2945.815
603.639, 2949.822
604.121, 2968.526
604.603, 2994.147
605.085, 3016.028
605.568, 3033.799
606.050, 3043.948
606.532, 3039.515
607.014, 3031.573
607.496, 3042.892
607.978, 3069.420
608.460, 3090.414
608.942, 3094.217
609.424, 3086.800
609.907, 3068.727
610.389, 3038.717
610.871, 3016.936
611.353, 3013.170
611.835, 3019.396
612.317, 3029.439
612.799, 3048.280
613.281, 3063.417
613.763, 3076.436
614.246, 3084.770
614.728, 3080.874
615.210, 3058.967
615.692, 3048.550
616.174, 3062.727
616.656, 3091.117
617.138, 3097.842
617.620, 3083.583
618.103, 3067.906
618.585, 3063.725
619.067, 3066.209
619.549, 3068.069
620.031, 3068.874
620.513, 3068.723
620.995, 3069.174
621.477, 3067.834
621.959, 3061.360
622.442, 3042.911
622.924, 3030.973
623.406, 3037.533
623.888, 3051.317
624.370, 3054.442
624.852, 3037.957
625.334, 3024.409
625.816, 3019.072
626.299, 3019.270
626.781, 3013.457
627.263, 3000.451
627.745, 2987.674
628.227, 2978.636
628.709, 2972.930
629.191, 2968.691
629.673, 2965.926
630.156, 2964.944
630.638, 2968.825
631.120, 2973.568
631.602, 2972.330
632.084, 2961.739
632.566, 2953.281
633.048, 2955.208
633.530, 2962.494
634.012, 2968.654
634.495, 2977.597
634.977, 2978.921
635.459, 2963.318
635.941, 2939.549
636.423, 2931.675
636.905, 2948.966
637.387, 2961.501
637.869, 2956.350
638.351, 2937.131
638.834, 2930.003
639.316, 2935.879
639.798, 2942.950
640.280, 2941.462
640.762, 2934.944
641.244, 2932.105
641.726, 2933.970
642.208, 2936.229
642.690, 2940.201
643.173, 2940.800
643.655, 2930.690
644.137, 2894.761
644.619, 2868.935
645.101, 2872.041
645.583, 2891.496
646.065, 2903.827
646.547, 2904.935
647.029, 2903.118
647.512, 2898.065
647.994, 2891.118
648.476, 2889.488
648.958, 2894.375
649.440, 2898.410
649.922, 2894.810
650.404, 2886.752
650.886, 2893.668
651.369, 2915.718
651.851, 2926.954
652.333, 2892.085
652.815, 2839.367
653.297, 2810.107
653.779, 2816.358
654.261, 2821.353
654.743, 2802.302
655.226, 2773.816
655.708, 2751.547
656.190, 2736.805
656.672, 2731.552
657.154, 2741.585
657.636, 2758.911
658.118, 2766.103
658.600, 2759.995
659.083, 2754.242
659.565, 2755.217
660.047, 2758.634
660.529, 2748.942
661.011, 2726.207
661.493, 2696.140
661.975, 2652.124
662.457, 2607.197
662.939, 2583.608
663.422, 2582.248
663.904, 2585.207
664.386, 2586.906
664.868, 2584.928
665.350, 2575.560
665.832, 2550.780
666.314, 2535.988
666.796, 2547.232
667.278, 2563.579
667.761, 2563.191
