##NAMES=Manganoquadratite
##RRUFFID=R090021
##IDEAL CHEMISTRY=Ag^1+^Mn^2+^As^3+^S^2-^_3_
##LOCALITY=Uchucchacua, Lima Department, Peru
##OWNER=RRUFF
##SOURCE=William W. Pinch
##DESCRIPTION=Tetragonal stepped crystals associated with proustite and alabandite.
##STATUS=The identification of this mineral is confirmed by single-crystal X-ray diffraction and chemical analysis.
##URL=rruff.info/R090021
##MEASURED CHEMISTRY=Ag_0.99_Mn_1.02_(As_0.85_Sb_0.14_)S_3.00_
90.92609, 0.0000000E+00
91.40820, 73.67673
91.89032, 73.44489
92.37244, 72.57802
92.85455, 71.45585
93.33667, 72.33765
93.81879, 79.42228
94.30090, 90.17670
94.78302, 97.08997
95.26514, 98.03149
95.74725, 94.54284
96.22937, 88.00082
96.71149, 78.00916
97.19360, 70.10378
97.67572, 71.25768
98.15784, 81.28974
98.63995, 90.21013
99.12207, 95.00724
99.60419, 96.11533
100.0863, 97.60206
100.5684, 99.38155
101.0505, 101.7255
101.5327, 105.6536
102.0148, 112.1432
102.4969, 116.7821
102.9790, 117.4841
103.4611, 113.1713
103.9432, 111.0323
104.4253, 112.2653
104.9075, 115.0376
105.3896, 115.4282
105.8717, 111.1488
106.3538, 107.5903
106.8359, 106.4488
107.3180, 106.2141
107.8002, 111.0977
108.2823, 122.7057
108.7644, 139.6944
109.2465, 157.6739
109.7286, 177.3127
110.2107, 197.2117
110.6929, 217.1265
111.1750, 237.4612
111.6571, 257.0847
112.1392, 274.4805
112.6213, 290.2766
113.1034, 309.6410
113.5856, 331.4588
114.0677, 358.4459
114.5498, 392.2651
115.0319, 433.6812
115.5140, 481.7870
115.9961, 537.6812
116.4783, 601.2548
116.9604, 666.4720
117.4425, 732.6974
117.9246, 799.7435
118.4067, 866.8239
118.8888, 937.8104
119.3710, 1006.412
119.8531, 1069.772
120.3352, 1127.571
120.8173, 1179.212
121.2994, 1215.664
121.7815, 1245.646
122.2637, 1284.500
122.7458, 1346.004
123.2279, 1416.329
123.7100, 1481.053
124.1921, 1537.271
124.6742, 1593.698
125.1564, 1658.095
125.6385, 1729.311
126.1206, 1804.024
126.6027, 1879.548
127.0848, 1956.797
127.5669, 2037.743
128.0491, 2124.236
128.5312, 2211.280
129.0133, 2292.231
129.4954, 2366.736
129.9775, 2438.299
130.4596, 2508.746
130.9418, 2577.615
131.4239, 2646.240
131.9060, 2716.073
132.3881, 2784.880
132.8702, 2844.543
133.3523, 2894.767
133.8345, 2943.639
134.3166, 3000.258
134.7987, 3064.962
135.2808, 3122.406
135.7629, 3167.514
136.2450, 3203.698
136.7272, 3245.892
137.2093, 3294.345
137.6914, 3348.653
138.1735, 3410.187
138.6556, 3480.088
139.1377, 3549.536
139.6199, 3617.700
140.1020, 3683.993
140.5841, 3745.650
141.0662, 3798.943
141.5483, 3851.628
142.0304, 3914.813
142.5126, 3993.387
142.9947, 4068.266
143.4768, 4118.937
143.9589, 4133.048
144.4410, 4154.735
144.9231, 4188.028
145.4053, 4226.171
145.8874, 4259.812
146.3695, 4289.094
146.8516, 4313.912
147.3337, 4332.939
147.8158, 4342.913
148.2980, 4356.835
148.7801, 4378.315
149.2622, 4403.184
149.7443, 4422.458
150.2264, 4430.611
150.7085, 4438.590
151.1907, 4450.051
151.6728, 4468.443
152.1549, 4484.710
152.6370, 4493.504
153.1191, 4499.676
153.6012, 4515.208
154.0834, 4556.128
154.5655, 4594.655
155.0476, 4618.821
155.5297, 4611.274
156.0118, 4610.395
156.4939, 4624.296
156.9761, 4649.440
157.4582, 4673.862
157.9403, 4699.767
158.4224, 4721.153
158.9045, 4734.259
159.3866, 4726.541
159.8688, 4724.059
160.3509, 4736.889
160.8330, 4762.105
161.3151, 4786.100
161.7972, 4805.372
162.2793, 4820.987
162.7615, 4833.734
163.2436, 4841.003
163.7257, 4848.206
164.2078, 4858.425
164.6899, 4871.115
165.1720, 4882.532
165.6541, 4887.814
166.1363, 4892.021
166.6184, 4900.138
167.1005, 4920.279
167.5826, 4939.675
168.0647, 4949.816
168.5468, 4951.216
169.0290, 4950.857
169.5111, 4948.565
169.9932, 4948.114
170.4753, 4954.550
170.9574, 4979.366
171.4395, 5005.674
171.9217, 5017.816
172.4038, 5015.825
172.8859, 5011.880
173.3680, 5016.357
173.8501, 5025.241
174.3322, 5031.500
174.8144, 5025.454
175.2965, 5018.373
175.7786, 5026.543
176.2607, 5050.677
176.7428, 5076.416
177.2249, 5091.173
177.7071, 5097.442
178.1892, 5101.740
178.6713, 5104.100
179.1534, 5107.033
179.6355, 5116.704
180.1176, 5134.199
180.5998, 5150.594
181.0819, 5153.225
181.5640, 5145.852
182.0461, 5142.169
182.5282, 5151.920
183.0103, 5169.612
183.4925, 5183.237
183.9746, 5192.244
184.4567, 5197.492
184.9388, 5197.915
185.4209, 5194.466
185.9030, 5192.752
186.3852, 5196.470
186.8673, 5204.270
187.3494, 5212.334
187.8315, 5221.161
188.3136, 5228.103
188.7957, 5227.289
189.2779, 5219.466
189.7600, 5214.417
190.2421, 5218.323
190.7242, 5229.769
191.2063, 5242.000
191.6884, 5255.784
192.1706, 5267.394
192.6527, 5269.655
193.1348, 5262.333
193.6169, 5254.520
194.0990, 5249.740
194.5811, 5247.966
195.0633, 5249.614
195.5454, 5254.914
196.0275, 5263.042
196.5096, 5274.637
196.9917, 5290.536
197.4738, 5301.478
197.9560, 5299.551
198.4381, 5284.789
198.9202, 5276.773
199.4023, 5277.178
199.8844, 5283.829
200.3665, 5294.266
200.8487, 5309.742
201.3308, 5322.494
201.8129, 5326.993
202.2950, 5322.413
202.7771, 5321.188
203.2592, 5324.216
203.7414, 5330.305
204.2235, 5337.410
204.7056, 5345.805
205.1877, 5353.639
205.6698, 5359.989
206.1519, 5364.736
206.6341, 5368.054
207.1162, 5369.382
207.5983, 5369.603
208.0804, 5370.386
208.5625, 5371.317
209.0446, 5373.922
209.5268, 5379.489
210.0089, 5388.867
210.4910, 5397.417
210.9731, 5405.376
211.4552, 5412.329
211.9373, 5416.439
212.4195, 5416.163
212.9016, 5417.099
213.3837, 5422.768
213.8658, 5435.375
214.3479, 5444.472
214.8300, 5448.280
215.3121, 5449.423
215.7943, 5454.609
216.2764, 5465.210
216.7585, 5476.690
217.2406, 5487.705
217.7227, 5499.151
218.2048, 5505.899
218.6870, 5504.756
219.1691, 5500.323
219.6512, 5504.594
220.1333, 5523.082
220.6154, 5540.037
221.0975, 5548.421
221.5797, 5544.870
222.0618, 5542.208
222.5439, 5539.880
223.0260, 5538.839
223.5081, 5541.685
223.9902, 5550.883
224.4724, 5559.976
224.9545, 5565.853
225.4366, 5566.879
225.9187, 5570.152
226.4008, 5576.541
226.8829, 5584.911
227.3651, 5592.642
227.8472, 5598.718
228.3293, 5605.972
228.8114, 5615.795
229.2935, 5629.251
229.7757, 5641.890
230.2578, 5654.544
230.7399, 5665.715
231.2220, 5671.919
231.7041, 5668.958
232.1862, 5667.433
232.6684, 5671.049
233.1505, 5680.628
233.6326, 5692.780
234.1147, 5709.137
234.5968, 5727.167
235.0789, 5741.853
235.5611, 5751.612
236.0432, 5760.646
236.5253, 5771.209
237.0074, 5785.125
237.4895, 5792.938
237.9716, 5790.718
238.4538, 5784.864
238.9359, 5786.025
239.4180, 5798.272
239.9001, 5810.989
240.3822, 5820.405
240.8643, 5824.862
241.3465, 5833.465
241.8286, 5847.361
242.3107, 5864.551
242.7928, 5882.841
243.2749, 5904.993
243.7570, 5923.326
244.2392, 5934.954
244.7213, 5938.662
245.2034, 5943.071
245.6855, 5948.079
246.1676, 5953.945
246.6497, 5960.874
247.1319, 5968.343
247.6140, 5978.068
248.0961, 5991.118
248.5782, 6008.083
249.0603, 6023.881
249.5424, 6037.745
250.0246, 6051.442
250.5067, 6067.434
250.9888, 6087.683
251.4709, 6106.273
251.9530, 6120.641
252.4351, 6130.444
252.9173, 6145.735
253.3994, 6169.591
253.8815, 6195.368
254.3636, 6216.680
254.8457, 6231.812
255.3278, 6244.972
255.8100, 6254.429
256.2921, 6260.534
256.7742, 6277.901
257.2563, 6312.913
257.7384, 6350.523
258.2205, 6377.191
258.7026, 6389.224
259.1848, 6399.961
259.6669, 6409.675
260.1490, 6419.284
260.6311, 6436.493
261.1132, 6465.449
261.5953, 6495.442
262.0775, 6516.890
262.5596, 6525.170
263.0417, 6539.286
263.5238, 6562.317
264.0059, 6592.781
264.4880, 6625.666
264.9702, 6662.554
265.4523, 6698.099
265.9344, 6728.478
266.4165, 6752.758
266.8986, 6775.376
267.3807, 6795.006
267.8629, 6813.957
268.3450, 6841.472
268.8271, 6881.841
269.3092, 6921.140
269.7913, 6950.970
270.2734, 6968.199
270.7556, 6991.740
271.2377, 7024.895
271.7198, 7063.481
272.2019, 7096.565
272.6840, 7121.533
273.1661, 7150.560
273.6483, 7192.218
274.1304, 7248.858
274.6125, 7296.616
275.0946, 7331.813
275.5767, 7361.845
276.0588, 7401.387
276.5410, 7452.521
277.0231, 7500.715
277.5052, 7535.729
277.9873, 7557.169
278.4694, 7589.731
278.9515, 7635.314
279.4337, 7687.413
279.9158, 7738.453
280.3979, 7788.373
280.8800, 7835.193
281.3621, 7875.925
281.8442, 7911.642
282.3264, 7951.657
282.8085, 7997.392
283.2906, 8043.075
283.7727, 8081.939
284.2548, 8114.056
284.7369, 8143.697
285.2191, 8170.816
285.7012, 8196.576
286.1833, 8227.752
286.6654, 8265.149
287.1475, 8302.915
287.6296, 8333.018
288.1118, 8356.601
288.5939, 8384.876
289.0760, 8422.249
289.5581, 8464.367
290.0402, 8501.561
290.5223, 8533.824
291.0045, 8563.514
291.4866, 8590.696
291.9687, 8616.464
292.4508, 8647.489
292.9329, 8688.145
293.4150, 8729.839
293.8972, 8757.131
294.3793, 8771.146
294.8614, 8784.176
295.3435, 8803.573
295.8256, 8828.295
296.3077, 8855.863
296.7899, 8886.400
297.2720, 8918.027
297.7541, 8949.035
298.2362, 8978.878
298.7183, 9005.667
299.2004, 9026.987
299.6826, 9044.608
300.1647, 9061.786
300.6468, 9078.361
301.1289, 9095.525
301.6110, 9115.396
302.0931, 9136.846
302.5753, 9157.673
303.0574, 9177.430
303.5395, 9195.506
304.0216, 9209.087
304.5037, 9218.127
304.9858, 9229.045
305.4680, 9254.559
305.9501, 9284.848
306.4322, 9302.756
306.9143, 9289.554
307.3964, 9270.859
307.8785, 9274.431
308.3607, 9297.839
308.8428, 9317.195
309.3249, 9315.054
309.8070, 9300.654
310.2891, 9284.356
310.7712, 9266.130
311.2534, 9250.139
311.7355, 9242.565
312.2176, 9240.478
312.6997, 9233.456
313.1818, 9212.284
313.6639, 9185.904
314.1461, 9161.779
314.6282, 9143.901
315.1103, 9123.243
315.5924, 9093.604
316.0745, 9058.070
316.5566, 9022.528
317.0388, 8992.099
317.5209, 8960.831
318.0030, 8926.369
318.4851, 8889.745
318.9672, 8844.791
319.4493, 8785.008
319.9315, 8717.209
320.4136, 8649.510
320.8957, 8580.259
321.3778, 8515.802
321.8599, 8458.940
322.3420, 8410.316
322.8242, 8362.939
323.3063, 8319.586
323.7884, 8274.794
324.2705, 8223.802
324.7526, 8157.371
325.2347, 8093.176
325.7169, 8036.577
326.1990, 7986.599
326.6811, 7937.090
327.1632, 7887.725
327.6453, 7838.624
328.1274, 7789.888
328.6096, 7741.172
329.0917, 7692.906
329.5738, 7643.451
330.0559, 7594.663
330.5380, 7551.959
331.0201, 7520.034
331.5023, 7489.125
331.9844, 7454.664
332.4665, 7413.347
332.9486, 7377.366
333.4307, 7348.481
333.9128, 7324.153
334.3950, 7300.849
334.8771, 7278.455
335.3592, 7256.775
335.8413, 7235.252
336.3234, 7213.292
336.8055, 7196.442
337.2877, 7186.216
337.7698, 7179.173
338.2519, 7172.132
338.7340, 7165.779
339.2161, 7156.342
339.6982, 7140.411
340.1803, 7120.384
340.6624, 7114.395
341.1446, 7126.345
341.6267, 7139.345
342.1088, 7138.743
342.5909, 7123.986
343.0730, 7112.889
343.5551, 7108.521
344.0373, 7108.377
344.5194, 7105.966
345.0015, 7100.984
345.4836, 7099.194
345.9657, 7104.274
346.4478, 7115.591
346.9300, 7131.314
347.4121, 7152.885
347.8942, 7173.792
348.3763, 7183.940
348.8584, 7184.957
349.3405, 7186.469
349.8227, 7195.735
350.3048, 7208.017
350.7869, 7213.563
351.2690, 7212.426
351.7511, 7206.319
352.2332, 7195.025
352.7154, 7180.018
353.1975, 7164.622
353.6796, 7151.684
354.1617, 7136.833
354.6438, 7114.663
355.1259, 7085.741
355.6081, 7053.736
356.0902, 7021.323
356.5723, 6986.411
357.0544, 6946.030
357.5365, 6899.030
358.0186, 6848.462
358.5008, 6794.516
358.9829, 6738.533
359.4650, 6683.483
359.9471, 6628.374
360.4292, 6576.376
360.9113, 6530.706
361.3935, 6493.102
361.8756, 6454.866
362.3577, 6409.970
362.8398, 6363.681
363.3219, 6321.974
363.8040, 6291.762
364.2862, 6261.471
364.7683, 6226.414
365.2504, 6186.761
365.7325, 6149.704
366.2146, 6115.810
366.6967, 6085.233
367.1789, 6058.068
367.6610, 6034.217
368.1431, 6013.903
368.6252, 6001.470
369.1073, 5993.013
369.5894, 5976.396
370.0716, 5941.502
370.5537, 5908.697
371.0358, 5885.527
371.5179, 5875.808
372.0000, 5863.796
372.4821, 5847.546
372.9643, 5830.383
373.4464, 5817.226
373.9285, 5810.563
374.4106, 5802.561
374.8927, 5790.340
375.3748, 5774.076
375.8570, 5761.722
376.3391, 5753.849
376.8212, 5748.294
377.3033, 5744.228
377.7854, 5742.310
378.2675, 5736.459
378.7497, 5724.360
379.2318, 5709.245
379.7139, 5699.985
380.1960, 5697.258
380.6781, 5693.796
381.1602, 5683.284
381.6424, 5667.543
382.1245, 5659.212
382.6066, 5660.137
383.0887, 5663.142
383.5708, 5657.382
384.0529, 5644.982
384.5351, 5635.938
385.0172, 5637.789
385.4993, 5643.944
385.9814, 5641.544
386.4635, 5630.986
386.9456, 5620.567
387.4278, 5617.622
387.9099, 5619.177
388.3920, 5620.457
388.8741, 5620.007
389.3562, 5619.268
389.8383, 5619.994
390.3205, 5621.488
390.8026, 5621.828
391.2847, 5617.233
391.7668, 5612.829
392.2489, 5613.391
392.7310, 5620.536
393.2132, 5626.972
393.6953, 5631.700
394.1774, 5632.902
394.6595, 5628.329
395.1416, 5607.183
395.6237, 5589.920
396.1059, 5586.185
396.5880, 5595.232
397.0701, 5602.054
397.5522, 5601.722
398.0343, 5599.510
398.5164, 5598.554
398.9986, 5601.885
399.4807, 5602.930
399.9628, 5598.763
400.4449, 5592.424
400.9270, 5591.251
401.4091, 5600.865
401.8913, 5608.356
402.3734, 5608.368
402.8555, 5598.611
403.3376, 5594.520
403.8197, 5597.868
404.3018, 5604.738
404.7840, 5612.221
405.2661, 5622.214
405.7482, 5625.353
406.2303, 5617.177
406.7124, 5601.303
407.1945, 5593.503
407.6767, 5594.920
408.1588, 5598.416
408.6409, 5598.964
409.1230, 5596.804
409.6051, 5596.792
410.0872, 5600.147
410.5694, 5603.284
411.0515, 5599.201
411.5336, 5589.175
412.0157, 5581.115
412.4978, 5581.314
412.9799, 5585.125
413.4621, 5581.466
413.9442, 5570.564
414.4263, 5561.397
414.9084, 5564.191
415.3905, 5572.949
415.8727, 5577.915
416.3548, 5575.739
416.8369, 5570.519
417.3190, 5563.978
417.8011, 5556.966
418.2832, 5551.613
418.7654, 5548.856
419.2475, 5548.190
419.7296, 5550.025
420.2117, 5554.897
420.6938, 5558.643
421.1759, 5558.519
421.6581, 5556.780
422.1402, 5555.822
422.6223, 5556.245
423.1044, 5557.393
423.5865, 5560.311
424.0686, 5564.437
424.5508, 5565.692
425.0329, 5560.428
425.5150, 5554.881
425.9971, 5552.017
426.4792, 5553.888
426.9613, 5554.290
427.4435, 5552.420
427.9256, 5549.626
428.4077, 5547.808
428.8898, 5546.505
429.3719, 5547.489
429.8540, 5552.720
430.3362, 5561.557
430.8183, 5563.466
431.3004, 5556.158
431.7825, 5548.450
432.2646, 5549.308
432.7467, 5558.745
433.2289, 5563.167
433.7110, 5559.284
434.1931, 5551.931
434.6752, 5550.810
435.1573, 5555.257
435.6394, 5558.311
436.1216, 5554.081
436.6036, 5546.233
437.0858, 5543.452
437.5679, 5545.960
438.0500, 5549.763
438.5321, 5552.395
439.0142, 5553.754
439.4963, 5553.748
439.9785, 5552.811
440.4606, 5549.926
440.9427, 5540.284
441.4248, 5527.399
441.9069, 5521.757
442.3890, 5539.038
442.8712, 5557.775
443.3533, 5561.883
443.8354, 5546.008
444.3175, 5533.848
444.7996, 5536.736
445.2817, 5545.911
445.7639, 5552.217
446.2460, 5551.891
446.7281, 5550.836
447.2102, 5550.187
447.6923, 5549.680
448.1744, 5547.626
448.6566, 5540.475
449.1387, 5535.305
449.6208, 5535.562
450.1029, 5543.220
450.5850, 5550.383
451.0671, 5557.471
451.5493, 5563.521
452.0314, 5566.975
452.5135, 5567.466
452.9956, 5567.114
453.4777, 5566.917
453.9598, 5566.310
454.4420, 5561.661
454.9241, 5552.565
455.4062, 5543.815
455.8883, 5538.789
456.3704, 5537.153
456.8525, 5538.398
457.3347, 5543.289
457.8168, 5547.907
458.2989, 5546.334
458.7810, 5540.286
459.2631, 5534.843
459.7452, 5532.915
460.2274, 5532.269
460.7095, 5529.571
461.1916, 5525.295
461.6737, 5523.367
462.1558, 5526.580
462.6379, 5532.989
463.1201, 5541.888
463.6022, 5556.363
464.0843, 5565.659
464.5664, 5562.034
465.0485, 5551.054
465.5306, 5541.620
466.0128, 5535.483
466.4949, 5531.431
466.9770, 5530.401
467.4591, 5532.529
467.9412, 5531.931
468.4233, 5524.527
468.9055, 5517.865
469.3876, 5516.778
469.8697, 5525.828
470.3518, 5530.374
470.8339, 5528.229
471.3160, 5522.948
471.7982, 5520.886
472.2803, 5522.331
472.7624, 5526.280
473.2445, 5533.995
473.7266, 5544.129
474.2087, 5548.042
474.6909, 5545.296
475.1730, 5539.683
475.6551, 5531.496
476.1372, 5522.413
476.6193, 5520.557
477.1014, 5528.396
477.5836, 5539.538
478.0657, 5547.624
478.5478, 5552.771
479.0299, 5555.292
479.5120, 5553.708
479.9941, 5550.704
480.4763, 5548.052
480.9584, 5545.953
481.4405, 5545.819
481.9226, 5551.534
482.4047, 5557.800
482.8868, 5560.165
483.3690, 5556.281
483.8511, 5551.564
484.3332, 5545.729
484.8153, 5540.423
485.2974, 5538.183
485.7795, 5545.557
486.2617, 5549.423
486.7438, 5543.450
487.2259, 5527.993
487.7080, 5524.354
488.1901, 5539.602
488.6722, 5557.461
489.1544, 5568.719
489.6365, 5572.454
490.1186, 5571.915
490.6007, 5564.860
491.0828, 5557.011
491.5649, 5560.070
492.0471, 5574.757
492.5292, 5582.755
493.0113, 5574.315
493.4934, 5556.847
493.9755, 5550.938
494.4576, 5556.175
494.9398, 5563.578
495.4219, 5566.529
495.9040, 5567.059
496.3861, 5569.085
496.8682, 5573.428
497.3503, 5577.305
497.8325, 5579.192
498.3146, 5578.999
498.7967, 5576.630
499.2788, 5570.579
499.7609, 5563.869
500.2430, 5556.011
500.7252, 5548.244
501.2073, 5545.575
501.6894, 5557.405
502.1715, 5568.495
502.6536, 5570.577
503.1357, 5557.987
503.6179, 5550.915
504.1000, 5553.991
504.5821, 5560.065
505.0642, 5561.705
505.5463, 5555.779
506.0284, 5552.348
506.5106, 5553.996
506.9927, 5558.595
507.4748, 5558.069
507.9569, 5550.751
508.4390, 5545.931
508.9211, 5549.004
509.4033, 5559.075
509.8854, 5570.674
510.3675, 5584.404
510.8496, 5594.375
511.3317, 5590.064
511.8138, 5577.240
512.2960, 5572.766
512.7781, 5584.048
513.2602, 5597.120
513.7423, 5594.749
514.2244, 5582.580
514.7065, 5574.337
515.1887, 5581.808
515.6708, 5591.376
516.1529, 5593.364
516.6350, 5587.688
517.1171, 5582.882
517.5992, 5582.179
518.0814, 5583.237
518.5635, 5584.484
519.0456, 5584.579
519.5277, 5586.957
520.0098, 5595.541
520.4919, 5604.892
520.9741, 5605.918
521.4562, 5591.930
521.9383, 5583.147
522.4204, 5585.529
522.9025, 5597.058
523.3846, 5605.270
523.8668, 5609.703
524.3489, 5612.278
524.8310, 5614.574
525.3131, 5616.282
525.7952, 5614.248
526.2773, 5607.836
526.7595, 5600.551
527.2416, 5595.966
527.7237, 5593.729
528.2058, 5592.985
528.6879, 5594.009
529.1700, 5595.811
529.6522, 5597.748
530.1343, 5599.778
530.6164, 5601.755
531.0985, 5608.271
531.5806, 5611.115
532.0627, 5601.293
532.5449, 5577.190
533.0270, 5561.636
533.5091, 5565.030
533.9912, 5576.718
534.4733, 5589.266
534.9554, 5606.924
535.4376, 5618.552
535.9197, 5622.078
536.4018, 5620.417
536.8839, 5618.030
537.3660, 5613.991
537.8481, 5611.729
538.3303, 5613.456
538.8124, 5617.636
539.2945, 5614.067
539.7766, 5601.491
540.2587, 5591.899
540.7408, 5596.673
541.2230, 5611.651
541.7051, 5621.339
542.1872, 5624.524
542.6693, 5624.162
543.1514, 5622.352
543.6335, 5619.290
544.1157, 5614.776
544.5978, 5605.493
545.0799, 5599.473
545.5620, 5605.054
546.0441, 5618.419
546.5262, 5630.128
547.0084, 5637.139
547.4905, 5641.236
547.9726, 5642.525
548.4547, 5640.758
548.9368, 5639.238
549.4189, 5635.960
549.9011, 5634.766
550.3832, 5638.707
550.8653, 5653.149
551.3474, 5659.260
551.8295, 5653.503
552.3116, 5643.073
552.7938, 5638.614
553.2759, 5640.631
553.7580, 5643.795
554.2401, 5647.658
554.7222, 5650.979
555.2043, 5648.798
555.6865, 5641.822
556.1686, 5637.431
556.6507, 5644.444
557.1328, 5655.290
557.6149, 5657.311
558.0970, 5649.818
558.5792, 5642.252
559.0613, 5644.327
559.5434, 5648.375
560.0255, 5645.471
560.5076, 5625.708
560.9897, 5613.272
561.4719, 5623.957
561.9540, 5645.396
562.4361, 5656.853
562.9182, 5642.218
563.4003, 5632.696
563.8824, 5635.789
564.3646, 5649.417
564.8467, 5659.404
565.3288, 5665.172
565.8109, 5668.247
566.2930, 5667.920
566.7751, 5663.850
567.2573, 5666.224
567.7394, 5676.597
568.2215, 5686.111
568.7036, 5682.273
569.1857, 5669.223
569.6678, 5663.383
570.1500, 5670.556
570.6321, 5680.239
571.1142, 5680.038
571.5963, 5673.133
572.0784, 5666.666
572.5605, 5664.513
573.0427, 5663.220
573.5248, 5660.918
574.0069, 5657.733
574.4890, 5654.308
574.9711, 5649.262
575.4532, 5645.493
575.9354, 5644.765
576.4175, 5648.003
576.8996, 5651.563
577.3817, 5656.962
577.8638, 5661.166
578.3459, 5660.796
578.8281, 5654.260
579.3102, 5649.342
579.7923, 5646.682
580.2744, 5646.176
580.7565, 5649.004
581.2386, 5654.848
581.7208, 5658.471
582.2029, 5655.655
582.6850, 5650.931
583.1671, 5654.643
583.6492, 5665.144
584.1313, 5672.583
584.6134, 5664.813
585.0955, 5654.821
585.5776, 5657.717
586.0598, 5676.709
