##NAMES=Manganogrunerite
##RRUFFID=R060378
##IDEAL CHEMISTRY=[box]Mn^2+^_2_Fe^2+^_5_Si_8_O_22_(OH)_2_
##LOCALITY=Brunsjogruvan (Brunsjo mine), near Hallefors, Orebro, Sweden
##OWNER=RRUFF
##SOURCE=Michael Scott
##DESCRIPTION=Brown parallel fibers
##STATUS=The identification of this mineral has been confirmed by X-ray diffraction and chemical analysis
##URL=rruff.info/R060378
##MEASURED CHEMISTRY=Mn^2+^_2.00_(Fe^2+^_3.30_Mg_1.60_Ca_0.10_)_Î£=5_Si_8.00_O_22_(OH)_2_
132.5496, 194.5133
133.0317, 195.0202
133.5138, 196.2001
133.9959, 197.4366
134.4781, 199.1211
134.9602, 200.1659
135.4423, 199.8484
135.9244, 198.9009
136.4065, 198.3299
136.8886, 198.8250
137.3708, 200.2762
137.8529, 201.1067
138.3350, 200.6838
138.8171, 200.2305
139.2992, 199.9366
139.7813, 199.8332
140.2635, 199.9254
140.7456, 200.2483
141.2277, 200.8540
141.7098, 201.1959
142.1919, 201.1333
142.6740, 200.9853
143.1561, 200.8698
143.6383, 200.8164
144.1204, 200.8612
144.6025, 201.0719
145.0846, 201.4868
145.5667, 201.8007
146.0488, 201.9349
146.5310, 201.9936
147.0131, 202.1075
147.4952, 202.3152
147.9773, 202.4971
148.4594, 202.3244
148.9415, 201.8752
149.4237, 201.8299
149.9058, 202.6432
150.3879, 204.0662
150.8700, 205.3953
151.3521, 206.4874
151.8342, 207.5186
152.3164, 208.8945
152.7985, 210.5139
153.2806, 211.6380
153.7627, 211.3388
154.2448, 209.5747
154.7269, 208.4740
155.2091, 208.9846
155.6912, 209.7686
156.1733, 210.3210
156.6554, 210.5404
157.1375, 210.4023
157.6196, 209.6809
158.1018, 207.8886
158.5839, 206.9850
159.0660, 207.9453
159.5481, 209.1134
160.0302, 209.3743
160.5123, 208.4875
160.9945, 207.0804
161.4766, 206.2863
161.9587, 206.8359
162.4408, 206.9089
162.9229, 206.2375
163.4050, 205.2489
163.8871, 204.1626
164.3693, 203.0711
164.8514, 202.2290
165.3335, 202.3131
165.8156, 204.2973
166.2977, 205.8446
166.7798, 206.6867
167.2620, 206.9566
167.7441, 206.6601
168.2262, 205.6474
168.7083, 204.4211
169.1904, 204.5445
169.6725, 206.7776
170.1547, 208.6836
170.6368, 208.8848
171.1189, 207.8677
171.6010, 207.3465
172.0831, 208.2926
172.5652, 210.0622
173.0474, 211.2416
173.5295, 211.6270
174.0116, 211.8130
174.4937, 212.3437
174.9758, 213.2191
175.4579, 213.7565
175.9401, 213.1542
176.4222, 212.3102
176.9043, 212.2982
177.3864, 213.5336
177.8685, 215.1082
178.3506, 215.7645
178.8328, 215.1893
179.3149, 214.8215
179.7970, 215.8182
180.2791, 216.9417
180.7612, 216.9716
181.2433, 215.3618
181.7255, 212.8604
182.2076, 211.0467
182.6897, 210.1781
183.1718, 209.5988
183.6539, 209.3018
184.1360, 209.1067
184.6181, 208.8095
185.1003, 208.3025
185.5824, 207.6778
186.0645, 207.2988
186.5466, 207.9379
187.0287, 207.8239
187.5108, 206.2091
187.9930, 203.8712
188.4751, 201.7474
188.9572, 200.3679
189.4393, 199.6384
189.9214, 199.0741
190.4035, 199.0247
190.8857, 198.7566
191.3678, 198.0671
191.8499, 197.0733
192.3320, 195.8988
192.8141, 194.5544
193.2962, 193.1408
193.7784, 192.4847
194.2605, 192.9705
194.7426, 193.5953
195.2247, 194.1636
195.7068, 194.6213
196.1889, 194.8860
196.6711, 194.9417
197.1532, 194.7194
197.6353, 194.0454
198.1174, 192.1841
198.5995, 190.5776
199.0816, 190.2447
199.5638, 191.0144
200.0459, 191.7270
200.5280, 191.6386
201.0101, 191.0103
201.4922, 190.7153
201.9743, 191.1893
202.4565, 191.5937
202.9386, 191.0889
203.4207, 189.6503
203.9028, 188.1807
204.3849, 186.9818
204.8670, 186.1386
205.3492, 185.8713
205.8313, 186.5349
206.3134, 187.3824
206.7955, 187.3945
207.2776, 186.3859
207.7597, 185.4027
208.2419, 184.8743
208.7240, 184.6323
209.2061, 184.6314
209.6882, 184.9651
210.1703, 185.3115
210.6524, 185.0059
211.1346, 183.7044
211.6167, 182.6456
212.0988, 182.3004
212.5809, 182.3231
213.0630, 182.4045
213.5451, 182.4214
214.0273, 182.4394
214.5094, 182.6522
214.9915, 183.3229
215.4736, 183.6921
215.9557, 183.6797
216.4378, 183.3306
216.9200, 182.5614
217.4021, 181.3183
217.8842, 179.8877
218.3663, 179.1367
218.8484, 179.8975
219.3305, 180.1445
219.8127, 179.1302
220.2948, 177.7316
220.7769, 176.9211
221.2590, 177.1419
221.7411, 178.0400
222.2232, 178.5668
222.7054, 178.2125
223.1875, 178.0772
223.6696, 178.7005
224.1517, 179.4110
224.6338, 179.2421
225.1159, 177.7539
225.5980, 175.5670
226.0802, 174.4927
226.5623, 176.0066
227.0444, 176.9061
227.5265, 176.5140
228.0086, 175.5076
228.4907, 174.7841
228.9729, 174.7330
229.4550, 175.0498
229.9371, 174.9263
230.4192, 173.8602
230.9013, 173.1599
231.3834, 173.2966
231.8656, 173.8614
232.3477, 174.3143
232.8298, 174.4766
233.3119, 174.3296
233.7940, 173.6881
234.2761, 172.2303
234.7583, 171.1615
235.2404, 170.9482
235.7225, 171.2952
236.2046, 171.7715
236.6867, 172.3176
237.1688, 172.7382
237.6510, 172.5718
238.1331, 171.7289
238.6152, 171.0220
239.0973, 170.8317
239.5794, 170.9620
240.0615, 171.0099
240.5437, 170.8757
241.0258, 170.6095
241.5079, 170.2088
241.9900, 169.6655
242.4721, 169.2643
242.9542, 169.0894
243.4364, 169.1464
243.9185, 169.5280
244.4006, 170.4277
244.8827, 171.3289
245.3648, 171.6834
245.8469, 171.5571
246.3290, 171.3375
246.8112, 171.2177
247.2933, 171.1510
247.7754, 170.9556
248.2575, 170.4930
248.7396, 170.1027
249.2217, 170.0271
249.7039, 170.2207
250.1860, 170.5600
250.6681, 171.3267
251.1502, 172.2470
251.6323, 172.1617
252.1144, 170.3583
252.5966, 168.6246
253.0787, 168.1221
253.5608, 168.4749
254.0429, 168.8462
254.5250, 168.7620
255.0071, 168.3292
255.4893, 167.9290
255.9714, 167.4612
256.4535, 167.2169
256.9356, 167.4944
257.4177, 168.0190
257.8998, 168.3284
258.3820, 168.1029
258.8641, 167.5103
259.3462, 167.1249
259.8283, 166.9431
260.3104, 167.0108
260.7925, 167.5280
261.2747, 168.2051
261.7568, 168.6922
262.2389, 168.8437
262.7210, 168.6540
263.2031, 168.0108
263.6852, 166.3528
264.1674, 165.2301
264.6495, 165.1801
265.1316, 165.6851
265.6137, 166.2633
266.0958, 166.7189
266.5779, 167.0368
267.0601, 167.1463
267.5422, 166.8592
268.0243, 166.7037
268.5064, 166.7775
268.9885, 166.9817
269.4706, 167.2731
269.9528, 167.6296
270.4349, 167.9715
270.9170, 168.1262
271.3991, 167.9451
271.8812, 167.8661
272.3633, 167.8582
272.8455, 167.9810
273.3276, 168.4040
273.8097, 169.1178
274.2918, 169.8103
274.7739, 169.9668
275.2560, 169.2408
275.7382, 168.6989
276.2202, 168.4864
276.7024, 168.3086
277.1845, 168.0002
277.6666, 167.5268
278.1487, 166.9174
278.6308, 166.1273
279.1129, 164.8927
279.5951, 164.4458
280.0772, 165.2444
280.5593, 166.2785
281.0414, 167.1995
281.5235, 167.8908
282.0056, 168.2679
282.4878, 168.2268
282.9699, 167.7149
283.4520, 167.1394
283.9341, 165.9900
284.4162, 165.2645
284.8983, 165.7341
285.3805, 167.0292
285.8626, 168.1287
286.3447, 168.2006
286.8268, 167.2692
287.3089, 166.7900
287.7910, 167.0433
288.2732, 167.4057
288.7553, 167.8226
289.2374, 168.2153
289.7195, 168.4968
290.2016, 168.6276
290.6837, 168.5811
291.1659, 168.1816
291.6480, 166.8114
292.1301, 165.8127
292.6122, 165.4281
293.0943, 165.5403
293.5764, 166.1490
294.0586, 167.2842
294.5407, 168.5605
295.0228, 168.9336
295.5049, 166.9397
295.9870, 165.8171
296.4691, 166.4404
296.9513, 167.6624
297.4334, 168.2469
297.9155, 167.7973
298.3976, 166.7843
298.8797, 165.9662
299.3618, 165.3086
299.8440, 164.9846
300.3261, 165.2993
300.8082, 165.7509
301.2903, 165.8259
301.7724, 165.4741
302.2545, 165.1892
302.7367, 165.6277
303.2188, 167.1487
303.7009, 167.9338
304.1830, 167.6031
304.6651, 166.9274
305.1472, 166.2253
305.6294, 165.5935
306.1115, 165.1341
306.5936, 164.9223
307.0757, 164.9624
307.5578, 165.3452
308.0399, 166.4454
308.5221, 167.4555
309.0042, 168.1524
309.4863, 168.4841
309.9684, 168.3264
310.4505, 167.5462
310.9326, 166.2518
311.4148, 165.2217
311.8969, 164.3450
312.3790, 163.8030
312.8611, 163.7281
313.3432, 164.0036
313.8253, 164.5861
314.3075, 165.4996
314.7896, 166.4123
315.2717, 166.4314
315.7538, 164.4757
316.2359, 163.1892
316.7180, 163.1588
317.2001, 163.7317
317.6823, 164.3631
318.1644, 164.8723
318.6465, 165.0532
319.1286, 164.5351
319.6107, 162.7962
320.0928, 161.6180
320.5750, 160.9992
321.0571, 160.9110
321.5392, 161.6086
322.0213, 162.9798
322.5034, 164.3362
322.9855, 164.9758
323.4677, 164.7947
323.9498, 164.5516
324.4319, 163.9098
324.9140, 163.5188
325.3961, 163.8521
325.8782, 164.7467
326.3604, 165.6872
326.8425, 166.3293
327.3246, 166.6883
327.8067, 166.9339
328.2888, 167.3713
328.7709, 167.3796
329.2531, 166.4341
329.7352, 165.0189
330.2173, 163.8842
330.6994, 163.3834
331.1815, 163.3899
331.6636, 163.5664
332.1458, 164.0344
332.6279, 164.5372
333.1100, 165.0568
333.5921, 165.6105
334.0742, 166.2654
334.5563, 167.0216
335.0385, 167.7594
335.5206, 168.3180
336.0027, 168.7528
336.4848, 168.7959
336.9669, 168.0775
337.4490, 167.3002
337.9312, 166.8981
338.4133, 166.8965
338.8954, 167.1174
339.3775, 167.4390
339.8596, 167.8983
340.3417, 167.9854
340.8239, 167.2487
341.3060, 166.6583
341.7881, 166.5069
342.2702, 166.7664
342.7523, 167.4232
343.2344, 168.5194
343.7166, 169.8637
344.1987, 170.5108
344.6808, 169.7935
345.1629, 169.0794
345.6450, 168.2161
346.1271, 167.5289
346.6093, 167.4782
347.0914, 168.2084
347.5735, 169.3169
348.0556, 170.0384
348.5377, 170.2060
349.0198, 170.2582
349.5020, 170.0377
349.9841, 169.8376
350.4662, 169.9682
350.9483, 170.3934
351.4304, 170.7407
351.9125, 170.5647
352.3947, 169.7569
352.8768, 169.1574
353.3589, 168.9052
353.8410, 168.7212
354.3231, 168.5276
354.8052, 168.3266
355.2874, 168.2009
355.7695, 168.2667
356.2516, 168.3939
356.7337, 167.7769
357.2158, 165.3663
357.6979, 163.6498
358.1800, 163.0344
358.6621, 163.3024
359.1443, 164.5408
359.6264, 166.7763
360.1085, 169.0954
360.5906, 169.6864
361.0727, 167.6936
361.5548, 166.1935
362.0370, 165.6688
362.5191, 165.5646
363.0012, 165.7850
363.4833, 166.1968
363.9654, 166.3938
364.4475, 165.7319
364.9297, 164.1113
365.4118, 163.3522
365.8939, 164.4777
366.3760, 165.3646
366.8581, 164.8740
367.3402, 163.5294
367.8224, 162.4417
368.3045, 162.2775
368.7866, 162.8039
369.2687, 163.4493
369.7508, 164.4778
370.2329, 165.0082
370.7151, 164.2039
371.1972, 163.0562
371.6793, 162.6445
372.1614, 163.3537
372.6435, 164.2881
373.1256, 164.2381
373.6078, 163.1190
374.0899, 162.2656
374.5720, 162.2768
375.0541, 162.3506
375.5362, 161.7377
376.0183, 160.5100
376.5005, 159.5070
376.9826, 159.3735
377.4647, 159.9182
377.9468, 160.4511
378.4289, 160.9364
378.9110, 161.3974
379.3932, 161.9927
379.8753, 162.5694
380.3574, 162.7902
380.8395, 162.4393
381.3216, 161.7872
381.8037, 160.9742
382.2859, 159.9847
382.7680, 159.5079
383.2501, 160.1663
383.7322, 161.3207
384.2143, 161.9148
384.6964, 161.7999
385.1786, 161.5762
385.6607, 161.7669
386.1428, 162.1152
386.6249, 161.7241
387.1070, 160.1042
387.5891, 158.5127
388.0713, 158.7696
388.5534, 160.6807
389.0355, 162.1456
389.5176, 162.4650
389.9997, 162.3192
390.4818, 162.3564
390.9640, 162.6095
391.4461, 162.8524
391.9282, 162.9673
392.4103, 162.9317
392.8924, 162.6952
393.3745, 161.8260
393.8567, 161.2410
394.3388, 161.6393
394.8209, 162.5373
395.3030, 162.9080
395.7851, 162.3247
396.2672, 161.3502
396.7494, 161.0048
397.2315, 161.6770
397.7136, 162.0600
398.1957, 161.7218
398.6778, 161.3276
399.1599, 161.5599
399.6420, 162.3994
400.1241, 163.2240
400.6063, 163.4837
401.0884, 163.1658
401.5705, 162.7325
402.0526, 161.8473
402.5347, 161.2334
403.0168, 161.4338
403.4990, 161.9892
403.9811, 162.1329
404.4632, 161.4948
404.9453, 160.3564
405.4274, 159.3443
405.9095, 158.0996
406.3917, 157.6739
406.8738, 159.0485
407.3559, 160.4760
407.8380, 160.4368
408.3201, 158.9445
408.8022, 157.3503
409.2844, 157.0351
409.7665, 158.0863
410.2486, 159.0815
410.7307, 160.5637
411.2128, 161.3399
411.6949, 160.4930
412.1771, 158.8281
412.6592, 157.7221
413.1413, 157.9552
413.6234, 158.7618
414.1055, 158.2619
414.5876, 155.7273
415.0698, 154.1090
415.5519, 155.1234
416.0340, 156.6218
416.5161, 157.1152
416.9982, 156.4514
417.4803, 155.5575
417.9625, 155.0897
418.4446, 155.0362
418.9267, 155.3705
419.4088, 156.3120
419.8909, 157.2416
420.3730, 157.8617
420.8552, 158.1794
421.3373, 158.1246
421.8194, 157.3767
422.3015, 156.5546
422.7836, 156.6497
423.2657, 157.6438
423.7479, 158.0574
424.2300, 156.9316
424.7121, 155.2397
425.1942, 154.5703
425.6763, 155.1120
426.1584, 155.6651
426.6406, 155.7570
427.1227, 155.5165
427.6048, 155.0979
428.0869, 154.5100
428.5690, 153.9357
429.0511, 153.5474
429.5333, 153.3523
430.0154, 153.1601
430.4975, 152.9183
430.9796, 152.7277
431.4617, 152.7422
431.9438, 152.8581
432.4260, 152.7775
432.9081, 152.3367
433.3902, 151.7100
433.8723, 151.3012
434.3544, 151.0626
434.8365, 151.1537
435.3187, 151.8390
435.8008, 152.6833
436.2829, 153.4548
436.7650, 154.0529
437.2471, 154.3360
437.7292, 154.1808
438.2114, 153.5862
438.6935, 152.5529
439.1756, 149.5709
439.6577, 147.8422
440.1398, 149.2225
440.6219, 151.9388
441.1040, 153.5163
441.5862, 152.9131
442.0683, 151.2229
442.5504, 150.4508
443.0325, 150.9353
443.5146, 151.2967
443.9967, 151.2740
444.4789, 151.2224
444.9610, 151.3001
445.4431, 151.5127
445.9252, 151.8255
446.4073, 152.3490
446.8894, 152.9320
447.3716, 152.9009
447.8537, 151.9772
448.3358, 151.1327
448.8179, 150.8785
449.3000, 150.8883
449.7821, 150.8426
450.2643, 150.6765
450.7464, 150.4450
451.2285, 149.9854
451.7106, 149.4293
452.1927, 149.5888
452.6748, 150.9225
453.1570, 152.3853
453.6391, 152.8194
454.1212, 152.4310
454.6033, 152.0367
455.0854, 151.8421
455.5675, 151.7075
456.0497, 151.5808
456.5318, 151.4299
457.0139, 151.0115
457.4960, 150.0564
457.9781, 148.9343
458.4602, 148.7508
458.9424, 150.0321
459.4245, 150.9809
459.9066, 151.0897
460.3887, 150.8245
460.8708, 150.5393
461.3529, 150.3413
461.8351, 150.3858
462.3172, 150.8835
462.7993, 151.8589
463.2814, 152.4124
463.7635, 152.4004
464.2456, 152.1653
464.7278, 151.5747
465.2099, 150.8811
465.6920, 150.4306
466.1741, 150.3514
466.6562, 150.4725
467.1383, 150.5162
467.6205, 150.4635
468.1026, 150.3915
468.5847, 150.2750
469.0668, 150.1643
469.5489, 150.0318
470.0310, 149.9214
470.5132, 149.9304
470.9953, 150.1082
471.4774, 150.4554
471.9595, 151.0858
472.4416, 152.1750
472.9237, 152.8958
473.4059, 152.8776
473.8880, 152.3764
474.3701, 151.3377
474.8522, 149.7210
475.3343, 148.6041
475.8164, 149.0988
476.2986, 150.5785
476.7807, 151.4659
477.2628, 151.5147
477.7449, 151.3447
478.2270, 151.3839
478.7091, 151.5819
479.1913, 151.7128
479.6734, 151.7579
480.1555, 151.7410
480.6376, 151.5849
481.1197, 151.3840
481.6018, 151.3828
482.0839, 151.6737
482.5660, 152.0241
483.0482, 152.1094
483.5303, 151.8525
484.0124, 151.5715
484.4945, 151.4070
484.9766, 151.0902
485.4587, 150.1567
485.9409, 148.9537
486.4230, 148.3283
486.9051, 148.7791
487.3872, 149.9548
487.8693, 150.8578
488.3514, 151.4847
488.8336, 151.8310
489.3157, 151.9187
489.7978, 151.7597
490.2799, 151.0445
490.7620, 149.9863
491.2441, 149.4189
491.7263, 150.2584
492.2084, 152.1298
492.6905, 153.1926
493.1726, 153.2375
493.6547, 152.9720
494.1368, 152.4139
494.6190, 151.8232
495.1011, 151.4295
495.5832, 151.2605
496.0653, 151.3840
496.5474, 152.0871
497.0295, 153.1324
497.5117, 153.7953
497.9938, 153.9501
498.4759, 153.7873
498.9580, 153.2620
499.4401, 152.5009
499.9222, 152.1674
500.4044, 152.7189
500.8865, 153.2736
501.3686, 153.3458
501.8507, 153.0972
502.3328, 152.8404
502.8149, 152.6790
503.2971, 152.5919
503.7792, 152.5323
504.2613, 152.4403
504.7434, 152.6319
505.2255, 153.2742
505.7076, 154.0028
506.1898, 154.8248
506.6719, 155.5813
507.1540, 155.9839
507.6361, 155.8764
508.1182, 155.3981
508.6003, 154.7674
509.0825, 153.6808
509.5646, 153.2605
510.0467, 154.3345
510.5288, 155.4854
511.0109, 155.9414
511.4930, 155.7720
511.9752, 155.4570
512.4573, 155.1890
512.9394, 155.0421
513.4215, 155.4330
513.9036, 156.5727
514.3857, 156.8440
514.8679, 154.7915
515.3500, 152.1689
515.8321, 151.3639
516.3142, 152.6182
516.7963, 153.8783
517.2784, 154.2092
517.7606, 154.0547
518.2427, 153.9371
518.7248, 153.9210
519.2069, 154.1675
519.6890, 154.9518
520.1711, 156.0269
520.6533, 156.0969
521.1354, 153.8422
521.6175, 152.4962
522.0996, 153.3927
522.5817, 154.9834
523.0638, 155.7734
523.5460, 155.5030
524.0281, 154.6759
524.5102, 153.6562
524.9923, 152.4697
525.4744, 152.0511
525.9565, 153.3537
526.4387, 154.1871
526.9208, 153.6033
527.4029, 152.6218
527.8850, 152.4417
528.3671, 153.3299
528.8492, 154.3454
529.3314, 154.3684
529.8135, 153.5298
530.2956, 153.2099
530.7777, 153.8080
531.2598, 154.2552
531.7419, 153.5627
532.2241, 152.3490
532.7062, 151.6431
533.1883, 151.8761
533.6704, 152.1448
534.1525, 151.5823
534.6346, 150.6171
535.1168, 150.3410
535.5989, 151.0384
536.0810, 152.0547
536.5631, 152.8488
537.0452, 153.4126
537.5273, 153.3398
538.0095, 151.8844
538.4916, 150.6836
538.9737, 150.3925
539.4558, 150.7161
539.9379, 151.3321
540.4200, 152.0904
540.9022, 152.7040
541.3843, 152.6695
541.8664, 151.7761
542.3485, 151.4422
542.8306, 152.5739
543.3127, 153.2846
543.7948, 152.5754
544.2769, 151.1863
544.7590, 150.2727
545.2411, 150.2815
545.7233, 150.6689
546.2054, 150.7801
546.6875, 150.6384
547.1696, 150.6014
547.6517, 150.7669
548.1339, 150.9602
548.6160, 150.9585
549.0981, 150.8559
549.5802, 150.9462
550.0623, 151.5667
550.5444, 152.0915
551.0266, 152.0274
551.5087, 151.5714
551.9908, 151.0930
552.4729, 150.6910
552.9550, 150.5714
553.4371, 151.1190
553.9193, 152.6056
554.4014, 153.0579
554.8835, 151.6533
555.3656, 150.2851
555.8477, 149.3847
556.3298, 149.0359
556.8120, 149.5228
557.2941, 150.9011
557.7762, 152.3862
558.2583, 152.6985
558.7404, 151.6272
559.2225, 151.1830
559.7047, 152.0574
560.1868, 152.7219
560.6689, 152.1319
561.1510, 150.9570
561.6331, 150.4036
562.1152, 151.0232
562.5974, 151.8064
563.0795, 151.6324
563.5616, 150.8178
564.0437, 150.6829
564.5258, 151.6589
565.0079, 152.5277
565.4901, 152.0228
565.9722, 150.2152
566.4543, 149.0304
566.9364, 148.7630
567.4185, 148.7741
567.9006, 148.8107
568.3828, 148.9830
568.8649, 149.5547
569.3470, 150.5495
569.8291, 151.6162
570.3112, 152.3645
570.7933, 152.7957
571.2755, 152.9267
571.7576, 152.5028
572.2397, 152.0860
572.7218, 151.6991
573.2039, 151.4428
573.6860, 151.5144
574.1682, 151.9490
574.6503, 152.3408
575.1324, 152.1766
575.6145, 151.6171
576.0966, 151.4377
576.5787, 151.7840
577.0609, 152.1289
577.5430, 152.2390
578.0251, 152.0842
578.5072, 151.6029
578.9893, 150.5861
579.4714, 149.7119
579.9536, 149.1134
580.4357, 148.8653
580.9178, 149.2923
581.3999, 150.3009
581.8820, 151.0799
582.3641, 150.9392
582.8463, 150.1050
583.3284, 149.9180
583.8105, 151.3095
584.2926, 151.9908
584.7747, 151.2145
585.2568, 150.1434
585.7390, 149.5393
586.2211, 149.5041
586.7032, 149.8936
587.1853, 150.8088
587.6674, 151.9278
588.1495, 152.2349
588.6317, 151.5692
589.1138, 151.1076
589.5959, 151.3792
590.0780, 151.8770
590.5601, 151.9182
591.0422, 151.5125
591.5244, 151.3584
592.0065, 151.9987
592.4886, 152.7211
592.9707, 152.8301
593.4528, 152.4436
593.9349, 151.9883
594.4171, 151.6305
594.8992, 151.4707
595.3813, 151.7549
595.8634, 152.8667
596.3455, 153.2616
596.8276, 152.4993
597.3098, 151.5896
597.7919, 150.7646
598.2740, 150.1301
598.7561, 149.8385
599.2382, 149.9627
599.7203, 150.2444
600.2025, 150.2742
600.6846, 150.0669
601.1667, 150.1812
601.6488, 150.7825
602.1309, 151.4913
602.6130, 152.2227
603.0952, 152.8539
603.5773, 153.0571
604.0594, 152.6045
604.5415, 152.0788
605.0236, 151.6631
605.5057, 151.4065
605.9879, 151.5022
606.4700, 151.9338
606.9521, 152.2609
607.4342, 152.0794
607.9163, 151.4832
608.3984, 151.1895
608.8806, 151.3992
609.3627, 151.6521
609.8448, 151.8577
610.3269, 152.1270
610.8090, 152.6255
611.2911, 153.2980
611.7733, 153.8853
612.2554, 154.2228
612.7375, 154.3403
613.2196, 154.2453
613.7017, 153.9074
614.1838, 153.6768
614.6660, 153.6644
615.1481, 153.7962
615.6302, 154.0633
616.1123, 154.4529
616.5944, 154.6666
617.0765, 154.5358
617.5587, 154.3140
618.0408, 154.2533
618.5229, 154.2218
619.0050, 153.8082
619.4871, 152.8817
619.9692, 151.9378
620.4514, 151.6137
620.9335, 151.9209
621.4156, 152.7722
621.8977, 155.2572
622.3798, 156.9771
622.8619, 156.8877
623.3441, 155.9331
623.8262, 155.0059
624.3083, 154.3471
624.7904, 154.2076
625.2725, 155.3971
625.7546, 157.2106
626.2367, 157.2935
626.7188, 155.3353
627.2009, 154.0276
627.6830, 155.0733
