##NAMES=Manganosite
##RRUFFID=R060757
##IDEAL CHEMISTRY=Mn^2+^O
##LOCALITY=Nordmark, Sweden
##OWNER=RRUFF
##SOURCE=Michael Scott
##DESCRIPTION=Dark green crystals
##STATUS=The identification of this mineral is confirmed by single-crystal X-ray diffraction and chemical analysis.
##URL=rruff.info/R060757
##MEASURED CHEMISTRY=(Mn^2+^_0.99_Mg_0.01_)_Î£=1_O
165.400, 5702.634
165.882, 5660.035
166.365, 5655.154
166.847, 5661.582
167.329, 5651.324
167.811, 5626.933
168.293, 5605.674
168.775, 5594.992
169.257, 5592.762
169.739, 5594.888
170.221, 5603.087
170.704, 5611.458
171.186, 5617.347
171.668, 5620.508
172.150, 5615.443
172.632, 5596.772
173.114, 5567.661
173.596, 5534.846
174.078, 5490.625
174.561, 5457.575
175.043, 5461.581
175.525, 5495.857
176.007, 5522.738
176.489, 5515.604
176.971, 5483.255
177.453, 5460.330
177.935, 5453.686
178.417, 5452.985
178.900, 5449.076
179.382, 5443.039
179.864, 5440.445
180.346, 5452.105
180.828, 5472.289
181.310, 5472.253
181.792, 5439.469
182.274, 5399.014
182.757, 5368.626
183.239, 5346.272
183.721, 5323.894
184.203, 5292.737
184.685, 5255.833
185.167, 5232.218
185.649, 5236.902
186.131, 5235.550
186.613, 5203.841
187.096, 5148.767
187.578, 5092.986
188.060, 5053.619
188.542, 5027.363
189.024, 4992.471
189.506, 4941.949
189.988, 4891.661
190.470, 4854.265
190.952, 4824.856
191.435, 4788.705
191.917, 4726.645
192.399, 4646.056
192.881, 4591.272
193.363, 4570.828
193.845, 4566.836
194.327, 4577.138
194.809, 4595.052
195.292, 4604.936
195.774, 4592.754
196.256, 4563.585
196.738, 4542.889
197.220, 4532.781
197.702, 4529.136
198.184, 4535.931
198.666, 4546.759
199.148, 4548.580
199.631, 4530.778
200.113, 4498.008
200.595, 4469.142
201.077, 4446.042
201.559, 4424.367
202.041, 4402.334
202.523, 4380.231
203.005, 4358.928
203.488, 4339.660
203.970, 4321.219
204.452, 4298.411
204.934, 4265.194
205.416, 4238.620
205.898, 4234.155
206.380, 4237.830
206.862, 4227.970
207.344, 4189.120
207.827, 4133.525
208.309, 4093.828
208.791, 4075.282
209.273, 4063.133
209.755, 4058.522
210.237, 4054.358
210.719, 4040.430
211.201, 4009.776
211.684, 3970.898
212.166, 3941.218
212.648, 3920.840
213.130, 3910.263
213.612, 3922.782
214.094, 3939.038
214.576, 3935.705
215.058, 3900.073
215.540, 3852.146
216.023, 3829.909
216.505, 3843.159
216.987, 3852.944
217.469, 3845.165
217.951, 3829.864
218.433, 3814.476
218.915, 3800.934
219.397, 3789.639
219.880, 3781.289
220.362, 3776.103
220.844, 3772.987
221.326, 3773.694
221.808, 3775.293
222.290, 3776.746
222.772, 3778.020
223.254, 3776.218
223.736, 3766.342
224.219, 3746.949
224.701, 3729.542
225.183, 3720.873
225.665, 3712.100
226.147, 3695.205
226.629, 3669.168
227.111, 3643.901
227.593, 3628.432
228.076, 3622.953
228.558, 3622.263
229.040, 3628.909
229.522, 3637.485
230.004, 3644.551
230.486, 3649.916
230.968, 3654.730
231.450, 3659.739
231.932, 3664.927
232.415, 3670.865
232.897, 3682.446
233.379, 3688.507
233.861, 3677.454
234.343, 3652.672
234.825, 3632.496
235.307, 3633.868
235.789, 3650.974
236.271, 3656.609
236.754, 3642.682
237.236, 3627.106
237.718, 3622.525
238.200, 3626.032
238.682, 3629.379
239.164, 3629.996
239.646, 3627.473
240.128, 3619.062
240.611, 3601.260
241.093, 3586.199
241.575, 3584.454
242.057, 3590.668
242.539, 3595.441
243.021, 3596.764
243.503, 3594.189
243.985, 3584.540
244.467, 3565.730
244.950, 3550.647
245.432, 3548.966
245.914, 3555.646
246.396, 3564.653
246.878, 3581.242
247.360, 3592.494
247.842, 3577.968
248.324, 3537.035
248.807, 3504.681
249.289, 3500.162
249.771, 3513.483
250.253, 3527.757
250.735, 3545.176
251.217, 3556.974
251.699, 3553.755
252.181, 3537.632
252.663, 3521.433
253.146, 3507.843
253.628, 3498.795
254.110, 3496.979
254.592, 3503.438
255.074, 3512.463
255.556, 3524.732
256.038, 3537.577
256.520, 3541.462
257.003, 3529.758
257.485, 3516.775
257.967, 3527.955
258.449, 3565.170
258.931, 3594.643
259.413, 3603.015
259.895, 3598.867
260.377, 3592.671
260.859, 3585.753
261.341, 3582.199
261.824, 3589.773
262.306, 3609.539
262.788, 3619.358
263.270, 3607.727
263.752, 3590.842
264.234, 3583.371
264.716, 3586.570
265.198, 3594.964
265.681, 3606.014
266.163, 3619.456
266.645, 3624.350
267.127, 3618.102
267.609, 3606.125
268.091, 3585.504
268.573, 3560.262
269.055, 3544.582
269.538, 3549.886
270.020, 3572.252
270.502, 3580.313
270.984, 3565.275
271.466, 3549.204
271.948, 3536.441
272.430, 3527.447
272.912, 3523.721
273.394, 3526.498
273.877, 3532.462
274.359, 3532.215
274.841, 3511.965
275.323, 3502.603
275.805, 3517.133
276.287, 3538.264
276.769, 3545.948
277.251, 3534.366
277.733, 3515.161
278.216, 3507.058
278.698, 3514.966
279.180, 3525.139
279.662, 3544.381
280.144, 3560.713
280.626, 3563.300
281.108, 3552.679
281.590, 3539.466
282.073, 3534.996
282.555, 3540.850
283.037, 3546.620
283.519, 3554.248
284.001, 3559.942
284.483, 3561.059
284.965, 3558.897
285.447, 3557.144
285.930, 3559.467
286.412, 3564.690
286.894, 3561.203
287.376, 3541.694
287.858, 3522.169
288.340, 3505.735
288.822, 3492.052
289.304, 3481.129
289.786, 3473.526
290.268, 3466.870
290.751, 3453.001
291.233, 3422.763
291.715, 3407.701
292.197, 3420.373
292.679, 3446.845
293.161, 3481.856
293.643, 3524.337
294.125, 3559.511
294.608, 3564.572
295.090, 3536.111
295.572, 3515.179
296.054, 3514.689
296.536, 3518.849
297.018, 3516.223
297.500, 3506.875
297.982, 3498.357
298.465, 3495.225
298.947, 3497.093
299.429, 3503.163
299.911, 3515.174
300.393, 3527.810
300.875, 3537.508
301.357, 3544.699
301.839, 3550.392
302.321, 3555.958
302.804, 3559.745
303.286, 3559.378
303.768, 3554.706
304.250, 3546.793
304.732, 3534.110
305.214, 3519.003
305.696, 3507.342
306.178, 3498.250
306.660, 3494.131
307.143, 3497.861
307.625, 3508.298
308.107, 3524.667
308.589, 3552.877
309.071, 3577.975
309.553, 3560.965
310.035, 3486.857
310.517, 3419.281
311.000, 3373.081
311.482, 3343.762
311.964, 3329.430
312.446, 3329.668
312.928, 3335.540
313.410, 3336.975
313.892, 3334.539
314.374, 3322.804
314.857, 3288.595
315.339, 3255.662
315.821, 3244.739
316.303, 3252.639
316.785, 3258.353
317.267, 3243.950
317.749, 3209.814
318.231, 3185.588
318.713, 3185.796
319.195, 3179.219
319.678, 3151.423
320.160, 3112.605
320.642, 3078.619
321.124, 3057.114
321.606, 3046.001
322.088, 3040.533
322.570, 3049.760
323.052, 3048.783
323.535, 3026.795
324.017, 3000.262
324.499, 2981.680
324.981, 2973.853
325.463, 2972.852
325.945, 2974.956
326.427, 2980.810
326.909, 2985.896
327.392, 2995.934
327.874, 2999.169
328.356, 2984.799
328.838, 2957.795
329.320, 2934.191
329.802, 2927.521
330.284, 2932.458
330.766, 2928.988
331.248, 2913.137
331.731, 2898.156
332.213, 2892.449
332.695, 2891.310
333.177, 2888.829
333.659, 2884.483
334.141, 2876.541
334.623, 2859.208
335.105, 2833.324
335.587, 2816.377
336.070, 2820.106
336.552, 2830.938
337.034, 2826.823
337.516, 2804.329
337.998, 2784.804
338.480, 2776.554
338.962, 2777.551
339.444, 2788.769
339.927, 2812.336
340.409, 2830.145
340.891, 2818.739
341.373, 2773.886
341.855, 2746.858
342.337, 2754.773
342.819, 2768.696
343.301, 2768.943
343.784, 2756.956
344.266, 2743.479
344.748, 2734.568
345.230, 2730.528
345.712, 2733.531
346.194, 2757.521
346.676, 2771.294
347.158, 2760.101
347.640, 2739.504
348.122, 2730.855
348.605, 2740.914
349.087, 2756.472
349.569, 2753.983
350.051, 2720.755
350.533, 2697.899
351.015, 2689.197
351.497, 2686.169
351.979, 2687.427
352.462, 2690.819
352.944, 2691.636
353.426, 2684.868
353.908, 2671.528
354.390, 2662.354
354.872, 2659.926
355.354, 2657.949
355.836, 2656.420
356.319, 2653.260
356.801, 2645.354
357.283, 2631.041
357.765, 2612.781
358.247, 2590.217
358.729, 2562.400
359.211, 2546.548
359.693, 2556.604
360.175, 2573.527
360.658, 2575.083
361.140, 2559.613
361.622, 2545.051
362.104, 2542.562
362.586, 2546.934
363.068, 2546.318
363.550, 2538.039
364.032, 2531.772
364.514, 2539.032
364.997, 2558.419
365.479, 2567.518
365.961, 2557.812
366.443, 2544.121
366.925, 2535.885
367.407, 2531.479
367.889, 2522.801
368.371, 2503.746
368.853, 2482.337
369.336, 2482.369
369.818, 2540.960
370.300, 2572.373
370.782, 2550.677
371.264, 2512.594
371.746, 2490.977
372.228, 2492.369
372.711, 2504.303
373.193, 2513.198
373.675, 2518.457
374.157, 2524.261
374.639, 2534.401
375.121, 2541.241
375.603, 2541.301
376.085, 2536.292
376.567, 2528.677
377.049, 2518.394
377.532, 2509.189
378.014, 2513.827
378.496, 2540.850
378.978, 2555.735
379.460, 2537.475
379.942, 2508.848
380.424, 2483.823
380.906, 2464.125
381.389, 2454.336
381.871, 2465.583
382.353, 2490.945
382.835, 2502.937
383.317, 2495.486
383.799, 2480.734
384.281, 2465.886
384.763, 2451.713
385.246, 2442.450
385.728, 2440.368
386.210, 2442.288
386.692, 2450.963
387.174, 2463.168
387.656, 2463.299
388.138, 2440.991
388.620, 2406.075
389.102, 2386.610
389.585, 2389.875
390.067, 2395.778
390.549, 2404.680
391.031, 2413.844
391.513, 2420.026
391.995, 2422.971
392.477, 2425.813
392.959, 2432.675
393.441, 2444.670
393.924, 2449.087
394.406, 2436.289
394.888, 2425.746
395.370, 2422.433
395.852, 2425.134
396.334, 2432.999
396.816, 2446.634
397.298, 2460.316
397.780, 2460.843
398.263, 2444.056
398.745, 2430.903
399.227, 2426.255
399.709, 2426.849
400.191, 2431.049
400.673, 2438.614
401.155, 2448.647
401.638, 2467.315
402.120, 2487.222
402.602, 2486.774
403.084, 2460.870
403.566, 2434.323
404.048, 2423.247
404.530, 2425.346
405.012, 2430.047
405.494, 2442.551
405.977, 2451.295
406.459, 2444.526
406.941, 2430.237
407.423, 2426.658
407.905, 2440.565
408.387, 2462.847
408.869, 2479.561
409.351, 2488.544
409.833, 2497.023
410.316, 2513.918
410.798, 2522.743
411.280, 2503.724
411.762, 2466.419
412.244, 2440.747
412.726, 2449.491
413.208, 2483.768
413.690, 2497.814
414.172, 2470.916
414.655, 2459.690
415.137, 2484.945
415.619, 2522.316
416.101, 2552.906
416.583, 2572.100
417.065, 2581.462
417.547, 2579.054
418.029, 2566.399
418.512, 2555.719
418.994, 2546.900
419.476, 2542.529
419.958, 2546.177
420.440, 2555.717
420.922, 2566.567
421.404, 2575.304
421.886, 2587.123
422.368, 2613.136
422.851, 2647.535
423.333, 2665.319
423.815, 2652.927
424.297, 2628.558
424.779, 2626.405
425.261, 2659.168
425.743, 2682.229
426.225, 2684.823
426.708, 2683.080
427.190, 2689.284
427.672, 2703.232
428.154, 2717.819
428.636, 2727.820
429.118, 2733.896
429.600, 2741.396
430.082, 2754.287
430.565, 2762.520
431.047, 2756.109
431.529, 2749.395
432.011, 2758.004
432.493, 2785.045
432.975, 2817.539
433.457, 2845.626
433.939, 2868.770
434.421, 2877.236
434.904, 2863.680
435.386, 2847.221
435.868, 2837.561
436.350, 2834.708
436.832, 2840.162
437.314, 2857.354
437.796, 2879.701
438.278, 2902.940
438.760, 2927.070
439.243, 2953.382
439.725, 2983.753
440.207, 3011.667
440.689, 3024.886
441.171, 3015.041
441.653, 3014.651
442.135, 3030.232
442.617, 3050.795
443.099, 3069.429
443.582, 3086.419
444.064, 3106.056
444.546, 3132.077
445.028, 3160.834
445.510, 3176.044
445.992, 3163.840
446.474, 3163.599
446.957, 3191.220
447.439, 3224.287
447.921, 3245.044
448.403, 3251.671
448.885, 3255.391
449.367, 3264.879
449.849, 3279.063
450.331, 3292.999
450.813, 3305.324
451.296, 3321.447
451.778, 3347.268
452.260, 3378.878
452.742, 3409.096
453.224, 3441.530
453.706, 3465.298
454.188, 3464.091
454.670, 3452.356
455.152, 3461.409
455.635, 3499.238
456.117, 3541.104
456.599, 3557.254
457.081, 3541.253
457.563, 3544.003
458.045, 3578.480
458.527, 3614.593
459.009, 3642.220
459.491, 3663.516
459.974, 3682.973
460.456, 3702.478
460.938, 3720.578
461.420, 3732.181
461.902, 3733.667
462.384, 3746.543
462.866, 3786.266
463.348, 3824.740
463.831, 3842.651
464.313, 3845.101
464.795, 3850.516
465.277, 3867.177
465.759, 3891.208
466.241, 3920.268
466.723, 3953.833
467.205, 3984.735
467.687, 4011.706
468.170, 4032.888
468.652, 4042.909
469.134, 4038.624
469.616, 4036.971
470.098, 4040.830
470.580, 4047.824
471.062, 4057.595
471.544, 4068.980
472.026, 4078.562
472.509, 4083.458
472.991, 4085.723
473.473, 4094.097
473.955, 4110.843
474.437, 4130.217
474.919, 4153.925
475.401, 4177.781
475.883, 4197.899
476.366, 4214.301
476.848, 4230.992
477.330, 4254.302
477.812, 4280.499
478.294, 4294.418
478.776, 4292.935
479.258, 4293.620
479.740, 4307.169
480.223, 4328.287
480.705, 4344.182
481.187, 4349.951
481.669, 4362.143
482.151, 4397.456
482.633, 4438.270
483.115, 4458.646
483.597, 4455.918
484.079, 4448.282
484.561, 4451.418
485.044, 4464.665
485.526, 4475.433
486.008, 4469.802
486.490, 4478.544
486.972, 4518.487
487.454, 4568.154
487.936, 4608.480
488.418, 4633.966
488.901, 4646.729
489.383, 4638.937
489.865, 4614.611
490.347, 4621.481
490.829, 4676.727
491.311, 4727.640
491.793, 4738.553
492.275, 4725.498
492.758, 4712.480
493.240, 4698.282
493.722, 4693.010
494.204, 4711.870
494.686, 4741.026
495.168, 4754.326
495.650, 4746.513
496.132, 4731.441
496.614, 4721.524
497.097, 4716.701
497.579, 4718.826
498.061, 4736.548
498.543, 4750.592
499.025, 4752.139
499.507, 4749.495
499.989, 4752.216
500.471, 4763.135
500.953, 4779.093
501.436, 4803.897
501.918, 4836.653
502.400, 4837.366
502.882, 4784.760
503.364, 4738.109
503.846, 4741.920
504.328, 4773.250
504.810, 4793.635
505.293, 4792.188
505.775, 4787.235
506.257, 4789.313
506.739, 4795.860
507.221, 4802.669
507.703, 4808.780
508.185, 4813.600
508.667, 4817.151
509.150, 4819.654
509.632, 4814.449
510.114, 4789.699
510.596, 4771.695
511.078, 4767.723
511.560, 4773.033
512.042, 4784.451
512.524, 4800.258
513.006, 4814.601
513.489, 4821.050
513.971, 4819.888
514.453, 4815.284
514.935, 4807.201
515.417, 4795.833
515.899, 4776.688
516.381, 4755.531
516.863, 4742.387
517.346, 4739.759
517.828, 4742.669
518.310, 4751.583
518.792, 4763.329
519.274, 4776.067
519.756, 4788.541
520.238, 4790.601
520.720, 4769.922
521.202, 4728.953
521.685, 4710.010
522.167, 4736.730
522.649, 4757.586
523.131, 4765.449
523.613, 4764.966
524.095, 4760.432
524.577, 4752.797
525.059, 4741.256
525.541, 4716.974
526.024, 4687.098
526.506, 4686.620
526.988, 4723.131
527.470, 4756.107
527.952, 4764.590
528.434, 4756.876
528.916, 4751.788
529.398, 4752.097
529.880, 4747.349
530.363, 4729.471
530.845, 4708.150
531.327, 4695.172
531.809, 4689.710
532.291, 4679.102
532.773, 4652.296
533.255, 4617.912
533.737, 4614.941
534.219, 4676.446
534.702, 4704.885
535.184, 4657.070
535.666, 4599.889
536.148, 4577.672
536.630, 4589.666
537.112, 4609.438
537.594, 4625.147
538.076, 4636.999
538.559, 4647.349
539.041, 4655.700
539.523, 4652.948
540.005, 4632.878
540.487, 4604.932
540.969, 4582.208
541.451, 4563.712
541.933, 4555.504
542.416, 4569.629
542.898, 4582.902
543.380, 4580.974
543.862, 4568.088
544.344, 4554.299
544.826, 4544.309
545.308, 4535.786
545.790, 4524.473
546.273, 4509.849
546.755, 4496.438
547.237, 4483.795
547.719, 4473.680
548.201, 4470.755
548.683, 4470.703
549.165, 4463.065
549.647, 4440.736
550.129, 4417.494
550.612, 4401.431
551.094, 4391.662
551.576, 4388.002
552.058, 4390.216
552.540, 4392.439
553.022, 4388.570
553.504, 4378.672
553.986, 4371.318
554.468, 4376.310
554.951, 4371.852
555.433, 4346.500
555.915, 4315.059
556.397, 4289.183
556.879, 4272.058
557.361, 4265.438
557.843, 4278.665
558.325, 4302.901
558.807, 4311.123
559.290, 4301.946
559.772, 4286.424
560.254, 4266.499
560.736, 4245.967
561.218, 4233.598
561.700, 4231.113
562.182, 4229.275
562.664, 4228.888
563.146, 4226.813
563.629, 4219.946
564.111, 4209.314
564.593, 4197.382
565.075, 4185.202
565.557, 4174.716
566.039, 4172.029
566.521, 4180.195
567.003, 4180.317
567.486, 4168.495
567.968, 4150.210
568.450, 4121.021
568.932, 4088.547
569.414, 4074.280
569.896, 4095.619
570.378, 4120.154
570.860, 4126.920
571.343, 4120.363
571.825, 4106.674
572.307, 4087.764
572.789, 4068.747
573.271, 4053.951
573.753, 4043.526
574.235, 4038.853
574.717, 4039.257
575.200, 4047.012
575.682, 4076.761
576.164, 4104.423
576.646, 4102.218
577.128, 4070.174
577.610, 4040.923
578.092, 4041.375
578.574, 4058.446
579.056, 4069.065
579.539, 4072.946
580.021, 4066.963
580.503, 4045.314
580.985, 4021.722
581.467, 4021.325
581.949, 4055.995
582.431, 4079.136
582.913, 4086.714
583.395, 4086.755
583.878, 4080.958
584.360, 4071.086
584.842, 4058.478
585.324, 4043.694
585.806, 4029.223
586.288, 4015.477
586.770, 4003.123
587.252, 4005.819
587.734, 4028.743
588.217, 4055.731
588.699, 4083.536
589.181, 4106.611
589.663, 4110.637
590.145, 4082.326
590.627, 4060.378
591.109, 4062.850
591.591, 4073.009
592.073, 4072.601
592.556, 4062.373
593.038, 4054.471
593.520, 4056.682
594.002, 4067.685
594.484, 4084.537
594.966, 4108.969
595.448, 4133.164
595.930, 4159.240
596.413, 4181.110
596.895, 4192.967
597.377, 4197.069
597.859, 4201.909
598.341, 4210.645
598.823, 4219.854
599.305, 4224.873
599.787, 4229.309
600.269, 4242.601
600.752, 4266.030
601.234, 4287.326
601.716, 4293.640
602.198, 4286.250
602.680, 4285.580
603.162, 4294.494
603.644, 4305.559
604.127, 4317.251
604.609, 4330.485
605.091, 4346.902
605.573, 4366.174
606.055, 4384.604
606.537, 4404.197
607.019, 4419.256
607.501, 4417.691
607.983, 4404.185
608.466, 4398.420
608.948, 4407.425
609.430, 4426.048
609.912, 4450.958
610.394, 4487.757
610.876, 4493.371
611.358, 4420.331
611.840, 4370.917
612.322, 4385.622
612.805, 4429.044
613.287, 4462.188
613.769, 4476.615
614.251, 4484.221
614.733, 4497.740
615.215, 4509.524
615.697, 4499.425
616.179, 4468.396
616.661, 4441.438
617.144, 4429.814
617.626, 4429.978
618.108, 4437.277
618.590, 4459.659
619.072, 4465.882
619.554, 4444.875
620.036, 4420.944
620.518, 4399.493
621.000, 4383.590
621.483, 4378.223
621.965, 4385.287
622.447, 4395.629
622.929, 4405.193
623.411, 4410.550
623.893, 4395.692
624.375, 4357.829
624.857, 4326.065
625.340, 4317.899
625.822, 4325.001
626.304, 4326.922
626.786, 4321.190
627.268, 4314.994
627.750, 4299.602
628.232, 4292.313
628.714, 4314.350
629.196, 4349.737
629.679, 4365.900
630.161, 4348.226
630.643, 4316.958
631.125, 4293.835
631.607, 4277.789
632.089, 4261.699
632.571, 4243.863
633.054, 4233.500
633.536, 4238.099
634.018, 4253.498
634.500, 4266.876
634.982, 4281.897
635.464, 4288.363
635.946, 4282.578
636.428, 4270.632
636.910, 4250.257
637.393, 4227.498
637.875, 4217.193
638.357, 4228.665
638.839, 4241.204
639.321, 4216.279
639.803, 4163.038
640.285, 4147.287
640.767, 4183.450
641.250, 4221.866
641.732, 4229.668
642.214, 4213.720
642.696, 4200.376
643.178, 4187.104
643.660, 4180.316
644.142, 4191.436
644.624, 4199.831
645.106, 4181.855
645.589, 4149.614
646.071, 4138.732
646.553, 4170.790
647.035, 4210.398
647.517, 4204.033
647.999, 4160.224
648.481, 4130.628
648.963, 4124.002
649.445, 4118.394
649.928, 4095.490
650.410, 4062.787
650.892, 4050.723
651.374, 4075.337
651.856, 4095.261
652.338, 4107.776
652.820, 4115.438
653.302, 4118.504
653.784, 4118.133
654.267, 4116.501
654.749, 4114.699
655.231, 4111.422
655.713, 4105.870
656.195, 4097.543
656.677, 4082.493
657.159, 4059.247
657.641, 4038.760
658.123, 4028.975
658.606, 4027.105
659.088, 4023.496
659.570, 4024.216
660.052, 4013.360
660.534, 3975.743
661.016, 3941.091
661.498, 3937.417
661.981, 3948.525
662.463, 3936.353
662.945, 3882.072
663.427, 3818.482
663.909, 3777.520
664.391, 3753.427
664.873, 3732.281
665.355, 3712.524
665.837, 3693.568
666.320, 3674.631
666.802, 3657.010
667.284, 3644.778
667.766, 3645.626
668.248, 3636.515
668.730, 3608.814
669.212, 3580.811
669.694, 3563.050
670.177, 3549.905
670.659, 3528.167
671.141, 3490.996
671.623, 3461.267
672.105, 3467.022
672.587, 3486.670
673.069, 3479.416
673.551, 3445.793
674.033, 3414.273
674.516, 3399.685
674.998, 3396.674
675.480, 3396.747
675.962, 3405.160
676.444, 3397.554
676.926, 3357.425
677.408, 3321.942
677.890, 3309.333
678.372, 3308.129
678.855, 3302.664
679.337, 3290.042
679.819, 3276.471
680.301, 3265.149
680.783, 3254.271
681.265, 3242.801
681.747, 3230.139
682.229, 3212.475
682.711, 3188.298
683.194, 3168.013
683.676, 3172.083
684.158, 3202.412
684.640, 3203.438
685.122, 3160.987
685.604, 3121.309
686.086, 3106.847
686.568, 3101.641
687.050, 3083.910
687.533, 3052.000
688.015, 3024.411
688.497, 2997.914
688.979, 2984.500
689.461, 3007.228
689.943, 3042.424
690.425, 3045.783
690.907, 3009.042
