##NAMES=Manganvesuvianite
##RRUFFID=R060377
##IDEAL CHEMISTRY=Ca_19_Mn^3+^Al_10_Mg_2_(SiO_4_)_10_(Si_2_O_7_)_4_O(OH)_9_
##LOCALITY=K'Chwaning II mine, Kalahari manganese field, north Cape Province, South Africa
##OWNER=RRUFF
##SOURCE=Michael Scott
##DESCRIPTION=Deep reddish-brown prismatic crystals associated with black hausmannite
##STATUS=The identification of this mineral has been confirmed by X-ray diffraction.
##URL=rruff.info/R060377
143.1561, 350.8161
143.6383, 349.5027
144.1204, 348.0935
144.6025, 347.8012
145.0846, 348.8675
145.5667, 349.5269
146.0488, 349.2594
146.5310, 348.7627
147.0131, 348.7522
147.4952, 349.3638
147.9773, 350.4038
148.4594, 351.5365
148.9415, 352.7696
149.4237, 354.8318
149.9058, 358.6164
150.3879, 363.4872
150.8700, 367.5826
151.3521, 370.3852
151.8342, 372.6379
152.3164, 375.1433
152.7985, 377.8312
153.2806, 380.2513
153.7627, 382.3326
154.2448, 384.1004
154.7269, 384.5689
155.2091, 382.9258
155.6912, 380.3050
156.1733, 377.0759
156.6554, 373.3208
157.1375, 369.1732
157.6196, 364.4130
158.1018, 358.1671
158.5839, 354.0055
159.0660, 353.5876
159.5481, 354.0044
160.0302, 353.4964
160.5123, 351.6234
160.9945, 349.1178
161.4766, 347.3326
161.9587, 347.3617
162.4408, 346.4151
162.9229, 344.0003
163.4050, 340.9206
163.8871, 337.4996
164.3693, 333.8808
164.8514, 330.7519
165.3335, 329.9171
165.8156, 333.5993
166.2977, 336.4684
166.7798, 338.2049
167.2620, 338.7673
167.7441, 337.6058
168.2262, 334.0928
168.7083, 329.6122
169.1904, 328.3735
169.6725, 332.0012
170.1547, 335.1603
170.6368, 335.1812
171.1189, 332.8792
171.6010, 331.1685
172.0831, 331.8292
172.5652, 333.4600
173.0474, 333.0304
173.5295, 329.4199
174.0116, 325.8937
174.4937, 325.6817
174.9758, 328.7729
175.4579, 330.6547
175.9401, 327.8234
176.4222, 323.5026
176.9043, 321.2866
177.3864, 322.2208
177.8685, 324.4121
178.3506, 325.3439
178.8328, 324.5294
179.3149, 324.2184
179.7970, 325.9122
180.2791, 328.1055
180.7612, 329.4824
181.2433, 329.5313
181.7255, 328.7113
182.2076, 327.8880
182.6897, 326.6967
183.1718, 326.2523
183.6539, 327.3103
184.1360, 328.8738
184.6181, 329.8192
185.1003, 329.5652
185.5824, 328.5718
186.0645, 328.5309
186.5466, 331.2380
187.0287, 332.6699
187.5108, 331.6898
187.9930, 329.3331
188.4751, 326.7410
188.9572, 324.5210
189.4393, 322.7425
189.9214, 321.8740
190.4035, 323.8099
190.8857, 324.5602
191.3678, 322.5634
191.8499, 318.9343
192.3320, 315.6426
192.8141, 313.9140
193.2962, 313.4923
193.7784, 312.3589
194.2605, 309.4119
194.7426, 307.0800
195.2247, 306.3836
195.7068, 307.0068
196.1889, 308.2080
196.6711, 309.9549
197.1532, 311.6911
197.6353, 311.1040
198.1174, 305.6813
198.5995, 300.4688
199.0816, 298.2680
199.5638, 298.8141
200.0459, 300.4056
200.5280, 302.6098
201.0101, 304.9870
201.4922, 306.4031
201.9743, 306.8010
202.4565, 306.2550
202.9386, 304.3339
203.4207, 300.9837
203.9028, 298.0537
204.3849, 296.3784
204.8670, 295.8773
205.3492, 296.6543
205.8313, 299.4079
206.3134, 302.5736
206.7955, 304.1191
207.2776, 303.7638
207.7597, 303.0866
208.2419, 302.1429
208.7240, 301.4903
209.2061, 301.9921
209.6882, 304.3019
210.1703, 307.1012
210.6524, 307.7503
211.1346, 305.0174
211.6167, 303.3303
212.0988, 304.9334
212.5809, 307.7721
213.0630, 309.9606
213.5451, 310.7242
214.0273, 310.5262
214.5094, 310.3383
214.9915, 310.0573
215.4736, 309.9993
215.9557, 310.4735
216.4378, 311.0535
216.9200, 311.2939
217.4021, 310.9895
217.8842, 310.3228
218.3663, 309.8430
218.8484, 310.1074
219.3305, 309.7015
219.8127, 307.6732
220.2948, 305.2648
220.7769, 303.8728
221.2590, 304.1337
221.7411, 305.4844
222.2232, 306.2693
222.7054, 306.2469
223.1875, 305.8506
223.6696, 305.3353
224.1517, 304.3883
224.6338, 302.1844
225.1159, 298.3273
225.5980, 293.9187
226.0802, 292.2027
226.5623, 296.9625
227.0444, 299.9710
227.5265, 299.6266
228.0086, 297.4902
228.4907, 295.4808
228.9729, 294.4026
229.4550, 293.8951
229.9371, 293.0013
230.4192, 290.6481
230.9013, 289.5656
231.3834, 290.7849
231.8656, 293.4003
232.3477, 296.2929
232.8298, 299.1389
233.3119, 301.6642
233.7940, 303.0983
234.2761, 303.0778
234.7583, 303.1471
235.2404, 303.6631
235.7225, 304.5187
236.2046, 305.5851
236.6867, 306.8807
237.1688, 308.2331
237.6510, 309.3266
238.1331, 310.1265
238.6152, 310.9438
239.0973, 312.2749
239.5794, 313.6756
240.0615, 314.0264
240.5437, 312.7323
241.0258, 310.9189
241.5079, 310.2714
241.9900, 310.7886
242.4721, 310.8888
242.9542, 309.5270
243.4364, 307.2456
243.9185, 305.4487
244.4006, 304.5030
244.8827, 303.9397
245.3648, 303.7376
245.8469, 303.7801
246.3290, 302.7547
246.8112, 299.3023
247.2933, 294.2320
247.7754, 289.8052
248.2575, 286.0550
248.7396, 283.5292
249.2217, 282.9707
249.7039, 283.9277
250.1860, 284.9385
250.6681, 285.4162
251.1502, 285.3559
251.6323, 284.6220
252.1144, 282.7347
252.5966, 280.9508
253.0787, 280.0548
253.5608, 279.8039
254.0429, 279.6515
254.5250, 279.2494
255.0071, 278.7060
255.4893, 278.4692
255.9714, 278.7294
256.4535, 279.0063
256.9356, 278.8465
257.4177, 278.5814
257.8998, 278.8260
258.3820, 280.1623
258.8641, 282.1358
259.3462, 283.0266
259.8283, 281.9764
260.3104, 281.2390
260.7925, 282.0995
261.2747, 283.5151
261.7568, 284.1104
262.2389, 283.1661
262.7210, 281.0586
263.2031, 278.7206
263.6852, 275.4828
264.1674, 273.2482
264.6495, 272.9788
265.1316, 273.5536
265.6137, 273.7762
266.0958, 273.1185
266.5779, 271.9771
267.0601, 271.3388
267.5422, 271.6943
268.0243, 271.6681
268.5064, 270.5611
268.9885, 269.3061
269.4706, 268.7602
269.9528, 269.2182
270.4349, 270.3104
270.9170, 271.3807
271.3991, 272.4969
271.8812, 273.4261
272.3633, 273.3749
272.8455, 273.6387
273.3276, 275.6843
273.8097, 279.6672
274.2918, 284.0163
274.7739, 286.2361
275.2560, 285.0885
275.7382, 284.3536
276.2202, 283.7751
276.7024, 283.6944
277.1845, 284.7966
277.6666, 286.9110
278.1487, 288.7453
278.6308, 288.2422
279.1129, 283.3655
279.5951, 283.4772
280.0772, 292.0882
280.5593, 301.6998
281.0414, 308.8227
281.5235, 313.1848
282.0056, 316.1442
282.4878, 318.9608
282.9699, 321.7276
283.4520, 323.7191
283.9341, 322.8392
284.4162, 323.2977
284.8983, 328.1362
285.3805, 335.9730
285.8626, 343.0536
286.3447, 346.4550
286.8268, 346.2248
287.3089, 345.7234
287.7910, 345.1009
288.2732, 344.0856
288.7553, 342.8452
289.2374, 341.1364
289.7195, 338.4568
290.2016, 334.4467
290.6837, 329.3535
291.1659, 324.4101
291.6480, 319.2389
292.1301, 314.6852
292.6122, 311.1502
293.0943, 308.2524
293.5764, 305.6766
294.0586, 303.2958
294.5407, 300.7472
295.0228, 297.0271
295.5049, 289.7267
295.9870, 284.2073
296.4691, 281.7038
296.9513, 280.6237
297.4334, 279.3521
297.9155, 277.3634
298.3976, 275.0450
298.8797, 273.0352
299.3618, 271.4173
299.8440, 270.0233
300.3261, 269.5119
300.8082, 268.8232
301.2903, 266.5437
301.7724, 262.6398
302.2545, 258.9581
302.7367, 257.8295
303.2188, 260.2932
303.7009, 261.3575
304.1830, 260.1757
304.6651, 258.4337
305.1472, 257.1853
305.6294, 256.4348
306.1115, 255.4759
306.5936, 253.5372
307.0757, 250.4956
307.5578, 249.2078
308.0399, 250.8902
308.5221, 252.7753
309.0042, 254.1281
309.4863, 254.7434
309.9684, 254.2116
310.4505, 252.1382
310.9326, 248.8003
311.4148, 246.1991
311.8969, 244.0682
312.3790, 242.8218
312.8611, 242.9072
313.3432, 243.8874
313.8253, 245.2885
314.3075, 246.9588
314.7896, 248.4907
315.2717, 248.7805
315.7538, 246.4608
316.2359, 244.8745
316.7180, 244.6288
317.2001, 245.0916
317.6823, 245.7018
318.1644, 246.2800
318.6465, 246.7305
319.1286, 246.9097
319.6107, 246.7344
320.0928, 246.4202
320.5750, 244.6313
321.0571, 243.6077
321.5392, 245.9109
322.0213, 251.3796
322.5034, 256.9432
322.9855, 259.3745
323.4677, 258.0838
323.9498, 257.9032
324.4319, 259.4398
324.9140, 261.3307
325.3961, 262.8905
325.8782, 264.2040
326.3604, 265.7957
326.8425, 268.1147
327.3246, 271.0367
327.8067, 273.1545
328.2888, 274.5755
328.7709, 275.2215
329.2531, 274.2712
329.7352, 272.6668
330.2173, 271.9392
330.6994, 272.8346
331.1815, 274.8630
331.6636, 276.7206
332.1458, 278.7169
332.6279, 280.1158
333.1100, 280.6900
333.5921, 280.7526
334.0742, 280.7040
334.5563, 280.6259
335.0385, 280.1386
335.5206, 278.6537
336.0027, 275.7228
336.4848, 272.8340
336.9669, 269.8303
337.4490, 266.9553
337.9312, 264.5563
338.4133, 262.5142
338.8954, 260.2467
339.3775, 257.1230
339.8596, 253.0009
340.3417, 249.7410
340.8239, 247.3033
341.3060, 245.6252
341.7881, 245.0216
342.2702, 245.1507
342.7523, 245.4469
343.2344, 245.5880
343.7166, 245.5476
344.1987, 245.1950
344.6808, 244.0710
345.1629, 243.1430
345.6450, 242.3263
346.1271, 241.8246
346.6093, 242.0387
347.0914, 243.0760
347.5735, 244.4078
348.0556, 244.9912
348.5377, 244.3001
349.0198, 243.7828
349.5020, 243.2971
349.9841, 243.0627
350.4662, 243.3787
350.9483, 244.1858
351.4304, 245.0718
351.9125, 245.5997
352.3947, 245.7366
352.8768, 245.7266
353.3589, 245.1166
353.8410, 244.8079
354.3231, 244.9780
354.8052, 245.7027
355.2874, 247.3266
355.7695, 250.3662
356.2516, 254.2024
356.7337, 255.1586
357.2158, 249.6760
357.6979, 246.1288
358.1800, 246.5515
358.6621, 249.3119
359.1443, 253.0091
359.6264, 257.1063
360.1085, 260.9586
360.5906, 263.2792
361.0727, 263.3742
361.5548, 263.7303
362.0370, 264.6329
362.5191, 265.8253
363.0012, 267.5001
363.4833, 269.4969
363.9654, 271.0154
364.4475, 270.8522
364.9297, 268.8317
365.4118, 268.1631
365.8939, 270.6830
366.3760, 272.5492
366.8581, 271.5611
367.3402, 268.8204
367.8224, 266.6207
368.3045, 266.2997
368.7866, 267.4453
369.2687, 269.1504
369.7508, 272.1966
370.2329, 273.9957
370.7151, 272.4028
371.1972, 269.8498
371.6793, 269.0088
372.1614, 270.8401
372.6435, 273.0373
373.1256, 272.5194
373.6078, 269.0822
374.0899, 265.9404
374.5720, 264.0449
375.0541, 262.3982
375.5362, 260.2647
376.0183, 257.6478
376.5005, 254.9622
376.9826, 252.2654
377.4647, 249.6790
377.9468, 247.7871
378.4289, 247.0156
378.9110, 246.0631
379.3932, 243.8116
379.8753, 240.7822
380.3574, 237.9105
380.8395, 235.4036
381.3216, 233.2535
381.8037, 231.5723
382.2859, 230.3658
382.7680, 229.1993
383.2501, 228.0305
383.7322, 226.6794
384.2143, 224.7030
384.6964, 221.7547
385.1786, 219.4250
385.6607, 219.4196
386.1428, 220.7663
386.6249, 220.4746
387.1070, 217.2918
387.5891, 213.9451
388.0713, 214.2768
388.5534, 217.8991
389.0355, 220.6066
389.5176, 221.0687
389.9997, 220.5338
390.4818, 220.1127
390.9640, 219.8821
391.4461, 219.6721
391.9282, 219.3704
392.4103, 218.9913
392.8924, 218.6266
393.3745, 217.9133
393.8567, 217.6006
394.3388, 218.1191
394.8209, 219.2297
395.3030, 220.5665
395.7851, 222.0463
396.2672, 223.4334
396.7494, 224.2696
397.2315, 224.1467
397.7136, 224.4431
398.1957, 225.3464
398.6778, 226.6058
399.1599, 228.3818
399.6420, 230.4851
400.1241, 231.9835
400.6063, 231.9101
401.0884, 230.1931
401.5705, 229.3977
402.0526, 229.7113
402.5347, 230.5874
403.0168, 232.3842
403.4990, 234.5335
403.9811, 236.1327
404.4632, 236.7403
404.9453, 236.6995
405.4274, 236.7822
405.9095, 236.6740
406.3917, 237.2896
406.8738, 239.5140
407.3559, 241.7686
407.8380, 242.7508
408.3201, 242.4382
408.8022, 241.8657
409.2844, 241.9807
409.7665, 242.7895
410.2486, 244.2830
410.7307, 248.7975
411.2128, 251.3433
411.6949, 248.7400
412.1771, 243.5604
412.6592, 240.2141
413.1413, 241.1780
413.6234, 244.1017
414.1055, 243.4294
414.5876, 237.4057
415.0698, 233.1404
415.5519, 233.8644
416.0340, 235.9140
416.5161, 237.1277
416.9982, 237.1860
417.4803, 236.5524
417.9625, 235.2898
418.4446, 233.5441
418.9267, 232.3479
419.4088, 232.0432
419.8909, 231.8135
420.3730, 231.3101
420.8552, 230.4960
421.3373, 229.1800
421.8194, 226.7340
422.3015, 224.3433
422.7836, 223.8792
423.2657, 225.3099
423.7479, 226.0397
424.2300, 224.8920
424.7121, 222.5840
425.1942, 220.1463
425.6763, 217.4312
426.1584, 215.3371
426.6406, 214.3971
427.1227, 214.2854
427.6048, 214.8309
428.0869, 216.1037
428.5690, 216.7287
429.0511, 215.0947
429.5333, 211.2029
430.0154, 208.5817
430.4975, 208.3393
430.9796, 208.3342
431.4617, 207.3056
431.9438, 205.5521
432.4260, 203.9155
432.9081, 202.7947
433.3902, 202.0297
433.8723, 201.2161
434.3544, 199.5751
434.8365, 199.2583
435.3187, 201.4609
435.8008, 204.2659
436.2829, 206.4254
436.7650, 207.6143
437.2471, 207.7314
437.7292, 206.6154
438.2114, 204.2380
438.6935, 201.5625
439.1756, 196.7496
439.6577, 193.7050
440.1398, 194.7370
440.6219, 197.6297
441.1040, 199.3767
441.5862, 198.7103
442.0683, 196.7640
442.5504, 195.6262
443.0325, 195.6724
443.5146, 195.3661
443.9967, 193.7074
444.4789, 192.4002
444.9610, 192.4193
445.4431, 193.6487
445.9252, 195.4454
446.4073, 197.9301
446.8894, 200.5293
447.3716, 200.6893
447.8537, 197.3689
448.3358, 194.2039
448.8179, 192.7447
449.3000, 192.2928
449.7821, 192.3800
450.2643, 193.0748
450.7464, 193.5142
451.2285, 192.4620
451.7106, 190.3375
452.1927, 189.3870
452.6748, 190.3376
453.1570, 191.9736
453.6391, 193.4444
454.1212, 194.6970
454.6033, 195.1732
455.0854, 193.8849
455.5675, 192.3970
456.0497, 192.2579
456.5318, 193.3063
457.0139, 194.3572
457.4960, 194.7986
457.9781, 194.8743
458.4602, 195.3212
458.9424, 196.6862
459.4245, 197.2537
459.9066, 196.2951
460.3887, 194.6337
460.8708, 192.4785
461.3529, 190.1595
461.8351, 189.2581
462.3172, 191.6545
462.7993, 197.5208
463.2814, 200.7978
463.7635, 199.9164
464.2456, 198.4490
464.7278, 196.6941
465.2099, 195.0761
465.6920, 194.0424
466.1741, 193.7628
466.6562, 194.1337
467.1383, 195.0752
467.6205, 196.8370
468.1026, 198.4185
468.5847, 199.9468
469.0668, 201.1404
469.5489, 201.6284
470.0310, 201.6437
470.5132, 201.7829
470.9953, 202.4298
471.4774, 203.4291
471.9595, 204.4086
472.4416, 205.3764
472.9237, 206.3097
473.4059, 207.8323
473.8880, 208.8923
474.3701, 207.9137
474.8522, 204.6256
475.3343, 202.1766
475.8164, 203.4135
476.2986, 206.9335
476.7807, 209.2152
477.2628, 209.7129
477.7449, 209.7874
478.2270, 210.4832
478.7091, 211.5891
479.1913, 212.2119
479.6734, 211.9617
480.1555, 211.6022
480.6376, 211.6681
481.1197, 211.8928
481.6018, 211.5364
482.0839, 210.3093
482.5660, 209.0715
483.0482, 209.1761
483.5303, 211.3478
484.0124, 212.1264
484.4945, 210.2952
484.9766, 208.3042
485.4587, 207.2634
485.9409, 207.1414
486.4230, 207.7831
486.9051, 209.1873
487.3872, 210.7589
487.8693, 210.6067
488.3514, 207.1212
488.8336, 204.9460
489.3157, 205.3322
489.7978, 206.2029
490.2799, 206.1723
490.7620, 205.2319
491.2441, 204.1855
491.7263, 203.5432
492.2084, 203.3373
492.6905, 203.9083
493.1726, 205.7879
493.6547, 207.1609
494.1368, 206.9793
494.6190, 206.0534
495.1011, 204.8591
495.5832, 203.3397
496.0653, 202.6622
496.5474, 204.6026
497.0295, 208.1227
497.5117, 209.9653
497.9938, 209.4708
498.4759, 207.9945
498.9580, 205.7820
499.4401, 203.3569
499.9222, 203.2565
500.4044, 207.9636
500.8865, 212.6210
501.3686, 214.4509
501.8507, 214.4691
502.3328, 214.8158
502.8149, 216.2208
503.2971, 218.0099
503.7792, 219.2084
504.2613, 219.5805
504.7434, 220.2354
505.2255, 220.6362
505.7076, 221.8074
506.1898, 225.0147
506.6719, 229.2876
507.1540, 232.6669
507.6361, 234.1155
508.1182, 234.2565
508.6003, 234.3367
509.0825, 233.9485
509.5646, 234.6036
510.0467, 238.1236
510.5288, 241.2864
511.0109, 242.2005
511.4930, 241.1225
511.9752, 239.4267
512.4573, 237.4878
512.9394, 235.8058
513.4215, 236.2711
513.9036, 239.5516
514.3857, 240.6112
514.8679, 235.8612
515.3500, 229.0813
515.8321, 225.1127
516.3142, 224.2437
516.7963, 224.3962
517.2784, 225.6042
517.7606, 226.8777
518.2427, 226.6672
518.7248, 224.8915
519.2069, 222.7260
519.6890, 220.8915
520.1711, 219.3153
520.6533, 217.6988
521.1354, 215.4666
521.6175, 213.9402
522.0996, 213.6655
522.5817, 214.0117
523.0638, 214.5813
523.5460, 215.1803
524.0281, 215.4496
524.5102, 214.9808
524.9923, 213.8029
525.4744, 212.8704
525.9565, 212.5070
526.4387, 211.9763
526.9208, 210.4289
527.4029, 209.0072
527.8850, 209.2834
528.3671, 211.5538
528.8492, 213.9469
529.3314, 214.1397
529.8135, 212.4333
530.2956, 211.9985
530.7777, 213.7198
531.2598, 215.2413
531.7419, 214.2495
532.2241, 212.2680
532.7062, 211.9583
533.1883, 214.6551
533.6704, 217.3485
534.1525, 217.2294
534.6346, 215.6455
535.1168, 216.1457
535.5989, 219.6843
536.0810, 223.6660
536.5631, 225.3210
537.0452, 224.5146
537.5273, 224.8844
538.0095, 227.0451
538.4916, 229.5792
538.9737, 231.8205
539.4558, 234.1611
539.9379, 237.7473
540.4200, 242.7856
540.9022, 247.3822
541.3843, 248.3233
541.8664, 244.3967
542.3485, 243.7291
542.8306, 250.3541
543.3127, 255.9470
543.7948, 256.6382
544.2769, 254.9931
544.7590, 255.2336
545.2411, 259.0951
545.7233, 263.8251
546.2054, 265.7767
546.6875, 265.1606
547.1696, 265.0655
547.6517, 266.2163
548.1339, 267.4688
548.6160, 267.5754
549.0981, 266.9768
549.5802, 266.9693
550.0623, 268.8593
550.5444, 270.2644
551.0266, 269.0591
551.5087, 266.2596
551.9908, 264.1953
552.4729, 263.5761
552.9550, 263.7123
553.4371, 263.9084
553.9193, 264.3514
554.4014, 263.6121
554.8835, 260.9624
555.3656, 258.1242
555.8477, 255.3298
556.3298, 252.8581
556.8120, 251.3120
557.2941, 250.8493
557.7762, 250.5437
558.2583, 248.7841
558.7404, 245.2701
559.2225, 242.9993
559.7047, 243.4234
560.1868, 243.2997
560.6689, 240.1883
561.1510, 235.7985
561.6331, 233.2019
562.1152, 233.8335
562.5974, 235.0260
563.0795, 233.9339
563.5616, 231.2944
564.0437, 230.0941
564.5258, 231.2348
565.0079, 232.3693
565.4901, 231.0902
565.9722, 227.5341
566.4543, 225.1970
566.9364, 225.5018
567.4185, 225.3933
567.9006, 222.4775
568.3828, 218.9136
568.8649, 218.2542
569.3470, 221.1985
569.8291, 224.9329
570.3112, 226.0678
570.7933, 224.4034
571.2755, 223.8596
571.7576, 225.8224
572.2397, 227.1711
572.7218, 226.5311
573.2039, 225.2232
573.6860, 224.8989
574.1682, 225.9410
574.6503, 227.0530
575.1324, 226.5451
575.6145, 224.9718
576.0966, 225.1380
576.5787, 227.7256
577.0609, 230.0545
577.5430, 230.6667
578.0251, 229.7632
578.5072, 227.8116
578.9893, 223.7846
579.4714, 221.0493
579.9536, 221.5118
580.4357, 223.6452
580.9178, 226.0598
581.3999, 228.3525
581.8820, 229.8566
582.3641, 229.9823
582.8463, 228.9505
583.3284, 228.0419
583.8105, 227.1560
584.2926, 226.5595
584.7747, 226.3936
585.2568, 226.4137
585.7390, 226.1131
586.2211, 225.7157
586.7032, 226.2906
587.1853, 229.1223
587.6674, 233.0940
588.1495, 234.9668
588.6317, 234.4304
589.1138, 233.7162
589.5959, 233.5236
590.0780, 233.4678
590.5601, 232.7254
591.0422, 231.3125
591.5244, 231.1872
592.0065, 234.2873
592.4886, 237.8779
592.9707, 239.2861
593.4528, 238.9607
593.9349, 238.8006
594.4171, 239.6609
594.8992, 240.9062
595.3813, 241.4059
595.8634, 240.8406
596.3455, 240.4561
596.8276, 241.3132
597.3098, 241.2234
597.7919, 238.2554
598.2740, 233.9673
598.7561, 230.9949
599.2382, 230.4275
599.7203, 231.1073
600.2025, 231.6960
600.6846, 232.1924
601.1667, 232.4075
601.6488, 232.1802
602.1309, 231.9597
602.6130, 232.3056
603.0952, 232.8456
603.5773, 232.8203
604.0594, 232.1994
604.5415, 230.8825
605.0236, 227.9032
605.5057, 224.5419
605.9879, 223.1754
606.4700, 224.0094
606.9521, 224.7935
607.4342, 223.4719
607.9163, 220.5233
608.3984, 219.6511
608.8806, 224.0645
609.3627, 226.1078
609.8448, 222.9319
610.3269, 218.8765
610.8090, 217.4512
611.2911, 218.6161
611.7733, 220.0938
612.2554, 220.4969
612.7375, 219.9778
613.2196, 218.7824
613.7017, 216.8575
614.1838, 214.6083
614.6660, 211.5232
615.1481, 208.9222
615.6302, 208.9966
616.1123, 211.5168
616.5944, 212.7114
617.0765, 210.3521
617.5587, 207.8154
618.0408, 207.7747
618.5229, 209.2531
619.0050, 210.0064
619.4871, 209.2476
619.9692, 207.5979
620.4514, 205.6756
620.9335, 203.2241
621.4156, 202.4422
621.8977, 205.7008
622.3798, 207.8278
622.8619, 206.7754
623.3441, 204.2733
623.8262, 201.9331
624.3083, 200.1992
624.7904, 199.6862
625.2725, 202.4798
625.7546, 206.7413
626.2367, 206.3220
626.7188, 200.4060
627.2009, 196.0302
627.6830, 197.5035
628.1652, 202.2858
628.6473, 204.4640
629.1294, 203.1904
629.6115, 202.5693
630.0936, 204.1660
630.5757, 205.7854
631.0579, 205.2613
631.5400, 203.4038
632.0221, 202.7987
632.5042, 204.8021
632.9863, 207.7753
633.4684, 208.4532
633.9506, 206.2365
634.4327, 204.6728
634.9148, 203.8438
635.3969, 203.8652
635.8790, 205.3923
636.3611, 207.5636
636.8433, 208.7407
637.3254, 208.1521
637.8075, 207.6882
638.2896, 208.6898
638.7717, 210.7695
