##NAMES=Manganite
##RRUFFID=R070593
##IDEAL CHEMISTRY=Mn^3+^O(OH)
##LOCALITY=Ilfeld, near Nordhausen, Harz Mountains, Thuringia, Germany
##OWNER=RRUFF
##SOURCE=James Shigley
##DESCRIPTION=Bundled aggregates of steel-gray metallic prisms
##STATUS=The identification of this mineral has been confirmed by X-ray diffraction and chemical analysis
##URL=rruff.info/R070593
##MEASURED CHEMISTRY=Mn^3+^_1.00_O(OH) ; OH estimated by difference and stoichiometry
116.3736, 715.5214
116.8557, 726.6708
117.3378, 737.5516
117.8199, 740.9429
118.3021, 732.6149
118.7842, 714.4700
119.2663, 698.7073
119.7484, 686.4850
120.2305, 674.7565
120.7126, 658.5604
121.1948, 640.5375
121.6769, 631.0133
122.1590, 640.7089
122.6411, 670.0170
123.1232, 688.1071
123.6053, 681.6975
124.0875, 671.3582
124.5696, 679.6385
125.0517, 711.7666
125.5338, 746.2326
126.0159, 759.6634
126.4980, 756.2174
126.9802, 748.5661
127.4623, 739.0849
127.9444, 728.6196
128.4265, 719.1210
128.9086, 708.5874
129.3907, 702.5867
129.8729, 706.0952
130.3550, 719.1307
130.8371, 734.2186
131.3192, 743.8423
131.8013, 746.8255
132.2834, 753.6458
132.7656, 768.1918
133.2477, 786.5359
133.7298, 807.5059
134.2119, 830.9427
134.6940, 855.0668
135.1761, 875.8615
135.6583, 888.5075
136.1404, 906.6315
136.6225, 939.1801
137.1046, 975.2401
137.5867, 1001.775
138.0688, 1010.783
138.5510, 1005.904
139.0331, 1011.775
139.5152, 1034.448
139.9973, 1062.612
140.4794, 1094.511
140.9615, 1130.320
141.4437, 1171.422
141.9258, 1220.301
142.4079, 1278.340
142.8900, 1326.477
143.3721, 1354.492
143.8542, 1383.046
144.3364, 1424.726
144.8185, 1479.965
145.3006, 1540.283
145.7827, 1599.770
146.2648, 1661.885
146.7469, 1701.159
147.2291, 1718.889
147.7112, 1712.538
148.1933, 1677.078
148.6754, 1609.682
149.1575, 1519.084
149.6396, 1405.038
150.1218, 1262.145
150.6039, 1142.380
151.0860, 1077.670
151.5681, 1052.779
152.0502, 1019.590
152.5323, 959.0489
153.0145, 887.6483
153.4966, 828.9645
153.9787, 784.6711
154.4608, 747.0540
154.9429, 708.4492
155.4250, 668.2453
155.9072, 637.3936
156.3893, 628.4761
156.8714, 627.5012
157.3535, 621.6948
157.8356, 606.2974
158.3177, 588.4543
158.7999, 580.8322
159.2820, 588.9519
159.7641, 594.0133
160.2462, 585.8960
160.7283, 572.8019
161.2104, 563.5369
161.6926, 562.2032
162.1747, 568.0463
162.6568, 579.2130
163.1389, 609.8918
163.6210, 627.4114
164.1031, 611.2267
164.5853, 577.0685
165.0674, 552.4839
165.5495, 560.9735
166.0316, 604.3157
166.5137, 628.9313
166.9958, 623.3068
167.4780, 609.9156
167.9601, 589.8464
168.4422, 567.0515
168.9243, 549.0070
169.4064, 544.4344
169.8885, 558.6381
170.3707, 565.9722
170.8528, 557.5041
171.3349, 550.0755
171.8170, 558.1419
172.2991, 582.0781
172.7813, 607.1196
173.2634, 613.2729
173.7455, 587.1634
174.2276, 568.0677
174.7097, 556.6307
175.1918, 551.8272
175.6740, 555.5399
176.1561, 568.7165
176.6382, 584.1918
177.1203, 587.6772
177.6024, 574.5771
178.0845, 562.2496
178.5667, 554.3398
179.0488, 549.3331
179.5309, 544.0970
180.0130, 536.7973
180.4951, 529.9517
180.9772, 529.0101
181.4594, 534.8533
181.9415, 543.1039
182.4236, 556.8226
182.9057, 573.2496
183.3878, 578.1351
183.8699, 558.0892
184.3521, 527.1261
184.8342, 512.6830
185.3163, 520.2031
185.7984, 536.8137
186.2805, 544.7681
186.7626, 561.7114
187.2448, 571.9557
187.7269, 575.8603
188.2090, 554.4387
188.6911, 565.7206
189.1732, 563.8965
189.6553, 561.5349
190.1375, 577.4201
190.6196, 559.6821
191.1017, 575.2776
191.5838, 577.5670
192.0659, 585.9462
192.5480, 581.1384
193.0302, 580.4040
193.5123, 592.8605
193.9944, 598.0130
194.4765, 591.6871
194.9586, 600.4535
195.4407, 582.2548
195.9229, 587.7186
196.4050, 603.3914
196.8871, 597.7285
197.3692, 606.7360
197.8513, 610.1562
198.3334, 588.1846
198.8156, 610.3723
199.2977, 613.4622
199.7798, 596.9436
200.2619, 617.6177
200.7440, 603.8024
201.2261, 628.5897
201.7083, 644.6408
202.1904, 648.1619
202.6725, 650.6493
203.1546, 658.9857
203.6367, 670.2504
204.1188, 674.8520
204.6010, 660.7839
205.0831, 621.1320
205.5652, 601.8478
206.0473, 620.0554
206.5294, 641.5731
207.0115, 649.0475
207.4937, 643.1920
207.9758, 637.1167
208.4579, 646.6654
208.9400, 680.4369
209.4221, 702.7261
209.9042, 702.4861
210.3864, 701.2029
210.8685, 714.6696
211.3506, 743.8116
211.8327, 776.3743
212.3148, 795.4784
212.7970, 790.9335
213.2791, 796.1567
213.7612, 817.4189
214.2433, 843.7868
214.7254, 864.3550
215.2075, 877.0473
215.6897, 891.1189
216.1718, 920.1158
216.6539, 970.0210
217.1360, 1026.878
217.6181, 1108.212
218.1002, 1188.708
218.5824, 1243.122
219.0645, 1264.010
219.5466, 1257.088
220.0287, 1228.052
220.5108, 1167.211
220.9929, 1107.521
221.4751, 1053.729
221.9572, 1003.266
222.4393, 951.1722
222.9214, 894.6487
223.4035, 839.7798
223.8856, 799.7716
224.3678, 776.1901
224.8499, 758.0117
225.3320, 743.5189
225.8141, 732.3622
226.2962, 723.7682
226.7783, 717.2579
227.2605, 713.6295
227.7426, 714.8726
228.2247, 721.5742
228.7068, 729.7348
229.1889, 738.4752
229.6710, 747.5540
230.1532, 756.4061
230.6353, 764.7197
231.1174, 772.7751
231.5995, 781.5054
232.0816, 791.9667
232.5637, 800.2373
233.0459, 800.1022
233.5280, 794.8013
234.0101, 798.4318
234.4922, 821.1785
234.9743, 850.6543
235.4564, 865.2874
235.9386, 859.7626
236.4207, 855.2369
236.9028, 865.1489
237.3849, 888.0975
237.8670, 914.8477
238.3491, 941.7115
238.8313, 971.7245
239.3134, 1010.384
239.7955, 1062.047
240.2776, 1109.745
240.7597, 1135.786
241.2418, 1141.804
241.7240, 1153.056
242.2061, 1178.973
242.6882, 1214.804
243.1703, 1252.645
243.6524, 1290.226
244.1345, 1335.212
244.6167, 1400.493
245.0988, 1486.318
245.5809, 1561.305
246.0630, 1601.189
246.5451, 1633.643
247.0272, 1688.473
247.5094, 1772.896
247.9915, 1865.667
248.4736, 1944.950
248.9557, 2009.672
249.4378, 2078.241
249.9199, 2155.362
250.4021, 2241.157
250.8842, 2334.433
251.3663, 2434.767
251.8484, 2545.980
252.3305, 2683.155
252.8126, 2852.059
253.2948, 2997.285
253.7769, 3086.411
254.2590, 3151.176
254.7411, 3211.813
255.2232, 3271.363
255.7053, 3332.515
256.1874, 3406.252
256.6696, 3498.965
257.1517, 3564.817
257.6338, 3579.323
258.1159, 3566.405
258.5980, 3539.298
259.0801, 3500.862
259.5623, 3447.471
260.0444, 3377.910
260.5265, 3294.238
261.0086, 3183.043
261.4907, 3013.753
261.9728, 2830.404
262.4550, 2658.948
262.9371, 2504.802
263.4192, 2360.035
263.9013, 2210.681
264.3834, 2054.142
264.8655, 1911.774
265.3477, 1789.862
265.8298, 1684.287
266.3119, 1596.852
266.7940, 1528.167
267.2761, 1469.527
267.7582, 1411.663
268.2404, 1353.996
268.7225, 1300.380
269.2046, 1253.004
269.6867, 1208.908
270.1688, 1163.393
270.6509, 1116.200
271.1331, 1077.423
271.6152, 1062.513
272.0973, 1076.450
272.5794, 1085.814
273.0615, 1081.536
273.5436, 1073.550
274.0258, 1064.324
274.5079, 1054.927
274.9900, 1050.310
275.4721, 1057.675
275.9542, 1079.156
276.4363, 1098.937
276.9185, 1115.583
277.4006, 1129.563
277.8827, 1135.655
278.3648, 1135.502
278.8469, 1142.664
279.3290, 1173.608
279.8112, 1231.585
280.2933, 1288.445
280.7754, 1340.016
281.2575, 1391.270
281.7396, 1442.602
282.2217, 1495.130
282.7039, 1552.062
283.1860, 1624.320
283.6681, 1714.905
284.1502, 1778.967
284.6323, 1805.067
285.1144, 1809.070
285.5966, 1800.420
286.0787, 1777.578
286.5608, 1731.692
287.0429, 1644.974
287.5250, 1517.065
288.0071, 1403.332
288.4893, 1316.096
288.9714, 1233.862
289.4535, 1145.912
289.9356, 1054.201
290.4177, 966.7236
290.8998, 887.3309
291.3820, 816.1202
291.8641, 761.2763
292.3462, 732.1128
292.8283, 709.8757
293.3104, 684.1752
293.7925, 657.9283
294.2747, 639.0132
294.7568, 636.4036
295.2389, 646.5477
295.7210, 646.4218
296.2031, 623.7884
296.6852, 608.6020
297.1674, 622.7461
297.6495, 652.0131
298.1316, 668.4752
298.6137, 650.3611
299.0958, 609.4926
299.5779, 589.8850
300.0601, 603.5341
300.5422, 617.5491
301.0243, 614.4821
301.5064, 603.9943
301.9885, 601.1647
302.4706, 616.9617
302.9528, 641.1201
303.4349, 646.7466
303.9170, 623.5557
304.3991, 606.6516
304.8812, 619.1461
305.3633, 642.1435
305.8455, 652.5425
306.3276, 638.4377
306.8097, 614.7601
307.2918, 607.3651
307.7739, 621.2720
308.2560, 633.6848
308.7382, 634.2152
309.2203, 629.9849
309.7024, 626.5446
310.1845, 625.0693
310.6666, 625.6676
311.1487, 629.1329
311.6309, 635.8856
312.1130, 642.2566
312.5951, 646.0068
313.0772, 649.5927
313.5593, 656.1655
314.0414, 666.7985
314.5236, 676.1238
315.0057, 678.7215
315.4878, 674.6741
315.9699, 668.0236
316.4520, 652.3810
316.9341, 641.5380
317.4163, 649.7563
317.8984, 678.4901
318.3805, 709.9452
318.8626, 734.5303
319.3447, 752.0430
319.8268, 759.8143
320.3090, 751.5131
320.7911, 740.8714
321.2732, 741.7648
321.7553, 753.3716
322.2374, 764.7563
322.7195, 767.9728
323.2017, 766.7161
323.6838, 772.6486
324.1659, 790.5311
324.6480, 808.5062
325.1301, 813.3120
325.6122, 808.2255
326.0944, 806.8361
326.5765, 817.6774
327.0586, 833.8635
327.5407, 843.3292
328.0228, 843.7277
328.5049, 845.0735
328.9871, 860.0504
329.4692, 883.2957
329.9513, 895.9246
330.4334, 886.1755
330.9155, 869.2891
331.3976, 857.9735
331.8798, 852.6108
332.3619, 857.0964
332.8440, 880.8502
333.3261, 916.0316
333.8082, 933.4639
334.2903, 915.7820
334.7725, 894.9244
335.2546, 892.4734
335.7367, 905.4272
336.2188, 918.8479
336.7010, 924.6144
337.1831, 926.5302
337.6652, 936.1282
338.1473, 957.2194
338.6294, 979.1725
339.1115, 998.0728
339.5937, 1014.814
340.0758, 1029.688
340.5579, 1041.396
341.0400, 1055.359
341.5221, 1085.230
342.0042, 1139.318
342.4864, 1188.134
342.9685, 1220.146
343.4506, 1246.233
343.9327, 1279.022
344.4148, 1321.781
344.8969, 1372.845
345.3791, 1430.483
345.8612, 1498.173
346.3433, 1563.474
346.8254, 1621.977
347.3075, 1680.975
347.7896, 1743.523
348.2718, 1811.303
348.7539, 1888.396
349.2360, 1980.205
349.7181, 2088.505
350.2002, 2199.357
350.6823, 2315.410
351.1645, 2431.242
351.6466, 2542.211
352.1287, 2650.610
352.6108, 2761.255
353.0929, 2878.103
353.5750, 3000.973
354.0572, 3130.596
354.5393, 3266.215
355.0214, 3409.288
355.5035, 3574.067
355.9856, 3744.354
356.4677, 3899.636
356.9499, 4029.917
357.4320, 4133.603
357.9141, 4206.497
358.3962, 4259.710
358.8783, 4258.910
359.3604, 4187.809
359.8426, 4072.906
360.3247, 3936.664
360.8068, 3787.639
361.2889, 3620.183
361.7710, 3421.067
362.2531, 3167.342
362.7353, 2942.042
363.2174, 2753.155
363.6995, 2589.192
364.1816, 2446.062
364.6637, 2322.691
365.1458, 2219.072
365.6280, 2137.896
366.1101, 2079.858
366.5922, 2030.596
367.0743, 1992.512
367.5564, 1961.480
368.0385, 1937.289
368.5207, 1918.451
369.0028, 1901.252
369.4849, 1877.842
369.9670, 1854.213
370.4491, 1853.554
370.9312, 1877.860
371.4134, 1922.238
371.8955, 1986.137
372.3776, 2066.151
372.8597, 2156.581
373.3418, 2249.860
373.8239, 2360.228
374.3061, 2512.446
374.7882, 2709.405
375.2703, 2917.529
375.7524, 3118.230
376.2345, 3326.631
376.7166, 3559.852
377.1988, 3819.197
377.6809, 4102.570
378.1630, 4410.957
378.6451, 4742.829
379.1272, 5089.186
379.6093, 5444.638
380.0915, 5822.317
380.5736, 6238.058
381.0557, 6687.002
381.5378, 7179.792
382.0199, 7709.993
382.5020, 8289.536
382.9842, 8931.450
383.4663, 9634.320
383.9484, 10414.94
384.4305, 11289.52
384.9126, 12276.07
385.3947, 13297.58
385.8769, 14513.98
386.3590, 15639.73
386.8411, 16525.92
387.3232, 17158.29
387.8053, 17542.28
388.2874, 17693.04
388.7696, 17596.00
389.2517, 17082.32
389.7338, 15987.22
390.2159, 14747.26
390.6980, 13383.23
391.1801, 11967.44
391.6623, 10572.62
392.1444, 9234.318
392.6265, 7984.484
393.1086, 6890.321
393.5907, 5997.349
394.0728, 5219.237
394.5550, 4569.078
395.0371, 4018.410
395.5192, 3556.604
396.0013, 3178.290
396.4834, 2859.404
396.9655, 2576.876
397.4477, 2329.088
397.9298, 2121.526
398.4119, 1980.946
398.8940, 1855.707
399.3761, 1724.633
399.8582, 1594.012
400.3404, 1484.071
400.8225, 1412.588
401.3046, 1370.206
401.7867, 1313.290
402.2688, 1229.299
402.7509, 1153.978
403.2331, 1100.732
403.7152, 1060.536
404.1973, 1023.650
404.6794, 986.8587
405.1615, 951.7607
405.6436, 919.5452
406.1258, 889.7910
406.6079, 866.7930
407.0900, 857.5309
407.5721, 850.7578
408.0542, 833.2480
408.5363, 803.7546
409.0185, 778.2928
409.5006, 773.7799
409.9827, 780.3697
410.4648, 769.0728
410.9469, 731.0209
411.4290, 690.2571
411.9112, 672.7595
412.3933, 674.5609
412.8754, 672.4918
413.3575, 659.0465
413.8396, 642.7313
414.3217, 632.6730
414.8039, 627.9625
415.2860, 618.4275
415.7681, 594.9661
416.2502, 562.9016
416.7323, 548.6636
417.2144, 565.8914
417.6966, 581.6789
418.1787, 589.6834
418.6608, 589.9915
419.1429, 579.4697
419.6250, 556.8401
420.1071, 532.1054
420.5893, 522.8102
421.0714, 539.7995
421.5535, 550.7065
422.0356, 554.9040
422.5177, 554.1283
422.9998, 548.4128
423.4820, 538.5137
423.9641, 526.0175
424.4462, 511.3798
424.9283, 494.5038
425.4104, 484.3544
425.8925, 487.8659
426.3747, 490.7554
426.8568, 489.9945
427.3389, 486.2332
427.8210, 480.2918
428.3031, 472.2271
428.7852, 463.4118
429.2674, 455.1075
429.7495, 444.9323
430.2316, 443.5358
430.7137, 471.9841
431.1958, 498.9331
431.6779, 495.0258
432.1601, 456.7475
432.6422, 422.4734
433.1243, 431.1277
433.6064, 471.5908
434.0885, 492.2474
434.5706, 482.2366
435.0528, 461.0258
435.5349, 435.8055
436.0170, 410.4464
436.4991, 402.3925
436.9812, 430.9372
437.4633, 468.7366
437.9455, 488.7741
438.4276, 491.9130
438.9097, 491.7980
439.3918, 495.9673
439.8739, 502.0435
440.3560, 501.7825
440.8382, 491.1803
441.3203, 481.3452
441.8024, 472.4700
442.2845, 467.1241
442.7666, 472.2685
443.2487, 489.3024
443.7309, 506.5789
444.2130, 507.0273
444.6951, 482.8708
445.1772, 467.3129
445.6593, 461.5316
446.1414, 461.8835
446.6236, 468.7328
447.1057, 480.2724
447.5878, 493.7935
448.0699, 508.5069
448.5520, 522.5970
449.0341, 524.4760
449.5163, 501.9524
449.9984, 486.0882
450.4805, 490.1194
450.9626, 499.5465
451.4447, 496.9216
451.9268, 476.9695
452.4090, 456.7293
452.8911, 460.6881
453.3732, 489.8374
453.8553, 511.3599
454.3374, 518.8027
454.8195, 518.8878
455.3017, 514.4094
455.7838, 506.7331
456.2659, 502.3138
456.7480, 505.1590
457.2301, 512.5903
457.7122, 521.3351
458.1944, 531.4562
458.6765, 540.4129
459.1586, 546.0998
459.6407, 549.7198
460.1228, 555.5939
460.6049, 567.8704
461.0871, 576.3200
461.5692, 574.2697
462.0513, 566.1164
462.5334, 558.5273
463.0155, 553.3989
463.4977, 551.7900
463.9798, 555.8113
464.4619, 568.5381
464.9440, 577.2144
465.4261, 578.1866
465.9082, 578.6633
466.3904, 584.3083
466.8725, 593.2989
467.3546, 598.7302
467.8367, 595.0137
468.3188, 585.1440
468.8009, 584.8760
469.2831, 601.2943
469.7652, 616.6484
470.2473, 634.1243
470.7294, 645.8108
471.2115, 638.0555
471.6936, 608.7000
472.1758, 582.3934
472.6579, 593.5554
473.1400, 641.6213
473.6221, 671.8672
474.1042, 671.1830
474.5863, 662.3336
475.0685, 658.5977
475.5506, 659.4759
476.0327, 663.6921
476.5148, 668.1117
476.9969, 677.2693
477.4790, 698.5849
477.9612, 731.3812
478.4433, 766.0846
478.9254, 799.3602
479.4075, 830.6187
479.8896, 857.0936
480.3717, 874.4781
480.8539, 897.7275
481.3360, 936.9421
481.8181, 980.8638
482.3002, 1011.945
482.7823, 1029.022
483.2644, 1051.542
483.7466, 1100.765
484.2287, 1179.798
484.7108, 1250.183
485.1929, 1306.359
485.6750, 1361.261
486.1571, 1410.386
486.6393, 1462.906
487.1214, 1534.778
487.6035, 1633.550
488.0856, 1746.822
488.5677, 1845.170
489.0498, 1918.400
489.5320, 2013.371
490.0141, 2165.066
490.4962, 2318.916
490.9783, 2450.099
491.4604, 2555.647
491.9425, 2638.540
492.4247, 2712.822
492.9068, 2763.148
493.3889, 2747.547
493.8710, 2658.473
494.3531, 2540.530
494.8352, 2406.751
495.3174, 2263.802
495.7995, 2127.196
496.2816, 1999.787
496.7637, 1875.252
497.2458, 1739.811
497.7279, 1607.708
498.2101, 1506.050
498.6922, 1441.949
499.1743, 1399.967
499.6564, 1363.017
500.1385, 1330.972
500.6206, 1305.946
501.1028, 1282.142
501.5849, 1269.815
502.0670, 1278.163
502.5491, 1300.821
503.0312, 1324.978
503.5133, 1343.551
503.9955, 1361.261
504.4776, 1390.189
504.9597, 1434.022
505.4418, 1479.902
505.9239, 1531.781
506.4060, 1580.883
506.8882, 1618.807
507.3703, 1646.748
507.8524, 1675.693
508.3345, 1708.698
508.8166, 1748.689
509.2987, 1806.201
509.7809, 1883.601
510.2630, 1967.851
510.7451, 2047.275
511.2272, 2130.359
511.7093, 2237.454
512.1914, 2389.213
512.6735, 2527.439
513.1556, 2610.430
513.6378, 2663.969
514.1199, 2728.952
514.6020, 2815.861
515.0841, 2918.445
515.5662, 3029.384
516.0483, 3147.819
516.5305, 3285.515
517.0126, 3458.419
517.4947, 3631.272
517.9768, 3784.382
518.4589, 3928.799
518.9410, 4085.085
519.4232, 4261.229
519.9053, 4453.503
520.3874, 4655.339
520.8695, 4871.624
521.3516, 5080.450
521.8337, 5263.471
522.3159, 5451.813
522.7980, 5666.247
523.2801, 5903.323
523.7622, 6140.725
524.2443, 6364.080
524.7264, 6583.153
525.2086, 6822.641
525.6907, 7083.924
526.1728, 7327.169
526.6549, 7526.650
527.1370, 7699.498
527.6191, 7887.119
528.1013, 8105.951
528.5834, 8294.210
529.0655, 8425.871
529.5476, 8522.403
530.0297, 8604.904
530.5118, 8676.879
530.9940, 8736.879
531.4761, 8788.709
531.9582, 8830.216
532.4403, 8806.010
532.9224, 8668.945
533.4045, 8516.495
533.8867, 8355.829
534.3688, 8191.826
534.8509, 8030.188
535.3330, 7872.990
535.8151, 7709.300
536.2972, 7521.353
536.7794, 7308.671
537.2615, 7110.939
537.7436, 6921.579
538.2257, 6759.444
538.7078, 6642.293
539.1899, 6557.643
539.6721, 6482.771
540.1542, 6409.935
540.6363, 6346.842
541.1184, 6291.050
541.6005, 6249.005
542.0826, 6245.601
542.5648, 6291.425
543.0469, 6363.865
543.5290, 6429.996
544.0111, 6479.634
544.4932, 6568.856
544.9753, 6706.277
545.4575, 6873.193
545.9396, 7065.471
546.4217, 7278.120
546.9038, 7505.371
547.3859, 7744.525
547.8680, 7997.712
548.3502, 8261.553
548.8323, 8544.267
549.3144, 8837.188
549.7965, 9145.021
550.2786, 9460.424
550.7607, 9778.947
551.2429, 10102.12
551.7250, 10438.89
552.2071, 10802.68
552.6892, 11180.45
553.1713, 11557.69
553.6534, 11935.84
554.1356, 12294.32
554.6177, 12626.70
555.0998, 12932.18
555.5819, 13214.72
556.0640, 13489.03
556.5461, 13708.33
557.0283, 13865.05
557.5104, 13961.26
557.9925, 14002.65
558.4746, 13986.21
558.9567, 13897.72
559.4388, 13725.38
559.9210, 13475.51
560.4031, 13183.25
560.8852, 12855.75
561.3673, 12470.01
561.8494, 12002.92
562.3315, 11501.48
562.8137, 10997.23
563.2958, 10495.23
563.7779, 9992.893
564.2600, 9482.895
564.7421, 8972.724
565.2242, 8483.873
565.7064, 8017.128
566.1885, 7571.688
566.6706, 7147.482
567.1527, 6750.833
567.6348, 6393.479
568.1169, 6091.917
568.5991, 5790.862
569.0812, 5457.049
569.5633, 5121.184
570.0454, 4818.379
570.5275, 4552.772
571.0096, 4318.484
571.4918, 4109.453
571.9739, 3925.350
572.4560, 3753.227
572.9381, 3594.579
573.4202, 3446.260
573.9023, 3309.087
574.3845, 3180.065
574.8666, 3056.515
575.3487, 2937.837
575.8308, 2824.510
576.3129, 2718.871
576.7950, 2619.012
577.2772, 2515.128
577.7593, 2402.033
578.2414, 2305.191
578.7235, 2248.236
579.2056, 2214.989
579.6877, 2166.013
580.1699, 2090.870
580.6520, 2019.539
581.1341, 1967.638
581.6162, 1923.935
582.0984, 1873.219
582.5805, 1814.082
583.0626, 1758.341
583.5447, 1716.292
584.0269, 1687.088
584.5090, 1661.135
584.9911, 1647.610
585.4732, 1624.585
585.9553, 1583.421
586.4374, 1535.047
586.9196, 1486.803
587.4017, 1441.120
587.8838, 1401.745
588.3659, 1373.363
588.8480, 1349.042
589.3301, 1345.454
589.8123, 1335.159
590.2944, 1318.532
590.7765, 1276.577
591.2586, 1267.325
591.7407, 1244.968
592.2228, 1222.075
592.7050, 1217.422
593.1871, 1179.154
593.6692, 1174.217
594.1513, 1155.974
594.6334, 1141.512
595.1155, 1136.011
595.5977, 1124.650
596.0798, 1108.631
596.5619, 1095.964
597.0440, 1087.598
597.5261, 1081.177
598.0082, 1075.889
598.4904, 1072.442
598.9725, 1071.858
599.4546, 1074.014
599.9367, 1077.125
600.4188, 1080.317
600.9009, 1083.512
601.3831, 1085.766
601.8652, 1086.959
602.3473, 1090.880
602.8294, 1100.047
603.3115, 1112.460
603.7936, 1123.101
604.2758, 1128.506
604.7579, 1141.043
605.2400, 1171.603
605.7221, 1202.657
606.2042, 1214.206
606.6863, 1212.589
607.1685, 1222.809
607.6506, 1262.279
608.1327, 1318.989
608.6148, 1356.297
609.0969, 1363.849
609.5790, 1384.504
610.0612, 1429.214
610.5433, 1486.619
611.0254, 1553.805
611.5075, 1628.390
