##NAMES=Manganoneptunite
##RRUFFID=R060901
##IDEAL CHEMISTRY=KNa_2_LiMn^2+^_2_Ti^4+^_2_Si_8_O_24_
##LOCALITY=Mont St. Hilaire, Quebec, Canada
##OWNER=RRUFF
##SOURCE=Royal Ontario Museum
##DESCRIPTION=Dark reddish-brown single crystal cleavage fragment.
##STATUS=The identification of this mineral has been confirmed by X-ray diffraction and chemical analysis
##URL=rruff.info/R060901
##MEASURED CHEMISTRY=(K_0.92_Na_0.08_)_Σ=1_Na_2.00_Li_1.00_(Mn^2+^_1.44_Zn_0.25_Mg_0.20_Fe^3+^_0.11_)_Σ=2_(Ti_1.89_Fe^3+^_0.08_Al_0.03_)_Σ=2_Si_8.00_O_24_ ; Li not measured but estimated by difference and stoichiometry; Fe as Fe3 by charge balance
119.5989, 125.4742
120.0811, 125.1029
120.5632, 128.0408
121.0453, 135.0545
121.5274, 147.7243
122.0095, 165.7487
122.4916, 184.0888
122.9738, 199.8512
123.4559, 219.1874
123.9380, 242.9119
124.4201, 271.9000
124.9022, 308.3473
125.3843, 356.9411
125.8665, 419.5356
126.3486, 478.7512
126.8307, 539.8998
127.3128, 592.9464
127.7949, 631.0735
128.2770, 654.8926
128.7592, 670.7834
129.2413, 685.3013
129.7234, 697.7339
130.2055, 711.0570
130.6876, 736.5229
131.1697, 755.1115
131.6519, 754.6788
132.1340, 733.2193
132.6161, 697.7615
133.0982, 657.1924
133.5803, 605.1343
134.0624, 560.7093
134.5446, 526.7239
135.0267, 497.5681
135.5088, 468.6613
135.9909, 438.6674
136.4730, 410.4511
136.9551, 388.9226
137.4373, 371.9656
137.9194, 366.7164
138.4015, 379.4364
138.8836, 400.3012
139.3657, 419.5281
139.8478, 433.3896
140.3300, 445.2075
140.8121, 463.6249
141.2942, 493.0689
141.7763, 524.6742
142.2584, 559.4964
142.7405, 595.9825
143.2227, 632.2045
143.7048, 667.4202
144.1869, 702.0308
144.6690, 738.0622
145.1511, 779.0997
145.6333, 817.1445
146.1154, 849.3332
146.5975, 878.0233
147.0796, 908.4077
147.5617, 943.8052
148.0438, 981.2672
148.5260, 1006.151
149.0081, 1015.478
149.4902, 1018.864
149.9723, 1018.105
150.4544, 1013.352
150.9365, 1004.500
151.4187, 991.3312
151.9008, 974.0645
152.3829, 954.7955
152.8650, 932.0809
153.3471, 909.1702
153.8292, 887.4995
154.3114, 866.7118
154.7935, 844.8303
155.2756, 818.9050
155.7577, 791.8586
156.2398, 776.8322
156.7219, 785.1242
157.2041, 793.8952
157.6862, 787.9117
158.1683, 770.0662
158.6504, 755.9721
159.1325, 755.6130
159.6146, 767.7463
160.0968, 779.9263
160.5789, 793.8417
161.0610, 806.3619
161.5431, 814.8825
162.0252, 819.6387
162.5073, 823.4750
162.9895, 828.7335
163.4716, 834.3740
163.9537, 836.6371
164.4358, 830.9738
164.9179, 825.0333
165.4000, 825.7253
165.8822, 833.0392
166.3643, 841.0026
166.8464, 845.7164
167.3285, 848.0261
167.8106, 851.0388
168.2927, 857.0048
168.7749, 862.5501
169.2570, 863.8361
169.7391, 860.6251
170.2212, 857.2094
170.7033, 856.8233
171.1854, 858.3361
171.6676, 858.8115
172.1497, 857.2361
172.6318, 854.7506
173.1139, 852.4451
173.5960, 850.3184
174.0781, 848.3935
174.5603, 847.0481
175.0424, 845.9022
175.5245, 844.1091
176.0066, 839.8446
176.4887, 835.6997
176.9708, 836.4393
177.4530, 843.3159
177.9351, 847.7646
178.4172, 839.5671
178.8993, 825.4221
179.3814, 817.6315
179.8635, 823.4063
180.3457, 834.8894
180.8278, 841.8071
181.3099, 843.5117
181.7920, 843.4424
182.2741, 841.3505
182.7562, 839.1520
183.2384, 840.3151
183.7205, 847.3000
184.2026, 857.2778
184.6847, 866.1843
185.1668, 873.5438
185.6489, 881.4890
186.1311, 891.4584
186.6132, 902.8251
187.0953, 915.0325
187.5774, 928.7850
188.0595, 942.7554
188.5416, 953.5198
189.0238, 959.4425
189.5059, 968.7120
189.9880, 988.4089
190.4701, 1014.077
190.9522, 1040.280
191.4343, 1065.949
191.9165, 1091.031
192.3986, 1114.771
192.8807, 1136.468
193.3628, 1160.014
193.8449, 1193.363
194.3270, 1228.665
194.8092, 1254.705
195.2913, 1265.606
195.7734, 1268.187
196.2555, 1272.489
196.7376, 1279.313
197.2197, 1284.567
197.7019, 1285.296
198.1840, 1283.430
198.6661, 1281.097
199.1482, 1279.845
199.6303, 1277.310
200.1124, 1269.800
200.5946, 1256.637
201.0767, 1241.658
201.5588, 1226.287
202.0409, 1210.185
202.5230, 1192.501
203.0051, 1172.527
203.4873, 1151.750
203.9694, 1132.141
204.4515, 1113.931
204.9336, 1095.785
205.4157, 1075.702
205.8978, 1055.921
206.3800, 1039.433
206.8621, 1027.679
207.3442, 1017.720
207.8263, 1006.040
208.3084, 992.3951
208.7905, 979.0293
209.2727, 966.3698
209.7548, 954.7959
210.2369, 944.9343
210.7190, 937.2852
211.2011, 930.5565
211.6832, 922.7557
212.1654, 913.6785
212.6475, 907.3924
213.1296, 908.1229
213.6117, 910.9052
214.0938, 910.7766
214.5759, 906.9589
215.0581, 900.6888
215.5402, 892.0114
216.0223, 880.9574
216.5044, 871.1544
216.9865, 863.8807
217.4686, 858.4073
217.9508, 854.7042
218.4329, 853.5089
218.9150, 850.4284
219.3971, 839.1758
219.8792, 820.7190
220.3613, 808.4638
220.8435, 810.5333
221.3256, 816.3552
221.8077, 813.7718
222.2898, 801.6160
222.7719, 788.8145
223.2540, 781.4939
223.7362, 778.8605
224.2183, 776.6539
224.7004, 773.7981
225.1825, 771.2702
225.6646, 770.6745
226.1467, 772.0989
226.6289, 772.2883
227.1110, 766.4109
227.5931, 757.3775
228.0752, 756.1576
228.5573, 768.4606
229.0394, 782.9385
229.5216, 787.0834
230.0037, 781.7744
230.4858, 776.3541
230.9679, 773.5264
231.4500, 773.5783
231.9321, 778.2776
232.4143, 789.5947
232.8964, 801.1572
233.3785, 806.0367
233.8606, 805.4211
234.3427, 804.5724
234.8248, 805.3093
235.3070, 806.7824
235.7891, 807.6557
236.2712, 807.7357
236.7533, 807.5565
237.2354, 807.3393
237.7175, 807.1732
238.1997, 807.5994
238.6818, 809.7966
239.1639, 812.0743
239.6460, 811.2461
240.1281, 806.9021
240.6102, 804.9697
241.0924, 811.7302
241.5745, 825.2473
242.0566, 834.6078
242.5387, 836.4199
243.0208, 835.6826
243.5029, 836.0370
243.9851, 837.4844
244.4672, 839.0154
244.9493, 840.3715
245.4314, 841.1872
245.9135, 840.3625
246.3956, 836.1365
246.8778, 831.9641
247.3599, 829.7391
247.8420, 829.1937
248.3241, 829.6846
248.8062, 831.5345
249.2883, 833.6421
249.7705, 832.2363
250.2526, 826.1558
250.7347, 818.7014
251.2168, 809.0017
251.6989, 798.8179
252.1810, 792.1553
252.6632, 791.0464
253.1453, 793.4853
253.6274, 794.7255
254.1095, 793.9652
254.5916, 793.5690
255.0737, 793.8826
255.5559, 794.8254
256.0380, 796.3738
256.5201, 798.5292
257.0022, 801.0857
257.4843, 803.7357
257.9665, 806.4144
258.4486, 809.3292
258.9307, 811.4661
259.4128, 814.4269
259.8949, 820.0969
260.3770, 828.7089
260.8592, 838.4856
261.3413, 847.4987
261.8234, 855.8837
262.3055, 862.7559
262.7876, 866.3782
263.2697, 870.0779
263.7519, 875.3989
264.2340, 882.6588
264.7161, 892.1302
265.1982, 904.4554
265.6803, 920.3025
266.1624, 932.9232
266.6446, 938.8499
267.1267, 945.4650
267.6088, 956.2580
268.0909, 970.0802
268.5730, 983.5514
269.0551, 994.1063
269.5373, 1002.229
270.0194, 1013.021
270.5015, 1029.958
270.9836, 1046.084
271.4657, 1060.369
271.9478, 1073.131
272.4300, 1084.345
272.9121, 1093.873
273.3942, 1102.910
273.8763, 1115.547
274.3584, 1134.400
274.8405, 1152.652
275.3227, 1168.964
275.8048, 1184.343
276.2869, 1199.860
276.7690, 1215.774
277.2511, 1231.811
277.7332, 1248.059
278.2154, 1265.602
278.6975, 1279.777
279.1796, 1291.868
279.6617, 1299.209
280.1438, 1297.256
280.6259, 1286.415
281.1081, 1275.117
281.5902, 1273.705
282.0723, 1283.048
282.5544, 1286.551
283.0365, 1279.138
283.5186, 1269.074
284.0008, 1262.591
284.4829, 1258.202
284.9650, 1249.330
285.4471, 1228.188
285.9292, 1198.105
286.4113, 1174.228
286.8935, 1159.220
287.3756, 1145.769
287.8577, 1128.040
288.3398, 1108.642
288.8219, 1092.938
289.3040, 1083.677
289.7862, 1078.845
290.2683, 1076.254
290.7504, 1076.389
291.2325, 1075.707
291.7146, 1070.086
292.1967, 1063.229
292.6789, 1061.543
293.1610, 1068.008
293.6431, 1076.677
294.1252, 1082.851
294.6073, 1086.972
295.0894, 1091.622
295.5716, 1097.080
296.0537, 1104.462
296.5358, 1115.413
297.0179, 1129.852
297.5000, 1147.234
297.9821, 1170.542
298.4643, 1195.972
298.9464, 1214.133
299.4285, 1220.907
299.9106, 1228.243
300.3927, 1254.837
300.8748, 1305.684
301.3570, 1350.494
301.8391, 1381.117
302.3212, 1407.538
302.8033, 1437.335
303.2854, 1471.933
303.7675, 1511.120
304.2497, 1555.573
304.7318, 1605.833
305.2139, 1654.851
305.6960, 1698.547
306.1781, 1745.308
306.6602, 1804.060
307.1424, 1869.262
307.6245, 1928.004
308.1066, 1971.927
308.5887, 2003.148
309.0708, 2033.652
309.5529, 2073.774
310.0351, 2100.506
310.5172, 2107.070
310.9993, 2100.276
311.4814, 2088.256
311.9635, 2074.158
312.4456, 2054.668
312.9278, 2022.666
313.4099, 1973.911
313.8920, 1921.138
314.3741, 1860.574
314.8562, 1800.261
315.3383, 1744.523
315.8205, 1694.356
316.3026, 1649.427
316.7847, 1610.370
317.2668, 1577.821
317.7489, 1544.415
318.2310, 1505.157
318.7132, 1470.623
319.1953, 1445.995
319.6774, 1429.639
320.1595, 1416.506
320.6416, 1403.609
321.1237, 1391.833
321.6059, 1385.066
322.0880, 1385.951
322.5701, 1384.760
323.0522, 1372.161
323.5343, 1356.103
324.0164, 1346.568
324.4986, 1346.424
324.9807, 1352.703
325.4628, 1367.348
325.9449, 1389.427
326.4270, 1400.560
326.9091, 1390.470
327.3913, 1369.629
327.8734, 1352.984
328.3555, 1340.123
328.8376, 1332.783
329.3197, 1334.417
329.8018, 1341.566
330.2840, 1348.593
330.7661, 1354.606
331.2482, 1358.667
331.7303, 1358.289
332.2124, 1352.718
332.6945, 1352.977
333.1767, 1364.460
333.6588, 1378.500
334.1409, 1388.223
334.6230, 1394.043
335.1051, 1401.321
335.5872, 1414.842
336.0694, 1433.354
336.5515, 1442.914
337.0336, 1431.583
337.5157, 1426.434
337.9978, 1437.123
338.4799, 1457.158
338.9621, 1479.292
339.4442, 1500.503
339.9263, 1517.024
340.4084, 1519.615
340.8905, 1494.988
341.3727, 1480.067
341.8548, 1485.454
342.3369, 1492.427
342.8190, 1486.746
343.3011, 1467.688
343.7832, 1445.677
344.2654, 1432.369
344.7475, 1428.683
345.2296, 1417.311
345.7117, 1389.888
346.1938, 1363.842
346.6759, 1347.115
347.1581, 1336.588
347.6402, 1325.973
348.1223, 1311.991
348.6044, 1295.856
349.0865, 1280.604
349.5686, 1266.993
350.0508, 1250.979
350.5329, 1228.345
351.0150, 1203.628
351.4971, 1182.026
351.9792, 1165.091
352.4613, 1148.597
352.9435, 1129.279
353.4256, 1107.762
353.9077, 1085.983
354.3898, 1064.050
354.8719, 1043.096
355.3540, 1024.764
355.8362, 1008.923
356.3183, 994.3424
356.8004, 982.2355
357.2825, 970.4914
357.7646, 957.2484
358.2467, 942.2926
358.7289, 925.6830
359.2110, 906.3305
359.6931, 884.9684
360.1752, 870.1365
360.6573, 869.3071
361.1394, 865.6149
361.6216, 850.1548
362.1037, 829.0491
362.5858, 813.3336
363.0679, 807.6968
363.5500, 806.2991
364.0321, 796.5433
364.5143, 767.8622
364.9964, 749.2897
365.4785, 747.2711
365.9606, 749.1256
366.4427, 746.8729
366.9248, 739.8039
367.4070, 731.5759
367.8891, 725.6056
368.3712, 721.8279
368.8533, 717.5081
369.3354, 711.4359
369.8175, 706.4553
370.2997, 702.0123
370.7818, 699.5504
371.2639, 702.2972
371.7460, 713.5825
372.2281, 726.5069
372.7102, 729.7463
373.1924, 722.2779
373.6745, 715.0366
374.1566, 709.8107
374.6387, 707.9063
375.1208, 711.0260
375.6029, 719.7568
376.0851, 729.0411
376.5672, 737.2753
377.0493, 744.1212
377.5314, 747.4486
378.0135, 746.2600
378.4956, 747.2553
378.9778, 757.8840
379.4599, 778.2604
379.9420, 793.8723
380.4241, 800.0627
380.9062, 805.6533
381.3883, 817.0904
381.8705, 832.0048
382.3526, 843.2374
382.8347, 846.6160
383.3168, 845.9024
383.7989, 851.6073
384.2810, 872.8406
384.7632, 888.6145
385.2453, 894.5685
385.7274, 897.7382
386.2095, 905.4336
386.6916, 917.7927
387.1737, 927.7960
387.6559, 927.3288
388.1380, 915.6601
388.6201, 904.6418
389.1022, 894.9020
389.5843, 885.1099
390.0664, 873.5216
390.5486, 861.7241
391.0307, 853.2050
391.5128, 850.8465
391.9949, 849.7246
392.4770, 840.6320
392.9591, 822.6035
393.4413, 805.3556
393.9234, 791.8211
394.4055, 780.4825
394.8876, 769.8081
395.3697, 759.8746
395.8518, 749.6461
396.3340, 737.7808
396.8161, 725.5908
397.2982, 715.2499
397.7803, 707.0370
398.2624, 700.8671
398.7445, 697.3068
399.2267, 696.2092
399.7088, 693.4141
400.1909, 689.3964
400.6730, 683.2889
401.1551, 670.8696
401.6372, 656.5519
402.1194, 649.8718
402.6015, 655.1792
403.0836, 666.1251
403.5657, 669.4459
404.0478, 657.7286
404.5299, 651.8179
405.0121, 657.1385
405.4942, 663.0875
405.9763, 661.2172
406.4584, 652.9262
406.9405, 646.7415
407.4226, 650.8417
407.9048, 663.1711
408.3869, 668.6563
408.8690, 662.1100
409.3511, 658.2727
409.8332, 665.9411
410.3153, 677.4485
410.7975, 684.0571
411.2796, 683.2165
411.7617, 678.4527
412.2438, 670.2367
412.7259, 659.8656
413.2080, 656.3196
413.6902, 663.6852
414.1723, 674.1042
414.6544, 678.5380
415.1365, 677.7080
415.6186, 678.0071
416.1007, 682.5900
416.5829, 687.2825
417.0650, 689.0052
417.5471, 687.7459
418.0292, 683.7835
418.5113, 676.6125
418.9934, 667.9821
419.4756, 663.9081
419.9577, 671.5336
420.4398, 674.5318
420.9219, 669.1395
421.4040, 660.6835
421.8861, 652.3605
422.3683, 645.4565
422.8504, 641.8631
423.3325, 644.9703
423.8146, 655.1094
424.2967, 658.6469
424.7788, 649.7614
425.2610, 641.6133
425.7431, 640.7113
426.2252, 642.7545
426.7073, 640.6987
427.1894, 630.9214
427.6715, 619.7369
428.1537, 616.6426
428.6358, 621.1366
429.1179, 621.3688
429.6000, 612.5258
430.0821, 601.1586
430.5642, 595.7756
431.0464, 595.9908
431.5285, 592.4683
432.0106, 578.9290
432.4927, 563.0979
432.9748, 552.1086
433.4569, 546.0686
433.9391, 542.6805
434.4212, 541.1017
434.9033, 540.5635
435.3854, 538.0056
435.8675, 530.4094
436.3496, 524.7521
436.8318, 523.6108
437.3139, 523.3596
437.7960, 520.1865
438.2781, 513.8176
438.7602, 507.2411
439.2423, 503.6624
439.7245, 503.1049
440.2066, 502.1304
440.6887, 499.4251
441.1708, 498.2009
441.6529, 502.4024
442.1350, 507.6893
442.6172, 506.9372
443.0993, 496.2587
443.5814, 484.6283
444.0635, 483.4857
444.5456, 491.3291
445.0277, 496.0882
445.5099, 495.0107
445.9920, 490.2460
446.4741, 481.7755
446.9562, 470.0132
447.4383, 463.1488
447.9204, 467.3102
448.4026, 472.8477
448.8847, 471.1149
449.3668, 464.1678
449.8489, 460.3239
450.3310, 464.2549
450.8131, 472.3066
451.2953, 474.9659
451.7774, 466.8306
452.2595, 461.3591
452.7416, 459.9130
453.2237, 459.9597
453.7059, 459.7289
454.1880, 459.2383
454.6701, 459.6838
455.1522, 462.3633
455.6343, 466.6736
456.1165, 470.2206
456.5986, 474.2859
457.0807, 474.5255
457.5628, 462.3683
458.0449, 448.9052
458.5270, 447.0090
459.0092, 460.3400
459.4913, 473.8387
459.9734, 476.0789
460.4555, 471.5988
460.9376, 470.5461
461.4197, 474.5809
461.9019, 479.9403
462.3840, 483.5252
462.8661, 485.4551
463.3482, 488.3362
463.8303, 494.9893
464.3124, 499.3192
464.7946, 497.6756
465.2767, 492.9680
465.7588, 488.2654
466.2409, 484.8020
466.7230, 484.3663
467.2051, 490.8187
467.6873, 506.9662
468.1694, 516.4121
468.6515, 510.9767
469.1336, 507.0686
469.6157, 511.6326
470.0978, 521.7245
470.5800, 532.0683
471.0621, 541.4526
471.5442, 547.8053
472.0263, 546.0258
472.5084, 536.7130
472.9905, 531.5574
473.4727, 533.7775
473.9548, 540.8532
474.4369, 551.7289
474.9190, 566.2190
475.4011, 578.1541
475.8832, 585.3259
476.3654, 590.5201
476.8475, 594.8939
477.3296, 599.0378
477.8117, 604.1259
478.2938, 610.7069
478.7759, 618.8413
479.2581, 629.0355
479.7402, 645.4074
480.2223, 656.3845
480.7044, 656.5186
481.1865, 656.4346
481.6686, 662.6727
482.1508, 674.6038
482.6329, 688.1419
483.1150, 701.7275
483.5971, 714.0914
484.0792, 720.6868
484.5613, 719.8927
485.0435, 722.4615
485.5256, 734.6774
486.0077, 750.1699
486.4898, 759.9116
486.9719, 762.9692
487.4540, 768.4619
487.9362, 784.6152
488.4183, 802.1583
488.9004, 809.4642
489.3825, 806.7049
489.8646, 801.5302
490.3467, 798.3013
490.8289, 797.0643
491.3110, 798.0107
491.7931, 805.2179
492.2752, 809.1656
492.7573, 809.4656
493.2394, 806.4687
493.7216, 799.8839
494.2037, 790.0850
494.6858, 778.4364
495.1679, 765.2943
495.6500, 751.2922
496.1321, 739.2734
496.6143, 729.5803
497.0964, 720.9838
497.5785, 713.5668
498.0606, 706.7622
498.5427, 699.3699
499.0248, 690.7319
499.5070, 684.7836
499.9891, 686.1561
500.4712, 690.0942
500.9533, 689.5659
501.4354, 684.0801
501.9175, 677.2590
502.3997, 670.9734
502.8818, 665.8890
503.3639, 666.0088
503.8460, 677.6310
504.3281, 686.5711
504.8102, 690.3444
505.2924, 691.8701
505.7745, 692.6758
506.2566, 693.5601
506.7387, 696.1330
507.2208, 703.4440
507.7029, 713.7034
508.1851, 716.9871
508.6672, 711.0313
509.1493, 704.8095
509.6314, 702.9440
510.1135, 702.3840
510.5956, 699.0652
511.0778, 692.1914
511.5599, 685.0464
512.0420, 678.1849
512.5241, 672.3699
513.0062, 669.3385
513.4883, 668.9127
513.9705, 668.2127
514.4526, 665.0659
514.9347, 660.0914
515.4168, 656.5586
515.8989, 656.4936
516.3810, 655.1873
516.8632, 648.9078
517.3453, 643.7186
517.8274, 645.6394
518.3095, 654.2573
518.7916, 663.6534
519.2737, 669.1794
519.7559, 671.7488
520.2380, 674.7725
520.7201, 678.7521
521.2022, 680.2953
521.6843, 674.6448
522.1664, 668.2325
522.6486, 671.5414
523.1307, 686.7050
523.6128, 700.1994
524.0949, 706.7080
524.5770, 710.1611
525.0591, 714.6143
525.5413, 719.9447
526.0234, 723.8073
526.5055, 724.7595
526.9876, 723.2628
527.4697, 720.5402
527.9518, 714.3922
528.4340, 711.2420
528.9161, 712.5734
529.3982, 715.7220
529.8803, 720.6627
530.3624, 726.1978
530.8445, 729.0363
531.3267, 727.2188
531.8088, 721.6280
532.2909, 711.4922
532.7730, 696.9594
533.2551, 688.7509
533.7372, 693.0463
534.2194, 701.1559
534.7015, 698.9445
535.1836, 684.3030
535.6657, 676.7203
536.1478, 683.8567
536.6299, 693.3334
537.1121, 698.7875
537.5942, 700.3292
538.0763, 698.4709
538.5584, 693.3611
539.0405, 688.2182
539.5226, 689.8677
540.0048, 700.7031
540.4869, 707.9850
540.9690, 711.1220
541.4511, 710.3405
541.9332, 703.6203
542.4153, 693.5496
542.8975, 685.9996
543.3796, 684.4393
543.8617, 683.1192
544.3438, 674.6053
544.8259, 662.4106
545.3080, 657.3751
545.7902, 662.3571
546.2723, 670.1254
546.7544, 673.8714
547.2365, 673.5245
547.7186, 671.1581
548.2007, 663.7850
548.6829, 658.1895
549.1650, 654.7091
549.6471, 654.4768
550.1292, 661.3746
550.6113, 675.1142
551.0934, 686.2931
551.5756, 682.9844
552.0577, 668.0588
552.5398, 659.1733
553.0219, 658.0485
553.5040, 657.4067
553.9861, 654.5510
554.4683, 649.4843
554.9504, 641.7617
555.4325, 629.2531
555.9146, 620.7183
556.3967, 623.1914
556.8788, 627.9217
557.3610, 625.5095
557.8431, 616.6403
558.3252, 608.2979
558.8073, 605.0418
559.2894, 604.9237
559.7715, 602.0250
560.2537, 595.4813
560.7358, 588.2642
561.2179, 578.1384
561.7000, 569.6270
562.1821, 566.0331
562.6642, 566.3706
563.1464, 566.9276
563.6285, 566.6935
564.1106, 565.3064
564.5927, 562.3549
565.0748, 557.8988
565.5569, 551.6008
566.0391, 542.9722
566.5212, 534.9133
567.0033, 531.2981
567.4854, 533.0275
567.9675, 531.9413
568.4496, 523.9015
568.9318, 518.2399
569.4139, 519.8036
569.8960, 524.3271
570.3781, 525.7717
570.8602, 522.7590
571.3423, 520.2820
571.8245, 524.5272
572.3066, 533.9241
572.7887, 540.8476
573.2708, 544.8260
573.7529, 547.4605
574.2350, 549.8693
574.7172, 551.2763
575.1993, 549.3351
575.6814, 541.1457
576.1635, 537.5616
576.6456, 545.6235
577.1277, 555.6742
577.6099, 558.5248
578.0920, 555.6819
578.5741, 555.4521
579.0562, 563.1863
579.5383, 574.1094
580.0204, 575.9604
580.5026, 565.8947
580.9847, 559.4337
581.4668, 560.0611
581.9489, 563.0273
582.4310, 564.6827
582.9131, 565.9299
583.3953, 569.6933
583.8774, 579.9476
584.3595, 588.8307
584.8416, 589.1945
585.3237, 584.9154
585.8058, 583.8675
586.2880, 587.6595
586.7701, 591.7520
587.2522, 591.6421
587.7343, 587.5488
588.2164, 583.8666
588.6985, 582.0337
589.1807, 578.3807
589.6628, 572.0458
590.1449, 563.9615
590.6270, 555.0190
591.1091, 545.2501
591.5912, 533.7554
592.0734, 518.3230
592.5555, 501.7462
593.0376, 487.8765
593.5197, 476.5845
594.0018, 467.1176
594.4839, 459.4548
594.9661, 452.5999
595.4482, 444.9304
595.9303, 435.5872
596.4124, 428.5309
596.8945, 425.7433
597.3766, 422.7424
597.8588, 417.1385
598.3409, 410.5054
598.8230, 405.7800
599.3051, 403.8797
599.7872, 401.5539
600.2693, 394.0543
600.7515, 383.2427
601.2336, 377.0284
601.7157, 376.6208
602.1978, 375.2411
602.6799, 368.2270
603.1620, 358.2174
603.6442, 352.2231
604.1263, 351.3217
604.6084, 351.6593
605.0905, 354.1740
605.5726, 356.6710
606.0547, 357.9074
606.5369, 357.8405
607.0190, 357.0016
607.5011, 355.7658
607.9832, 353.2178
608.4653, 346.4887
608.9474, 335.6755
609.4296, 328.7781
609.9117, 327.4453
610.3938, 328.8315
