##NAMES=Manganite
##RRUFFID=R070269
##IDEAL CHEMISTRY=Mn^3+^O(OH)
##LOCALITY=Wessels mine, Hotazel, Kalahari manganese field, Northern Cape Province, South Africa
##OWNER=RRUFF
##SOURCE=Michael Scott
##DESCRIPTION=Divergent black acicular crystals (with dark brown lights) associated with gaudefroyite in gypsum cleavage plate
##STATUS=The identification of this mineral is confirmed by single-crystal X-ray diffraction and chemical analysis.
##URL=rruff.info/R070269
##MEASURED CHEMISTRY=lighter phase: (Mn^3+^_0.99_Fe^3+^_0.01_)_Î£=1_O(OH) ; trace amounts of Cr and Ca; OH by difference; darker phase: gypsum 
143.8764, 1259.794
144.3585, 1264.130
144.8407, 1272.470
145.3228, 1288.099
145.8049, 1305.181
146.2870, 1318.152
146.7691, 1324.756
147.2512, 1330.008
147.7334, 1334.576
148.2155, 1338.464
148.6976, 1341.854
149.1797, 1345.777
149.6618, 1348.902
150.1439, 1349.462
150.6261, 1344.600
151.1082, 1339.730
151.5903, 1335.384
152.0724, 1328.913
152.5545, 1329.040
153.0366, 1342.672
153.5188, 1363.127
154.0009, 1377.211
154.4830, 1381.488
154.9651, 1380.322
155.4472, 1375.771
155.9293, 1369.114
156.4115, 1357.634
156.8936, 1332.130
157.3757, 1299.117
157.8578, 1280.636
158.3399, 1298.133
158.8221, 1323.541
159.3042, 1338.728
159.7863, 1334.071
160.2684, 1323.753
160.7505, 1307.341
161.2326, 1286.310
161.7148, 1273.315
162.1969, 1279.885
162.6790, 1294.676
163.1611, 1306.630
163.6432, 1310.719
164.1253, 1312.265
164.6075, 1312.674
165.0896, 1311.947
165.5717, 1313.614
166.0538, 1323.097
166.5359, 1335.621
167.0180, 1344.396
167.5002, 1345.524
167.9823, 1342.622
168.4644, 1336.538
168.9465, 1326.421
169.4286, 1319.471
169.9107, 1324.003
170.3929, 1335.719
170.8750, 1345.696
171.3571, 1349.802
171.8392, 1349.573
172.3213, 1344.851
172.8034, 1333.670
173.2856, 1324.587
173.7677, 1328.466
174.2498, 1342.086
174.7319, 1354.300
175.2140, 1357.763
175.6961, 1355.736
176.1783, 1352.917
176.6604, 1349.930
177.1425, 1346.854
177.6246, 1341.907
178.1067, 1335.903
178.5888, 1333.841
179.0710, 1345.945
179.5531, 1364.689
180.0352, 1371.825
180.5173, 1357.331
180.9994, 1334.963
181.4815, 1327.978
181.9637, 1335.970
182.4458, 1348.080
182.9279, 1357.464
183.4100, 1363.904
183.8921, 1366.270
184.3742, 1360.670
184.8564, 1352.358
185.3385, 1355.637
185.8206, 1371.329
186.3027, 1388.982
186.7848, 1398.781
187.2669, 1401.250
187.7491, 1400.728
188.2312, 1396.931
188.7133, 1391.252
189.1954, 1389.070
189.6775, 1390.768
190.1596, 1394.352
190.6418, 1398.156
191.1239, 1402.130
191.6060, 1405.057
192.0881, 1406.870
192.5702, 1407.424
193.0524, 1404.704
193.5345, 1397.846
194.0166, 1389.980
194.4987, 1385.939
194.9808, 1385.867
195.4629, 1387.466
195.9451, 1390.221
196.4272, 1394.135
196.9093, 1397.677
197.3914, 1401.237
197.8735, 1403.743
198.3556, 1401.591
198.8378, 1393.654
199.3199, 1388.204
199.8020, 1390.807
200.2841, 1402.026
200.7662, 1412.947
201.2483, 1423.969
201.7305, 1433.589
202.2126, 1437.553
202.6947, 1434.952
203.1768, 1430.090
203.6589, 1423.801
204.1410, 1415.055
204.6232, 1413.112
205.1053, 1420.603
205.5874, 1434.635
206.0695, 1446.613
206.5516, 1457.469
207.0337, 1463.819
207.5159, 1461.356
207.9980, 1447.433
208.4801, 1437.337
208.9622, 1432.529
209.4443, 1432.981
209.9264, 1439.640
210.4086, 1454.910
210.8907, 1471.621
211.3728, 1484.046
211.8549, 1491.293
212.3370, 1497.642
212.8191, 1503.734
213.3013, 1509.465
213.7834, 1514.490
214.2655, 1519.045
214.7476, 1522.524
215.2297, 1523.369
215.7118, 1519.012
216.1940, 1519.726
216.6761, 1530.278
217.1582, 1549.855
217.6403, 1558.229
218.1224, 1551.661
218.6045, 1538.792
219.0867, 1527.615
219.5688, 1519.141
220.0509, 1509.951
220.5330, 1498.173
221.0151, 1483.454
221.4972, 1476.259
221.9794, 1480.638
222.4615, 1487.941
222.9436, 1488.021
223.4257, 1475.415
223.9078, 1467.036
224.3899, 1468.731
224.8721, 1481.826
225.3542, 1487.431
225.8363, 1482.223
226.3184, 1472.734
226.8005, 1466.338
227.2827, 1463.427
227.7648, 1463.037
228.2469, 1465.391
228.7290, 1470.848
229.2111, 1476.461
229.6932, 1483.579
230.1754, 1489.697
230.6575, 1490.603
231.1396, 1480.989
231.6217, 1475.672
232.1038, 1480.084
232.5859, 1496.808
233.0681, 1509.488
233.5502, 1517.808
234.0323, 1522.301
234.5144, 1523.072
234.9965, 1516.705
235.4786, 1512.411
235.9608, 1513.493
236.4429, 1521.313
236.9250, 1527.933
237.4071, 1532.320
237.8892, 1536.101
238.3713, 1542.090
238.8535, 1551.976
239.3356, 1561.236
239.8177, 1568.280
240.2998, 1572.473
240.7819, 1576.884
241.2640, 1581.482
241.7462, 1586.384
242.2283, 1591.972
242.7104, 1599.024
243.1925, 1605.431
243.6746, 1609.692
244.1567, 1609.697
244.6389, 1615.268
245.1210, 1628.833
245.6031, 1646.471
246.0852, 1661.341
246.5673, 1672.930
247.0494, 1682.605
247.5316, 1690.611
248.0137, 1696.490
248.4958, 1701.989
248.9779, 1705.670
249.4600, 1709.765
249.9421, 1718.828
250.4243, 1735.785
250.9064, 1752.579
251.3885, 1766.390
251.8706, 1776.837
252.3527, 1785.226
252.8348, 1789.484
253.3170, 1792.939
253.7991, 1803.485
254.2812, 1827.526
254.7633, 1846.136
255.2454, 1850.415
255.7275, 1834.960
256.2097, 1824.919
256.6918, 1820.753
257.1739, 1821.785
257.6560, 1828.199
258.1381, 1844.294
258.6202, 1856.893
259.1024, 1860.136
259.5845, 1851.291
260.0666, 1844.204
260.5487, 1838.916
261.0308, 1835.377
261.5129, 1834.040
261.9951, 1836.715
262.4772, 1837.207
262.9593, 1830.572
263.4414, 1812.548
263.9235, 1809.489
264.4056, 1828.776
264.8878, 1856.129
265.3699, 1865.531
265.8520, 1851.599
266.3341, 1835.277
266.8162, 1824.234
267.2983, 1819.292
267.7805, 1814.816
268.2626, 1810.339
268.7447, 1806.903
269.2268, 1807.502
269.7089, 1814.019
270.1910, 1817.781
270.6732, 1814.083
271.1553, 1801.798
271.6374, 1793.117
272.1195, 1788.230
272.6016, 1786.666
273.0837, 1788.653
273.5659, 1794.968
274.0480, 1800.892
274.5301, 1804.785
275.0122, 1806.595
275.4943, 1806.853
275.9764, 1805.005
276.4586, 1802.650
276.9407, 1801.840
277.4228, 1802.528
277.9049, 1805.217
278.3870, 1811.860
278.8691, 1822.063
279.3513, 1826.171
279.8334, 1823.163
280.3155, 1816.681
280.7976, 1809.898
281.2798, 1802.674
281.7619, 1799.873
282.2440, 1806.995
282.7261, 1821.718
283.2082, 1824.318
283.6903, 1812.464
284.1725, 1797.062
284.6546, 1793.496
285.1367, 1801.230
285.6188, 1805.137
286.1009, 1796.606
286.5830, 1779.606
287.0652, 1772.641
287.5473, 1777.050
288.0294, 1783.869
288.5115, 1782.738
288.9936, 1774.544
289.4757, 1766.579
289.9579, 1759.783
290.4400, 1755.287
290.9221, 1758.859
291.4042, 1771.303
291.8863, 1781.759
292.3684, 1776.571
292.8506, 1759.049
293.3327, 1743.321
293.8148, 1732.754
294.2969, 1727.226
294.7790, 1728.421
295.2611, 1736.362
295.7433, 1744.030
296.2254, 1743.457
296.7075, 1737.592
297.1896, 1734.787
297.6717, 1738.224
298.1538, 1745.204
298.6360, 1752.730
299.1181, 1760.716
299.6002, 1767.345
300.0823, 1771.350
300.5644, 1773.060
301.0465, 1772.644
301.5287, 1767.840
302.0108, 1763.826
302.4929, 1768.089
302.9750, 1779.375
303.4571, 1790.243
303.9392, 1797.804
304.4214, 1801.366
304.9035, 1799.443
305.3856, 1789.210
305.8677, 1777.437
306.3498, 1767.993
306.8319, 1761.479
307.3141, 1759.910
307.7962, 1767.162
308.2783, 1778.731
308.7604, 1791.286
309.2425, 1806.044
309.7246, 1816.964
310.2068, 1817.124
310.6889, 1810.052
311.1710, 1804.923
311.6531, 1808.267
312.1352, 1813.966
312.6173, 1817.221
313.0995, 1816.197
313.5816, 1815.750
314.0637, 1818.556
314.5458, 1823.503
315.0279, 1828.500
315.5100, 1831.186
315.9922, 1834.890
316.4743, 1842.714
316.9564, 1856.942
317.4385, 1867.259
317.9206, 1865.856
318.4027, 1859.502
318.8849, 1857.658
319.3670, 1869.642
319.8491, 1880.603
320.3312, 1884.407
320.8133, 1879.468
321.2954, 1874.330
321.7776, 1869.314
322.2597, 1865.390
322.7418, 1863.593
323.2239, 1861.618
323.7060, 1864.235
324.1881, 1875.814
324.6703, 1897.727
325.1524, 1911.997
325.6345, 1909.564
326.1166, 1903.006
326.5987, 1902.449
327.0808, 1914.200
327.5630, 1924.566
328.0451, 1930.536
328.5272, 1932.484
329.0093, 1939.097
329.4914, 1957.824
329.9735, 1974.332
330.4557, 1977.766
330.9378, 1952.790
331.4199, 1942.042
331.9020, 1954.564
332.3841, 1984.769
332.8662, 2005.515
333.3484, 2014.290
333.8305, 2017.104
334.3126, 2015.179
334.7947, 2003.807
335.2768, 2003.365
335.7589, 2019.751
336.2411, 2044.918
336.7232, 2057.276
337.2053, 2051.923
337.6874, 2047.820
338.1695, 2054.964
338.6516, 2074.753
339.1338, 2092.942
339.6159, 2108.637
340.0980, 2123.491
340.5801, 2141.112
341.0622, 2162.385
341.5443, 2179.980
342.0265, 2188.213
342.5086, 2188.671
342.9907, 2198.146
343.4728, 2217.926
343.9549, 2241.385
344.4370, 2258.261
344.9192, 2269.623
345.4013, 2287.317
345.8834, 2320.771
346.3655, 2361.852
346.8476, 2386.266
347.3297, 2393.557
347.8119, 2395.683
348.2940, 2399.718
348.7761, 2406.965
349.2582, 2421.946
349.7403, 2451.230
350.2225, 2483.750
350.7046, 2502.827
351.1867, 2509.879
351.6688, 2514.499
352.1509, 2523.893
352.6331, 2535.235
353.1152, 2543.698
353.5973, 2546.259
354.0794, 2549.389
354.5615, 2561.231
355.0436, 2578.903
355.5258, 2593.634
356.0079, 2598.554
356.4900, 2599.560
356.9721, 2604.121
357.4542, 2617.396
357.9363, 2620.603
358.4185, 2592.975
358.9006, 2549.220
359.3827, 2514.784
359.8648, 2505.730
360.3469, 2503.680
360.8290, 2500.906
361.3112, 2497.128
361.7933, 2489.224
362.2754, 2470.823
362.7575, 2449.755
363.2396, 2434.468
363.7217, 2430.779
364.2039, 2429.353
364.6860, 2428.943
365.1681, 2429.479
365.6502, 2428.087
366.1323, 2417.690
366.6144, 2409.312
367.0966, 2410.681
367.5787, 2436.460
368.0608, 2454.130
368.5429, 2456.703
369.0250, 2448.004
369.5071, 2447.471
369.9893, 2457.403
370.4714, 2472.726
370.9535, 2491.837
371.4356, 2517.503
371.9177, 2539.658
372.3998, 2554.983
372.8820, 2568.451
373.3641, 2591.753
373.8462, 2628.162
374.3283, 2665.688
374.8104, 2698.377
375.2925, 2725.707
375.7747, 2759.072
376.2568, 2801.510
376.7389, 2844.524
377.2210, 2873.558
377.7031, 2887.341
378.1852, 2905.520
378.6674, 2935.602
379.1495, 2974.827
379.6316, 3017.456
380.1137, 3064.730
380.5958, 3100.912
381.0779, 3098.608
381.5601, 3067.556
382.0422, 3058.768
382.5243, 3093.769
383.0064, 3143.187
383.4885, 3159.381
383.9706, 3144.915
384.4528, 3117.681
384.9349, 3083.972
385.4170, 3046.812
385.8991, 3010.622
386.3812, 2976.033
386.8633, 2941.398
387.3455, 2905.287
387.8276, 2868.016
388.3097, 2829.641
388.7918, 2791.959
389.2739, 2752.458
389.7560, 2707.535
390.2382, 2656.296
390.7203, 2607.183
391.2024, 2565.930
391.6845, 2529.078
392.1666, 2492.116
392.6487, 2450.831
393.1309, 2412.026
393.6130, 2380.881
394.0951, 2356.435
394.5772, 2329.022
395.0593, 2286.657
395.5414, 2246.522
396.0236, 2219.812
396.5057, 2223.078
396.9878, 2221.928
397.4699, 2214.450
397.9520, 2200.468
398.4341, 2179.420
398.9163, 2141.849
399.3984, 2107.033
399.8805, 2082.187
400.3626, 2070.223
400.8447, 2059.405
401.3268, 2047.880
401.8090, 2038.890
402.2911, 2039.005
402.7732, 2054.636
403.2553, 2062.112
403.7374, 2051.397
404.2195, 2024.068
404.7017, 2010.496
405.1838, 2014.243
405.6659, 2022.101
406.1480, 2022.827
406.6301, 2016.392
407.1122, 2005.568
407.5944, 1988.150
408.0765, 1969.381
408.5586, 1963.665
409.0407, 1970.747
409.5228, 1979.589
410.0049, 1983.677
410.4871, 1983.855
410.9692, 1981.241
411.4513, 1974.813
411.9334, 1970.182
412.4155, 1977.017
412.8976, 1991.400
413.3798, 2001.787
413.8619, 2001.389
414.3440, 1995.444
414.8261, 1987.849
415.3082, 1978.747
415.7903, 1971.620
416.2725, 1969.369
416.7546, 1970.046
417.2367, 1971.522
417.7188, 1975.374
418.2009, 1977.398
418.6830, 1975.184
419.1652, 1969.399
419.6473, 1962.575
420.1294, 1949.267
420.6115, 1939.718
421.0937, 1941.213
421.5758, 1963.940
422.0579, 1977.677
422.5400, 1970.444
423.0221, 1953.600
423.5042, 1945.673
423.9864, 1954.646
424.4685, 1964.412
424.9506, 1972.975
425.4327, 1980.611
425.9148, 1981.327
426.3969, 1971.116
426.8791, 1958.561
427.3612, 1950.736
427.8433, 1947.877
428.3254, 1949.510
428.8075, 1957.462
429.2896, 1969.175
429.7718, 1974.765
430.2539, 1972.922
430.7360, 1971.960
431.2181, 1978.880
431.7002, 1992.797
432.1823, 1999.395
432.6645, 1996.361
433.1466, 1991.374
433.6287, 1998.077
434.1108, 2013.514
434.5929, 2022.645
435.0750, 2012.785
435.5572, 1995.469
436.0393, 1991.722
436.5214, 2001.078
437.0035, 2013.643
437.4856, 2022.846
437.9677, 2030.017
438.4499, 2037.295
438.9320, 2046.879
439.4141, 2053.866
439.8962, 2052.218
440.3783, 2044.998
440.8604, 2040.058
441.3426, 2043.695
441.8247, 2048.506
442.3068, 2049.814
442.7889, 2046.100
443.2710, 2043.759
443.7531, 2044.107
444.2353, 2046.849
444.7174, 2051.667
445.1995, 2065.820
445.6816, 2073.968
446.1637, 2069.308
446.6458, 2053.677
447.1280, 2046.782
447.6101, 2054.917
448.0922, 2064.867
448.5743, 2068.580
449.0564, 2061.429
449.5385, 2061.648
450.0207, 2074.363
450.5028, 2090.398
450.9849, 2087.403
451.4670, 2059.200
451.9491, 2044.060
452.4312, 2065.347
452.9134, 2115.880
453.3955, 2136.430
453.8776, 2123.823
454.3597, 2103.761
454.8418, 2102.364
455.3239, 2115.301
455.8061, 2124.298
456.2882, 2123.762
456.7703, 2119.913
457.2524, 2121.669
457.7345, 2127.947
458.2166, 2134.411
458.6988, 2140.687
459.1809, 2144.640
459.6630, 2141.958
460.1451, 2130.965
460.6272, 2122.507
461.1093, 2126.027
461.5915, 2135.300
462.0736, 2142.540
462.5557, 2144.357
463.0378, 2144.514
463.5199, 2143.007
464.0020, 2140.354
464.4842, 2140.067
464.9663, 2145.544
465.4484, 2151.611
465.9305, 2155.245
466.4126, 2152.104
466.8947, 2154.077
467.3769, 2162.570
467.8590, 2175.510
468.3411, 2190.229
468.8232, 2208.564
469.3053, 2225.056
469.7874, 2239.440
470.2696, 2251.448
470.7517, 2255.176
471.2338, 2249.155
471.7159, 2239.412
472.1980, 2227.931
472.6801, 2214.965
473.1623, 2213.029
473.6444, 2226.075
474.1265, 2246.472
474.6086, 2263.316
475.0907, 2276.549
475.5728, 2285.795
476.0550, 2287.756
476.5371, 2286.689
477.0192, 2289.688
477.5013, 2297.030
477.9834, 2305.405
478.4655, 2311.188
478.9477, 2316.839
479.4298, 2325.655
479.9119, 2341.345
480.3940, 2357.117
480.8761, 2368.223
481.3582, 2376.391
481.8404, 2386.452
482.3225, 2399.900
482.8046, 2415.660
483.2867, 2435.026
483.7688, 2461.367
484.2509, 2479.903
484.7331, 2482.026
485.2152, 2479.519
485.6973, 2483.680
486.1794, 2499.835
486.6615, 2513.560
487.1436, 2522.442
487.6258, 2527.403
488.1079, 2532.969
488.5900, 2539.670
489.0721, 2545.413
489.5542, 2549.346
490.0363, 2551.504
490.5185, 2549.526
491.0006, 2541.654
491.4827, 2535.380
491.9648, 2544.829
492.4470, 2566.519
492.9291, 2580.664
493.4112, 2575.593
493.8933, 2563.334
494.3754, 2560.918
494.8575, 2567.760
495.3397, 2580.301
495.8218, 2601.986
496.3039, 2625.539
496.7860, 2642.632
497.2681, 2651.484
497.7502, 2657.198
498.2324, 2657.635
498.7145, 2657.996
499.1966, 2665.368
499.6787, 2685.210
500.1608, 2708.964
500.6429, 2734.133
501.1251, 2760.766
501.6072, 2790.722
502.0893, 2830.452
502.5714, 2868.316
503.0535, 2898.245
503.5356, 2914.865
504.0178, 2935.669
504.4999, 2958.915
504.9820, 2987.850
505.4641, 3032.219
505.9462, 3096.973
506.4283, 3149.641
506.9105, 3174.669
507.3926, 3181.538
507.8747, 3209.469
508.3568, 3259.478
508.8389, 3314.501
509.3210, 3366.666
509.8032, 3414.758
510.2853, 3453.277
510.7674, 3478.778
511.2495, 3506.584
511.7316, 3555.714
512.2137, 3618.818
512.6959, 3680.071
513.1780, 3730.817
513.6601, 3779.857
514.1422, 3834.449
514.6243, 3893.410
515.1064, 3948.308
515.5886, 3992.906
516.0707, 4034.670
516.5528, 4076.845
517.0349, 4116.788
517.5170, 4164.317
517.9991, 4223.972
518.4813, 4290.006
518.9634, 4355.825
519.4455, 4425.521
519.9276, 4487.631
520.4097, 4537.736
520.8918, 4577.297
521.3740, 4623.585
521.8561, 4680.005
522.3382, 4731.862
522.8203, 4766.020
523.3024, 4783.601
523.7845, 4809.984
524.2667, 4848.180
524.7488, 4889.686
525.2309, 4929.070
525.7130, 4964.803
526.1951, 4990.690
526.6772, 5002.368
527.1594, 5005.731
527.6415, 5003.054
528.1236, 4996.433
528.6057, 4995.102
529.0878, 5009.304
529.5699, 5027.583
530.0521, 5043.073
530.5342, 5056.574
531.0163, 5060.172
531.4984, 5042.175
531.9805, 5016.961
532.4626, 4999.758
532.9448, 5001.826
533.4269, 5000.979
533.9090, 4994.828
534.3911, 4983.977
534.8732, 4970.354
535.3553, 4950.912
535.8375, 4934.023
536.3196, 4922.386
536.8017, 4915.659
537.2838, 4919.647
537.7659, 4936.697
538.2480, 4956.868
538.7302, 4965.334
539.2123, 4965.227
539.6944, 4978.982
540.1765, 5015.315
540.6586, 5060.514
541.1407, 5096.328
541.6229, 5125.187
542.1050, 5156.362
542.5871, 5201.136
543.0692, 5246.381
543.5513, 5276.970
544.0334, 5292.041
544.5156, 5310.432
544.9977, 5342.629
545.4798, 5380.814
545.9619, 5418.621
546.4440, 5454.868
546.9261, 5490.710
547.4083, 5526.623
547.8904, 5562.305
548.3725, 5596.994
548.8546, 5633.876
549.3367, 5664.917
549.8188, 5687.789
550.3010, 5702.846
550.7831, 5714.883
551.2652, 5725.013
551.7473, 5728.393
552.2294, 5716.271
552.7115, 5691.060
553.1937, 5681.338
553.6758, 5693.167
554.1579, 5704.691
554.6400, 5687.031
555.1221, 5646.769
555.6042, 5603.155
556.0864, 5562.280
556.5685, 5521.188
557.0506, 5476.700
557.5327, 5429.646
558.0148, 5383.793
558.4969, 5350.745
558.9791, 5311.895
559.4612, 5252.422
559.9433, 5165.802
560.4254, 5086.242
560.9075, 5027.002
561.3896, 4973.728
561.8718, 4912.234
562.3539, 4830.421
562.8360, 4762.767
563.3181, 4724.738
563.8002, 4696.930
564.2823, 4621.929
564.7645, 4485.624
565.2466, 4369.011
565.7287, 4313.581
566.2108, 4305.298
566.6929, 4278.006
567.1750, 4231.526
567.6572, 4174.939
568.1393, 4111.612
568.6214, 4045.091
569.1035, 3983.267
569.5856, 3925.639
570.0677, 3877.502
570.5499, 3847.249
571.0320, 3827.973
571.5141, 3808.492
571.9962, 3789.602
572.4783, 3764.877
572.9604, 3726.403
573.4426, 3678.067
573.9247, 3638.758
574.4068, 3606.300
574.8889, 3589.323
575.3710, 3599.292
575.8531, 3648.435
576.3353, 3657.391
576.8174, 3611.382
577.2995, 3546.970
577.7816, 3496.315
578.2637, 3460.453
578.7458, 3430.084
579.2280, 3403.518
579.7101, 3382.516
580.1922, 3373.513
580.6743, 3374.429
581.1564, 3373.525
581.6385, 3364.428
582.1207, 3350.931
582.6028, 3334.743
583.0849, 3317.083
583.5670, 3306.316
584.0491, 3315.724
584.5313, 3328.708
585.0134, 3332.169
585.4955, 3322.150
585.9776, 3309.138
586.4597, 3291.241
586.9418, 3273.631
587.4240, 3262.182
587.9061, 3254.631
588.3882, 3256.955
588.8703, 3273.396
589.3524, 3299.146
589.8345, 3321.195
590.3167, 3340.226
590.7988, 3353.005
591.2809, 3358.091
591.7630, 3355.702
592.2451, 3341.059
592.7272, 3313.354
593.2094, 3293.152
593.6915, 3305.807
594.1736, 3336.469
594.6557, 3355.221
595.1378, 3354.034
595.6199, 3353.071
596.1021, 3368.806
596.5842, 3393.864
597.0663, 3417.826
597.5485, 3435.211
598.0306, 3452.727
598.5127, 3473.906
598.9948, 3497.321
599.4769, 3516.776
599.9590, 3525.728
600.4412, 3538.367
600.9233, 3558.888
601.4054, 3587.530
601.8875, 3623.269
602.3696, 3669.385
602.8517, 3713.954
603.3339, 3740.197
603.8160, 3750.699
604.2981, 3779.641
604.7802, 3833.545
605.2623, 3895.994
605.7444, 3945.138
606.2266, 3985.631
606.7087, 4027.386
607.1908, 4072.943
607.6729, 4123.432
608.1550, 4182.805
608.6371, 4248.487
609.1193, 4314.164
609.6014, 4378.359
610.0835, 4440.631
610.5656, 4496.179
611.0477, 4542.273
611.5298, 4603.290
612.0120, 4693.198
612.4941, 4784.310
612.9762, 4856.404
613.4583, 4903.039
613.9404, 4953.712
614.4225, 5011.104
614.9047, 5069.583
615.3868, 5123.648
615.8689, 5173.451
616.3510, 5215.714
616.8331, 5252.089
617.3152, 5277.088
617.7974, 5270.739
618.2795, 5242.423
618.7616, 5228.160
619.2437, 5271.837
619.7258, 5319.201
620.2079, 5329.385
620.6901, 5300.112
621.1722, 5258.277
621.6543, 5207.981
622.1364, 5151.587
622.6185, 5090.751
623.1006, 5023.461
623.5828, 4955.165
624.0649, 4882.416
624.5470, 4811.823
625.0291, 4754.836
625.5112, 4716.321
625.9933, 4664.208
626.4755, 4590.706
626.9576, 4504.225
627.4397, 4418.329
627.9218, 4333.878
628.4039, 4257.437
628.8860, 4195.111
629.3682, 4140.914
629.8503, 4089.635
630.3324, 4040.541
630.8145, 3989.958
631.2966, 3938.284
631.7787, 3883.217
632.2609, 3820.444
632.7430, 3744.667
633.2251, 3679.974
633.7072, 3637.625
634.1893, 3605.051
634.6714, 3572.761
635.1536, 3545.346
