##NAMES=Mangano-mangani-ungarettiite
##RRUFFID=R050244
##IDEAL CHEMISTRY=NaNa_2_(Mn^2+^_2_Mn^3+^_3_)Si_8_O_22_O_2_
##LOCALITY=Hoskins mine, near Grenfell, New South Wales, Australia
##OWNER=RRUFF
##SOURCE=Marcus Origlieri
##DESCRIPTION=Dark red granular, associated with namansilite, R070006
##STATUS=The identification of this mineral is confirmed by single-crystal X-ray diffraction and chemical analysis.
##URL=rruff.info/R050244
##MEASURED CHEMISTRY=Na_1.00_Na_2.00_(Mn^2+^_2.00_(Mn^3+^_2.35_Fe^3+^_0.63_Al_0.02_)_Î£=3_)Si_8.00_O_22_O_2_
123.2385, 720.8304
123.7206, 762.7034
124.2028, 803.1541
124.6849, 848.9553
125.1670, 909.1113
125.6491, 989.7355
126.1312, 1065.930
126.6133, 1131.820
127.0955, 1198.571
127.5776, 1274.545
128.0597, 1360.469
128.5418, 1448.639
129.0239, 1528.470
129.5060, 1594.612
129.9882, 1666.096
130.4703, 1745.245
130.9524, 1827.850
131.4345, 1912.540
131.9166, 1998.199
132.3987, 2082.218
132.8809, 2159.966
133.3630, 2232.753
133.8451, 2293.159
134.3272, 2333.975
134.8093, 2365.205
135.2914, 2395.920
135.7736, 2428.585
136.2557, 2463.365
136.7378, 2500.183
137.2199, 2538.205
137.7020, 2580.701
138.1841, 2620.437
138.6663, 2666.941
139.1484, 2737.549
139.6305, 2840.952
140.1126, 2960.088
140.5947, 3064.857
141.0768, 3150.558
141.5590, 3248.642
142.0411, 3371.043
142.5232, 3513.390
143.0053, 3665.484
143.4874, 3826.481
143.9695, 3994.668
144.4517, 4170.233
144.9338, 4354.913
145.4159, 4534.646
145.8980, 4703.502
146.3801, 4862.407
146.8622, 5015.525
147.3444, 5162.376
147.8265, 5305.535
148.3086, 5451.473
148.7907, 5603.220
149.2728, 5742.883
149.7549, 5854.219
150.2371, 5940.474
150.7192, 6024.450
151.2013, 6115.315
151.6834, 6201.613
152.1655, 6271.864
152.6476, 6324.889
153.1298, 6369.434
153.6119, 6411.526
154.0940, 6450.978
154.5761, 6485.592
155.0582, 6512.538
155.5403, 6535.360
156.0225, 6551.916
156.5046, 6561.886
156.9867, 6580.876
157.4688, 6628.805
157.9509, 6708.384
158.4330, 6782.626
158.9152, 6832.695
159.3973, 6883.094
159.8794, 6954.475
160.3615, 7048.851
160.8436, 7142.354
161.3257, 7200.846
161.8079, 7213.628
162.2900, 7254.293
162.7721, 7360.477
163.2542, 7482.056
163.7363, 7594.084
164.2184, 7692.500
164.7006, 7784.901
165.1827, 7881.416
165.6648, 7986.076
166.1469, 8081.871
166.6290, 8158.610
167.1111, 8232.299
167.5933, 8313.356
168.0754, 8402.994
168.5575, 8491.668
169.0396, 8566.316
169.5217, 8622.157
170.0038, 8678.822
170.4860, 8741.708
170.9681, 8802.711
171.4502, 8856.339
171.9323, 8901.996
172.4144, 8943.386
172.8965, 8986.325
173.3787, 9036.156
173.8608, 9073.099
174.3429, 9086.836
174.8250, 9096.631
175.3071, 9110.691
175.7892, 9131.594
176.2714, 9160.059
176.7535, 9197.937
177.2356, 9249.105
177.7177, 9299.760
178.1998, 9355.487
178.6819, 9406.535
179.1641, 9445.836
179.6462, 9473.146
180.1283, 9494.324
180.6104, 9515.531
181.0925, 9534.079
181.5746, 9560.990
182.0567, 9594.237
182.5389, 9635.353
183.0210, 9692.500
183.5031, 9762.341
183.9852, 9828.000
184.4673, 9868.063
184.9494, 9869.801
185.4316, 9886.927
185.9137, 9928.871
186.3958, 9975.048
186.8779, 10012.34
187.3600, 10040.94
187.8421, 10071.62
188.3243, 10118.02
188.8064, 10189.58
189.2885, 10237.39
189.7706, 10245.57
190.2527, 10248.78
190.7348, 10265.16
191.2170, 10295.17
191.6991, 10329.38
192.1812, 10358.53
192.6633, 10381.80
193.1454, 10404.93
193.6275, 10430.43
194.1097, 10453.68
194.5918, 10465.75
195.0739, 10471.19
195.5560, 10487.42
196.0381, 10533.04
196.5202, 10614.00
197.0024, 10667.26
197.4845, 10680.07
197.9666, 10684.05
198.4487, 10690.18
198.9308, 10699.61
199.4129, 10709.75
199.8951, 10717.34
200.3772, 10721.89
200.8593, 10742.56
201.3414, 10787.92
201.8235, 10836.88
202.3056, 10886.63
202.7878, 10933.76
203.2699, 10972.47
203.7520, 10998.90
204.2341, 11013.26
204.7162, 11018.09
205.1983, 11004.14
205.6805, 10992.39
206.1626, 10985.66
206.6447, 10986.30
207.1268, 11000.00
207.6089, 11031.97
208.0910, 11078.41
208.5732, 11113.00
209.0553, 11133.36
209.5374, 11146.72
210.0195, 11153.67
210.5016, 11154.93
210.9837, 11148.47
211.4659, 11131.50
211.9480, 11110.70
212.4301, 11113.46
212.9122, 11175.75
213.3943, 11216.87
213.8764, 11205.21
214.3586, 11168.02
214.8407, 11145.43
215.3228, 11155.04
215.8049, 11186.64
216.2870, 11214.10
216.7691, 11237.98
217.2513, 11256.92
217.7334, 11264.10
218.2155, 11268.54
218.6976, 11276.55
219.1797, 11290.14
219.6618, 11225.65
220.1440, 11355.67
220.6261, 11434.19
221.1082, 11463.98
221.5903, 11299.05
222.0724, 11385.55
222.5546, 11371.30
223.0367, 11352.91
223.5188, 11474.79
224.0009, 11338.19
224.4830, 11457.85
224.9651, 11475.22
225.4473, 11539.40
225.9294, 11464.25
226.4115, 11462.68
226.8936, 11465.56
227.3757, 11470.11
227.8578, 11472.78
228.3400, 11471.81
228.8221, 11477.24
229.3042, 11505.07
229.7863, 11525.97
230.2684, 11510.36
230.7505, 11464.16
231.2327, 11426.67
231.7148, 11435.95
232.1969, 11498.10
232.6790, 11541.74
233.1611, 11553.17
233.6432, 11563.04
234.1254, 11588.86
234.6075, 11626.01
235.0896, 11659.11
235.5717, 11677.43
236.0538, 11681.30
236.5359, 11677.33
237.0181, 11651.74
237.5002, 11634.19
237.9823, 11642.05
238.4644, 11663.64
238.9465, 11675.09
239.4286, 11661.41
239.9108, 11630.45
240.3929, 11618.97
240.8750, 11643.62
241.3571, 11668.40
241.8392, 11690.55
242.3213, 11709.60
242.8035, 11726.22
243.2856, 11740.71
243.7677, 11751.10
244.2498, 11752.18
244.7319, 11720.44
245.2140, 11710.91
245.6962, 11742.41
246.1783, 11786.16
246.6604, 11816.72
247.1425, 11826.39
247.6246, 11823.98
248.1067, 11822.83
248.5889, 11823.35
249.0710, 11824.47
249.5531, 11825.98
250.0352, 11828.12
250.5173, 11831.43
250.9994, 11835.76
251.4816, 11839.91
251.9637, 11841.62
252.4458, 11838.15
252.9279, 11844.92
253.4100, 11869.19
253.8921, 11895.70
254.3743, 11922.08
254.8564, 11945.46
255.3385, 11959.97
255.8206, 11959.11
256.3027, 11942.85
256.7849, 11934.90
257.2670, 11950.12
257.7491, 11958.82
258.2312, 11944.19
258.7133, 11919.12
259.1954, 11905.45
259.6776, 11916.71
260.1597, 11948.75
260.6418, 11985.29
261.1239, 12040.07
261.6060, 12078.57
262.0881, 12087.63
262.5703, 12081.96
263.0524, 12076.12
263.5345, 12076.05
264.0166, 12080.79
264.4987, 12090.14
264.9808, 12110.52
265.4630, 12120.60
265.9451, 12108.80
266.4272, 12092.66
266.9093, 12083.58
267.3914, 12084.45
267.8735, 12092.89
268.3557, 12107.39
268.8378, 12129.06
269.3199, 12150.75
269.8020, 12181.01
270.2841, 12203.60
270.7662, 12203.35
271.2484, 12184.76
271.7305, 12169.89
272.2126, 12182.78
272.6947, 12221.63
273.1768, 12245.04
273.6589, 12243.56
274.1411, 12237.91
274.6232, 12236.12
275.1053, 12237.87
275.5874, 12242.77
276.0695, 12255.14
276.5516, 12268.53
277.0338, 12261.55
277.5159, 12223.65
277.9980, 12191.52
278.4801, 12181.37
278.9622, 12186.00
279.4443, 12199.25
279.9265, 12220.92
280.4086, 12247.11
280.8907, 12274.98
281.3728, 12305.13
281.8549, 12330.42
282.3370, 12352.11
282.8192, 12364.31
283.3013, 12353.51
283.7834, 12312.91
284.2655, 12285.23
284.7476, 12317.77
285.2297, 12396.84
285.7119, 12447.20
286.1940, 12440.00
286.6761, 12418.14
287.1582, 12434.12
287.6403, 12484.81
288.1224, 12519.87
288.6046, 12504.72
289.0867, 12464.96
289.5688, 12444.36
290.0509, 12449.25
290.5330, 12464.40
291.0151, 12480.72
291.4973, 12497.47
291.9794, 12510.70
292.4615, 12514.99
292.9436, 12519.17
293.4257, 12537.16
293.9078, 12566.15
294.3900, 12580.26
294.8721, 12558.15
295.3542, 12511.85
295.8363, 12489.41
296.3184, 12506.06
296.8005, 12525.12
297.2827, 12528.31
297.7648, 12524.10
298.2469, 12533.34
298.7290, 12566.56
299.2111, 12606.29
299.6932, 12616.12
300.1754, 12577.37
300.6575, 12550.67
301.1396, 12547.47
301.6217, 12556.01
302.1038, 12566.63
302.5859, 12576.97
303.0681, 12587.07
303.5501, 12597.15
304.0323, 12607.49
304.5144, 12616.02
304.9965, 12613.35
305.4786, 12617.57
305.9607, 12647.67
306.4428, 12694.11
306.9250, 12728.50
307.4071, 12729.73
307.8892, 12701.86
308.3713, 12682.49
308.8534, 12670.78
309.3355, 12669.26
309.8177, 12683.83
310.2998, 12706.97
310.7819, 12730.08
311.2640, 12749.58
311.7461, 12767.14
312.2282, 12788.24
312.7104, 12823.46
313.1925, 12838.55
313.6746, 12816.63
314.1567, 12787.43
314.6388, 12768.37
315.1209, 12762.71
315.6031, 12765.99
316.0852, 12776.78
316.5673, 12796.31
317.0494, 12808.15
317.5315, 12803.88
318.0136, 12800.69
318.4958, 12805.22
318.9779, 12816.34
319.4600, 12831.51
319.9421, 12853.06
320.4242, 12875.41
320.9063, 12879.89
321.3885, 12856.95
321.8706, 12842.86
322.3527, 12874.44
322.8348, 12914.27
323.3169, 12917.58
323.7990, 12865.46
324.2812, 12803.39
324.7633, 12771.76
325.2454, 12769.97
325.7275, 12792.61
326.2096, 12853.81
326.6917, 12921.11
327.1739, 12958.00
327.6560, 12964.43
328.1381, 12963.60
328.6202, 12963.89
329.1023, 12963.87
329.5844, 12958.91
330.0666, 12947.32
330.5487, 12939.43
331.0308, 12945.18
331.5129, 12963.61
331.9950, 12982.77
332.4771, 13005.29
332.9593, 13025.50
333.4414, 13042.06
333.9235, 13053.56
334.4056, 13053.31
334.8877, 13034.91
335.3698, 13006.35
335.8520, 12994.61
336.3341, 13011.56
336.8162, 13025.37
337.2983, 13026.89
337.7804, 13024.26
338.2625, 13027.97
338.7447, 13040.43
339.2268, 13054.97
339.7089, 13063.04
340.1910, 13063.90
340.6731, 13059.92
341.1552, 13042.98
341.6374, 13029.30
342.1195, 13030.09
342.6016, 13041.80
343.0837, 13052.54
343.5658, 13053.22
344.0479, 13046.00
344.5301, 13046.42
345.0122, 13059.08
345.4943, 13073.76
345.9764, 13090.47
346.4585, 13107.37
346.9406, 13121.90
347.4228, 13133.29
347.9049, 13144.44
348.3870, 13161.73
348.8691, 13188.15
349.3512, 13205.46
349.8333, 13194.67
350.3155, 13188.33
350.7976, 13217.50
351.2797, 13273.67
351.7618, 13311.12
352.2439, 13281.01
352.7260, 13207.08
353.2082, 13169.92
353.6903, 13178.87
354.1724, 13201.00
354.6545, 13226.66
355.1366, 13250.82
355.6187, 13263.39
356.1009, 13255.63
356.5830, 13245.75
357.0651, 13252.22
357.5472, 13271.95
358.0293, 13286.63
358.5114, 13288.60
358.9936, 13284.62
359.4757, 13284.82
359.9578, 13288.51
360.4399, 13297.36
360.9220, 13321.44
361.4041, 13345.96
361.8863, 13347.27
362.3684, 13324.30
362.8505, 13306.45
363.3326, 13322.91
363.8147, 13374.38
364.2968, 13398.98
364.7790, 13370.81
365.2611, 13347.70
365.7432, 13359.54
366.2253, 13389.88
366.7074, 13407.86
367.1895, 13399.31
367.6717, 13374.29
368.1538, 13354.52
368.6359, 13334.62
369.1180, 13331.12
369.6001, 13355.70
370.0822, 13385.91
370.5644, 13405.85
371.0465, 13415.11
371.5286, 13425.21
372.0107, 13451.77
372.4928, 13493.37
372.9749, 13502.11
373.4571, 13443.55
373.9392, 13400.21
374.4213, 13407.03
374.9034, 13443.17
375.3855, 13481.81
375.8676, 13515.59
376.3498, 13539.78
376.8319, 13542.38
377.3140, 13521.87
377.7961, 13510.87
378.2782, 13524.20
378.7603, 13544.82
379.2425, 13553.92
379.7246, 13551.56
380.2067, 13550.78
380.6888, 13556.83
381.1709, 13568.52
381.6530, 13588.76
382.1352, 13618.76
382.6173, 13638.21
383.0994, 13628.15
383.5815, 13593.23
384.0636, 13568.77
384.5457, 13562.57
385.0279, 13558.21
385.5100, 13544.17
385.9921, 13527.73
386.4742, 13525.63
386.9563, 13544.56
387.4384, 13570.50
387.9206, 13578.76
388.4027, 13554.44
388.8848, 13547.99
389.3669, 13574.74
389.8490, 13605.01
390.3311, 13620.88
390.8133, 13623.42
391.2954, 13622.58
391.7775, 13624.98
392.2596, 13630.82
392.7417, 13641.36
393.2238, 13656.96
393.7060, 13677.22
394.1881, 13718.35
394.6702, 13754.87
395.1523, 13752.68
395.6344, 13704.10
396.1165, 13652.56
396.5987, 13652.15
397.0808, 13701.94
397.5629, 13744.99
398.0450, 13781.76
398.5271, 13800.86
399.0092, 13783.69
399.4914, 13742.92
399.9735, 13716.30
400.4556, 13724.37
400.9377, 13748.29
401.4198, 13767.59
401.9019, 13782.63
402.3841, 13798.39
402.8662, 13820.50
403.3483, 13841.04
403.8304, 13839.29
404.3125, 13802.11
404.7946, 13784.27
405.2768, 13816.34
405.7589, 13865.69
406.2410, 13898.93
406.7231, 13910.54
407.2052, 13908.43
407.6873, 13898.33
408.1695, 13880.13
408.6516, 13861.97
409.1337, 13825.22
409.6158, 13809.62
410.0979, 13844.17
410.5800, 13899.24
411.0622, 13934.66
411.5443, 13935.45
412.0264, 13918.85
412.5085, 13911.92
412.9906, 13916.64
413.4727, 13923.82
413.9549, 13934.69
414.4370, 13946.64
414.9191, 13960.56
415.4012, 13974.83
415.8833, 13985.46
416.3654, 13990.55
416.8476, 13990.42
417.3297, 13980.68
417.8118, 13957.84
418.2939, 13951.51
418.7760, 13990.19
419.2581, 14040.88
419.7403, 14053.55
420.2224, 14017.87
420.7045, 13987.23
421.1866, 13991.21
421.6687, 14014.22
422.1508, 14032.73
422.6330, 14043.29
423.1151, 14050.05
423.5972, 14056.12
424.0793, 14061.43
424.5614, 14065.78
425.0435, 14074.19
425.5257, 14076.18
426.0078, 14062.99
426.4899, 14042.87
426.9720, 14026.65
427.4541, 14018.30
427.9362, 14017.12
428.4184, 14022.61
428.9005, 14036.41
429.3826, 14051.90
429.8647, 14069.31
430.3468, 14088.22
430.8289, 14112.87
431.3111, 14138.65
431.7932, 14156.72
432.2753, 14162.98
432.7574, 14157.51
433.2395, 14132.22
433.7216, 14079.45
434.2038, 14052.64
434.6859, 14085.06
435.1680, 14136.16
435.6501, 14168.16
436.1322, 14179.85
436.6143, 14179.83
437.0965, 14161.31
437.5786, 14138.10
438.0607, 14128.91
438.5428, 14135.21
439.0249, 14157.62
439.5070, 14202.67
439.9892, 14262.50
440.4713, 14299.75
440.9534, 14300.51
441.4355, 14300.38
441.9176, 14308.26
442.3997, 14318.47
442.8819, 14325.09
443.3640, 14326.72
443.8461, 14324.18
444.3282, 14316.78
444.8103, 14303.38
445.2924, 14300.89
445.7746, 14317.83
446.2567, 14337.01
446.7388, 14353.35
447.2209, 14369.79
447.7030, 14393.70
448.1852, 14428.96
448.6673, 14460.24
449.1494, 14466.75
449.6315, 14448.45
450.1136, 14418.33
450.5957, 14358.64
451.0779, 14316.93
451.5600, 14349.32
452.0421, 14434.14
452.5242, 14493.66
453.0063, 14487.19
453.4884, 14460.99
453.9706, 14453.05
454.4527, 14460.50
454.9348, 14470.51
455.4169, 14477.73
455.8990, 14485.93
456.3811, 14503.53
456.8633, 14542.03
457.3454, 14560.62
457.8275, 14537.83
458.3096, 14512.88
458.7917, 14511.84
459.2738, 14531.43
459.7560, 14555.27
460.2381, 14573.06
460.7202, 14586.99
461.2023, 14604.91
461.6844, 14632.03
462.1665, 14651.71
462.6487, 14655.59
463.1308, 14655.80
463.6129, 14659.80
464.0950, 14668.23
464.5771, 14678.30
465.0592, 14694.26
465.5414, 14709.42
466.0235, 14702.57
466.5056, 14670.17
466.9877, 14641.17
467.4698, 14625.53
467.9519, 14626.19
468.4341, 14650.21
468.9162, 14711.79
469.3983, 14757.99
469.8804, 14763.97
470.3625, 14748.15
470.8446, 14723.31
471.3268, 14695.16
471.8089, 14682.90
472.2910, 14705.80
472.7731, 14759.68
473.2552, 14792.91
473.7373, 14794.22
474.2195, 14786.57
474.7016, 14763.85
475.1837, 14738.08
475.6658, 14720.79
476.1479, 14714.14
476.6300, 14712.13
477.1122, 14705.45
477.5943, 14695.59
478.0764, 14706.13
478.5585, 14750.80
479.0406, 14786.98
479.5227, 14780.47
480.0049, 14755.56
480.4870, 14745.30
480.9691, 14758.48
481.4512, 14776.77
481.9333, 14797.60
482.4154, 14813.50
482.8976, 14801.86
483.3797, 14757.56
483.8618, 14715.27
484.3439, 14705.12
484.8260, 14727.05
485.3081, 14761.85
485.7903, 14831.76
486.2724, 14885.84
486.7545, 14906.81
487.2366, 14906.15
487.7187, 14886.57
488.2008, 14853.53
488.6830, 14836.86
489.1651, 14888.30
489.6472, 15014.31
490.1293, 15071.77
490.6114, 15013.74
491.0935, 14954.18
491.5757, 14934.16
492.0578, 14943.83
492.5399, 14975.46
493.0220, 15034.90
493.5041, 15087.37
493.9862, 15096.93
494.4684, 15076.71
494.9505, 15064.74
495.4326, 15068.01
495.9147, 15078.83
496.3968, 15092.60
496.8789, 15108.82
497.3611, 15119.08
497.8432, 15127.84
498.3253, 15125.98
498.8074, 15090.89
499.2895, 15051.67
499.7716, 15053.48
500.2538, 15104.52
500.7359, 15166.56
501.2180, 15193.61
501.7001, 15183.52
502.1822, 15178.01
502.6643, 15183.02
503.1465, 15184.20
503.6286, 15169.20
504.1107, 15151.08
504.5928, 15150.75
505.0749, 15176.42
505.5570, 15198.34
506.0392, 15173.98
506.5213, 15125.44
507.0034, 15130.71
507.4855, 15208.41
507.9676, 15283.53
508.4497, 15293.97
508.9319, 15250.45
509.4140, 15235.44
509.8961, 15274.45
510.3782, 15308.21
510.8603, 15317.10
511.3424, 15314.47
511.8246, 15314.98
512.3067, 15321.74
512.7888, 15329.68
513.2709, 15331.48
513.7531, 15328.39
514.2352, 15347.77
514.7173, 15402.72
515.1994, 15458.78
515.6815, 15530.16
516.1636, 15584.69
516.6458, 15576.50
517.1279, 15497.55
517.6100, 15423.32
518.0921, 15413.31
518.5742, 15444.52
519.0563, 15467.95
519.5385, 15479.37
520.0206, 15500.65
520.5027, 15551.71
520.9848, 15618.50
521.4669, 15652.44
521.9490, 15634.13
522.4312, 15622.11
522.9133, 15639.15
523.3954, 15655.40
523.8775, 15638.67
524.3596, 15593.64
524.8417, 15550.98
525.3239, 15531.31
525.8060, 15532.75
526.2881, 15552.11
526.7702, 15599.53
527.2523, 15637.50
527.7344, 15658.02
528.2166, 15665.54
528.6987, 15657.55
529.1808, 15636.47
529.6629, 15618.39
530.1450, 15610.44
530.6271, 15609.74
531.1093, 15613.56
531.5914, 15621.60
532.0735, 15632.75
532.5556, 15646.41
533.0377, 15663.55
533.5198, 15687.92
534.0020, 15729.51
534.4841, 15747.32
534.9662, 15728.32
535.4483, 15699.63
535.9304, 15658.73
536.4125, 15621.25
536.8947, 15618.23
537.3768, 15664.88
537.8589, 15727.56
538.3410, 15752.38
538.8231, 15737.09
539.3052, 15724.70
539.7874, 15718.44
540.2695, 15717.23
540.7516, 15724.60
541.2337, 15736.12
541.7158, 15740.73
542.1979, 15728.31
542.6801, 15720.92
543.1622, 15742.06
543.6443, 15774.06
544.1264, 15781.12
544.6085, 15757.32
545.0906, 15732.77
545.5728, 15737.67
546.0549, 15770.35
546.5370, 15788.03
547.0191, 15775.29
547.5012, 15767.05
547.9833, 15760.79
548.4655, 15765.99
548.9476, 15801.40
549.4297, 15863.93
549.9117, 15916.29
550.3939, 15921.94
550.8760, 15896.88
551.3581, 15885.87
551.8402, 15890.77
552.3223, 15882.21
552.8044, 15835.06
553.2866, 15779.72
553.7687, 15777.69
554.2508, 15838.25
554.7329, 15893.75
555.2150, 15939.95
555.6971, 15972.91
556.1793, 15984.95
556.6614, 15981.70
557.1435, 15975.55
557.6256, 15972.44
558.1077, 15970.67
558.5898, 15963.67
559.0720, 15946.35
559.5541, 15950.50
560.0362, 15989.79
560.5183, 16036.84
561.0004, 16082.48
561.4825, 16124.00
561.9647, 16157.46
562.4468, 16184.37
562.9289, 16197.38
563.4110, 16180.91
563.8931, 16148.93
564.3752, 16129.33
564.8574, 16127.10
565.3395, 16132.80
565.8216, 16139.10
566.3037, 16146.22
566.7858, 16155.99
567.2679, 16174.84
567.7501, 16187.72
568.2322, 16194.51
568.7143, 16194.04
569.1964, 16177.40
569.6785, 16150.03
570.1606, 16135.85
570.6428, 16159.31
571.1249, 16200.66
571.6070, 16214.09
572.0891, 16199.03
572.5712, 16198.02
573.0533, 16236.08
573.5355, 16274.60
574.0176, 16253.86
574.4997, 16168.14
574.9818, 16116.36
575.4639, 16117.03
575.9460, 16140.91
576.4282, 16198.71
576.9103, 16261.69
577.3924, 16276.83
577.8745, 16230.58
578.3566, 16174.32
578.8387, 16177.86
579.3209, 16241.09
579.8030, 16271.58
580.2851, 16254.67
580.7672, 16234.41
581.2493, 16221.49
581.7314, 16219.69
582.2136, 16240.67
582.6957, 16291.04
583.1778, 16327.03
583.6599, 16320.39
584.1420, 16295.34
584.6241, 16277.96
585.1063, 16268.28
585.5884, 16253.21
586.0705, 16224.53
586.5526, 16194.64
587.0347, 16193.08
587.5168, 16238.88
587.9990, 16264.86
588.4811, 16241.92
588.9632, 16228.24
589.4453, 16262.40
589.9274, 16318.27
590.4095, 16344.86
590.8917, 16318.65
591.3738, 16287.33
591.8559, 16299.17
592.3380, 16338.69
592.8201, 16369.97
593.3022, 16388.60
593.7844, 16383.63
594.2665, 16339.02
594.7486, 16269.20
595.2307, 16238.73
595.7128, 16284.03
596.1949, 16319.76
596.6771, 16342.41
597.1592, 16356.15
597.6413, 16370.13
598.1234, 16378.15
598.6055, 16355.00
599.0876, 16272.05
599.5698, 16188.32
600.0519, 16220.81
600.5340, 16358.13
601.0161, 16444.41
601.4982, 16438.44
601.9803, 16407.04
602.4625, 16405.27
602.9446, 16430.12
603.4267, 16445.89
603.9088, 16442.47
604.3909, 16443.07
604.8730, 16457.83
605.3552, 16476.77
605.8373, 16493.47
606.3194, 16504.73
606.8015, 16504.96
607.2836, 16487.36
607.7657, 16459.16
608.2479, 16440.57
608.7300, 16432.30
609.2121, 16429.26
609.6942, 16433.32
610.1763, 16438.32
610.6584, 16432.27
611.1406, 16418.96
611.6227, 16424.17
612.1048, 16475.41
612.5869, 16519.80
613.0690, 16522.49
613.5511, 16506.37
614.0333, 16505.60
614.5154, 16526.04
614.9975, 16549.42
615.4796, 16558.36
615.9617, 16555.86
616.4438, 16562.60
