##NAMES=Mangano-ferri-eckermannite
##RRUFFID=R070122
##IDEAL CHEMISTRY=NaNa_2_(Mn^2+^_4_Fe^3+^)Si_8_O_22_(OH)_2_
##LOCALITY=Tanohata mine, Iwate Prefecture, Tohoku Region, Honshu Island, Japan
##OWNER=RRUFF
##SOURCE=Michael Scott
##DESCRIPTION=Dark red bladed crystals and cleavages associated with braunite
##STATUS=The identification of this mineral is confirmed by single-crystal X-ray diffraction and chemical analysis.
##URL=rruff.info/R070122
##MEASURED CHEMISTRY=(Na_0.80_K_0.20_)_Σ=1_(Na_1.60_Ca_0.18_Mn^+2^_0.22_)_Σ=2_(Mn^2+^_2.14_Mn^+3^_0.25_Mg_1.61_)_Σ=4_(Fe^3+^_0.27_Al_0.14_Mg_0.59_)_Σ=1_(Si_7.92_Al_0.06_Ti_0.02_)_Σ=8_O_22_((OH)_1.86_F_0.14_)_Σ=2_
152.1101, 1335.558
152.5922, 1317.630
153.0744, 1295.602
153.5565, 1277.866
154.0386, 1262.740
154.5207, 1260.210
155.0028, 1288.365
155.4849, 1327.544
155.9671, 1346.602
156.4492, 1314.084
156.9313, 1279.445
157.4134, 1264.031
157.8955, 1277.341
158.3777, 1297.408
158.8598, 1326.628
159.3419, 1359.752
159.8240, 1381.066
160.3061, 1375.504
160.7882, 1362.319
161.2704, 1354.096
161.7525, 1355.031
162.2346, 1360.196
162.7167, 1373.538
163.1988, 1392.923
163.6809, 1401.711
164.1631, 1375.856
164.6452, 1341.424
165.1273, 1324.807
165.6094, 1357.223
166.0915, 1393.956
166.5736, 1404.645
167.0558, 1388.067
167.5379, 1372.725
168.0200, 1380.483
168.5021, 1400.522
168.9842, 1416.411
169.4663, 1412.024
169.9485, 1405.183
170.4306, 1415.703
170.9127, 1448.816
171.3948, 1479.503
171.8769, 1483.507
172.3590, 1468.641
172.8412, 1453.707
173.3233, 1450.723
173.8054, 1453.035
174.2875, 1451.155
174.7696, 1441.221
175.2517, 1432.670
175.7339, 1441.518
176.2160, 1463.278
176.6981, 1477.359
177.1802, 1457.723
177.6623, 1422.258
178.1444, 1407.423
178.6266, 1430.500
179.1087, 1466.373
179.5908, 1476.219
180.0729, 1461.684
180.5550, 1444.564
181.0371, 1444.005
181.5193, 1455.391
182.0014, 1465.207
182.4835, 1470.068
182.9656, 1470.679
183.4477, 1466.377
183.9298, 1456.707
184.4120, 1448.667
184.8941, 1454.181
185.3762, 1469.881
185.8583, 1477.425
186.3404, 1460.675
186.8225, 1429.734
187.3047, 1423.063
187.7868, 1444.857
188.2689, 1473.596
188.7510, 1480.104
189.2331, 1465.765
189.7152, 1450.683
190.1974, 1443.117
190.6795, 1442.587
191.1616, 1447.833
191.6437, 1461.171
192.1258, 1475.202
192.6080, 1474.632
193.0901, 1458.822
193.5722, 1444.067
194.0543, 1443.259
194.5364, 1455.299
195.0185, 1454.873
195.5007, 1434.562
195.9828, 1406.853
196.4649, 1405.583
196.9470, 1434.944
197.4291, 1463.212
197.9112, 1465.745
198.3934, 1441.068
198.8755, 1422.071
199.3576, 1413.694
199.8397, 1413.583
200.3218, 1413.532
200.8039, 1413.044
201.2861, 1414.365
201.7682, 1420.348
202.2503, 1431.860
202.7324, 1441.768
203.2145, 1448.927
203.6966, 1453.420
204.1788, 1455.313
204.6609, 1453.768
205.1430, 1451.538
205.6251, 1451.292
206.1072, 1453.370
206.5893, 1455.858
207.0715, 1457.970
207.5536, 1459.764
208.0357, 1464.988
208.5178, 1476.411
208.9999, 1486.838
209.4820, 1486.506
209.9642, 1471.713
210.4463, 1458.057
210.9284, 1450.013
211.4105, 1448.020
211.8926, 1446.747
212.3747, 1444.841
212.8569, 1445.159
213.3390, 1453.843
213.8211, 1475.763
214.3032, 1493.401
214.7853, 1499.381
215.2674, 1490.796
215.7496, 1484.869
216.2317, 1481.744
216.7138, 1481.192
217.1959, 1483.210
217.6780, 1489.189
218.1601, 1494.905
218.6423, 1498.874
219.1244, 1501.423
219.6065, 1500.274
220.0886, 1490.677
220.5707, 1479.322
221.0528, 1486.549
221.5350, 1527.716
222.0171, 1560.727
222.4992, 1562.337
222.9813, 1513.784
223.4634, 1482.192
223.9455, 1473.838
224.4277, 1483.561
224.9098, 1494.428
225.3919, 1508.443
225.8740, 1520.833
226.3561, 1529.929
226.8382, 1538.166
227.3204, 1536.448
227.8025, 1518.342
228.2846, 1488.998
228.7667, 1474.320
229.2488, 1482.646
229.7310, 1494.884
230.2131, 1497.090
230.6952, 1476.599
231.1773, 1473.860
231.6594, 1501.454
232.1415, 1553.645
232.6237, 1584.618
233.1058, 1585.042
233.5879, 1575.349
234.0700, 1569.898
234.5521, 1571.257
235.0342, 1571.520
235.5164, 1567.966
235.9985, 1561.141
236.4806, 1561.813
236.9627, 1574.501
237.4448, 1589.591
237.9269, 1599.563
238.4091, 1602.924
238.8912, 1603.436
239.3733, 1598.845
239.8554, 1589.252
240.3375, 1591.221
240.8196, 1612.490
241.3018, 1637.567
241.7839, 1651.350
242.2660, 1644.786
242.7481, 1644.505
243.2302, 1658.999
243.7123, 1689.424
244.1945, 1706.046
244.6766, 1701.657
245.1587, 1690.343
245.6408, 1685.936
246.1229, 1689.663
246.6050, 1698.224
247.0872, 1712.984
247.5693, 1734.966
248.0514, 1750.313
248.5335, 1755.574
249.0156, 1757.316
249.4977, 1763.879
249.9799, 1780.230
250.4620, 1791.307
250.9441, 1791.078
251.4262, 1777.377
251.9083, 1773.417
252.3904, 1784.996
252.8726, 1801.078
253.3547, 1807.652
253.8368, 1801.213
254.3189, 1792.241
254.8010, 1781.555
255.2831, 1767.762
255.7653, 1763.655
256.2474, 1774.125
256.7295, 1789.867
257.2116, 1798.302
257.6937, 1798.037
258.1758, 1793.352
258.6580, 1783.425
259.1401, 1766.486
259.6222, 1758.806
260.1043, 1765.583
260.5864, 1776.593
261.0685, 1775.202
261.5507, 1753.945
262.0328, 1738.755
262.5149, 1739.922
262.9970, 1760.810
263.4791, 1773.268
263.9612, 1774.612
264.4434, 1770.510
264.9255, 1769.023
265.4076, 1770.273
265.8897, 1773.911
266.3718, 1781.442
266.8539, 1793.942
267.3361, 1799.650
267.8182, 1796.776
268.3003, 1789.230
268.7824, 1781.124
269.2645, 1770.526
269.7466, 1766.147
270.2288, 1774.661
270.7109, 1798.074
271.1930, 1806.362
271.6751, 1793.852
272.1572, 1774.458
272.6393, 1772.333
273.1215, 1792.749
273.6036, 1807.225
274.0857, 1803.308
274.5678, 1780.157
275.0499, 1758.638
275.5320, 1736.752
276.0142, 1719.604
276.4963, 1718.442
276.9784, 1736.558
277.4605, 1750.027
277.9426, 1747.428
278.4247, 1729.249
278.9069, 1717.423
279.3890, 1713.933
279.8711, 1712.751
280.3532, 1703.715
280.8354, 1685.963
281.3175, 1670.612
281.7996, 1663.174
282.2817, 1662.926
282.7638, 1662.262
283.2459, 1661.617
283.7281, 1659.303
284.2102, 1651.258
284.6923, 1637.432
285.1744, 1625.975
285.6565, 1619.577
286.1386, 1618.183
286.6208, 1625.426
287.1029, 1644.420
287.5850, 1660.237
288.0671, 1647.458
288.5492, 1608.757
289.0313, 1578.021
289.5135, 1572.664
289.9956, 1586.707
290.4777, 1598.299
290.9598, 1607.528
291.4419, 1614.217
291.9240, 1620.535
292.4062, 1625.297
292.8883, 1621.328
293.3704, 1597.146
293.8525, 1563.247
294.3346, 1546.740
294.8167, 1548.659
295.2989, 1558.811
295.7810, 1572.505
296.2631, 1587.049
296.7452, 1593.404
297.2273, 1583.103
297.7094, 1564.061
298.1916, 1548.919
298.6737, 1537.826
299.1558, 1530.126
299.6379, 1525.995
300.1200, 1524.912
300.6021, 1525.624
301.0843, 1530.920
301.5664, 1536.025
302.0485, 1532.339
302.5306, 1520.096
303.0127, 1509.437
303.4948, 1509.571
303.9770, 1516.657
304.4591, 1524.260
304.9412, 1534.528
305.4233, 1541.018
305.9054, 1532.581
306.3875, 1510.842
306.8697, 1493.564
307.3518, 1495.950
307.8339, 1509.532
308.3160, 1523.417
308.7981, 1535.769
309.2802, 1545.693
309.7624, 1552.570
310.2445, 1556.380
310.7266, 1556.661
311.2087, 1548.707
311.6908, 1538.948
312.1729, 1533.886
312.6551, 1537.380
313.1372, 1543.635
313.6193, 1550.316
314.1014, 1557.342
314.5835, 1564.197
315.0656, 1571.469
315.5478, 1578.106
316.0299, 1583.107
316.5120, 1583.695
316.9941, 1586.052
317.4762, 1592.773
317.9583, 1603.107
318.4405, 1614.751
318.9226, 1630.114
319.4047, 1644.384
319.8868, 1654.254
320.3689, 1654.262
320.8510, 1657.429
321.3332, 1669.890
321.8153, 1687.930
322.2974, 1702.033
322.7795, 1707.838
323.2616, 1711.299
323.7437, 1714.998
324.2259, 1719.847
324.7080, 1723.730
325.1901, 1728.704
325.6722, 1732.475
326.1543, 1730.284
326.6364, 1708.893
327.1186, 1693.141
327.6007, 1691.874
328.0828, 1712.343
328.5649, 1730.183
329.0470, 1744.792
329.5291, 1756.955
330.0113, 1768.190
330.4934, 1781.226
330.9755, 1789.800
331.4576, 1790.172
331.9397, 1778.961
332.4218, 1776.450
332.9040, 1789.214
333.3861, 1805.748
333.8682, 1810.151
334.3503, 1795.411
334.8324, 1783.360
335.3145, 1779.430
335.7967, 1783.864
336.2788, 1791.905
336.7609, 1807.489
337.2430, 1820.722
337.7251, 1818.386
338.2072, 1796.010
338.6894, 1777.874
339.1715, 1769.901
339.6536, 1770.782
340.1357, 1771.623
340.6178, 1772.551
341.0999, 1773.043
341.5821, 1773.295
342.0642, 1773.378
342.5463, 1769.517
343.0284, 1758.048
343.5105, 1744.106
343.9926, 1748.303
344.4748, 1772.262
344.9569, 1790.211
345.4390, 1771.919
345.9211, 1725.888
346.4032, 1702.194
346.8853, 1714.880
347.3675, 1742.831
347.8496, 1749.031
348.3317, 1735.501
348.8138, 1719.966
349.2959, 1714.796
349.7780, 1716.022
350.2602, 1715.094
350.7423, 1710.945
351.2244, 1704.536
351.7065, 1695.055
352.1887, 1683.716
352.6708, 1674.732
353.1529, 1672.073
353.6350, 1672.279
354.1171, 1671.112
354.5992, 1668.025
355.0814, 1664.867
355.5635, 1662.633
356.0456, 1661.383
356.5277, 1661.222
357.0098, 1662.728
357.4919, 1664.963
357.9741, 1666.975
358.4562, 1668.682
358.9383, 1671.672
359.4204, 1679.697
359.9025, 1688.425
360.3846, 1693.025
360.8668, 1692.316
361.3489, 1686.788
361.8310, 1672.229
362.3131, 1649.932
362.7952, 1635.395
363.2773, 1637.764
363.7595, 1647.204
364.2416, 1656.907
364.7237, 1670.323
365.2058, 1678.759
365.6879, 1675.551
366.1700, 1664.305
366.6522, 1661.858
367.1343, 1679.618
367.6164, 1699.016
368.0985, 1711.540
368.5806, 1711.763
369.0627, 1713.325
369.5449, 1717.985
370.0270, 1723.715
370.5091, 1726.147
370.9912, 1724.646
371.4733, 1720.668
371.9554, 1714.584
372.4376, 1706.074
372.9197, 1695.840
373.4018, 1680.946
373.8839, 1667.231
374.3660, 1663.963
374.8481, 1674.247
375.3303, 1685.758
375.8124, 1698.251
376.2945, 1711.052
376.7766, 1703.728
377.2587, 1669.671
377.7408, 1633.265
378.2230, 1619.805
378.7051, 1629.810
379.1872, 1648.814
379.6693, 1680.667
380.1514, 1715.332
380.6335, 1715.905
381.1157, 1680.836
381.5978, 1641.011
382.0799, 1618.745
382.5620, 1611.840
383.0441, 1613.489
383.5262, 1625.338
384.0084, 1639.945
384.4905, 1645.907
384.9726, 1644.550
385.4547, 1643.190
385.9368, 1644.630
386.4189, 1649.292
386.9011, 1659.041
387.3832, 1675.359
387.8653, 1691.260
388.3474, 1704.582
388.8295, 1713.087
389.3116, 1712.006
389.7938, 1683.416
390.2759, 1655.643
390.7580, 1654.245
391.2401, 1682.084
391.7222, 1704.462
392.2043, 1694.896
392.6865, 1674.269
393.1686, 1664.327
393.6507, 1687.157
394.1328, 1706.919
394.6149, 1709.724
395.0970, 1697.171
395.5792, 1684.711
396.0613, 1672.124
396.5434, 1663.201
397.0255, 1660.159
397.5076, 1673.027
397.9897, 1679.796
398.4719, 1676.317
398.9540, 1665.592
399.4361, 1655.638
399.9182, 1642.256
400.4003, 1634.276
400.8824, 1635.645
401.3646, 1649.603
401.8467, 1664.172
402.3288, 1683.198
402.8109, 1699.676
403.2930, 1700.917
403.7751, 1680.220
404.2573, 1662.951
404.7394, 1656.574
405.2215, 1660.783
405.7036, 1669.534
406.1857, 1685.495
406.6678, 1697.776
407.1500, 1691.260
407.6321, 1665.919
408.1142, 1649.058
408.5963, 1648.238
409.0784, 1657.957
409.5605, 1666.483
410.0427, 1673.770
410.5248, 1679.576
411.0069, 1684.688
411.4890, 1688.255
411.9711, 1686.565
412.4532, 1677.406
412.9354, 1668.440
413.4175, 1671.903
413.8996, 1683.527
414.3817, 1691.333
414.8638, 1684.168
415.3459, 1672.778
415.8281, 1670.434
416.3102, 1678.519
416.7923, 1682.769
417.2744, 1670.598
417.7565, 1650.100
418.2386, 1631.380
418.7208, 1619.362
419.2029, 1608.302
419.6850, 1590.672
420.1671, 1569.019
420.6492, 1560.745
421.1313, 1588.583
421.6135, 1620.158
422.0956, 1635.644
422.5777, 1617.054
423.0598, 1603.879
423.5420, 1607.420
424.0241, 1619.181
424.5062, 1618.451
424.9883, 1592.561
425.4704, 1568.060
425.9525, 1552.801
426.4347, 1548.651
426.9168, 1546.504
427.3989, 1549.257
427.8810, 1551.130
428.3631, 1542.455
428.8452, 1516.507
429.3274, 1502.608
429.8095, 1510.902
430.2916, 1537.077
430.7737, 1557.395
431.2558, 1571.605
431.7379, 1580.950
432.2201, 1583.924
432.7022, 1581.232
433.1843, 1581.499
433.6664, 1585.634
434.1485, 1593.708
434.6306, 1607.356
435.1128, 1625.869
435.5949, 1644.650
436.0770, 1659.663
436.5591, 1673.817
437.0412, 1692.311
437.5233, 1715.783
438.0055, 1740.092
438.4876, 1763.782
438.9697, 1785.660
439.4518, 1803.447
439.9339, 1798.597
440.4160, 1804.127
440.8982, 1857.347
441.3803, 1948.337
441.8624, 2015.967
442.3445, 2008.456
442.8266, 1982.980
443.3087, 1979.529
443.7909, 2015.110
444.2730, 2057.104
444.7551, 2105.229
445.2372, 2154.500
445.7193, 2195.621
446.2014, 2222.138
446.6836, 2245.589
447.1657, 2270.825
447.6478, 2300.098
448.1299, 2317.541
448.6120, 2311.426
449.0941, 2303.891
449.5763, 2319.846
450.0584, 2373.171
450.5405, 2412.635
451.0226, 2427.884
451.5047, 2423.605
451.9868, 2417.407
452.4690, 2407.575
452.9511, 2403.087
453.4332, 2412.317
453.9153, 2434.207
454.3974, 2454.285
454.8795, 2473.100
455.3617, 2485.683
455.8438, 2480.581
456.3259, 2461.244
456.8080, 2444.809
457.2901, 2439.922
457.7722, 2442.537
458.2544, 2451.284
458.7365, 2465.626
459.2186, 2471.531
459.7007, 2450.388
460.1828, 2417.441
460.6649, 2392.576
461.1471, 2385.507
461.6292, 2380.739
462.1113, 2369.496
462.5934, 2353.636
463.0755, 2338.115
463.5576, 2319.271
464.0398, 2305.434
464.5219, 2302.624
465.0040, 2315.057
465.4861, 2323.986
465.9682, 2326.796
466.4503, 2324.648
466.9325, 2318.404
467.4146, 2298.774
467.8967, 2288.193
468.3788, 2297.374
468.8609, 2321.299
469.3430, 2320.372
469.8252, 2282.254
470.3073, 2241.241
470.7894, 2217.613
471.2715, 2213.797
471.7536, 2213.792
472.2357, 2219.727
472.7179, 2224.436
473.2000, 2213.467
473.6821, 2186.976
474.1642, 2161.483
474.6463, 2144.100
475.1284, 2132.319
475.6106, 2118.029
476.0927, 2101.162
476.5748, 2088.144
477.0569, 2088.428
477.5390, 2095.352
478.0211, 2096.796
478.5033, 2088.583
478.9854, 2076.874
479.4675, 2068.909
479.9496, 2061.766
480.4317, 2048.306
480.9138, 2011.972
481.3960, 1978.671
481.8781, 1967.546
482.3602, 1983.462
482.8423, 1994.485
483.3244, 1984.058
483.8065, 1968.292
484.2887, 1961.781
484.7708, 1984.857
485.2529, 1995.436
485.7350, 1982.625
486.2171, 1953.095
486.6992, 1933.787
487.1814, 1927.346
487.6635, 1927.489
488.1456, 1932.639
488.6277, 1943.930
489.1098, 1954.755
489.5919, 1966.208
490.0741, 1975.355
490.5562, 1977.673
491.0383, 1972.935
491.5204, 1967.496
492.0026, 1962.365
492.4847, 1958.106
492.9668, 1956.003
493.4489, 1956.036
493.9310, 1957.976
494.4131, 1964.337
494.8953, 1971.876
495.3774, 1972.642
495.8595, 1963.372
496.3416, 1957.546
496.8237, 1970.663
497.3058, 1994.059
497.7880, 2013.376
498.2701, 2016.570
498.7522, 2019.392
499.2343, 2032.577
499.7164, 2054.893
500.1985, 2071.647
500.6807, 2080.289
501.1628, 2080.331
501.6449, 2069.750
502.1270, 2025.841
502.6091, 2008.555
503.0912, 2034.763
503.5734, 2082.275
504.0555, 2114.756
504.5376, 2125.426
505.0197, 2133.926
505.5018, 2145.298
505.9839, 2159.183
506.4661, 2170.589
506.9482, 2179.928
507.4303, 2185.744
507.9124, 2183.325
508.3945, 2173.802
508.8766, 2174.549
509.3588, 2190.002
509.8409, 2210.358
510.3230, 2221.726
510.8051, 2225.607
511.2872, 2227.688
511.7693, 2229.655
512.2515, 2231.915
512.7336, 2235.901
513.2157, 2241.404
513.6978, 2245.007
514.1799, 2241.843
514.6620, 2237.149
515.1442, 2235.824
515.6263, 2239.842
516.1084, 2245.830
516.5905, 2253.644
517.0726, 2262.639
517.5547, 2271.410
518.0369, 2282.692
518.5190, 2290.704
519.0011, 2292.757
519.4832, 2288.369
519.9653, 2286.168
520.4474, 2283.228
520.9296, 2286.298
521.4117, 2305.494
521.8938, 2349.116
522.3759, 2367.180
522.8580, 2347.297
523.3401, 2311.240
523.8223, 2303.836
524.3044, 2324.687
524.7865, 2339.752
525.2686, 2326.689
525.7507, 2299.366
526.2328, 2295.570
526.7150, 2314.620
527.1971, 2331.011
527.6792, 2320.671
528.1613, 2296.343
528.6434, 2275.976
529.1255, 2265.856
529.6077, 2254.552
530.0898, 2230.117
530.5719, 2200.240
531.0540, 2178.292
531.5361, 2178.264
532.0182, 2178.396
532.5004, 2169.518
532.9825, 2151.059
533.4646, 2135.211
533.9467, 2128.462
534.4288, 2119.884
534.9109, 2101.234
535.3931, 2058.295
535.8752, 2039.355
536.3573, 2055.166
536.8394, 2085.355
537.3215, 2095.969
537.8036, 2084.553
538.2858, 2068.475
538.7679, 2049.051
539.2500, 2030.161
539.7321, 2029.151
540.2142, 2045.968
540.6964, 2061.749
541.1785, 2060.876
541.6606, 2049.294
542.1427, 2036.173
542.6248, 2020.995
543.1069, 2012.918
543.5891, 2021.678
544.0712, 2042.192
544.5533, 2066.480
545.0354, 2097.273
545.5175, 2125.700
545.9996, 2147.093
546.4818, 2162.430
546.9639, 2176.667
547.4460, 2182.023
547.9281, 2194.027
548.4102, 2222.543
548.8923, 2277.577
549.3745, 2318.670
549.8566, 2342.364
550.3387, 2355.466
550.8208, 2362.441
551.3029, 2359.330
551.7850, 2367.499
552.2672, 2392.083
552.7493, 2429.457
553.2314, 2474.097
553.7135, 2525.928
554.1956, 2572.242
554.6777, 2603.205
555.1599, 2623.848
555.6420, 2644.273
556.1241, 2664.939
556.6062, 2686.159
557.0883, 2706.188
557.5704, 2727.391
558.0526, 2753.678
558.5347, 2793.059
559.0168, 2827.057
559.4989, 2843.032
559.9810, 2846.865
560.4631, 2850.425
560.9453, 2858.594
561.4274, 2865.039
561.9095, 2866.213
562.3916, 2861.762
562.8737, 2861.785
563.3558, 2872.902
563.8380, 2880.170
564.3201, 2871.883
564.8022, 2844.070
565.2843, 2819.039
565.7664, 2796.731
566.2485, 2779.741
566.7307, 2773.573
567.2128, 2777.725
567.6949, 2783.951
568.1770, 2793.913
568.6591, 2800.803
569.1412, 2786.813
569.6234, 2755.546
570.1055, 2729.012
570.5876, 2721.901
571.0697, 2726.713
571.5518, 2737.456
572.0339, 2754.224
572.5161, 2772.267
572.9982, 2796.271
573.4803, 2817.498
573.9624, 2826.604
574.4445, 2810.528
574.9266, 2795.444
575.4088, 2775.208
575.8909, 2758.435
576.3730, 2774.264
576.8551, 2846.424
577.3372, 2905.396
577.8193, 2918.583
578.3015, 2888.120
578.7836, 2889.442
579.2657, 2927.504
579.7478, 2975.287
580.2299, 3014.501
580.7120, 3044.878
581.1942, 3060.570
581.6763, 3057.199
582.1584, 3051.595
582.6405, 3064.119
583.1226, 3088.993
583.6047, 3113.804
584.0869, 3133.745
584.5690, 3151.542
585.0511, 3172.415
585.5332, 3194.032
586.0153, 3204.626
586.4974, 3186.630
586.9796, 3167.835
587.4617, 3163.132
587.9438, 3179.235
588.4259, 3190.131
588.9080, 3198.777
589.3901, 3199.342
589.8723, 3182.946
590.3544, 3141.940
590.8365, 3114.806
591.3186, 3110.681
591.8007, 3116.666
592.2828, 3107.997
592.7650, 3084.879
593.2471, 3051.510
593.7292, 2997.309
594.2113, 2939.442
594.6934, 2917.351
595.1755, 2927.396
595.6577, 2930.584
596.1398, 2893.491
596.6219, 2840.521
597.1040, 2795.959
597.5862, 2767.281
598.0683, 2734.821
598.5504, 2681.462
599.0325, 2624.421
599.5146, 2583.816
599.9968, 2580.286
600.4789, 2571.149
600.9610, 2555.124
601.4431, 2530.528
601.9252, 2488.792
602.4073, 2422.607
602.8895, 2362.052
603.3716, 2320.671
603.8537, 2296.463
604.3358, 2268.500
604.8179, 2236.451
605.3000, 2207.061
605.7822, 2191.022
606.2643, 2181.651
606.7464, 2162.554
607.2285, 2131.105
607.7106, 2091.509
608.1927, 2038.606
608.6749, 1982.196
609.1570, 1937.900
609.6391, 1916.142
610.1212, 1901.674
610.6033, 1894.889
611.0854, 1891.908
611.5676, 1878.968
612.0497, 1847.665
612.5318, 1813.046
613.0139, 1778.548
613.4960, 1743.601
613.9781, 1711.465
614.4603, 1681.740
614.9424, 1655.427
615.4245, 1633.134
615.9066, 1615.000
616.3887, 1603.328
616.8708, 1599.304
617.3530, 1598.630
617.8351, 1599.425
618.3172, 1599.369
618.7993, 1592.120
619.2814, 1570.310
619.7635, 1546.328
620.2457, 1529.921
620.7278, 1519.433
621.2099, 1510.042
621.6920, 1501.698
622.1741, 1492.411
622.6563, 1479.550
623.1384, 1462.129
623.6205, 1451.880
624.1026, 1455.881
624.5847, 1459.719
625.0668, 1453.578
625.5490, 1433.850
626.0311, 1419.070
626.5132, 1410.644
626.9953, 1404.925
627.4774, 1396.099
627.9595, 1384.931
628.4417, 1377.850
628.9238, 1377.348
629.4059, 1380.534
629.8880, 1385.818
630.3701, 1391.844
630.8522, 1394.488
631.3344, 1391.108
631.8165, 1384.038
632.2986, 1372.226
632.7807, 1356.163
633.2628, 1345.139
633.7449, 1342.125
634.2271, 1344.486
634.7092, 1352.173
635.1913, 1369.846
635.6734, 1377.982
636.1555, 1372.597
636.6376, 1362.683
637.1198, 1357.584
637.6019, 1357.691
638.0840, 1358.791
638.5661, 1360.567
639.0482, 1362.355
639.5303, 1362.737
640.0125, 1362.025
640.4946, 1361.528
640.9767, 1360.318
641.4588, 1360.701
641.9409, 1368.036
