##NAMES=Manganite
##RRUFFID=R060827
##IDEAL CHEMISTRY=Mn^3+^O(OH)
##LOCALITY=Roberts mine, Crosby, Minnesota, USA
##OWNER=RRUFF
##SOURCE=Michael Scott
##DESCRIPTION=Black submetallic prismatic crystals
##STATUS=The identification of this mineral has been confirmed by X-ray diffraction and chemical analysis
##URL=rruff.info/R060827
##MEASURED CHEMISTRY=Mn^3+^_1.00_O(OH)
121.0456, 536.5112
121.5277, 545.4254
122.0098, 556.7023
122.4920, 569.5301
122.9741, 585.7728
123.4562, 609.8035
123.9383, 641.5259
124.4204, 669.8635
124.9025, 682.7423
125.3847, 684.8594
125.8668, 700.0051
126.3489, 740.0140
126.8310, 788.4180
127.3131, 830.0728
127.7952, 864.3876
128.2773, 894.1321
128.7595, 921.5911
129.2416, 946.6639
129.7237, 967.5814
130.2058, 978.5590
130.6879, 989.0959
131.1700, 1007.610
131.6522, 1035.330
132.1343, 1063.815
132.6164, 1082.623
133.0985, 1089.691
133.5806, 1099.085
134.0627, 1122.725
134.5449, 1144.484
135.0270, 1154.031
135.5091, 1148.766
135.9912, 1132.469
136.4733, 1107.579
136.9554, 1068.102
137.4376, 1036.993
137.9197, 1019.853
138.4018, 1010.525
138.8839, 1003.721
139.3660, 997.5757
139.8481, 996.8751
140.3303, 1013.192
140.8124, 1060.576
141.2945, 1097.929
141.7766, 1105.661
142.2587, 1108.918
142.7408, 1132.765
143.2230, 1187.622
143.7051, 1260.555
144.1872, 1319.365
144.6693, 1350.607
145.1514, 1385.987
145.6335, 1430.087
146.1157, 1479.128
146.5978, 1531.725
147.0799, 1587.294
147.5620, 1641.925
148.0441, 1682.601
148.5262, 1696.224
149.0084, 1709.865
149.4905, 1731.009
149.9726, 1752.258
150.4547, 1763.381
150.9368, 1758.772
151.4190, 1742.109
151.9011, 1728.794
152.3832, 1724.492
152.8653, 1717.299
153.3474, 1705.790
153.8295, 1690.337
154.3117, 1671.920
154.7938, 1650.968
155.2759, 1627.159
155.7580, 1597.948
156.2401, 1557.495
156.7222, 1518.650
157.2044, 1485.200
157.6865, 1454.951
158.1686, 1422.210
158.6507, 1382.704
159.1328, 1338.891
159.6149, 1308.996
160.0971, 1299.014
160.5792, 1293.103
161.0613, 1288.536
161.5434, 1284.648
162.0255, 1280.635
162.5076, 1276.085
162.9898, 1270.920
163.4719, 1264.898
163.9540, 1257.575
164.4361, 1250.019
164.9182, 1240.993
165.4003, 1231.789
165.8825, 1226.026
166.3646, 1226.676
166.8467, 1232.374
167.3288, 1234.785
167.8109, 1231.380
168.2930, 1227.752
168.7752, 1227.239
169.2573, 1228.832
169.7394, 1229.346
170.2215, 1227.683
170.7036, 1222.964
171.1857, 1212.539
171.6679, 1191.587
172.1500, 1170.239
172.6321, 1153.459
173.1142, 1140.657
173.5963, 1128.652
174.0784, 1114.296
174.5606, 1100.215
175.0427, 1094.993
175.5248, 1109.458
176.0069, 1121.913
176.4890, 1117.757
176.9711, 1099.517
177.4533, 1080.745
177.9354, 1067.374
178.4175, 1059.759
178.8996, 1056.532
179.3817, 1062.574
179.8638, 1067.622
180.3460, 1064.324
180.8281, 1053.632
181.3102, 1041.567
181.7923, 1029.614
182.2744, 1019.315
182.7565, 1013.589
183.2387, 1014.492
183.7208, 1017.459
184.2029, 1021.326
184.6850, 1025.564
185.1671, 1025.469
185.6492, 1015.799
186.1314, 1001.627
186.6135, 995.1959
187.0956, 1002.009
187.5777, 1008.659
188.0598, 1002.473
188.5419, 985.2169
189.0241, 973.4016
189.5062, 976.3539
189.9883, 988.5541
190.4704, 999.0880
190.9525, 1010.611
191.4346, 1015.282
191.9168, 1001.423
192.3989, 971.6894
192.8810, 950.3282
193.3631, 951.7112
193.8452, 964.5967
194.3273, 968.2008
194.8095, 957.9463
195.2916, 948.3306
195.7737, 951.7452
196.2558, 966.5151
196.7379, 978.8973
197.2200, 983.5200
197.7022, 983.2643
198.1843, 982.6788
198.6664, 981.2831
199.1485, 981.2181
199.6306, 966.3448
200.1127, 978.0228
200.5949, 984.4814
201.0770, 986.0012
201.5591, 967.7900
202.0412, 975.0574
202.5233, 972.1141
203.0054, 968.7521
203.4876, 979.6053
203.9697, 964.2639
204.4518, 974.8918
204.9339, 975.1533
205.4160, 980.1592
205.8981, 973.1837
206.3803, 974.4167
206.8624, 976.1855
207.3445, 976.8101
207.8266, 977.2659
208.3087, 982.4676
208.7908, 996.1989
209.2730, 1011.486
209.7551, 1019.161
210.2372, 1019.067
210.7193, 1021.809
211.2014, 1038.377
211.6835, 1062.943
212.1657, 1074.863
212.6478, 1063.591
213.1299, 1049.747
213.6120, 1054.562
214.0941, 1076.276
214.5762, 1100.299
215.0584, 1120.429
215.5405, 1137.912
216.0226, 1156.527
216.5047, 1178.102
216.9868, 1198.156
217.4689, 1212.076
217.9511, 1220.912
218.4332, 1228.864
218.9153, 1244.694
219.3974, 1259.460
219.8795, 1252.453
220.3616, 1216.156
220.8438, 1174.409
221.3259, 1148.131
221.8080, 1132.878
222.2901, 1116.746
222.7722, 1092.129
223.2543, 1065.775
223.7365, 1049.592
224.2186, 1046.141
224.7007, 1043.666
225.1828, 1029.842
225.6649, 1009.921
226.1470, 997.9066
226.6292, 1003.749
227.1113, 1015.465
227.5934, 1018.371
228.0755, 1011.604
228.5576, 1003.617
229.0397, 997.8190
229.5219, 995.1426
230.0040, 997.8497
230.4861, 1012.790
230.9682, 1027.957
231.4503, 1029.958
231.9324, 1019.153
232.4146, 1010.248
232.8967, 1012.536
233.3788, 1021.829
233.8609, 1027.153
234.3430, 1025.772
234.8251, 1023.378
235.3073, 1024.463
235.7894, 1028.374
236.2715, 1030.725
236.7536, 1027.909
237.2357, 1023.755
237.7178, 1026.291
238.2000, 1037.786
238.6821, 1050.693
239.1642, 1063.664
239.6463, 1075.357
240.1284, 1080.036
240.6105, 1072.631
241.0927, 1062.061
241.5748, 1064.883
242.0569, 1082.883
242.5390, 1103.757
243.0211, 1126.069
243.5033, 1147.870
243.9854, 1164.526
244.4675, 1173.970
244.9496, 1181.009
245.4317, 1193.523
245.9138, 1212.568
246.3960, 1228.789
246.8781, 1238.430
247.3602, 1245.040
247.8423, 1252.902
248.3244, 1262.801
248.8065, 1273.797
249.2887, 1283.465
249.7708, 1290.990
250.2529, 1307.281
250.7350, 1343.913
251.2171, 1382.888
251.6992, 1407.103
252.1814, 1415.632
252.6635, 1420.420
253.1456, 1432.624
253.6277, 1452.688
254.1098, 1463.032
254.5919, 1454.563
255.0741, 1444.775
255.5562, 1445.198
256.0383, 1454.283
256.5204, 1463.200
257.0025, 1466.021
257.4846, 1463.196
257.9668, 1459.956
258.4489, 1461.129
258.9310, 1457.003
259.4131, 1440.247
259.8952, 1415.832
260.3773, 1394.048
260.8595, 1380.486
261.3416, 1372.806
261.8237, 1362.318
262.3058, 1345.990
262.7879, 1330.649
263.2701, 1316.471
263.7522, 1303.935
264.2343, 1294.858
264.7164, 1289.897
265.1985, 1285.766
265.6806, 1275.789
266.1628, 1253.459
266.6449, 1234.601
267.1270, 1218.684
267.6091, 1206.376
268.0912, 1199.716
268.5733, 1198.484
269.0555, 1198.749
269.5376, 1194.955
270.0197, 1184.410
270.5018, 1177.899
270.9839, 1176.405
271.4660, 1177.181
271.9482, 1177.399
272.4303, 1177.932
272.9124, 1182.764
273.3945, 1196.194
273.8766, 1219.120
274.3587, 1240.645
274.8409, 1262.118
275.3230, 1280.768
275.8051, 1291.752
276.2872, 1299.285
276.7693, 1311.519
277.2514, 1334.349
277.7336, 1365.897
278.2157, 1395.815
278.6978, 1424.359
279.1799, 1450.521
279.6620, 1476.260
280.1441, 1498.899
280.6263, 1515.928
281.1084, 1526.503
281.5905, 1529.549
282.0726, 1521.957
282.5547, 1500.974
283.0368, 1476.211
283.5190, 1454.077
284.0011, 1426.611
284.4832, 1384.272
284.9653, 1325.014
285.4474, 1262.502
285.9295, 1212.059
286.4117, 1174.790
286.8938, 1138.698
287.3759, 1101.289
287.8580, 1065.544
288.3401, 1032.098
288.8222, 1001.411
289.3044, 975.2607
289.7865, 955.4636
290.2686, 941.3748
290.7507, 930.4988
291.2328, 923.1273
291.7149, 918.3652
292.1971, 916.5419
292.6792, 916.7287
293.1613, 916.6358
293.6434, 913.6890
294.1255, 910.5545
294.6076, 912.8716
295.0898, 921.7017
295.5719, 928.7948
296.0540, 928.7025
296.5361, 923.3932
297.0182, 916.7541
297.5003, 907.3625
297.9825, 899.0388
298.4646, 895.2422
298.9467, 895.4382
299.4288, 896.3743
299.9109, 896.1100
300.3930, 896.5504
300.8752, 902.1757
301.3573, 915.3874
301.8394, 926.6362
302.3215, 933.2766
302.8036, 935.5031
303.2857, 931.6678
303.7679, 920.4899
304.2500, 909.1456
304.7321, 907.9212
305.2142, 919.5584
305.6963, 930.1471
306.1784, 938.6407
306.6606, 945.8752
307.1427, 954.1474
307.6248, 962.8877
308.1069, 966.6422
308.5890, 959.1666
309.0711, 939.4393
309.5533, 930.8563
310.0354, 938.5991
310.5175, 949.8875
310.9996, 963.1816
311.4817, 976.0803
311.9638, 984.2856
312.4460, 984.9399
312.9281, 980.2588
313.4102, 978.9613
313.8923, 987.8342
314.3744, 991.6050
314.8565, 981.8969
315.3387, 970.1096
315.8208, 969.2241
316.3029, 982.8395
316.7850, 1002.300
317.2671, 1013.303
317.7492, 1010.784
318.2314, 1013.377
318.7135, 1029.411
319.1956, 1043.927
319.6777, 1047.951
320.1598, 1042.022
320.6419, 1032.838
321.1241, 1024.026
321.6062, 1015.922
322.0883, 1016.551
322.5704, 1032.395
323.0525, 1048.780
323.5346, 1058.416
324.0168, 1064.553
324.4989, 1073.752
324.9810, 1091.184
325.4631, 1110.716
325.9452, 1119.258
326.4273, 1113.865
326.9095, 1110.242
327.3916, 1116.191
327.8737, 1126.340
328.3558, 1135.099
328.8379, 1141.086
329.3200, 1147.912
329.8022, 1160.334
330.2843, 1176.801
330.7664, 1188.725
331.2485, 1192.813
331.7306, 1193.671
332.2127, 1196.317
332.6949, 1200.663
333.1770, 1205.514
333.6591, 1210.584
334.1412, 1215.953
334.6233, 1220.863
335.1054, 1225.250
335.5876, 1232.783
336.0697, 1248.606
336.5518, 1271.634
337.0339, 1284.943
337.5160, 1280.419
337.9981, 1274.651
338.4803, 1273.077
338.9624, 1276.578
339.4445, 1286.984
339.9266, 1305.588
340.4087, 1330.306
340.8908, 1355.582
341.3730, 1385.734
341.8551, 1410.666
342.3372, 1423.952
342.8193, 1435.296
343.3014, 1453.124
343.7835, 1479.406
344.2657, 1512.208
344.7478, 1550.130
345.2299, 1596.022
345.7120, 1635.144
346.1941, 1658.924
346.6762, 1684.897
347.1584, 1718.870
347.6405, 1761.007
348.1226, 1810.276
348.6047, 1867.412
349.0868, 1930.008
349.5689, 1986.446
350.0511, 2033.817
350.5332, 2080.046
351.0153, 2128.998
351.4974, 2177.523
351.9795, 2221.965
352.4616, 2261.012
352.9438, 2298.198
353.4259, 2339.748
353.9080, 2385.801
354.3901, 2424.352
354.8722, 2456.791
355.3543, 2475.515
355.8365, 2472.574
356.3186, 2449.727
356.8007, 2425.655
357.2828, 2415.603
357.7649, 2408.070
358.2470, 2381.996
358.7292, 2334.795
359.2113, 2278.398
359.6934, 2218.695
360.1755, 2156.308
360.6576, 2094.902
361.1397, 2035.558
361.6219, 1975.933
362.1040, 1910.624
362.5861, 1843.987
363.0682, 1788.495
363.5503, 1750.281
364.0324, 1721.867
364.5146, 1687.282
364.9967, 1639.030
365.4788, 1599.179
365.9609, 1570.818
366.4430, 1549.959
366.9251, 1533.624
367.4073, 1521.267
367.8894, 1512.920
368.3715, 1508.608
368.8536, 1508.327
369.3357, 1512.541
369.8178, 1524.669
370.3000, 1537.804
370.7821, 1547.607
371.2642, 1557.877
371.7463, 1574.869
372.2284, 1601.827
372.7105, 1635.331
373.1927, 1666.119
373.6748, 1689.176
374.1569, 1724.604
374.6390, 1779.769
375.1211, 1846.426
375.6032, 1920.610
376.0854, 2001.676
376.5675, 2089.606
377.0496, 2183.287
377.5317, 2283.144
378.0138, 2394.423
378.4959, 2518.496
378.9781, 2651.253
379.4602, 2793.973
379.9423, 2943.181
380.4244, 3095.419
380.9065, 3246.698
381.3886, 3402.319
381.8708, 3572.048
382.3529, 3751.422
382.8350, 3920.337
383.3171, 4070.301
383.7992, 4205.589
384.2813, 4337.299
384.7635, 4477.000
385.2456, 4586.262
385.7277, 4657.823
386.2098, 4696.925
386.6919, 4712.315
387.1740, 4703.604
387.6562, 4659.496
388.1383, 4569.141
388.6204, 4431.857
389.1025, 4253.338
389.5846, 3999.140
390.0667, 3743.769
390.5489, 3501.458
391.0310, 3272.465
391.5131, 3056.779
391.9952, 2853.292
392.4773, 2660.644
392.9594, 2473.001
393.4416, 2286.112
393.9237, 2116.396
394.4058, 1963.085
394.8879, 1829.140
395.3700, 1719.306
395.8521, 1632.092
396.3343, 1560.643
396.8164, 1506.492
397.2985, 1464.461
397.7806, 1416.632
398.2627, 1361.450
398.7448, 1305.469
399.2270, 1247.311
399.7091, 1192.492
400.1912, 1152.215
400.6733, 1134.162
401.1554, 1121.090
401.6375, 1101.109
402.1197, 1076.647
402.6018, 1054.914
403.0839, 1037.985
403.5660, 1024.575
404.0481, 1013.397
404.5302, 1005.561
405.0124, 995.5077
405.4945, 984.0723
405.9766, 969.4752
406.4587, 945.3395
406.9408, 915.8239
407.4229, 895.0862
407.9051, 894.0301
408.3872, 907.8606
408.8693, 911.4240
409.3514, 894.3393
409.8335, 880.5184
410.3156, 873.9045
410.7978, 870.6693
411.2799, 866.7910
411.7620, 861.5651
412.2441, 857.8834
412.7262, 862.6996
413.2083, 876.7206
413.6905, 875.4871
414.1726, 846.3032
414.6547, 818.1852
415.1368, 807.3065
415.6189, 808.3055
416.1010, 810.6406
416.5832, 811.4581
417.0653, 810.7477
417.5474, 807.9663
418.0295, 803.2826
418.5116, 798.8308
418.9937, 795.7943
419.4759, 792.8262
419.9580, 787.0276
420.4401, 777.6199
420.9222, 770.4357
421.4043, 766.3121
421.8864, 765.3654
422.3686, 769.2390
422.8507, 777.2650
423.3328, 785.1278
423.8149, 789.8505
424.2970, 791.5008
424.7791, 790.6702
425.2613, 785.6095
425.7434, 780.1592
426.2255, 770.4634
426.7076, 762.8187
427.1897, 766.0289
427.6718, 781.7548
428.1540, 800.8553
428.6361, 812.2985
429.1182, 815.6218
429.6003, 814.5768
430.0824, 804.9576
430.5645, 795.7463
431.0467, 790.6692
431.5288, 788.9969
432.0109, 789.3583
432.4930, 792.5673
432.9751, 795.6350
433.4572, 792.9537
433.9394, 784.8481
434.4215, 780.8218
434.9036, 786.3568
435.3857, 794.5436
435.8678, 793.7980
436.3499, 782.8077
436.8321, 775.9340
437.3142, 780.6379
437.7963, 788.5494
438.2784, 790.0307
438.7605, 785.6326
439.2426, 783.8618
439.7248, 791.0125
440.2069, 805.4127
440.6890, 817.5855
441.1711, 832.1797
441.6532, 838.2738
442.1353, 826.0297
442.6175, 809.8955
443.0996, 803.4459
443.5817, 809.2846
444.0638, 820.7153
444.5459, 832.7676
445.0280, 845.5780
445.5102, 849.5797
445.9923, 838.1746
446.4744, 827.4280
446.9565, 825.5830
447.4386, 828.5087
447.9207, 829.1478
448.4029, 823.3467
448.8850, 819.5790
449.3671, 830.8460
449.8492, 853.2415
450.3313, 864.8779
450.8134, 857.8839
451.2956, 844.9218
451.7777, 840.8871
452.2598, 846.1263
452.7419, 850.1693
453.2240, 848.7307
453.7061, 848.7477
454.1883, 858.7479
454.6704, 874.1863
455.1525, 882.2110
455.6346, 875.9630
456.1167, 860.6546
456.5988, 848.4438
457.0810, 836.9617
457.5631, 833.5704
458.0452, 845.4013
458.5273, 858.3679
459.0095, 860.8358
459.4916, 855.4100
459.9737, 855.4680
460.4558, 873.8987
460.9379, 903.0596
461.4200, 917.2243
461.9022, 911.6445
462.3843, 908.9341
462.8664, 923.0914
463.3485, 941.3481
463.8306, 946.9634
464.3127, 936.3546
464.7949, 928.9583
465.2770, 939.7253
465.7591, 957.7270
466.2412, 964.6011
466.7233, 958.4741
467.2054, 951.1700
467.6876, 951.0928
468.1697, 957.7985
468.6518, 967.1612
469.1339, 984.9927
469.6160, 998.0138
470.0981, 999.3283
470.5803, 996.7227
471.0624, 1000.123
471.5445, 1011.120
472.0266, 1021.817
472.5087, 1022.072
472.9908, 1011.219
473.4730, 1005.014
473.9551, 999.9039
474.4372, 1005.348
474.9193, 1033.665
475.4014, 1070.577
475.8835, 1093.458
476.3657, 1091.952
476.8478, 1089.081
477.3299, 1113.026
477.8120, 1155.254
478.2941, 1177.615
478.7762, 1167.976
479.2584, 1154.259
479.7405, 1164.292
480.2226, 1198.847
480.7047, 1228.152
481.1868, 1248.213
481.6689, 1266.560
482.1511, 1283.420
482.6332, 1301.957
483.1153, 1328.096
483.5974, 1364.101
484.0795, 1405.308
484.5616, 1445.180
485.0438, 1484.132
485.5259, 1520.446
486.0080, 1547.899
486.4901, 1579.033
486.9722, 1618.394
487.4543, 1664.912
487.9365, 1717.844
488.4186, 1780.281
488.9007, 1840.361
489.3828, 1880.782
489.8649, 1902.269
490.3470, 1917.962
490.8292, 1929.477
491.3113, 1938.775
491.7934, 1951.090
492.2755, 1966.045
492.7576, 1967.981
493.2397, 1949.467
493.7219, 1921.692
494.2040, 1890.765
494.6861, 1856.698
495.1682, 1816.047
495.6503, 1766.809
496.1324, 1716.375
496.6146, 1678.538
497.0967, 1657.363
497.5788, 1639.635
498.0609, 1625.172
498.5430, 1614.072
499.0251, 1605.470
499.5073, 1600.347
499.9894, 1601.555
500.4715, 1612.269
500.9536, 1626.468
501.4357, 1633.070
501.9178, 1632.016
502.4000, 1634.949
502.8821, 1645.310
503.3642, 1660.182
503.8463, 1676.650
504.3284, 1694.615
504.8105, 1714.409
505.2927, 1732.604
505.7748, 1755.708
506.2569, 1792.128
506.7390, 1837.437
507.2211, 1880.253
507.7032, 1915.683
508.1854, 1945.704
508.6675, 1972.847
509.1496, 1991.114
509.6317, 2021.438
510.1138, 2069.209
510.5959, 2123.211
511.0781, 2184.251
511.5602, 2247.198
512.0423, 2299.858
512.5244, 2332.000
513.0065, 2361.356
513.4886, 2418.807
513.9708, 2503.164
514.4529, 2580.322
514.9350, 2638.830
515.4171, 2693.367
515.8992, 2761.754
516.3813, 2842.968
516.8635, 2921.979
517.3456, 2989.447
517.8277, 3061.446
518.3098, 3158.431
518.7919, 3266.293
519.2740, 3352.109
519.7562, 3402.719
520.2383, 3443.379
520.7204, 3517.118
521.2025, 3637.314
521.6846, 3740.728
522.1667, 3809.661
522.6489, 3879.056
523.1310, 3965.785
523.6131, 4060.294
524.0952, 4145.320
524.5773, 4214.731
525.0594, 4272.026
525.5416, 4313.919
526.0237, 4344.728
526.5058, 4391.281
526.9879, 4463.509
527.4700, 4534.251
527.9521, 4578.079
528.4343, 4594.817
528.9164, 4609.923
529.3985, 4627.194
529.8806, 4638.652
530.3627, 4638.344
530.8448, 4631.822
531.3270, 4627.432
531.8091, 4627.022
532.2912, 4624.766
532.7733, 4612.713
533.2554, 4590.607
533.7375, 4573.784
534.2197, 4567.268
534.7018, 4557.782
535.1839, 4534.112
535.6660, 4507.693
536.1481, 4491.217
536.6302, 4486.735
537.1124, 4493.753
537.5945, 4518.378
538.0766, 4552.272
538.5587, 4576.109
539.0408, 4588.074
539.5229, 4608.883
540.0051, 4653.664
540.4872, 4718.542
540.9693, 4783.594
541.4514, 4847.699
541.9335, 4914.423
542.4156, 4980.858
542.8978, 5052.371
543.3799, 5132.998
543.8620, 5223.034
544.3441, 5319.969
544.8262, 5423.469
545.3083, 5531.459
545.7905, 5635.840
546.2726, 5734.205
546.7547, 5841.914
547.2368, 5962.653
547.7189, 6095.949
548.2010, 6243.889
548.6832, 6406.706
549.1653, 6566.084
549.6474, 6722.746
550.1295, 6869.731
550.6116, 6989.973
551.0938, 7095.021
551.5759, 7220.140
552.0580, 7383.428
552.5401, 7556.017
553.0222, 7688.161
553.5043, 7772.627
553.9865, 7837.513
554.4686, 7869.294
554.9507, 7894.204
555.4328, 7932.182
555.9149, 7967.449
556.3970, 7971.294
556.8792, 7932.016
557.3613, 7864.467
557.8434, 7781.452
558.3255, 7682.327
558.8076, 7564.978
559.2897, 7429.990
559.7719, 7274.122
560.2540, 7090.633
560.7361, 6881.756
561.2182, 6683.042
561.7003, 6513.475
562.1824, 6327.654
562.6646, 6100.722
563.1467, 5862.922
563.6288, 5644.018
564.1109, 5447.548
564.5930, 5253.350
565.0751, 5040.132
565.5573, 4816.837
566.0394, 4620.883
566.5215, 4457.329
567.0036, 4301.258
567.4857, 4145.412
567.9678, 3992.576
568.4500, 3843.621
568.9321, 3698.213
569.4142, 3562.849
569.8963, 3440.363
570.3784, 3327.854
570.8605, 3222.441
571.3427, 3124.817
571.8248, 3040.182
572.3069, 2970.882
572.7890, 2908.139
573.2711, 2835.597
573.7532, 2746.062
574.2354, 2673.382
574.7175, 2633.800
575.1996, 2592.740
575.6817, 2533.143
576.1638, 2464.084
576.6459, 2401.784
577.1281, 2352.109
577.6102, 2305.278
578.0923, 2250.752
578.5744, 2193.977
579.0565, 2149.888
579.5386, 2120.494
580.0208, 2092.034
580.5029, 2053.114
580.9850, 2007.031
581.4671, 1972.048
581.9492, 1953.094
582.4313, 1939.569
582.9135, 1949.170
583.3956, 1950.086
583.8777, 1905.169
584.3598, 1826.199
584.8419, 1764.030
585.3240, 1758.433
585.8062, 1779.700
586.2883, 1769.558
586.7704, 1729.125
587.2525, 1700.527
587.7346, 1698.373
588.2167, 1704.969
588.6989, 1702.150
589.1810, 1689.321
589.6631, 1673.306
590.1452, 1643.705
590.6273, 1622.642
591.1094, 1631.985
591.5916, 1649.625
592.0737, 1638.010
592.5558, 1591.732
593.0379, 1550.099
593.5200, 1563.499
594.0021, 1622.400
594.4843, 1642.731
594.9664, 1610.206
595.4485, 1584.362
595.9306, 1596.359
596.4127, 1623.021
596.8948, 1631.016
597.3770, 1617.406
597.8591, 1605.667
598.3412, 1600.651
598.8233, 1601.765
599.3054, 1583.615
599.7875, 1613.528
600.2697, 1635.326
600.7518, 1649.438
601.2339, 1632.858
601.7160, 1655.911
602.1981, 1663.081
602.6802, 1669.599
603.1624, 1698.234
603.6445, 1686.117
604.1266, 1718.465
604.6087, 1756.084
605.0908, 1794.104
605.5729, 1830.232
606.0551, 1862.723
606.5372, 1888.989
607.0193, 1912.033
607.5014, 1934.372
607.9835, 1957.070
608.4656, 1984.645
608.9478, 2020.059
609.4299, 2061.082
609.9120, 2100.795
610.3941, 2133.265
610.8762, 2177.646
611.3583, 2244.282
611.8405, 2314.206
612.3226, 2377.657
612.8047, 2437.393
613.2868, 2502.675
613.7689, 2581.226
614.2510, 2655.615
614.7332, 2704.406
615.2153, 2738.527
615.6974, 2784.893
616.1795, 2847.983
616.6616, 2915.739
617.1437, 2981.186
617.6259, 3042.354
618.1080, 3086.847
618.5901, 3103.150
