##NAMES=Manganite
##RRUFFID=R070593
##IDEAL CHEMISTRY=Mn^3+^O(OH)
##LOCALITY=Ilfeld, near Nordhausen, Harz Mountains, Thuringia, Germany
##OWNER=RRUFF
##SOURCE=James Shigley
##DESCRIPTION=Bundled aggregates of steel-gray metallic prisms
##STATUS=The identification of this mineral has been confirmed by X-ray diffraction and chemical analysis
##URL=rruff.info/R070593
##MEASURED CHEMISTRY=Mn^3+^_1.00_O(OH) ; OH estimated by difference and stoichiometry
127.6743, 382.0320
128.1564, 417.6993
128.6386, 468.9524
129.1207, 506.0973
129.6028, 531.5383
130.0849, 565.2800
130.5670, 630.9028
131.0491, 718.9329
131.5313, 778.5354
132.0134, 798.9041
132.4955, 796.5380
132.9776, 806.2104
133.4597, 828.6462
133.9418, 856.5875
134.4240, 883.3976
134.9061, 908.7231
135.3882, 942.6095
135.8703, 993.7380
136.3524, 1057.326
136.8345, 1098.216
137.3167, 1115.728
137.7988, 1112.666
138.2809, 1077.159
138.7630, 985.2158
139.2451, 939.8619
139.7272, 989.2969
140.2094, 1160.675
140.6915, 1291.590
141.1736, 1373.943
141.6557, 1422.197
142.1378, 1465.690
142.6199, 1490.975
143.1021, 1528.041
143.5842, 1586.434
144.0663, 1689.909
144.5484, 1798.390
145.0305, 1921.667
145.5126, 2053.382
145.9948, 2147.973
146.4769, 2202.883
146.9590, 2224.522
147.4411, 2217.308
147.9232, 2182.577
148.4053, 2119.116
148.8875, 2018.589
149.3696, 1871.301
149.8517, 1738.866
150.3338, 1611.537
150.8159, 1500.674
151.2980, 1421.360
151.7802, 1432.464
152.2623, 1422.506
152.7444, 1348.883
153.2265, 1153.725
153.7086, 1016.842
154.1907, 995.4536
154.6729, 1046.962
155.1550, 1076.774
155.6371, 1060.389
156.1192, 1023.098
156.6013, 977.4984
157.0834, 908.7526
157.5656, 850.9794
158.0477, 814.2305
158.5298, 796.4847
159.0119, 784.8245
159.4940, 771.3441
159.9761, 763.8348
160.4583, 768.9736
160.9404, 816.2751
161.4225, 853.2201
161.9046, 852.1633
162.3867, 810.3262
162.8688, 764.9551
163.3510, 725.4462
163.8331, 694.2223
164.3152, 674.6997
164.7973, 673.1276
165.2794, 680.6865
165.7615, 694.2740
166.2437, 716.8149
166.7258, 734.3974
167.2079, 737.5087
167.6900, 728.7699
168.1721, 714.6823
168.6542, 690.4415
169.1363, 666.2096
169.6185, 652.3577
170.1006, 653.2723
170.5827, 662.0689
171.0648, 682.4373
171.5469, 710.7122
172.0290, 723.8879
172.5112, 684.7067
172.9933, 623.9434
173.4754, 589.2315
173.9575, 616.0571
174.4396, 665.0706
174.9217, 693.9928
175.4039, 702.8163
175.8860, 669.3216
176.3681, 704.1833
176.8502, 723.5635
177.3323, 728.2939
177.8144, 674.4974
178.2966, 696.2762
178.7787, 687.7679
179.2608, 678.0177
179.7429, 710.4336
180.2250, 665.1497
180.7071, 696.8969
181.1893, 697.8945
181.6714, 712.9656
182.1535, 697.5623
182.6356, 691.5715
183.1177, 716.0649
183.5998, 723.6790
184.0820, 704.7675
184.5641, 720.7331
185.0462, 674.3846
185.5283, 682.7176
186.0104, 714.6432
186.4925, 697.2640
186.9747, 713.7867
187.4568, 717.3978
187.9389, 662.3304
188.4210, 709.3107
188.9031, 712.1588
189.3852, 669.6926
189.8673, 713.1763
190.3495, 676.9572
190.8316, 699.2083
191.3137, 720.0735
191.7958, 727.0541
192.2779, 718.6456
192.7600, 701.5311
193.2422, 680.4747
193.7243, 655.4135
194.2064, 635.1017
194.6885, 627.2807
195.1706, 631.2199
195.6527, 620.5788
196.1349, 587.9169
196.6170, 553.2901
197.0991, 561.1638
197.5812, 618.2715
198.0633, 668.1125
198.5454, 668.9028
199.0276, 615.7599
199.5097, 598.3965
199.9918, 632.5594
200.4739, 698.1694
200.9560, 741.8700
201.4381, 759.9246
201.9203, 768.7607
202.4024, 781.9590
202.8845, 802.6366
203.3666, 804.4255
203.8487, 776.7982
204.3308, 727.7457
204.8130, 697.8781
205.2951, 690.0283
205.7772, 694.6346
206.2593, 707.2492
206.7414, 731.9312
207.2235, 746.8997
207.7057, 743.9421
208.1878, 724.1431
208.6699, 713.8658
209.1520, 711.5378
209.6341, 721.1121
210.1162, 753.2953
210.5983, 820.6301
211.0805, 872.5289
211.5626, 890.8814
212.0447, 871.1946
212.5268, 857.5024
213.0089, 850.1891
213.4910, 848.2960
213.9732, 850.3654
214.4553, 856.2535
214.9374, 866.2529
215.4195, 880.1151
215.9016, 896.8685
216.3837, 920.7816
216.8659, 953.5043
217.3480, 992.6388
217.8301, 1035.196
218.3122, 1088.676
218.7943, 1132.509
219.2764, 1160.229
219.7586, 1177.911
220.2407, 1160.926
220.7228, 1094.359
221.2049, 993.6523
221.6870, 913.6392
222.1691, 857.7200
222.6513, 817.3053
223.1334, 790.7254
223.6155, 787.5199
224.0976, 774.8994
224.5797, 743.6089
225.0618, 698.0472
225.5440, 671.4014
226.0261, 674.0098
226.5082, 683.3369
226.9903, 679.3586
227.4724, 643.0914
227.9545, 633.1373
228.4367, 670.4402
228.9188, 754.7620
229.4009, 801.9524
229.8830, 796.6484
230.3651, 769.3286
230.8472, 748.4490
231.3293, 735.5854
231.8115, 725.9541
232.2936, 715.9774
232.7757, 703.8350
233.2578, 711.8895
233.7399, 757.2802
234.2220, 809.6843
234.7042, 829.9219
235.1863, 793.9256
235.6684, 767.2676
236.1505, 774.1338
236.6326, 828.9728
237.1147, 849.0814
237.5969, 808.9384
238.0790, 749.0934
238.5611, 735.2659
239.0432, 792.5594
239.5253, 856.9750
240.0074, 908.0085
240.4896, 941.2866
240.9717, 974.2415
241.4538, 1009.184
241.9359, 1042.782
242.4180, 1068.689
242.9001, 1085.182
243.3823, 1096.432
243.8644, 1102.076
244.3465, 1092.873
244.8286, 1099.419
245.3107, 1129.103
245.7928, 1173.365
246.2750, 1207.542
246.7571, 1230.680
247.2392, 1245.629
247.7213, 1250.305
248.2034, 1229.524
248.6855, 1233.391
249.1677, 1273.018
249.6498, 1339.375
250.1319, 1394.481
250.6140, 1438.053
251.0961, 1471.600
251.5782, 1494.344
252.0603, 1498.325
252.5425, 1509.182
253.0246, 1527.333
253.5067, 1553.535
253.9888, 1595.861
254.4709, 1664.118
254.9530, 1734.248
255.4352, 1789.918
255.9173, 1826.474
256.3994, 1860.495
256.8815, 1898.625
257.3636, 1938.473
257.8458, 1952.540
258.3279, 1932.148
258.8100, 1898.370
259.2921, 1867.685
259.7742, 1840.475
260.2563, 1815.385
260.7385, 1796.194
261.2206, 1781.639
261.7027, 1746.800
262.1848, 1685.721
262.6669, 1613.473
263.1490, 1539.896
263.6311, 1460.444
264.1133, 1395.015
264.5954, 1350.764
265.0775, 1327.338
265.5596, 1304.361
266.0417, 1282.114
266.5238, 1260.185
267.0060, 1237.286
267.4881, 1211.507
267.9702, 1190.297
268.4523, 1175.113
268.9344, 1165.829
269.4165, 1166.650
269.8987, 1185.564
270.3808, 1201.331
270.8629, 1181.062
271.3450, 1112.880
271.8271, 1059.696
272.3092, 1046.825
272.7914, 1074.375
273.2735, 1082.030
273.7556, 1063.198
274.2377, 1036.280
274.7198, 1026.293
275.2019, 1035.354
275.6841, 1048.328
276.1662, 1059.208
276.6483, 1068.069
277.1304, 1090.803
277.6125, 1135.038
278.0946, 1177.578
278.5768, 1177.527
279.0589, 1129.633
279.5410, 1089.836
280.0231, 1085.264
280.5052, 1113.603
280.9873, 1125.016
281.4695, 1114.093
281.9516, 1098.345
282.4337, 1104.355
282.9158, 1132.808
283.3979, 1166.354
283.8800, 1205.229
284.3622, 1247.316
284.8443, 1262.692
285.3264, 1246.426
285.8085, 1217.789
286.2906, 1211.858
286.7727, 1227.694
287.2549, 1225.057
287.7370, 1167.322
288.2191, 1068.682
288.7012, 1013.053
289.1833, 1011.374
289.6654, 1025.638
290.1476, 991.6736
290.6297, 916.0473
291.1118, 862.1317
291.5939, 884.9235
292.0760, 956.9278
292.5581, 982.4216
293.0403, 949.4722
293.5224, 898.8168
294.0045, 883.8568
294.4866, 899.5392
294.9687, 915.8746
295.4508, 918.3209
295.9330, 910.2733
296.4151, 897.0516
296.8972, 877.5800
297.3793, 859.5235
297.8614, 853.5342
298.3435, 857.3815
298.8257, 862.8419
299.3078, 870.5619
299.7899, 875.8720
300.2720, 867.7575
300.7541, 842.6534
301.2362, 817.0381
301.7184, 805.3066
302.2005, 806.2177
302.6826, 815.5873
303.1647, 843.0947
303.6468, 873.1719
304.1289, 884.8195
304.6110, 874.4346
305.0931, 855.1925
305.5753, 830.9512
306.0574, 805.8354
306.5395, 789.7084
307.0216, 792.2591
307.5037, 803.0392
307.9858, 811.9852
308.4680, 817.6033
308.9501, 824.5278
309.4322, 842.4969
309.9143, 864.0302
310.3964, 874.2186
310.8785, 856.7719
311.3607, 831.9270
311.8428, 813.4101
312.3249, 802.7964
312.8070, 797.7013
313.2891, 800.2449
313.7712, 807.0084
314.2534, 812.3551
314.7355, 811.6364
315.2176, 810.6063
315.6997, 813.8502
316.1818, 806.9807
316.6639, 828.6469
317.1461, 841.5737
317.6282, 846.2441
318.1103, 817.1789
318.5924, 832.2500
319.0745, 829.9841
319.5566, 827.2476
320.0388, 849.2473
320.5209, 826.3777
321.0030, 848.4895
321.4851, 852.9962
321.9672, 865.9252
322.4493, 861.4089
322.9315, 862.6095
323.4136, 881.7617
323.8957, 891.3624
324.3778, 885.8110
324.8599, 900.7623
325.3420, 879.7795
325.8242, 890.8007
326.3063, 915.7715
326.7884, 912.3619
327.2705, 928.8895
327.7526, 938.1696
328.2347, 913.6267
328.7169, 948.5930
329.1990, 958.1818
329.6811, 941.7073
330.1632, 975.3936
330.6453, 963.0476
331.1274, 967.4725
331.6096, 984.5814
332.0917, 988.9794
332.5738, 1014.061
333.0559, 1019.708
333.5380, 1027.328
334.0201, 1049.265
334.5023, 1063.706
334.9844, 1063.761
335.4665, 1050.311
335.9486, 1052.317
336.4307, 1074.896
336.9128, 1104.723
337.3950, 1129.862
337.8771, 1148.855
338.3592, 1168.146
338.8413, 1186.840
339.3234, 1206.421
339.8055, 1238.789
340.2877, 1286.722
340.7698, 1337.450
341.2519, 1379.418
341.7340, 1412.750
342.2161, 1442.021
342.6982, 1464.423
343.1804, 1485.290
343.6624, 1525.911
344.1446, 1588.139
344.6267, 1648.720
345.1088, 1680.328
345.5909, 1689.649
346.0730, 1723.774
346.5551, 1800.297
347.0373, 1894.586
347.5194, 1962.350
348.0015, 2004.722
348.4836, 2044.939
348.9657, 2103.206
349.4478, 2172.099
349.9300, 2234.050
350.4121, 2284.612
350.8942, 2328.646
351.3763, 2361.895
351.8584, 2389.260
352.3405, 2432.109
352.8227, 2506.227
353.3048, 2603.253
353.7869, 2716.348
354.2690, 2848.973
354.7511, 2981.129
355.2332, 3097.374
355.7154, 3200.675
356.1975, 3295.370
356.6796, 3399.493
357.1617, 3486.917
357.6438, 3539.718
358.1259, 3558.221
358.6081, 3531.680
359.0902, 3433.910
359.5723, 3290.050
360.0544, 3142.252
360.5365, 2997.690
361.0186, 2860.093
361.5008, 2733.215
361.9829, 2618.870
362.4650, 2505.132
362.9471, 2382.305
363.4292, 2259.102
363.9113, 2146.236
364.3935, 2046.629
364.8756, 1957.056
365.3577, 1874.208
365.8398, 1797.168
366.3219, 1738.106
366.8040, 1707.183
367.2862, 1691.172
367.7683, 1677.853
368.2504, 1656.115
368.7325, 1649.600
369.2146, 1666.343
369.6967, 1706.645
370.1789, 1741.401
370.6610, 1762.343
371.1431, 1784.726
371.6252, 1819.397
372.1073, 1866.211
372.5894, 1927.379
373.0716, 2012.377
373.5537, 2114.496
374.0358, 2185.696
374.5179, 2213.292
375.0000, 2237.045
375.4821, 2282.940
375.9643, 2353.845
376.4464, 2433.204
376.9285, 2523.095
377.4106, 2618.506
377.8927, 2703.891
378.3748, 2779.467
378.8570, 2851.009
379.3391, 2912.386
379.8212, 2967.336
380.3033, 3059.689
380.7854, 3195.086
381.2675, 3362.025
381.7497, 3540.487
382.2318, 3733.408
382.7139, 3944.036
383.1960, 4175.388
383.6781, 4428.123
384.1602, 4699.245
384.6423, 4992.004
385.1245, 5297.639
385.6066, 5653.869
386.0887, 6024.354
386.5708, 6301.035
387.0529, 6446.018
387.5350, 6472.858
388.0172, 6383.811
388.4993, 6178.630
388.9814, 5890.041
389.4635, 5494.049
389.9456, 5035.890
390.4277, 4579.717
390.9099, 4111.679
391.3920, 3677.754
391.8741, 3311.744
392.3562, 3010.499
392.8383, 2738.702
393.3204, 2476.521
393.8026, 2239.571
394.2847, 2045.601
394.7668, 1928.785
395.2489, 1819.232
395.7310, 1694.131
396.2131, 1561.759
396.6953, 1457.522
397.1774, 1404.300
397.6595, 1366.671
398.1416, 1328.218
398.6237, 1284.922
399.1058, 1246.959
399.5880, 1219.812
400.0701, 1197.057
400.5522, 1162.453
401.0343, 1097.386
401.5164, 1047.424
401.9985, 1035.541
402.4807, 1076.944
402.9628, 1085.641
403.4449, 1046.729
403.9270, 991.6471
404.4091, 970.2637
404.8912, 993.1116
405.3734, 1004.632
405.8555, 980.5336
406.3376, 925.6725
406.8197, 895.7373
407.3018, 893.3755
407.7839, 904.4913
408.2661, 926.5409
408.7482, 956.4417
409.2303, 955.7970
409.7124, 897.8592
410.1945, 816.3581
410.6766, 788.4841
411.1588, 812.0769
411.6409, 850.0103
412.1230, 888.0547
412.6051, 918.7392
413.0872, 924.5140
413.5693, 892.9113
414.0515, 852.7646
414.5336, 831.6549
415.0157, 825.8956
415.4978, 823.1265
415.9799, 811.9296
416.4620, 803.2949
416.9442, 811.4002
417.4263, 844.5411
417.9084, 868.6812
418.3905, 858.0653
418.8726, 827.7162
419.3547, 800.7397
419.8369, 771.2946
420.3190, 758.4225
420.8011, 785.3469
421.2832, 861.6910
421.7653, 896.8544
422.2474, 822.1729
422.7296, 723.7443
423.2117, 677.5004
423.6938, 755.0546
424.1759, 812.1457
424.6580, 828.4519
425.1401, 807.0695
425.6223, 779.5815
426.1043, 730.1339
426.5865, 692.1671
427.0686, 688.4488
427.5507, 734.4244
428.0328, 772.6553
428.5149, 801.0893
428.9970, 818.6223
429.4792, 818.9471
429.9613, 797.3464
430.4434, 776.6064
430.9255, 770.7312
431.4076, 779.1810
431.8897, 773.2242
432.3719, 746.9763
432.8540, 723.3806
433.3361, 745.8563
433.8182, 807.5357
434.3003, 850.9078
434.7824, 845.1797
435.2646, 809.6428
435.7467, 776.3121
436.2288, 745.2476
436.7109, 728.5440
437.1930, 748.2877
437.6751, 787.2814
438.1573, 816.0341
438.6394, 824.3188
439.1215, 822.4913
439.6036, 813.2939
440.0857, 799.3052
440.5678, 790.6140
441.0500, 804.4349
441.5321, 818.0394
442.0142, 810.5327
442.4963, 763.1364
442.9784, 730.9870
443.4605, 741.0164
443.9427, 775.9830
444.4248, 806.0832
444.9069, 832.9554
445.3890, 847.1458
445.8711, 842.3370
446.3532, 813.3416
446.8354, 789.3232
447.3175, 764.2603
447.7996, 748.3689
448.2817, 753.3149
448.7638, 795.8879
449.2459, 826.1411
449.7281, 832.1714
450.2102, 818.9499
450.6923, 819.4263
451.1744, 839.7540
451.6565, 856.9157
452.1386, 851.0713
452.6208, 821.0716
453.1029, 800.1740
453.5850, 791.6338
454.0671, 793.3749
454.5492, 806.0150
455.0313, 828.6548
455.5135, 847.9087
455.9956, 855.9582
456.4777, 855.9728
456.9598, 854.8042
457.4419, 852.6381
457.9240, 849.4629
458.4062, 839.1461
458.8883, 828.4338
459.3704, 830.0923
459.8525, 865.7043
460.3346, 901.3406
460.8167, 910.6003
461.2989, 896.1317
461.7810, 874.6238
462.2631, 835.9365
462.7452, 804.0085
463.2273, 799.0895
463.7094, 847.9602
464.1916, 885.4863
464.6737, 891.6502
465.1558, 875.5804
465.6379, 857.1254
466.1200, 826.6894
466.6021, 805.7319
467.0842, 801.7762
467.5663, 818.2159
468.0485, 836.3358
468.5306, 856.1118
469.0127, 877.5487
469.4948, 903.5312
469.9769, 941.1777
470.4590, 960.6566
470.9412, 948.7411
471.4233, 914.7621
471.9054, 906.6063
472.3875, 928.8520
472.8696, 952.6485
473.3517, 949.7410
473.8339, 926.1317
474.3160, 928.4799
474.7981, 968.2574
475.2802, 1017.523
475.7623, 1035.694
476.2444, 1028.754
476.7266, 1020.489
477.2087, 1018.959
477.6908, 1024.582
478.1729, 1042.181
478.6550, 1072.127
479.1371, 1097.279
479.6193, 1101.771
480.1014, 1096.408
480.5835, 1093.727
481.0656, 1102.272
481.5477, 1109.474
482.0298, 1105.334
482.5120, 1094.194
482.9941, 1094.139
483.4762, 1128.144
483.9583, 1159.777
484.4404, 1169.366
484.9225, 1135.214
485.4047, 1120.723
485.8868, 1133.260
486.3689, 1162.050
486.8510, 1194.958
487.3331, 1243.364
487.8152, 1271.850
488.2974, 1261.117
488.7795, 1215.506
489.2616, 1213.774
489.7437, 1266.139
490.2258, 1329.368
490.7079, 1369.223
491.1901, 1386.564
491.6722, 1387.929
492.1543, 1366.498
492.6364, 1343.601
493.1185, 1364.901
493.6006, 1422.911
494.0828, 1471.947
494.5649, 1477.792
495.0470, 1463.269
495.5291, 1460.964
496.0112, 1473.690
496.4933, 1489.240
496.9755, 1502.031
497.4576, 1511.377
497.9397, 1516.830
498.4218, 1515.521
498.9039, 1512.829
499.3860, 1505.630
499.8682, 1496.880
500.3503, 1501.534
500.8324, 1532.518
501.3145, 1570.771
501.7966, 1606.552
502.2787, 1630.627
502.7609, 1669.687
503.2430, 1736.187
503.7251, 1811.798
504.2072, 1868.164
504.6893, 1895.649
505.1714, 1925.390
505.6536, 1963.606
506.1357, 2010.449
506.6178, 2068.429
507.0999, 2138.341
507.5820, 2215.589
508.0641, 2303.262
508.5462, 2398.567
509.0284, 2477.574
509.5105, 2529.385
509.9926, 2578.416
510.4747, 2664.371
510.9568, 2779.470
511.4389, 2893.530
511.9211, 2982.712
512.4032, 3067.427
512.8853, 3168.855
513.3674, 3288.610
513.8495, 3416.500
514.3317, 3550.646
514.8138, 3688.059
515.2959, 3825.756
515.7780, 3962.413
516.2601, 4099.814
516.7422, 4240.793
517.2244, 4382.717
517.7065, 4520.771
518.1886, 4630.741
518.6707, 4759.086
519.1528, 4929.225
519.6349, 5158.140
520.1171, 5355.359
520.5992, 5508.671
521.0813, 5644.159
521.5634, 5790.979
522.0455, 5946.944
522.5276, 6119.994
523.0098, 6316.204
523.4919, 6529.048
523.9740, 6741.565
524.4561, 6955.995
524.9382, 7146.803
525.4203, 7278.976
525.9025, 7377.255
526.3846, 7512.199
526.8667, 7698.535
527.3488, 7883.090
527.8309, 8028.357
528.3130, 8136.354
528.7951, 8212.029
529.2772, 8238.806
529.7593, 8250.827
530.2415, 8270.606
530.7236, 8295.629
531.2057, 8305.395
531.6878, 8307.746
532.1699, 8282.021
532.6520, 8213.436
533.1342, 8068.948
533.6163, 7937.519
534.0984, 7839.811
534.5805, 7748.108
535.0626, 7612.532
535.5447, 7403.141
536.0269, 7216.752
536.5090, 7085.584
536.9911, 7003.539
537.4732, 6900.485
537.9553, 6769.275
538.4374, 6652.371
538.9196, 6583.812
539.4017, 6559.368
539.8838, 6550.040
540.3659, 6551.794
540.8480, 6568.922
541.3301, 6601.373
541.8123, 6652.637
542.2944, 6733.600
542.7765, 6868.415
543.2586, 7021.417
543.7407, 7158.192
544.2228, 7279.975
544.7050, 7415.830
545.1871, 7589.117
545.6692, 7776.049
546.1513, 7958.154
546.6334, 8119.042
547.1155, 8295.086
547.5977, 8491.925
548.0798, 8709.475
548.5619, 8946.125
549.0440, 9225.167
549.5261, 9489.063
550.0082, 9716.500
550.4904, 9909.064
550.9725, 10122.70
551.4546, 10359.39
551.9367, 10612.45
552.4188, 10880.50
552.9009, 11162.94
553.3831, 11437.74
553.8652, 11707.18
554.3473, 11956.88
554.8294, 12163.54
555.3115, 12330.85
555.7936, 12468.09
556.2758, 12583.98
556.7579, 12668.06
557.2400, 12712.35
557.7221, 12716.38
558.2042, 12674.68
558.6863, 12598.27
559.1685, 12467.07
559.6506, 12262.08
560.1327, 11960.50
560.6148, 11621.41
561.0969, 11232.53
561.5790, 10815.30
562.0612, 10406.86
562.5433, 10028.48
563.0254, 9633.761
563.5075, 9194.940
563.9896, 8725.243
564.4717, 8318.551
564.9539, 7994.674
565.4360, 7675.233
565.9181, 7276.823
566.4002, 6811.307
566.8823, 6419.086
567.3644, 6121.515
567.8466, 5870.917
568.3287, 5604.568
568.8108, 5331.522
569.2929, 5074.322
569.7750, 4841.649
570.2571, 4632.638
570.7393, 4462.419
571.2214, 4322.813
571.7035, 4177.052
572.1856, 3979.002
572.6677, 3784.218
573.1498, 3632.282
573.6320, 3553.075
574.1141, 3461.639
574.5962, 3323.910
575.0783, 3173.753
575.5604, 3055.336
576.0425, 2980.338
576.5247, 2913.446
577.0068, 2851.100
577.4889, 2791.826
577.9710, 2733.878
578.4531, 2680.103
578.9352, 2615.916
579.4174, 2516.508
579.8995, 2393.766
580.3816, 2324.443
580.8637, 2317.553
581.3458, 2322.522
581.8279, 2286.487
582.3101, 2222.482
582.7922, 2156.873
583.2743, 2094.606
583.7564, 2039.210
584.2385, 1993.659
584.7206, 1957.010
585.2028, 1925.651
585.6849, 1902.998
586.1670, 1881.202
586.6491, 1858.386
587.1312, 1835.929
587.6133, 1802.800
588.0955, 1742.514
588.5776, 1684.841
589.0597, 1655.533
589.5418, 1668.139
590.0239, 1668.995
590.5060, 1647.448
590.9882, 1617.620
591.4703, 1615.756
591.9524, 1642.657
592.4345, 1659.135
592.9166, 1642.621
593.3987, 1605.373
593.8809, 1573.295
594.3630, 1546.362
594.8451, 1526.226
595.3272, 1499.262
595.8093, 1525.970
596.2914, 1543.686
596.7736, 1552.899
597.2557, 1528.123
597.7378, 1547.233
598.2199, 1548.756
598.7020, 1549.558
599.1841, 1574.844
599.6663, 1555.014
600.1484, 1579.912
600.6305, 1586.955
601.1126, 1602.170
601.5947, 1599.690
602.0768, 1602.674
602.5590, 1623.362
603.0411, 1634.246
603.5232, 1629.728
604.0053, 1645.463
604.4874, 1625.013
604.9695, 1636.314
605.4517, 1661.318
605.9338, 1657.689
606.4159, 1643.066
606.8980, 1624.617
607.3801, 1610.881
607.8622, 1605.288
608.3444, 1617.719
608.8265, 1671.598
609.3086, 1729.381
609.7907, 1766.280
610.2728, 1779.119
610.7549, 1802.761
611.2370, 1866.356
611.7191, 1927.048
612.2012, 1957.029
612.6833, 1932.199
613.1655, 1926.388
613.6476, 1948.963
614.1297, 1982.492
614.6118, 1991.379
615.0939, 1971.364
615.5760, 1976.753
616.0582, 2037.266
616.5403, 2123.730
617.0224, 2163.186
617.5045, 2159.532
617.9866, 2153.000
618.4688, 2170.806
618.9509, 2199.824
619.4330, 2229.110
619.9151, 2258.628
620.3972, 2275.725
620.8793, 2264.370
621.3615, 2241.773
621.8436, 2224.409
622.3257, 2223.905
622.8078, 2219.141
