##NAMES=Manitobaite
##RRUFFID=R130259
##IDEAL CHEMISTRY=Na_16_Mn^2+^_25_Al_8_(PO_4_)_30_
##LOCALITY=Gottcha Claim (Pegmatite No. 22), Cross Lake, Manitoba, Canada
##OWNER=RRUFF
##SOURCE=Rock Currier
##DESCRIPTION=Red-brown massive, associated with quartz
##STATUS=The identification of this mineral is confirmed by single-crystal X-ray diffraction and chemical analysis.
##URL=rruff.info/R130259
##MEASURED CHEMISTRY=(Na_11.09_Ca_1.07_ [box]_3.84_)(Mn^2+^_20.97_Mg_0.56_Fe^2+^_3.55_Zn^2+^_0.24_)_Î£=25.32_(Al_7.29_Fe^3+^_0.71_)P_30.36_Si_0.08_O_120_
88.13672, 254.7657
88.61884, 259.7727
89.10095, 263.6695
89.58307, 266.1267
90.06519, 268.6087
90.54730, 272.8454
91.02942, 280.5033
91.51154, 287.3154
91.99365, 287.4363
92.47577, 281.9596
92.95789, 276.2750
93.44000, 274.4735
93.92212, 275.2246
94.40424, 275.2850
94.88635, 274.4267
95.36847, 272.9105
95.85059, 270.7826
96.33270, 267.9222
96.81482, 265.5604
97.29694, 264.7745
97.77905, 265.5221
98.26117, 267.4799
98.74329, 271.3306
99.22540, 276.5334
99.70752, 278.8455
100.1896, 277.5804
100.6718, 274.9111
101.1539, 273.4427
101.6360, 273.2831
102.1181, 273.8369
102.6002, 274.8869
103.0823, 276.3750
103.5645, 278.6003
104.0466, 281.3836
104.5287, 285.0019
105.0108, 290.1613
105.4929, 297.4524
105.9750, 305.3756
106.4572, 313.7484
106.9393, 325.6218
107.4214, 332.4370
107.9035, 331.9756
108.3856, 326.2480
108.8677, 322.2818
109.3499, 320.8909
109.8320, 320.6108
110.3141, 320.8156
110.7962, 321.3266
111.2783, 322.5122
111.7604, 324.4867
112.2426, 327.2180
112.7247, 330.3701
113.2068, 333.3307
113.6889, 337.0004
114.1710, 341.9758
114.6531, 351.4947
115.1353, 359.3773
115.6174, 362.8914
116.0995, 362.0072
116.5816, 361.9940
117.0637, 366.5996
117.5458, 372.5208
118.0280, 376.2223
118.5101, 373.9088
118.9922, 370.6546
119.4743, 369.4240
119.9564, 370.5249
120.4385, 372.4809
120.9207, 373.6776
121.4028, 375.1383
121.8849, 378.6501
122.3670, 388.6113
122.8491, 399.5446
123.3312, 405.2066
123.8134, 404.1049
124.2955, 400.8125
124.7776, 398.8727
125.2597, 398.1263
125.7418, 398.0156
126.2239, 398.0462
126.7061, 398.5247
127.1882, 400.0700
127.6703, 402.9503
128.1524, 406.6372
128.6345, 410.5912
129.1166, 414.7870
129.5988, 418.9729
130.0809, 423.6414
130.5630, 428.3411
131.0451, 430.9887
131.5272, 430.3742
132.0093, 428.0333
132.4915, 427.6639
132.9736, 429.4191
133.4557, 431.6884
133.9378, 432.8853
134.4199, 433.0253
134.9020, 433.5114
135.3842, 434.6984
135.8663, 436.4778
136.3484, 438.2604
136.8305, 439.8239
137.3126, 442.0066
137.7947, 446.3078
138.2769, 453.4321
138.7590, 459.1295
139.2411, 462.2428
139.7232, 462.7600
140.2053, 461.3480
140.6874, 457.3361
141.1696, 452.2562
141.6517, 448.1754
142.1338, 445.3298
142.6159, 442.9507
143.0980, 440.8475
143.5801, 439.0763
144.0623, 437.4434
144.5444, 435.7833
145.0265, 434.3854
145.5086, 433.8939
145.9907, 435.4921
146.4728, 436.4419
146.9550, 435.7128
147.4371, 432.2946
147.9192, 429.5327
148.4013, 427.8016
148.8834, 426.6934
149.3655, 425.2728
149.8477, 422.6593
150.3298, 420.4955
150.8119, 419.4745
151.2940, 421.1497
151.7761, 421.6651
152.2583, 419.8071
152.7404, 416.5639
153.2225, 414.7282
153.7046, 416.2633
154.1867, 418.0204
154.6688, 418.5648
155.1510, 417.2456
155.6331, 415.3226
156.1152, 412.4601
156.5973, 408.9818
157.0794, 406.2251
157.5615, 404.9588
158.0437, 404.1859
158.5258, 403.2855
159.0079, 401.9919
159.4900, 400.6970
159.9721, 399.1983
160.4542, 397.6392
160.9364, 396.8533
161.4185, 397.9228
161.9006, 399.5140
162.3827, 400.5536
162.8648, 400.7067
163.3469, 400.2608
163.8291, 399.0761
164.3112, 397.2368
164.7933, 395.4838
165.2754, 394.0146
165.7575, 392.8755
166.2396, 392.1149
166.7218, 392.0547
167.2039, 392.1495
167.6860, 392.0385
168.1681, 391.7259
168.6502, 391.4424
169.1323, 391.1680
169.6145, 391.0491
170.0966, 391.2895
170.5787, 392.8305
171.0608, 394.2506
171.5429, 394.0566
172.0250, 392.1550
172.5072, 390.0477
172.9893, 388.6944
173.4714, 387.9317
173.9535, 387.4562
174.4356, 387.3940
174.9177, 387.4341
175.3999, 387.1428
175.8820, 386.4689
176.3641, 385.7841
176.8462, 385.2504
177.3283, 384.9345
177.8104, 385.0147
178.2926, 386.1595
178.7747, 387.5929
179.2568, 387.8870
179.7389, 386.8580
180.2210, 385.4159
180.7031, 384.5913
181.1853, 384.2337
181.6674, 383.8317
182.1495, 382.8873
182.6316, 381.7264
183.1137, 381.2922
183.5958, 381.7745
184.0780, 382.4155
184.5601, 382.1305
185.0422, 381.0513
185.5243, 379.9821
186.0064, 379.3445
186.4885, 379.0694
186.9707, 379.0442
187.4528, 379.3875
187.9349, 379.6267
188.4170, 378.8029
188.8991, 376.9824
189.3812, 375.3183
189.8634, 374.4526
190.3455, 374.2943
190.8276, 374.3057
191.3097, 374.5081
191.7918, 374.7358
192.2739, 374.6143
192.7561, 374.1198
193.2382, 373.7292
193.7203, 373.8634
194.2024, 374.4572
194.6845, 374.5663
195.1666, 373.9603
195.6488, 373.1003
196.1309, 372.9948
196.6130, 373.7372
197.0951, 374.4802
197.5772, 374.6875
198.0593, 374.3530
198.5415, 374.2209
199.0236, 374.4640
199.5057, 374.7913
199.9878, 374.2753
200.4699, 372.6531
200.9520, 371.4960
201.4342, 372.1624
201.9163, 374.8995
202.3984, 376.3306
202.8805, 375.8638
203.3626, 374.2977
203.8447, 373.6885
204.3269, 374.2616
204.8090, 374.9779
205.2911, 375.1913
205.7732, 374.7973
206.2553, 374.6279
206.7374, 374.7941
207.2196, 375.1770
207.7017, 375.4048
208.1838, 375.3731
208.6659, 375.4802
209.1480, 376.0746
209.6301, 377.3721
210.1123, 378.1747
210.5944, 378.3234
211.0765, 377.9931
211.5586, 377.6340
212.0407, 377.1861
212.5228, 376.8458
213.0050, 376.7685
213.4871, 377.0551
213.9692, 377.1904
214.4513, 377.0004
214.9334, 376.6913
215.4155, 377.0181
215.8977, 378.4248
216.3798, 379.5839
216.8619, 379.6643
217.3440, 378.2448
217.8261, 377.0218
218.3082, 375.9905
218.7904, 375.2271
219.2725, 375.1382
219.7546, 376.2565
220.2367, 377.0959
220.7188, 376.7279
221.2009, 374.4306
221.6831, 372.8928
222.1652, 372.3853
222.6473, 372.6376
223.1294, 372.9338
223.6115, 373.4623
224.0936, 373.7481
224.5758, 373.5216
225.0579, 372.5491
225.5400, 371.6584
226.0221, 370.8792
226.5042, 370.1912
226.9863, 369.5492
227.4685, 368.8981
227.9506, 368.3678
228.4327, 368.0282
228.9148, 367.9491
229.3969, 367.8829
229.8790, 367.8209
230.3612, 367.7662
230.8433, 367.7614
231.3254, 367.9594
231.8075, 367.9616
232.2896, 367.5394
232.7717, 366.4100
233.2539, 365.5464
233.7360, 365.0687
234.2181, 364.8211
234.7002, 364.4084
235.1823, 363.5563
235.6644, 362.9543
236.1466, 362.9958
236.6287, 364.1819
237.1108, 364.5779
237.5929, 363.6938
238.0750, 362.2188
238.5571, 361.6441
239.0393, 362.5652
239.5214, 363.4567
240.0035, 363.8271
240.4856, 363.7093
240.9677, 362.9467
241.4498, 361.1848
241.9320, 358.9774
242.4141, 357.2153
242.8962, 355.7661
243.3783, 355.0003
243.8604, 355.2191
244.3425, 356.8431
244.8247, 357.9404
245.3068, 358.5342
245.7889, 358.5924
246.2710, 357.9823
246.7531, 356.2599
247.2352, 354.6211
247.7174, 353.3873
248.1995, 352.5793
248.6816, 352.1315
249.1637, 352.2095
249.6458, 352.5147
250.1279, 352.6629
250.6101, 352.7361
251.0922, 352.4747
251.5743, 351.6359
252.0564, 350.0474
252.5385, 349.1984
253.0206, 349.3633
253.5028, 350.0178
253.9849, 350.5772
254.4670, 351.1696
254.9491, 351.4118
255.4312, 351.1258
255.9133, 350.2802
256.3955, 349.5488
256.8776, 348.9351
257.3597, 348.4297
257.8418, 348.0093
258.3239, 347.6309
258.8061, 347.4323
259.2882, 347.4993
259.7703, 347.8254
260.2524, 347.9902
260.7345, 347.9170
261.2166, 347.7926
261.6988, 347.7680
262.1809, 347.8300
262.6630, 348.0673
263.1451, 348.6659
263.6272, 349.5277
264.1093, 349.5777
264.5915, 348.4106
265.0736, 347.1555
265.5557, 346.8204
266.0378, 347.7903
266.5199, 348.3217
267.0020, 348.0517
267.4842, 347.1567
267.9663, 346.4718
268.4484, 345.9137
268.9305, 345.7499
269.4126, 346.3579
269.8947, 348.0484
270.3769, 349.1164
270.8590, 349.2182
271.3411, 348.6823
271.8232, 348.6939
272.3053, 349.5384
272.7874, 350.0602
273.2696, 349.3019
273.7517, 346.9482
274.2338, 345.4478
274.7159, 345.1353
275.1980, 345.5590
275.6801, 345.7582
276.1623, 345.7437
276.6444, 345.4694
277.1265, 344.7410
277.6086, 343.4825
278.0907, 342.8304
278.5728, 342.9974
279.0550, 343.4771
279.5371, 343.2877
280.0192, 342.3358
280.5013, 341.4737
280.9834, 341.1765
281.4655, 341.4224
281.9477, 341.3765
282.4298, 340.9832
282.9119, 340.4337
283.3940, 339.9459
283.8761, 339.5142
284.3582, 339.2027
284.8404, 339.1183
285.3225, 339.1929
285.8046, 338.9766
286.2867, 338.4179
286.7688, 337.8093
287.2509, 337.5914
287.7331, 337.7227
288.2152, 337.6023
288.6973, 336.9846
289.1794, 335.9970
289.6615, 334.9514
290.1436, 333.8195
290.6258, 332.9189
291.1079, 332.7360
291.5900, 333.1238
292.0721, 333.2568
292.5542, 332.8871
293.0363, 332.1906
293.5185, 331.3460
294.0006, 330.3582
294.4827, 329.7051
294.9648, 330.0194
295.4469, 330.9835
295.9290, 331.5933
296.4112, 331.6127
296.8933, 331.2896
297.3754, 330.9118
297.8575, 330.4923
298.3396, 330.1161
298.8217, 329.7930
299.3039, 329.5569
299.7860, 329.5839
300.2681, 330.0145
300.7502, 330.3222
301.2323, 329.6160
301.7144, 328.1794
302.1966, 327.0363
302.6787, 326.7879
303.1608, 327.1141
303.6429, 327.8176
304.1250, 328.9840
304.6071, 329.7260
305.0893, 328.7524
305.5714, 326.7423
306.0535, 325.1565
306.5356, 324.9016
307.0177, 325.2023
307.4998, 325.3745
307.9820, 325.3986
308.4641, 325.3942
308.9462, 325.5371
309.4283, 325.6861
309.9104, 325.6453
310.3925, 325.2836
310.8747, 324.7626
311.3568, 324.0971
311.8389, 323.3216
312.3210, 322.6815
312.8031, 322.3719
313.2852, 322.2308
313.7674, 322.0815
314.2495, 321.6755
314.7316, 321.5158
315.2137, 322.1976
315.6958, 323.4133
316.1779, 324.1321
316.6601, 323.3338
317.1422, 322.2685
317.6243, 321.7944
318.1064, 322.3510
318.5885, 322.9012
319.0706, 323.0694
319.5528, 322.9924
320.0349, 322.9370
320.5170, 323.1910
320.9991, 323.3060
321.4812, 323.0485
321.9633, 322.3020
322.4455, 321.5363
322.9276, 320.5063
323.4097, 319.6097
323.8918, 319.3347
324.3739, 320.2976
324.8560, 321.3620
325.3382, 322.4037
325.8203, 323.4746
326.3024, 323.9702
326.7845, 323.4120
327.2666, 322.5125
327.7487, 321.8338
328.2309, 321.5993
328.7130, 321.3417
329.1951, 320.8632
329.6772, 320.2290
330.1593, 320.1317
330.6414, 321.1726
331.1236, 322.1749
331.6057, 322.4685
332.0878, 321.4946
332.5699, 320.8024
333.0520, 320.5175
333.5341, 320.5273
334.0163, 320.4803
334.4984, 320.1035
334.9805, 320.1290
335.4626, 321.0724
335.9447, 323.4431
336.4268, 324.6963
336.9090, 324.4853
337.3911, 323.5333
337.8732, 323.0049
338.3553, 323.0445
338.8374, 323.0109
339.3195, 322.6414
339.8017, 321.9607
340.2838, 321.5384
340.7659, 321.3999
341.2480, 321.4629
341.7301, 321.7709
342.2122, 322.3604
342.6944, 322.5705
343.1765, 322.0654
343.6586, 321.1611
344.1407, 320.9748
344.6228, 321.5401
345.1049, 322.3878
345.5871, 323.3658
346.0692, 324.4067
346.5513, 324.9301
347.0334, 324.7813
347.5155, 324.2604
347.9977, 323.7960
348.4798, 323.3830
348.9619, 323.0190
349.4440, 322.6443
349.9261, 322.3228
350.4082, 322.2701
350.8904, 322.5412
351.3725, 322.8065
351.8546, 322.6021
352.3367, 322.1056
352.8188, 321.7822
353.3009, 322.2078
353.7831, 322.7171
354.2652, 322.3679
354.7473, 321.1977
355.2294, 320.0389
355.7115, 319.5472
356.1936, 319.4147
356.6758, 319.2382
357.1579, 318.8423
357.6400, 318.4403
358.1221, 318.2531
358.6042, 318.2098
359.0863, 318.0447
359.5685, 317.4094
360.0506, 316.7379
360.5327, 316.4455
361.0148, 316.8593
361.4969, 316.9614
361.9790, 316.1288
362.4612, 314.7388
362.9433, 313.4152
363.4254, 311.9394
363.9075, 310.9178
364.3896, 310.9146
364.8717, 312.1802
365.3539, 312.6980
365.8360, 311.4990
366.3181, 309.6409
366.8002, 308.0703
367.2823, 306.7596
367.7644, 305.8800
368.2466, 305.8470
368.7287, 306.5245
369.2108, 306.3741
369.6929, 304.6574
370.1750, 302.7553
370.6571, 301.3986
371.1393, 301.0419
371.6214, 300.4301
372.1035, 299.5539
372.5856, 298.4135
373.0677, 296.9877
373.5498, 295.1064
374.0320, 293.2421
374.5141, 291.5343
374.9962, 289.9731
375.4783, 288.7944
375.9604, 288.2360
376.4425, 287.6940
376.9247, 286.3283
377.4068, 283.9986
377.8889, 281.7785
378.3710, 279.9213
378.8531, 278.3991
379.3352, 277.1064
379.8174, 276.0748
380.2995, 275.1264
380.7816, 274.2056
381.2637, 273.2845
381.7458, 272.1998
382.2279, 270.9068
382.7101, 269.4562
383.1922, 267.7370
383.6743, 265.8063
384.1564, 264.1715
384.6385, 263.1909
385.1206, 262.6661
385.6028, 262.3246
386.0849, 262.1900
386.5670, 261.8193
387.0491, 260.5030
387.5312, 258.6646
388.0133, 257.1422
388.4955, 256.4608
388.9776, 256.0399
389.4597, 255.3355
389.9418, 254.4001
390.4239, 253.5557
390.9060, 253.2606
391.3882, 253.0071
391.8703, 252.2395
392.3524, 250.4637
392.8345, 248.9578
393.3166, 248.5033
393.7987, 248.7438
394.2809, 248.9684
394.7630, 248.9816
395.2451, 248.8935
395.7272, 248.6982
396.2093, 248.3589
396.6914, 248.1566
397.1736, 248.2970
397.6557, 248.5244
398.1378, 248.6032
398.6199, 248.3740
399.1020, 248.1421
399.5841, 247.9317
400.0663, 247.7428
400.5484, 247.5641
401.0305, 247.1703
401.5126, 247.0308
401.9947, 247.4493
402.4768, 248.8455
402.9590, 249.7986
403.4411, 250.2339
403.9232, 250.2898
404.4053, 250.1304
404.8874, 249.6230
405.3695, 249.3231
405.8517, 249.4758
406.3338, 250.0451
406.8159, 250.5144
407.2980, 250.9102
407.7801, 251.1219
408.2622, 250.9183
408.7444, 250.3235
409.2265, 249.9411
409.7086, 249.9270
410.1907, 250.1225
410.6728, 250.2095
411.1549, 250.1959
411.6371, 250.1952
412.1192, 250.2817
412.6013, 250.4264
413.0834, 250.5958
413.5655, 250.7962
414.0476, 250.9296
414.5298, 250.9602
415.0119, 250.8514
415.4940, 250.5258
415.9761, 249.6962
416.4582, 248.8336
416.9403, 248.3939
417.4225, 248.3225
417.9046, 248.2951
418.3867, 248.0784
418.8688, 247.8579
419.3509, 247.8012
419.8330, 248.0001
420.3152, 248.2411
420.7973, 248.6502
421.2794, 249.0264
421.7615, 249.0088
422.2436, 247.7478
422.7257, 246.7927
423.2079, 246.7562
423.6900, 247.7789
424.1721, 248.8326
424.6542, 250.2358
425.1363, 251.4010
425.6184, 251.8617
426.1006, 250.6720
426.5827, 250.2483
427.0648, 251.1487
427.5469, 252.9241
428.0290, 253.9373
428.5111, 253.7979
428.9933, 253.6423
429.4754, 253.9472
429.9575, 254.7480
430.4396, 255.8096
430.9217, 257.2396
431.4038, 258.7025
431.8860, 259.6700
432.3681, 260.1196
432.8502, 260.7023
433.3323, 261.5864
433.8144, 262.7262
434.2965, 264.0410
434.7787, 265.5325
435.2608, 267.0853
435.7429, 268.7034
436.2250, 270.3226
436.7071, 271.6870
437.1892, 272.6853
437.6714, 273.8078
438.1535, 275.7452
438.6356, 278.1999
439.1177, 280.4985
439.5998, 281.9595
440.0819, 283.4033
440.5641, 285.5108
441.0462, 288.2559
441.5283, 291.3158
442.0104, 294.7497
442.4925, 298.2664
442.9746, 301.5808
443.4568, 304.6665
443.9389, 307.5270
444.4210, 309.9171
444.9031, 312.1035
445.3852, 314.6086
445.8673, 317.5240
446.3495, 320.7519
446.8316, 324.4506
447.3137, 328.7552
447.7958, 332.5929
448.2779, 335.7353
448.7600, 338.5709
449.2422, 341.3826
449.7243, 344.3086
450.2064, 346.9540
450.6885, 349.3150
451.1706, 351.4124
451.6527, 353.2072
452.1349, 354.6251
452.6170, 356.0435
453.0991, 357.6946
453.5812, 359.5733
454.0633, 361.0306
454.5454, 362.0453
455.0276, 362.8124
455.5097, 363.5923
455.9918, 364.3333
456.4739, 364.6570
456.9560, 364.3562
457.4381, 363.7784
457.9203, 363.5237
458.4024, 363.5108
458.8845, 363.3508
459.3666, 362.5561
459.8488, 361.6035
460.3309, 361.2675
460.8130, 361.6864
461.2951, 361.7874
461.7772, 360.3069
462.2593, 358.2684
462.7415, 356.9023
463.2236, 356.9504
463.7057, 357.3975
464.1878, 358.2492
464.6699, 359.2725
465.1520, 359.6537
465.6342, 358.5467
466.1163, 357.2745
466.5984, 356.3724
467.0805, 355.9332
467.5626, 355.7496
468.0447, 356.0828
468.5269, 356.5024
469.0090, 356.5805
469.4911, 356.2495
469.9732, 355.6677
470.4553, 354.6987
470.9374, 353.5034
471.4196, 352.8466
471.9017, 352.9060
472.3838, 352.9538
472.8659, 352.6681
473.3480, 352.0418
473.8301, 350.8586
474.3123, 348.9803
474.7944, 347.0389
475.2765, 346.0263
475.7586, 345.7213
476.2407, 344.9224
476.7228, 343.0073
477.2050, 340.7017
477.6871, 339.3270
478.1692, 338.6744
478.6513, 337.7474
479.1334, 335.4596
479.6155, 332.8210
480.0977, 331.0850
480.5798, 330.5374
481.0619, 329.7933
481.5440, 327.6788
482.0261, 325.0479
482.5082, 322.8725
482.9904, 321.9912
483.4725, 321.0345
483.9546, 319.4562
484.4367, 317.4059
484.9188, 315.6001
485.4009, 314.2389
485.8831, 313.0378
486.3652, 311.9205
486.8473, 310.9983
487.3294, 309.7433
487.8115, 307.8714
488.2936, 305.9213
488.7758, 304.4683
489.2579, 303.6756
489.7400, 302.8589
490.2221, 301.9952
490.7042, 300.9779
491.1863, 299.4174
491.6685, 297.2569
492.1506, 295.0808
492.6327, 293.2174
493.1148, 291.6100
493.5969, 290.1425
494.0790, 288.8041
494.5612, 287.5322
495.0433, 286.3214
495.5254, 285.1225
496.0075, 283.7751
496.4896, 282.1845
496.9717, 280.5342
497.4539, 279.0591
497.9360, 277.6849
498.4181, 276.2789
498.9002, 275.1092
499.3823, 273.6032
499.8644, 271.0836
500.3466, 267.3719
500.8287, 264.3573
501.3108, 263.3118
501.7929, 262.7712
502.2750, 261.6267
502.7571, 258.9388
503.2393, 256.6460
503.7214, 255.0778
504.2035, 253.8988
504.6856, 252.3624
505.1677, 250.2760
505.6498, 248.1929
506.1320, 246.2544
506.6141, 244.4456
507.0962, 242.7547
507.5783, 241.1971
508.0604, 239.7206
508.5425, 238.3967
509.0247, 237.1934
509.5068, 235.6183
509.9889, 233.5597
510.4710, 231.2943
510.9531, 228.9796
511.4352, 226.7324
511.9174, 224.9884
512.3995, 224.3961
512.8816, 224.0930
513.3637, 223.0206
513.8458, 221.2800
514.3279, 219.4898
514.8101, 217.9044
515.2922, 216.4824
515.7743, 215.2510
516.2564, 214.3123
516.7385, 213.1913
517.2206, 211.5472
517.7028, 209.7104
518.1849, 208.0652
518.6670, 206.8678
519.1491, 205.6409
519.6312, 204.3266
520.1133, 202.9408
520.5955, 201.4858
521.0776, 199.9976
521.5597, 198.4160
522.0418, 196.6895
522.5239, 194.7924
523.0060, 192.9897
523.4882, 191.2733
523.9703, 189.6529
524.4524, 188.0782
524.9345, 186.5718
525.4166, 185.4169
525.8987, 184.7823
526.3809, 184.2666
526.8630, 183.1546
527.3451, 181.5628
527.8272, 180.0085
528.3093, 178.7475
528.7914, 177.6390
529.2736, 176.5131
529.7557, 175.3629
530.2378, 174.3161
530.7199, 173.6547
531.2020, 172.9865
531.6841, 171.9305
532.1663, 170.0907
532.6484, 168.5695
533.1305, 167.8231
533.6126, 167.4915
534.0947, 167.0444
534.5768, 166.4023
535.0590, 165.6863
535.5411, 164.8061
536.0232, 163.8363
536.5053, 163.2825
536.9874, 163.2558
537.4695, 163.4159
537.9517, 163.6340
538.4338, 163.9184
538.9159, 164.1207
539.3980, 164.2102
539.8801, 164.3365
540.3622, 164.6617
540.8444, 165.1649
541.3265, 165.7621
541.8086, 166.4368
542.2907, 167.2023
542.7728, 167.9273
543.2549, 168.7399
543.7371, 169.9912
544.2192, 172.3717
544.7013, 174.8742
545.1834, 176.5068
545.6655, 177.3477
546.1476, 178.7146
546.6298, 181.8108
547.1119, 185.1814
547.5940, 187.7916
548.0761, 188.8533
548.5582, 190.5150
549.0403, 193.3337
549.5225, 196.6596
550.0046, 199.7058
550.4867, 202.4165
550.9688, 204.9504
551.4509, 207.2838
551.9330, 209.4810
552.4152, 211.7101
552.8973, 213.9764
553.3794, 216.2919
553.8615, 218.7566
554.3436, 221.2994
554.8257, 223.4526
555.3079, 225.1718
555.7900, 226.9404
556.2721, 229.3091
556.7542, 231.9895
557.2363, 234.4372
557.7184, 236.5148
558.2006, 238.4156
558.6827, 240.2796
559.1648, 242.0679
559.6469, 243.7545
560.1290, 245.1525
560.6111, 246.6048
561.0933, 248.3815
561.5754, 250.3982
562.0575, 252.0368
562.5396, 252.8462
563.0217, 253.5997
563.5038, 254.6645
563.9860, 256.2088
564.4681, 257.2644
564.9502, 257.7010
565.4323, 257.8495
565.9144, 258.0833
566.3965, 258.4471
566.8787, 258.3555
567.3608, 257.6648
567.8429, 256.6109
568.3250, 255.6514
568.8071, 254.7336
569.2892, 253.5961
569.7714, 252.1213
570.2535, 250.3726
570.7356, 248.2598
571.2177, 245.8564
571.6998, 243.7769
572.1819, 242.7632
572.6641, 241.9025
573.1462, 240.2967
573.6283, 237.5789
574.1104, 235.4770
574.5925, 234.9878
575.0746, 235.0757
575.5568, 234.7824
576.0389, 233.2786
576.5210, 232.4666
577.0031, 232.7131
577.4852, 233.5675
577.9673, 234.0898
578.4495, 234.1723
578.9316, 234.2839
579.4137, 234.5531
579.8958, 234.9678
580.3779, 235.5663
580.8600, 236.3589
