##NAMES=Manitobaite
##RRUFFID=R130259
##IDEAL CHEMISTRY=Na_16_Mn^2+^_25_Al_8_(PO_4_)_30_
##LOCALITY=Gottcha Claim (Pegmatite No. 22), Cross Lake, Manitoba, Canada
##OWNER=RRUFF
##SOURCE=Rock Currier
##DESCRIPTION=Red-brown massive, associated with quartz
##STATUS=The identification of this mineral is confirmed by single-crystal X-ray diffraction and chemical analysis.
##URL=rruff.info/R130259
##MEASURED CHEMISTRY=(Na_11.09_Ca_1.07_ [box]_3.84_)(Mn^2+^_20.97_Mg_0.56_Fe^2+^_3.55_Zn^2+^_0.24_)_Î£=25.32_(Al_7.29_Fe^3+^_0.71_)P_30.36_Si_0.08_O_120_
92.40350, 1377.341
92.88562, 1371.872
93.36774, 1356.524
93.84985, 1323.617
94.33197, 1277.416
94.81409, 1238.701
95.29620, 1200.251
95.77832, 1163.267
96.26044, 1127.969
96.74255, 1095.642
97.22467, 1067.785
97.70679, 1044.639
98.18890, 1023.786
98.67102, 1004.589
99.15314, 986.5853
99.63525, 969.2336
100.1174, 952.1986
100.5995, 935.5865
101.0816, 919.8345
101.5637, 904.9318
102.0458, 890.6707
102.5280, 876.5283
103.0101, 862.7970
103.4922, 849.8479
103.9743, 837.9431
104.4564, 827.0262
104.9385, 818.0459
105.4207, 812.5110
105.9028, 806.9781
106.3849, 799.8140
106.8670, 790.9049
107.3491, 780.6539
107.8312, 768.6589
108.3134, 755.1110
108.7955, 743.6187
109.2776, 735.2505
109.7597, 728.9838
110.2418, 723.5956
110.7239, 719.2144
111.2061, 715.0180
111.6882, 710.0975
112.1703, 704.6057
112.6524, 699.4550
113.1345, 695.5722
113.6166, 692.8285
114.0988, 689.1858
114.5809, 683.7333
115.0630, 677.7702
115.5451, 671.6987
116.0272, 665.6412
116.5093, 660.0255
116.9915, 655.6107
117.4736, 653.2486
117.9557, 649.8184
118.4378, 644.0377
118.9199, 637.9724
119.4020, 632.9823
119.8842, 629.5322
120.3663, 627.2441
120.8484, 625.2469
121.3305, 623.5988
121.8126, 622.2333
122.2947, 622.3388
122.7769, 622.4509
123.2590, 620.3947
123.7411, 614.8175
124.2232, 606.7037
124.7053, 600.5298
125.1874, 596.3939
125.6696, 593.4933
126.1517, 592.3321
126.6338, 592.4703
127.1159, 592.0147
127.5980, 589.6255
128.0801, 585.7095
128.5623, 582.0765
129.0444, 578.8313
129.5265, 575.8600
130.0086, 573.2582
130.4907, 571.1992
130.9728, 568.6627
131.4550, 564.3979
131.9371, 559.3231
132.4192, 554.6864
132.9013, 551.0919
133.3834, 548.2695
133.8655, 545.4289
134.3477, 542.5103
134.8298, 539.6690
135.3119, 537.0143
135.7940, 534.4880
136.2761, 531.9756
136.7582, 529.3149
137.2404, 526.5052
137.7225, 524.1780
138.2046, 523.3447
138.6867, 522.1372
139.1688, 519.8887
139.6509, 516.6727
140.1331, 512.9473
140.6152, 509.0716
141.0973, 504.9123
141.5794, 501.2358
142.0615, 498.5717
142.5436, 495.8968
143.0258, 492.2949
143.5079, 487.7206
143.9900, 483.1046
144.4721, 479.7339
144.9542, 478.1655
145.4363, 476.5879
145.9185, 475.0041
146.4006, 473.3521
146.8827, 471.6469
147.3648, 469.9386
147.8469, 467.9551
148.3290, 464.9048
148.8112, 460.6296
149.2933, 456.8554
149.7754, 454.5136
150.2575, 453.2032
150.7396, 451.7149
151.2217, 449.6779
151.7039, 447.3359
152.1860, 445.0117
152.6681, 442.6814
153.1502, 440.4962
153.6323, 438.7001
154.1144, 437.3241
154.5966, 435.6747
155.0787, 433.4071
155.5608, 430.8709
156.0429, 428.2081
156.5250, 425.4259
157.0071, 422.7339
157.4893, 420.3593
157.9714, 418.2213
158.4535, 416.6805
158.9356, 416.4536
159.4177, 416.4060
159.8998, 415.6437
160.3820, 413.8338
160.8641, 411.3042
161.3462, 408.8073
161.8283, 406.1945
162.3104, 403.8570
162.7925, 401.8449
163.2747, 400.0988
163.7568, 398.5996
164.2389, 397.3555
164.7210, 396.2712
165.2031, 394.9511
165.6852, 393.2149
166.1674, 391.4490
166.6495, 389.6375
167.1316, 387.8407
167.6137, 386.1815
168.0958, 384.7321
168.5779, 383.4656
169.0601, 382.1781
169.5422, 380.8066
170.0243, 379.4839
170.5064, 378.3309
170.9885, 377.2946
171.4706, 376.1435
171.9528, 374.6796
172.4349, 372.9881
172.9170, 371.4815
173.3991, 370.2321
173.8812, 369.0983
174.3633, 367.9303
174.8455, 366.7215
175.3276, 365.6583
175.8097, 364.9397
176.2918, 364.4330
176.7739, 363.9174
177.2560, 363.4296
177.7382, 362.8596
178.2203, 362.0660
178.7024, 361.0504
179.1845, 359.8098
179.6666, 358.0497
180.1487, 356.1490
180.6309, 354.6551
181.1130, 353.9847
181.5951, 353.7555
182.0772, 352.8399
182.5593, 350.6912
183.0414, 348.7534
183.5236, 347.6270
184.0057, 346.9753
184.4878, 346.3106
184.9699, 345.3145
185.4520, 344.0741
185.9341, 343.1683
186.4163, 343.0786
186.8984, 342.7968
187.3805, 342.0717
187.8626, 340.9924
188.3447, 339.6827
188.8268, 338.1621
189.3090, 336.4579
189.7911, 335.3317
190.2732, 335.3740
190.7553, 335.3959
191.2374, 335.1268
191.7195, 334.5828
192.2017, 333.8526
192.6838, 332.9771
193.1659, 331.9334
193.6480, 331.1728
194.1301, 330.9182
194.6122, 330.6626
195.0944, 330.2627
195.5765, 329.6878
196.0586, 328.8716
196.5407, 327.6880
197.0228, 326.1240
197.5049, 325.0245
197.9871, 324.6119
198.4692, 324.4162
198.9513, 324.0806
199.4334, 323.6252
199.9155, 323.4199
200.3976, 323.8423
200.8798, 324.8697
201.3619, 325.7604
201.8440, 326.8766
202.3261, 327.6040
202.8082, 327.1706
203.2903, 325.5037
203.7725, 323.6475
204.2546, 322.3898
204.7367, 321.5933
205.2188, 320.8826
205.7009, 320.2011
206.1830, 319.5628
206.6652, 318.9418
207.1473, 318.2920
207.6294, 317.8495
208.1115, 317.9989
208.5936, 318.4394
209.0757, 318.7124
209.5579, 318.6371
210.0400, 318.2968
210.5221, 317.7815
211.0042, 316.9207
211.4863, 316.2841
211.9685, 316.4698
212.4506, 316.9810
212.9327, 317.0546
213.4148, 316.1655
213.8969, 314.6667
214.3790, 313.6661
214.8612, 313.3741
215.3433, 313.2727
215.8254, 313.3505
216.3075, 313.4331
216.7896, 313.2450
217.2717, 312.5688
217.7539, 311.5543
218.2360, 310.9098
218.7181, 311.0598
219.2002, 311.0309
219.6823, 310.5576
220.1644, 309.7816
220.6466, 308.8919
221.1287, 307.9927
221.6108, 307.0887
222.0929, 306.2111
222.5750, 305.1660
223.0571, 304.3863
223.5393, 304.0523
224.0214, 304.0108
224.5035, 304.0928
224.9856, 304.2175
225.4677, 304.3388
225.9498, 304.1531
226.4320, 303.5100
226.9141, 302.7079
227.3962, 301.6011
227.8783, 300.3935
228.3604, 299.3671
228.8425, 298.6851
229.3247, 298.3143
229.8068, 298.0696
230.2889, 298.2596
230.7710, 298.2182
231.2531, 297.6259
231.7352, 296.7235
232.2174, 295.9281
232.6995, 295.4643
233.1816, 295.2687
233.6637, 295.0766
234.1458, 294.8539
234.6279, 294.6688
235.1101, 294.6850
235.5922, 294.7457
236.0743, 294.4817
236.5564, 293.6523
237.0385, 292.4898
237.5206, 291.7763
238.0028, 291.5762
238.4849, 291.5851
238.9670, 291.9282
239.4491, 292.4143
239.9312, 292.5753
240.4133, 292.1465
240.8955, 291.3763
241.3776, 290.8592
241.8597, 290.7725
242.3418, 290.4797
242.8239, 289.4551
243.3060, 287.9915
243.7882, 286.9502
244.2703, 286.7873
244.7524, 286.9708
245.2345, 286.6473
245.7166, 285.7863
246.1987, 284.7214
246.6809, 283.5519
247.1630, 282.2985
247.6451, 280.9948
248.1272, 279.6031
248.6093, 278.2542
249.0914, 277.0809
249.5736, 276.0849
250.0557, 275.2096
250.5378, 274.4432
251.0199, 273.7811
251.5020, 273.2267
251.9841, 272.8788
252.4663, 272.4951
252.9484, 271.8073
253.4305, 270.8534
253.9126, 269.9363
254.3947, 269.2104
254.8768, 268.6625
255.3590, 268.2929
255.8411, 268.3097
256.3232, 268.2000
256.8053, 267.5805
257.2874, 266.5494
257.7695, 265.4544
258.2516, 264.3694
258.7338, 263.3481
259.2159, 262.7446
259.6980, 262.7502
260.1801, 262.9386
260.6622, 263.2812
261.1443, 263.6173
261.6265, 263.5794
262.1086, 262.8041
262.5907, 261.4619
263.0728, 260.3558
263.5549, 259.5963
264.0370, 258.9147
264.5192, 258.0812
265.0013, 257.2516
265.4834, 256.7175
265.9655, 256.7449
266.4476, 257.1100
266.9297, 257.0221
267.4119, 256.3906
267.8940, 255.3921
268.3761, 253.7505
268.8582, 251.9467
269.3403, 250.6169
269.8224, 250.1334
270.3046, 250.1629
270.7867, 249.7446
271.2688, 248.4612
271.7509, 247.4827
272.2330, 247.0916
272.7151, 247.0495
273.1973, 247.2531
273.6794, 247.6777
274.1615, 248.0123
274.6436, 247.4848
275.1257, 245.3458
275.6078, 243.8173
276.0900, 243.4377
276.5721, 243.5131
277.0542, 243.5738
277.5363, 243.4561
278.0184, 243.1565
278.5005, 242.6358
278.9827, 241.7397
279.4648, 240.9647
279.9469, 240.4712
280.4290, 239.9909
280.9111, 239.2655
281.3932, 238.2918
281.8754, 237.3511
282.3575, 236.8634
282.8396, 237.0837
283.3217, 237.0213
283.8038, 236.4672
284.2859, 235.8449
284.7681, 235.4173
285.2502, 235.1691
285.7323, 234.8916
286.2144, 234.3509
286.6965, 233.4820
287.1786, 232.7177
287.6608, 231.9801
288.1429, 231.4031
288.6250, 231.1154
289.1071, 231.0519
289.5892, 231.0373
290.0714, 230.9326
290.5535, 230.7376
291.0356, 230.5333
291.5177, 230.4613
291.9998, 230.2359
292.4819, 229.6582
292.9641, 228.8742
293.4462, 228.1398
293.9283, 227.6085
294.4104, 227.2729
294.8925, 227.0596
295.3746, 227.0613
295.8568, 227.0906
296.3389, 227.2398
296.8210, 227.3695
297.3031, 227.2867
297.7852, 226.8960
298.2673, 226.2714
298.7495, 225.6355
299.2316, 224.8214
299.7137, 224.2108
300.1958, 224.0505
300.6779, 223.9851
301.1600, 223.5704
301.6422, 222.6817
302.1243, 221.6634
302.6064, 221.1650
303.0885, 221.6445
303.5706, 221.8560
304.0527, 221.7472
304.5349, 221.4338
305.0170, 220.9477
305.4991, 220.3212
305.9812, 219.6346
306.4633, 218.9613
306.9454, 218.2284
307.4276, 217.8073
307.9097, 217.8758
308.3918, 218.0505
308.8739, 218.2176
309.3560, 218.3176
309.8381, 218.2461
310.3203, 217.8779
310.8024, 217.1832
311.2845, 216.7154
311.7666, 216.8831
312.2487, 216.8297
312.7308, 215.9858
313.2130, 214.6813
313.6951, 213.6901
314.1772, 213.5479
314.6593, 214.0860
315.1414, 214.1373
315.6235, 213.0337
316.1057, 212.2100
316.5878, 212.0926
317.0699, 212.3352
317.5520, 212.4767
318.0341, 212.3096
318.5162, 211.9195
318.9984, 211.5252
319.4805, 211.1079
319.9626, 210.7130
320.4447, 210.3436
320.9268, 209.9959
321.4089, 209.6759
321.8911, 209.3818
322.3732, 209.0890
322.8553, 208.7338
323.3374, 208.1646
323.8195, 207.9487
324.3016, 208.4263
324.7838, 208.9423
325.2659, 209.1251
325.7480, 208.9345
326.2301, 208.4930
326.7122, 207.8843
327.1943, 207.0700
327.6765, 206.4266
328.1586, 206.0287
328.6407, 205.7005
329.1228, 205.3420
329.6049, 204.9979
330.0870, 204.7959
330.5692, 204.8386
331.0513, 205.0815
331.5334, 205.1832
332.0155, 205.0754
332.4976, 204.8926
332.9797, 204.6333
333.4619, 204.3167
333.9440, 203.9189
334.4261, 203.4291
334.9082, 202.9566
335.3904, 202.7892
335.8725, 203.4187
336.3546, 203.5708
336.8367, 202.8436
337.3188, 201.8919
337.8009, 201.2012
338.2831, 200.8960
338.7652, 200.8501
339.2473, 200.9398
339.7294, 201.2795
340.2115, 201.3884
340.6936, 201.0385
341.1758, 200.6902
341.6579, 200.5631
342.1400, 200.6471
342.6221, 200.8438
343.1042, 201.1203
343.5863, 201.4751
344.0685, 201.4321
344.5506, 200.4007
345.0327, 199.5504
345.5148, 199.2237
345.9969, 199.2328
346.4790, 199.2626
346.9612, 199.1395
347.4433, 198.9283
347.9254, 198.8685
348.4075, 199.2781
348.8896, 199.2923
349.3717, 198.4710
349.8539, 197.4344
350.3360, 196.6899
350.8181, 196.4021
351.3002, 196.4328
351.7823, 196.6273
352.2644, 197.0629
352.7466, 197.4104
353.2287, 197.7830
353.7108, 197.9607
354.1929, 197.7660
354.6750, 197.2363
355.1571, 196.5657
355.6393, 195.8548
356.1214, 195.1033
356.6035, 194.6451
357.0856, 194.8312
357.5677, 194.9005
358.0498, 194.4436
358.5320, 193.7102
359.0141, 193.1451
359.4962, 193.0157
359.9783, 193.1675
360.4604, 193.1909
360.9425, 193.0252
361.4247, 192.8696
361.9068, 192.8095
362.3889, 192.7701
362.8710, 192.6722
363.3531, 192.4922
363.8352, 192.3036
364.3174, 192.2531
364.7995, 192.3745
365.2816, 192.2657
365.7637, 191.6120
366.2458, 190.9198
366.7279, 190.5159
367.2101, 190.3884
367.6922, 190.3452
368.1743, 190.3664
368.6564, 190.3891
369.1385, 190.0656
369.6206, 189.1637
370.1028, 188.3378
370.5849, 188.1015
371.0670, 188.1902
371.5491, 188.1504
372.0312, 187.8251
372.5133, 187.2902
372.9955, 186.5696
373.4776, 185.6330
373.9597, 184.8207
374.4418, 184.2767
374.9239, 183.9427
375.4060, 183.8071
375.8882, 183.9471
376.3703, 183.9537
376.8524, 183.3616
377.3345, 182.3507
377.8166, 181.7084
378.2987, 181.7464
378.7809, 181.9534
379.2630, 181.7420
379.7451, 181.1661
380.2272, 180.6015
380.7093, 180.2609
381.1914, 179.9595
381.6736, 179.3459
382.1557, 178.3794
382.6378, 177.5945
383.1199, 177.5115
383.6020, 177.9484
384.0841, 178.0176
384.5663, 177.4064
385.0484, 176.7192
385.5305, 176.3663
386.0126, 176.2333
386.4947, 175.9352
386.9768, 175.2832
387.4590, 174.4445
387.9411, 173.7479
388.4232, 173.1506
388.9053, 172.7629
389.3874, 172.6627
389.8695, 172.7570
390.3517, 173.0546
390.8338, 173.5355
391.3159, 173.8662
391.7980, 173.6477
392.2801, 172.7792
392.7622, 172.2601
393.2444, 172.4412
393.7265, 172.6068
394.2086, 172.2523
394.6907, 171.5706
395.1728, 171.0969
395.6549, 171.1486
396.1371, 171.6313
396.6192, 172.1692
397.1013, 173.0200
397.5834, 173.5996
398.0655, 173.8389
398.5476, 173.7986
399.0298, 173.4098
399.5119, 172.7054
399.9940, 171.9970
400.4761, 171.6900
400.9582, 171.8124
401.4403, 172.2702
401.9225, 173.4045
402.4046, 174.5056
402.8867, 175.2481
403.3688, 175.6794
403.8509, 176.0151
404.3330, 176.4130
404.8152, 176.8308
405.2973, 177.0175
405.7794, 176.7780
406.2615, 176.5909
406.7436, 176.4937
407.2257, 176.5111
407.7079, 176.7478
408.1900, 177.2236
408.6721, 177.6724
409.1542, 177.6739
409.6363, 177.1298
410.1184, 176.6936
410.6006, 176.5040
411.0827, 176.3743
411.5648, 176.2705
412.0469, 176.1570
412.5290, 175.9439
413.0111, 175.5279
413.4933, 174.9767
413.9754, 174.4908
414.4575, 174.0533
414.9396, 173.7313
415.4217, 173.6268
415.9038, 173.6314
416.3860, 173.6429
416.8681, 173.6528
417.3502, 173.6197
417.8323, 173.4932
418.3144, 173.2802
418.7965, 173.0275
419.2787, 172.6812
419.7608, 172.3943
420.2429, 172.3944
420.7250, 172.6524
421.2071, 172.8190
421.6892, 172.6242
422.1714, 172.3391
422.6535, 172.3819
423.1356, 172.7832
423.6177, 173.1765
424.0998, 173.3086
424.5819, 173.2333
425.0641, 173.2193
425.5462, 173.1985
426.0283, 173.3201
426.5104, 173.8035
426.9925, 174.4542
427.4746, 174.8416
427.9568, 174.8013
428.4389, 174.6449
428.9210, 174.8771
429.4031, 175.7670
429.8852, 176.2671
430.3673, 175.9576
430.8495, 175.5943
431.3316, 175.7187
431.8137, 176.2985
432.2958, 176.9662
432.7779, 177.4388
433.2600, 177.7795
433.7422, 178.4964
434.2243, 180.1852
434.7064, 181.5447
435.1885, 182.0664
435.6706, 182.3400
436.1527, 183.0678
436.6349, 184.4329
437.1170, 185.9880
437.5991, 187.0132
438.0812, 187.2093
438.5633, 187.9765
439.0454, 190.1543
439.5276, 192.1098
440.0097, 192.7879
440.4918, 192.7197
440.9739, 193.2509
441.4560, 195.3804
441.9381, 198.4451
442.4203, 200.4296
442.9024, 200.8202
443.3845, 201.4780
443.8666, 203.1918
444.3487, 205.2713
444.8308, 207.2064
445.3130, 208.9046
445.7951, 210.5672
446.2772, 212.3131
446.7593, 214.1541
447.2414, 216.1721
447.7235, 218.4539
448.2057, 220.7393
448.6878, 222.9453
449.1699, 225.0215
449.6520, 226.7411
450.1341, 227.8763
450.6162, 228.8008
451.0984, 229.7898
451.5805, 230.8495
452.0626, 232.0808
452.5447, 233.6516
453.0268, 235.2357
453.5089, 236.1461
453.9911, 236.3338
454.4732, 236.3679
454.9553, 236.2320
455.4374, 236.0842
455.9195, 236.1365
456.4016, 236.3880
456.8838, 236.6384
457.3659, 236.7609
457.8480, 236.7458
458.3301, 236.4070
458.8122, 235.2738
459.2943, 234.4246
459.7765, 234.3889
460.2586, 234.6893
460.7407, 234.7007
461.2228, 234.2145
461.7049, 233.4411
462.1870, 232.6721
462.6692, 231.9084
463.1513, 231.1565
463.6334, 230.4929
464.1155, 229.7742
464.5976, 228.7321
465.0797, 227.5943
465.5619, 226.8742
466.0440, 226.9545
466.5261, 227.5047
467.0082, 227.5661
467.4903, 226.9182
467.9724, 226.3823
468.4546, 226.3640
468.9367, 226.3948
469.4188, 226.1029
469.9009, 225.4606
470.3830, 224.7699
470.8651, 224.3317
471.3473, 224.0369
471.8294, 223.4649
472.3115, 222.5327
472.7936, 221.5040
473.2757, 220.5227
473.7578, 219.5720
474.2400, 218.6153
474.7221, 217.5744
475.2042, 216.6449
475.6863, 216.0989
476.1684, 215.7790
476.6505, 215.2618
477.1327, 214.4384
477.6148, 213.3159
478.0969, 211.7379
478.5790, 209.5843
479.0611, 208.0264
479.5432, 207.5943
480.0254, 207.3702
480.5075, 206.9050
480.9896, 206.1549
481.4717, 205.0481
481.9538, 203.4961
482.4359, 201.7706
482.9181, 200.6716
483.4002, 201.0449
483.8823, 200.8013
484.3644, 199.4599
484.8465, 197.8715
485.3286, 196.5715
485.8108, 195.6359
486.2929, 194.9363
486.7750, 194.4128
487.2571, 194.0300
487.7392, 193.4328
488.2213, 192.3864
488.7035, 191.5136
489.1856, 191.1926
489.6677, 190.9913
490.1498, 190.4200
490.6319, 189.3583
491.1140, 188.1938
491.5962, 187.3502
492.0783, 186.7760
492.5604, 186.0432
493.0425, 184.9947
493.5246, 184.0108
494.0067, 183.4939
494.4889, 183.2467
494.9710, 182.8216
495.4531, 182.0402
495.9352, 181.1431
496.4173, 180.3166
496.8994, 179.5346
497.3816, 178.6801
497.8637, 177.7041
498.3458, 176.6881
498.8279, 175.7323
499.3100, 174.8228
499.7921, 174.0591
500.2743, 173.7710
500.7564, 173.3557
501.2385, 172.1713
501.7206, 170.4857
502.2027, 169.1580
502.6848, 168.6883
503.1670, 168.8218
503.6491, 168.8497
504.1312, 169.0737
504.6133, 168.6494
505.0954, 166.9600
505.5775, 165.1510
506.0597, 164.0481
506.5418, 163.6090
507.0239, 163.2644
507.5060, 162.5686
507.9881, 161.6003
508.4702, 160.7055
508.9524, 159.8218
509.4345, 159.1599
509.9166, 158.9822
510.3987, 158.9470
510.8808, 158.7749
511.3629, 158.4219
511.8451, 157.9585
512.3271, 157.4378
512.8093, 156.8483
513.2914, 156.1061
513.7735, 155.1552
514.2556, 154.3183
514.7377, 153.8870
515.2198, 153.7489
515.7020, 153.4823
516.1841, 153.0474
516.6662, 152.5261
517.1483, 151.8145
517.6304, 151.0790
518.1125, 150.6741
518.5947, 150.6755
519.0768, 150.6980
519.5589, 150.3133
520.0410, 149.4724
520.5231, 148.6669
521.0052, 147.8371
521.4874, 147.1021
521.9695, 146.5233
522.4516, 146.0499
522.9337, 145.6355
523.4158, 145.2567
523.8979, 144.8816
524.3801, 144.4624
524.8622, 144.0005
525.3443, 143.4991
525.8264, 142.9453
526.3085, 142.3624
526.7906, 141.8179
527.2728, 141.2462
527.7549, 140.4776
528.2370, 139.3439
528.7191, 138.2069
529.2012, 137.6342
529.6833, 137.5782
530.1655, 137.3158
530.6476, 136.6046
531.1297, 135.7346
531.6118, 134.9253
532.0939, 134.1851
532.5760, 133.7324
533.0582, 133.8461
533.5403, 134.0615
534.0224, 134.1055
534.5045, 133.9606
534.9866, 133.5525
535.4688, 132.8209
535.9509, 131.9962
536.4330, 131.5223
536.9151, 131.6095
537.3972, 131.5638
537.8793, 131.2932
538.3615, 130.9877
538.8436, 130.7906
539.3257, 130.6429
539.8078, 130.3384
540.2899, 129.7312
540.7720, 129.0658
541.2542, 128.9476
541.7363, 129.5335
542.2184, 130.1396
542.7005, 130.7145
543.1826, 131.2357
543.6647, 131.7287
544.1469, 132.1638
544.6290, 132.4389
545.1111, 132.3129
545.5932, 132.1363
546.0753, 132.5303
546.5574, 133.4723
547.0396, 134.3173
547.5217, 134.7463
548.0038, 135.0644
548.4859, 135.8127
548.9680, 137.0184
549.4501, 138.1649
549.9323, 139.0510
550.4144, 139.9304
550.8965, 141.0662
551.3786, 142.3842
551.8607, 143.6468
552.3428, 144.7424
552.8250, 145.6181
553.3071, 146.1037
553.7892, 145.7637
554.2713, 145.8349
554.7534, 146.4694
555.2355, 147.3201
555.7177, 148.3138
556.1998, 149.3574
556.6819, 150.2834
557.1640, 150.9664
557.6461, 151.5186
558.1282, 152.1598
558.6104, 152.8936
559.0925, 153.7122
559.5746, 154.7124
560.0567, 155.6990
560.5388, 156.4587
561.0209, 157.0247
561.5031, 157.6668
561.9852, 158.5302
562.4673, 159.4759
562.9494, 160.3796
563.4315, 161.2409
563.9136, 162.1269
564.3958, 163.1227
564.8779, 163.9794
565.3600, 164.2322
565.8421, 163.5782
566.3242, 163.1567
566.8063, 163.2808
567.2885, 163.3343
567.7706, 162.8732
568.2527, 162.0817
568.7348, 161.3985
569.2169, 161.0381
569.6990, 160.8452
570.1812, 160.5661
570.6633, 160.2551
571.1454, 159.6332
571.6275, 158.4735
572.1096, 157.1922
572.5917, 155.8437
573.0739, 154.5488
573.5560, 153.5745
574.0381, 153.0951
574.5202, 152.8375
575.0023, 152.5634
575.4844, 152.2617
575.9666, 151.8061
576.4487, 151.0768
576.9308, 150.4834
577.4129, 150.6092
577.8950, 151.4673
578.3771, 151.7536
578.8593, 150.8592
579.3414, 150.0146
579.8235, 149.7649
580.3056, 149.9322
580.7877, 150.2468
581.2698, 150.6137
581.7520, 151.0176
582.2341, 151.4635
582.7162, 151.9789
583.1984, 152.2944
583.6805, 152.2069
584.1626, 152.1670
584.6447, 152.2016
585.1268, 152.3948
