##NAMES=Manitobaite
##RRUFFID=R130260
##IDEAL CHEMISTRY=Na_16_Mn^2+^_25_Al_8_(PO_4_)_30_
##LOCALITY=Gottcha Claim (Pegmatite No. 22), Cross Lake, Manitoba, Canada
##OWNER=RRUFF
##SOURCE=Rock Currier
##DESCRIPTION=Green or brown massive.
##STATUS=The identification of this mineral has been confirmed by single-crystal X-ray diffraction.
##URL=rruff.info/R130260
##MEASURED CHEMISTRY=(Na_14.11_Ca_1.02_ [box]_0.87_)(Mn^2+^_20.86_Fe^2+^_3.1_Mg_0.40_Zn^2+^_0.25_)_Î£=24.61_(Al_7.21_Fe^3+^_0.79_)P_30.07_Si_0.07_O_120_
91.92139, 1547.637
92.40350, 1545.433
92.88562, 1543.718
93.36774, 1534.882
93.84985, 1509.088
94.33197, 1464.589
94.81409, 1420.846
95.29620, 1375.774
95.77832, 1335.488
96.26044, 1300.794
96.74255, 1270.392
97.22467, 1242.625
97.70679, 1217.130
98.18890, 1193.991
98.67102, 1173.815
99.15314, 1154.690
99.63525, 1134.441
100.1174, 1111.912
100.5995, 1088.339
101.0816, 1068.271
101.5637, 1053.776
102.0458, 1040.531
102.5280, 1028.016
103.0101, 1016.121
103.4922, 1004.630
103.9743, 993.2943
104.4564, 982.0637
104.9385, 973.8721
105.4207, 971.3861
105.9028, 968.7412
106.3849, 963.0527
106.8670, 954.1637
107.3491, 943.1398
107.8312, 929.8519
108.3134, 914.5554
108.7955, 901.9750
109.2776, 894.1943
109.7597, 888.9966
110.2418, 883.1824
110.7239, 876.0612
111.2061, 868.8959
111.6882, 862.9838
112.1703, 858.0338
112.6524, 853.1437
113.1345, 847.6893
113.6166, 841.6963
114.0988, 835.8572
114.5809, 830.6180
115.0630, 825.2191
115.5451, 819.1457
116.0272, 812.4003
116.5093, 805.5757
116.9915, 799.5438
117.4736, 794.9567
117.9557, 789.4083
118.4378, 781.4824
118.9199, 773.4805
119.4020, 767.0783
119.8842, 762.8064
120.3663, 759.9385
120.8484, 756.8000
121.3305, 752.7629
121.8126, 749.1599
122.2947, 746.9025
122.7769, 744.9012
123.2590, 741.5760
123.7411, 735.9474
124.2232, 728.6970
124.7053, 722.8771
125.1874, 718.9772
125.6696, 715.5867
126.1517, 712.0527
126.6338, 708.5352
127.1159, 705.7167
127.5980, 704.5378
128.0801, 704.2870
128.5623, 702.5939
129.0444, 698.3604
129.5265, 693.3727
130.0086, 689.5666
130.4907, 687.2599
130.9728, 684.5841
131.4550, 679.7538
131.9371, 673.8745
132.4192, 668.4257
132.9013, 664.1155
133.3834, 660.6337
133.8655, 657.0048
134.3477, 652.8128
134.8298, 649.1437
135.3119, 646.7101
135.7940, 645.0648
136.2761, 643.3649
136.7582, 640.8291
137.2404, 637.4254
137.7225, 634.9867
138.2046, 635.1415
138.6867, 634.8831
139.1688, 633.1005
139.6509, 629.9435
140.1331, 626.2659
140.6152, 622.8898
141.0973, 619.9609
141.5794, 616.8981
142.0615, 613.2899
142.5436, 609.8652
143.0258, 607.0085
143.5079, 604.8087
143.9900, 603.1620
144.4721, 602.0219
144.9542, 601.7773
145.4363, 600.9895
145.9185, 599.4655
146.4006, 597.4205
146.8827, 595.0135
147.3648, 592.2448
147.8469, 589.3077
148.3290, 586.4229
148.8112, 583.5056
149.2933, 580.9467
149.7754, 579.1940
150.2575, 577.9579
150.7396, 576.2902
151.2217, 573.6453
151.7039, 570.7834
152.1860, 568.6815
152.6681, 567.3955
153.1502, 566.3635
153.6323, 565.4466
154.1144, 564.6824
154.5966, 563.0801
155.0787, 559.4792
155.5608, 555.4365
156.0429, 552.0674
156.5250, 549.5967
157.0071, 547.4280
157.4893, 544.5995
157.9714, 540.6447
158.4535, 537.3167
158.9356, 535.3977
159.4177, 533.8707
159.8998, 531.9571
160.3820, 529.3707
160.8641, 526.3843
161.3462, 523.6761
161.8283, 521.6595
162.3104, 519.3303
162.7925, 516.2556
163.2747, 512.9689
163.7568, 510.1136
164.2389, 508.0414
164.7210, 506.4709
165.2031, 504.2264
165.6852, 500.4177
166.1674, 496.9411
166.6495, 494.2683
167.1316, 492.1167
167.6137, 490.0651
168.0958, 487.9026
168.5779, 485.5916
169.0601, 482.8648
169.5422, 479.0690
170.0243, 475.6076
170.5064, 473.2152
170.9885, 471.6999
171.4706, 470.2804
171.9528, 468.5522
172.4349, 466.4891
172.9170, 464.2086
173.3991, 461.4079
173.8812, 458.6183
174.3633, 456.1621
174.8455, 454.0343
175.3276, 452.2863
175.8097, 451.3789
176.2918, 450.7843
176.7739, 449.5349
177.2560, 447.1580
177.7382, 444.2366
178.2203, 441.6318
178.7024, 439.4919
179.1845, 437.2031
179.6666, 434.1464
180.1487, 430.8371
180.6309, 427.9643
181.1130, 425.9013
181.5951, 424.4030
182.0772, 422.7577
182.5593, 420.7795
183.0414, 418.9842
183.5236, 417.6485
184.0057, 416.5562
184.4878, 415.4079
184.9699, 414.0269
185.4520, 412.4424
185.9341, 410.8503
186.4163, 409.3633
186.8984, 407.7270
187.3805, 405.7704
187.8626, 403.6243
188.3447, 401.4606
188.8268, 399.3344
189.3090, 397.2710
189.7911, 395.8966
190.2732, 396.1683
190.7553, 396.1615
191.2374, 395.0869
191.7195, 393.2881
192.2017, 391.6092
192.6838, 390.7189
193.1659, 390.6508
193.6480, 390.4151
194.1301, 390.0548
194.6122, 389.5365
195.0944, 388.7077
195.5765, 387.6661
196.0586, 386.7651
196.5407, 386.3942
197.0228, 386.5610
197.5049, 385.9107
197.9871, 383.3422
198.4692, 380.9297
198.9513, 380.1242
199.4334, 380.8866
199.9155, 382.0697
200.3976, 383.0033
200.8798, 383.5687
201.3619, 383.3129
201.8440, 381.4793
202.3261, 379.2794
202.8082, 377.8330
203.2903, 377.2286
203.7725, 376.7848
204.2546, 375.9090
204.7367, 374.7875
205.2188, 373.9643
205.7009, 373.9549
206.1830, 374.1217
206.6652, 373.4994
207.1473, 371.8864
207.6294, 370.2395
208.1115, 369.1799
208.5936, 368.5215
209.0757, 368.0401
209.5579, 367.7185
210.0400, 367.5027
210.5221, 367.3258
211.0042, 367.2815
211.4863, 367.0443
211.9685, 366.2984
212.4506, 365.3032
212.9327, 364.4309
213.4148, 363.8558
213.8969, 363.5208
214.3790, 363.2753
214.8612, 363.1961
215.3433, 363.0776
215.8254, 362.9590
216.3075, 362.7439
216.7896, 362.2582
217.2717, 361.3418
217.7539, 360.1308
218.2360, 359.2547
218.7181, 358.8963
219.2002, 358.6752
219.6823, 358.6715
220.1644, 358.7011
220.6466, 358.4722
221.1287, 357.7720
221.6108, 356.7310
222.0929, 356.1138
222.5750, 356.6096
223.0571, 356.7814
223.5393, 356.1402
224.0214, 355.0769
224.5035, 354.1544
224.9856, 353.7149
225.4677, 353.6890
225.9498, 353.6522
226.4320, 353.5823
226.9141, 353.5264
227.3962, 353.4574
227.8783, 353.4131
228.3604, 353.4723
228.8425, 353.6920
229.3247, 354.0245
229.8068, 354.1910
230.2889, 354.3296
230.7710, 354.1651
231.2531, 353.3945
231.7352, 352.2996
232.2174, 351.3304
232.6995, 350.7105
233.1816, 350.4257
233.6637, 350.4565
234.1458, 350.9721
234.6279, 351.5371
235.1101, 352.2862
235.5922, 353.0012
236.0743, 353.1643
236.5564, 352.4284
237.0385, 351.1393
237.5206, 350.4574
238.0028, 350.6352
238.4849, 350.8625
238.9670, 351.0435
239.4491, 351.0835
239.9312, 350.6955
240.4133, 349.6510
240.8955, 348.2740
241.3776, 347.2950
241.8597, 346.8278
242.3418, 346.3951
242.8239, 345.8877
243.3060, 345.2757
243.7882, 344.4470
244.2703, 343.3161
244.7524, 342.0135
245.2345, 340.7827
245.7166, 339.6601
246.1987, 338.4571
246.6809, 336.8596
247.1630, 335.0671
247.6451, 333.7990
248.1272, 333.4789
248.6093, 333.4670
249.0914, 333.0060
249.5736, 332.1026
250.0557, 331.0493
250.5378, 329.9606
251.0199, 328.8451
251.5020, 327.7038
251.9841, 326.4294
252.4663, 325.2907
252.9484, 324.4742
253.4305, 323.9671
253.9126, 323.6609
254.3947, 323.5848
254.8768, 323.6851
255.3590, 323.6875
255.8411, 323.4467
256.3232, 323.2748
256.8053, 323.4947
257.2874, 323.9877
257.7695, 324.3255
258.2516, 324.1432
258.7338, 323.5449
259.2159, 323.0890
259.6980, 322.7830
260.1801, 322.6501
260.6622, 322.7622
261.1443, 323.0302
261.6265, 323.2676
262.1086, 323.4443
262.5907, 323.5067
263.0728, 323.1737
263.5549, 322.2278
264.0370, 321.1896
264.5192, 320.2592
265.0013, 319.3974
265.4834, 318.5048
265.9655, 317.4430
266.4476, 316.3617
266.9297, 315.8760
267.4119, 316.6337
267.8940, 316.9186
268.3761, 316.0477
268.8582, 314.5429
269.3403, 312.9851
269.8224, 311.6235
270.3046, 310.4724
270.7867, 309.6307
271.2688, 309.4395
271.7509, 308.9413
272.2330, 307.8158
272.7151, 306.3965
273.1973, 304.9506
273.6794, 303.5767
274.1615, 302.3353
274.6436, 301.4065
275.1257, 301.1448
275.6078, 300.4750
276.0900, 299.0323
276.5721, 297.3404
277.0542, 295.8023
277.5363, 294.5397
278.0184, 293.4576
278.5005, 292.3866
278.9827, 291.2167
279.4648, 290.3260
279.9469, 290.1354
280.4290, 289.9008
280.9111, 289.0423
281.3932, 287.5035
281.8754, 285.7259
282.3575, 284.2621
282.8396, 283.1678
283.3217, 282.2585
283.8038, 281.8932
284.2859, 281.3987
284.7681, 280.2329
285.2502, 278.4950
285.7323, 276.7907
286.2144, 275.7733
286.6965, 275.5796
287.1786, 275.2893
287.6608, 274.8758
288.1429, 274.3996
288.6250, 273.8382
289.1071, 273.2272
289.5892, 272.6464
290.0714, 272.1633
290.5535, 271.7823
291.0356, 271.3642
291.5177, 271.3068
291.9998, 270.8040
292.4819, 269.1107
292.9641, 266.8340
293.4462, 265.1348
293.9283, 264.7994
294.4104, 265.5966
294.8925, 265.9192
295.3746, 265.1630
295.8568, 264.5800
296.3389, 264.5396
296.8210, 264.7204
297.3031, 264.6613
297.7852, 264.1367
298.2673, 263.2890
298.7495, 262.5430
299.2316, 261.6821
299.7137, 261.2281
300.1958, 261.5639
300.6779, 262.1348
301.1600, 262.3761
301.6422, 262.1060
302.1243, 261.5498
302.6064, 261.1210
303.0885, 260.9896
303.5706, 260.6782
304.0527, 260.0109
304.5349, 259.2982
305.0170, 258.7739
305.4991, 258.4777
305.9812, 258.3132
306.4633, 258.1973
306.9454, 258.2429
307.4276, 257.9050
307.9097, 256.6797
308.3918, 255.5716
308.8739, 255.2936
309.3560, 255.7237
309.8381, 256.1610
310.3203, 255.9610
310.8024, 255.0645
311.2845, 254.5016
311.7666, 254.6552
312.2487, 254.7013
312.7308, 254.2403
313.2130, 253.4434
313.6951, 252.7073
314.1772, 252.2854
314.6593, 252.1406
315.1414, 252.0355
315.6235, 251.8229
316.1057, 251.8184
316.5878, 252.5010
317.0699, 253.3020
317.5520, 253.3230
318.0341, 252.1523
318.5162, 250.3383
318.9984, 249.2955
319.4805, 249.5632
319.9626, 249.9887
320.4447, 250.8672
320.9268, 251.7247
321.4089, 252.0982
321.8911, 251.8777
322.3732, 251.3178
322.8553, 250.7496
323.3374, 250.0319
323.8195, 249.7085
324.3016, 249.8964
324.7838, 250.3280
325.2659, 250.9999
325.7480, 251.8110
326.2301, 252.4513
326.7122, 252.5704
327.1943, 252.0598
327.6765, 251.9304
328.1586, 252.4535
328.6407, 253.0274
329.1228, 253.7195
329.6049, 254.2877
330.0870, 254.1842
330.5692, 252.9468
331.0513, 250.8049
331.5334, 249.5542
332.0155, 250.2058
332.4976, 250.6484
332.9797, 250.4430
333.4619, 249.9063
333.9440, 249.4658
334.4261, 249.3133
334.9082, 249.3316
335.3904, 249.2384
335.8725, 248.9830
336.3546, 248.6894
336.8367, 248.2031
337.3188, 247.7835
337.8009, 247.7878
338.2831, 248.2222
338.7652, 248.6292
339.2473, 248.3390
339.7294, 247.0193
340.2115, 246.0329
340.6936, 245.6152
341.1758, 245.2704
341.6579, 244.7926
342.1400, 244.1654
342.6221, 243.4503
343.1042, 242.6814
343.5863, 241.8579
344.0685, 241.1196
344.5506, 240.2321
345.0327, 239.6989
345.5148, 240.1488
345.9969, 240.9384
346.4790, 240.9932
346.9612, 239.6719
347.4433, 237.4709
347.9254, 235.9468
348.4075, 235.4604
348.8896, 235.1399
349.3717, 234.9994
349.8539, 234.8690
350.3360, 234.5769
350.8181, 234.0793
351.3002, 233.4997
351.7823, 233.0122
352.2644, 232.6299
352.7466, 232.3027
353.2287, 232.2137
353.7108, 232.0249
354.1929, 231.4446
354.6750, 230.5474
355.1571, 229.7116
355.6393, 229.3481
356.1214, 229.4511
356.6035, 229.2308
357.0856, 228.3838
357.5677, 227.5648
358.0498, 226.9538
358.5320, 226.5380
359.0141, 226.2972
359.4962, 226.2558
359.9783, 226.3322
360.4604, 226.3156
360.9425, 226.1931
361.4247, 226.0007
361.9068, 225.6138
362.3889, 225.2368
362.8710, 225.1095
363.3531, 225.3045
363.8352, 225.5510
364.3174, 225.5021
364.7995, 225.1251
365.2816, 224.7740
365.7637, 224.5011
366.2458, 224.2813
366.7279, 224.2385
367.2101, 224.3020
367.6922, 224.0833
368.1743, 223.0359
368.6564, 221.4092
369.1385, 220.4076
369.6206, 220.3072
370.1028, 220.3774
370.5849, 220.2612
371.0670, 219.9930
371.5491, 219.6058
372.0312, 219.0265
372.5133, 218.4165
372.9955, 218.0514
373.4776, 217.9666
373.9597, 217.7916
374.4418, 217.3646
374.9239, 216.7549
375.4060, 216.0326
375.8882, 215.1733
376.3703, 214.3272
376.8524, 213.5977
377.3345, 212.9674
377.8166, 212.3779
378.2987, 211.8607
378.7809, 211.2979
379.2630, 210.4536
379.7451, 209.3709
380.2272, 208.5169
380.7093, 208.2182
381.1914, 208.1541
381.6736, 207.9597
382.1557, 207.6118
382.6378, 207.0507
383.1199, 206.1714
383.6020, 205.0248
384.0841, 203.9055
384.5663, 202.4950
385.0484, 201.4350
385.5305, 201.4769
386.0126, 202.2388
386.4947, 202.4436
386.9768, 201.4598
387.4590, 199.8543
387.9411, 198.7837
388.4232, 198.2273
388.9053, 198.0820
389.3874, 198.7859
389.8695, 199.6721
390.3517, 199.9634
390.8338, 199.5205
391.3159, 198.6962
391.7980, 197.7832
392.2801, 196.7530
392.7622, 195.9781
393.2444, 195.4459
393.7265, 195.1535
394.2086, 195.2163
394.6907, 195.5266
395.1728, 195.8252
395.6549, 195.9564
396.1371, 195.9727
396.6192, 196.0781
397.1013, 196.3956
397.5834, 196.6516
398.0655, 196.7039
398.5476, 196.7466
399.0298, 196.9525
399.5119, 197.3747
399.9940, 198.0018
400.4761, 198.8777
400.9582, 200.2063
401.4403, 201.0437
401.9225, 200.8138
402.4046, 200.6996
402.8867, 201.2377
403.3688, 202.3516
403.8509, 203.7496
404.3330, 205.2802
404.8152, 206.8930
405.2973, 208.3078
405.7794, 209.5485
406.2615, 210.5274
406.7436, 211.0805
407.2257, 211.4701
407.7079, 211.9635
408.1900, 212.6434
408.6721, 213.3699
409.1542, 213.9528
409.6363, 214.3791
410.1184, 214.7601
410.6006, 215.0513
411.0827, 215.3483
411.5648, 215.8669
412.0469, 216.4729
412.5290, 216.7180
413.0111, 216.1650
413.4933, 215.0582
413.9754, 214.1488
414.4575, 213.4272
414.9396, 212.9371
415.4217, 213.0309
415.9038, 213.2469
416.3860, 212.9815
416.8681, 211.9836
417.3502, 210.8646
417.8323, 210.2505
418.3144, 210.0789
418.7965, 209.8347
419.2787, 209.3500
419.7608, 208.8070
420.2429, 208.4455
420.7250, 208.2461
421.2071, 207.9436
421.6892, 207.1973
422.1714, 206.4101
422.6535, 206.2396
423.1356, 206.7344
423.6177, 207.2257
424.0998, 207.3053
424.5819, 207.0029
425.0641, 206.5686
425.5462, 205.8063
426.0283, 205.1606
426.5104, 204.8630
426.9925, 204.8113
427.4746, 204.7682
427.9568, 204.6396
428.4389, 204.6325
428.9210, 205.1080
429.4031, 206.3731
429.8852, 207.2519
430.3673, 207.5403
430.8495, 207.6110
431.3316, 207.6107
431.8137, 207.6128
432.2958, 207.7616
432.7779, 208.1792
433.2600, 208.8260
433.7422, 209.3723
434.2243, 209.7386
434.7064, 210.0930
435.1885, 210.3917
435.6706, 210.7153
436.1527, 211.1404
436.6349, 211.6911
437.1170, 212.3495
437.5991, 213.1097
438.0812, 214.0094
438.5633, 214.8665
439.0454, 215.5821
439.5276, 216.3412
440.0097, 217.1902
440.4918, 218.1394
440.9739, 219.2146
441.4560, 220.4417
441.9381, 221.7847
442.4203, 223.2235
442.9024, 224.9153
443.3845, 226.2638
443.8666, 226.6786
444.3487, 226.9233
444.8308, 227.6609
445.3130, 229.0028
445.7951, 230.4711
446.2772, 231.6993
446.7593, 232.7199
447.2414, 233.6719
447.7235, 234.5367
448.2057, 235.3979
448.6878, 236.3261
449.1699, 237.3035
449.6520, 238.2747
450.1341, 239.2105
450.6162, 240.1527
451.0984, 241.1028
451.5805, 242.0761
452.0626, 243.1950
452.5447, 244.5594
453.0268, 246.0248
453.5089, 247.2589
453.9911, 248.1772
454.4732, 249.2968
454.9553, 250.7143
455.4374, 252.4004
455.9195, 254.5614
456.4016, 257.1218
456.8838, 259.3231
457.3659, 260.4710
457.8480, 260.6466
458.3301, 261.4141
458.8122, 263.2583
459.2943, 265.0222
459.7765, 266.2813
460.2586, 267.3560
460.7407, 268.7686
461.2228, 270.6634
461.7049, 272.6407
462.1870, 274.1014
462.6692, 274.9054
463.1513, 275.6180
463.6334, 276.0391
464.1155, 276.5678
464.5976, 277.6079
465.0797, 278.8862
465.5619, 279.7628
466.0440, 279.7720
466.5261, 279.2952
467.0082, 279.4496
467.4903, 280.5311
467.9724, 281.4389
468.4546, 281.9630
468.9367, 282.1674
469.4188, 282.0324
469.9009, 281.5689
470.3830, 280.9125
470.8651, 280.1718
471.3473, 279.3203
471.8294, 278.2416
472.3115, 276.8869
472.7936, 275.4299
473.2757, 273.9639
473.7578, 272.4832
474.2400, 270.9897
474.7221, 269.5110
475.2042, 267.9742
475.6863, 266.3594
476.1684, 264.6459
476.6505, 262.7784
477.1327, 260.7218
477.6148, 258.5534
478.0969, 256.2968
478.5790, 253.9358
479.0611, 251.7358
479.5432, 249.7197
480.0254, 247.8750
480.5075, 246.2928
480.9896, 244.8784
481.4717, 243.3957
481.9538, 241.7145
482.4359, 239.8780
482.9181, 238.0015
483.4002, 235.8542
483.8823, 234.0101
484.3644, 232.6909
484.8465, 231.4983
485.3286, 230.1561
485.8108, 228.6447
486.2929, 227.0735
486.7750, 225.4802
487.2571, 223.9097
487.7392, 222.7283
488.2213, 222.0984
488.7035, 221.6109
489.1856, 221.3939
489.6677, 221.1155
490.1498, 220.3655
490.6319, 219.0433
491.1140, 217.5793
491.5962, 216.3846
492.0783, 215.4306
492.5604, 214.5001
493.0425, 213.5019
493.5246, 212.6666
494.0067, 212.3189
494.4889, 212.2553
494.9710, 212.0153
495.4531, 211.3873
495.9352, 210.6786
496.4173, 210.0839
496.8994, 209.6052
497.3816, 209.3035
497.8637, 209.2632
498.3458, 209.2037
498.8279, 208.6797
499.3100, 207.5765
499.7921, 206.5725
500.2743, 205.6660
500.7564, 204.9078
501.2385, 204.4125
501.7206, 204.1032
502.2027, 203.8084
502.6848, 203.4419
503.1670, 202.9691
503.6491, 202.2917
504.1312, 201.3481
504.6133, 200.2732
505.0954, 199.0574
505.5775, 197.7389
506.0597, 196.2339
506.5418, 194.6191
507.0239, 193.1899
507.5060, 192.2767
507.9881, 191.6982
508.4702, 190.5289
508.9524, 188.4919
509.4345, 186.4918
509.9166, 184.9266
510.3987, 183.4837
510.8808, 181.8453
511.3629, 179.9585
511.8451, 178.1763
512.3271, 177.0206
512.8093, 176.1732
513.2914, 174.5847
513.7735, 171.9995
514.2556, 169.5414
514.7377, 168.0583
515.2198, 167.3312
515.7020, 166.4899
516.1841, 165.5575
516.6662, 164.4471
517.1483, 163.0186
517.6304, 161.4148
518.1125, 159.7912
518.5947, 158.1924
519.0768, 156.8079
519.5589, 155.8840
520.0410, 155.4901
520.5231, 154.8521
521.0052, 153.6559
521.4874, 152.6072
521.9695, 152.0582
522.4516, 151.7456
522.9337, 151.3142
523.4158, 150.6273
523.8979, 149.7673
524.3801, 148.7995
524.8622, 147.6745
525.3443, 146.7270
525.8264, 146.0753
526.3085, 145.4922
526.7906, 144.8519
527.2728, 144.2116
527.7549, 143.6947
528.2370, 143.3827
528.7191, 143.1418
529.2012, 142.7568
529.6833, 142.2457
530.1655, 141.9001
530.6476, 141.8401
531.1297, 141.8877
531.6118, 141.9532
532.0939, 142.0156
532.5760, 141.7606
533.0582, 140.7887
533.5403, 139.7646
534.0224, 139.2305
534.5045, 139.0786
534.9866, 138.9079
535.4688, 138.5285
535.9509, 138.1525
536.4330, 138.2119
536.9151, 139.0630
537.3972, 139.4910
537.8793, 139.2386
538.3615, 138.8433
538.8436, 138.4529
539.3257, 138.1701
539.8078, 138.1857
540.2899, 138.6358
540.7720, 139.2816
541.2542, 139.5508
541.7363, 139.3269
542.2184, 139.1108
542.7005, 138.9583
543.1826, 138.8503
543.6647, 138.7064
544.1469, 138.5811
544.6290, 138.6740
545.1111, 139.1549
545.5932, 139.8592
546.0753, 140.6425
546.5574, 141.4914
547.0396, 142.0324
547.5217, 141.9365
548.0038, 141.7153
548.4859, 142.2890
548.9680, 143.7156
549.4501, 145.0051
549.9323, 145.9609
550.4144, 146.7304
550.8965, 147.3222
551.3786, 147.8155
551.8607, 148.4553
552.3428, 149.3911
552.8250, 150.4573
553.3071, 151.2280
553.7892, 151.4565
554.2713, 151.8405
554.7534, 152.4574
555.2355, 153.1411
555.7177, 153.7860
556.1998, 154.4163
556.6819, 155.1299
557.1640, 155.9978
557.6461, 156.9476
558.1282, 157.8206
558.6104, 158.6162
559.0925, 159.3388
559.5746, 159.8550
560.0567, 160.4401
560.5388, 161.3627
561.0209, 162.5803
561.5031, 163.8162
561.9852, 165.1170
562.4673, 166.2709
562.9494, 166.8768
563.4315, 167.0755
563.9136, 167.5738
564.3958, 168.7008
564.8779, 170.1557
565.3600, 171.4592
565.8421, 172.6173
566.3242, 173.5361
566.8063, 174.2616
567.2885, 174.7143
567.7706, 174.8010
568.2527, 174.5845
568.7348, 174.1481
569.2169, 173.5251
569.6990, 172.8327
570.1812, 172.3202
570.6633, 172.0561
571.1454, 171.6980
571.6275, 171.0896
572.1096, 170.5162
572.5917, 170.2422
573.0739, 170.1066
573.5560, 169.6888
574.0381, 168.6363
574.5202, 167.5820
575.0023, 167.3709
575.4844, 167.8487
575.9666, 168.1357
576.4487, 167.9808
576.9308, 167.6951
577.4129, 167.5121
577.8950, 167.4478
578.3771, 167.7969
578.8593, 168.9681
579.3414, 170.1196
579.8235, 170.8295
580.3056, 171.2836
580.7877, 171.7717
581.2698, 172.3907
581.7520, 173.0854
582.2341, 173.7886
582.7162, 174.5050
583.1984, 175.2274
583.6805, 175.7789
584.1626, 176.5696
584.6447, 177.8026
585.1268, 179.2885
585.6089, 180.8247
