##NAMES=Manjiroite
##RRUFFID=R060379
##IDEAL CHEMISTRY=Na(Mn^4+^_7_Mn^3+^)O_16_
##LOCALITY=Wessels mine, Kalahari Manganese Field, South Africa
##OWNER=RRUFF
##SOURCE=Michael Scott
##DESCRIPTION=Steel gray bed of parallel fibers
##STATUS=The identification of this mineral has been confirmed by X-ray diffraction and chemical analysis
##URL=rruff.info/R060379
##MEASURED CHEMISTRY=(Na_0.60_K_0.28_Ca_0.12_)_Σ=1_(Mn^4+^_7.40_Mn^2+^_0.44_Mg_0.11_Si_0.03_Al_0.02_)_Σ=8_O_16_·2H_2_O
89.01367, 284.1866
89.49579, 284.6059
89.97791, 284.6651
90.46002, 283.5938
90.94214, 283.7297
91.42426, 289.9806
91.90637, 301.3140
92.38849, 309.5143
92.87061, 306.1563
93.35272, 294.7056
93.83484, 284.6432
94.31696, 278.3963
94.79907, 274.8580
95.28119, 272.4056
95.76331, 271.4967
96.24542, 269.8527
96.72754, 264.2457
97.20966, 254.7892
97.69177, 246.4460
98.17389, 240.2767
98.65601, 236.2059
99.13812, 235.1682
99.62024, 238.0527
100.1024, 241.9798
100.5845, 242.7081
101.0666, 239.7340
101.5487, 235.8871
102.0308, 231.9649
102.5129, 227.7773
102.9951, 224.4158
103.4772, 221.8299
103.9593, 220.0532
104.4414, 219.1073
104.9235, 218.4303
105.4056, 219.2319
105.8878, 222.0654
106.3699, 227.4328
106.8520, 233.8813
107.3341, 243.6443
107.8162, 255.3330
108.2983, 260.9762
108.7805, 256.7942
109.2626, 249.6439
109.7447, 243.2234
110.2268, 237.2115
110.7089, 232.2625
111.1910, 228.4269
111.6732, 225.6758
112.1553, 224.0107
112.6374, 223.8389
113.1195, 224.5018
113.6016, 225.4715
114.0837, 225.7237
114.5659, 227.0772
115.0480, 230.9053
115.5301, 237.6013
116.0122, 242.9258
116.4943, 244.4278
116.9764, 244.0129
117.4586, 244.0925
117.9407, 247.1811
118.4228, 249.9031
118.9049, 249.8776
119.3870, 246.3880
119.8691, 242.3469
120.3513, 238.8624
120.8334, 236.1121
121.3155, 234.5135
121.7976, 233.8651
122.2797, 234.6369
122.7618, 237.9086
123.2440, 244.8955
123.7261, 251.7970
124.2082, 255.1901
124.6903, 255.4259
125.1724, 253.7285
125.6545, 249.4036
126.1367, 243.8467
126.6188, 239.6778
127.1009, 237.7208
127.5830, 237.0068
128.0651, 236.0091
128.5472, 234.7715
129.0294, 234.1292
129.5115, 235.2300
129.9936, 237.6327
130.4757, 239.5853
130.9578, 240.6659
131.4399, 241.0048
131.9221, 240.9640
132.4042, 240.5569
132.8863, 239.6482
133.3684, 237.7435
133.8505, 234.8664
134.3326, 232.4712
134.8148, 231.0935
135.2969, 230.6121
135.7790, 230.1839
136.2611, 229.7875
136.7432, 229.4928
137.2253, 229.2112
137.7075, 228.7973
138.1896, 229.1320
138.6717, 230.6049
139.1538, 233.2631
139.6359, 236.4900
140.1180, 241.1113
140.6002, 245.4432
141.0823, 246.4655
141.5644, 243.0058
142.0465, 238.8792
142.5286, 235.3221
143.0107, 232.3974
143.4929, 229.9459
143.9750, 228.0152
144.4571, 226.5499
144.9392, 225.4849
145.4213, 224.7444
145.9034, 224.4772
146.3856, 224.7854
146.8677, 226.1142
147.3498, 227.2877
147.8319, 228.6089
148.3140, 229.8231
148.7961, 230.0559
149.2783, 228.2252
149.7604, 226.2825
150.2425, 225.0666
150.7246, 224.9976
151.2067, 225.1620
151.6888, 225.7749
152.1710, 226.6966
152.6531, 227.2426
153.1352, 226.8336
153.6173, 226.3756
154.0994, 226.3616
154.5815, 226.8843
155.0637, 227.8110
155.5458, 229.9371
156.0279, 232.9323
156.5100, 234.1498
156.9921, 231.4760
157.4742, 227.6398
157.9564, 224.6124
158.4385, 223.2718
158.9206, 222.3872
159.4027, 221.6109
159.8848, 220.9473
160.3669, 220.6084
160.8491, 220.8219
161.3312, 221.3305
161.8133, 221.9017
162.2954, 222.3510
162.7775, 222.9321
163.2596, 224.0041
163.7418, 225.5757
164.2239, 226.6509
164.7060, 226.4718
165.1881, 225.5731
165.6702, 224.6234
166.1523, 223.7482
166.6345, 222.9845
167.1166, 222.3723
167.5987, 221.9118
168.0808, 221.5610
168.5629, 221.3332
169.0450, 221.1942
169.5272, 221.0911
170.0093, 220.5462
170.4914, 220.2825
170.9735, 221.4114
171.4556, 224.2136
171.9377, 226.5166
172.4199, 226.0608
172.9020, 223.7511
173.3841, 221.6497
173.8662, 220.7179
174.3483, 220.5209
174.8304, 220.6958
175.3126, 221.2958
175.7947, 221.7987
176.2768, 221.6102
176.7589, 220.8814
177.2410, 220.0826
177.7231, 219.2318
178.2053, 218.5232
178.6874, 218.4404
179.1695, 219.1656
179.6516, 219.9919
180.1337, 220.0494
180.6158, 219.4537
181.0980, 218.7546
181.5801, 218.1681
182.0622, 217.7153
182.5443, 217.4268
183.0264, 217.3228
183.5085, 217.3440
183.9907, 217.3975
184.4728, 217.4913
184.9549, 217.6939
185.4370, 218.0831
185.9191, 218.6219
186.4012, 219.2658
186.8834, 220.1223
187.3655, 220.8375
187.8476, 220.6370
188.3297, 219.5396
188.8118, 218.3557
189.2939, 217.6082
189.7761, 217.2341
190.2582, 216.8746
190.7403, 216.4956
191.2224, 216.1002
191.7045, 215.6617
192.1866, 215.1754
192.6688, 214.7851
193.1509, 214.5475
193.6330, 214.4685
194.1151, 214.7331
194.5972, 215.5208
195.0793, 216.4867
195.5615, 216.6906
196.0436, 216.0398
196.5257, 215.3266
197.0078, 215.1611
197.4899, 215.5648
197.9720, 215.7519
198.4542, 215.6039
198.9363, 215.2059
199.4184, 214.6990
199.9005, 214.0123
200.3826, 213.5241
200.8647, 213.5842
201.3469, 214.2571
201.8290, 214.8426
202.3111, 215.2689
202.7932, 215.5433
203.2753, 215.7042
203.7574, 215.7802
204.2396, 215.6432
204.7217, 215.0900
205.2038, 214.0054
205.6859, 213.2031
206.1680, 212.8257
206.6501, 212.7840
207.1323, 212.7329
207.6144, 212.6597
208.0965, 212.6129
208.5786, 212.6642
209.0607, 212.8703
209.5428, 212.9227
210.0250, 212.7449
210.5071, 212.3994
210.9892, 212.1328
211.4713, 211.9692
211.9534, 211.8357
212.4355, 211.6725
212.9176, 211.4528
213.3998, 211.2821
213.8819, 211.1496
214.3640, 211.0699
214.8461, 211.1699
215.3282, 211.5769
215.8103, 211.9174
216.2925, 211.8374
216.7746, 211.0020
217.2567, 210.7804
217.7388, 211.6212
218.2209, 213.1995
218.7030, 213.7867
219.1852, 212.9787
219.6673, 211.8920
220.1494, 211.2481
220.6315, 211.2017
221.1136, 211.1988
221.5957, 211.2427
222.0779, 211.3022
222.5600, 211.2154
223.0421, 210.9240
223.5242, 210.5857
224.0063, 210.2536
224.4884, 209.8064
224.9706, 209.6894
225.4527, 210.0913
225.9348, 210.8451
226.4169, 211.2841
226.8990, 211.3853
227.3811, 211.1905
227.8633, 210.6227
228.3454, 209.2952
228.8275, 208.5297
229.3096, 208.6065
229.7917, 209.3064
230.2738, 209.7772
230.7560, 209.9684
231.2381, 210.0068
231.7202, 209.9426
232.2023, 209.7253
232.6844, 209.5206
233.1665, 209.2844
233.6487, 209.0710
234.1308, 209.1028
234.6129, 209.6138
235.0950, 210.0352
235.5771, 210.0290
236.0592, 209.2388
236.5414, 208.8228
237.0235, 208.9493
237.5056, 209.4419
237.9877, 209.7793
238.4698, 209.9586
238.9520, 209.9764
239.4341, 209.7759
239.9162, 209.0975
240.3983, 208.8039
240.8804, 209.0836
241.3625, 209.6929
241.8447, 210.0247
242.3268, 210.0209
242.8089, 209.8162
243.2910, 209.4151
243.7731, 208.6221
244.2552, 208.1409
244.7374, 208.0668
245.2195, 208.2696
245.7016, 208.4619
246.1837, 208.6063
246.6658, 208.8153
247.1479, 209.2219
247.6301, 210.0858
248.1122, 210.2800
248.5943, 209.4796
249.0764, 208.1994
249.5585, 207.3916
250.0406, 207.2312
250.5228, 207.2463
251.0049, 207.3066
251.4870, 207.4375
251.9691, 207.5084
252.4512, 207.4966
252.9333, 207.4419
253.4155, 207.3996
253.8976, 207.3537
254.3797, 207.3464
254.8618, 207.3965
255.3439, 207.5108
255.8260, 207.6180
256.3082, 207.7350
256.7903, 207.8196
257.2724, 207.8064
257.7545, 207.6553
258.2366, 207.4821
258.7188, 207.2657
259.2009, 206.9892
259.6830, 207.0217
260.1651, 207.5659
260.6472, 208.1687
261.1293, 208.2640
261.6115, 207.6576
262.0936, 207.0602
262.5757, 206.6030
263.0578, 206.2852
263.5399, 206.2044
264.0220, 206.4198
264.5042, 206.7826
264.9863, 207.2297
265.4684, 207.8880
265.9505, 208.1834
266.4326, 207.8704
266.9147, 207.0382
267.3969, 206.5815
267.8790, 206.5928
268.3611, 206.7831
268.8432, 206.9509
269.3253, 207.1202
269.8074, 207.1292
270.2896, 206.8855
270.7717, 206.4598
271.2538, 206.1868
271.7359, 206.0748
272.2180, 206.0964
272.7001, 206.3252
273.1823, 206.8391
273.6644, 206.9943
274.1465, 206.5488
274.6286, 205.7958
275.1107, 205.7170
275.5928, 206.4742
276.0750, 207.2825
276.5571, 207.6647
277.0392, 207.6040
277.5213, 207.3568
278.0034, 206.8900
278.4855, 206.3140
278.9677, 205.8567
279.4498, 205.5116
279.9319, 205.3296
280.4140, 205.4354
280.8961, 205.8221
281.3782, 205.9663
281.8604, 205.7939
282.3425, 205.4797
282.8246, 205.3298
283.3067, 205.3530
283.7888, 205.3536
284.2709, 205.2294
284.7531, 204.9934
285.2352, 204.7407
285.7173, 204.4514
286.1994, 204.2128
286.6815, 204.1805
287.1636, 204.3439
287.6458, 204.5000
288.1279, 204.5526
288.6100, 204.5311
289.0921, 204.5601
289.5742, 204.6490
290.0563, 204.7197
290.5385, 204.7117
291.0206, 204.6198
291.5027, 204.4018
291.9848, 203.9692
292.4669, 203.4375
292.9490, 203.0840
293.4312, 202.9132
293.9133, 202.8303
294.3954, 202.7839
294.8775, 202.7640
295.3596, 202.7518
295.8417, 202.8053
296.3239, 202.7957
296.8060, 202.4267
297.2881, 201.7307
297.7702, 201.0689
298.2523, 200.7416
298.7344, 200.6346
299.2166, 200.4849
299.6987, 200.1932
300.1808, 199.9486
300.6629, 200.1094
301.1450, 200.5678
301.6271, 200.8716
302.1093, 200.6703
302.5914, 200.1614
303.0735, 199.5526
303.5556, 198.7986
304.0377, 198.2263
304.5198, 198.3042
305.0020, 198.8109
305.4841, 199.2107
305.9662, 199.1635
306.4483, 198.8981
306.9304, 198.5916
307.4125, 198.2406
307.8947, 197.9901
308.3768, 197.9972
308.8589, 198.1638
309.3410, 198.3396
309.8231, 198.5738
310.3052, 198.7097
310.7874, 198.5898
311.2695, 198.2135
311.7516, 197.8186
312.2337, 197.4941
312.7158, 197.2375
313.1979, 197.0509
313.6801, 197.1218
314.1622, 197.0997
314.6443, 196.6862
315.1264, 195.9670
315.6085, 195.4441
316.0906, 195.5138
316.5728, 195.7680
317.0549, 195.9131
317.5370, 195.8510
318.0191, 195.7220
318.5012, 195.5616
318.9833, 195.3670
319.4655, 195.1304
319.9476, 194.9155
320.4297, 194.6077
320.9118, 194.0715
321.3939, 192.9987
321.8760, 192.3597
322.3582, 192.7506
322.8403, 193.6242
323.3224, 194.0678
323.8045, 193.4453
324.2866, 192.8164
324.7687, 192.5261
325.2509, 192.6831
325.7330, 192.8029
326.2151, 192.7862
326.6972, 192.7487
327.1793, 192.8157
327.6614, 193.3329
328.1436, 193.5719
328.6257, 193.2825
329.1078, 192.4468
329.5899, 191.9318
330.0720, 191.9264
330.5541, 192.0880
331.0363, 192.1926
331.5184, 192.3132
332.0005, 192.2275
332.4826, 191.7402
332.9647, 191.0024
333.4468, 190.8270
333.9290, 191.6335
334.4111, 192.3470
334.8932, 192.2822
335.3753, 191.0076
335.8574, 190.3100
336.3395, 190.4101
336.8216, 190.9829
337.3037, 191.3999
337.7859, 191.6502
338.2680, 191.7696
338.7501, 191.7535
339.2322, 191.5976
339.7143, 191.3864
340.1964, 191.0979
340.6786, 190.8105
341.1607, 190.6712
341.6428, 190.6956
342.1249, 190.6181
342.6070, 190.2971
343.0891, 189.8120
343.5713, 189.5430
344.0534, 189.5155
344.5355, 189.5383
345.0176, 189.3782
345.4997, 189.0821
345.9818, 188.9936
346.4640, 189.2696
346.9461, 189.6809
347.4282, 189.7346
347.9103, 189.4582
348.3924, 189.1819
348.8745, 189.1330
349.3567, 189.2501
349.8388, 189.4315
350.3209, 189.7100
350.8030, 189.8927
351.2851, 189.7273
351.7672, 189.2753
352.2494, 188.7231
352.7315, 188.0222
353.2136, 187.3382
353.6957, 186.8643
354.1778, 186.6051
354.6599, 186.5229
355.1421, 186.6647
355.6242, 186.9481
356.1063, 187.2495
356.5884, 187.7969
357.0705, 188.1231
357.5526, 187.6737
358.0348, 186.5912
358.5169, 185.7520
358.9990, 185.8711
359.4811, 186.3022
359.9632, 186.4833
360.4453, 186.1583
360.9275, 185.7912
361.4096, 185.5549
361.8917, 185.4092
362.3738, 185.2641
362.8559, 185.0396
363.3380, 184.8465
363.8202, 184.7710
364.3023, 184.8953
364.7844, 184.8819
365.2665, 184.5422
365.7486, 184.0772
366.2307, 183.7285
366.7129, 183.7058
367.1950, 183.6176
367.6771, 183.3188
368.1592, 182.8000
368.6413, 182.4604
369.1234, 182.4790
369.6056, 182.5451
370.0877, 182.4472
370.5698, 182.0842
371.0519, 181.7272
371.5340, 181.3358
372.0161, 180.9655
372.4983, 180.8367
372.9804, 181.0842
373.4625, 181.3276
373.9446, 181.3472
374.4267, 181.0368
374.9088, 180.9981
375.3910, 181.3829
375.8731, 181.8410
376.3552, 181.7127
376.8373, 180.8623
377.3194, 180.2482
377.8015, 180.3311
378.2837, 180.9685
378.7658, 181.0535
379.2479, 180.5099
379.7300, 179.8021
380.2121, 179.3707
380.6942, 179.1854
381.1764, 178.9636
381.6585, 178.6207
382.1406, 178.2507
382.6227, 178.0424
383.1048, 177.9847
383.5869, 177.9921
384.0691, 178.0365
384.5512, 178.1012
385.0333, 178.1561
385.5154, 178.2001
385.9975, 178.2239
386.4796, 178.2847
386.9618, 178.3213
387.4439, 178.1918
387.9260, 177.6639
388.4081, 177.0565
388.8902, 176.6712
389.3723, 176.5055
389.8545, 176.3734
390.3366, 176.2518
390.8187, 176.0682
391.3008, 175.7288
391.7829, 175.0255
392.2650, 174.4201
392.7472, 174.1303
393.2293, 174.0992
393.7114, 174.1591
394.1935, 174.3437
394.6756, 174.5337
395.1577, 174.6967
395.6399, 174.8763
396.1220, 174.8745
396.6041, 174.4431
397.0862, 173.8780
397.5683, 173.5435
398.0504, 173.6489
398.5326, 173.8007
399.0147, 174.0074
399.4968, 174.2660
399.9789, 174.2239
400.4610, 173.5557
400.9431, 172.9001
401.4253, 172.6869
401.9074, 173.1616
402.3895, 173.5599
402.8716, 173.9048
403.3537, 174.1173
403.8358, 173.9414
404.3180, 173.2339
404.8001, 172.5676
405.2822, 172.1798
405.7643, 172.0781
406.2464, 172.0860
406.7285, 172.2549
407.2107, 172.3977
407.6928, 172.2788
408.1749, 171.9028
408.6570, 171.4395
409.1391, 170.8179
409.6212, 170.2359
410.1034, 170.2951
410.5855, 170.9784
411.0676, 171.6769
411.5497, 171.9867
412.0318, 171.9897
412.5139, 171.8433
412.9961, 171.5331
413.4782, 171.2099
413.9603, 171.0162
414.4424, 170.9330
414.9245, 170.9235
415.4066, 171.0593
415.8888, 171.1958
416.3709, 171.2049
416.8530, 171.0827
417.3351, 170.8823
417.8172, 170.3838
418.2993, 169.9349
418.7815, 169.8951
419.2636, 170.8206
419.7457, 171.5491
420.2278, 171.4893
420.7099, 170.8866
421.1920, 170.3596
421.6742, 170.1003
422.1563, 169.9204
422.6384, 169.7018
423.1205, 169.3484
423.6026, 169.2859
424.0847, 169.9464
424.5669, 170.7258
425.0490, 171.0286
425.5311, 170.6000
426.0132, 170.0564
426.4953, 169.3527
426.9774, 168.5642
427.4596, 168.2173
427.9417, 168.5136
428.4238, 168.9020
428.9059, 169.0857
429.3880, 169.0253
429.8701, 168.9191
430.3523, 168.7241
430.8344, 168.5594
431.3165, 168.6876
431.7986, 169.1362
432.2807, 169.4417
432.7628, 169.3232
433.2450, 168.9647
433.7271, 169.1564
434.2092, 169.9222
434.6913, 170.5531
435.1734, 170.1951
435.6555, 169.2254
436.1377, 168.7563
436.6198, 169.1194
437.1019, 169.6890
437.5840, 169.7161
438.0661, 169.3621
438.5482, 169.0771
439.0304, 169.0827
439.5125, 169.2658
439.9946, 169.5728
440.4767, 170.0007
440.9588, 170.3896
441.4409, 170.7527
441.9231, 170.9875
442.4052, 170.9854
442.8873, 170.4207
443.3694, 169.9673
443.8515, 169.8750
444.3336, 170.0581
444.8158, 170.2728
445.2979, 170.5235
445.7800, 170.7585
446.2621, 170.9816
446.7442, 171.2389
447.2263, 171.3364
447.7085, 171.2102
448.1906, 170.9773
448.6727, 170.7467
449.1548, 170.5344
449.6369, 170.2888
450.1190, 169.9218
450.6012, 169.5234
451.0833, 169.5246
451.5654, 170.0541
452.0475, 170.5903
452.5296, 170.8026
453.0117, 170.6831
453.4939, 170.7409
453.9760, 171.0044
454.4581, 171.3766
454.9402, 171.8223
455.4223, 172.3046
455.9044, 172.5943
456.3866, 172.5064
456.8687, 172.2688
457.3508, 172.2829
457.8329, 172.5251
458.3150, 172.8167
458.7971, 173.0869
459.2793, 173.3209
459.7614, 173.5453
460.2435, 173.8072
460.7256, 173.8613
461.2077, 173.1877
461.6898, 172.2746
462.1720, 171.8293
462.6541, 172.5736
463.1362, 173.4210
463.6183, 173.9524
464.1004, 174.1664
464.5826, 174.2486
465.0647, 174.1008
465.5468, 173.9374
466.0289, 173.8762
466.5110, 173.9568
466.9931, 174.0828
467.4753, 174.2432
467.9574, 174.4496
468.4395, 174.7459
468.9216, 175.2950
469.4037, 175.6282
469.8858, 175.5476
470.3680, 175.1163
470.8501, 174.9586
471.3322, 175.1209
471.8143, 175.4252
472.2964, 175.8632
472.7785, 176.4370
473.2607, 176.6179
473.7428, 176.2859
474.2249, 175.7740
474.7070, 175.5867
475.1891, 175.6792
475.6712, 175.7482
476.1534, 175.5352
476.6355, 175.3120
477.1176, 175.6806
477.5997, 176.5708
478.0818, 177.3330
478.5639, 177.3622
479.0461, 177.0686
479.5282, 176.9085
480.0103, 176.9426
480.4924, 177.1778
480.9745, 177.8477
481.4566, 178.6673
481.9388, 179.2172
482.4209, 178.7953
482.9030, 178.6213
483.3851, 179.4866
483.8672, 181.2716
484.3493, 182.3029
484.8315, 181.6259
485.3136, 180.6971
485.7957, 180.2738
486.2778, 180.7131
486.7599, 180.8745
487.2420, 180.6192
487.7242, 180.1868
488.2063, 179.8939
488.6884, 179.7443
489.1705, 179.7239
489.6526, 179.8279
490.1347, 180.0575
490.6169, 180.5260
491.0990, 181.2959
491.5811, 181.8785
492.0632, 181.7470
492.5453, 181.0964
493.0274, 180.8795
493.5096, 181.2295
493.9917, 181.7043
494.4738, 181.8323
494.9559, 181.6924
495.4380, 181.4817
495.9201, 181.2151
496.4023, 180.9673
496.8844, 180.7858
497.3665, 180.6805
497.8486, 180.6856
498.3307, 180.8391
498.8128, 181.0986
499.2950, 181.5031
499.7771, 182.1479
500.2592, 182.5310
500.7413, 182.1170
501.2234, 181.5439
501.7055, 181.4544
502.1877, 182.7344
502.6698, 183.5266
503.1519, 183.3272
503.6340, 182.4725
504.1161, 182.1562
504.5982, 182.6381
505.0804, 183.2110
505.5625, 183.6297
506.0446, 183.8963
506.5267, 183.9297
507.0088, 183.6315
507.4909, 183.3656
507.9731, 183.6438
508.4552, 184.4125
508.9373, 184.7790
509.4194, 184.4237
509.9015, 183.8826
510.3836, 184.1573
510.8658, 185.0986
511.3479, 185.9817
511.8300, 186.4128
512.3121, 186.5946
512.7943, 186.7170
513.2764, 186.7912
513.7585, 186.9076
514.2406, 187.2107
514.7227, 187.5403
515.2048, 187.7467
515.6870, 187.7928
516.1691, 187.7347
516.6512, 187.4363
517.1333, 187.0775
517.6154, 186.9520
518.0975, 187.3030
518.5797, 187.6829
519.0618, 187.9571
519.5439, 188.1399
520.0260, 188.5171
520.5081, 189.2213
520.9902, 189.9221
521.4724, 190.4362
521.9545, 190.7516
522.4366, 190.9081
522.9187, 190.8261
523.4008, 190.7549
523.8829, 191.1436
524.3651, 191.9526
524.8472, 192.4904
525.3293, 192.4673
525.8114, 192.1857
526.2935, 192.1394
526.7756, 192.3173
527.2578, 192.6395
527.7399, 193.1808
528.2220, 193.7786
528.7041, 194.2436
529.1862, 194.5596
529.6683, 194.8497
530.1505, 195.1407
530.6326, 195.4660
531.1147, 195.8564
531.5968, 196.2775
532.0789, 196.8172
532.5610, 197.6608
533.0432, 198.6236
533.5253, 199.2914
534.0074, 199.2804
534.4895, 199.3879
534.9716, 199.8171
535.4537, 200.5574
535.9359, 201.3552
536.4180, 202.3669
536.9001, 203.1286
537.3822, 203.1636
537.8643, 202.3795
538.3464, 202.1965
538.8286, 202.7980
539.3107, 203.7121
539.7928, 204.2570
540.2749, 204.5314
540.7570, 205.1464
541.2391, 206.5111
541.7213, 208.0532
542.2034, 208.8613
542.6855, 209.0786
543.1676, 209.3102
543.6497, 209.8920
544.1318, 210.6376
544.6140, 211.3551
545.0961, 212.0168
545.5782, 212.8815
546.0603, 214.4589
546.5424, 216.0695
547.0245, 217.1328
547.5067, 216.9306
547.9888, 217.0501
548.4709, 217.8293
548.9530, 218.9312
549.4351, 219.7757
549.9172, 220.2006
550.3994, 220.6926
550.8815, 221.4294
551.3636, 222.3451
551.8457, 222.8994
552.3278, 223.0027
552.8099, 223.2039
553.2921, 224.0018
553.7742, 225.2671
554.2563, 226.2111
554.7384, 226.7736
555.2205, 227.1956
555.7026, 227.6526
556.1848, 228.1729
556.6669, 228.8321
557.1490, 229.7468
557.6311, 230.6526
558.1132, 231.2545
558.5953, 231.6861
559.0775, 232.2734
559.5596, 233.4003
560.0417, 234.4698
560.5238, 235.1911
561.0059, 235.5453
561.4880, 235.8765
561.9702, 235.9996
562.4523, 236.2930
562.9344, 236.9968
563.4165, 238.4017
563.8986, 239.4605
564.3807, 240.1089
564.8629, 240.5120
565.3450, 240.7684
565.8271, 240.8330
566.3092, 241.3030
566.7913, 242.4811
567.2734, 243.9283
567.7556, 244.6561
568.2377, 244.7294
568.7198, 244.5991
569.2019, 244.1975
569.6840, 243.8862
570.1661, 244.2664
570.6483, 245.3124
571.1304, 246.5224
571.6125, 248.0074
572.0946, 249.2512
572.5767, 249.6755
573.0588, 248.8485
573.5410, 248.1143
574.0231, 247.6532
574.5052, 247.5825
574.9873, 248.0705
575.4694, 250.0778
575.9515, 251.3496
576.4337, 251.2236
576.9158, 250.2173
577.3979, 250.1739
577.8800, 251.3792
578.3621, 252.7289
578.8442, 253.9171
579.3264, 254.8996
579.8085, 255.1001
580.2906, 254.4448
580.7727, 253.8584
581.2548, 254.3349
581.7369, 255.4648
582.2190, 256.2151
582.7011, 256.4326
583.1832, 256.4193
583.6653, 256.1396
