##NAMES=Mannardite
##RRUFFID=R080136
##IDEAL CHEMISTRY=Ba(Ti^4+^_6_V^3+^_2_)O_16_
##LOCALITY=Corinto area, Minas Gerais, Brazil
##OWNER=RRUFF
##SOURCE=Luiz Menezes
##DESCRIPTION=Black prismatic inclusion in quartz
##STATUS=The identification of this mineral is confirmed by single-crystal X-ray diffraction and chemical analysis.
##URL=rruff.info/R080136
##MEASURED CHEMISTRY=Ba_1.02_(Ti^4+^_5.97_V^3+^_1.82_Cr^3+^_0.20_)O_16_
90.52570, 0.0000000E+00
91.00781, 19.90894
91.48993, 19.29709
91.97205, 19.05304
92.45416, 19.34582
92.93628, 19.99719
93.41840, 20.71241
93.90051, 21.59837
94.38263, 22.26648
94.86475, 21.68444
95.34686, 19.86833
95.82898, 18.35517
96.31110, 18.71368
96.79321, 20.75377
97.27533, 22.47751
97.75745, 23.41789
98.23956, 23.69589
98.72168, 23.48865
99.20380, 22.53897
99.68591, 21.91293
100.1680, 23.05983
100.6501, 26.36717
101.1323, 29.49236
101.6144, 31.60032
102.0965, 32.56569
102.5786, 34.05519
103.0607, 36.22319
103.5428, 38.78921
104.0250, 41.34761
104.5071, 43.82670
104.9892, 46.38125
105.4713, 49.03710
105.9534, 51.75204
106.4355, 54.63753
106.9177, 57.61019
107.3998, 60.74593
107.8819, 64.40433
108.3640, 68.79568
108.8461, 73.49780
109.3282, 78.38526
109.8104, 84.04680
110.2925, 89.11241
110.7746, 93.30868
111.2567, 96.70585
111.7388, 100.0229
112.2209, 102.8163
112.7031, 105.7895
113.1852, 109.4647
113.6673, 114.6228
114.1494, 119.8113
114.6315, 124.4183
115.1136, 128.4307
115.5958, 133.1264
116.0779, 139.3768
116.5600, 146.3871
117.0421, 153.2366
117.5242, 159.8875
118.0063, 166.1690
118.4885, 171.6817
118.9706, 176.0924
119.4527, 181.4047
119.9348, 189.6499
120.4169, 199.5087
120.8990, 208.6987
121.3812, 215.6212
121.8633, 221.5051
122.3454, 227.6778
122.8275, 234.8925
123.3096, 241.1445
123.7917, 244.0065
124.2739, 244.1740
124.7560, 244.2000
125.2381, 245.5861
125.7202, 247.9434
126.2023, 250.6101
126.6844, 253.5204
127.1666, 256.6058
127.6487, 259.6730
128.1308, 262.7575
128.6129, 266.1612
129.0950, 270.6588
129.5771, 275.8422
130.0593, 280.2000
130.5414, 282.8319
131.0235, 284.4970
131.5056, 286.7561
131.9877, 288.5771
132.4698, 289.6518
132.9520, 291.1931
133.4341, 293.1911
133.9162, 295.5552
134.3983, 298.4718
134.8804, 301.8106
135.3625, 304.4535
135.8447, 306.2014
136.3268, 307.8213
136.8089, 310.3757
137.2910, 313.9308
137.7731, 318.0299
138.2552, 323.2747
138.7374, 330.1610
139.2195, 333.8212
139.7016, 333.6885
140.1837, 331.0103
140.6658, 328.0534
141.1479, 324.3203
141.6301, 321.3326
142.1122, 319.9239
142.5943, 320.7715
143.0764, 321.2375
143.5585, 320.9776
144.0406, 320.3076
144.5228, 320.4420
145.0049, 322.0393
145.4870, 323.6102
145.9691, 324.3693
146.4512, 324.3643
146.9333, 323.4652
147.4155, 321.0204
147.8976, 317.3023
148.3797, 315.0964
148.8618, 315.0070
149.3439, 315.9541
149.8260, 317.2332
150.3082, 319.7479
150.7903, 321.6010
151.2724, 322.4966
151.7545, 322.4062
152.2366, 322.2452
152.7188, 321.3262
153.2009, 320.6851
153.6830, 321.1659
154.1651, 325.9908
154.6472, 328.8710
155.1293, 327.5965
155.6115, 321.5697
156.0936, 316.1787
156.5757, 312.4333
157.0578, 309.7202
157.5399, 307.4276
158.0220, 305.7267
158.5042, 304.1525
158.9863, 302.4768
159.4684, 300.5840
159.9505, 299.0700
160.4326, 298.4886
160.9147, 298.3547
161.3969, 297.9445
161.8790, 297.2607
162.3611, 296.0633
162.8432, 294.1442
163.3253, 291.3553
163.8074, 288.2876
164.2896, 284.8878
164.7717, 281.3918
165.2538, 278.2759
165.7359, 275.5028
166.2180, 273.3192
166.7001, 272.0938
167.1823, 272.3858
167.6644, 272.5363
168.1465, 271.1398
168.6286, 268.6951
169.1107, 266.6088
169.5928, 266.0420
170.0750, 266.0663
170.5571, 265.7912
171.0392, 265.2210
171.5213, 263.9901
172.0034, 261.1705
172.4855, 257.1495
172.9677, 253.7082
173.4498, 252.3254
173.9319, 252.1105
174.4140, 251.8299
174.8961, 251.2337
175.3782, 250.3605
175.8604, 249.0620
176.3425, 247.3906
176.8246, 245.8430
177.3067, 244.9155
177.7888, 244.3562
178.2709, 243.6723
178.7531, 242.7020
179.2352, 241.5351
179.7173, 240.2523
180.1994, 238.8524
180.6815, 237.4448
181.1636, 235.9155
181.6458, 234.4189
182.1279, 233.4910
182.6100, 233.5794
183.0921, 234.2164
183.5742, 234.4252
184.0563, 234.1857
184.5385, 233.8494
185.0206, 233.9493
185.5027, 234.3336
185.9848, 234.2605
186.4669, 233.2608
186.9490, 231.6358
187.4312, 230.2992
187.9133, 229.3207
188.3954, 228.3144
188.8775, 226.4494
189.3596, 223.8948
189.8417, 222.2428
190.3239, 222.6440
190.8060, 224.6051
191.2881, 225.5549
191.7702, 225.3604
192.2523, 224.6600
192.7344, 224.2735
193.2166, 224.2036
193.6987, 223.9394
194.1808, 223.1049
194.6629, 221.7815
195.1450, 220.9153
195.6271, 220.5798
196.1093, 220.5124
196.5914, 220.3219
197.0735, 219.9898
197.5556, 219.7496
198.0377, 219.7093
198.5198, 219.8679
199.0020, 220.0988
199.4841, 220.4197
199.9662, 220.7762
200.4483, 221.1198
200.9304, 221.4676
201.4125, 221.6917
201.8947, 221.6923
202.3768, 221.4470
202.8589, 221.2879
203.3410, 221.2824
203.8231, 221.2785
204.3052, 221.0650
204.7874, 220.6965
205.2695, 219.9076
205.7516, 218.2049
206.2337, 215.2490
206.7158, 213.8289
207.1979, 214.4017
207.6801, 216.1010
208.1622, 217.1812
208.6443, 217.5632
209.1264, 217.6051
209.6085, 217.4363
210.0906, 217.0346
210.5728, 216.5245
211.0549, 215.9165
211.5370, 215.1985
212.0191, 214.2518
212.5012, 212.8347
212.9833, 211.7673
213.4655, 211.5501
213.9476, 212.4639
214.4297, 213.1858
214.9118, 213.6831
215.3939, 213.9801
215.8760, 214.1237
216.3581, 214.0529
216.8403, 213.9496
217.3224, 213.8753
217.8045, 213.7820
218.2866, 213.8633
218.7687, 214.1684
219.2508, 214.6277
219.7330, 215.0739
220.2151, 215.5566
220.6972, 215.9204
221.1793, 216.1033
221.6614, 216.1422
222.1435, 215.8527
222.6257, 215.0321
223.1078, 213.9400
223.5899, 213.2922
224.0720, 213.2444
224.5541, 213.3957
225.0362, 213.5617
225.5184, 213.6945
226.0005, 214.0217
226.4826, 214.8541
226.9647, 215.8124
227.4468, 215.7145
227.9289, 213.8115
228.4111, 212.0148
228.8932, 211.2799
229.3753, 212.2025
229.8574, 212.7520
230.3395, 212.6594
230.8216, 212.2305
231.3038, 212.3186
231.7859, 213.0952
232.2680, 214.1358
232.7501, 215.3646
233.2322, 217.2587
233.7143, 218.2160
234.1965, 217.8703
234.6786, 216.6581
235.1607, 215.7914
235.6428, 215.4161
236.1249, 215.1666
236.6070, 214.8611
237.0892, 214.3452
237.5713, 214.1122
238.0534, 214.2248
238.5355, 214.6011
239.0176, 215.0328
239.4997, 215.5075
239.9819, 216.0655
240.4640, 216.8246
240.9461, 218.2622
241.4282, 218.7134
241.9103, 217.6200
242.3924, 215.7195
242.8746, 214.8399
243.3567, 215.5982
243.8388, 216.4433
244.3209, 216.7119
244.8030, 216.0604
245.2851, 215.7514
245.7673, 215.8512
246.2494, 216.2689
246.7315, 216.8625
247.2136, 217.8784
247.6957, 218.6810
248.1778, 218.9806
248.6600, 218.5774
249.1421, 218.2782
249.6242, 218.1517
250.1063, 218.0898
250.5884, 217.8633
251.0705, 217.3460
251.5527, 216.8717
252.0348, 216.5432
252.5169, 216.3364
252.9990, 216.3673
253.4811, 216.7433
253.9632, 217.2852
254.4454, 217.6578
254.9275, 217.7576
255.4096, 217.8924
255.8917, 218.2379
256.3738, 218.9294
256.8560, 219.1349
257.3381, 218.5490
257.8202, 217.7364
258.3023, 217.6559
258.7844, 218.7737
259.2665, 219.6015
259.7487, 219.5373
260.2308, 218.3752
260.7129, 217.8078
261.1950, 218.0862
261.6771, 218.6840
262.1592, 218.8711
262.6414, 218.4946
263.1235, 218.0788
263.6056, 217.6977
264.0877, 217.3246
264.5698, 217.4765
265.0519, 218.5415
265.5341, 219.6019
266.0162, 219.3550
266.4983, 217.1934
266.9804, 215.6221
267.4625, 215.3986
267.9446, 216.5010
268.4268, 217.4991
268.9089, 218.5571
269.3910, 219.1904
269.8731, 218.6328
270.3552, 216.4529
270.8373, 214.8843
271.3195, 214.6712
271.8016, 215.6230
272.2837, 215.5630
272.7658, 214.0971
273.2479, 212.4992
273.7300, 212.0507
274.2122, 212.9629
274.6943, 213.7091
275.1764, 213.9681
275.6585, 213.8227
276.1406, 213.6478
276.6227, 213.4008
277.1049, 213.2710
277.5870, 213.4709
278.0691, 214.0350
278.5512, 214.5568
279.0333, 215.0106
279.5154, 215.3591
279.9976, 215.4354
280.4797, 215.2014
280.9618, 214.8890
281.4439, 214.6950
281.9260, 214.6214
282.4081, 214.3595
282.8903, 213.8351
283.3724, 213.1360
283.8545, 212.3614
284.3366, 211.4780
284.8187, 210.8675
285.3008, 210.9191
285.7830, 211.5711
286.2651, 212.1211
286.7472, 212.5472
287.2293, 212.7773
287.7114, 212.4784
288.1935, 211.6561
288.6757, 211.0993
289.1578, 211.3794
289.6399, 212.3520
290.1220, 213.4343
290.6041, 214.7404
291.0862, 215.6872
291.5684, 214.9837
292.0505, 212.8282
292.5326, 211.1238
293.0147, 211.2650
293.4968, 212.5839
293.9789, 212.9651
294.4611, 212.2474
294.9432, 211.2321
295.4253, 210.7412
295.9074, 210.7232
296.3895, 210.9565
296.8716, 211.4225
297.3538, 212.0622
297.8359, 212.8905
298.3180, 213.9346
298.8001, 214.7359
299.2822, 214.7236
299.7643, 214.1239
300.2465, 213.5176
300.7286, 213.0091
301.2107, 212.6736
301.6928, 212.7125
302.1749, 213.1025
302.6570, 213.4857
303.1392, 213.5445
303.6213, 213.4076
304.1034, 213.2840
304.5855, 213.1858
305.0676, 213.1815
305.5497, 213.3574
306.0319, 213.6957
306.5140, 214.1140
306.9961, 214.6904
307.4782, 215.2610
307.9603, 215.5953
308.4424, 215.4911
308.9246, 215.4091
309.4067, 215.7837
309.8888, 216.4798
310.3709, 217.1248
310.8530, 217.4732
311.3351, 217.6991
311.8173, 217.9585
312.2994, 218.3067
312.7815, 218.6038
313.2636, 218.7048
313.7457, 218.7017
314.2278, 218.7603
314.7100, 218.8453
315.1921, 219.0944
315.6742, 219.6278
316.1563, 220.4888
316.6384, 221.4332
317.1205, 222.6702
317.6027, 223.8339
318.0848, 224.4507
318.5669, 224.0918
319.0490, 223.4085
319.5311, 222.4406
320.0132, 221.1698
320.4954, 220.3728
320.9775, 220.3979
321.4596, 220.9290
321.9417, 221.7031
322.4238, 223.2405
322.9059, 224.4182
323.3881, 224.7990
323.8702, 224.4503
324.3523, 224.2711
324.8344, 224.3549
325.3165, 224.6693
325.7986, 225.1949
326.2808, 226.6748
326.7629, 227.4936
327.2450, 227.1216
327.7271, 225.9007
328.2092, 225.1776
328.6913, 225.1868
329.1735, 225.4988
329.6556, 225.9620
330.1377, 226.6408
330.6198, 227.3603
331.1019, 228.3231
331.5840, 229.2601
332.0662, 229.6475
332.5483, 229.1270
333.0304, 228.5566
333.5125, 228.1741
333.9946, 227.9621
334.4767, 228.0455
334.9589, 228.7017
335.4410, 229.3797
335.9231, 229.2759
336.4052, 228.0042
336.8873, 226.9672
337.3694, 226.4970
337.8515, 226.5783
338.3336, 227.0014
338.8158, 227.9012
339.2979, 228.8691
339.7800, 229.5385
340.2621, 229.8692
340.7442, 230.1877
341.2263, 230.6037
341.7085, 231.0184
342.1906, 230.9416
342.6727, 230.2720
343.1548, 229.7434
343.6369, 230.1257
344.1190, 231.3239
344.6012, 231.7289
345.0833, 230.9653
345.5654, 229.7233
346.0475, 229.2634
346.5296, 229.5401
347.0117, 229.8481
347.4939, 229.6586
347.9760, 229.1884
348.4581, 229.1651
348.9402, 229.6612
349.4223, 230.3851
349.9044, 231.2290
350.3866, 232.0835
350.8687, 232.5870
351.3508, 232.4731
351.8329, 231.9773
352.3150, 231.4348
352.7971, 230.8426
353.2793, 230.1872
353.7614, 229.1942
354.2435, 228.1700
354.7256, 227.6151
355.2077, 227.7963
355.6898, 228.3407
356.1720, 229.2730
356.6541, 230.4146
357.1362, 231.0123
357.6183, 230.0370
358.1004, 228.6488
358.5826, 227.9494
359.0647, 228.3802
359.5468, 228.9028
360.0289, 229.1485
360.5110, 229.0822
360.9931, 228.6342
361.4753, 226.9736
361.9574, 225.5706
362.4395, 225.4338
362.9216, 226.9157
363.4037, 227.9473
363.8858, 227.6297
364.3680, 226.6666
364.8501, 225.7957
365.3322, 225.0037
365.8143, 224.5055
366.2964, 224.5958
366.7785, 225.2508
367.2607, 225.4193
367.7428, 224.2733
368.2249, 223.1021
368.7070, 222.7018
369.1891, 224.2209
369.6712, 224.9745
370.1534, 224.3149
370.6355, 222.8169
371.1176, 222.3219
371.5997, 223.5088
372.0818, 224.8206
372.5639, 225.6929
373.0461, 226.1091
373.5282, 226.0840
374.0103, 225.4675
374.4924, 224.5425
374.9745, 223.6660
375.4566, 222.7162
375.9388, 222.2019
376.4209, 222.4509
376.9030, 223.3951
377.3851, 223.7549
377.8672, 223.3957
378.3493, 222.9167
378.8315, 223.1851
379.3136, 224.2376
379.7957, 224.1525
380.2778, 222.1230
380.7599, 219.2023
381.2420, 218.0540
381.7242, 218.6946
382.2063, 219.5940
382.6884, 219.6774
383.1705, 219.1928
383.6526, 219.0990
384.1347, 219.5900
384.6169, 220.0371
385.0990, 219.3778
385.5811, 217.9419
386.0632, 216.8347
386.5453, 216.8958
387.0274, 217.4315
387.5096, 217.4087
387.9917, 216.8237
388.4738, 216.4225
388.9559, 217.0390
389.4380, 218.1225
389.9201, 218.9809
390.4023, 219.6401
390.8844, 219.7217
391.3665, 218.4505
391.8486, 216.2346
392.3307, 214.6160
392.8128, 214.6720
393.2950, 215.3540
393.7771, 216.1104
394.2592, 217.1642
394.7413, 217.4388
395.2234, 215.7315
395.7055, 213.1876
396.1877, 211.5794
396.6698, 212.0758
397.1519, 212.8201
397.6340, 213.3804
398.1161, 213.7602
398.5982, 213.7262
399.0804, 212.6945
399.5625, 211.5942
400.0446, 211.1371
400.5267, 212.3361
401.0088, 212.6632
401.4909, 211.3216
401.9731, 208.9019
402.4552, 207.9375
402.9373, 209.3142
403.4194, 210.7029
403.9015, 210.8315
404.3836, 209.1685
404.8658, 208.4726
405.3479, 209.1422
405.8300, 210.2418
406.3121, 210.2893
406.7942, 209.1292
407.2763, 207.9653
407.7585, 207.1078
408.2406, 206.5517
408.7227, 206.4159
409.2048, 206.7520
409.6869, 207.0585
410.1690, 206.7383
410.6512, 205.9480
411.1333, 205.4903
411.6154, 205.6389
412.0975, 205.9581
412.5796, 205.6415
413.0617, 204.8363
413.5439, 204.2652
414.0260, 204.6117
414.5081, 205.3363
414.9902, 205.6260
415.4723, 205.3905
415.9544, 205.0993
416.4366, 205.2999
416.9187, 205.6575
417.4008, 205.6705
417.8829, 204.7217
418.3650, 203.7423
418.8471, 203.4524
419.3293, 203.7065
419.8114, 203.6136
420.2935, 202.3181
420.7756, 200.8460
421.2577, 199.9449
421.7398, 200.0273
422.2220, 200.0818
422.7041, 199.8752
423.1862, 199.5043
423.6683, 199.1434
424.1504, 198.7539
424.6325, 198.4311
425.1147, 198.2354
425.5968, 198.1879
426.0789, 198.0400
426.5610, 197.6359
427.0431, 197.2726
427.5252, 197.2225
428.0074, 197.6618
428.4895, 198.0104
428.9716, 198.2303
429.4537, 198.3039
429.9358, 198.1105
430.4179, 197.5576
430.9001, 197.0602
431.3822, 196.9948
431.8643, 197.3769
432.3464, 197.0054
432.8285, 195.7040
433.3106, 194.2166
433.7928, 193.6027
434.2749, 193.7482
434.7570, 193.6728
435.2391, 192.9507
435.7212, 191.9221
436.2033, 191.1618
436.6855, 190.6786
437.1676, 190.4872
437.6497, 190.9486
438.1318, 191.6098
438.6139, 191.6812
439.0960, 190.8921
439.5782, 190.0453
440.0603, 189.8170
440.5424, 189.9988
441.0245, 190.2025
441.5066, 190.2565
441.9887, 190.2874
442.4709, 190.4212
442.9530, 190.6500
443.4351, 190.7258
443.9172, 190.5179
444.3993, 190.1387
444.8814, 189.6595
445.3636, 188.7900
445.8457, 188.2207
446.3278, 188.3910
446.8099, 188.9300
447.2920, 188.9061
447.7741, 187.5647
448.2563, 186.4821
448.7384, 186.1800
449.2205, 186.7537
449.7026, 187.3495
450.1847, 188.0838
450.6668, 188.6916
451.1490, 188.9635
451.6311, 188.9315
452.1132, 188.3819
452.5953, 187.0826
453.0774, 185.3949
453.5595, 184.1766
454.0417, 183.4314
454.5238, 183.0915
455.0059, 183.4290
455.4880, 184.2270
455.9701, 184.1512
456.4522, 183.0255
456.9344, 181.9381
457.4165, 182.4488
457.8986, 183.9785
458.3807, 184.8859
458.8628, 184.5047
459.3449, 183.4417
459.8271, 181.9369
460.3092, 180.2016
460.7913, 179.1065
461.2734, 179.8329
461.7555, 181.0150
462.2376, 181.3226
462.7198, 180.2980
463.2019, 179.6973
463.6840, 181.2198
464.1661, 183.3325
464.6482, 184.1805
465.1303, 181.7836
465.6125, 179.6282
466.0946, 178.6516
466.5767, 178.7708
467.0588, 179.1517
467.5409, 180.3229
468.0230, 181.2231
468.5052, 181.2820
468.9873, 179.8661
469.4694, 179.2735
469.9515, 180.0818
470.4336, 181.2174
470.9157, 180.9834
471.3979, 178.8652
471.8800, 177.1351
472.3621, 176.3260
472.8442, 176.3676
473.3263, 177.2244
473.8084, 179.0579
474.2906, 180.4538
474.7727, 179.9443
475.2548, 177.9805
475.7369, 176.8206
476.2190, 176.7973
476.7011, 177.1583
477.1833, 176.9975
477.6654, 176.4813
478.1475, 176.0669
478.6296, 175.8680
479.1117, 175.9158
479.5938, 176.4116
480.0760, 177.2773
480.5581, 177.9741
481.0402, 178.4902
481.5223, 178.5417
482.0044, 177.6934
482.4865, 175.3345
482.9687, 173.5578
483.4508, 173.4116
483.9329, 174.1827
484.4150, 174.8527
484.8971, 175.4400
485.3792, 175.6998
485.8614, 175.4225
486.3435, 174.6575
486.8256, 174.0918
487.3077, 173.7987
487.7898, 173.6250
488.2719, 173.4793
488.7541, 173.3189
489.2362, 173.3855
489.7183, 173.8405
490.2004, 174.3101
490.6825, 174.0648
491.1646, 172.9937
491.6468, 172.3533
492.1289, 172.6833
492.6110, 173.6099
493.0931, 174.0088
493.5752, 173.8874
494.0573, 173.7588
494.5395, 174.2917
495.0216, 175.0340
495.5037, 174.8650
495.9858, 173.4999
496.4679, 172.1251
496.9500, 172.0410
497.4322, 172.6542
497.9143, 172.9823
498.3964, 172.2634
498.8785, 171.4900
499.3606, 171.2628
499.8427, 171.4838
500.3249, 171.7006
500.8070, 171.3152
501.2891, 171.2284
501.7712, 172.1264
502.2533, 174.7711
502.7354, 176.4005
503.2176, 176.2091
503.6997, 175.2040
504.1818, 174.3767
504.6639, 173.8772
505.1460, 173.2287
505.6281, 172.1224
506.1103, 170.8429
506.5924, 170.7626
507.0745, 172.2824
507.5566, 173.5786
508.0387, 173.4359
508.5208, 171.9587
509.0030, 171.2257
509.4851, 171.2530
509.9672, 171.9423
510.4493, 173.9059
510.9314, 176.5650
511.4135, 177.8159
511.8957, 176.6441
512.3778, 174.6912
512.8599, 173.6588
513.3420, 173.3930
513.8242, 173.4400
514.3063, 173.6922
514.7884, 174.0795
515.2705, 174.7825
515.7526, 175.8150
516.2347, 176.1854
516.7169, 174.6932
517.1990, 172.8533
517.6811, 171.8185
518.1632, 172.2446
518.6453, 172.8421
519.1274, 173.5439
519.6096, 174.3280
520.0917, 175.1767
520.5738, 176.3057
521.0559, 177.1407
521.5380, 177.5546
522.0201, 177.5498
522.5023, 177.0188
522.9844, 175.7114
523.4665, 174.5888
523.9486, 174.5280
524.4307, 175.4642
524.9128, 175.9707
525.3950, 175.8279
525.8771, 175.6091
526.3592, 176.1788
526.8413, 177.3409
527.3234, 178.4140
527.8055, 179.1886
528.2877, 179.6974
528.7698, 179.9716
529.2519, 180.0121
529.7340, 179.8383
530.2161, 178.9754
530.6982, 178.2312
531.1804, 178.5018
531.6625, 180.1824
532.1446, 181.0650
532.6267, 179.4278
533.1088, 177.1476
533.5909, 175.9796
534.0731, 176.8188
534.5552, 177.9843
535.0373, 180.0134
535.5194, 182.1887
536.0015, 182.5462
536.4836, 179.9270
536.9658, 177.8535
537.4479, 177.7283
537.9300, 179.4476
538.4121, 180.7858
538.8942, 181.6956
539.3763, 182.3774
539.8585, 182.9602
540.3406, 183.4484
540.8227, 183.9184
541.3048, 184.4319
541.7869, 184.7493
542.2690, 184.3299
542.7512, 183.4703
543.2333, 182.9166
543.7154, 183.1623
544.1975, 183.6862
544.6796, 184.1375
545.1617, 184.5237
545.6439, 184.8570
546.1260, 185.3112
546.6081, 185.5883
547.0902, 185.4116
547.5723, 184.5803
548.0544, 184.0385
548.5366, 183.7639
549.0187, 183.9284
549.5008, 184.7456
549.9829, 186.9954
550.4650, 188.4426
550.9471, 188.6196
551.4293, 188.0407
551.9114, 187.9747
552.3935, 188.5654
552.8756, 188.9583
553.3577, 188.6400
553.8398, 187.8614
554.3220, 187.8784
554.8041, 188.7142
555.2862, 189.7046
555.7683, 190.3624
556.2504, 190.8000
556.7325, 191.2672
557.2147, 191.8103
557.6968, 192.3056
558.1789, 192.6194
558.6610, 192.8262
559.1431, 193.0331
559.6252, 193.3826
560.1074, 193.6308
560.5895, 193.5549
561.0716, 193.2761
561.5537, 193.2016
562.0358, 193.3821
562.5179, 193.8155
563.0001, 194.6896
563.4822, 196.1132
563.9643, 196.6912
564.4464, 195.8761
564.9285, 194.9877
565.4106, 195.1364
565.8928, 196.5459
566.3749, 197.4970
566.8570, 197.7888
567.3391, 197.7638
567.8212, 197.9000
568.3033, 198.1848
568.7855, 198.5119
569.2676, 198.8197
569.7497, 199.1780
570.2318, 199.7934
570.7139, 200.5851
571.1960, 201.2517
571.6782, 201.3868
572.1603, 201.4681
572.6424, 201.9109
573.1245, 202.7737
573.6066, 203.6682
574.0887, 204.6563
574.5709, 205.4989
575.0530, 206.0202
575.5351, 206.0686
576.0172, 205.9733
576.4993, 205.5833
576.9814, 205.1344
577.4636, 205.0492
577.9457, 205.4962
578.4278, 205.8551
578.9099, 205.9439
579.3920, 205.8418
579.8741, 205.7794
580.3563, 205.7422
580.8384, 205.9517
581.3205, 206.8579
581.8026, 208.1015
582.2847, 208.5025
582.7668, 208.0172
583.2490, 207.3644
583.7311, 207.0876
584.2131, 207.0263
584.6953, 206.9108
585.1774, 206.4898
585.6595, 206.4667
586.1416, 207.7394
