##NAMES=Mannardite
##RRUFFID=R060966
##IDEAL CHEMISTRY=Ba(Ti^4+^_6_V^3+^_2_)O_16_
##LOCALITY=Rough Claims, Laird Mining Division, British Columbia, Canada
##OWNER=RRUFF
##SOURCE=Mark Mauthner
##DESCRIPTION=Black submetallic elongated prismatic crystals on quartz
##STATUS=The identification of this mineral has been confirmed only by single crystal X-ray diffraction.
##URL=rruff.info/R060966
147.5623, 849.9190
148.0444, 862.8120
148.5266, 837.7203
149.0087, 828.7159
149.4908, 848.3459
149.9729, 878.1205
150.4550, 900.6040
150.9371, 909.7684
151.4193, 908.7600
151.9014, 903.9751
152.3835, 889.9605
152.8656, 879.7367
153.3477, 877.3983
153.8298, 878.1533
154.3120, 875.7446
154.7941, 867.6426
155.2762, 856.5135
155.7583, 848.8805
156.2404, 846.7123
156.7225, 844.6016
157.2047, 842.9630
157.6868, 840.6353
158.1689, 835.0246
158.6510, 824.5844
159.1331, 812.0880
159.6152, 804.9437
160.0974, 803.2891
160.5795, 805.1779
161.0616, 812.7894
161.5437, 823.4227
162.0258, 831.9741
162.5079, 836.1393
162.9901, 837.5043
163.4722, 840.2681
163.9543, 846.3242
164.4364, 850.0247
164.9185, 846.8159
165.4007, 839.7354
165.8828, 836.1657
166.3649, 839.7805
166.8470, 847.4822
167.3291, 851.7028
167.8112, 849.2023
168.2933, 850.2526
168.7755, 865.7501
169.2576, 889.1827
169.7397, 900.0173
170.2218, 885.9196
170.7039, 859.9434
171.1860, 849.4832
171.6682, 860.2401
172.1503, 870.8682
172.6324, 868.8499
173.1145, 857.5385
173.5966, 849.8447
174.0787, 852.7615
174.5609, 859.4743
175.0430, 857.5320
175.5251, 844.4735
176.0072, 830.2032
176.4893, 817.4604
176.9714, 807.2232
177.4536, 804.5928
177.9357, 814.7633
178.4178, 830.5459
178.8999, 840.9781
179.3820, 846.1274
179.8641, 846.1327
180.3463, 837.0496
180.8284, 821.0005
181.3105, 810.9971
181.7926, 815.1755
182.2747, 823.8511
182.7568, 822.2339
183.2390, 807.5255
183.7211, 793.8652
184.2032, 792.6329
184.6853, 801.8687
185.1674, 808.4534
185.6495, 807.5787
186.1317, 802.9972
186.6138, 799.7090
187.0959, 797.9487
187.5780, 796.3450
188.0601, 793.2346
188.5422, 789.0594
189.0244, 787.7036
189.5065, 794.9496
189.9886, 800.3149
190.4707, 790.6859
190.9528, 764.2742
191.4349, 739.5383
191.9170, 730.3809
192.3992, 735.0573
192.8813, 741.5371
193.3634, 750.0178
193.8455, 756.0424
194.3276, 754.4432
194.8097, 744.8771
195.2919, 736.0043
195.7740, 734.4639
196.2561, 739.2577
196.7382, 743.4905
197.2203, 745.2559
197.7024, 746.7734
198.1846, 750.7114
198.6667, 756.9861
199.1488, 761.9895
199.6309, 761.6371
200.1130, 757.1926
200.5951, 757.3086
201.0773, 768.6750
201.5594, 777.9481
202.0415, 772.7055
202.5236, 754.3083
203.0057, 736.3057
203.4878, 727.2736
203.9700, 725.7956
204.4521, 725.1319
204.9342, 725.4828
205.4163, 725.0721
205.8984, 722.3674
206.3805, 717.7104
206.8627, 712.8297
207.3448, 707.8146
207.8269, 703.1912
208.3090, 701.2985
208.7911, 703.7122
209.2732, 706.7523
209.7554, 708.9308
210.2375, 709.8953
210.7196, 708.1226
211.2017, 700.1536
211.6838, 688.6934
212.1659, 681.7400
212.6480, 679.7952
213.1302, 682.4324
213.6123, 692.8250
214.0944, 707.5286
214.5765, 718.0207
215.0586, 719.1147
215.5407, 713.4814
216.0229, 705.9538
216.5050, 694.1429
216.9871, 686.5320
217.4692, 693.4429
217.9513, 707.7049
218.4334, 716.1831
218.9156, 709.1318
219.3977, 695.2935
219.8798, 691.3362
220.3619, 699.9066
220.8440, 709.5418
221.3261, 715.8910
221.8083, 718.7974
222.2904, 716.7002
222.7725, 705.2499
223.2546, 692.0005
223.7367, 688.4541
224.2188, 696.0533
224.7010, 705.2854
225.1831, 712.5482
225.6652, 718.2001
226.1473, 722.4279
226.6294, 725.1896
227.1115, 726.6727
227.5937, 726.8256
228.0758, 725.5894
228.5579, 723.7917
229.0400, 720.0030
229.5221, 716.8448
230.0042, 718.1063
230.4864, 725.6221
230.9685, 734.2883
231.4506, 740.4907
231.9327, 744.2183
232.4148, 745.2601
232.8969, 742.9293
233.3791, 738.0194
233.8612, 730.5974
234.3433, 719.1523
234.8254, 711.4202
235.3075, 714.5145
235.7896, 726.7076
236.2717, 738.8309
236.7539, 749.2753
237.2360, 757.5697
237.7181, 763.9453
238.2002, 768.5356
238.6823, 770.3370
239.1644, 766.2441
239.6466, 758.7787
240.1287, 755.0204
240.6108, 756.6674
241.0929, 761.9658
241.5750, 769.9786
242.0571, 780.4572
242.5393, 790.4800
243.0214, 800.3976
243.5035, 808.8355
243.9856, 812.6534
244.4677, 810.6797
244.9498, 807.0355
245.4320, 804.7960
245.9141, 803.9442
246.3962, 805.7067
246.8783, 812.6897
247.3604, 821.2797
247.8425, 827.0194
248.3247, 829.4858
248.8068, 831.4073
249.2889, 836.1948
249.7710, 842.6763
250.2531, 843.7361
250.7352, 830.7453
251.2174, 818.0419
251.6995, 819.6315
252.1816, 834.3175
252.6637, 847.9059
253.1458, 850.5132
253.6279, 844.4476
254.1101, 843.2377
254.5922, 851.6573
255.0743, 860.0276
255.5564, 862.0289
256.0385, 859.7089
256.5206, 859.9357
257.0027, 866.9012
257.4849, 877.9237
257.9670, 884.1948
258.4491, 886.4310
258.9312, 884.2742
259.4133, 874.0491
259.8954, 859.9018
260.3776, 848.7909
260.8597, 843.1830
261.3418, 842.0087
261.8239, 843.5079
262.3060, 848.6451
262.7881, 854.4186
263.2703, 864.1849
263.7524, 872.7281
264.2345, 871.6291
264.7166, 859.2095
265.1987, 845.9676
265.6808, 846.9044
266.1630, 871.3174
266.6451, 884.6662
267.1272, 881.9161
267.6093, 872.3839
268.0914, 859.7230
268.5735, 845.7903
269.0557, 834.6331
269.5378, 830.3660
270.0199, 833.9507
270.5020, 837.8888
270.9841, 843.9397
271.4662, 848.6149
271.9484, 850.2414
272.4305, 849.1896
272.9126, 846.6438
273.3947, 843.3541
273.8768, 839.3546
274.3589, 834.9300
274.8411, 829.5654
275.3232, 824.3346
275.8053, 818.2394
276.2874, 812.6757
276.7695, 809.9852
277.2516, 811.4596
277.7338, 815.5674
278.2159, 817.4428
278.6980, 814.2927
279.1801, 813.1810
279.6622, 815.8124
280.1443, 820.0665
280.6265, 825.5434
281.1086, 831.7548
281.5907, 835.3635
282.0728, 829.0978
282.5549, 806.5231
283.0370, 792.7653
283.5192, 795.9605
284.0013, 803.0684
284.4834, 807.9606
284.9655, 809.4976
285.4476, 808.7322
285.9297, 804.9846
286.4119, 797.6874
286.8940, 796.2474
287.3761, 810.1561
287.8582, 819.9441
288.3403, 811.1169
288.8224, 790.6293
289.3046, 777.3309
289.7867, 786.8806
290.2688, 812.7653
290.7509, 830.8091
291.2330, 840.2233
291.7151, 843.0569
292.1972, 835.8729
292.6794, 824.3779
293.1615, 817.0256
293.6436, 818.3615
294.1257, 822.8843
294.6078, 822.2457
295.0899, 815.7219
295.5721, 809.7537
296.0542, 805.9400
296.5363, 804.7005
297.0184, 807.4607
297.5005, 815.8116
297.9826, 823.1185
298.4648, 824.0588
298.9469, 819.5155
299.4290, 813.6401
299.9111, 806.7076
300.3932, 800.0013
300.8753, 794.9823
301.3575, 791.5665
301.8396, 789.4364
302.3217, 790.4095
302.8038, 792.0396
303.2859, 789.2777
303.7680, 780.8213
304.2502, 772.9975
304.7323, 773.1208
305.2144, 781.0842
305.6965, 784.6905
306.1786, 779.8702
306.6607, 772.9715
307.1429, 767.9331
307.6250, 764.9911
308.1071, 763.6917
308.5892, 764.1165
309.0713, 765.9014
309.5534, 766.4045
310.0356, 763.8538
310.5177, 762.2794
310.9998, 764.0273
311.4819, 767.3429
311.9640, 768.5402
312.4461, 765.9035
312.9283, 762.3333
313.4104, 764.3934
313.8925, 781.1728
314.3746, 790.4296
314.8567, 785.9417
315.3388, 778.0413
315.8210, 775.9946
316.3031, 781.0755
316.7852, 787.5034
317.2673, 788.0686
317.7494, 780.7106
318.2315, 776.6124
318.7137, 777.5043
319.1958, 779.7736
319.6779, 784.0248
320.1600, 788.5729
320.6421, 789.1023
321.1242, 780.6749
321.6064, 766.2764
322.0885, 765.8661
322.5706, 790.5883
323.0527, 813.2473
323.5348, 825.1840
324.0169, 831.8974
324.4991, 840.6789
324.9812, 854.8881
325.4633, 868.8862
325.9454, 871.7337
326.4275, 860.2245
326.9096, 853.6635
327.3918, 857.8776
327.8739, 868.1277
328.3560, 883.3914
328.8381, 903.2701
329.3202, 921.5660
329.8023, 932.5723
330.2845, 937.7718
330.7666, 943.8344
331.2487, 951.3904
331.7308, 960.3237
332.2129, 974.7528
332.6950, 991.7045
333.1772, 999.3080
333.6593, 985.9410
334.1414, 965.9736
334.6235, 956.7038
335.1056, 958.4493
335.5877, 962.8715
336.0698, 966.4491
336.5519, 968.6255
337.0341, 967.8347
337.5162, 957.9712
337.9983, 953.1090
338.4804, 964.1171
338.9625, 984.1375
339.4446, 998.9508
339.9268, 1003.319
340.4089, 1001.457
340.8910, 1000.127
341.3731, 998.2667
341.8552, 999.6509
342.3373, 1008.633
342.8195, 1018.111
343.3016, 1020.755
343.7837, 1016.827
344.2658, 1013.417
344.7479, 1017.875
345.2300, 1031.081
345.7122, 1037.967
346.1943, 1032.482
346.6764, 1027.447
347.1585, 1027.738
347.6406, 1030.895
348.1227, 1031.664
348.6049, 1026.935
349.0870, 1020.133
349.5691, 1021.659
350.0512, 1038.724
350.5333, 1049.571
351.0154, 1048.035
351.4976, 1041.887
351.9797, 1036.426
352.4618, 1032.797
352.9439, 1029.547
353.4260, 1023.868
353.9081, 1015.799
354.3903, 1013.600
354.8724, 1023.351
355.3545, 1031.955
355.8366, 1030.328
356.3187, 1021.258
356.8008, 1012.820
357.2830, 1009.661
357.7651, 1008.801
358.2472, 1005.204
358.7293, 998.6406
359.2114, 991.5401
359.6935, 983.2831
360.1757, 976.2234
360.6578, 975.4592
361.1399, 985.7889
361.6220, 993.3704
362.1041, 988.8911
362.5862, 976.4443
363.0684, 964.2030
363.5505, 954.1346
364.0326, 946.9794
364.5147, 944.3983
364.9968, 947.8311
365.4789, 950.0626
365.9611, 950.1101
366.4432, 949.3010
366.9253, 948.7856
367.4074, 948.4235
367.8895, 946.8518
368.3716, 942.6146
368.8538, 936.2621
369.3359, 934.1171
369.8180, 945.2265
370.3001, 949.9290
370.7822, 937.5660
371.2643, 920.0571
371.7465, 912.8430
372.2286, 921.2898
372.7107, 936.1298
373.1928, 941.5641
373.6749, 933.3851
374.1570, 929.3957
374.6392, 935.8446
375.1213, 942.4031
375.6034, 943.7801
376.0855, 940.4652
376.5676, 936.2392
377.0497, 933.8878
377.5319, 932.7304
378.0140, 931.1964
378.4961, 931.0692
378.9782, 925.8987
379.4603, 902.0878
379.9424, 874.4267
380.4246, 863.5896
380.9066, 878.9814
381.3888, 900.4481
381.8709, 915.1868
382.3530, 922.8442
382.8351, 920.2595
383.3172, 903.4646
383.7993, 882.4321
384.2815, 870.7166
384.7636, 868.0533
385.2457, 870.1490
385.7278, 884.0095
386.2099, 897.1472
386.6920, 894.3525
387.1742, 877.2928
387.6563, 863.2000
388.1384, 865.4774
388.6205, 881.7725
389.1026, 890.5976
389.5847, 887.6979
390.0669, 882.9703
390.5490, 875.2008
391.0311, 867.8289
391.5132, 865.3638
391.9953, 869.1334
392.4774, 875.9501
392.9596, 881.0012
393.4417, 883.5597
393.9238, 886.7108
394.4059, 894.1074
394.8880, 898.7795
395.3701, 895.3110
395.8523, 886.2053
396.3344, 878.6563
396.8165, 877.7281
397.2986, 881.0612
397.7807, 882.7554
398.2628, 883.0630
398.7450, 880.7252
399.2271, 871.1575
399.7092, 860.6747
400.1913, 856.5012
400.6734, 860.2535
401.1555, 867.1294
401.6377, 878.2324
402.1198, 889.9459
402.6019, 890.6115
403.0840, 875.8158
403.5661, 859.6698
404.0482, 858.2082
404.5304, 871.8717
405.0125, 877.8970
405.4946, 866.5281
405.9767, 855.0569
406.4588, 855.0328
406.9409, 863.7503
407.4231, 873.2500
407.9052, 879.7793
408.3873, 883.4249
408.8694, 884.3348
409.3515, 879.3400
409.8336, 876.1719
410.3158, 875.9748
410.7979, 876.8132
411.2800, 877.5820
411.7621, 877.9635
412.2442, 877.8038
412.7263, 876.7005
413.2085, 874.7386
413.6906, 873.8243
414.1727, 860.8630
414.6548, 877.2333
415.1369, 886.5577
415.6190, 889.2150
416.1012, 865.2358
416.5833, 875.6520
417.0654, 872.2841
417.5475, 868.3510
418.0296, 883.6082
418.5117, 863.5031
418.9939, 878.4561
419.4760, 879.4145
419.9581, 886.7778
420.4402, 880.2719
420.9223, 878.0497
421.4044, 889.7012
421.8866, 893.6708
422.3687, 885.5684
422.8508, 893.3388
423.3329, 872.7493
423.8150, 877.0461
424.2971, 892.0801
424.7793, 884.6750
425.2614, 892.6990
425.7435, 894.8468
426.2256, 870.2892
426.7077, 872.5929
427.1898, 866.1527
427.6719, 862.8979
428.1541, 862.9904
428.6362, 867.7773
429.1183, 877.4501
429.6004, 881.7153
430.0825, 878.4906
430.5646, 872.1215
431.0468, 860.0815
431.5289, 847.2698
432.0110, 841.1290
432.4931, 845.2108
432.9752, 852.2375
433.4573, 853.3644
433.9395, 848.8998
434.4216, 844.6266
434.9037, 841.2938
435.3858, 839.1762
435.8679, 839.5989
436.3500, 842.1042
436.8322, 842.6013
437.3143, 836.7264
437.7964, 830.8817
438.2785, 832.6215
438.7606, 840.3506
439.2427, 844.8933
439.7249, 840.3810
440.2070, 831.5995
440.6891, 832.0611
441.1712, 855.7396
441.6533, 868.6957
442.1354, 862.2969
442.6176, 850.1157
443.0997, 841.7614
443.5818, 838.6377
444.0639, 838.1386
444.5460, 838.1558
445.0281, 838.7159
445.5103, 840.3034
445.9924, 844.0079
446.4745, 846.9374
446.9566, 836.1603
447.4387, 852.4570
447.9208, 861.7079
448.4030, 864.2917
448.8851, 840.2389
449.3672, 850.5815
449.8493, 847.1401
450.3314, 843.1334
450.8135, 858.3170
451.2957, 838.1385
451.7778, 853.0178
452.2599, 853.9026
452.7420, 861.1924
453.2241, 854.6129
453.7062, 852.3172
454.1884, 863.8952
454.6705, 867.7912
455.1526, 859.6151
455.6347, 867.3120
456.1168, 846.6489
456.5989, 850.9335
457.0811, 841.2722
457.5632, 835.7772
458.0453, 837.5479
458.5274, 839.9251
459.0095, 827.1534
459.4916, 843.1543
459.9738, 852.1093
460.4559, 854.3971
460.9380, 830.0484
461.4201, 840.0952
461.9022, 836.3578
462.3843, 832.0552
462.8665, 846.9429
463.3486, 826.4684
463.8307, 841.0519
464.3128, 841.6409
464.7949, 848.6348
465.2770, 841.7593
465.7592, 839.1677
466.2413, 850.4498
466.7234, 854.0499
467.2055, 845.5780
467.6876, 852.9790
468.1697, 832.0201
468.6519, 835.9474
469.1340, 850.6120
469.6161, 842.8374
470.0982, 850.4919
470.5803, 852.2703
471.0624, 827.3433
471.5445, 848.8595
472.0266, 850.2905
472.5088, 831.0984
472.9909, 851.0233
473.4730, 834.6744
473.9551, 831.2730
474.4372, 837.6155
474.9193, 833.8003
475.4015, 845.9998
475.8836, 842.7712
476.3657, 838.1642
476.8478, 839.5727
477.3299, 823.9351
477.8120, 839.9214
478.2942, 834.3060
478.7763, 839.4283
479.2584, 846.9845
479.7405, 835.9046
480.2226, 844.5544
480.7047, 822.6082
481.1869, 826.2627
481.6690, 827.1605
482.1511, 844.4218
482.6332, 822.6247
483.1153, 825.5679
483.5974, 839.0453
484.0796, 837.7830
484.5617, 842.6834
485.0438, 829.3397
485.5259, 833.1349
486.0080, 832.2061
486.4901, 847.6018
486.9723, 850.1100
487.4544, 837.0758
487.9365, 824.1075
488.4186, 840.6781
488.9007, 829.2514
489.3828, 832.9289
489.8650, 821.0069
490.3471, 831.0760
490.8292, 837.4188
491.3113, 844.5063
491.7934, 842.9740
492.2755, 835.7700
492.7577, 833.3281
493.2398, 844.4953
493.7219, 853.5662
494.2040, 846.0105
494.6861, 830.2290
495.1682, 825.6178
495.6504, 838.4345
496.1325, 855.7548
496.6146, 858.7865
497.0967, 841.7624
497.5788, 836.2691
498.0609, 858.4131
498.5431, 874.2041
499.0252, 864.7189
499.5073, 842.6478
499.9894, 829.7147
500.4715, 835.3862
500.9536, 848.1379
501.4358, 851.8460
501.9179, 846.5728
502.4000, 843.2667
502.8821, 844.4114
503.3642, 846.3544
503.8463, 844.2265
504.3285, 839.9659
504.8106, 840.9094
505.2927, 854.5305
505.7748, 867.9361
506.2569, 870.6992
506.7390, 867.1569
507.2212, 868.1746
507.7033, 877.4181
508.1854, 887.0834
508.6675, 885.8007
509.1496, 870.1024
509.6317, 859.6772
510.1139, 857.3051
510.5960, 856.9408
511.0781, 857.5399
511.5602, 858.5436
512.0423, 858.8254
512.5244, 857.7487
513.0065, 857.9572
513.4886, 863.8903
513.9708, 875.2352
514.4529, 885.1881
514.9350, 892.6108
515.4171, 898.9041
515.8992, 906.6203
516.3813, 914.3347
516.8635, 916.6663
517.3456, 906.4239
517.8277, 897.4160
518.3098, 898.3710
518.7919, 905.1312
519.2740, 910.7740
519.7562, 913.3281
520.2383, 913.9612
520.7204, 914.0465
521.2025, 913.6624
521.6846, 911.9631
522.1667, 904.8136
522.6489, 901.0542
523.1310, 904.7481
523.6131, 912.1704
524.0952, 906.4747
524.5773, 921.9527
525.0594, 930.6778
525.5416, 933.0129
526.0237, 909.8189
526.5058, 919.5903
526.9879, 916.1508
527.4700, 912.1694
527.9521, 926.5806
528.4343, 907.0998
528.9164, 921.2193
529.3985, 921.9261
529.8806, 928.7717
530.3627, 922.3245
530.8448, 919.9831
531.3270, 930.9385
531.8091, 934.5314
532.2912, 926.5540
532.7733, 933.7897
533.2554, 913.8445
533.7375, 917.7510
534.2197, 931.9483
534.7018, 924.6393
535.1839, 932.1181
535.6660, 933.9648
536.1481, 910.2166
536.6302, 930.9807
537.1124, 932.4946
537.5945, 914.2429
538.0766, 933.4818
538.5587, 917.9550
539.0408, 914.8374
539.5229, 921.0585
540.0051, 917.5444
540.4872, 929.3790
540.9693, 926.4271
541.4514, 922.1541
541.9335, 923.6464
542.4156, 908.8013
542.8978, 924.2654
543.3799, 919.0258
543.8620, 924.0776
544.3441, 931.4620
544.8262, 920.9852
545.3083, 929.4177
545.7905, 908.5264
546.2726, 912.1714
546.7547, 900.2761
547.2368, 915.4120
547.7189, 923.5021
548.2010, 924.9248
548.6832, 899.7109
549.1653, 908.8927
549.6474, 904.2903
550.1295, 899.1227
550.6116, 913.1456
551.0938, 891.8058
551.5759, 905.5242
552.0580, 905.2483
552.5401, 911.3771
553.0222, 903.6367
553.5043, 900.1802
553.9865, 910.5970
554.4686, 913.3322
554.9507, 903.9953
555.4328, 910.5313
555.9149, 888.7073
556.3970, 891.7697
556.8792, 905.5691
557.3613, 896.9294
557.8434, 903.7192
558.3255, 904.6324
558.8076, 878.8405
559.2897, 899.4917
559.7719, 900.0575
560.2540, 880.0005
560.7361, 899.0604
561.2182, 881.8465
561.7003, 875.7113
562.1824, 868.0821
562.6646, 863.4471
563.1467, 860.7860
563.6288, 860.9063
564.1109, 849.3214
564.5930, 864.5746
565.0751, 872.7821
565.5573, 874.3220
566.0394, 849.2256
566.5215, 858.5248
567.0036, 854.0397
567.4857, 848.9894
567.9678, 863.1295
568.4500, 841.9071
568.9321, 855.7428
569.4142, 855.5841
569.8963, 861.8302
570.3784, 854.2070
570.8605, 850.8678
571.3427, 846.4802
571.8248, 845.5035
572.3069, 849.9189
572.7890, 856.4240
573.2711, 860.5189
573.7532, 861.5706
574.2354, 866.1345
574.7175, 880.7200
575.1996, 890.5462
575.6817, 886.6053
576.1638, 878.3651
576.6459, 878.3524
577.1281, 889.5525
577.6102, 899.5613
578.0923, 895.0093
578.5744, 883.7140
579.0565, 883.6017
579.5386, 895.6352
580.0208, 906.5553
580.5029, 908.3391
580.9850, 904.8709
581.4671, 906.5956
581.9492, 918.5627
582.4313, 927.3960
582.9134, 931.6896
583.3955, 934.1975
583.8776, 935.6320
584.3597, 936.7629
584.8419, 939.1129
585.3240, 943.8279
585.8061, 948.6619
586.2882, 949.4813
586.7703, 946.4778
587.2524, 944.1888
587.7346, 942.4551
588.2167, 943.8660
588.6988, 952.9130
589.1809, 967.7764
589.6630, 976.8865
590.1451, 977.2092
590.6273, 975.1326
591.1094, 967.9944
591.5915, 962.1125
592.0736, 968.5704
592.5557, 986.2023
593.0378, 999.1490
593.5200, 992.0800
594.0021, 971.3676
594.4842, 965.6496
594.9663, 978.0649
595.4484, 995.2181
595.9305, 1020.375
596.4127, 1042.915
596.8948, 1051.451
597.3769, 1046.818
597.8590, 1042.033
598.3411, 1041.854
598.8232, 1041.829
599.3054, 1036.727
599.7875, 1029.525
600.2696, 1029.093
600.7517, 1028.059
601.2338, 1043.391
601.7159, 1051.678
602.1981, 1053.297
602.6802, 1028.280
603.1623, 1037.658
603.6444, 1033.252
604.1265, 1028.280
604.6086, 1042.500
605.0908, 1021.356
605.5729, 1035.271
606.0550, 1035.191
606.5371, 1041.517
607.0192, 1033.973
607.5013, 1025.974
607.9835, 1047.354
608.4656, 1071.836
608.9477, 1091.033
609.4298, 1102.166
609.9119, 1098.223
610.3940, 1070.610
610.8762, 1055.169
611.3583, 1065.368
611.8404, 1073.716
612.3225, 1066.617
612.8046, 1052.876
613.2867, 1045.712
613.7689, 1048.966
614.2510, 1059.332
614.7331, 1080.124
615.2152, 1104.501
615.6973, 1115.699
616.1794, 1112.700
616.6616, 1109.683
617.1437, 1115.148
617.6258, 1126.496
618.1079, 1136.714
618.5900, 1148.351
619.0721, 1154.096
619.5543, 1147.261
620.0364, 1141.397
620.5185, 1143.428
621.0006, 1152.060
621.4827, 1164.474
621.9648, 1180.826
622.4470, 1195.125
622.9291, 1198.924
623.4112, 1195.110
623.8933, 1192.115
624.3754, 1190.646
624.8575, 1197.374
625.3397, 1219.272
625.8218, 1252.224
626.3039, 1278.151
626.7860, 1296.091
627.2681, 1307.651
627.7502, 1305.490
628.2324, 1303.289
628.7145, 1309.995
629.1966, 1324.780
629.6787, 1343.638
630.1608, 1366.208
630.6429, 1387.184
631.1251, 1394.881
631.6072, 1392.954
632.0893, 1403.947
632.5714, 1433.888
633.0535, 1464.731
633.5356, 1480.206
634.0178, 1483.585
634.4999, 1498.894
634.9820, 1541.241
635.4641, 1574.151
635.9462, 1584.324
636.4283, 1591.481
636.9105, 1613.063
637.3926, 1646.427
637.8747, 1676.863
638.3568, 1695.917
638.8389, 1708.284
639.3210, 1719.306
639.8032, 1729.547
640.2853, 1744.768
640.7674, 1767.184
641.2495, 1788.884
641.7316, 1801.591
642.2137, 1806.629
642.6959, 1818.337
643.1780, 1842.404
643.6601, 1864.906
644.1422, 1881.263
