##NAMES=Mansfieldite
##RRUFFID=R060951
##IDEAL CHEMISTRY=AlAs^5+^O_4_&#183;2H_2_O
##LOCALITY=Pampa Larga Mining District, Chile
##OWNER=RRUFF
##SOURCE=Bob Jenkins
##DESCRIPTION=Sharp pale rose crystals, fairly transparent.
##STATUS=The identification of this mineral is confirmed by single-crystal X-ray diffraction and chemical analysis.
##URL=rruff.info/R060951
##MEASURED CHEMISTRY=(Al_0.89_Fe^3+^_0.11_)_Σ=1_As_1.00_O_4_·2H_2_O; trace amounts of P, Mn, Ca, Na; H_2_O estimated by difference
191.9120, 38431.46
192.3941, 38434.65
192.8762, 38427.75
193.3583, 38434.31
193.8405, 38454.57
194.3226, 38487.63
194.8047, 38542.35
195.2868, 38617.79
195.7689, 38672.50
196.2510, 38698.50
196.7332, 38707.00
197.2153, 38715.82
197.6974, 38720.32
198.1795, 38756.60
198.6616, 38872.44
199.1437, 39076.25
199.6259, 39229.61
200.1080, 39304.49
200.5901, 39320.61
201.0722, 39344.57
201.5543, 39377.28
202.0364, 39413.09
202.5186, 39440.54
203.0007, 39454.02
203.4828, 39496.97
203.9649, 39585.97
204.4470, 39709.42
204.9291, 39803.29
205.4112, 39863.44
205.8934, 39901.78
206.3755, 39930.28
206.8576, 39951.31
207.3397, 39946.09
207.8218, 39903.41
208.3039, 39827.57
208.7861, 39770.52
209.2682, 39747.12
209.7503, 39719.23
210.2324, 39636.54
210.7145, 39474.66
211.1966, 39355.09
211.6788, 39320.09
212.1609, 39369.84
212.6430, 39385.02
213.1251, 39351.05
213.6072, 39305.67
214.0893, 39293.28
214.5715, 39328.28
215.0536, 39356.01
215.5357, 39354.31
216.0178, 39318.14
216.4999, 39317.25
216.9820, 39363.64
217.4642, 39428.52
217.9463, 39476.28
218.4284, 39498.93
218.9105, 39516.93
219.3926, 39532.76
219.8747, 39544.04
220.3568, 39565.75
220.8390, 39599.28
221.3211, 39642.61
221.8032, 39699.55
222.2853, 39788.12
222.7674, 39855.26
223.2495, 39878.66
223.7317, 39846.84
224.2138, 39835.38
224.6959, 39852.54
225.1780, 39885.96
225.6601, 39917.94
226.1422, 39952.34
226.6244, 39977.96
227.1065, 39985.25
227.5886, 39961.66
228.0707, 39967.16
228.5528, 40016.30
229.0349, 40085.07
229.5171, 40130.11
229.9992, 40143.92
230.4813, 40145.39
230.9634, 40135.32
231.4455, 40098.92
231.9276, 40097.90
232.4098, 40150.25
232.8919, 40230.21
233.3740, 40281.92
233.8561, 40285.77
234.3382, 40294.18
234.8203, 40329.56
235.3024, 40406.32
235.7846, 40472.02
236.2667, 40527.16
236.7488, 40572.04
237.2309, 40604.18
237.7130, 40614.75
238.1951, 40626.57
238.6773, 40648.53
239.1594, 40683.48
239.6415, 40723.36
240.1236, 40774.52
240.6057, 40829.53
241.0878, 40869.84
241.5700, 40885.29
242.0521, 40900.96
242.5342, 40926.39
243.0163, 40962.95
243.4984, 41004.71
243.9805, 41050.94
244.4627, 41100.99
244.9448, 41151.79
245.4269, 41189.26
245.9090, 41244.90
246.3911, 41340.77
246.8732, 41520.10
247.3554, 41628.76
247.8375, 41633.18
248.3196, 41574.96
248.8017, 41562.86
249.2838, 41629.04
249.7659, 41691.79
250.2480, 41717.38
250.7302, 41695.58
251.2123, 41664.14
251.6944, 41614.93
252.1765, 41562.18
252.6586, 41542.34
253.1407, 41582.39
253.6229, 41616.43
254.1050, 41610.25
254.5871, 41533.45
255.0692, 41502.89
255.5513, 41538.23
256.0334, 41613.49
256.5156, 41664.24
256.9977, 41677.78
257.4798, 41688.24
257.9619, 41709.74
258.4440, 41744.05
258.9261, 41779.65
259.4083, 41810.34
259.8904, 41843.06
260.3725, 41896.79
260.8546, 41979.16
261.3367, 42065.52
261.8188, 42145.88
262.3010, 42221.45
262.7831, 42286.47
263.2652, 42342.72
263.7473, 42386.52
264.2294, 42403.21
264.7115, 42371.01
265.1937, 42360.06
265.6758, 42416.09
266.1579, 42567.68
266.6400, 42663.57
267.1221, 42690.18
267.6042, 42671.86
268.0864, 42654.61
268.5685, 42636.51
269.0506, 42627.01
269.5327, 42634.52
270.0148, 42665.15
270.4969, 42683.38
270.9790, 42684.52
271.4612, 42679.86
271.9433, 42693.04
272.4254, 42729.82
272.9075, 42765.91
273.3896, 42786.60
273.8717, 42787.98
274.3539, 42806.95
274.8360, 42844.04
275.3181, 42898.04
275.8002, 42978.07
276.2823, 43093.74
276.7644, 43184.01
277.2466, 43211.27
277.7287, 43170.04
278.2108, 43156.02
278.6929, 43172.79
279.1750, 43207.54
279.6571, 43238.89
280.1393, 43264.40
280.6214, 43302.38
281.1035, 43365.35
281.5856, 43451.52
282.0677, 43531.11
282.5498, 43606.96
283.0320, 43667.93
283.5141, 43692.82
283.9962, 43680.70
284.4783, 43664.58
284.9604, 43655.28
285.4425, 43653.08
285.9247, 43656.86
286.4068, 43666.64
286.8889, 43684.30
287.3710, 43709.01
287.8531, 43741.61
288.3352, 43793.70
288.8174, 43890.76
289.2995, 44012.27
289.7816, 44058.20
290.2637, 44016.86
290.7458, 43970.57
291.2279, 44030.90
291.7101, 44178.63
292.1922, 44289.05
292.6743, 44297.74
293.1564, 44244.80
293.6385, 44236.89
294.1206, 44277.09
294.6028, 44320.59
295.0849, 44312.57
295.5670, 44269.92
296.0491, 44254.77
296.5312, 44304.29
297.0133, 44384.59
297.4955, 44426.03
297.9776, 44429.95
298.4597, 44441.68
298.9418, 44517.18
299.4239, 44630.64
299.9060, 44715.88
300.3881, 44728.27
300.8702, 44726.39
301.3524, 44792.84
301.8345, 44921.87
302.3166, 45069.93
302.7987, 45229.66
303.2808, 45380.59
303.7629, 45487.69
304.2451, 45517.13
304.7272, 45528.15
305.2093, 45588.21
305.6914, 45687.32
306.1735, 45776.43
306.6556, 45815.18
307.1378, 45831.38
307.6199, 45860.18
308.1020, 45914.44
308.5841, 45976.02
309.0662, 46052.03
309.5483, 46130.62
310.0305, 46168.77
310.5126, 46098.34
310.9947, 46003.09
311.4768, 45966.91
311.9589, 46029.70
312.4410, 46086.21
312.9232, 46065.99
313.4053, 45991.57
313.8874, 45913.68
314.3695, 45837.98
314.8516, 45776.27
315.3337, 45736.28
315.8159, 45720.24
316.2980, 45721.46
316.7801, 45755.47
317.2622, 45802.43
317.7443, 45831.00
318.2264, 45809.23
318.7086, 45784.72
319.1907, 45784.11
319.6728, 45816.16
320.1549, 45837.55
320.6370, 45812.02
321.1191, 45777.05
321.6013, 45775.95
322.0834, 45841.68
322.5655, 45919.32
323.0476, 46001.23
323.5297, 46088.74
324.0118, 46148.20
324.4940, 46139.62
324.9761, 46116.27
325.4582, 46124.58
325.9403, 46196.37
326.4224, 46270.68
326.9045, 46341.66
327.3867, 46408.80
327.8688, 46463.30
328.3509, 46479.15
328.8330, 46498.74
329.3151, 46551.49
329.7972, 46703.56
330.2793, 46799.55
330.7614, 46801.64
331.2436, 46729.16
331.7257, 46700.83
332.2078, 46749.66
332.6899, 46806.63
333.1720, 46832.48
333.6541, 46805.73
334.1363, 46794.62
334.6184, 46809.13
335.1005, 46839.98
335.5826, 46858.57
336.0647, 46856.48
336.5468, 46859.02
337.0290, 46879.52
337.5111, 46923.73
337.9932, 46959.57
338.4753, 46980.46
338.9574, 46997.34
339.4395, 47036.98
339.9217, 47108.32
340.4038, 47161.63
340.8859, 47172.68
341.3680, 47141.14
341.8501, 47114.43
342.3322, 47096.55
342.8144, 47076.25
343.2965, 47029.15
343.7786, 46954.68
344.2607, 46910.39
344.7428, 46937.19
345.2249, 47011.37
345.7071, 47007.50
346.1892, 46914.39
346.6713, 46835.80
347.1534, 46905.62
347.6355, 47092.46
348.1176, 47225.16
348.5998, 47235.84
349.0819, 47182.06
349.5640, 47171.21
350.0461, 47200.65
350.5282, 47246.26
351.0103, 47302.41
351.4925, 47358.52
351.9746, 47390.27
352.4567, 47379.39
352.9388, 47363.48
353.4209, 47397.41
353.9030, 47468.40
354.3852, 47527.08
354.8673, 47541.98
355.3494, 47531.05
355.8315, 47517.05
356.3136, 47507.93
356.7957, 47485.53
357.2779, 47415.55
357.7599, 47323.91
358.2421, 47263.06
358.7242, 47266.52
359.2063, 47301.80
359.6884, 47360.99
360.1705, 47448.22
360.6526, 47507.32
361.1348, 47469.48
361.6169, 47400.88
362.0990, 47381.39
362.5811, 47492.30
363.0632, 47601.32
363.5453, 47662.23
364.0275, 47673.46
364.5096, 47659.49
364.9917, 47580.14
365.4738, 47503.70
365.9559, 47479.94
366.4380, 47580.56
366.9202, 47664.54
367.4023, 47699.92
367.8844, 47698.30
368.3665, 47721.31
368.8486, 47803.10
369.3307, 47887.02
369.8129, 47948.21
370.2950, 47978.29
370.7771, 47999.42
371.2592, 48002.15
371.7413, 47998.09
372.2234, 48013.55
372.7056, 48058.86
373.1877, 48105.35
373.6698, 48137.31
374.1519, 48145.72
374.6340, 48184.65
375.1161, 48262.59
375.5983, 48357.14
376.0804, 48442.66
376.5625, 48519.20
377.0446, 48580.01
377.5267, 48614.88
378.0089, 48629.80
378.4910, 48677.33
378.9731, 48765.97
379.4552, 48856.00
379.9373, 48906.23
380.4194, 48919.66
380.9016, 48935.68
381.3837, 48963.22
381.8658, 48999.73
382.3479, 49037.99
382.8300, 49078.77
383.3121, 49126.72
383.7943, 49188.81
384.2764, 49259.89
384.7585, 49324.29
385.2406, 49375.09
385.7227, 49429.60
386.2048, 49508.06
386.6869, 49604.88
387.1690, 49706.80
387.6512, 49823.03
388.1333, 49928.64
388.6154, 49983.35
389.0975, 49979.81
389.5796, 49980.94
390.0617, 50041.13
390.5439, 50132.71
391.0260, 50217.26
391.5081, 50283.98
391.9902, 50338.47
392.4723, 50385.90
392.9544, 50426.93
393.4366, 50459.00
393.9187, 50480.76
394.4008, 50495.99
394.8829, 50506.91
395.3650, 50500.70
395.8471, 50510.78
396.3293, 50556.72
396.8114, 50626.00
397.2935, 50685.45
397.7756, 50719.86
398.2577, 50749.80
398.7398, 50784.16
399.2220, 50829.45
399.7041, 50858.77
400.1862, 50841.87
400.6683, 50820.79
401.1504, 50852.36
401.6325, 50977.91
402.1147, 51094.39
402.5968, 51181.42
403.0789, 51239.32
403.5610, 51289.67
404.0431, 51336.89
404.5252, 51371.32
405.0074, 51376.50
405.4895, 51339.21
405.9716, 51331.17
406.4537, 51361.82
406.9358, 51427.75
407.4179, 51535.38
407.9001, 51694.71
408.3822, 51829.58
408.8643, 51885.02
409.3464, 51869.02
409.8285, 51845.07
410.3106, 51807.55
410.7928, 51794.19
411.2749, 51889.86
411.7570, 52071.78
412.2391, 52211.86
412.7212, 52209.21
413.2033, 52142.91
413.6855, 52154.83
414.1676, 52243.93
414.6497, 52370.15
415.1318, 52530.05
415.6139, 52697.97
416.0960, 52829.64
416.5781, 52899.80
417.0602, 52946.15
417.5424, 52989.49
418.0245, 53030.57
418.5066, 53073.24
418.9887, 53135.94
419.4708, 53189.95
419.9529, 53207.27
420.4351, 53161.85
420.9172, 53144.88
421.3993, 53229.43
421.8814, 53354.21
422.3635, 53428.63
422.8456, 53394.17
423.3278, 53347.31
423.8099, 53311.26
424.2920, 53287.06
424.7741, 53277.87
425.2562, 53289.38
425.7383, 53313.05
426.2205, 53344.93
426.7026, 53406.82
427.1847, 53439.23
427.6668, 53428.00
428.1489, 53382.85
428.6310, 53335.19
429.1132, 53269.63
429.5953, 53229.72
430.0774, 53246.98
430.5595, 53332.05
431.0416, 53393.29
431.5237, 53432.13
432.0059, 53441.70
432.4880, 53395.45
432.9701, 53292.32
433.4522, 53212.68
433.9343, 53195.54
434.4164, 53218.44
434.8986, 53206.19
435.3807, 53158.69
435.8628, 53109.39
436.3449, 53099.22
436.8270, 53109.15
437.3091, 53088.46
437.7913, 53016.35
438.2734, 52932.43
438.7555, 52873.70
439.2376, 52837.30
439.7197, 52815.22
440.2018, 52810.84
440.6840, 52813.03
441.1661, 52808.51
441.6482, 52793.60
442.1303, 52790.03
442.6124, 52823.06
443.0945, 52867.90
443.5767, 52896.02
444.0588, 52893.45
444.5409, 52879.31
445.0230, 52867.81
445.5051, 52854.92
445.9872, 52808.59
446.4693, 52666.05
446.9514, 52534.87
447.4336, 52470.73
447.9157, 52514.52
448.3978, 52556.19
448.8799, 52597.29
449.3620, 52636.11
449.8441, 52664.92
450.3263, 52667.66
450.8084, 52694.75
451.2905, 52774.61
451.7726, 52904.55
452.2547, 52974.74
452.7368, 52969.08
453.2190, 52942.76
453.7011, 52945.52
454.1832, 52977.32
454.6653, 53006.44
455.1474, 53024.34
455.6295, 53041.80
456.1117, 53095.65
456.5938, 53180.42
457.0759, 53239.15
457.5580, 53206.70
458.0401, 53132.21
458.5222, 53126.61
459.0044, 53203.35
459.4865, 53272.67
459.9686, 53207.73
460.4507, 53090.07
460.9328, 53055.48
461.4149, 53254.63
461.8971, 53462.20
462.3792, 53522.88
462.8613, 53460.45
463.3434, 53390.48
463.8255, 53346.17
464.3076, 53323.35
464.7898, 53324.63
465.2719, 53371.29
465.7540, 53394.16
466.2361, 53368.98
466.7182, 53314.61
467.2003, 53259.00
467.6825, 53198.34
468.1646, 53142.29
468.6467, 53089.50
469.1288, 53039.55
469.6109, 53002.03
470.0930, 52972.22
470.5752, 52958.71
471.0573, 52971.73
471.5394, 53019.14
472.0215, 53059.76
472.5036, 53097.62
472.9857, 53117.14
473.4679, 53066.53
473.9500, 52941.11
474.4321, 52846.66
474.9142, 52858.37
475.3963, 52941.70
475.8784, 52960.73
476.3605, 52914.02
476.8427, 52851.13
477.3248, 52815.39
477.8069, 52800.34
478.2890, 52792.64
478.7711, 52794.04
479.2532, 52796.46
479.7354, 52779.42
480.2175, 52755.14
480.6996, 52758.27
481.1817, 52815.25
481.6638, 52898.23
482.1459, 52990.54
482.6281, 53088.70
483.1102, 53189.93
483.5923, 53309.77
484.0744, 53420.50
484.5565, 53495.68
485.0386, 53492.54
485.5208, 53490.71
486.0029, 53503.91
486.4850, 53526.79
486.9671, 53538.55
487.4492, 53523.16
487.9313, 53518.73
488.4135, 53549.25
488.8956, 53631.09
489.3777, 53680.43
489.8598, 53697.83
490.3419, 53688.42
490.8240, 53644.27
491.3062, 53560.70
491.7883, 53515.61
492.2704, 53542.68
492.7525, 53611.16
493.2346, 53634.45
493.7167, 53613.58
494.1989, 53591.00
494.6810, 53586.32
495.1631, 53600.51
495.6452, 53640.17
496.1273, 53707.34
496.6094, 53783.40
497.0916, 53870.43
497.5737, 53949.61
498.0558, 53991.04
498.5379, 53956.31
499.0200, 53904.02
499.5021, 53853.96
499.9843, 53810.88
500.4664, 53798.34
500.9485, 53865.61
501.4306, 53937.10
501.9127, 53966.96
502.3948, 53924.40
502.8769, 53899.38
503.3590, 53893.55
503.8412, 53910.48
504.3233, 53958.34
504.8054, 54061.00
505.2875, 54151.10
505.7696, 54219.25
506.2517, 54264.19
506.7339, 54269.07
507.2160, 54217.69
507.6981, 54173.16
508.1802, 54182.18
508.6623, 54243.10
509.1444, 54304.83
509.6266, 54371.26
510.1087, 54417.63
510.5908, 54381.72
511.0729, 54288.94
511.5550, 54246.58
512.0372, 54342.07
512.5193, 54472.55
513.0014, 54481.21
513.4835, 54390.54
513.9656, 54320.42
514.4478, 54385.80
514.9299, 54480.26
515.4120, 54495.83
515.8941, 54384.35
516.3762, 54305.70
516.8583, 54354.68
517.3404, 54462.23
517.8225, 54543.64
518.3046, 54579.97
518.7867, 54589.64
519.2689, 54551.36
519.7510, 54477.27
520.2331, 54458.88
520.7152, 54543.37
521.1973, 54620.86
521.6794, 54632.88
522.1616, 54558.52
522.6437, 54513.34
523.1258, 54505.82
523.6079, 54514.53
524.0900, 54513.01
524.5721, 54501.31
525.0543, 54492.33
525.5364, 54496.46
526.0185, 54497.88
526.5006, 54445.93
526.9827, 54348.78
527.4648, 54271.76
527.9470, 54281.91
528.4291, 54326.84
528.9112, 54330.51
529.3933, 54282.42
529.8754, 54228.66
530.3575, 54192.23
530.8397, 54171.02
531.3218, 54162.02
531.8039, 54169.00
532.2860, 54183.91
532.7681, 54231.10
533.2502, 54289.82
533.7324, 54289.71
534.2145, 54136.57
534.6966, 54005.99
535.1787, 53969.60
535.6608, 54054.70
536.1429, 54076.03
536.6251, 53995.63
537.1072, 53902.18
537.5893, 53884.88
538.0714, 53959.50
538.5535, 54016.54
539.0356, 54036.91
539.5178, 54037.30
539.9999, 54056.69
540.4820, 54092.73
540.9641, 54115.27
541.4462, 54086.16
541.9283, 54038.08
542.4105, 54048.18
542.8926, 54113.67
543.3747, 54179.20
543.8568, 54192.04
544.3389, 54183.45
544.8210, 54192.26
545.3032, 54234.07
545.7853, 54276.02
546.2674, 54316.49
546.7495, 54343.76
547.2316, 54338.71
547.7137, 54247.09
548.1959, 54174.66
548.6780, 54160.27
549.1601, 54202.78
549.6422, 54229.82
550.1243, 54219.41
550.6064, 54221.11
551.0886, 54269.67
551.5707, 54388.91
552.0528, 54462.65
552.5349, 54483.49
553.0170, 54471.85
553.4991, 54445.49
553.9813, 54404.86
554.4634, 54374.20
554.9455, 54362.93
555.4276, 54362.16
555.9097, 54352.12
556.3918, 54335.82
556.8740, 54328.68
557.3561, 54340.35
557.8382, 54366.89
558.3203, 54413.59
558.8024, 54483.42
559.2845, 54534.70
559.7667, 54527.29
560.2488, 54499.43
560.7309, 54487.00
561.2130, 54504.59
561.6951, 54529.55
562.1772, 54558.94
562.6594, 54592.24
563.1415, 54628.28
563.6236, 54661.58
564.1057, 54702.80
564.5878, 54759.33
565.0699, 54828.67
565.5521, 54878.71
566.0342, 54906.56
566.5163, 54921.72
566.9984, 54927.36
567.4805, 54924.30
567.9626, 54925.47
568.4448, 54931.61
568.9269, 54944.40
569.4090, 54973.50
569.8911, 55011.87
570.3732, 55040.04
570.8553, 55048.59
571.3375, 55046.34
571.8196, 55033.94
572.3017, 55015.83
572.7838, 55008.01
573.2659, 55026.31
573.7480, 55049.95
574.2302, 55069.55
574.7123, 55085.14
575.1943, 55089.27
575.6765, 55062.59
576.1586, 55036.69
576.6407, 55038.08
577.1228, 55098.57
577.6049, 55124.84
578.0870, 55100.09
578.5692, 55049.33
579.0513, 55018.89
579.5334, 55009.05
580.0155, 55023.05
580.4976, 55069.79
580.9797, 55138.90
581.4619, 55200.91
581.9440, 55255.18
582.4261, 55295.19
582.9082, 55295.58
583.3903, 55283.78
583.8724, 55313.43
584.3546, 55398.05
584.8367, 55463.90
585.3188, 55429.03
585.8009, 55357.86
586.2830, 55327.27
586.7651, 55415.00
587.2473, 55484.31
587.7294, 55477.32
588.2115, 55423.65
588.6936, 55414.63
589.1757, 55488.32
589.6578, 55563.34
590.1400, 55624.50
590.6221, 55671.91
591.1042, 55670.40
591.5863, 55598.71
592.0684, 55537.57
592.5505, 55562.92
593.0327, 55667.69
593.5148, 55744.23
593.9969, 55782.88
594.4790, 55797.06
594.9611, 55794.59
595.4432, 55781.02
595.9254, 55769.32
596.4075, 55758.75
596.8896, 55758.54
597.3717, 55781.21
597.8538, 55821.40
598.3359, 55863.22
598.8181, 55906.78
599.3002, 55944.83
599.7823, 55968.47
600.2644, 55974.38
600.7465, 55996.55
601.2286, 56051.80
601.7108, 56109.80
602.1929, 56147.95
602.6750, 56146.76
603.1571, 56184.23
603.6392, 56274.32
604.1213, 56385.25
604.6035, 56477.21
605.0856, 56550.23
605.5677, 56601.73
606.0498, 56621.68
606.5319, 56630.99
607.0140, 56671.25
607.4962, 56736.57
607.9783, 56802.13
608.4604, 56849.08
608.9425, 56891.30
609.4246, 56948.19
609.9067, 57020.69
610.3889, 57070.88
610.8710, 57045.20
611.3531, 57014.41
611.8352, 57033.55
612.3173, 57165.35
612.7994, 57245.39
613.2816, 57235.25
613.7637, 57191.93
614.2458, 57191.66
614.7279, 57254.21
615.2100, 57304.45
615.6921, 57327.62
616.1743, 57331.91
616.6564, 57329.54
617.1385, 57320.95
617.6206, 57336.64
618.1027, 57419.16
618.5848, 57529.46
619.0670, 57576.27
619.5491, 57562.70
620.0312, 57559.92
620.5133, 57643.43
620.9954, 57747.35
621.4775, 57800.06
621.9597, 57769.24
622.4418, 57749.33
622.9239, 57796.05
623.4060, 57859.52
623.8881, 57883.75
624.3702, 57808.73
624.8524, 57768.82
625.3345, 57790.43
625.8166, 57849.50
626.2987, 57881.48
626.7808, 57881.49
627.2629, 57876.55
627.7451, 57878.04
628.2272, 57882.91
628.7093, 57880.96
629.1914, 57872.57
629.6735, 57848.57
630.1556, 57783.16
630.6378, 57706.41
631.1199, 57675.89
631.6020, 57703.55
632.0841, 57715.27
632.5662, 57640.04
633.0483, 57535.44
633.5304, 57459.66
634.0125, 57436.27
634.4946, 57432.74
634.9767, 57459.37
635.4589, 57498.71
635.9410, 57517.18
636.4231, 57492.58
636.9052, 57490.76
637.3873, 57540.41
637.8694, 57620.14
638.3516, 57627.40
638.8337, 57552.73
639.3158, 57488.07
639.7979, 57501.40
640.2800, 57563.11
640.7621, 57584.11
641.2443, 57563.86
641.7264, 57533.46
642.2085, 57509.97
642.6906, 57494.89
643.1727, 57490.33
643.6548, 57497.66
644.1370, 57517.04
644.6191, 57558.46
645.1012, 57609.64
645.5833, 57655.84
646.0654, 57705.75
646.5475, 57735.41
647.0297, 57734.64
647.5118, 57713.19
647.9939, 57690.70
648.4760, 57658.41
648.9581, 57649.58
649.4402, 57680.22
649.9224, 57738.73
650.4045, 57784.21
650.8866, 57816.89
651.3687, 57858.30
651.8508, 57949.34
652.3329, 58047.29
652.8151, 58083.33
653.2972, 58051.38
653.7793, 58007.84
654.2614, 57976.30
654.7435, 57956.03
655.2256, 57949.16
655.7078, 57977.61
656.1899, 57982.77
656.6720, 57927.73
657.1541, 57860.45
657.6362, 57843.37
658.1183, 57902.72
658.6005, 57938.59
659.0826, 57928.48
659.5647, 57888.48
660.0468, 57857.71
660.5289, 57835.69
661.0110, 57812.97
661.4932, 57783.95
661.9753, 57753.70
662.4574, 57734.96
662.9395, 57726.54
663.4216, 57714.33
663.9037, 57680.04
664.3859, 57647.86
664.8680, 57641.80
665.3501, 57668.60
665.8322, 57687.13
666.3143, 57663.63
666.7964, 57644.17
667.2786, 57660.68
667.7607, 57730.33
668.2428, 57794.95
668.7249, 57857.26
669.2070, 57903.05
669.6891, 57895.66
670.1713, 57832.94
670.6534, 57821.04
671.1355, 57903.17
671.6176, 58008.00
672.0997, 58008.70
672.5818, 57934.79
673.0640, 57874.71
673.5461, 57921.29
674.0282, 57958.69
674.5103, 57880.59
674.9924, 57714.97
675.4745, 57590.31
675.9567, 57574.38
676.4388, 57590.25
676.9209, 57616.36
677.4030, 57655.58
677.8851, 57666.51
678.3672, 57620.68
678.8494, 57596.93
679.3315, 57678.97
679.8136, 57866.88
680.2957, 57932.82
680.7778, 57845.38
681.2599, 57729.20
681.7421, 57721.54
682.2242, 57787.80
682.7063, 57851.82
683.1884, 57888.52
683.6705, 57933.99
684.1526, 58059.45
684.6348, 58199.59
685.1169, 58256.07
685.5990, 58075.56
686.0811, 57949.94
