##NAMES=Mansfieldite
##RRUFFID=R060409
##IDEAL CHEMISTRY=AlAs^5+^O_4_&#183;2H_2_O
##LOCALITY=Djebel Debagh, Constantine, Algeria
##OWNER=RRUFF
##SOURCE=Herb Obodda
##DESCRIPTION=Pale blue cryptocrystalline mass
##STATUS=The identification of this mineral has been confirmed by X-ray diffraction and chemical analysis
##URL=rruff.info/R060409
##MEASURED CHEMISTRY=(Al_0.98_Fe^3+^_0.02_)_Σ=1_(As_0.97_P_0.03_)_Σ=1_O_4_·2H_2_O
173.0474, 165.6815
173.5295, 168.8879
174.0116, 173.0778
174.4937, 176.0684
174.9758, 177.8702
175.4579, 179.1950
175.9401, 179.9027
176.4222, 180.4944
176.9043, 181.4644
177.3864, 182.8908
177.8685, 184.7559
178.3506, 187.1515
178.8328, 190.2309
179.3149, 193.3183
179.7970, 196.3770
180.2791, 199.2615
180.7612, 201.7280
181.2433, 203.6517
181.7255, 205.3158
182.2076, 207.2238
182.6897, 208.9790
183.1718, 211.8439
183.6539, 216.6982
184.1360, 222.3223
184.6181, 227.3067
185.1003, 230.9223
185.5824, 233.7750
186.0645, 238.0235
186.5466, 245.5972
187.0287, 252.2843
187.5108, 257.2368
187.9930, 261.0583
188.4751, 264.3936
188.9572, 267.5495
189.4393, 270.6407
189.9214, 274.3043
190.4035, 278.7061
190.8857, 283.4825
191.3678, 288.9405
191.8499, 294.6873
192.3320, 300.1126
192.8141, 304.8477
193.2962, 308.9488
193.7784, 312.8705
194.2605, 315.2558
194.7426, 318.8798
195.2247, 325.9637
195.7068, 335.3030
196.1889, 343.4174
196.6711, 347.9476
197.1532, 349.5626
197.6353, 352.2431
198.1174, 357.2534
198.5995, 362.0739
199.0816, 365.1154
199.5638, 366.6002
200.0459, 367.9574
200.5280, 369.8515
201.0101, 372.3384
201.4922, 375.3086
201.9743, 379.2905
202.4565, 383.2402
202.9386, 386.5274
203.4207, 389.1754
203.9028, 390.7752
204.3849, 391.4156
204.8670, 390.6178
205.3492, 387.6487
205.8313, 382.2241
206.3134, 374.7626
206.7955, 365.4906
207.2776, 354.1530
207.7597, 342.1791
208.2419, 329.0229
208.7240, 315.9794
209.2061, 304.6467
209.6882, 295.8466
210.1703, 288.3057
210.6524, 279.6230
211.1346, 269.0477
211.6167, 259.4460
212.0988, 251.9858
212.5809, 245.7327
213.0630, 239.7078
213.5451, 233.4957
214.0273, 227.5881
214.5094, 223.2775
214.9915, 221.5866
215.4736, 219.7177
215.9557, 217.0013
216.4378, 213.9082
216.9200, 210.6917
217.4021, 207.4525
217.8842, 204.5094
218.3663, 202.8528
218.8484, 203.4703
219.3305, 204.0658
219.8127, 204.1147
220.2948, 204.1001
220.7769, 204.6716
221.2590, 206.1258
221.7411, 208.0466
222.2232, 209.1999
222.7054, 208.8864
223.1875, 208.5577
223.6696, 207.8315
224.1517, 207.2929
224.6338, 207.8940
225.1159, 210.0736
225.5980, 213.0263
226.0802, 214.3973
226.5623, 212.2864
227.0444, 210.8057
227.5265, 210.9930
228.0086, 211.7607
228.4907, 211.6889
228.9729, 210.1682
229.4550, 207.6377
229.9371, 205.1572
230.4192, 201.9264
230.9013, 199.9405
231.3834, 200.8012
231.8656, 202.8192
232.3477, 203.2274
232.8298, 200.7848
233.3119, 197.0269
233.7940, 195.4842
234.2761, 197.0351
234.7583, 198.0868
235.2404, 197.2699
235.7225, 195.4442
236.2046, 194.0797
236.6867, 193.6601
237.1688, 193.8600
237.6510, 194.1094
238.1331, 194.3046
238.6152, 194.9110
239.0973, 196.4391
239.5794, 198.4715
240.0615, 200.0281
240.5437, 200.7007
241.0258, 201.1508
241.5079, 202.4491
241.9900, 204.6070
242.4721, 206.3454
242.9542, 207.0808
243.4364, 206.9927
243.9185, 206.5673
244.4006, 205.9820
244.8827, 204.8803
245.3648, 202.5870
245.8469, 199.2866
246.3290, 196.3970
246.8112, 195.2064
247.2933, 195.0246
247.7754, 193.4771
248.2575, 189.4463
248.7396, 185.4194
249.2217, 183.2944
249.7039, 182.7285
250.1860, 182.7048
250.6681, 183.0444
251.1502, 183.5560
251.6323, 183.3651
252.1144, 181.7326
252.5966, 180.5858
253.0787, 181.5791
253.5608, 183.8689
254.0429, 185.5549
254.5250, 185.2962
255.0071, 183.5799
255.4893, 182.3264
255.9714, 181.9214
256.4535, 181.3673
256.9356, 179.6277
257.4177, 177.5346
257.8998, 176.5188
258.3820, 177.6675
258.8641, 180.3215
259.3462, 182.2084
259.8283, 183.2649
260.3104, 183.5382
260.7925, 182.6568
261.2747, 181.2653
261.7568, 180.1830
262.2389, 179.8018
262.7210, 179.9947
263.2031, 180.4635
263.6852, 181.5745
264.1674, 182.3115
264.6495, 182.4395
265.1316, 182.1416
265.6137, 181.6040
266.0958, 180.9090
266.5779, 180.0185
267.0601, 178.7656
267.5422, 176.6976
268.0243, 175.1181
268.5064, 174.2009
268.9885, 173.7659
269.4706, 173.8573
269.9528, 174.4593
270.4349, 175.1311
270.9170, 174.9202
271.3991, 173.0147
271.8812, 171.8432
272.3633, 172.0965
272.8455, 172.6846
273.3276, 172.7285
273.8097, 172.0393
274.2918, 171.0995
274.7739, 170.5826
275.2560, 170.3943
275.7382, 170.9195
276.2202, 172.6523
276.7024, 174.5700
277.1845, 176.1550
277.6666, 177.2766
278.1487, 177.9691
278.6308, 178.1840
279.1129, 177.6052
279.5951, 177.6686
280.0772, 178.4330
280.5593, 179.6488
281.0414, 181.2086
281.5235, 183.0989
282.0056, 185.4235
282.4878, 188.4163
282.9699, 192.3560
283.4520, 194.9783
283.9341, 194.8346
284.4162, 194.9851
284.8983, 197.0419
285.3805, 200.5121
285.8626, 203.7887
286.3447, 205.5500
286.8268, 205.8307
287.3089, 207.1878
287.7910, 210.3644
288.2732, 213.7135
288.7553, 216.9285
289.2374, 219.9606
289.7195, 222.6425
290.2016, 224.8033
290.6837, 226.6761
291.1659, 229.6957
291.6480, 235.5406
292.1301, 240.5391
292.6122, 243.2879
293.0943, 245.0318
293.5764, 247.4229
294.0586, 251.2236
294.5407, 256.2126
295.0228, 261.8203
295.5049, 269.9372
295.9870, 276.3235
296.4691, 279.8621
296.9513, 282.0144
297.4334, 284.3767
297.9155, 287.4460
298.3976, 290.5781
298.8797, 292.6819
299.3618, 293.2601
299.8440, 293.5729
300.3261, 293.2009
300.8082, 292.8279
301.2903, 293.0782
301.7724, 294.0368
302.2545, 295.2714
302.7367, 296.3021
303.2188, 297.0867
303.7009, 297.7544
304.1830, 298.5768
304.6651, 299.0835
305.1472, 298.6631
305.6294, 297.4978
306.1115, 296.5525
306.5936, 296.7288
307.0757, 298.1163
307.5578, 298.8926
308.0399, 298.5319
308.5221, 298.1987
309.0042, 298.5082
309.4863, 299.2763
309.9684, 300.0519
310.4505, 300.6328
310.9326, 300.9121
311.4148, 300.0403
311.8969, 296.6486
312.3790, 293.8666
312.8611, 293.4006
313.3432, 293.8636
313.8253, 292.7797
314.3075, 288.9424
314.7896, 283.5089
315.2717, 279.4136
315.7538, 277.4429
316.2359, 275.6823
316.7180, 274.3139
317.2001, 272.9427
317.6823, 271.0626
318.1644, 268.5306
318.6465, 265.7308
319.1286, 263.2422
319.6107, 261.3436
320.0928, 259.0994
320.5750, 256.0705
321.0571, 252.9960
321.5392, 250.2783
322.0213, 248.0416
322.5034, 246.3939
322.9855, 245.5027
323.4677, 245.4670
323.9498, 245.5587
324.4319, 245.7680
324.9140, 246.0880
325.3961, 246.3591
325.8782, 246.7086
326.3604, 247.5249
326.8425, 249.1296
327.3246, 251.4458
327.8067, 253.6381
328.2888, 255.7820
328.7709, 257.7467
329.2531, 259.0193
329.7352, 260.1710
330.2173, 262.2515
330.6994, 265.8006
331.1815, 270.2192
331.6636, 273.9153
332.1458, 276.7297
332.6279, 278.9349
333.1100, 280.1928
333.5921, 281.0041
334.0742, 281.9100
334.5563, 283.0390
335.0385, 284.0801
335.5206, 284.5547
336.0027, 284.2090
336.4848, 283.8955
336.9669, 283.5243
337.4490, 283.2448
337.9312, 283.1704
338.4133, 283.2928
338.8954, 283.5176
339.3775, 283.7579
339.8596, 284.0089
340.3417, 284.3390
340.8239, 284.8105
341.3060, 285.2821
341.7881, 286.1254
342.2702, 286.9154
342.7523, 286.8489
343.2344, 285.4240
343.7166, 282.7838
344.1987, 279.6265
344.6808, 275.5605
345.1629, 271.3594
345.6450, 267.2389
346.1271, 262.9818
346.6093, 258.2654
347.0914, 253.0191
347.5735, 247.4791
348.0556, 242.2116
348.5377, 237.4801
349.0198, 232.4992
349.5020, 226.7003
349.9841, 221.0985
350.4662, 216.2694
350.9483, 212.3717
351.4304, 209.4219
351.9125, 207.5898
352.3947, 207.0764
352.8768, 206.3608
353.3589, 205.4835
353.8410, 204.3699
354.3231, 202.4808
354.8052, 200.3397
355.2874, 199.0703
355.7695, 199.5862
356.2516, 201.4567
356.7337, 202.1715
357.2158, 200.4222
357.6979, 199.2697
358.1800, 199.5645
358.6621, 200.5695
359.1443, 201.4026
359.6264, 201.7310
360.1085, 202.0103
360.5906, 203.2903
361.0727, 206.4176
361.5548, 208.2964
362.0370, 207.2189
362.5191, 205.9383
363.0012, 206.4100
363.4833, 208.6494
363.9654, 211.0459
364.4475, 211.8127
364.9297, 210.8165
365.4118, 210.4397
365.8939, 211.1583
366.3760, 212.0167
366.8581, 212.5877
367.3402, 213.0043
367.8224, 213.6006
368.3045, 214.6536
368.7866, 215.9467
369.2687, 216.8790
369.7508, 217.4901
370.2329, 217.6098
370.7151, 216.6577
371.1972, 215.4790
371.6793, 215.0453
372.1614, 215.7227
372.6435, 216.5407
373.1256, 216.2016
373.6078, 214.6195
374.0899, 213.1207
374.5720, 211.6681
375.0541, 210.7068
375.5362, 210.5354
376.0183, 211.1400
376.5005, 212.2856
376.9826, 214.1610
377.4647, 216.5046
377.9468, 218.2787
378.4289, 219.1627
378.9110, 220.0476
379.3932, 221.9208
379.8753, 224.1990
380.3574, 225.6714
380.8395, 225.3878
381.3216, 224.6631
381.8037, 225.1952
382.2859, 227.0083
382.7680, 228.9453
383.2501, 230.8735
383.7322, 232.3486
384.2143, 232.5605
384.6964, 230.9991
385.1786, 229.9345
385.6607, 230.8933
386.1428, 233.3494
386.6249, 235.9647
387.1070, 238.4532
387.5891, 240.9576
388.0713, 243.7245
388.5534, 246.7239
389.0355, 249.6138
389.5176, 252.1130
389.9997, 254.6046
390.4818, 257.2949
390.9640, 260.2475
391.4461, 263.8882
391.9282, 268.7099
392.4103, 274.4655
392.8924, 279.7203
393.3745, 283.9646
393.8567, 288.3146
394.3388, 293.4451
394.8209, 298.9559
395.3030, 303.7321
395.7851, 307.2769
396.2672, 310.7483
396.7494, 316.5052
397.2315, 326.3727
397.7136, 334.0418
398.1957, 337.5144
398.6778, 339.9090
399.1599, 343.7650
399.6420, 349.3141
400.1241, 355.4586
400.6063, 361.3219
401.0884, 366.9390
401.5705, 371.7730
402.0526, 375.4331
402.5347, 378.8790
403.0168, 381.9970
403.4990, 385.1855
403.9811, 389.2594
404.4632, 394.6187
404.9453, 400.4411
405.4274, 404.5984
405.9095, 405.3760
406.3917, 407.3410
406.8738, 411.4696
407.3559, 416.0842
407.8380, 419.9835
408.3201, 423.0507
408.8022, 426.0048
409.2844, 429.7816
409.7665, 434.4902
410.2486, 437.9195
410.7307, 438.7555
411.2128, 439.6573
411.6949, 441.6235
412.1771, 444.1236
412.6592, 446.1528
413.1413, 447.1134
413.6234, 447.6836
414.1055, 449.5235
414.5876, 453.2744
415.0698, 456.3622
415.5519, 457.2491
416.0340, 457.8777
416.5161, 459.6313
416.9982, 462.6572
417.4803, 466.0052
417.9625, 468.9106
418.4446, 471.4384
418.9267, 474.0298
419.4088, 476.4255
419.8909, 479.4134
420.3730, 483.4193
420.8552, 488.3133
421.3373, 494.0668
421.8194, 501.9771
422.3015, 509.3864
422.7836, 512.4101
423.2657, 511.0965
423.7479, 509.9406
424.2300, 510.8483
424.7121, 512.7424
425.1942, 514.1645
425.6763, 515.3043
426.1584, 515.1164
426.6406, 512.6096
427.1227, 508.6351
427.6048, 504.7935
428.0869, 501.3817
428.5690, 497.3237
429.0511, 491.4857
429.5333, 483.7993
430.0154, 476.3907
430.4975, 470.5020
430.9796, 463.7131
431.4617, 453.9705
431.9438, 442.2407
432.4260, 430.9677
432.9081, 421.3750
433.3902, 412.8654
433.8723, 404.1050
434.3544, 395.2823
434.8365, 385.8686
435.3187, 374.8951
435.8008, 363.9461
436.2829, 354.4686
436.7650, 346.5461
437.2471, 339.2634
437.7292, 331.7479
438.2114, 323.9435
438.6935, 317.0341
439.1756, 311.9850
439.6577, 306.7545
440.1398, 300.5811
440.6219, 294.0660
441.1040, 288.0812
441.5862, 283.0160
442.0683, 278.5636
442.5504, 274.1385
443.0325, 269.4472
443.5146, 265.6629
443.9967, 263.8709
444.4789, 262.1979
444.9610, 259.7045
445.4431, 256.4532
445.9252, 252.9501
446.4073, 249.3875
446.8894, 245.9095
447.3716, 243.1148
447.8537, 241.1529
448.3358, 239.5092
448.8179, 238.0588
449.3000, 236.7515
449.7821, 235.5275
450.2643, 234.3572
450.7464, 233.3458
451.2285, 232.7652
451.7106, 232.4826
452.1927, 231.8178
452.6748, 230.5536
453.1570, 229.0571
453.6391, 227.7404
454.1212, 226.5398
454.6033, 225.0851
455.0854, 222.9194
455.5675, 220.7469
456.0497, 219.3277
456.5318, 218.5559
457.0139, 217.6552
457.4960, 216.1796
457.9781, 214.3874
458.4602, 213.0183
458.9424, 212.3961
459.4245, 211.4545
459.9066, 209.8766
460.3887, 207.9678
460.8708, 205.9454
461.3529, 203.8843
461.8351, 201.8756
462.3172, 199.9214
462.7993, 198.0089
463.2814, 196.9526
463.7635, 198.2166
464.2456, 198.6003
464.7278, 196.8203
465.2099, 193.8291
465.6920, 190.8400
466.1741, 188.3305
466.6562, 186.2672
467.1383, 184.6177
467.6205, 183.4349
468.1026, 182.4658
468.5847, 181.8817
469.0668, 181.3517
469.5489, 180.8125
470.0310, 180.2105
470.5132, 179.4015
470.9953, 178.1053
471.4774, 176.7250
471.9595, 176.5415
472.4416, 178.0251
472.9237, 178.9571
473.4059, 178.2405
473.8880, 176.7755
474.3701, 175.1698
474.8522, 173.4780
475.3343, 172.0976
475.8164, 171.4578
476.2986, 171.3140
476.7807, 171.1157
477.2628, 170.8354
477.7449, 170.3147
478.2270, 169.2610
478.7091, 167.8444
479.1913, 166.8002
479.6734, 166.2741
480.1555, 166.0055
480.6376, 165.8817
481.1197, 165.9175
481.6018, 166.2292
482.0839, 166.8767
482.5660, 167.5280
483.0482, 167.6664
483.5303, 167.0225
484.0124, 166.8732
484.4945, 167.6347
484.9766, 168.4667
485.4587, 168.8517
485.9409, 168.9397
486.4230, 169.1487
486.9051, 169.7105
487.3872, 170.5728
487.8693, 171.5912
488.3514, 172.8753
488.8336, 174.1318
489.3157, 175.4631
489.7978, 176.6679
490.2799, 177.4727
490.7620, 177.9675
491.2441, 178.5744
491.7263, 179.6718
492.2084, 181.1573
492.6905, 182.5582
493.1726, 183.8999
493.6547, 185.0898
494.1368, 185.5341
494.6190, 186.0696
495.1011, 187.9106
495.5832, 191.4760
496.0653, 194.6552
496.5474, 195.0442
497.0295, 193.7348
497.5117, 194.2865
497.9938, 197.5636
498.4759, 201.2562
498.9580, 203.4116
499.4401, 204.3397
499.9222, 205.8006
500.4044, 208.6151
500.8865, 211.2483
501.3686, 212.8350
501.8507, 213.6886
502.3328, 214.4076
502.8149, 215.1818
503.2971, 216.0849
503.7792, 217.2703
504.2613, 218.9572
504.7434, 220.1336
505.2255, 220.4838
505.7076, 220.6970
506.1898, 221.0632
506.6719, 221.5519
507.1540, 222.1058
507.6361, 222.7124
508.1182, 223.1881
508.6003, 223.0502
509.0825, 222.0487
509.5646, 221.1021
510.0467, 220.3327
510.5288, 219.6117
511.0109, 218.9952
511.4930, 218.3868
511.9752, 217.4775
512.4573, 215.8583
512.9394, 213.9448
513.4215, 212.7249
513.9036, 212.2727
514.3857, 212.0573
514.8679, 212.2655
515.3500, 212.3036
515.8321, 211.4747
516.3142, 209.7256
516.7963, 207.4723
517.2784, 204.3642
517.7606, 201.0927
518.2427, 198.7131
518.7248, 197.2852
519.2069, 196.1070
519.6890, 194.8532
520.1711, 193.4164
520.6533, 191.2671
521.1354, 187.0042
521.6175, 183.9772
522.0996, 184.0719
522.5817, 184.8984
523.0638, 183.8693
523.5460, 180.7149
524.0281, 177.0709
524.5102, 174.5430
524.9923, 173.0971
525.4744, 171.1534
525.9565, 168.0472
526.4387, 165.3366
526.9208, 163.6599
527.4029, 162.3335
527.8850, 160.5978
528.3671, 158.2752
528.8492, 155.8689
529.3314, 153.8652
529.8135, 152.2464
530.2956, 150.8260
530.7777, 149.6647
531.2598, 148.5663
531.7419, 147.4189
532.2241, 146.2547
532.7062, 145.1603
533.1883, 144.3479
533.6704, 143.2105
534.1525, 141.0321
534.6346, 138.2453
535.1168, 135.7313
535.5989, 133.6588
536.0810, 132.2424
536.5631, 131.9238
537.0452, 132.7688
537.5273, 132.7238
538.0095, 130.9786
538.4916, 129.3322
538.9737, 128.5018
539.4558, 128.1661
539.9379, 127.7912
540.4200, 127.2098
540.9022, 126.6803
541.3843, 126.6946
541.8664, 127.5087
542.3485, 127.4093
542.8306, 125.4423
543.3127, 123.5649
543.7948, 122.5088
544.2769, 121.9028
544.7590, 121.1328
545.2411, 119.9522
545.7233, 118.6999
546.2054, 117.7799
546.6875, 117.1791
547.1696, 116.7928
547.6517, 116.7014
548.1339, 116.6379
548.6160, 116.2945
549.0981, 115.7887
549.5802, 115.4670
550.0623, 115.5928
550.5444, 115.7081
551.0266, 115.4263
551.5087, 114.9184
551.9908, 114.6317
552.4729, 114.7120
552.9550, 114.8136
553.4371, 114.4617
553.9193, 113.5165
554.4014, 112.9758
554.8835, 113.4148
555.3656, 113.5651
555.8477, 112.7258
556.3298, 111.3838
556.8120, 110.1430
557.2941, 109.2463
557.7762, 108.8792
558.2583, 109.6626
558.7404, 111.8836
559.2225, 112.7384
559.7047, 111.0507
560.1868, 109.4059
560.6689, 109.3512
561.1510, 110.0638
561.6331, 110.0445
562.1152, 108.5971
562.5974, 107.0213
563.0795, 106.6076
563.5616, 107.0787
564.0437, 107.4942
564.5258, 107.7131
565.0079, 107.6367
565.4901, 107.0499
565.9722, 105.9907
566.4543, 105.2808
566.9364, 104.9143
567.4185, 104.8982
567.9006, 105.3602
568.3828, 106.1273
568.8649, 107.1831
569.3470, 108.4299
569.8291, 109.2752
570.3112, 108.9157
570.7933, 107.2580
571.2755, 106.0574
571.7576, 105.5307
572.2397, 105.2158
572.7218, 104.9934
573.2039, 104.9156
573.6860, 105.1056
574.1682, 105.5855
574.6503, 106.0892
575.1324, 106.4336
575.6145, 106.6015
576.0966, 106.4688
576.5787, 105.9615
577.0609, 105.4105
577.5430, 104.9827
578.0251, 104.6671
578.5072, 104.4047
578.9893, 104.1303
579.4714, 104.0540
579.9536, 104.5396
580.4357, 105.1194
580.9178, 105.1397
581.3999, 104.5779
581.8820, 103.9375
582.3641, 103.5976
582.8463, 103.5085
583.3284, 103.3794
583.8105, 103.2952
584.2926, 103.0361
584.7747, 102.2955
585.2568, 101.6016
585.7390, 101.4460
586.2211, 101.7703
586.7032, 102.1042
587.1853, 102.1390
587.6674, 101.9257
588.1495, 101.5848
588.6317, 101.1073
589.1138, 100.5206
589.5959, 99.57499
590.0780, 98.77828
590.5601, 98.87025
591.0422, 99.83195
591.5244, 100.5085
592.0065, 100.1539
592.4886, 99.67258
592.9707, 100.0608
593.4528, 101.0668
593.9349, 101.6838
594.4171, 101.4356
594.8992, 100.8313
595.3813, 100.7975
595.8634, 101.6821
596.3455, 102.1006
596.8276, 101.6005
597.3098, 101.1763
597.7919, 101.2253
598.2740, 101.6417
598.7561, 102.3415
599.2382, 103.3190
599.7203, 104.0546
600.2025, 103.4712
600.6846, 101.6298
601.1667, 101.0446
601.6488, 102.5456
602.1309, 104.1597
602.6130, 104.4772
603.0952, 103.9495
603.5773, 103.3891
604.0594, 102.8057
604.5415, 102.3778
605.0236, 102.3733
605.5057, 102.5124
605.9879, 102.1150
606.4700, 101.1752
606.9521, 100.8313
607.4342, 102.2428
607.9163, 105.0088
608.3984, 106.0702
608.8806, 103.9344
609.3627, 102.0650
609.8448, 100.4198
610.3269, 99.38335
610.8090, 99.63023
611.2911, 100.8886
611.7733, 101.9393
612.2554, 101.8758
612.7375, 101.0903
613.2196, 100.3186
613.7017, 99.50043
614.1838, 99.42018
614.6660, 100.8714
615.1481, 102.4833
615.6302, 102.3008
616.1123, 100.4770
616.5944, 99.46294
617.0765, 100.3782
617.5587, 101.6679
618.0408, 102.4288
618.5229, 102.7427
619.0050, 102.7974
619.4871, 102.6683
619.9692, 102.5854
620.4514, 102.9672
620.9335, 103.9981
621.4156, 104.0751
621.8977, 102.0033
622.3798, 100.3766
622.8619, 100.0383
623.3441, 100.3992
623.8262, 100.9243
624.3083, 101.4639
624.7904, 101.7388
625.2725, 101.2153
625.7546, 100.2749
626.2367, 100.1669
626.7188, 101.0488
627.2009, 101.5512
627.6830, 100.6684
628.1652, 99.19175
628.6473, 99.12017
629.1294, 101.0320
629.6115, 102.2240
630.0936, 101.7207
630.5757, 100.8689
631.0579, 100.6457
631.5400, 100.9146
632.0221, 101.0844
632.5042, 100.8537
632.9863, 100.4170
633.4684, 100.0994
633.9506, 99.87818
634.4327, 99.88326
634.9148, 100.1469
635.3969, 100.6199
635.8790, 101.6596
636.3611, 102.7747
636.8433, 102.9915
637.3254, 101.7899
637.8075, 100.5603
638.2896, 100.4017
638.7717, 100.8936
639.2538, 101.2853
639.7360, 101.4650
640.2181, 101.4951
640.7002, 101.4094
641.1823, 101.2180
641.6644, 100.9581
642.1465, 100.4396
642.6287, 100.1237
643.1108, 100.0472
643.5929, 100.1472
644.0750, 100.5342
644.5571, 101.0636
645.0392, 101.4164
645.5214, 101.4336
646.0035, 101.1245
646.4856, 100.1813
646.9677, 98.61038
647.4498, 98.23392
647.9319, 99.95443
648.4141, 101.7147
648.8962, 101.5639
649.3783, 100.0112
649.8604, 98.98391
650.3425, 98.82999
650.8246, 98.94704
651.3068, 99.15377
651.7889, 99.47459
652.2710, 100.0882
652.7531, 100.9186
653.2352, 101.4906
653.7173, 101.4079
654.1995, 100.8126
654.6816, 100.2544
655.1637, 99.62648
655.6458, 99.29757
656.1279, 99.37708
656.6100, 99.74632
657.0922, 100.5183
657.5743, 101.5556
658.0564, 102.4702
658.5385, 103.4071
659.0206, 103.7581
659.5027, 102.2534
659.9849, 99.70546
660.4670, 98.65825
660.9491, 99.73777
661.4312, 101.1242
661.9133, 101.1118
662.3954, 99.83038
662.8776, 99.14000
663.3597, 99.30855
663.8418, 99.73698
664.3239, 100.8485
664.8060, 101.8434
665.2881, 101.9751
665.7703, 101.3326
666.2524, 100.5598
666.7345, 99.99904
667.2166, 99.63509
667.6987, 99.45876
668.1808, 99.46718
668.6630, 99.58231
669.1451, 99.85365
