##NAMES=Mansfieldite
##RRUFFID=R060951
##IDEAL CHEMISTRY=AlAs^5+^O_4_&#183;2H_2_O
##LOCALITY=Pampa Larga Mining District, Chile
##OWNER=RRUFF
##SOURCE=Bob Jenkins
##DESCRIPTION=Sharp pale rose crystals, fairly transparent.
##STATUS=The identification of this mineral is confirmed by single-crystal X-ray diffraction and chemical analysis.
##URL=rruff.info/R060951
##MEASURED CHEMISTRY=(Al_0.89_Fe^3+^_0.11_)_Σ=1_As_1.00_O_4_·2H_2_O; trace amounts of P, Mn, Ca, Na; H_2_O estimated by difference
177.9357, 4983.930
178.4178, 5012.927
178.8999, 5046.810
179.3820, 5088.515
179.8641, 5132.114
180.3463, 5170.494
180.8284, 5205.239
181.3105, 5250.188
181.7926, 5319.679
182.2747, 5403.174
182.7568, 5466.010
183.2390, 5494.933
183.7211, 5517.096
184.2032, 5549.133
184.6853, 5590.399
185.1674, 5636.607
185.6495, 5690.243
186.1317, 5744.995
186.6138, 5786.200
187.0959, 5806.483
187.5780, 5821.965
188.0601, 5842.664
188.5422, 5868.214
189.0244, 5896.953
189.5065, 5929.184
189.9886, 5963.544
190.4707, 5996.972
190.9528, 6031.901
191.4349, 6062.497
191.9170, 6082.420
192.3992, 6092.689
192.8813, 6102.257
193.3634, 6113.151
193.8455, 6127.168
194.3276, 6145.975
194.8097, 6169.245
195.2919, 6198.084
195.7740, 6233.154
196.2561, 6274.473
196.7382, 6323.102
197.2203, 6385.024
197.7024, 6450.526
198.1846, 6505.151
198.6667, 6548.146
199.1488, 6581.859
199.6309, 6601.022
200.1130, 6608.723
200.5951, 6628.057
201.0773, 6675.162
201.5594, 6730.910
202.0415, 6768.500
202.5236, 6785.469
203.0057, 6793.052
203.4878, 6800.293
203.9700, 6805.311
204.4521, 6797.666
204.9342, 6773.350
205.4163, 6734.360
205.8984, 6686.501
206.3805, 6629.677
206.8627, 6565.259
207.3448, 6489.236
207.8269, 6404.915
208.3090, 6327.281
208.7911, 6266.364
209.2732, 6205.562
209.7554, 6122.594
210.2375, 6016.079
210.7196, 5912.373
211.2017, 5824.119
211.6838, 5749.862
212.1659, 5686.414
212.6480, 5636.103
213.1302, 5592.825
213.6123, 5550.229
214.0944, 5508.161
214.5765, 5469.799
215.0586, 5436.331
215.5407, 5407.648
216.0229, 5383.910
216.5050, 5367.078
216.9871, 5351.644
217.4692, 5331.959
217.9513, 5308.849
218.4334, 5286.332
218.9156, 5263.490
219.3977, 5242.842
219.8798, 5231.185
220.3619, 5232.012
220.8440, 5234.011
221.3261, 5227.572
221.8083, 5214.224
222.2904, 5197.113
222.7725, 5171.660
223.2546, 5144.771
223.7367, 5130.371
224.2188, 5132.366
224.7010, 5131.985
225.1831, 5104.140
225.6652, 5060.500
226.1473, 5035.815
226.6294, 5057.515
227.1115, 5092.063
227.5937, 5096.564
228.0758, 5067.670
228.5579, 5033.683
229.0400, 5011.993
229.5221, 4999.700
230.0042, 4989.086
230.4864, 4981.644
230.9685, 4973.663
231.4506, 4959.701
231.9327, 4940.037
232.4148, 4923.361
232.8969, 4912.795
233.3791, 4910.161
233.8612, 4917.735
234.3433, 4944.154
234.8254, 4970.874
235.3075, 4985.398
235.7896, 4988.710
236.2717, 4985.841
236.7539, 4974.703
237.2360, 4962.193
237.7181, 4964.272
238.2002, 4991.553
238.6823, 5013.238
239.1644, 5005.007
239.6466, 4976.836
240.1287, 4961.497
240.6108, 4974.295
241.0929, 5001.161
241.5750, 5016.449
242.0571, 5019.881
242.5393, 5016.580
243.0214, 5001.575
243.5035, 4981.956
243.9856, 4973.386
244.4677, 4982.395
244.9498, 4997.053
245.4320, 4998.189
245.9141, 4984.408
246.3962, 4970.391
246.8783, 4956.304
247.3604, 4944.782
247.8425, 4941.798
248.3247, 4949.036
248.8068, 4956.122
249.2889, 4948.014
249.7710, 4920.533
250.2531, 4908.512
250.7352, 4926.326
251.2174, 4953.147
251.6995, 4973.032
252.1816, 4983.676
252.6637, 4985.328
253.1458, 4974.428
253.6279, 4949.425
254.1101, 4943.783
254.5922, 4980.483
255.0743, 5015.911
255.5564, 5018.241
256.0385, 4993.114
256.5206, 4970.797
257.0027, 4974.370
257.4849, 5001.076
257.9670, 5009.991
258.4491, 4980.961
258.9312, 4959.219
259.4133, 4972.172
259.8954, 5004.487
260.3776, 5020.335
260.8597, 4998.572
261.3418, 4951.652
261.8239, 4928.435
262.3060, 4949.871
262.7881, 4968.909
263.2703, 4977.183
263.7524, 4980.085
264.2345, 4986.127
264.7166, 4998.657
265.1987, 5011.787
265.6808, 5012.836
266.1630, 4983.405
266.6451, 4968.357
267.1272, 4982.449
267.6093, 5001.541
268.0914, 5001.083
268.5735, 4977.388
269.0557, 4950.045
269.5378, 4946.880
270.0199, 4982.699
270.5020, 5001.792
270.9841, 4991.458
271.4662, 4978.410
271.9484, 4978.277
272.4305, 4990.700
272.9126, 5005.692
273.3947, 5014.602
273.8768, 5017.321
274.3589, 5014.376
274.8411, 4996.693
275.3232, 4982.073
275.8053, 4974.431
276.2874, 4974.109
276.7695, 4981.291
277.2516, 4997.289
277.7338, 5020.179
278.2159, 5038.457
278.6980, 5051.635
279.1801, 5060.049
279.6622, 5061.661
280.1443, 5059.763
280.6265, 5057.639
281.1086, 5056.462
281.5907, 5057.146
282.0728, 5062.401
282.5549, 5074.760
283.0370, 5085.064
283.5192, 5093.982
284.0013, 5098.662
284.4834, 5092.603
284.9655, 5074.542
285.4476, 5059.311
285.9297, 5068.098
286.4119, 5103.799
286.8940, 5130.804
287.3761, 5133.390
287.8582, 5135.001
288.3403, 5154.253
288.8224, 5189.604
289.3046, 5222.188
289.7867, 5230.548
290.2688, 5222.386
290.7509, 5238.373
291.2330, 5295.769
291.7151, 5352.478
292.1972, 5372.808
292.6794, 5369.202
293.1615, 5374.090
293.6436, 5406.917
294.1257, 5453.433
294.6078, 5490.150
295.0899, 5515.222
295.5721, 5541.853
296.0542, 5578.612
296.5363, 5622.301
297.0184, 5665.696
297.5005, 5710.440
297.9826, 5751.700
298.4648, 5782.502
298.9469, 5804.873
299.4290, 5832.388
299.9111, 5872.873
300.3932, 5919.456
300.8753, 5958.048
301.3575, 5986.582
301.8396, 6013.716
302.3217, 6044.910
302.8038, 6076.072
303.2859, 6097.961
303.7680, 6107.126
304.2502, 6113.811
304.7323, 6132.636
305.2144, 6167.386
305.6965, 6198.971
306.1786, 6230.775
306.6607, 6255.993
307.1429, 6264.663
307.6250, 6258.077
308.1071, 6252.056
308.5892, 6262.187
309.0713, 6290.035
309.5534, 6298.930
310.0356, 6274.312
310.5177, 6249.521
310.9998, 6241.778
311.4819, 6243.630
311.9640, 6237.400
312.4461, 6212.388
312.9283, 6173.888
313.4104, 6142.790
313.8925, 6127.919
314.3746, 6110.076
314.8567, 6080.142
315.3388, 6050.417
315.8210, 6037.556
316.3031, 6045.460
316.7852, 6057.685
317.2673, 6046.653
317.7494, 6000.529
318.2315, 5961.926
318.7137, 5933.279
319.1958, 5910.749
319.6779, 5895.131
320.1600, 5884.694
320.6421, 5874.172
321.1242, 5858.187
321.6064, 5836.971
322.0885, 5818.767
322.5706, 5801.265
323.0527, 5790.252
323.5348, 5788.066
324.0169, 5793.065
324.4991, 5803.031
324.9812, 5818.421
325.4633, 5836.213
325.9454, 5852.008
326.4275, 5866.534
326.9096, 5875.251
327.3918, 5868.049
327.8739, 5858.343
328.3560, 5860.479
328.8381, 5877.964
329.3202, 5901.145
329.8023, 5923.278
330.2845, 5944.769
330.7666, 5970.042
331.2487, 6005.729
331.7308, 6036.396
332.2129, 6038.939
332.6950, 6014.892
333.1772, 5996.967
333.6593, 6004.845
334.1414, 6019.696
334.6235, 6016.034
335.1056, 5991.275
335.5877, 5960.870
336.0698, 5936.533
336.5519, 5917.731
337.0341, 5894.982
337.5162, 5861.209
337.9983, 5830.734
338.4804, 5811.688
338.9625, 5801.417
339.4446, 5794.473
339.9268, 5788.840
340.4089, 5782.626
340.8910, 5770.541
341.3731, 5740.296
341.8552, 5720.333
342.3373, 5721.979
342.8195, 5728.558
343.3016, 5724.374
343.7837, 5706.309
344.2658, 5681.422
344.7479, 5657.631
345.2300, 5634.735
345.7122, 5614.124
346.1943, 5596.494
346.6764, 5580.312
347.1585, 5565.841
347.6406, 5552.477
348.1227, 5539.009
348.6049, 5524.373
349.0870, 5509.215
349.5691, 5495.997
350.0512, 5485.416
350.5333, 5475.724
351.0154, 5466.775
351.4976, 5458.239
351.9797, 5449.965
352.4618, 5442.016
352.9439, 5433.620
353.4260, 5421.279
353.9081, 5404.865
354.3903, 5398.955
354.8724, 5416.668
355.3545, 5434.037
355.8366, 5429.101
356.3187, 5403.972
356.8008, 5378.423
357.2830, 5361.068
357.7651, 5349.469
358.2472, 5339.526
358.7293, 5331.034
359.2114, 5323.977
359.6935, 5317.032
360.1757, 5311.797
360.6578, 5313.208
361.1399, 5330.114
361.6220, 5345.111
362.1041, 5348.214
362.5862, 5342.261
363.0684, 5333.328
363.5505, 5323.339
364.0326, 5313.469
364.5147, 5305.615
364.9968, 5296.870
365.4789, 5296.532
365.9611, 5315.573
366.4432, 5336.274
366.9253, 5339.823
367.4074, 5326.953
367.8895, 5316.142
368.3716, 5325.592
368.8538, 5356.502
369.3359, 5382.528
369.8180, 5401.959
370.3001, 5418.113
370.7822, 5432.029
371.2643, 5443.001
371.7465, 5448.039
372.2286, 5444.984
372.7107, 5440.829
373.1928, 5453.053
373.6749, 5491.018
374.1570, 5517.642
374.6392, 5511.694
375.1213, 5502.930
375.6034, 5511.243
376.0855, 5537.657
376.5676, 5567.653
377.0497, 5590.434
377.5319, 5607.411
378.0140, 5623.244
378.4961, 5635.702
378.9782, 5652.841
379.4603, 5685.426
379.9424, 5726.473
380.4246, 5762.787
380.9066, 5795.047
381.3888, 5817.985
381.8709, 5815.634
382.3530, 5795.650
382.8351, 5799.463
383.3172, 5849.459
383.7993, 5922.430
384.2815, 5971.125
384.7636, 5990.037
385.2457, 6007.239
385.7278, 6018.817
386.2099, 6036.074
386.6920, 6077.761
387.1742, 6142.448
387.6563, 6202.649
388.1384, 6231.343
388.6205, 6227.033
389.1026, 6236.056
389.5847, 6264.622
390.0669, 6298.526
390.5490, 6333.879
391.0311, 6372.327
391.5132, 6417.689
391.9953, 6471.818
392.4774, 6530.379
392.9596, 6587.907
393.4417, 6650.646
393.9238, 6693.971
394.4059, 6690.168
394.8880, 6686.224
395.3701, 6710.766
395.8523, 6761.904
396.3344, 6816.958
396.8165, 6864.418
397.2986, 6903.387
397.7807, 6927.787
398.2628, 6933.505
398.7450, 6937.369
399.2271, 6948.796
399.7092, 6964.241
400.1913, 6978.756
400.6734, 6993.593
401.1555, 7003.576
401.6377, 6997.253
402.1198, 6982.808
402.6019, 6985.428
403.0840, 7014.433
403.5661, 7054.681
404.0482, 7087.447
404.5304, 7112.080
405.0125, 7132.120
405.4946, 7145.217
405.9767, 7155.936
406.4588, 7166.341
406.9409, 7177.051
407.4231, 7188.459
407.9052, 7200.678
408.3873, 7214.300
408.8694, 7232.094
409.3515, 7259.009
409.8336, 7283.450
410.3158, 7297.436
410.7979, 7312.667
411.2800, 7343.045
411.7621, 7389.593
412.2442, 7436.678
412.7263, 7463.520
413.2085, 7468.749
413.6906, 7490.254
414.1727, 7537.608
414.6548, 7588.656
415.1369, 7635.562
415.6190, 7677.690
416.1012, 7712.824
416.5833, 7736.607
417.0654, 7758.318
417.5475, 7789.757
418.0296, 7830.188
418.5117, 7868.767
418.9939, 7900.742
419.4760, 7930.985
419.9581, 7969.893
420.4402, 8020.312
420.9223, 8057.875
421.4044, 8067.844
421.8866, 8068.202
422.3687, 8079.190
422.8508, 8100.044
423.3329, 8112.997
423.8150, 8102.726
424.2971, 8074.116
424.7793, 8063.866
425.2614, 8105.709
425.7435, 8124.118
426.2256, 8093.384
426.7077, 8042.532
427.1898, 8001.469
427.6719, 7977.854
428.1541, 7959.079
428.6362, 7929.640
429.1183, 7888.234
429.6004, 7848.133
430.0825, 7817.728
430.5646, 7777.797
431.0468, 7714.895
431.5289, 7638.124
432.0110, 7563.898
432.4931, 7497.810
432.9752, 7438.816
433.4573, 7388.161
433.9395, 7345.214
434.4216, 7299.768
434.9037, 7245.917
435.3858, 7191.695
435.8679, 7150.984
436.3500, 7124.972
436.8322, 7090.762
437.3143, 7033.205
437.7964, 6971.152
438.2785, 6925.866
438.7606, 6895.632
439.2427, 6858.816
439.7249, 6798.107
440.2070, 6722.746
440.6891, 6676.613
441.1712, 6695.044
441.6533, 6698.227
442.1354, 6674.049
442.6176, 6635.646
443.0997, 6588.230
443.5818, 6536.294
444.0639, 6493.297
444.5460, 6476.315
445.0281, 6485.131
445.5103, 6486.723
445.9924, 6477.301
446.4745, 6465.962
446.9566, 6460.320
447.4387, 6453.992
447.9208, 6436.147
448.4030, 6400.460
448.8851, 6362.907
449.3672, 6339.474
449.8493, 6328.257
450.3314, 6318.642
450.8135, 6306.378
451.2957, 6300.499
451.7778, 6314.235
452.2599, 6347.268
452.7420, 6376.862
453.2241, 6395.803
453.7062, 6415.216
454.1884, 6441.814
454.6705, 6474.708
455.1526, 6511.117
455.6347, 6549.818
456.1168, 6590.400
456.5989, 6631.810
457.0811, 6673.055
457.5632, 6717.388
458.0453, 6770.982
458.5274, 6821.513
459.0095, 6862.140
459.4916, 6892.979
459.9738, 6916.281
460.4559, 6929.862
460.9380, 6939.937
461.4201, 6972.169
461.9022, 7039.656
462.3843, 7078.714
462.8665, 7058.856
463.3486, 7003.576
463.8307, 6934.725
464.3128, 6853.131
464.7949, 6766.302
465.2770, 6672.034
465.7592, 6577.979
466.2413, 6498.244
466.7234, 6433.771
467.2055, 6370.876
467.6876, 6299.082
468.1697, 6220.341
468.6519, 6148.425
469.1340, 6086.533
469.6161, 6026.046
470.0982, 5966.056
470.5803, 5906.175
471.0624, 5839.894
471.5445, 5768.817
472.0266, 5710.410
472.5088, 5688.529
472.9909, 5703.844
473.4730, 5693.343
473.9551, 5635.570
474.4372, 5582.693
474.9193, 5554.326
475.4015, 5539.721
475.8836, 5525.704
476.3657, 5508.695
476.8478, 5491.788
477.3299, 5476.696
477.8120, 5463.869
478.2942, 5456.199
478.7763, 5455.291
479.2584, 5455.608
479.7405, 5453.723
480.2226, 5449.111
480.7047, 5438.341
481.1869, 5410.403
481.6690, 5388.039
482.1511, 5384.863
482.6332, 5393.335
483.1153, 5400.332
483.5974, 5401.433
484.0796, 5401.835
484.5617, 5408.725
485.0438, 5422.524
485.5259, 5440.979
486.0080, 5479.008
486.4901, 5506.329
486.9723, 5503.389
487.4544, 5484.361
487.9365, 5473.489
488.4186, 5481.017
488.9007, 5499.728
489.3828, 5525.373
489.8650, 5556.857
490.3471, 5575.500
490.8292, 5571.802
491.3113, 5564.274
491.7934, 5575.463
492.2755, 5602.255
492.7577, 5620.003
493.2398, 5620.016
493.7219, 5614.837
494.2040, 5604.995
494.6861, 5596.804
495.1682, 5606.829
495.6504, 5642.086
496.1325, 5688.073
496.6146, 5720.863
497.0967, 5738.640
497.5788, 5747.638
498.0609, 5742.111
498.5431, 5734.138
499.0252, 5725.104
499.5073, 5717.894
499.9894, 5719.651
500.4715, 5737.381
500.9536, 5754.372
501.4358, 5736.802
501.9179, 5684.477
502.4000, 5653.495
502.8821, 5663.260
503.3642, 5687.331
503.8463, 5703.262
504.3285, 5711.551
504.8106, 5711.006
505.2927, 5698.186
505.7748, 5679.397
506.2569, 5652.549
506.7390, 5623.445
507.2212, 5609.085
507.7033, 5616.829
508.1854, 5631.129
508.6675, 5625.040
509.1496, 5590.652
509.6317, 5559.356
510.1139, 5527.844
510.5960, 5502.664
511.0781, 5487.922
511.5602, 5481.251
512.0423, 5480.318
512.5244, 5486.731
513.0065, 5488.727
513.4886, 5463.651
513.9708, 5412.801
514.4529, 5374.364
514.9350, 5360.359
515.4171, 5352.672
515.8992, 5331.439
516.3813, 5299.497
516.8635, 5276.810
517.3456, 5273.535
517.8277, 5272.710
518.3098, 5270.652
518.7919, 5262.824
519.2740, 5238.979
519.7562, 5195.683
520.2383, 5142.874
520.7204, 5092.220
521.2025, 5040.638
521.6846, 5007.233
522.1667, 5009.240
522.6489, 5012.593
523.1310, 5012.770
523.6131, 5006.003
524.0952, 4985.302
524.5773, 4946.392
525.0594, 4904.019
525.5416, 4877.542
526.0237, 4862.486
526.5058, 4834.480
526.9879, 4785.655
527.4700, 4738.716
527.9521, 4712.972
528.4343, 4706.792
528.9164, 4698.014
529.3985, 4694.582
529.8806, 4679.391
530.3627, 4640.272
530.8448, 4589.022
531.3270, 4535.329
531.8091, 4484.028
532.2912, 4445.821
532.7733, 4436.293
533.2554, 4454.475
533.7375, 4453.308
534.2197, 4422.261
534.7018, 4388.948
535.1839, 4355.387
535.6660, 4327.690
536.1481, 4316.137
536.6302, 4323.602
537.1124, 4328.684
537.5945, 4315.020
538.0766, 4290.226
538.5587, 4267.070
539.0408, 4246.714
539.5229, 4230.491
540.0051, 4221.742
540.4872, 4215.906
540.9693, 4196.729
541.4514, 4141.644
541.9335, 4105.525
542.4156, 4106.865
542.8978, 4115.971
543.3799, 4110.804
543.8620, 4091.890
544.3441, 4071.549
544.8262, 4057.859
545.3083, 4049.162
545.7905, 4042.219
546.2726, 4037.923
546.7547, 4029.775
547.2368, 4011.760
547.7189, 3993.726
548.2010, 3988.019
548.6832, 3993.576
549.1653, 3993.392
549.6474, 3979.520
550.1295, 3961.194
550.6116, 3942.263
551.0938, 3924.789
551.5759, 3912.783
552.0580, 3907.868
552.5401, 3909.271
553.0222, 3917.462
553.5043, 3936.745
553.9865, 3945.556
554.4686, 3933.277
554.9507, 3921.169
555.4328, 3918.102
555.9149, 3918.758
556.3970, 3913.189
556.8792, 3896.922
557.3613, 3881.980
557.8434, 3884.037
558.3255, 3897.280
558.8076, 3899.621
559.2897, 3886.453
559.7719, 3876.468
560.2540, 3886.024
560.7361, 3910.696
561.2182, 3922.791
561.7003, 3919.653
562.1824, 3909.376
562.6646, 3886.557
563.1467, 3861.552
563.6288, 3844.622
564.1109, 3835.825
564.5930, 3826.993
565.0751, 3809.955
565.5573, 3789.674
566.0394, 3786.708
566.5215, 3806.681
567.0036, 3819.087
567.4857, 3811.765
567.9678, 3796.614
568.4500, 3784.452
568.9321, 3775.368
569.4142, 3772.172
569.8963, 3782.548
570.3784, 3793.166
570.8605, 3790.177
571.3427, 3779.071
571.8248, 3775.733
572.3069, 3786.359
572.7890, 3800.971
573.2711, 3803.532
573.7532, 3790.487
574.2354, 3784.381
574.7175, 3794.507
575.1996, 3800.601
575.6817, 3794.312
576.1638, 3780.699
576.6459, 3764.286
577.1281, 3744.838
577.6102, 3733.437
578.0923, 3746.924
578.5744, 3772.964
579.0565, 3783.802
579.5386, 3776.628
580.0208, 3764.980
580.5029, 3756.651
580.9850, 3751.265
581.4671, 3747.369
581.9492, 3742.557
582.4313, 3742.798
582.9134, 3758.134
583.3955, 3770.115
583.8776, 3761.098
584.3597, 3736.980
584.8419, 3718.310
585.3240, 3717.852
585.8061, 3726.066
586.2882, 3727.073
586.7703, 3721.035
587.2524, 3713.226
587.7346, 3703.559
588.2167, 3695.136
588.6988, 3690.267
589.1809, 3689.286
589.6630, 3693.749
590.1451, 3711.745
590.6273, 3725.825
591.1094, 3727.300
591.5915, 3722.466
592.0736, 3719.188
592.5557, 3718.944
593.0378, 3718.166
593.5200, 3713.382
594.0021, 3705.157
594.4842, 3695.664
594.9663, 3682.677
595.4484, 3676.045
595.9305, 3683.007
596.4127, 3694.878
596.8948, 3700.512
597.3769, 3699.532
597.8590, 3703.040
598.3411, 3722.103
598.8232, 3739.958
599.3054, 3742.716
599.7875, 3733.784
600.2696, 3720.695
600.7517, 3706.529
601.2338, 3695.400
601.7159, 3694.479
602.1981, 3705.433
602.6802, 3713.427
603.1623, 3720.219
603.6444, 3721.321
604.1265, 3707.815
604.6086, 3691.441
605.0908, 3689.491
605.5729, 3707.224
606.0550, 3721.302
606.5371, 3711.238
607.0192, 3694.072
607.5013, 3696.635
607.9835, 3716.645
608.4656, 3730.721
608.9477, 3726.127
609.4298, 3708.270
609.9119, 3687.728
610.3940, 3657.141
610.8762, 3641.768
611.3583, 3657.157
611.8404, 3672.359
612.3225, 3671.530
612.8046, 3662.444
613.2867, 3660.939
613.7689, 3673.961
614.2510, 3688.271
614.7331, 3690.471
615.2152, 3686.186
615.6973, 3689.451
616.1794, 3701.785
616.6616, 3711.017
617.1437, 3707.645
617.6258, 3696.250
618.1079, 3694.492
618.5900, 3715.673
619.0721, 3724.932
619.5543, 3710.719
620.0364, 3694.800
620.5185, 3691.877
621.0006, 3697.999
621.4827, 3699.961
621.9648, 3690.069
622.4470, 3677.980
622.9291, 3676.402
623.4112, 3682.118
623.8933, 3682.245
624.3754, 3673.995
624.8575, 3665.276
625.3397, 3662.252
625.8218, 3664.392
626.3039, 3667.836
626.7860, 3676.109
627.2681, 3680.953
627.7502, 3679.521
628.2324, 3676.399
628.7145, 3676.905
629.1966, 3679.203
629.6787, 3674.598
630.1608, 3653.032
630.6429, 3631.128
631.1251, 3639.660
631.6072, 3672.190
632.0893, 3689.164
632.5714, 3680.239
633.0535, 3662.955
633.5356, 3652.522
634.0178, 3648.410
634.4999, 3642.272
634.9820, 3628.313
635.4641, 3620.056
635.9462, 3625.101
636.4283, 3632.335
636.9105, 3632.061
637.3926, 3624.365
637.8747, 3614.825
638.3568, 3604.266
638.8389, 3597.098
639.3210, 3604.462
639.8032, 3623.878
640.2853, 3634.448
640.7674, 3629.492
641.2495, 3622.257
641.7316, 3628.185
642.2137, 3646.668
642.6959, 3647.412
643.1780, 3607.967
643.6601, 3581.510
644.1422, 3589.744
644.6243, 3605.696
645.1064, 3602.953
645.5886, 3582.645
646.0707, 3566.202
646.5528, 3570.214
647.0349, 3582.629
647.5170, 3582.583
647.9991, 3572.032
648.4813, 3565.778
648.9634, 3567.949
649.4455, 3573.222
649.9276, 3577.351
650.4097, 3580.256
650.8918, 3577.547
651.3740, 3557.728
651.8561, 3547.425
652.3382, 3560.933
652.8203, 3577.925
653.3024, 3579.176
653.7845, 3565.637
654.2667, 3552.500
654.7488, 3548.532
655.2309, 3550.198
655.7130, 3555.240
656.1951, 3562.138
656.6772, 3562.520
657.1594, 3553.753
657.6415, 3542.636
658.1236, 3534.996
658.6057, 3530.847
659.0878, 3530.435
659.5699, 3537.925
660.0521, 3543.689
660.5342, 3547.302
661.0163, 3548.458
661.4984, 3547.604
661.9805, 3544.244
662.4626, 3535.821
662.9448, 3515.658
663.4269, 3497.542
663.9090, 3501.037
664.3911, 3519.439
664.8732, 3532.204
665.3553, 3534.960
665.8375, 3531.734
666.3196, 3524.938
666.8017, 3515.503
667.2838, 3510.163
667.7659, 3510.835
668.2480, 3512.387
668.7302, 3513.488
669.2123, 3515.912
669.6944, 3524.075
670.1765, 3534.788
670.6586, 3537.360
671.1407, 3521.874
671.6229, 3507.136
672.1050, 3512.627
