##NAMES=Mapimite
##RRUFFID=R080002
##IDEAL CHEMISTRY=Zn^2+^_2_Fe^3+^_3_(As^5+^O_4_)_3_(OH)_4_&#183;10H_2_O
##LOCALITY=Level 5 between Palomes Oriente and San Carlos, Ojuela mine, Mapimi, Durango, Mexico
##OWNER=RRUFF
##SOURCE=William W. Pinch, from M Romero
##DESCRIPTION=Group of green tabular, rectangular crystals, from the original find
##STATUS=The identification of this mineral has been confirmed by single-crystal X-ray diffraction.
##URL=rruff.info/R080002
155.2568, 57.39616
155.7389, 57.18911
156.2210, 57.18544
156.7031, 57.39325
157.1852, 57.64995
157.6673, 57.69736
158.1495, 57.35162
158.6316, 57.09032
159.1137, 56.95502
159.5958, 56.88181
160.0779, 56.80207
160.5600, 56.69098
161.0422, 56.58216
161.5243, 56.56548
162.0064, 56.72570
162.4885, 56.77496
162.9706, 56.57825
163.4527, 56.23023
163.9349, 55.89165
164.4170, 55.58538
164.8991, 55.38520
165.3812, 55.44310
165.8633, 55.84529
166.3454, 56.21776
166.8276, 56.30162
167.3097, 56.13599
167.7918, 56.02037
168.2739, 56.08228
168.7560, 56.24784
169.2381, 56.43188
169.7203, 56.63618
170.2024, 56.82904
170.6845, 56.98721
171.1666, 57.11329
171.6487, 57.18529
172.1308, 57.04663
172.6130, 56.92321
173.0951, 57.03532
173.5772, 57.47389
174.0593, 58.03875
174.5414, 58.35318
175.0235, 58.24163
175.5057, 58.24255
175.9878, 58.50755
176.4699, 58.89766
176.9520, 59.30388
177.4341, 59.67881
177.9162, 60.01772
178.3984, 60.31245
178.8805, 60.56989
179.3626, 60.76202
179.8447, 60.82813
180.3268, 60.84755
180.8089, 60.90019
181.2911, 61.02632
181.7732, 61.23595
182.2553, 61.59826
182.7374, 62.38047
183.2195, 63.02355
183.7016, 63.36356
184.1838, 63.49247
184.6659, 63.56889
185.1480, 63.68010
185.6301, 63.83019
186.1122, 64.05997
186.5943, 64.50093
187.0765, 64.86953
187.5586, 65.02446
188.0407, 65.00522
188.5228, 64.96986
189.0049, 65.06212
189.4870, 65.21217
189.9692, 65.06089
190.4513, 64.36409
190.9334, 63.58717
191.4155, 63.04252
191.8976, 62.72240
192.3797, 62.40289
192.8619, 61.88173
193.3440, 61.26409
193.8261, 60.84790
194.3082, 60.87545
194.7903, 60.97812
195.2724, 60.75304
195.7546, 60.16736
196.2367, 59.47882
196.7188, 58.71480
197.2009, 57.97277
197.6830, 57.41125
198.1651, 57.14045
198.6473, 57.03386
199.1294, 56.88060
199.6115, 56.67028
200.0936, 56.43703
200.5757, 56.14425
201.0578, 55.85153
201.5400, 55.64682
202.0221, 55.60313
202.5042, 55.65252
202.9863, 55.57869
203.4684, 55.26140
203.9505, 55.01949
204.4327, 54.96407
204.9148, 55.03075
205.3969, 55.14825
205.8790, 55.29965
206.3611, 55.45329
206.8432, 55.44057
207.3254, 55.04781
207.8075, 54.73651
208.2896, 54.61051
208.7717, 54.62754
209.2538, 54.73073
209.7359, 54.89312
210.2181, 55.10467
210.7002, 55.26495
211.1823, 55.41378
211.6644, 55.46358
212.1465, 55.22510
212.6286, 54.88642
213.1108, 54.78970
213.5929, 55.18929
214.0750, 56.03662
214.5571, 56.60157
215.0392, 56.61854
215.5213, 56.66902
216.0035, 56.92900
216.4856, 57.34789
216.9677, 57.78693
217.4498, 58.15374
217.9319, 58.45642
218.4140, 58.84604
218.8962, 59.44442
219.3783, 59.98330
219.8604, 60.34463
220.3425, 60.55767
220.8246, 60.71659
221.3067, 60.86761
221.7889, 61.01891
222.2710, 61.21912
222.7531, 61.48170
223.2352, 61.77180
223.7173, 62.07500
224.1994, 62.39158
224.6816, 62.71705
225.1637, 63.01561
225.6458, 63.34114
226.1279, 63.85078
226.6100, 64.73895
227.0921, 65.61553
227.5743, 66.19662
228.0564, 66.50269
228.5385, 66.75957
229.0206, 67.02078
229.5027, 67.34761
229.9848, 67.85954
230.4670, 68.72696
230.9491, 69.56606
231.4312, 69.99397
231.9133, 70.00919
232.3954, 70.02316
232.8775, 70.22720
233.3597, 70.54140
233.8418, 70.87711
234.3239, 71.25907
234.8060, 71.59069
235.2881, 71.78507
235.7702, 71.84224
236.2524, 71.76004
236.7345, 71.40076
237.2166, 70.96615
237.6987, 70.64986
238.1808, 70.51035
238.6629, 70.40583
239.1451, 70.18461
239.6272, 69.84692
240.1093, 69.39298
240.5914, 68.70151
241.0735, 67.96033
241.5556, 67.31265
242.0378, 66.79105
242.5199, 66.30607
243.0020, 65.69418
243.4841, 64.87998
243.9662, 64.23653
244.4483, 63.97651
244.9305, 63.80873
245.4126, 63.54045
245.8947, 63.13224
246.3768, 62.69011
246.8589, 62.36843
247.3410, 62.21693
247.8232, 62.03181
248.3053, 61.75826
248.7874, 61.47240
249.2695, 61.16003
249.7516, 60.84544
250.2337, 60.64643
250.7159, 60.78505
251.1980, 61.49379
251.6801, 61.90094
252.1622, 61.89209
252.6443, 61.69929
253.1264, 61.35194
253.6086, 60.90809
254.0907, 60.52024
254.5728, 60.39325
255.0549, 60.62143
255.5370, 60.83300
256.0191, 61.00154
256.5013, 60.52430
256.9834, 61.25484
257.4655, 61.62951
257.9476, 61.66746
258.4297, 60.36011
258.9118, 60.78992
259.3940, 60.52354
259.8761, 60.22864
260.3582, 60.90295
260.8403, 59.79127
261.3224, 60.45022
261.8045, 60.40236
262.2867, 60.67797
262.7688, 60.25312
263.2509, 60.04463
263.7330, 60.53683
264.2151, 60.64106
264.6972, 60.13557
265.1794, 60.43174
265.6615, 59.29560
266.1436, 59.41635
266.6257, 60.07939
267.1078, 59.60913
267.5899, 59.91812
268.0721, 59.93031
268.5542, 58.59375
269.0363, 59.60285
269.5184, 59.59752
270.0005, 58.51646
270.4826, 58.16500
270.9648, 57.79632
271.4469, 57.33981
271.9290, 56.94185
272.4111, 56.70809
272.8932, 56.57972
273.3753, 56.38909
273.8575, 56.01243
274.3396, 55.52159
274.8217, 55.30428
275.3038, 55.57149
275.7859, 55.80669
276.2680, 55.84963
276.7502, 55.74682
277.2323, 55.58374
277.7144, 55.38760
278.1965, 55.17903
278.6786, 55.02719
279.1607, 54.97244
279.6429, 54.89117
280.1250, 54.70903
280.6071, 54.48263
281.0892, 54.33888
281.5713, 54.34377
282.0534, 54.38755
282.5356, 54.23382
283.0177, 53.84901
283.4998, 53.44800
283.9819, 53.10051
284.4640, 52.76513
284.9461, 52.37235
285.4283, 51.89896
285.9104, 51.38894
286.3925, 50.90401
286.8746, 50.44931
287.3567, 49.96547
287.8388, 49.31660
288.3210, 48.67747
288.8031, 48.34770
289.2852, 48.40636
289.7673, 48.50115
290.2494, 48.18205
290.7315, 47.47726
291.2137, 46.97344
291.6958, 46.84533
292.1779, 46.91182
292.6600, 47.01752
293.1421, 47.14951
293.6242, 47.25396
294.1064, 47.28056
294.5885, 47.23669
295.0706, 47.17489
295.5527, 47.04908
296.0348, 46.94209
296.5169, 46.95350
296.9991, 47.07920
297.4812, 47.18911
297.9633, 47.20645
298.4454, 47.14050
298.9275, 47.04687
299.4096, 46.92461
299.8918, 46.77726
300.3739, 46.59597
300.8560, 46.38514
301.3381, 46.17951
301.8202, 45.99464
302.3023, 45.82455
302.7845, 45.67535
303.2666, 45.61204
303.7487, 45.42228
304.2308, 44.88918
304.7129, 44.11082
305.1950, 43.42840
305.6772, 42.95597
306.1593, 42.62461
306.6414, 42.36550
307.1235, 42.19685
307.6056, 41.94188
308.0877, 41.46619
308.5699, 40.85089
309.0520, 40.25439
309.5341, 39.67662
310.0162, 39.20576
310.4983, 39.05781
310.9804, 39.17456
311.4626, 39.13068
311.9447, 38.62703
312.4268, 37.93679
312.9089, 37.49827
313.3910, 37.38799
313.8731, 37.34589
314.3553, 37.14800
314.8374, 36.84007
315.3195, 36.56308
315.8016, 36.41645
316.2837, 36.27047
316.7658, 35.92982
317.2480, 35.38361
317.7301, 34.92418
318.2122, 34.80032
318.6943, 34.87307
319.1764, 34.78827
319.6585, 34.39203
320.1407, 33.99484
320.6228, 33.90219
321.1049, 34.06450
321.5870, 34.10131
322.0691, 33.79571
322.5512, 33.31794
323.0334, 32.98323
323.5155, 32.81863
323.9976, 32.70821
324.4797, 32.63349
324.9618, 32.57081
325.4439, 32.43044
325.9261, 32.15000
326.4082, 31.85499
326.8903, 31.71803
327.3724, 31.73386
327.8545, 31.77295
328.3366, 31.82028
328.8188, 31.85392
329.3009, 31.83821
329.7830, 31.76647
330.2651, 31.64887
330.7472, 31.47568
331.2293, 31.25708
331.7115, 31.04483
332.1936, 30.74562
332.6757, 30.51759
333.1578, 30.60227
333.6399, 31.00929
334.1220, 31.37965
334.6042, 31.47554
335.0863, 31.33784
335.5684, 31.18651
336.0505, 31.00262
336.5326, 30.83168
337.0147, 30.68641
337.4969, 30.57300
337.9790, 30.52941
338.4611, 30.59712
338.9432, 30.72053
339.4253, 30.78277
339.9074, 30.79033
340.3896, 30.73613
340.8717, 30.56340
341.3538, 30.33266
341.8359, 30.16219
342.3180, 30.08469
342.8001, 30.07498
343.2823, 30.10602
343.7644, 30.17499
344.2465, 30.28055
344.7286, 30.50636
345.2107, 30.72628
345.6928, 30.76997
346.1750, 30.61583
346.6571, 30.42309
347.1392, 30.31708
347.6213, 30.30912
348.1034, 30.37411
348.5855, 30.68311
349.0677, 30.92231
349.5498, 30.15722
350.0319, 30.97963
350.5140, 31.44619
350.9961, 31.57601
351.4782, 30.36053
351.9604, 30.88223
352.4425, 30.70774
352.9246, 30.50471
353.4067, 31.27091
353.8888, 30.25110
354.3709, 31.00193
354.8531, 31.04595
355.3352, 31.41346
355.8173, 31.08048
356.2994, 30.96387
356.7815, 31.54796
357.2636, 31.74406
357.7458, 30.92600
358.2279, 31.09329
358.7100, 31.43532
359.1921, 31.73861
359.6742, 31.73318
360.1563, 31.32396
360.6385, 31.21291
361.1206, 31.62547
361.6027, 32.09804
362.0848, 32.40620
362.5669, 32.55576
363.0490, 32.64143
363.5312, 32.72459
364.0133, 32.80075
364.4954, 32.82914
364.9775, 32.64608
365.4596, 32.60970
365.9417, 32.90164
366.4239, 33.34943
366.9060, 33.71949
367.3881, 33.91822
367.8702, 34.01218
368.3523, 34.13763
368.8344, 34.31490
369.3166, 34.49313
369.7987, 34.63214
370.2808, 34.79994
370.7629, 35.08481
371.2450, 35.47567
371.7271, 35.85462
372.2093, 36.08447
372.6914, 36.13783
373.1735, 36.22785
373.6556, 36.39587
374.1377, 36.55692
374.6198, 36.64177
375.1020, 36.69747
375.5841, 36.83140
376.0662, 37.12350
376.5483, 37.52758
377.0304, 37.81590
377.5125, 37.91648
377.9947, 37.99513
378.4768, 38.04253
378.9589, 38.09892
379.4410, 38.22398
379.9231, 38.43322
380.4052, 38.65118
380.8874, 38.73826
381.3695, 38.62246
381.8516, 38.61286
382.3337, 38.83883
382.8158, 39.08868
383.2979, 39.26521
383.7801, 39.36338
384.2622, 39.42259
384.7443, 39.47521
385.2264, 39.51914
385.7085, 39.52788
386.1906, 39.48553
386.6728, 39.42836
387.1549, 39.37653
387.6370, 39.32062
388.1191, 39.23847
388.6012, 39.10653
389.0833, 38.97232
389.5655, 38.94982
390.0476, 39.08081
390.5297, 39.13070
391.0118, 38.89996
391.4939, 38.63234
391.9760, 38.55531
392.4582, 38.70302
392.9403, 38.84688
393.4224, 38.75314
393.9045, 38.47067
394.3866, 38.32234
394.8687, 38.43240
395.3509, 38.54987
395.8330, 38.45429
396.3151, 38.19795
396.7972, 37.94314
397.2793, 37.69703
397.7614, 37.51221
398.2436, 37.52264
398.7257, 37.74891
399.2078, 37.88912
399.6899, 37.71083
400.1720, 37.35297
400.6541, 37.11938
401.1363, 37.03332
401.6184, 37.05260
402.1005, 37.22625
402.5826, 37.49141
403.0647, 37.67451
403.5468, 37.72078
404.0290, 37.67199
404.5111, 37.55139
404.9932, 37.34639
405.4753, 37.20846
405.9574, 37.21182
406.4395, 37.26530
406.9217, 37.26726
407.4038, 37.21559
407.8859, 37.19886
408.3680, 37.29545
408.8501, 37.49469
409.3322, 37.64428
409.8144, 37.64600
410.2965, 37.71502
410.7786, 38.00126
411.2607, 38.39332
411.7428, 38.69353
412.2249, 38.81773
412.7071, 38.83920
413.1892, 38.89893
413.6713, 39.02039
414.1534, 39.14202
414.6355, 39.22082
415.1176, 39.33120
415.5998, 39.54655
416.0819, 39.85748
416.5640, 40.19021
417.0461, 40.48381
417.5282, 40.73801
418.0103, 40.94092
418.4925, 41.12884
418.9746, 41.21993
419.4567, 41.01500
419.9388, 40.75574
420.4209, 40.79379
420.9030, 41.29084
421.3852, 42.05389
421.8673, 42.69273
422.3494, 43.17048
422.8315, 43.62002
423.3136, 44.09975
423.7957, 44.52726
424.2779, 44.80589
424.7600, 44.96202
425.2421, 45.14311
425.7242, 45.51165
426.2063, 46.03972
426.6884, 46.41711
427.1706, 46.49837
427.6527, 46.67548
428.1348, 47.21914
428.6169, 47.92669
429.0990, 48.49877
429.5811, 48.80156
430.0633, 49.01494
430.5454, 49.37780
431.0275, 49.89394
431.5096, 50.36235
431.9917, 50.62788
432.4738, 50.93053
432.9560, 51.57151
433.4381, 52.54579
433.9202, 53.44477
434.4023, 54.00808
434.8844, 54.38762
435.3665, 54.80095
435.8487, 55.25622
436.3308, 55.86632
436.8129, 56.77525
437.2950, 57.91675
437.7771, 58.96899
438.2592, 59.92936
438.7414, 60.79746
439.2235, 61.46882
439.7056, 62.04476
440.1877, 62.78210
440.6698, 63.78553
441.1519, 64.93826
441.6341, 66.06558
442.1162, 67.12798
442.5983, 68.28450
443.0804, 69.63191
443.5625, 71.00657
444.0446, 72.23435
444.5268, 73.35162
445.0089, 74.59968
445.4910, 76.17063
445.9731, 78.03365
446.4552, 79.90858
446.9373, 81.84071
447.4195, 83.75748
447.9016, 85.47627
448.3837, 87.25635
448.8658, 89.37631
449.3479, 91.91283
449.8300, 94.74722
450.3122, 97.71952
450.7943, 100.8619
451.2764, 104.0213
451.7585, 106.8201
452.2406, 110.0049
452.7227, 113.9715
453.2049, 118.5555
453.6870, 123.3370
454.1691, 128.0442
454.6512, 132.8173
455.1333, 138.2055
455.6154, 144.4405
456.0976, 150.5759
456.5797, 156.1985
457.0618, 161.6869
457.5439, 167.3870
458.0260, 173.3093
458.5081, 179.3517
458.9903, 185.5910
459.4724, 191.8755
459.9545, 197.6192
460.4366, 202.5982
460.9187, 207.5141
461.4008, 213.0166
461.8830, 218.8752
462.3651, 224.5014
462.8472, 229.7123
463.3293, 234.7865
463.8114, 239.8017
464.2935, 244.8333
464.7756, 250.2181
465.2578, 256.1473
465.7399, 262.3022
466.2220, 268.0257
466.7041, 273.2119
467.1862, 278.5155
467.6683, 284.1428
468.1505, 289.8270
468.6326, 295.4596
469.1147, 300.9718
469.5968, 306.0996
470.0789, 310.6825
470.5610, 314.7484
471.0432, 318.4181
471.5253, 321.8980
472.0074, 324.7220
472.4895, 327.1509
472.9716, 328.7332
473.4537, 329.0273
473.9359, 327.9317
474.4180, 325.6138
474.9001, 322.3561
475.3822, 318.2842
475.8643, 312.4359
476.3464, 304.0605
476.8286, 294.5639
477.3107, 283.9424
477.7928, 272.6231
478.2749, 261.2131
478.7570, 249.9800
479.2391, 238.7480
479.7213, 227.0860
480.2034, 214.7989
480.6855, 203.3974
481.1676, 193.2191
481.6497, 183.9789
482.1318, 175.4056
482.6140, 167.4476
483.0961, 160.0554
483.5782, 153.2109
484.0603, 146.8867
484.5424, 140.9613
485.0245, 135.4417
485.5067, 130.4323
485.9888, 126.0519
486.4709, 122.2160
486.9530, 118.6709
487.4351, 115.4355
487.9172, 112.4151
488.3994, 109.6440
488.8815, 107.0254
489.3636, 104.4012
489.8457, 101.7482
490.3278, 99.29276
490.8099, 97.27779
491.2921, 95.74025
491.7742, 93.99645
492.2563, 91.76651
492.7384, 89.69594
493.2205, 88.02088
493.7026, 86.61915
494.1848, 85.31980
494.6669, 84.06094
495.1490, 82.87761
495.6311, 81.85035
496.1132, 81.07628
496.5953, 80.15291
497.0775, 78.88669
497.5596, 77.64560
498.0417, 76.60381
498.5238, 75.69961
499.0059, 74.78618
499.4880, 73.78537
499.9702, 72.72018
500.4523, 71.60559
500.9344, 70.41209
501.4165, 69.34038
501.8986, 68.49873
502.3807, 67.76818
502.8629, 67.08451
503.3450, 66.44090
503.8271, 65.71349
504.3092, 64.79708
504.7913, 63.77977
505.2734, 62.77447
505.7556, 61.78817
506.2377, 60.88413
506.7198, 60.12580
507.2019, 59.45735
507.6840, 58.71336
508.1661, 57.91297
508.6483, 57.01765
509.1304, 55.90089
509.6125, 54.74294
510.0946, 53.77313
510.5767, 53.01817
511.0588, 52.33403
511.5410, 51.58336
512.0231, 50.76708
512.5052, 50.05633
512.9873, 49.65429
513.4694, 49.11368
513.9515, 48.22753
514.4337, 47.21692
514.9158, 46.33118
515.3979, 45.64125
515.8800, 45.05148
516.3621, 44.43937
516.8442, 43.80037
517.3264, 43.20940
517.8085, 42.73389
518.2906, 42.20953
518.7727, 41.49368
519.2548, 40.70057
519.7369, 40.03304
520.2191, 39.58420
520.7012, 39.20935
521.1833, 38.74305
521.6654, 38.19942
522.1475, 37.69087
522.6296, 37.25172
523.1118, 36.83921
523.5939, 36.42242
524.0760, 36.00104
524.5581, 35.54872
525.0402, 34.93303
525.5223, 34.39749
526.0045, 34.22210
526.4866, 34.28064
526.9687, 34.17712
527.4508, 33.72886
527.9329, 33.11964
528.4150, 32.69481
528.8972, 32.56198
529.3793, 32.37630
529.8614, 32.15485
530.3435, 31.87084
530.8256, 31.46240
531.3077, 30.97844
531.7899, 30.51065
532.2720, 30.10285
532.7541, 29.78885
533.2362, 29.70411
533.7183, 29.99217
534.2004, 30.10010
534.6826, 29.76791
535.1647, 29.35713
535.6468, 29.08074
536.1289, 28.92410
536.6110, 28.74855
537.0931, 28.43025
537.5753, 28.06244
538.0574, 27.83974
538.5395, 27.76839
539.0216, 27.69135
539.5037, 27.53931
539.9858, 27.34995
540.4680, 27.18755
540.9501, 27.05513
541.4322, 26.91982
541.9143, 26.78765
542.3964, 26.63825
542.8785, 26.44752
543.3607, 26.21814
543.8428, 25.95523
544.3249, 25.64782
544.8070, 25.33746
545.2891, 25.18024
545.7712, 25.36744
546.2534, 25.44818
546.7355, 25.34991
547.2176, 25.18969
547.6997, 25.06748
548.1818, 24.97526
548.6639, 24.81220
549.1461, 24.46153
549.6282, 24.00742
550.1103, 23.83789
550.5924, 24.07162
551.0745, 24.27962
551.5566, 24.35634
552.0388, 24.33856
552.5209, 24.23058
553.0030, 24.03657
553.4851, 23.81622
553.9672, 23.57176
554.4493, 23.33332
554.9315, 23.17223
555.4136, 23.09249
555.8957, 22.98300
556.3778, 22.75295
556.8599, 22.47686
557.3420, 22.37207
557.8242, 22.49463
558.3063, 22.61884
558.7884, 22.74201
559.2705, 22.82102
559.7526, 22.80574
560.2347, 22.70183
560.7169, 22.54280
561.1990, 22.34161
561.6811, 22.12585
562.1632, 22.02894
562.6453, 22.11883
563.1274, 22.21597
563.6096, 22.37075
564.0917, 22.47085
564.5738, 22.39307
565.0559, 22.16415
565.5380, 21.95035
566.0201, 21.86804
566.5023, 21.88579
566.9844, 21.96025
567.4665, 22.11934
567.9486, 22.14370
568.4307, 21.84969
568.9128, 21.46317
569.3950, 21.30840
569.8771, 21.40414
570.3592, 21.48645
570.8413, 21.44944
571.3234, 21.37002
571.8055, 21.31730
572.2877, 21.29539
572.7698, 21.30350
573.2519, 21.34921
573.7340, 21.39978
574.2161, 21.36514
574.6982, 21.11370
575.1804, 21.01053
575.6625, 21.21154
576.1446, 21.41459
576.6267, 21.42054
577.1088, 21.26921
577.5909, 21.09401
578.0731, 20.96041
578.5552, 20.89287
579.0373, 20.98992
579.5194, 21.30436
580.0015, 21.48593
580.4836, 21.41095
580.9658, 21.23339
581.4479, 21.04429
581.9300, 20.85383
582.4121, 20.70052
582.8942, 20.61402
583.3763, 20.55778
583.8585, 20.51514
584.3406, 20.47647
584.8227, 20.38438
585.3048, 20.20461
585.7869, 20.04001
586.2690, 20.04884
586.7512, 20.28818
587.2333, 20.41990
587.7154, 20.36908
588.1975, 20.30005
588.6796, 20.29565
589.1617, 20.31552
589.6439, 20.28096
590.1260, 20.16536
590.6081, 20.02361
591.0902, 19.92501
591.5723, 19.86865
592.0544, 19.87513
592.5366, 20.03289
593.0187, 20.12106
593.5008, 19.98251
593.9829, 19.73413
594.4650, 19.54703
594.9471, 19.46733
595.4293, 19.43239
595.9114, 19.40280
596.3935, 19.38268
596.8756, 19.39004
597.3577, 19.42879
597.8398, 19.46453
598.3220, 19.47958
598.8041, 19.46919
599.2862, 19.39705
599.7683, 19.17238
600.2504, 19.01637
600.7325, 19.00244
601.2147, 19.04600
601.6968, 19.07014
602.1789, 19.06780
602.6610, 19.08003
603.1431, 19.14898
603.6252, 19.24948
604.1074, 19.26127
604.5895, 19.14770
605.0716, 19.04130
605.5537, 19.00278
606.0358, 18.96097
606.5179, 18.83666
607.0001, 18.64381
607.4822, 18.50548
607.9643, 18.51688
608.4464, 18.59052
608.9285, 18.63774
609.4106, 18.65571
609.8928, 18.62062
610.3749, 18.50901
610.8570, 18.39145
611.3391, 18.38592
611.8212, 18.54566
612.3033, 18.60300
612.7855, 18.47864
613.2676, 18.34095
613.7497, 18.25953
614.2318, 18.21684
614.7139, 18.17801
615.1960, 18.12984
615.6782, 18.07978
616.1603, 18.03077
616.6424, 17.98123
617.1245, 17.97817
617.6066, 18.07414
618.0887, 18.12465
618.5709, 18.04640
619.0530, 17.88444
619.5351, 17.66388
620.0172, 17.34698
620.4993, 17.14413
620.9814, 17.29091
621.4636, 17.57834
621.9457, 17.64585
622.4278, 17.47539
622.9099, 17.33161
623.3920, 17.39911
623.8741, 17.60425
624.3563, 17.68670
624.8384, 17.53156
625.3205, 17.41684
625.8026, 17.33234
626.2847, 17.29700
626.7668, 17.35266
627.2490, 17.46869
627.7311, 17.56551
628.2132, 17.59625
628.6953, 17.59455
629.1774, 17.64402
629.6595, 17.74982
630.1417, 17.73751
630.6238, 17.50512
631.1059, 17.26270
631.5880, 17.23054
632.0701, 17.34200
632.5522, 17.39016
633.0344, 17.27794
633.5165, 17.17543
633.9986, 17.17830
634.4807, 17.24109
634.9628, 17.31481
635.4449, 17.38086
635.9271, 17.39085
636.4092, 17.28428
636.8913, 17.08121
637.3734, 17.01030
637.8555, 17.21989
638.3376, 17.32144
638.8198, 17.17393
639.3019, 16.97128
639.7840, 16.85934
640.2661, 16.84269
640.7482, 16.84286
641.2303, 16.82997
641.7125, 16.79385
642.1946, 16.68694
642.6767, 16.52100
643.1588, 16.43573
643.6409, 16.48875
644.1230, 16.60456
644.6052, 16.70763
645.0873, 16.80073
645.5694, 16.82218
646.0515, 16.67440
646.5336, 16.56559
647.0157, 16.63692
647.4979, 16.77036
647.9800, 16.77877
648.4621, 16.63051
648.9442, 16.48637
649.4263, 16.53052
649.9084, 16.73777
650.3906, 16.87328
