##NAMES=Mapimite
##RRUFFID=R080002
##IDEAL CHEMISTRY=Zn^2+^_2_Fe^3+^_3_(As^5+^O_4_)_3_(OH)_4_&#183;10H_2_O
##LOCALITY=Level 5 between Palomes Oriente and San Carlos, Ojuela mine, Mapimi, Durango, Mexico
##OWNER=RRUFF
##SOURCE=William W. Pinch, from M Romero
##DESCRIPTION=Group of green tabular, rectangular crystals, from the original find
##STATUS=The identification of this mineral has been confirmed by single-crystal X-ray diffraction.
##URL=rruff.info/R080002
156.0814, 136.8000
156.5635, 136.5750
157.0456, 135.9132
157.5278, 134.8203
158.0099, 133.8840
158.4920, 133.4387
158.9741, 133.0975
159.4562, 132.5152
159.9383, 131.3244
160.4205, 130.1447
160.9026, 129.1958
161.3847, 128.4990
161.8668, 127.8538
162.3489, 127.2513
162.8310, 126.6466
163.3132, 125.9865
163.7953, 125.3521
164.2774, 124.5810
164.7595, 123.4489
165.2416, 121.8466
165.7237, 120.5312
166.2059, 120.1168
166.6880, 120.1766
167.1701, 120.0621
167.6522, 119.3459
168.1343, 118.4504
168.6164, 117.6624
169.0986, 117.0182
169.5807, 116.4406
170.0628, 115.8775
170.5449, 115.3422
171.0270, 114.8665
171.5091, 114.5316
171.9913, 114.2338
172.4734, 113.8547
172.9555, 113.3488
173.4376, 112.8605
173.9197, 112.4836
174.4018, 112.2155
174.8840, 112.0555
175.3661, 112.0909
175.8482, 112.2057
176.3303, 112.2251
176.8124, 112.0735
177.2945, 111.9390
177.7767, 112.0272
178.2588, 112.3099
178.7409, 112.6692
179.2230, 113.0343
179.7051, 113.4269
180.1872, 113.8827
180.6694, 114.4144
181.1515, 115.0061
181.6336, 115.6388
182.1157, 116.3109
182.5978, 117.0081
183.0799, 117.6752
183.5621, 118.3632
184.0442, 119.2303
184.5263, 120.4071
185.0084, 121.6521
185.4905, 122.5425
185.9726, 123.0850
186.4547, 123.5595
186.9369, 124.1281
187.4190, 124.7994
187.9011, 125.6275
188.3832, 126.7643
188.8653, 127.9479
189.3474, 128.6082
189.8296, 128.7455
190.3117, 128.5617
190.7938, 128.0817
191.2759, 127.3557
191.7580, 126.7937
192.2401, 126.5519
192.7223, 126.4940
193.2044, 126.2674
193.6865, 125.8781
194.1686, 125.2502
194.6507, 124.1839
195.1328, 122.7048
195.6150, 121.3903
196.0971, 120.3940
196.5792, 119.6644
197.0613, 119.0601
197.5434, 118.6146
198.0255, 118.1344
198.5077, 117.4155
198.9898, 116.4451
199.4719, 115.4607
199.9540, 114.4343
200.4361, 113.4358
200.9182, 112.9032
201.4004, 112.9434
201.8825, 113.1384
202.3646, 113.0315
202.8467, 112.5764
203.3288, 112.2386
203.8109, 112.1881
204.2931, 112.3753
204.7752, 112.3143
205.2573, 111.8986
205.7394, 111.4904
206.2215, 111.4949
206.7036, 111.9760
207.1858, 112.5335
207.6679, 113.0989
208.1500, 113.6681
208.6321, 114.1396
209.1142, 114.4351
209.5963, 114.7787
210.0785, 115.4581
210.5606, 116.5681
211.0427, 117.6395
211.5248, 118.5398
212.0069, 119.2757
212.4890, 120.1158
212.9712, 121.0426
213.4533, 122.1074
213.9354, 123.3375
214.4175, 124.7229
214.8996, 126.3466
215.3817, 128.3090
215.8639, 130.5941
216.3460, 132.7874
216.8281, 134.8771
217.3102, 136.8983
217.7923, 138.7801
218.2744, 140.3151
218.7566, 142.3103
219.2387, 145.0635
219.7208, 148.6224
220.2029, 151.7816
220.6850, 154.3998
221.1671, 156.7520
221.6493, 159.0561
222.1314, 161.2470
222.6135, 163.5927
223.0956, 166.1210
223.5777, 168.8696
224.0598, 171.6689
224.5420, 174.5314
225.0241, 177.4575
225.5062, 180.5035
225.9883, 183.6654
226.4704, 186.9262
226.9525, 190.3042
227.4347, 193.8643
227.9168, 196.9626
228.3989, 199.2244
228.8810, 201.4222
229.3631, 204.3462
229.8452, 208.3485
230.3274, 212.4549
230.8095, 216.5301
231.2916, 220.5799
231.7737, 224.4549
232.2558, 228.1634
232.7379, 231.6906
233.2201, 234.9737
233.7022, 237.9854
234.1843, 240.8067
234.6664, 243.5117
235.1485, 246.0842
235.6306, 248.1149
236.1128, 249.5499
236.5949, 250.5215
237.0770, 251.2515
237.5591, 252.2060
238.0412, 252.0077
238.5233, 250.2664
239.0055, 246.9695
239.4876, 243.1916
239.9697, 238.6978
240.4518, 233.9491
240.9339, 229.3699
241.4160, 225.1734
241.8982, 220.7303
242.3803, 215.8187
242.8624, 210.4432
243.3445, 205.5614
243.8266, 201.3013
244.3087, 197.3403
244.7909, 193.4091
245.2730, 189.4219
245.7551, 185.6244
246.2372, 182.0079
246.7193, 178.5835
247.2014, 175.5357
247.6836, 173.0175
248.1657, 170.7190
248.6478, 168.4449
249.1299, 166.1418
249.6120, 163.9353
250.0941, 161.7731
250.5762, 159.6935
251.0584, 158.0145
251.5405, 156.8524
252.0226, 155.9576
252.5047, 155.2262
252.9868, 154.8221
253.4689, 154.1733
253.9511, 153.0820
254.4332, 151.6707
254.9153, 150.6982
255.3974, 150.4052
255.8795, 150.1858
256.3617, 149.6251
256.8438, 148.4927
257.3259, 147.6413
257.8080, 147.2779
258.2901, 147.2355
258.7722, 146.7511
259.2544, 145.4046
259.7365, 143.6158
260.2186, 143.7970
260.7007, 143.5908
261.1828, 143.0183
261.6649, 140.9817
262.1471, 140.8355
262.6292, 139.9317
263.1113, 138.9970
263.5934, 139.1169
264.0755, 137.2933
264.5576, 137.3966
265.0398, 136.7305
265.5219, 136.4166
266.0040, 135.3404
266.4861, 134.4996
266.9682, 134.4214
267.4503, 133.9210
267.9325, 132.7569
268.4146, 132.4654
268.8967, 130.6152
269.3788, 130.1327
269.8609, 130.2404
270.3430, 129.1148
270.8252, 128.8371
271.3073, 128.2365
271.7894, 126.1682
272.2715, 126.6524
272.7536, 126.0328
273.2357, 124.4917
273.7179, 123.8821
274.2000, 123.1554
274.6821, 122.2611
275.1642, 121.4897
275.6463, 120.9936
276.1284, 120.7730
276.6106, 120.3879
277.0927, 119.7662
277.5748, 119.1356
278.0569, 118.7987
278.5390, 118.7820
279.0211, 118.8565
279.5032, 119.0007
279.9854, 119.1952
280.4675, 119.2114
280.9496, 118.9851
281.4317, 118.7987
281.9138, 119.0520
282.3959, 119.7685
282.8781, 120.3094
283.3602, 120.4854
283.8423, 120.3638
284.3244, 120.2233
284.8065, 120.0685
285.2886, 119.8633
285.7708, 119.5353
286.2529, 119.0930
286.7350, 118.7203
287.2171, 118.4775
287.6992, 118.3102
288.1813, 118.0019
288.6635, 117.5337
289.1456, 117.2224
289.6277, 117.4124
290.1098, 118.0296
290.5919, 118.5748
291.0740, 118.9745
291.5562, 119.2630
292.0383, 119.4051
292.5204, 119.4158
293.0025, 119.5907
293.4846, 120.2181
293.9667, 121.1841
294.4489, 122.0902
294.9310, 122.8702
295.4131, 123.6096
295.8952, 124.4557
296.3773, 125.3855
296.8594, 126.2643
297.3416, 126.9669
297.8237, 127.5793
298.3058, 128.3450
298.7879, 129.3323
299.2700, 130.2458
299.7521, 130.8047
300.2343, 131.0118
300.7164, 130.8420
301.1985, 130.0319
301.6806, 128.9168
302.1627, 128.0422
302.6448, 127.4273
303.1270, 126.8849
303.6091, 126.4036
304.0912, 125.8623
304.5733, 124.9865
305.0554, 123.3957
305.5375, 121.5648
306.0197, 120.0881
306.5018, 118.9506
306.9839, 117.7629
307.4660, 116.2668
307.9481, 114.5458
308.4302, 112.7063
308.9124, 110.5297
309.3945, 108.4743
309.8766, 107.0714
310.3587, 106.1885
310.8408, 105.1959
311.3229, 103.4284
311.8051, 101.4765
312.2872, 100.0268
312.7693, 99.51250
313.2514, 99.04644
313.7335, 97.99181
314.2156, 96.54504
314.6978, 95.26839
315.1799, 94.57217
315.6620, 94.04476
316.1441, 93.40324
316.6262, 92.54883
317.1083, 91.70512
317.5905, 91.00985
318.0726, 90.38659
318.5547, 89.69144
319.0368, 88.80007
319.5189, 87.88647
320.0010, 87.03793
320.4832, 86.26090
320.9653, 85.53149
321.4474, 84.91998
321.9295, 84.32790
322.4116, 83.64011
322.8937, 82.53312
323.3759, 81.61693
323.8580, 81.18784
324.3401, 81.28957
324.8222, 81.19243
325.3043, 80.64211
325.7864, 79.93472
326.2686, 79.29857
326.7507, 78.76081
327.2328, 78.28883
327.7149, 77.90981
328.1970, 77.61547
328.6791, 77.28105
329.1613, 76.82461
329.6434, 76.39289
330.1255, 76.06269
330.6076, 75.93217
331.0897, 75.75772
331.5718, 75.47694
332.0540, 75.15099
332.5361, 74.96809
333.0182, 75.09303
333.5003, 75.14189
333.9824, 74.93840
334.4645, 74.36665
334.9467, 73.90145
335.4288, 73.60474
335.9109, 73.37407
336.3930, 73.02524
336.8751, 72.45927
337.3572, 72.00377
337.8394, 71.79001
338.3215, 71.83414
338.8036, 71.77323
339.2857, 71.56461
339.7678, 71.32471
340.2499, 71.19859
340.7321, 71.21854
341.2142, 71.16245
341.6963, 70.93645
342.1784, 70.60046
342.6605, 70.46111
343.1426, 70.54745
343.6248, 70.69721
344.1069, 70.81824
344.5890, 70.90623
345.0711, 70.86687
345.5532, 70.64259
346.0353, 70.34487
346.5175, 70.21597
346.9996, 70.25291
347.4817, 70.33802
347.9638, 70.41323
348.4459, 70.48022
348.9280, 70.55895
349.4102, 70.66221
349.8923, 70.72959
350.3744, 70.59893
350.8565, 70.33833
351.3386, 70.21153
351.8207, 70.45775
352.3029, 70.87973
352.7850, 71.15068
353.2671, 71.26749
353.7492, 71.34731
354.2313, 71.49136
354.7134, 71.66898
355.1956, 71.82588
355.6777, 71.90808
356.1598, 71.99555
356.6419, 72.16311
357.1240, 72.40462
357.6061, 72.68550
358.0883, 72.94550
358.5704, 73.25386
359.0525, 73.69669
359.5346, 74.36980
360.0167, 75.02470
360.4988, 75.50244
360.9810, 75.85095
361.4631, 76.17059
361.9452, 76.27189
362.4273, 76.52676
362.9094, 77.22170
363.3915, 78.49610
363.8737, 79.69546
364.3558, 80.56113
364.8379, 81.24138
365.3200, 81.90466
365.8021, 82.44862
366.2842, 83.12015
366.7664, 84.05138
367.2485, 85.25039
367.7306, 86.35222
368.2127, 87.19678
368.6948, 88.00481
369.1769, 88.93100
369.6591, 90.02766
370.1412, 91.19370
370.6233, 92.50858
371.1054, 93.90878
371.5875, 95.13329
372.0696, 95.89993
372.5518, 96.81908
373.0339, 98.20692
373.5160, 100.3366
373.9981, 102.1498
374.4802, 103.5285
374.9623, 104.7056
375.4445, 106.0238
375.9266, 107.5179
376.4087, 109.0907
376.8908, 110.6980
377.3729, 112.3488
377.8550, 114.1960
378.3372, 116.3136
378.8193, 118.3892
379.3014, 120.0739
379.7835, 121.3708
380.2656, 122.4881
380.7477, 123.3630
381.2299, 124.1720
381.7120, 125.5255
382.1941, 127.4258
382.6762, 129.1810
383.1583, 130.2295
383.6404, 130.7215
384.1226, 131.1792
384.6047, 131.6389
385.0868, 132.1202
385.5689, 132.8176
386.0510, 133.6091
386.5331, 134.0509
387.0153, 133.6257
387.4974, 132.8592
387.9795, 132.5946
388.4616, 132.8412
388.9437, 133.0175
389.4258, 132.6141
389.9080, 131.8727
390.3901, 131.1510
390.8722, 130.6781
391.3543, 130.1209
391.8364, 129.1546
392.3185, 127.8853
392.8007, 126.6719
393.2828, 125.7163
393.7649, 124.8594
394.2470, 124.0136
394.7291, 123.1814
395.2112, 122.3034
395.6934, 121.2300
396.1755, 120.1217
396.6576, 119.2199
397.1397, 118.8115
397.6218, 118.3990
398.1039, 117.8573
398.5861, 117.1823
399.0682, 116.3351
399.5503, 115.0485
400.0324, 113.7433
400.5145, 112.7394
400.9966, 112.1924
401.4788, 111.7278
401.9609, 111.3926
402.4430, 111.1305
402.9251, 110.6988
403.4072, 109.9465
403.8893, 109.2535
404.3714, 108.8324
404.8535, 108.7841
405.3357, 108.5423
405.8178, 108.0019
406.2999, 107.4096
406.7820, 107.1930
407.2641, 107.4428
407.7462, 107.5234
408.2284, 107.1246
408.7105, 106.4038
409.1926, 106.1938
409.6747, 106.5518
410.1568, 106.9985
410.6389, 107.0767
411.1211, 106.8609
411.6032, 106.7832
412.0853, 106.9352
412.5674, 107.2167
413.0495, 107.4904
413.5316, 107.7662
414.0138, 108.0821
414.4959, 108.5120
414.9780, 108.9810
415.4601, 109.3469
415.9422, 109.5978
416.4243, 109.8657
416.9065, 110.3179
417.3886, 110.8442
417.8707, 111.2662
418.3528, 111.3052
418.8349, 111.4321
419.3170, 111.9730
419.7992, 112.8784
420.2813, 113.8784
420.7634, 115.0938
421.2455, 116.2215
421.7276, 117.0032
422.2097, 117.1866
422.6919, 117.5551
423.1740, 118.4952
423.6561, 119.6968
424.1382, 120.7085
424.6203, 121.1707
425.1024, 121.7018
425.5846, 122.5135
426.0667, 123.6261
426.5488, 124.5935
427.0309, 125.3260
427.5130, 126.0029
427.9951, 126.7476
428.4773, 127.5821
428.9594, 128.4340
429.4415, 129.2791
429.9236, 130.1447
430.4057, 131.1203
430.8878, 132.2150
431.3700, 133.3820
431.8521, 134.6374
432.3342, 135.9823
432.8163, 137.2196
433.2984, 138.3346
433.7805, 139.3985
434.2627, 140.4525
434.7448, 141.5068
435.2269, 142.6748
435.7090, 144.0716
436.1911, 145.5304
436.6732, 146.5877
437.1554, 147.3089
437.6375, 148.1998
438.1196, 149.7262
438.6017, 151.6027
439.0838, 153.3506
439.5659, 154.8946
440.0481, 156.4477
440.5302, 158.2513
441.0123, 160.1946
441.4944, 162.0925
441.9765, 163.7876
442.4586, 165.4825
442.9408, 167.3454
443.4229, 169.3394
443.9050, 171.2847
444.3871, 172.7314
444.8692, 174.3280
445.3513, 176.5415
445.8335, 179.8421
446.3156, 183.0592
446.7977, 185.7751
447.2798, 188.2916
447.7619, 191.1297
448.2440, 194.3270
448.7262, 197.8252
449.2083, 201.5795
449.6904, 205.6037
450.1725, 209.9392
450.6546, 214.6751
451.1367, 219.5471
451.6189, 224.2643
452.1010, 228.6596
452.5831, 233.5888
453.0652, 239.2482
453.5473, 245.4522
454.0294, 251.8484
454.5116, 258.4188
454.9937, 265.5554
455.4758, 273.7275
455.9579, 282.7269
456.4400, 291.4330
456.9221, 299.8651
457.4043, 308.4883
457.8864, 318.0785
458.3685, 328.2936
458.8506, 338.4523
459.3327, 348.2932
459.8148, 358.0008
460.2970, 367.6727
460.7791, 377.4160
461.2612, 387.2816
461.7433, 397.0844
462.2254, 407.1945
462.7076, 417.8302
463.1897, 429.1342
463.6718, 440.7349
464.1539, 452.2762
464.6360, 464.0312
465.1181, 476.0826
465.6003, 488.2021
466.0824, 500.9099
466.5645, 514.3846
467.0466, 528.5155
467.5287, 542.8711
468.0108, 557.0728
468.4930, 571.8008
468.9751, 587.3792
469.4572, 604.0152
469.9393, 620.5728
470.4214, 637.1935
470.9035, 653.4572
471.3857, 669.1693
471.8678, 684.9218
472.3499, 698.3405
472.8320, 709.3525
473.3141, 717.8203
473.7962, 723.6573
474.2784, 726.9730
474.7605, 726.9393
475.2426, 723.2416
475.7247, 715.8043
476.2068, 704.1730
476.6889, 688.1616
477.1711, 668.9025
477.6532, 646.6519
478.1353, 622.0763
478.6174, 596.9235
479.0995, 571.2626
479.5816, 545.7200
480.0638, 521.0726
480.5459, 497.2694
481.0280, 474.5461
481.5101, 452.4270
481.9922, 431.7372
482.4743, 413.5098
482.9565, 397.9216
483.4386, 383.6564
483.9207, 370.7823
484.4028, 358.8484
484.8849, 347.3983
485.3670, 336.4935
485.8492, 326.0674
486.3313, 315.7904
486.8134, 305.9069
487.2955, 297.4514
487.7776, 291.3129
488.2597, 285.7804
488.7419, 280.2145
489.2240, 274.6002
489.7061, 269.2612
490.1882, 264.1398
490.6703, 259.3695
491.1524, 255.0980
491.6346, 251.3446
492.1167, 247.7057
492.5988, 244.0684
493.0809, 240.4248
493.5630, 236.7221
494.0451, 232.9388
494.5273, 229.4819
495.0094, 226.8830
495.4915, 224.7040
495.9736, 221.7991
496.4557, 218.0922
496.9378, 214.3367
497.4200, 211.2148
497.9021, 208.5051
498.3842, 205.9449
498.8663, 203.4842
499.3484, 201.0618
499.8305, 198.7206
500.3127, 196.3913
500.7948, 193.9053
501.2769, 191.0233
501.7590, 188.0937
502.2411, 185.2757
502.7232, 182.5643
503.2054, 179.8877
503.6875, 177.2591
504.1696, 174.6680
504.6517, 172.1358
505.1338, 169.5925
505.6159, 167.2517
506.0981, 165.2649
506.5802, 163.4378
507.0623, 161.3433
507.5444, 158.9309
508.0265, 156.3032
508.5086, 153.3456
508.9908, 150.1399
509.4729, 147.4456
509.9550, 145.3292
510.4371, 143.2774
510.9192, 140.7571
511.4013, 137.9170
511.8835, 135.3882
512.3655, 133.2766
512.8477, 131.4090
513.3298, 129.7043
513.8119, 128.0925
514.2940, 126.4047
514.7761, 124.5531
515.2582, 122.6082
515.7404, 120.5238
516.2225, 118.3340
516.7046, 116.2763
517.1867, 114.5618
517.6688, 112.9400
518.1509, 111.2184
518.6331, 109.2342
519.1152, 107.4740
519.5973, 106.2151
520.0794, 105.1525
520.5615, 103.9161
521.0436, 102.3093
521.5258, 100.8235
522.0079, 99.58799
522.4900, 98.53645
522.9721, 97.32426
523.4542, 95.92733
523.9363, 94.50948
524.4185, 93.07665
524.9006, 91.62719
525.3827, 90.65121
525.8648, 90.22885
526.3469, 89.85641
526.8290, 88.86452
527.3112, 87.43068
527.7933, 86.23499
528.2754, 85.48692
528.7575, 84.93777
529.2396, 84.37505
529.7217, 83.76754
530.2039, 83.03642
530.6860, 81.98203
531.1681, 80.90141
531.6502, 79.97210
532.1323, 79.19920
532.6144, 78.53684
533.0966, 78.08205
533.5787, 77.64863
534.0608, 77.08672
534.5429, 76.20254
535.0250, 75.47364
535.5071, 75.02702
535.9893, 74.72884
536.4714, 74.41621
536.9535, 74.15202
537.4356, 73.74463
537.9177, 73.09597
538.3998, 72.26069
538.8820, 71.62821
539.3641, 71.24310
539.8462, 70.89033
540.3283, 70.47065
540.8104, 69.98347
541.2925, 69.35281
541.7747, 68.54985
542.2568, 67.79523
542.7389, 67.37914
543.2210, 67.19219
543.7031, 66.97478
544.1852, 66.63399
544.6674, 66.27162
545.1495, 66.03409
545.6316, 65.85464
546.1137, 65.56599
546.5958, 64.94998
547.0779, 64.32659
547.5601, 63.90139
548.0422, 63.69100
548.5243, 63.40133
549.0064, 62.83382
549.4885, 62.26487
549.9706, 61.87326
550.4528, 61.80094
550.9349, 61.63881
551.4170, 61.36306
551.8991, 61.01208
552.3812, 60.60936
552.8633, 60.10999
553.3455, 59.75745
553.8276, 59.67649
554.3097, 59.74612
554.7918, 59.54492
555.2739, 59.07698
555.7560, 58.58000
556.2382, 58.16697
556.7203, 57.83583
557.2024, 57.61283
557.6845, 57.50265
558.1666, 57.38371
558.6487, 57.11007
559.1309, 56.78574
559.6130, 55.84701
560.0951, 56.49351
560.5772, 56.75275
561.0593, 56.64555
561.5414, 55.07438
562.0236, 55.39357
562.5057, 54.95524
562.9878, 54.48582
563.4699, 55.07114
563.9520, 53.71287
564.4341, 54.28149
564.9163, 54.08086
565.3984, 54.23235
565.8805, 53.45679
566.3626, 53.69463
566.8447, 53.84723
567.3268, 53.92497
567.8090, 53.89636
568.2911, 53.67451
568.7732, 53.28260
569.2553, 52.94888
569.7374, 52.72633
570.2195, 52.56167
570.7017, 52.36507
571.1838, 52.15464
571.6659, 51.99094
572.1480, 51.88657
572.6301, 51.85203
573.1122, 51.98157
573.5944, 52.24017
574.0765, 52.33015
574.5586, 51.94682
575.0407, 51.48368
575.5228, 51.17727
576.0049, 51.10604
576.4871, 51.05794
576.9692, 51.01944
577.4513, 50.99284
577.9334, 50.98174
578.4155, 50.99446
578.8976, 51.01249
579.3798, 51.06353
579.8619, 51.09619
580.3440, 50.95223
580.8261, 50.61688
581.3082, 50.30560
581.7903, 50.11409
582.2725, 50.01329
582.7546, 49.94664
583.2367, 49.90973
583.7188, 49.84104
584.2009, 49.60100
584.6830, 49.34255
585.1652, 49.31437
585.6473, 49.58873
586.1294, 49.81176
586.6115, 49.77160
587.0936, 49.57491
587.5757, 49.33355
588.0579, 48.95781
588.5400, 48.67807
589.0221, 48.54274
589.5042, 48.53291
589.9863, 48.61803
590.4684, 48.97709
590.9506, 49.13096
591.4327, 48.88562
591.9148, 48.30012
592.3969, 47.89349
592.8790, 47.68109
593.3611, 47.58288
593.8433, 47.60985
594.3254, 47.72581
594.8075, 47.72555
595.2896, 47.59621
595.7717, 47.40464
596.2538, 47.12437
596.7360, 46.84646
597.2181, 46.76590
597.7002, 47.04327
598.1823, 47.29063
598.6644, 47.22809
599.1465, 46.96227
599.6287, 46.67485
600.1108, 46.31880
600.5929, 46.06218
601.0750, 46.00446
601.5571, 46.12138
602.0392, 46.18596
602.5214, 46.19426
603.0035, 46.15243
603.4856, 46.06776
603.9677, 45.94141
604.4498, 45.70162
604.9319, 45.29342
605.4141, 44.93523
605.8962, 44.87503
606.3783, 45.06823
606.8604, 45.24758
607.3425, 45.39674
607.8246, 45.45933
608.3068, 45.29663
608.7889, 44.99961
609.2710, 44.76961
609.7531, 44.73248
610.2352, 44.72312
610.7173, 44.62695
611.1995, 44.47231
611.6816, 44.33567
612.1637, 44.27500
612.6458, 44.20440
613.1279, 44.08215
613.6100, 43.90671
614.0922, 43.74535
614.5743, 43.56783
615.0564, 43.44294
615.5385, 43.44435
616.0206, 43.62309
616.5027, 43.60703
616.9849, 43.35654
617.4670, 43.03238
617.9491, 42.80632
618.4312, 42.66829
618.9133, 42.58375
619.3954, 42.56130
619.8776, 42.54560
620.3597, 42.47505
620.8418, 42.35958
621.3239, 42.22376
621.8060, 42.03249
622.2881, 41.86233
622.7703, 41.73799
623.2524, 41.66620
623.7345, 41.67256
624.2166, 41.88816
624.6987, 42.06476
625.1808, 42.08113
625.6630, 41.92250
626.1451, 41.83508
626.6272, 41.87230
627.1093, 41.89126
627.5914, 41.78596
628.0735, 41.54881
628.5557, 41.27589
629.0378, 40.95408
629.5199, 40.66987
630.0020, 40.54142
630.4841, 40.53503
630.9662, 40.54763
631.4484, 40.55845
631.9305, 40.57024
632.4126, 40.60205
632.8947, 40.63641
633.3768, 40.63794
633.8589, 40.50483
634.3411, 40.42433
634.8232, 40.58922
635.3053, 40.92446
635.7874, 40.97408
636.2695, 40.39644
636.7516, 39.85303
637.2338, 39.56561
637.7159, 39.53999
638.1980, 39.60207
638.6801, 39.78756
639.1622, 39.95605
639.6443, 40.00670
640.1265, 39.94240
640.6086, 39.76122
641.0907, 39.44043
641.5728, 39.14442
642.0549, 39.03906
642.5370, 39.08237
643.0192, 39.20688
643.5013, 39.43708
643.9834, 39.66056
644.4655, 39.83840
644.9476, 39.95652
645.4297, 39.99791
645.9119, 39.97801
646.3940, 39.85833
646.8761, 39.52894
647.3582, 39.07434
647.8403, 38.84554
648.3224, 38.96672
648.8046, 39.06211
649.2867, 38.97031
649.7688, 38.71774
650.2509, 38.56185
650.7330, 38.50533
651.2151, 38.50158
