##NAMES=Marcasite
##RRUFFID=R060882
##IDEAL CHEMISTRY=FeS_2_
##LOCALITY=Ive's Quarry, Racine, Wisconsin, USA
##OWNER=RRUFF
##SOURCE=Bob Jenkins
##DESCRIPTION=Brassy yellow prismatic crystals
##STATUS=The identification of this mineral is confirmed by single-crystal X-ray diffraction and chemical analysis.
##URL=rruff.info/R060882
##MEASURED CHEMISTRY=Fe_1.00_S_2.00_
170.6989, 877.1075
171.1810, 874.5923
171.6631, 879.0326
172.1452, 883.8787
172.6273, 882.3433
173.1095, 875.5258
173.5916, 869.1320
174.0737, 867.3948
174.5558, 868.5058
175.0379, 869.7384
175.5201, 870.9037
176.0022, 871.3071
176.4843, 868.4618
176.9664, 862.6993
177.4485, 859.2766
177.9306, 865.5659
178.4128, 877.6063
178.8949, 886.4771
179.3770, 887.7231
179.8591, 884.2896
180.3412, 880.9103
180.8233, 877.5888
181.3055, 873.7717
181.7876, 865.6967
182.2697, 855.6917
182.7518, 851.9691
183.2339, 864.6400
183.7160, 885.9793
184.1981, 894.4011
184.6803, 887.8361
185.1624, 877.7033
185.6445, 880.3243
186.1266, 893.6052
186.6087, 902.9182
187.0908, 895.3286
187.5730, 876.4181
188.0551, 871.1171
188.5372, 883.5576
189.0193, 901.5477
189.5014, 905.8828
189.9835, 896.9525
190.4657, 886.6290
190.9478, 880.9329
191.4299, 879.4758
191.9120, 879.9882
192.3941, 882.8329
192.8762, 886.6867
193.3584, 888.3250
193.8405, 887.5336
194.3226, 887.9122
194.8047, 893.4478
195.2868, 903.8766
195.7689, 910.0191
196.2511, 910.1114
196.7332, 906.0468
197.2153, 902.4303
197.6974, 899.1350
198.1795, 896.9542
198.6616, 897.0682
199.1437, 899.6777
199.6259, 901.3041
200.1080, 901.2810
200.5901, 899.9427
201.0722, 897.9482
201.5543, 894.6088
202.0364, 892.9103
202.5186, 896.0832
203.0007, 904.8351
203.4828, 913.3547
203.9649, 921.2813
204.4470, 928.1939
204.9291, 931.0091
205.4113, 929.1013
205.8934, 924.5854
206.3755, 918.3384
206.8576, 909.2671
207.3397, 903.6044
207.8218, 903.7692
208.3040, 909.3334
208.7861, 911.7573
209.2682, 909.0048
209.7503, 906.6902
210.2324, 912.2237
210.7145, 928.7246
211.1967, 942.3880
211.6788, 949.6614
212.1609, 950.4703
212.6430, 948.4271
213.1251, 940.7627
213.6072, 934.0107
214.0893, 937.9807
214.5715, 958.6187
215.0536, 974.0780
215.5357, 976.1092
216.0178, 962.7350
216.4999, 955.5278
216.9820, 956.0082
217.4642, 961.1174
217.9463, 966.9893
218.4284, 973.6986
218.9105, 980.8905
219.3926, 990.0311
219.8747, 1002.938
220.3569, 1005.688
220.8390, 992.5349
221.3211, 973.6258
221.8032, 965.4135
222.2853, 973.0558
222.7674, 981.5186
223.2496, 985.6177
223.7317, 984.1350
224.2138, 983.5642
224.6959, 985.5496
225.1780, 987.4944
225.6601, 983.6801
226.1423, 969.1937
226.6244, 957.7137
227.1065, 955.6990
227.5886, 968.2050
228.0707, 973.8604
228.5528, 969.3080
229.0349, 959.3603
229.5171, 954.4829
229.9992, 957.8696
230.4813, 960.9984
230.9634, 960.1846
231.4455, 952.9435
231.9276, 948.2290
232.4098, 947.1722
232.8919, 948.2725
233.3740, 947.9327
233.8561, 945.4873
234.3382, 942.6561
234.8203, 939.7687
235.3025, 935.4798
235.7846, 934.5717
236.2667, 938.9318
236.7488, 946.2269
237.2309, 949.9924
237.7130, 947.6779
238.1952, 945.5336
238.6773, 946.7520
239.1594, 954.6069
239.6415, 958.3406
240.1236, 955.2266
240.6057, 948.4532
241.0879, 947.5703
241.5700, 955.9689
242.0521, 965.4178
242.5342, 972.7119
243.0163, 979.2651
243.4984, 980.1174
243.9805, 972.1283
244.4627, 958.7582
244.9448, 950.7157
245.4269, 950.2712
245.9090, 951.9135
246.3911, 953.5405
246.8732, 956.7260
247.3554, 955.8755
247.8375, 947.8719
248.3196, 936.0356
248.8017, 931.9526
249.2838, 941.2325
249.7659, 950.0711
250.2481, 951.1449
250.7302, 939.7271
251.2123, 931.9801
251.6944, 930.7116
252.1765, 933.1379
252.6586, 929.6190
253.1408, 915.5226
253.6229, 902.7280
254.1050, 897.7211
254.5871, 904.4975
255.0692, 908.9022
255.5513, 908.9460
256.0334, 906.6238
256.5156, 908.9239
256.9977, 919.6934
257.4798, 928.7551
257.9619, 930.0128
258.4440, 919.3986
258.9261, 912.0799
259.4083, 908.8536
259.8904, 909.1537
260.3725, 911.3843
260.8546, 915.8481
261.3367, 921.6791
261.8188, 929.6118
262.3010, 942.5590
262.7831, 947.9775
263.2652, 942.6028
263.7473, 930.5143
264.2294, 923.1547
264.7115, 921.8076
265.1937, 922.5986
265.6758, 923.8924
266.1579, 925.9622
266.6400, 927.0105
267.1221, 925.5966
267.6042, 923.9144
268.0864, 929.0018
268.5685, 944.1752
269.0506, 957.8518
269.5327, 963.9221
270.0148, 961.2216
270.4969, 955.9741
270.9791, 946.1602
271.4612, 935.7831
271.9433, 936.2225
272.4254, 950.9143
272.9075, 964.9266
273.3896, 969.8066
273.8718, 964.1100
274.3539, 959.2116
274.8360, 953.7161
275.3181, 951.0637
275.8002, 962.3560
276.2823, 992.0731
276.7645, 1015.275
277.2466, 1014.951
277.7287, 988.1721
278.2108, 976.0148
278.6929, 982.8862
279.1750, 999.5563
279.6572, 1009.625
280.1393, 1012.475
280.6214, 1013.151
281.1035, 1012.222
281.5856, 1009.744
282.0677, 1013.006
282.5498, 1023.047
283.0320, 1036.981
283.5141, 1051.008
283.9962, 1065.197
284.4783, 1078.236
284.9604, 1089.526
285.4425, 1099.159
285.9247, 1107.719
286.4068, 1115.316
286.8889, 1121.502
287.3710, 1124.194
287.8531, 1123.592
288.3352, 1125.120
288.8174, 1131.365
289.2995, 1141.825
289.7816, 1155.295
290.2637, 1172.385
290.7458, 1188.453
291.2279, 1197.067
291.7101, 1198.901
292.1922, 1199.114
292.6743, 1200.102
293.1564, 1201.061
293.6385, 1198.276
294.1206, 1191.151
294.6028, 1185.097
295.0849, 1188.655
295.5670, 1199.168
296.0491, 1205.736
296.5312, 1202.132
297.0133, 1192.538
297.4955, 1185.184
297.9776, 1180.289
298.4597, 1175.656
298.9418, 1169.523
299.4239, 1162.152
299.9060, 1154.049
300.3882, 1143.255
300.8703, 1133.168
301.3524, 1129.598
301.8345, 1132.345
302.3166, 1137.267
302.7987, 1143.500
303.2809, 1149.268
303.7630, 1151.598
304.2451, 1150.042
304.7272, 1143.995
305.2093, 1130.396
305.6914, 1109.989
306.1736, 1090.649
306.6557, 1074.673
307.1378, 1063.559
307.6199, 1059.867
308.1020, 1068.534
308.5841, 1079.235
309.0663, 1081.952
309.5484, 1078.753
310.0305, 1078.299
310.5126, 1086.618
310.9947, 1099.647
311.4768, 1113.108
311.9590, 1124.476
312.4410, 1138.864
312.9232, 1158.278
313.4053, 1183.028
313.8874, 1213.367
314.3695, 1255.313
314.8516, 1299.846
315.3337, 1341.733
315.8159, 1382.439
316.2980, 1414.684
316.7801, 1430.308
317.2622, 1435.484
317.7443, 1443.269
318.2264, 1449.795
318.7086, 1466.577
319.1907, 1502.640
319.6728, 1565.944
320.1549, 1626.771
320.6370, 1669.809
321.1191, 1706.595
321.6013, 1754.559
322.0834, 1812.485
322.5655, 1886.372
323.0476, 1995.234
323.5297, 2161.007
324.0118, 2264.302
324.4940, 2290.153
324.9761, 2243.567
325.4582, 2130.164
325.9403, 1857.268
326.4224, 1610.492
326.9045, 1430.430
327.3867, 1323.822
327.8688, 1239.101
328.3509, 1182.217
328.8330, 1143.029
329.3151, 1112.889
329.7972, 1095.082
330.2794, 1082.312
330.7615, 1075.518
331.2436, 1074.403
331.7257, 1070.463
332.2078, 1061.469
332.6899, 1051.858
333.1721, 1044.547
333.6542, 1039.796
334.1363, 1037.164
334.6184, 1037.722
335.1005, 1040.473
335.5826, 1040.497
336.0648, 1036.600
336.5469, 1032.065
337.0290, 1028.800
337.5111, 1027.225
337.9932, 1024.722
338.4753, 1019.261
338.9575, 1014.065
339.4396, 1019.393
339.9217, 1039.019
340.4038, 1055.562
340.8859, 1059.772
341.3680, 1050.975
341.8502, 1038.704
342.3323, 1021.084
342.8144, 1004.536
343.2965, 1001.811
343.7786, 1013.498
344.2607, 1025.914
344.7428, 1033.928
345.2249, 1037.877
345.7071, 1039.221
346.1892, 1037.406
346.6713, 1035.812
347.1534, 1039.907
347.6355, 1048.544
348.1176, 1054.316
348.5998, 1051.195
349.0819, 1044.827
349.5640, 1050.797
350.0461, 1069.352
350.5282, 1086.134
351.0103, 1086.286
351.4925, 1075.244
351.9746, 1065.310
352.4567, 1059.692
352.9388, 1057.194
353.4209, 1057.548
353.9030, 1060.295
354.3852, 1062.725
354.8673, 1061.458
355.3494, 1059.401
355.8315, 1060.212
356.3136, 1064.865
356.7957, 1072.151
357.2779, 1083.840
357.7600, 1097.866
358.2421, 1108.350
358.7242, 1110.383
359.2063, 1109.157
359.6884, 1107.776
360.1706, 1105.982
360.6527, 1106.635
361.1348, 1113.443
361.6169, 1123.164
362.0990, 1130.670
362.5811, 1133.380
363.0633, 1134.336
363.5454, 1133.088
364.0275, 1128.832
364.5096, 1129.762
364.9917, 1143.321
365.4738, 1160.641
365.9560, 1173.265
366.4381, 1174.629
366.9202, 1176.467
367.4023, 1181.920
367.8844, 1190.877
368.3665, 1197.710
368.8487, 1200.694
369.3308, 1202.517
369.8129, 1204.615
370.2950, 1205.529
370.7771, 1208.833
371.2592, 1214.594
371.7414, 1222.839
372.2235, 1234.559
372.7056, 1253.802
373.1877, 1270.781
373.6698, 1279.493
374.1519, 1274.919
374.6340, 1278.074
375.1161, 1292.662
375.5983, 1311.577
376.0804, 1319.751
376.5625, 1312.718
377.0446, 1311.172
377.5267, 1325.479
378.0089, 1355.352
378.4910, 1376.298
378.9731, 1386.642
379.4552, 1393.127
379.9373, 1404.751
380.4194, 1421.473
380.9016, 1432.536
381.3837, 1432.534
381.8658, 1425.996
382.3479, 1424.484
382.8300, 1427.957
383.3121, 1438.211
383.7943, 1462.661
384.2764, 1495.568
384.7585, 1519.097
385.2406, 1526.263
385.7227, 1528.509
386.2048, 1543.742
386.6870, 1568.434
387.1691, 1588.361
387.6512, 1596.953
388.1333, 1594.632
388.6154, 1578.293
389.0975, 1544.344
389.5797, 1511.598
390.0618, 1495.662
390.5439, 1491.122
391.0260, 1489.184
391.5081, 1487.003
391.9902, 1485.499
392.4724, 1486.209
392.9545, 1489.287
393.4366, 1490.460
393.9187, 1487.372
394.4008, 1481.827
394.8829, 1475.386
395.3651, 1467.218
395.8472, 1459.586
396.3293, 1453.421
396.8114, 1448.459
397.2935, 1443.166
397.7756, 1432.270
398.2578, 1424.641
398.7399, 1425.131
399.2220, 1444.290
399.7041, 1455.844
400.1862, 1456.786
400.6683, 1450.526
401.1505, 1443.705
401.6326, 1435.525
402.1147, 1427.903
402.5968, 1421.550
403.0789, 1416.756
403.5610, 1410.617
404.0432, 1399.756
404.5253, 1391.749
405.0074, 1398.841
405.4895, 1427.759
405.9716, 1445.331
406.4537, 1441.833
406.9358, 1421.363
407.4179, 1402.310
407.9001, 1383.962
408.3822, 1370.389
408.8643, 1368.962
409.3464, 1377.915
409.8285, 1375.651
410.3106, 1355.669
410.7928, 1330.414
411.2749, 1321.751
411.7570, 1327.858
412.2391, 1334.619
412.7212, 1336.041
413.2033, 1332.377
413.6855, 1323.517
414.1676, 1309.285
414.6497, 1292.012
415.1318, 1271.113
415.6139, 1249.002
416.0960, 1230.583
416.5782, 1216.481
417.0603, 1207.482
417.5424, 1208.799
418.0245, 1218.502
418.5066, 1222.198
418.9887, 1204.327
419.4709, 1181.605
419.9530, 1168.308
420.4351, 1174.116
420.9172, 1179.427
421.3993, 1177.199
421.8814, 1169.724
422.3636, 1162.169
422.8457, 1155.235
423.3278, 1148.885
423.8099, 1142.551
424.2920, 1134.852
424.7741, 1131.783
425.2563, 1141.028
425.7384, 1151.288
426.2205, 1149.970
426.7026, 1126.066
427.1847, 1108.117
427.6668, 1102.219
428.1490, 1107.176
428.6311, 1111.387
429.1132, 1114.308
429.5953, 1117.509
430.0774, 1122.837
430.5595, 1131.214
431.0417, 1135.737
431.5238, 1135.349
432.0059, 1131.417
432.4880, 1125.758
432.9701, 1118.240
433.4522, 1111.748
433.9344, 1108.738
434.4165, 1108.125
434.8986, 1103.228
435.3807, 1093.360
435.8628, 1085.415
436.3449, 1089.894
436.8270, 1102.307
437.3091, 1109.742
437.7913, 1105.234
438.2734, 1097.054
438.7555, 1095.085
439.2376, 1098.262
439.7197, 1101.371
440.2018, 1101.624
440.6840, 1099.989
441.1661, 1097.004
441.6482, 1092.169
442.1303, 1087.900
442.6124, 1086.890
443.0945, 1086.993
443.5767, 1084.835
444.0588, 1070.813
444.5409, 1062.176
445.0230, 1069.674
445.5051, 1095.033
445.9872, 1111.999
446.4694, 1112.737
446.9515, 1106.011
447.4336, 1097.700
447.9157, 1082.674
448.3978, 1073.473
448.8799, 1072.125
449.3621, 1076.983
449.8442, 1083.330
450.3263, 1092.214
450.8084, 1100.630
451.2905, 1108.027
451.7726, 1114.818
452.2548, 1115.968
452.7369, 1109.408
453.2190, 1101.171
453.7011, 1100.180
454.1832, 1106.809
454.6653, 1110.298
455.1475, 1109.427
455.6296, 1080.933
456.1117, 1094.933
456.5938, 1101.239
457.0759, 1100.263
457.5580, 1070.199
458.0402, 1077.697
458.5223, 1070.141
459.0044, 1100.597
459.4865, 1109.263
459.9686, 1101.203
460.4507, 1082.789
460.9329, 1067.448
461.4150, 1062.485
461.8971, 1062.425
462.3792, 1064.598
462.8613, 1068.774
463.3434, 1072.864
463.8256, 1074.931
464.3077, 1077.008
464.7898, 1080.700
465.2719, 1085.750
465.7540, 1093.221
466.2361, 1108.259
466.7183, 1126.277
467.2003, 1134.488
467.6825, 1122.723
468.1646, 1110.375
468.6467, 1103.123
469.1288, 1102.039
469.6109, 1100.782
470.0930, 1099.283
470.5752, 1097.642
471.0573, 1095.328
471.5394, 1091.265
472.0215, 1091.163
472.5036, 1098.107
472.9857, 1108.579
473.4679, 1109.453
473.9500, 1099.700
474.4321, 1090.844
474.9142, 1091.835
475.3963, 1100.176
475.8784, 1104.335
476.3606, 1103.297
476.8427, 1100.308
477.3248, 1099.448
477.8069, 1099.633
478.2890, 1097.988
478.7711, 1091.441
479.2533, 1084.297
479.7354, 1081.038
480.2175, 1081.202
480.6996, 1082.178
481.1817, 1080.694
481.6638, 1080.418
482.1460, 1085.476
482.6281, 1099.887
483.1102, 1110.493
483.5923, 1110.115
484.0744, 1103.786
484.5565, 1098.842
485.0387, 1101.156
485.5208, 1100.379
486.0029, 1090.038
486.4850, 1070.310
486.9671, 1062.542
487.4492, 1076.371
487.9314, 1091.703
488.4135, 1095.065
488.8956, 1080.376
489.3777, 1072.117
489.8598, 1072.790
490.3419, 1078.823
490.8241, 1084.570
491.3062, 1090.333
491.7883, 1093.582
492.2704, 1092.319
492.7525, 1087.838
493.2346, 1084.704
493.7168, 1082.901
494.1989, 1083.822
494.6810, 1094.089
495.1631, 1107.662
495.6452, 1108.641
496.1273, 1089.068
496.6095, 1067.593
497.0916, 1064.262
497.5737, 1073.754
498.0558, 1084.207
498.5379, 1090.695
499.0200, 1095.666
499.5021, 1100.493
499.9843, 1105.313
500.4664, 1109.676
500.9485, 1117.540
501.4306, 1122.476
501.9127, 1119.518
502.3948, 1095.165
502.8770, 1078.816
503.3591, 1078.497
503.8412, 1086.970
504.3233, 1088.125
504.8054, 1074.816
505.2875, 1065.170
505.7697, 1065.583
506.2518, 1076.404
506.7339, 1086.050
507.2160, 1095.471
507.6981, 1101.351
508.1802, 1099.408
508.6624, 1089.705
509.1445, 1079.308
509.6266, 1067.649
510.1087, 1058.904
510.5908, 1064.179
511.0729, 1080.848
511.5551, 1093.541
512.0372, 1091.445
512.5193, 1081.865
513.0014, 1073.838
513.4835, 1067.621
513.9656, 1064.726
514.4478, 1068.021
514.9299, 1074.367
515.4120, 1080.930
515.8941, 1089.695
516.3762, 1094.009
516.8583, 1085.415
517.3405, 1070.853
517.8226, 1064.343
518.3047, 1080.091
518.7868, 1093.459
519.2689, 1093.396
519.7510, 1077.966
520.2332, 1074.344
520.7153, 1092.028
521.1974, 1110.965
521.6795, 1116.165
522.1616, 1103.167
522.6437, 1091.544
523.1259, 1082.621
523.6080, 1075.998
524.0901, 1069.842
524.5722, 1063.877
525.0543, 1064.101
525.5364, 1077.235
526.0186, 1097.208
526.5007, 1105.123
526.9828, 1101.116
527.4649, 1095.410
527.9470, 1096.952
528.4291, 1101.920
528.9113, 1104.852
529.3934, 1105.278
529.8755, 1101.702
530.3576, 1086.013
530.8397, 1066.709
531.3218, 1057.870
531.8040, 1078.020
532.2861, 1097.315
532.7682, 1102.478
533.2503, 1094.122
533.7324, 1085.309
534.2145, 1072.810
534.6967, 1064.525
535.1788, 1065.063
535.6609, 1080.669
536.1430, 1090.403
536.6251, 1090.917
537.1072, 1088.547
537.5894, 1093.648
538.0715, 1108.757
538.5536, 1118.634
539.0357, 1119.120
539.5178, 1111.809
539.9999, 1098.255
540.4821, 1078.519
540.9642, 1064.106
541.4463, 1065.752
541.9284, 1077.757
542.4105, 1087.119
542.8926, 1092.520
543.3748, 1097.916
543.8568, 1109.421
544.3389, 1122.369
544.8210, 1129.982
545.3032, 1127.340
545.7853, 1122.041
546.2674, 1115.986
546.7495, 1110.030
547.2316, 1106.699
547.7137, 1108.366
548.1959, 1111.301
548.6780, 1116.208
549.1601, 1125.365
549.6422, 1122.801
550.1243, 1096.220
550.6064, 1069.996
551.0886, 1066.286
551.5707, 1094.423
552.0528, 1112.885
552.5349, 1115.558
553.0170, 1108.948
553.4991, 1104.317
553.9813, 1101.631
554.4634, 1103.183
554.9455, 1112.437
555.4276, 1125.905
555.9097, 1135.312
556.3918, 1140.684
556.8740, 1142.668
557.3561, 1140.654
557.8382, 1135.967
558.3203, 1129.847
558.8024, 1121.914
559.2845, 1114.643
559.7667, 1107.883
560.2488, 1103.054
560.7309, 1102.003
561.2130, 1111.722
561.6951, 1118.399
562.1772, 1114.776
562.6594, 1103.190
563.1415, 1100.339
563.6236, 1114.000
564.1057, 1126.929
564.5878, 1131.340
565.0699, 1125.400
565.5521, 1123.056
566.0342, 1125.439
566.5163, 1129.006
566.9984, 1129.302
567.4805, 1126.514
567.9626, 1126.180
568.4448, 1129.831
568.9269, 1135.443
569.4090, 1141.279
569.8911, 1146.691
570.3732, 1149.340
570.8553, 1149.768
571.3375, 1145.668
571.8196, 1128.452
572.3017, 1099.865
572.7838, 1083.442
573.2659, 1103.504
573.7480, 1132.217
574.2302, 1149.186
574.7123, 1146.666
575.1944, 1141.275
575.6765, 1130.546
576.1586, 1120.410
576.6407, 1119.085
577.1229, 1135.048
577.6050, 1144.505
578.0871, 1141.630
578.5692, 1129.760
579.0513, 1122.004
579.5334, 1118.682
580.0156, 1117.942
580.4977, 1119.309
580.9798, 1122.565
581.4619, 1126.615
581.9440, 1131.450
582.4261, 1136.769
582.9083, 1143.457
583.3904, 1150.110
583.8725, 1154.580
584.3546, 1156.926
584.8367, 1155.575
585.3188, 1144.194
585.8010, 1128.980
586.2831, 1121.110
586.7652, 1133.941
587.2473, 1145.402
587.7294, 1145.621
588.2115, 1135.431
588.6937, 1130.306
589.1758, 1133.604
589.6579, 1139.027
590.1400, 1143.801
590.6221, 1147.428
591.1042, 1153.699
591.5864, 1164.585
592.0685, 1173.969
592.5506, 1173.250
593.0327, 1162.895
593.5148, 1154.972
593.9969, 1151.551
594.4791, 1152.132
594.9612, 1156.893
595.4433, 1165.148
595.9254, 1174.534
596.4075, 1189.640
596.8896, 1201.372
597.3718, 1197.841
597.8539, 1180.813
598.3360, 1166.631
598.8181, 1161.864
599.3002, 1163.042
599.7823, 1168.861
600.2645, 1181.938
600.7466, 1192.314
601.2287, 1201.973
601.7108, 1206.822
602.1929, 1200.140
602.6750, 1171.913
603.1572, 1159.277
603.6393, 1170.791
604.1214, 1197.162
604.6035, 1219.256
605.0856, 1237.231
605.5677, 1247.586
606.0498, 1245.248
606.5319, 1235.417
607.0140, 1230.089
607.4962, 1229.060
607.9783, 1229.846
608.4604, 1232.012
608.9425, 1234.380
609.4246, 1236.036
609.9067, 1237.222
610.3889, 1235.947
610.8710, 1227.630
611.3531, 1218.018
611.8352, 1213.157
612.3173, 1219.838
612.7994, 1224.083
613.2816, 1222.988
613.7637, 1219.012
614.2458, 1217.932
614.7279, 1219.913
615.2100, 1224.853
615.6921, 1235.320
616.1743, 1249.090
616.6564, 1248.958
617.1385, 1233.930
617.6206, 1220.427
618.1027, 1221.834
618.5848, 1233.281
619.0670, 1245.449
619.5491, 1258.054
620.0312, 1265.465
620.5133, 1257.576
620.9954, 1243.860
621.4775, 1236.574
621.9597, 1244.062
622.4418, 1251.310
622.9239, 1250.236
623.4060, 1245.789
623.8881, 1248.092
624.3702, 1269.346
624.8524, 1283.486
625.3345, 1282.697
625.8166, 1269.167
626.2987, 1259.690
626.7808, 1253.308
627.2629, 1253.816
627.7451, 1268.746
628.2272, 1295.325
628.7093, 1305.799
629.1914, 1298.625
629.6735, 1288.232
630.1556, 1290.388
630.6378, 1298.714
631.1199, 1301.614
631.6020, 1295.315
632.0841, 1286.984
632.5662, 1279.796
633.0483, 1274.159
633.5305, 1270.663
634.0126, 1269.592
634.4947, 1270.681
634.9768, 1274.295
635.4589, 1280.181
635.9410, 1287.022
636.4232, 1294.692
636.9053, 1303.710
637.3874, 1315.758
637.8695, 1330.471
638.3516, 1337.473
638.8337, 1335.809
639.3159, 1332.010
639.7980, 1332.004
640.2801, 1334.155
640.7622, 1331.249
641.2443, 1321.360
641.7264, 1314.293
642.2086, 1323.011
642.6907, 1339.288
643.1728, 1351.098
643.6549, 1352.728
644.1370, 1352.477
644.6191, 1352.510
645.1013, 1353.187
645.5834, 1355.235
646.0655, 1358.962
646.5476, 1363.914
647.0297, 1370.395
647.5118, 1378.154
647.9940, 1385.879
648.4761, 1394.875
648.9582, 1399.806
649.4403, 1394.433
649.9224, 1380.773
650.4045, 1377.107
650.8867, 1383.927
651.3688, 1392.120
651.8509, 1393.841
652.3330, 1391.412
652.8151, 1387.766
653.2972, 1382.430
653.7794, 1380.079
654.2615, 1387.586
654.7436, 1398.473
655.2257, 1404.644
655.7078, 1396.087
656.1899, 1392.292
656.6721, 1402.184
657.1542, 1418.450
657.6363, 1423.930
658.1184, 1414.756
658.6005, 1403.546
659.0826, 1391.343
659.5648, 1380.307
660.0469, 1385.509
660.5290, 1407.715
661.0111, 1427.796
661.4932, 1431.556
661.9753, 1424.743
662.4575, 1416.361
662.9396, 1406.904
663.4217, 1400.655
663.9038, 1400.540
664.3859, 1405.218
664.8680, 1414.715
665.3502, 1433.863
665.8323, 1446.275
666.3144, 1443.004
666.7965, 1433.069
667.2786, 1427.769
667.7607, 1431.994
668.2428, 1430.189
