##NAMES=Marialite
##RRUFFID=R060526
##IDEAL CHEMISTRY=Na_4_Al_3_Si_9_O_24_Cl
##LOCALITY=Minas Gerais, Brazil
##OWNER=RRUFF
##SOURCE=Michael Scott
##DESCRIPTION=Heavily striated pale yellow elongated prism
##STATUS=The identification of this mineral has been confirmed by X-ray diffraction and chemical analysis
##URL=rruff.info/R060526
##MEASURED CHEMISTRY=(Na_0.62_Ca_0.33_K_0.05_)_4_(Si_0.66_Al_0.34_)_12_O_24_(Cl_0.77_(CO_3_)_0.23_)
91.62726, 0.0000000E+00
92.10938, 16.02216
92.59149, 15.85476
93.07361, 15.91537
93.55573, 16.18649
94.03784, 16.45112
94.51996, 16.49265
95.00208, 16.36649
95.48419, 16.26873
95.96631, 16.26305
96.44843, 16.32786
96.93054, 16.38328
97.41266, 16.41627
97.89478, 16.50654
98.37689, 16.80581
98.85901, 17.31208
99.34113, 17.76940
99.82324, 18.06384
100.3054, 18.19300
100.7875, 18.30136
101.2696, 18.35757
101.7517, 18.43397
102.2338, 18.62713
102.7159, 18.88533
103.1981, 19.41027
103.6802, 20.36597
104.1623, 21.94682
104.6444, 23.33075
105.1265, 24.35834
105.6086, 25.17989
106.0908, 26.43483
106.5729, 28.33934
107.0550, 30.41398
107.5371, 32.35983
108.0192, 33.89468
108.5013, 35.74546
108.9835, 37.97696
109.4656, 40.58050
109.9477, 43.51792
110.4298, 46.76110
110.9119, 50.36168
111.3940, 54.43674
111.8762, 58.83993
112.3583, 63.81830
112.8404, 69.44408
113.3225, 75.69809
113.8046, 82.57095
114.2867, 90.64257
114.7689, 99.22778
115.2510, 107.5075
115.7331, 115.1463
116.2152, 122.6637
116.6973, 130.2148
117.1794, 137.8602
117.6616, 145.3509
118.1437, 152.5355
118.6258, 159.5710
119.1079, 166.4707
119.5900, 173.1410
120.0721, 179.8239
120.5543, 186.5790
121.0364, 193.2258
121.5185, 200.3937
122.0006, 208.5962
122.4827, 217.6904
122.9648, 227.3960
123.4470, 236.9221
123.9291, 247.1050
124.4112, 259.0011
124.8933, 273.4498
125.3754, 288.7794
125.8575, 303.3571
126.3397, 317.2950
126.8218, 331.3437
127.3039, 346.2952
127.7860, 361.6522
128.2681, 376.2425
128.7502, 389.4958
129.2324, 402.0370
129.7145, 415.0462
130.1966, 428.5868
130.6787, 441.3047
131.1608, 451.6499
131.6429, 459.8712
132.1251, 467.6949
132.6072, 475.9974
133.0893, 484.2821
133.5714, 490.8288
134.0535, 495.3928
134.5356, 499.3434
135.0178, 504.4173
135.4999, 510.6176
135.9820, 516.8263
136.4641, 522.1165
136.9462, 526.5986
137.4283, 533.3580
137.9105, 542.7612
138.3926, 553.8992
138.8747, 565.2033
139.3568, 576.7385
139.8389, 588.6278
140.3210, 600.6586
140.8032, 612.6188
141.2853, 626.2979
141.7674, 641.9412
142.2495, 659.1014
142.7316, 675.6280
143.2137, 688.4998
143.6959, 698.6607
144.1780, 710.7332
144.6601, 726.1479
145.1422, 740.3015
145.6243, 752.8535
146.1064, 764.1461
146.5886, 775.9382
147.0707, 788.7811
147.5528, 801.4825
148.0349, 813.1662
148.5170, 823.5338
148.9991, 833.5053
149.4813, 842.3134
149.9634, 850.3283
150.4455, 860.3944
150.9276, 875.1335
151.4097, 890.1544
151.8918, 902.4156
152.3740, 910.4443
152.8561, 917.7985
153.3382, 924.3115
153.8203, 929.9894
154.3024, 936.5974
154.7845, 945.3203
155.2667, 954.3619
155.7488, 962.5120
156.2309, 968.6293
156.7130, 974.6505
157.1951, 981.0507
157.6772, 987.8422
158.1594, 994.4577
158.6415, 1001.379
159.1236, 1007.798
159.6057, 1012.947
160.0878, 1015.879
160.5699, 1018.136
161.0521, 1020.639
161.5342, 1023.643
162.0163, 1024.982
162.4984, 1023.543
162.9805, 1020.133
163.4626, 1015.770
163.9448, 1011.730
164.4269, 1006.175
164.9090, 997.6541
165.3911, 985.6163
165.8732, 973.1321
166.3553, 962.5023
166.8375, 952.3695
167.3196, 940.4846
167.8017, 923.9299
168.2838, 906.4717
168.7659, 890.8880
169.2480, 877.9277
169.7302, 865.1413
170.2123, 850.2925
170.6944, 834.2623
171.1765, 819.3068
171.6586, 806.7315
172.1407, 795.5628
172.6229, 784.5306
173.1050, 773.1744
173.5871, 762.6811
174.0692, 754.2493
174.5513, 747.5966
175.0334, 742.0425
175.5156, 737.7367
175.9977, 734.0944
176.4798, 730.3715
176.9619, 726.2965
177.4440, 722.3082
177.9261, 718.8804
178.4083, 715.9753
178.8904, 713.4894
179.3725, 711.0355
179.8546, 708.9987
180.3367, 708.3273
180.8188, 709.5821
181.3010, 711.5773
181.7831, 712.5638
182.2652, 712.6725
182.7473, 713.0172
183.2294, 714.6419
183.7115, 717.1539
184.1937, 719.3964
184.6758, 721.0868
185.1579, 722.4889
185.6400, 724.0430
186.1221, 725.7373
186.6042, 727.6692
187.0864, 730.3566
187.5685, 733.5013
188.0506, 735.5420
188.5327, 735.7812
189.0148, 735.0862
189.4969, 735.3801
189.9791, 736.6942
190.4612, 738.4249
190.9433, 740.5650
191.4254, 742.9510
191.9075, 744.1910
192.3896, 743.6011
192.8718, 741.8492
193.3539, 740.9817
193.8360, 741.1113
194.3181, 741.1740
194.8002, 739.8099
195.2823, 737.0544
195.7645, 735.2299
196.2466, 735.1052
196.7287, 736.2438
197.2108, 736.9258
197.6929, 737.0772
198.1750, 737.0380
198.6572, 737.0944
199.1393, 737.2377
199.6214, 737.3782
200.1035, 737.4238
200.5856, 737.4280
201.0677, 737.7852
201.5499, 738.5642
202.0320, 739.4674
202.5141, 740.1229
202.9962, 740.4675
203.4783, 741.2160
203.9604, 742.9108
204.4426, 745.3036
204.9247, 746.0218
205.4068, 744.7135
205.8889, 742.6606
206.3710, 741.4139
206.8531, 741.3997
207.3353, 740.0381
207.8174, 736.4689
208.2995, 730.8610
208.7816, 725.3699
209.2637, 720.0525
209.7458, 714.8453
210.2280, 709.6771
210.7101, 704.4899
211.1922, 699.4659
211.6743, 694.3531
212.1564, 689.2365
212.6385, 685.8608
213.1207, 684.8585
213.6028, 684.6150
214.0849, 683.3328
214.5670, 680.4987
215.0491, 678.2418
215.5313, 677.1516
216.0134, 677.2172
216.4955, 677.1033
216.9776, 676.5644
217.4597, 676.1808
217.9418, 676.6956
218.4240, 678.5917
218.9061, 680.1016
219.3882, 680.7487
219.8703, 680.5203
220.3524, 680.4484
220.8345, 680.5736
221.3167, 680.7991
221.7988, 681.1457
222.2809, 681.9640
222.7630, 682.0253
223.2451, 680.6964
223.7272, 677.9326
224.2094, 676.6325
224.6915, 677.6475
225.1736, 679.1542
225.6557, 679.3604
226.1378, 678.0336
226.6199, 675.8782
227.1021, 672.7161
227.5842, 668.5128
228.0663, 665.1967
228.5484, 663.0925
229.0305, 661.4767
229.5126, 659.6915
229.9948, 657.6991
230.4769, 655.6091
230.9590, 653.3936
231.4411, 651.0591
231.9232, 648.6905
232.4053, 646.0186
232.8875, 643.5647
233.3696, 641.8878
233.8517, 641.6269
234.3338, 640.8762
234.8159, 639.1560
235.2980, 636.4821
235.7802, 634.2828
236.2623, 632.7316
236.7444, 631.4788
237.2265, 630.2644
237.7086, 629.1592
238.1907, 627.9431
238.6729, 626.3967
239.1550, 624.5795
239.6371, 623.5442
240.1192, 623.5955
240.6013, 624.0792
241.0834, 624.4841
241.5656, 624.6766
242.0477, 625.0184
242.5298, 625.4760
243.0119, 626.0732
243.4940, 627.1755
243.9761, 629.1746
244.4583, 631.2023
244.9404, 632.5600
245.4225, 632.6754
245.9046, 633.2849
246.3867, 634.6974
246.8688, 636.8010
247.3510, 638.8669
247.8331, 641.0665
248.3152, 643.0146
248.7973, 644.3528
249.2794, 644.4830
249.7615, 645.3180
250.2437, 647.1927
250.7258, 649.9132
251.2079, 652.4439
251.6900, 654.2967
252.1721, 656.6595
252.6542, 660.3787
253.1364, 666.1628
253.6185, 671.5348
254.1006, 676.0756
254.5827, 680.1044
255.0648, 684.7897
255.5469, 690.5298
256.0291, 696.2101
256.5112, 701.2161
256.9933, 705.3167
257.4754, 709.3201
257.9575, 712.9334
258.4396, 716.5859
258.9218, 721.5281
259.4039, 728.5280
259.8860, 735.4993
260.3681, 741.5223
260.8502, 746.3763
261.3323, 751.1082
261.8145, 756.2338
262.2966, 760.9210
262.7787, 763.2526
263.2608, 762.5333
263.7429, 760.8793
264.2250, 759.2332
264.7072, 757.9186
265.1893, 755.1676
265.6714, 750.5712
266.1535, 744.8685
266.6356, 739.4754
267.1177, 734.6306
267.5999, 729.2678
268.0820, 722.6223
268.5641, 714.2429
269.0462, 707.8118
269.5283, 704.0323
270.0104, 701.2643
270.4926, 696.6625
270.9747, 689.3797
271.4568, 683.1867
271.9389, 679.5844
272.4210, 678.6345
272.9031, 677.3322
273.3853, 675.5367
273.8674, 673.6636
274.3495, 672.3393
274.8316, 671.6652
275.3137, 670.9296
275.7958, 669.7636
276.2780, 668.2469
276.7601, 667.4169
277.2422, 667.2186
277.7243, 667.8085
278.2064, 669.7080
278.6885, 673.1207
279.1707, 675.9569
279.6528, 677.5204
280.1349, 678.1143
280.6170, 679.1857
281.0991, 680.6862
281.5812, 682.9000
282.0634, 686.3448
282.5455, 691.1100
283.0276, 695.5150
283.5097, 699.0820
283.9918, 702.1918
284.4739, 706.1116
284.9561, 710.9294
285.4382, 715.9220
285.9203, 720.7625
286.4024, 725.3798
286.8845, 729.3156
287.3666, 732.3723
287.8488, 734.7985
288.3309, 737.3936
288.8130, 740.1801
289.2951, 741.8626
289.7772, 741.3196
290.2593, 738.8129
290.7415, 735.8421
291.2236, 732.5979
291.7057, 728.9065
292.1878, 724.1436
292.6699, 718.4213
293.1520, 713.0333
293.6342, 708.2795
294.1163, 704.4005
294.5984, 702.5853
295.0805, 703.0895
295.5626, 704.7520
296.0447, 706.6458
296.5269, 708.6265
297.0090, 709.9885
297.4911, 710.2363
297.9732, 709.6391
298.4553, 709.0115
298.9374, 708.4424
299.4196, 706.9205
299.9017, 702.8772
300.3838, 696.9872
300.8659, 691.0957
301.3480, 685.5138
301.8301, 680.5915
302.3123, 676.9701
302.7944, 674.5975
303.2765, 672.9545
303.7586, 672.0696
304.2407, 671.5475
304.7228, 670.5841
305.2050, 668.3901
305.6871, 666.2104
306.1692, 665.7509
306.6513, 666.7478
307.1334, 667.7129
307.6155, 667.6088
308.0977, 666.9186
308.5798, 666.1818
309.0619, 665.2946
309.5440, 664.7875
310.0261, 665.5234
310.5082, 667.0820
310.9904, 668.1855
311.4725, 667.2660
311.9546, 666.0615
312.4367, 666.3680
312.9188, 668.9881
313.4009, 671.4568
313.8831, 671.9313
314.3652, 671.1954
314.8473, 670.7460
315.3294, 670.8965
315.8115, 671.7623
316.2936, 673.6498
316.7758, 676.7504
317.2579, 679.7464
317.7400, 681.9935
318.2221, 683.8508
318.7042, 685.8209
319.1863, 688.8578
319.6685, 691.3325
320.1506, 692.2184
320.6327, 691.4557
321.1148, 691.0915
321.5969, 691.3057
322.0790, 692.3777
322.5612, 694.5477
323.0433, 698.9849
323.5254, 703.3373
324.0075, 707.0359
324.4896, 710.1557
324.9717, 713.2174
325.4539, 716.6065
325.9360, 719.7933
326.4181, 722.4291
326.9002, 723.3155
327.3823, 725.1656
327.8644, 728.6478
328.3466, 733.2849
328.8287, 737.6127
329.3108, 741.3785
329.7929, 745.0621
330.2750, 748.7419
330.7571, 752.4191
331.2393, 756.2205
331.7214, 760.7344
332.2035, 765.1616
332.6856, 768.0762
333.1677, 768.4045
333.6498, 768.7969
334.1320, 770.0395
334.6141, 772.2526
335.0962, 774.3349
335.5783, 777.1453
336.0604, 778.9316
336.5425, 777.4367
337.0247, 770.9438
337.5068, 765.5598
337.9889, 762.8116
338.4710, 762.3226
338.9531, 760.4777
339.4352, 756.6663
339.9174, 752.8671
340.3995, 751.1073
340.8816, 751.9426
341.3637, 750.9304
341.8458, 746.6957
342.3279, 740.9763
342.8101, 738.4921
343.2922, 739.6768
343.7743, 741.3354
344.2564, 741.5087
344.7385, 740.2889
345.2206, 739.4655
345.7028, 739.1033
346.1849, 739.2028
346.6670, 739.8434
347.1491, 741.0029
347.6312, 742.3799
348.1133, 744.0388
348.5955, 745.8200
349.0776, 747.0513
349.5597, 747.6747
350.0418, 748.4163
350.5239, 750.2274
351.0060, 752.8063
351.4882, 755.1205
351.9703, 756.6129
352.4524, 757.8651
352.9345, 759.6386
353.4166, 761.9271
353.8987, 764.6641
354.3809, 767.9648
354.8630, 771.6293
355.3451, 775.3035
355.8272, 778.9474
356.3093, 782.5248
356.7914, 785.6738
357.2736, 788.6943
357.7557, 792.3353
358.2378, 798.1949
358.7199, 804.0931
359.2020, 808.1066
359.6841, 809.8548
360.1663, 810.6373
360.6484, 811.0793
361.1305, 811.0309
361.6126, 810.2836
362.0947, 808.7752
362.5768, 806.5435
363.0590, 803.4447
363.5411, 799.4950
364.0232, 795.3107
364.5053, 790.8680
364.9874, 786.4070
365.4695, 782.1150
365.9517, 777.2496
366.4338, 773.4262
366.9159, 771.1438
367.3980, 770.1819
367.8801, 769.6581
368.3622, 769.7975
368.8444, 770.0802
369.3265, 770.2979
369.8086, 770.4996
370.2907, 770.4854
370.7728, 769.7194
371.2549, 768.8880
371.7371, 769.1466
372.2192, 771.0455
372.7013, 773.2953
373.1834, 775.7559
373.6655, 778.5525
374.1476, 780.3365
374.6298, 780.3730
375.1119, 780.2659
375.5940, 781.8676
376.0761, 786.1108
376.5582, 788.9962
377.0403, 789.5284
377.5225, 788.2508
378.0046, 787.3888
378.4867, 786.8742
378.9688, 787.0884
379.4509, 788.6976
379.9330, 791.7269
380.4152, 793.8861
380.8973, 794.8699
381.3794, 795.1379
381.8615, 795.4037
382.3436, 795.6575
382.8257, 795.7104
383.3079, 795.2715
383.7900, 794.5416
384.2721, 794.2859
384.7542, 794.5385
385.2363, 794.8633
385.7184, 794.9892
386.2006, 794.8596
386.6827, 794.2457
387.1648, 792.6095
387.6469, 790.9681
388.1290, 790.8464
388.6111, 792.0289
389.0933, 793.2408
389.5754, 793.8142
390.0575, 793.9067
390.5396, 793.5623
391.0217, 792.5432
391.5038, 791.8678
391.9860, 792.5222
392.4681, 793.9924
392.9502, 795.3527
393.4323, 795.9426
393.9144, 796.4857
394.3965, 797.7264
394.8787, 799.7747
395.3608, 800.8300
395.8429, 799.1212
396.3250, 796.6696
396.8071, 795.2763
397.2892, 796.3101
397.7714, 797.3865
398.2535, 797.8997
398.7356, 797.9938
399.2177, 798.3699
399.6998, 798.6304
400.1819, 799.5861
400.6641, 801.8024
401.1462, 806.7991
401.6283, 809.8727
402.1104, 809.8004
402.5925, 808.3624
403.0746, 808.3059
403.5568, 810.2936
404.0389, 812.4634
404.5210, 814.4148
405.0031, 816.1437
405.4852, 817.6497
405.9673, 818.9323
406.4495, 819.9945
406.9316, 820.6332
407.4137, 820.7034
407.8958, 821.6078
408.3779, 823.7908
408.8600, 826.6945
409.3422, 828.9139
409.8243, 830.4089
410.3064, 831.7619
410.7885, 832.8970
411.2706, 834.0734
411.7527, 836.7805
412.2349, 841.2849
412.7170, 846.1420
413.1991, 849.7327
413.6812, 852.2685
414.1633, 854.2903
414.6454, 855.3444
415.1276, 856.4694
415.6097, 859.4446
416.0918, 864.0013
416.5739, 868.4055
417.0560, 871.4422
417.5381, 873.6734
418.0203, 875.8323
418.5024, 878.2164
418.9845, 880.1473
419.4666, 880.7092
419.9487, 880.5437
420.4308, 880.8397
420.9130, 882.9658
421.3951, 884.9229
421.8772, 885.3827
422.3593, 884.1092
422.8414, 883.5994
423.3235, 885.2060
423.8057, 887.4911
424.2878, 889.2887
424.7699, 889.6699
425.2520, 890.4510
425.7341, 891.9605
426.2162, 894.0380
426.6984, 896.1812
427.1805, 898.1535
427.6626, 900.4368
428.1447, 903.3203
428.6268, 907.0246
429.1089, 910.4384
429.5911, 913.5028
430.0732, 916.3721
430.5553, 919.3887
431.0374, 922.7119
431.5195, 925.4828
432.0016, 927.3842
432.4838, 928.5977
432.9659, 929.7759
433.4480, 930.7709
433.9301, 932.6213
434.4122, 936.3984
434.8943, 941.8604
435.3765, 947.1731
435.8586, 952.0199
436.3407, 957.1277
436.8228, 964.0086
437.3049, 972.2446
437.7870, 979.8516
438.2692, 985.0806
438.7513, 989.6366
439.2334, 996.2054
439.7155, 1004.693
440.1976, 1013.308
440.6797, 1019.946
441.1619, 1026.289
441.6440, 1034.583
442.1261, 1046.223
442.6082, 1058.149
443.0903, 1067.717
443.5724, 1076.254
444.0546, 1086.625
444.5367, 1101.361
445.0188, 1116.928
445.5009, 1131.151
445.9830, 1143.210
446.4651, 1158.222
446.9473, 1177.839
447.4294, 1200.476
447.9115, 1224.550
448.3936, 1249.917
448.8757, 1277.038
449.3578, 1307.135
449.8400, 1338.814
450.3221, 1369.116
450.8042, 1396.880
451.2863, 1425.241
451.7684, 1456.219
452.2505, 1490.628
452.7327, 1523.020
453.2148, 1553.567
453.6969, 1581.473
454.1790, 1605.029
454.6611, 1624.477
455.1432, 1639.979
455.6254, 1650.869
456.1075, 1658.251
456.5896, 1664.684
457.0717, 1670.191
457.5538, 1673.906
458.0359, 1675.772
458.5181, 1675.368
459.0002, 1671.506
459.4823, 1663.971
459.9644, 1653.891
460.4465, 1642.978
460.9286, 1630.309
461.4108, 1614.330
461.8929, 1593.618
462.3750, 1570.102
462.8571, 1544.498
463.3392, 1516.959
463.8214, 1489.331
464.3035, 1462.230
464.7856, 1435.181
465.2677, 1407.508
465.7498, 1378.351
466.2319, 1350.745
466.7141, 1326.072
467.1962, 1303.241
467.6783, 1280.527
468.1604, 1256.549
468.6425, 1234.221
469.1246, 1214.392
469.6068, 1196.874
470.0889, 1179.380
470.5710, 1160.864
471.0531, 1143.774
471.5352, 1129.658
472.0173, 1119.031
472.4995, 1109.192
472.9816, 1100.437
473.4637, 1091.947
473.9458, 1082.172
474.4279, 1070.921
474.9100, 1060.874
475.3922, 1053.075
475.8743, 1047.020
476.3564, 1041.369
476.8385, 1036.121
477.3206, 1030.985
477.8027, 1025.342
478.2849, 1019.742
478.7670, 1015.526
479.2491, 1013.030
479.7312, 1011.182
480.2133, 1009.268
480.6954, 1007.230
481.1776, 1004.956
481.6597, 1001.846
482.1418, 998.9589
482.6239, 997.2595
483.1060, 996.5433
483.5881, 995.4587
484.0703, 992.8022
484.5524, 990.0674
485.0345, 988.2063
485.5166, 987.7410
485.9987, 987.3375
486.4808, 987.5201
486.9630, 987.4551
487.4451, 985.9216
487.9272, 980.6622
488.4093, 977.2130
488.8914, 977.2308
489.3735, 980.2294
489.8557, 981.6370
490.3378, 980.9217
490.8199, 979.9031
491.3020, 979.5841
491.7841, 979.9893
492.2662, 980.9803
492.7484, 982.7863
493.2305, 984.5370
493.7126, 984.6770
494.1947, 983.4370
494.6768, 982.5943
495.1589, 982.8432
495.6411, 983.6897
496.1232, 984.1544
496.6053, 984.3380
497.0874, 984.9113
497.5695, 986.7689
498.0516, 989.0175
498.5338, 990.6877
499.0159, 991.6229
499.4980, 992.0961
499.9801, 991.6066
500.4622, 990.9891
500.9443, 991.2298
501.4265, 994.1582
501.9086, 996.3869
502.3907, 996.3895
502.8728, 994.7424
503.3549, 993.8440
503.8370, 995.0239
504.3192, 996.0897
504.8013, 996.1022
505.2834, 994.6516
505.7655, 994.0199
506.2476, 994.4024
506.7297, 995.3819
507.2119, 996.6532
507.6940, 998.3077
508.1761, 999.8094
508.6582, 1001.020
509.1403, 1002.076
509.6224, 1003.378
510.1046, 1004.930
510.5867, 1006.325
511.0688, 1007.238
511.5509, 1007.836
512.0330, 1008.570
512.5151, 1009.444
512.9973, 1010.519
513.4794, 1011.822
513.9615, 1013.380
514.4436, 1015.346
514.9257, 1018.053
515.4078, 1020.484
515.8900, 1021.534
516.3721, 1021.796
516.8542, 1022.413
517.3363, 1023.641
517.8184, 1025.479
518.3005, 1028.012
518.7827, 1031.231
519.2648, 1034.777
519.7469, 1039.440
520.2290, 1043.762
520.7111, 1046.805
521.1932, 1047.078
521.6754, 1049.134
522.1575, 1053.446
522.6396, 1059.144
523.1217, 1065.224
523.6038, 1071.958
524.0859, 1077.939
524.5681, 1082.385
525.0502, 1085.941
525.5323, 1090.991
526.0144, 1097.600
526.4965, 1104.943
526.9786, 1112.985
527.4608, 1121.440
527.9429, 1129.050
528.4250, 1135.725
528.9071, 1142.689
529.3892, 1150.969
529.8713, 1160.398
530.3535, 1170.533
530.8356, 1181.440
531.3177, 1192.932
531.7998, 1205.132
532.2819, 1217.871
532.7640, 1230.180
533.2462, 1241.454
533.7283, 1252.729
534.2104, 1265.227
534.6925, 1279.194
535.1746, 1290.651
535.6567, 1299.099
536.1389, 1304.993
536.6210, 1308.514
537.1031, 1310.151
537.5852, 1308.320
538.0673, 1302.293
538.5494, 1293.437
539.0316, 1283.837
539.5137, 1273.410
539.9958, 1262.202
540.4779, 1249.924
540.9600, 1237.038
541.4421, 1224.870
541.9243, 1213.457
542.4064, 1202.411
542.8885, 1191.299
543.3706, 1180.535
543.8527, 1170.619
544.3348, 1161.522
544.8170, 1154.128
545.2991, 1150.199
545.7812, 1148.013
546.2633, 1145.376
546.7454, 1141.311
547.2275, 1137.146
547.7097, 1133.084
548.1918, 1129.309
548.6739, 1126.320
549.1560, 1124.474
549.6381, 1123.142
550.1202, 1122.301
550.6024, 1121.966
551.0845, 1121.525
551.5666, 1121.177
552.0487, 1120.455
552.5308, 1118.885
553.0129, 1116.182
553.4951, 1114.072
553.9772, 1112.583
554.4593, 1111.763
554.9414, 1112.069
555.4235, 1113.370
555.9056, 1114.083
556.3878, 1113.489
556.8699, 1112.347
557.3520, 1111.789
557.8341, 1111.768
558.3162, 1112.094
558.7983, 1112.731
559.2805, 1113.623
559.7626, 1114.967
560.2447, 1116.787
560.7268, 1118.038
561.2089, 1117.721
561.6910, 1116.951
562.1732, 1116.623
562.6553, 1117.239
563.1374, 1117.776
563.6195, 1117.768
564.1016, 1117.719
564.5837, 1118.449
565.0659, 1120.581
565.5480, 1122.343
566.0301, 1123.239
566.5122, 1123.465
566.9943, 1123.930
567.4764, 1124.629
567.9586, 1125.571
568.4407, 1127.044
568.9228, 1128.846
569.4049, 1129.646
569.8870, 1129.323
570.3691, 1129.006
570.8513, 1129.812
571.3334, 1131.408
571.8155, 1133.189
572.2976, 1135.208
572.7797, 1136.960
573.2618, 1137.999
573.7440, 1138.520
574.2261, 1138.904
574.7082, 1138.797
575.1903, 1139.057
575.6724, 1140.286
576.1545, 1142.347
576.6367, 1143.989
577.1188, 1144.906
577.6009, 1145.584
578.0830, 1146.242
578.5651, 1146.946
579.0472, 1147.224
579.5294, 1146.759
580.0115, 1146.466
580.4936, 1147.395
580.9757, 1149.586
581.4578, 1151.561
581.9399, 1153.056
582.4221, 1154.377
582.9042, 1155.975
583.3863, 1157.807
583.8684, 1159.793
584.3505, 1162.194
584.8326, 1164.492
585.3148, 1166.079
585.7969, 1167.048
586.2790, 1167.785
586.7611, 1167.586
587.2432, 1167.888
