##NAMES=Marialite
##RRUFFID=R100167
##IDEAL CHEMISTRY=Na_4_Al_3_Si_9_O_24_Cl
##LOCALITY=Mapapwa, Dodoma, Tanzania
##OWNER=RRUFF
##SOURCE=Mineralogical Museum, Harvard University
##DESCRIPTION=Loose yellow prismatic crystals, work is done on the upper yellow crystal
##STATUS=The identification of this mineral has been confirmed only by single crystal X-ray diffraction.
##URL=rruff.info/R100167
90.60547, 932.5687
91.08759, 907.2530
91.56970, 901.3268
92.05182, 908.8428
92.53394, 934.6619
93.01605, 961.2166
93.49817, 983.6586
93.98029, 1003.279
94.46240, 1019.599
94.94452, 1031.754
95.42664, 1041.355
95.90874, 1049.612
96.39086, 1056.967
96.87298, 1063.580
97.35509, 1069.395
97.83721, 1074.057
98.31933, 1074.804
98.80145, 1069.870
99.28356, 1063.152
99.76568, 1057.281
100.2478, 1053.087
100.7299, 1049.583
101.2120, 1044.472
101.6941, 1034.899
102.1763, 1026.679
102.6584, 1020.534
103.1405, 1015.644
103.6226, 1010.796
104.1047, 1005.149
104.5868, 999.0069
105.0690, 994.5016
105.5511, 992.7582
106.0332, 991.0567
106.5153, 987.9854
106.9974, 983.6272
107.4795, 979.0900
107.9617, 975.3911
108.4438, 972.0823
108.9259, 967.7703
109.4080, 961.4293
109.8901, 954.2391
110.3722, 948.0338
110.8544, 943.4017
111.3365, 938.3864
111.8186, 931.6168
112.3007, 923.5813
112.7828, 915.1066
113.2649, 905.8078
113.7471, 895.8828
114.2292, 888.6796
114.7113, 886.9742
115.1934, 885.5474
115.6755, 882.0504
116.1576, 876.7943
116.6397, 871.4540
117.1219, 867.7719
117.6040, 866.1950
118.0861, 865.0133
118.5682, 864.3597
119.0503, 863.9050
119.5324, 863.3784
120.0146, 862.7531
120.4967, 862.2725
120.9788, 862.3616
121.4609, 863.5860
121.9430, 864.5725
122.4251, 865.2366
122.9073, 865.6864
123.3894, 866.0836
123.8715, 866.5166
124.3536, 866.8350
124.8357, 866.5857
125.3178, 865.6887
125.8000, 864.6162
126.2821, 863.3887
126.7642, 862.0820
127.2463, 861.1045
127.7284, 861.1075
128.2105, 861.1775
128.6927, 859.8552
129.1748, 856.8266
129.6569, 852.8365
130.1390, 848.6423
130.6211, 844.3410
131.1032, 839.2667
131.5854, 832.0065
132.0675, 824.1863
132.5496, 817.3804
133.0317, 812.2770
133.5138, 808.3530
133.9959, 804.4091
134.4781, 800.7199
134.9602, 796.4619
135.4423, 790.9137
135.9244, 784.8408
136.4065, 779.3160
136.8886, 775.0499
137.3708, 771.9070
137.8529, 768.3868
138.3350, 764.2963
138.8171, 759.9699
139.2992, 755.1357
139.7813, 750.0732
140.2635, 745.3229
140.7456, 741.3818
141.2277, 738.3250
141.7098, 735.4282
142.1919, 732.0629
142.6740, 729.3168
143.1561, 728.2863
143.6383, 728.8385
144.1204, 729.3616
144.6025, 727.9631
145.0846, 724.1933
145.5667, 721.8854
146.0488, 722.1566
146.5310, 723.5257
147.0131, 724.2972
147.4952, 724.0552
147.9773, 723.8691
148.4594, 724.9226
148.9415, 727.0181
149.4237, 730.0397
149.9058, 734.7943
150.3879, 740.5204
150.8700, 744.7430
151.3521, 745.8810
151.8342, 747.1695
152.3164, 751.1888
152.7985, 757.7208
153.2806, 765.3065
153.7627, 773.0335
154.2448, 780.9169
154.7269, 788.9202
155.2091, 797.5172
155.6912, 805.8132
156.1733, 813.3441
156.6554, 820.0947
157.1375, 826.2521
157.6196, 832.0420
158.1018, 837.4709
158.5839, 842.4506
159.0660, 847.2462
159.5481, 851.4978
160.0302, 855.0826
160.5123, 857.9178
160.9945, 859.8175
161.4766, 860.4667
161.9587, 859.8246
162.4408, 857.6703
162.9229, 853.7360
163.4050, 848.5824
163.8871, 842.5371
164.3693, 835.7242
164.8514, 828.4435
165.3335, 821.4187
165.8156, 815.5839
166.2977, 808.7424
166.7798, 800.1270
167.2620, 790.4261
167.7441, 780.6396
168.2262, 771.1635
168.7083, 761.9501
169.1904, 752.9565
169.6725, 744.0107
170.1547, 735.4950
170.6368, 727.5263
171.1189, 720.1199
171.6010, 713.3522
172.0831, 707.3222
172.5652, 702.0043
173.0474, 697.0363
173.5295, 692.5221
174.0116, 688.1763
174.4937, 683.5407
174.9758, 678.6072
175.4579, 674.5463
175.9401, 672.4984
176.4222, 671.3338
176.9043, 669.9158
177.3864, 668.0437
177.8685, 665.8573
178.3506, 663.1105
178.8328, 659.2381
179.3149, 656.9036
179.7970, 658.3627
180.2791, 661.0774
180.7612, 662.8865
181.2433, 662.9485
181.7255, 662.0095
182.2076, 661.6664
182.6897, 662.2413
183.1718, 662.8550
183.6539, 663.2007
184.1360, 663.5203
184.6181, 664.1200
185.1003, 665.1672
185.5824, 666.4742
186.0645, 667.3293
186.5466, 666.6418
187.0287, 666.8868
187.5108, 669.4637
187.9930, 672.8519
188.4751, 675.1032
188.9572, 675.0897
189.4393, 673.1893
189.9214, 671.4469
190.4035, 669.5815
190.8857, 668.1946
191.3678, 667.7655
191.8499, 667.8784
192.3320, 667.8386
192.8141, 667.2298
193.2962, 666.1142
193.7784, 664.9285
194.2605, 664.0704
194.7426, 662.7617
195.2247, 660.2115
195.7068, 656.8900
196.1889, 654.1844
196.6711, 653.1016
197.1532, 653.2707
197.6353, 652.6425
198.1174, 650.4046
198.5995, 648.1882
199.0816, 647.1025
199.5638, 646.9697
200.0459, 646.5466
200.5280, 644.7686
201.0101, 642.2789
201.4922, 640.9775
201.9743, 641.7243
202.4565, 642.8707
202.9386, 642.8509
203.4207, 641.6271
203.9028, 640.6852
204.3849, 641.1539
204.8670, 642.3085
205.3492, 643.1072
205.8313, 643.2567
206.3134, 643.1304
206.7955, 643.1684
207.2776, 643.4003
207.7597, 643.6628
208.2419, 643.9698
208.7240, 644.2347
209.2061, 644.2925
209.6882, 643.9857
210.1703, 643.6592
210.6524, 644.0536
211.1346, 645.5993
211.6167, 646.7249
212.0988, 646.1611
212.5809, 645.2988
213.0630, 645.4922
213.5451, 647.3105
214.0273, 650.3145
214.5094, 653.6251
214.9915, 657.6027
215.4736, 661.2194
215.9557, 664.5018
216.4378, 667.3154
216.9200, 669.4170
217.4021, 670.6640
217.8842, 671.4183
218.3663, 672.7004
218.8484, 675.1370
219.3305, 677.2062
219.8127, 679.0936
220.2948, 680.4321
220.7769, 680.8134
221.2590, 680.0516
221.7411, 678.3386
222.2232, 676.2189
222.7054, 672.8924
223.1875, 670.1258
223.6696, 668.3942
224.1517, 667.1357
224.6338, 665.8300
225.1159, 664.2452
225.5980, 662.2990
226.0802, 659.7289
226.5623, 655.4240
227.0444, 651.8239
227.5265, 649.5515
228.0086, 647.9567
228.4907, 646.2997
228.9729, 644.2775
229.4550, 641.9651
229.9371, 639.5706
230.4192, 637.2415
230.9013, 634.6172
231.3834, 631.3771
231.8656, 627.8718
232.3477, 624.5236
232.8298, 621.4481
233.3119, 618.7855
233.7940, 616.9924
234.2761, 616.3621
234.7583, 615.6493
235.2404, 614.2986
235.7225, 612.7003
236.2046, 611.6394
236.6867, 611.5007
237.1688, 611.6495
237.6510, 610.8870
238.1331, 609.1397
238.6152, 607.3531
239.0973, 605.6807
239.5794, 604.1962
240.0615, 603.0873
240.5437, 602.4359
241.0258, 602.1101
241.5079, 601.8142
241.9900, 601.4999
242.4721, 601.7639
242.9542, 603.2824
243.4364, 605.5800
243.9185, 607.3403
244.4006, 608.0424
244.8827, 608.6633
245.3648, 610.4174
245.8469, 613.1332
246.3290, 615.4907
246.8112, 616.3590
247.2933, 616.3210
247.7754, 617.2411
248.2575, 619.6325
248.7396, 622.5765
249.2217, 625.2387
249.7039, 627.7593
250.1860, 630.6450
250.6681, 633.9868
251.1502, 637.8685
251.6323, 642.8087
252.1144, 649.3621
252.5966, 656.0944
253.0787, 662.1110
253.5608, 667.6261
254.0429, 673.1635
254.5250, 678.5946
255.0071, 684.2228
255.4893, 691.4026
255.9714, 700.7119
256.4535, 710.7460
256.9356, 721.4442
257.4177, 732.2246
257.8998, 742.1052
258.3820, 750.1398
258.8641, 757.0235
259.3462, 765.4531
259.8283, 777.1156
260.3104, 787.4735
260.7925, 795.7214
261.2747, 801.9388
261.7568, 806.1860
262.2389, 808.4786
262.7210, 808.9196
263.2031, 807.8099
263.6852, 805.0209
264.1674, 800.6417
264.6495, 794.9519
265.1316, 787.9212
265.6137, 779.4061
266.0958, 769.3264
266.5779, 758.0618
267.0601, 746.4147
267.5422, 733.9716
268.0243, 721.9877
268.5064, 710.6344
268.9885, 699.7318
269.4706, 689.1604
269.9528, 678.8732
270.4349, 668.9689
270.9170, 659.5220
271.3991, 650.1136
271.8812, 642.2674
272.3633, 636.7684
272.8455, 632.1411
273.3276, 627.2072
273.8097, 621.7041
274.2918, 616.3248
274.7739, 612.1570
275.2560, 609.6805
275.7382, 607.4855
276.2202, 605.6477
276.7024, 603.9593
277.1845, 602.1437
277.6666, 600.2375
278.1487, 598.6293
278.6308, 597.8251
279.1129, 598.0569
279.5951, 598.3227
280.0772, 598.1287
280.5593, 598.3639
281.0414, 599.5062
281.5235, 601.5471
282.0056, 604.2419
282.4878, 607.4479
282.9699, 611.3319
283.4520, 614.6210
283.9341, 616.6309
284.4162, 618.8163
284.8983, 622.1967
285.3805, 626.3224
285.8626, 629.9215
286.3447, 631.9648
286.8268, 632.4766
287.3089, 633.2013
287.7910, 634.7160
288.2732, 635.8186
288.7553, 636.1031
289.2374, 635.7188
289.7195, 634.9464
290.2016, 633.9354
290.6837, 632.7173
291.1659, 631.4297
291.6480, 629.6346
292.1301, 628.2825
292.6122, 627.4496
293.0943, 627.1713
293.5764, 627.3584
294.0586, 627.9525
294.5407, 629.2318
295.0228, 631.9697
295.5049, 638.4215
295.9870, 643.6132
296.4691, 647.4612
296.9513, 649.9288
297.4334, 651.0684
297.9155, 650.8798
298.3976, 649.1456
298.8797, 645.4713
299.3618, 639.2357
299.8440, 631.7896
300.3261, 622.0107
300.8082, 611.8080
301.2903, 602.5767
301.7724, 594.6367
302.2545, 587.4036
302.7367, 580.0969
303.2188, 572.4814
303.7009, 566.0457
304.1830, 560.6780
304.6651, 556.4020
305.1472, 553.5426
305.6294, 551.9141
306.1115, 550.7988
306.5936, 549.6544
307.0757, 548.4834
307.5578, 547.0240
308.0399, 544.6960
308.5221, 542.6975
309.0042, 541.7015
309.4863, 541.4835
309.9684, 541.4540
310.4505, 541.2669
310.9326, 540.9279
311.4148, 540.4652
311.8969, 539.2957
312.3790, 538.6847
312.8611, 539.4633
313.3432, 540.9075
313.8253, 541.7789
314.3075, 541.4803
314.7896, 540.5103
315.2717, 540.1303
315.7538, 540.2404
316.2359, 541.1107
316.7180, 542.8570
317.2001, 545.3392
317.6823, 548.6785
318.1644, 552.8815
318.6465, 557.2317
319.1286, 560.6614
319.6107, 562.7074
320.0928, 564.7660
320.5750, 567.1558
321.0571, 569.3436
321.5392, 570.5790
322.0213, 570.9464
322.5034, 571.5611
322.9855, 573.5872
323.4677, 577.2921
323.9498, 580.6749
324.4319, 583.5852
324.9140, 586.3702
325.3961, 589.0653
325.8782, 591.7642
326.3604, 594.7488
326.8425, 598.2745
327.3246, 602.2601
327.8067, 605.8244
328.2888, 608.2919
328.7709, 611.1768
329.2531, 615.0590
329.7352, 619.5773
330.2173, 624.2875
330.6994, 629.0179
331.1815, 633.5099
331.6636, 637.0765
332.1458, 638.0554
332.6279, 640.1686
333.1100, 644.7221
333.5921, 649.8547
334.0742, 653.6766
334.5563, 655.6595
335.0385, 656.7398
335.5206, 658.2582
336.0027, 660.5657
336.4848, 662.3918
336.9669, 663.4975
337.4490, 664.3789
337.9312, 665.1863
338.4133, 666.0345
338.8954, 667.1794
339.3775, 668.9227
339.8596, 671.3542
340.3417, 673.2767
340.8239, 674.5340
341.3060, 675.5198
341.7881, 676.2372
342.2702, 676.7925
342.7523, 677.3145
343.2344, 677.8622
343.7166, 678.4825
344.1987, 679.4044
344.6808, 680.6202
345.1629, 682.2005
345.6450, 684.4895
346.1271, 687.0038
346.6093, 689.2473
347.0914, 691.0201
347.5735, 692.4398
348.0556, 693.5526
348.5377, 693.2714
349.0198, 694.8110
349.5020, 699.4825
349.9841, 704.7351
350.4662, 708.7951
350.9483, 711.4950
351.4304, 713.7822
351.9125, 716.5473
352.3947, 719.7257
352.8768, 723.8077
353.3589, 729.9197
353.8410, 735.7961
354.3231, 740.3652
354.8052, 744.0664
355.2874, 747.9260
355.7695, 752.6018
356.2516, 758.0035
356.7337, 763.8529
357.2158, 771.6572
357.6979, 777.7266
358.1800, 780.1628
358.6621, 781.1871
359.1443, 783.7976
359.6264, 789.1404
360.1085, 794.6479
360.5906, 795.2818
361.0727, 788.8271
361.5548, 783.2135
362.0370, 780.3717
362.5191, 777.7232
363.0012, 773.5201
363.4833, 767.6861
363.9654, 761.5638
364.4475, 756.4710
364.9297, 752.4632
365.4118, 748.4971
365.8939, 744.0291
366.3760, 740.2581
366.8581, 737.9523
367.3402, 736.6680
367.8224, 735.4753
368.3045, 733.7850
368.7866, 731.8615
369.2687, 730.5334
369.7508, 730.0466
370.2329, 729.6363
370.7151, 729.1254
371.1972, 728.5221
371.6793, 727.7250
372.1614, 726.6698
372.6435, 725.7518
373.1256, 725.4119
373.6078, 725.6550
374.0899, 726.4913
374.5720, 728.9766
375.0541, 731.0846
375.5362, 731.0552
376.0183, 729.0404
376.5005, 726.8746
376.9826, 725.6721
377.4647, 725.2660
377.9468, 725.0819
378.4289, 725.1694
378.9110, 725.2858
379.3932, 725.4764
379.8753, 725.5662
380.3574, 725.1653
380.8395, 724.1171
381.3216, 722.5521
381.8037, 720.4464
382.2859, 717.7814
382.7680, 715.2525
383.2501, 712.8904
383.7322, 711.0854
384.2143, 710.5501
384.6964, 711.8034
385.1786, 712.5567
385.6607, 711.3781
386.1428, 708.7043
386.6249, 705.4317
387.1070, 701.4993
387.5891, 697.8101
388.0713, 695.6623
388.5534, 694.9030
389.0355, 694.1125
389.5176, 693.1888
389.9997, 691.9923
390.4818, 690.3340
390.9640, 688.2131
391.4461, 685.8260
391.9282, 683.1545
392.4103, 680.3439
392.8924, 678.1029
393.3745, 676.4670
393.8567, 675.2906
394.3388, 674.8046
394.8209, 674.7049
395.3030, 674.4813
395.7851, 673.9633
396.2672, 673.0709
396.7494, 671.5541
397.2315, 668.8497
397.7136, 666.8990
398.1957, 666.3665
398.6778, 666.2074
399.1599, 665.4607
399.6420, 664.1005
400.1241, 662.8352
400.6063, 662.3470
401.0884, 662.6707
401.5705, 662.5552
402.0526, 661.7133
402.5347, 660.8300
403.0168, 659.9158
403.4990, 659.1451
403.9811, 658.8435
404.4632, 659.1768
404.9453, 659.8740
405.4274, 660.2546
405.9095, 659.9635
406.3917, 659.9685
406.8738, 660.7469
407.3559, 661.4814
407.8380, 661.1816
408.3201, 659.9968
408.8022, 659.2873
409.2844, 660.6730
409.7665, 664.3450
410.2486, 666.8783
410.7307, 666.6928
411.2128, 667.0434
411.6949, 669.3909
412.1771, 672.7943
412.6592, 675.6227
413.1413, 676.9803
413.6234, 677.6419
414.1055, 679.3463
414.5876, 682.4770
415.0698, 685.5120
415.5519, 688.3234
416.0340, 690.7487
416.5161, 692.4839
416.9982, 693.5554
417.4803, 694.5400
417.9625, 696.2000
418.4446, 698.3342
418.9267, 699.5605
419.4088, 699.6193
419.8909, 699.0236
420.3730, 698.2014
420.8552, 697.0186
421.3373, 695.1308
421.8194, 692.3411
422.3015, 688.8892
422.7836, 684.9244
423.2657, 680.4579
423.7479, 675.8466
424.2300, 671.0541
424.7121, 666.3681
425.1942, 661.9720
425.6763, 657.7065
426.1584, 654.5139
426.6406, 653.8028
427.1227, 654.1428
427.6048, 652.6823
428.0869, 648.7884
428.5690, 645.1504
429.0511, 644.4915
429.5333, 646.8531
430.0154, 648.1526
430.4975, 647.3675
430.9796, 646.4677
431.4617, 646.1653
431.9438, 646.6114
432.4260, 648.1973
432.9081, 651.1778
433.3902, 655.0851
433.8723, 658.8314
434.3544, 662.2638
434.8365, 665.7602
435.3187, 669.2318
435.8008, 672.8358
436.2829, 676.6091
436.7650, 680.6006
437.2471, 684.9796
437.7292, 689.9637
438.2114, 695.5963
438.6935, 700.8495
439.1756, 705.1306
439.6577, 709.7112
440.1398, 714.9959
440.6219, 720.7112
441.1040, 726.4047
441.5862, 731.8674
442.0683, 737.3611
442.5504, 743.1129
443.0325, 748.7305
443.5146, 755.9079
443.9967, 765.7360
444.4789, 776.3701
444.9610, 786.3751
445.4431, 796.1389
445.9252, 807.4227
446.4073, 820.8364
446.8894, 836.7639
447.3716, 856.9971
447.8537, 882.4367
448.3358, 909.9251
448.8179, 938.3797
449.3000, 968.1503
449.7821, 999.9285
450.2643, 1033.963
450.7464, 1069.548
451.2285, 1106.678
451.7106, 1145.070
452.1927, 1182.533
452.6748, 1219.049
453.1570, 1253.308
453.6391, 1283.987
454.1212, 1311.398
454.6033, 1335.275
455.0854, 1354.849
455.5675, 1371.241
456.0497, 1385.941
456.5318, 1398.625
457.0139, 1407.533
457.4960, 1411.631
457.9781, 1411.522
458.4602, 1408.644
458.9424, 1404.186
459.4245, 1395.329
459.9066, 1381.041
460.3887, 1362.424
460.8708, 1339.971
461.3529, 1314.053
461.8351, 1285.842
462.3172, 1255.945
462.7993, 1224.454
463.2814, 1193.789
463.7635, 1165.020
464.2456, 1135.794
464.7278, 1104.189
465.2099, 1071.944
465.6920, 1041.580
466.1741, 1013.908
466.6562, 988.0367
467.1383, 962.3473
467.6205, 936.0711
468.1026, 911.7239
468.5847, 890.4685
469.0668, 870.1951
469.5489, 850.1625
470.0310, 830.3831
470.5132, 811.2652
470.9953, 792.7949
471.4774, 775.3688
471.9595, 760.2800
472.4416, 748.0703
472.9237, 736.2606
473.4059, 724.0994
473.8880, 711.9572
474.3701, 699.9102
474.8522, 688.0006
475.3343, 677.0999
475.8164, 668.2941
476.2986, 660.9444
476.7807, 653.1689
477.2628, 644.5973
477.7449, 636.7023
478.2270, 631.0668
478.7091, 627.0982
479.1913, 622.2308
479.6734, 615.3740
480.1555, 608.6737
480.6376, 603.1088
481.1197, 598.5170
481.6018, 594.7748
482.0839, 591.9032
482.5660, 589.1246
483.0482, 585.2281
483.5303, 579.6735
484.0124, 575.0410
484.4945, 571.4690
484.9766, 568.6312
485.4587, 566.9739
485.9409, 565.8875
486.4230, 563.9591
486.9051, 560.3284
487.3872, 555.7001
487.8693, 552.2106
488.3514, 550.7130
488.8336, 548.7134
489.3157, 545.1448
489.7978, 541.7950
490.2799, 540.1183
490.7620, 539.9555
491.2441, 540.0006
491.7263, 539.3198
492.2084, 537.9799
492.6905, 536.2693
493.1726, 534.1461
493.6547, 531.7685
494.1368, 528.4182
494.6190, 525.2465
495.1011, 523.6341
495.5832, 523.9517
496.0653, 524.7775
496.5474, 525.4755
497.0295, 525.8481
497.5117, 524.9923
497.9938, 522.4559
498.4759, 520.0341
498.9580, 519.4607
499.4401, 520.3446
499.9222, 520.4864
500.4044, 519.0739
500.8865, 517.5912
501.3686, 517.0328
501.8507, 516.9241
502.3328, 516.0482
502.8149, 513.9568
503.2971, 511.7791
503.7792, 511.2109
504.2613, 512.9235
504.7434, 513.8598
505.2255, 513.8867
505.7076, 513.3712
506.1898, 511.9727
506.6719, 510.2254
507.1540, 509.2139
507.6361, 509.5388
508.1182, 510.5658
508.6003, 510.7032
509.0825, 509.3269
509.5646, 508.7418
510.0467, 510.0541
510.5288, 511.4541
511.0109, 511.6622
511.4930, 511.0002
511.9752, 510.8909
512.4573, 512.5906
512.9394, 515.2013
513.4215, 516.5726
513.9036, 516.5303
514.3857, 516.3383
514.8679, 516.1087
515.3500, 516.2675
515.8321, 517.3854
516.3142, 519.5600
516.7963, 521.8846
517.2784, 523.9169
517.7606, 525.9037
518.2427, 528.3216
518.7248, 531.1783
519.2069, 533.7840
519.6890, 535.4691
520.1711, 536.6139
520.6533, 539.1031
521.1354, 544.3538
521.6175, 548.8604
522.0996, 551.2890
522.5817, 553.1307
523.0638, 555.5623
523.5460, 558.9247
524.0281, 563.4549
524.5102, 569.5453
524.9923, 577.1119
525.4744, 583.9750
525.9565, 588.6669
526.4387, 594.5518
526.9208, 602.1415
527.4029, 611.2965
527.8850, 622.0109
528.3671, 634.2384
528.8492, 647.3964
529.3314, 660.4756
529.8135, 673.6649
530.2956, 689.2055
530.7777, 707.3713
531.2598, 727.5075
531.7419, 750.1204
532.2241, 774.1884
532.7062, 798.6729
533.1883, 823.7534
533.6704, 848.3420
534.1525, 873.3746
534.6346, 897.2744
535.1168, 916.7168
535.5989, 930.9513
536.0810, 940.6386
536.5631, 946.6443
537.0452, 948.7977
537.5273, 944.4685
538.0095, 931.6655
538.4916, 915.2452
538.9737, 895.4982
539.4558, 873.7038
539.9379, 851.1111
540.4200, 828.2844
540.9022, 805.7095
541.3843, 784.1785
541.8664, 763.7130
542.3485, 744.1292
542.8306, 724.6469
543.3127, 707.1752
543.7948, 693.0021
544.2769, 681.0824
544.7590, 669.9623
545.2411, 659.0898
545.7233, 648.8029
546.2054, 639.6114
546.6875, 631.4704
547.1696, 624.2530
547.6517, 617.9333
548.1339, 612.5539
548.6160, 608.6255
549.0981, 605.7275
549.5802, 602.6989
550.0623, 599.1375
550.5444, 595.6096
551.0266, 592.0576
551.5087, 588.8365
551.9908, 587.0641
552.4729, 587.1350
552.9550, 587.5706
553.4371, 586.4499
553.9193, 583.3757
554.4014, 581.1373
554.8835, 579.6740
555.3656, 578.9812
555.8477, 579.8639
556.3298, 581.2484
556.8120, 581.2731
557.2941, 579.3316
557.7762, 577.1114
558.2583, 577.3637
558.7404, 580.5302
559.2225, 582.4398
559.7047, 582.4865
560.1868, 581.8281
560.6689, 580.4363
561.1510, 578.9245
561.6331, 578.4329
562.1152, 579.5802
562.5974, 581.0399
563.0795, 581.5406
563.5616, 581.3245
564.0437, 581.1815
564.5258, 581.1982
565.0079, 581.6432
565.4901, 582.8839
565.9722, 584.8972
566.4543, 586.7291
566.9364, 589.1559
567.4185, 590.5322
567.9006, 589.0637
568.3828, 586.6119
568.8649, 585.8986
569.3470, 587.5739
569.8291, 590.2882
570.3112, 592.5907
570.7933, 594.4988
571.2755, 595.8224
571.7576, 595.9774
572.2397, 596.2694
572.7218, 597.2116
573.2039, 598.3492
573.6860, 599.0380
574.1682, 599.1384
574.6503, 599.3722
575.1324, 600.5707
575.6145, 602.5103
576.0966, 604.3133
576.5787, 606.0324
577.0609, 607.1455
577.5430, 606.8672
578.0251, 605.8831
578.5072, 605.9191
578.9893, 607.5853
579.4714, 608.9707
579.9536, 608.9899
580.4357, 608.5178
580.9178, 608.6990
581.3999, 609.6129
581.8820, 610.5818
582.3641, 611.1066
582.8463, 611.2358
583.3284, 611.2385
583.8105, 610.8455
584.2926, 610.7331
584.7747, 611.1359
585.2568, 611.6867
585.7390, 612.3581
586.2211, 612.9686
586.7032, 612.9330
587.1853, 611.4456
