##NAMES=Marialite
##RRUFFID=R060469
##IDEAL CHEMISTRY=Na_4_Al_3_Si_9_O_24_Cl
##LOCALITY=Mpwa-Mpwa mine, Umba Valley, near Arusha, Tanzania
##OWNER=RRUFF
##SOURCE=Michael Scott
##DESCRIPTION=Yellow tetragonal prism with pronounced striations along the c-axis direction
##STATUS=The identification of this mineral has been confirmed by X-ray diffraction and chemical analysis
##URL=rruff.info/R060469
##MEASURED CHEMISTRY=(Na_0.66_Ca_0.27_K_0.07_)_4_(Si_0.68_Al_0.32_)_12_O_24_(Cl_0.75_(CO_3_)_0.25_)
91.62726, 0.0000000E+00
92.10938, 18.68724
92.59149, 18.56204
93.07361, 18.60543
93.55573, 18.80482
94.03784, 19.00434
94.51996, 19.07692
95.00208, 19.04117
95.48419, 18.95904
95.96631, 18.79535
96.44843, 18.60873
96.93054, 18.55051
97.41266, 18.61776
97.89478, 18.83120
98.37689, 19.30566
98.85901, 20.03718
99.34113, 20.69050
99.82324, 21.11329
100.3054, 21.30215
100.7875, 21.46693
101.2696, 21.57827
101.7517, 21.70400
102.2338, 21.93400
102.7159, 22.21636
103.1981, 22.75275
103.6802, 23.74172
104.1623, 25.45367
104.6444, 26.70466
105.1265, 27.11780
105.6086, 27.06510
106.0908, 28.02904
106.5729, 30.47291
107.0550, 33.38665
107.5371, 36.20247
108.0192, 38.92697
108.5013, 41.56824
108.9835, 43.88683
109.4656, 45.90757
109.9477, 48.76963
110.4298, 53.00268
110.9119, 57.79380
111.3940, 62.68974
111.8762, 66.64413
112.3583, 71.69066
112.8404, 78.48472
113.3225, 87.16257
113.8046, 95.98064
114.2867, 104.8087
114.7689, 113.7155
115.2510, 122.6982
115.7331, 131.7399
116.2152, 140.9637
116.6973, 150.5656
117.1794, 160.8087
117.6616, 170.3465
118.1437, 178.2646
118.6258, 185.2625
119.1079, 192.2278
119.5900, 199.0932
120.0721, 206.3996
120.5543, 214.5034
121.0364, 223.4979
121.5185, 233.1630
122.0006, 243.3074
122.4827, 254.0423
122.9648, 265.8463
123.4470, 278.9361
123.9291, 293.1470
124.4112, 308.3519
124.8933, 324.8922
125.3754, 341.8629
125.8575, 358.1346
126.3397, 373.8741
126.8218, 390.1779
127.3039, 408.3613
127.7860, 427.5635
128.2681, 445.8877
128.7502, 462.7340
129.2324, 478.5324
129.7145, 493.9637
130.1966, 509.1029
130.6787, 523.0974
131.1608, 535.0120
131.6429, 544.9460
132.1251, 553.9524
132.6072, 562.5421
133.0893, 570.4139
133.5714, 576.6611
134.0535, 581.1507
134.5356, 584.6273
135.0178, 587.6530
135.4999, 590.1959
135.9820, 593.1586
136.4641, 596.7079
136.9462, 600.8832
137.4283, 606.2249
137.9105, 612.7064
138.3926, 620.4833
138.8747, 629.7828
139.3568, 640.8199
139.8389, 652.8786
140.3210, 665.8334
140.8032, 679.9553
141.2853, 693.7524
141.7674, 706.4643
142.2495, 719.2402
142.7316, 734.0892
143.2137, 749.2244
143.6959, 761.2628
144.1780, 772.8676
144.6601, 784.0546
145.1422, 795.3572
145.6243, 807.0525
146.1064, 818.9173
146.5886, 830.5139
147.0707, 841.6434
147.5528, 852.7245
148.0349, 863.8048
148.5170, 875.4091
148.9991, 886.3197
149.4813, 896.0749
149.9634, 904.8997
150.4455, 914.0466
150.9276, 923.5823
151.4097, 933.4142
151.8918, 943.2252
152.3740, 955.4120
152.8561, 965.1534
153.3382, 971.1883
153.8203, 973.5964
154.3024, 976.3605
154.7845, 979.2891
155.2667, 982.8605
155.7488, 987.4932
156.2309, 993.1786
156.7130, 999.8658
157.1951, 1008.724
157.6772, 1019.936
158.1594, 1028.249
158.6415, 1030.547
159.1236, 1030.204
159.6057, 1030.515
160.0878, 1034.004
160.5699, 1036.743
161.0521, 1037.344
161.5342, 1035.600
162.0163, 1032.751
162.4984, 1029.746
162.9805, 1025.782
163.4626, 1019.843
163.9448, 1010.516
164.4269, 999.9615
164.9090, 989.3268
165.3911, 978.8753
165.8732, 967.5341
166.3553, 954.1780
166.8375, 939.6459
167.3196, 925.3201
167.8017, 911.7688
168.2838, 898.6842
168.7659, 885.7409
169.2480, 872.9285
169.7302, 860.1170
170.2123, 847.1132
170.6944, 833.9656
171.1765, 821.0323
171.6586, 807.3943
172.1407, 794.4441
172.6229, 783.5574
173.1050, 775.2666
173.5871, 768.0089
174.0692, 760.5023
174.5513, 752.9553
175.0334, 746.1058
175.5156, 740.4841
175.9977, 735.7515
176.4798, 731.6136
176.9619, 728.0176
177.4440, 724.8295
177.9261, 721.8849
178.4083, 719.2198
178.8904, 717.0460
179.3725, 716.0137
179.8546, 715.5270
180.3367, 714.3269
180.8188, 711.8200
181.3010, 709.1564
181.7831, 707.9167
182.2652, 708.0160
182.7473, 708.7268
183.2294, 710.1013
183.7115, 711.7365
184.1937, 712.3477
184.6758, 711.3007
185.1579, 709.5873
185.6400, 709.0352
186.1221, 709.6018
186.6042, 710.1716
187.0864, 709.7142
187.5685, 708.4562
188.0506, 707.4842
188.5327, 707.2801
189.0148, 707.2766
189.4969, 706.0854
189.9791, 703.6812
190.4612, 700.8734
190.9433, 698.1768
191.4254, 695.6218
191.9075, 693.2582
192.3896, 691.2597
192.8718, 689.4084
193.3539, 686.9082
193.8360, 683.6678
194.3181, 680.3136
194.8002, 677.3211
195.2823, 674.6584
195.7645, 672.3703
196.2466, 670.6396
196.7287, 669.2364
197.2108, 666.9382
197.6929, 663.4529
198.1750, 660.3399
198.6572, 659.6172
199.1393, 661.4397
199.6214, 662.1606
200.1035, 660.4574
200.5856, 656.8741
201.0677, 654.8898
201.5499, 654.8336
202.0320, 655.2464
202.5141, 654.6041
202.9962, 652.7572
203.4783, 651.1230
203.9604, 650.0750
204.4426, 649.5555
204.9247, 649.1853
205.4068, 649.2216
205.8889, 648.8382
206.3710, 646.8184
206.8531, 642.6806
207.3353, 639.5208
207.8174, 638.5738
208.2995, 639.5643
208.7816, 638.4650
209.2637, 634.6442
209.7458, 629.9948
210.2280, 626.4245
210.7101, 624.1243
211.1922, 622.1583
211.6743, 620.2616
212.1564, 618.4594
212.6385, 617.3359
213.1207, 617.2159
213.6028, 617.2576
214.0849, 616.3348
214.5670, 613.8033
215.0491, 612.3502
215.5313, 612.9276
216.0134, 615.5192
216.4955, 617.0866
216.9776, 617.1623
217.4597, 616.8770
217.9418, 617.5266
218.4240, 619.6260
218.9061, 621.2918
219.3882, 622.0426
219.8703, 621.8661
220.3524, 621.6998
220.8345, 621.5881
221.3167, 621.4283
221.7988, 621.1539
222.2809, 620.8762
222.7630, 620.2182
223.2451, 619.0308
223.7272, 617.2972
224.2094, 615.6044
224.6915, 613.8652
225.1736, 612.2413
225.6557, 610.9847
226.1378, 610.3269
226.6199, 609.4984
227.1021, 608.3205
227.5842, 606.7822
228.0663, 605.2276
228.5484, 603.3670
229.0305, 601.7806
229.5126, 601.2803
229.9948, 603.1982
230.4769, 603.4385
230.9590, 600.8259
231.4411, 595.3705
231.9232, 590.4932
232.4053, 586.1463
232.8875, 582.3615
233.3696, 579.1492
233.8517, 576.5194
234.3338, 574.4893
234.8159, 573.3632
235.2980, 573.1025
235.7802, 571.9276
236.2623, 569.0770
236.7444, 566.1501
237.2265, 564.6186
237.7086, 565.5944
238.1907, 565.7681
238.6729, 564.2646
239.1550, 561.2347
239.6371, 559.2829
240.1192, 558.6728
240.6013, 558.8349
241.0834, 559.3430
241.5656, 560.1288
242.0477, 561.3904
242.5298, 563.3337
243.0119, 565.8634
243.4940, 568.0290
243.9761, 569.6522
244.4583, 571.1088
244.9404, 572.6722
245.4225, 574.4503
245.9046, 576.0554
246.3867, 577.0342
246.8688, 577.6688
247.3510, 580.0540
247.8331, 585.1240
248.3152, 590.7496
248.7973, 595.5381
249.2794, 598.9942
249.7615, 602.6985
250.2437, 606.7296
250.7258, 611.1074
251.2079, 615.9069
251.6900, 621.4418
252.1721, 626.9615
252.6542, 631.8527
253.1364, 635.1624
253.6185, 640.0266
254.1006, 646.8480
254.5827, 655.2981
255.0648, 664.3348
255.5469, 674.4613
256.0291, 684.2159
256.5112, 692.7209
256.9933, 699.4459
257.4754, 706.3382
257.9575, 713.3778
258.4396, 720.6825
258.9218, 728.4990
259.4039, 737.4562
259.8860, 745.9107
260.3681, 753.2077
260.8502, 759.3022
261.3323, 764.5212
261.8145, 769.2218
262.2966, 772.8206
262.7787, 774.0711
263.2608, 772.7447
263.7429, 769.4764
264.2250, 764.3134
264.7072, 757.0281
265.1893, 748.8158
265.6714, 739.6059
266.1535, 729.5549
266.6356, 718.8646
267.1177, 707.1780
267.5999, 695.4919
268.0820, 684.1661
268.5641, 673.1127
269.0462, 662.3783
269.5283, 651.7614
270.0104, 641.5814
270.4926, 632.1979
270.9747, 623.7284
271.4568, 615.3548
271.9389, 606.4372
272.4210, 596.8324
272.9031, 589.8768
273.3853, 586.3975
273.8674, 584.0917
274.3495, 579.9973
274.8316, 573.6658
275.3137, 567.7552
275.7958, 562.7361
276.2780, 558.6591
276.7601, 556.2135
277.2422, 555.8047
277.7243, 555.9587
278.2064, 555.1184
278.6885, 553.1723
279.1707, 551.0858
279.6528, 548.7644
280.1349, 546.4822
280.6170, 546.0267
281.0991, 547.7948
281.5812, 549.8189
282.0634, 550.1393
282.5455, 548.7176
283.0276, 547.7308
283.5097, 547.7064
283.9918, 548.3314
284.4739, 548.5528
284.9561, 548.3047
285.4382, 548.1437
285.9203, 548.4963
286.4024, 549.3368
286.8845, 550.2973
287.3666, 551.1950
287.8488, 552.3220
288.3309, 554.5346
288.8130, 557.8531
289.2951, 561.1742
289.7772, 563.9399
290.2593, 566.1208
290.7415, 567.5261
291.2236, 567.8828
291.7057, 568.0314
292.1878, 569.3357
292.6699, 571.7408
293.1520, 574.5449
293.6342, 577.5311
294.1163, 580.6346
294.5984, 583.3677
295.0805, 585.6113
295.5626, 588.0353
296.0447, 591.9457
296.5269, 597.0003
297.0090, 601.5471
297.4911, 604.7927
297.9732, 606.9604
298.4553, 608.6766
298.9374, 610.0129
299.4196, 610.0810
299.9017, 607.6688
300.3838, 603.2129
300.8659, 597.8715
301.3480, 591.4365
301.8301, 584.7379
302.3123, 579.0341
302.7944, 574.2585
303.2765, 569.9843
303.7586, 565.5374
304.2407, 561.3528
304.7228, 558.1449
305.2050, 556.4251
305.6871, 555.5354
306.1692, 555.1356
306.6513, 555.1197
307.1334, 554.8873
307.6155, 553.7831
308.0977, 552.3138
308.5798, 551.1100
309.0619, 550.3080
309.5440, 549.7982
310.0261, 549.7129
310.5082, 549.8896
310.9904, 549.8380
311.4725, 548.8931
311.9546, 547.8126
312.4367, 547.2780
312.9188, 547.4653
313.4009, 547.9798
313.8831, 548.9503
314.3652, 550.0558
314.8473, 550.7083
315.3294, 550.0534
315.8115, 549.3159
316.2936, 549.2078
316.7758, 549.8206
317.2579, 550.9330
317.7400, 553.0964
318.2221, 555.5305
318.7042, 557.2878
319.1863, 557.4310
319.6685, 557.4107
320.1506, 557.7452
320.6327, 558.4625
321.1148, 559.4158
321.5969, 560.7067
322.0790, 562.1312
322.5612, 563.5470
323.0433, 564.6179
323.5254, 565.9727
324.0075, 568.0687
324.4896, 570.7554
324.9717, 572.8293
325.4539, 573.7316
325.9360, 574.2391
326.4181, 574.7758
326.9002, 575.4692
327.3823, 576.0890
327.8644, 576.3701
328.3466, 576.5330
328.8287, 577.2538
329.3108, 579.0746
329.7929, 581.0067
330.2750, 582.6635
330.7571, 583.9082
331.2393, 585.2295
331.7214, 586.6047
332.2035, 588.0662
332.6856, 589.7022
333.1677, 592.0458
333.6498, 593.7814
334.1320, 594.2823
334.6141, 593.2627
335.0962, 593.2578
335.5783, 594.8568
336.0604, 596.8601
336.5425, 598.0656
337.0247, 598.3597
337.5068, 598.1010
337.9889, 597.0734
338.4710, 595.4540
338.9531, 594.7787
339.4352, 595.2707
339.9174, 596.1976
340.3995, 597.0970
340.8816, 598.0251
341.3637, 598.5424
341.8458, 598.3145
342.3279, 597.8828
342.8101, 598.9496
343.2922, 601.7411
343.7743, 604.4686
344.2564, 605.6473
344.7385, 605.4200
345.2206, 606.5888
345.7028, 609.5646
346.1849, 613.3244
346.6670, 616.4395
347.1491, 618.9280
347.6312, 621.0844
348.1133, 622.6035
348.5955, 623.8779
349.0776, 626.4452
349.5597, 630.4143
350.0418, 634.7275
350.5239, 638.1860
351.0060, 641.0780
351.4882, 644.1104
351.9703, 647.2263
352.4524, 650.8495
352.9345, 656.1458
353.4166, 662.8962
353.8987, 669.1353
354.3809, 672.4423
354.8630, 674.5329
355.3451, 677.9727
355.8272, 683.6574
356.3093, 690.0845
356.7914, 696.3983
357.2736, 702.4766
357.7557, 707.8289
358.2378, 711.8105
358.7199, 715.1304
359.2020, 718.6153
359.6841, 722.5788
360.1663, 725.3788
360.6484, 725.8021
361.1305, 724.5500
361.6126, 722.6085
362.0947, 720.0883
362.5768, 717.1854
363.0590, 714.1006
363.5411, 710.8325
364.0232, 706.8307
364.5053, 701.3683
364.9874, 695.4048
365.4695, 689.6863
365.9517, 683.5956
366.4338, 678.6182
366.9159, 675.1661
367.3980, 673.0632
367.8801, 671.5991
368.3622, 671.2792
368.8444, 671.1152
369.3265, 670.7052
369.8086, 670.0607
370.2907, 669.0583
370.7728, 666.9222
371.2549, 664.6565
371.7371, 663.9923
372.2192, 666.1617
372.7013, 668.2394
373.1834, 669.4531
373.6655, 669.7416
374.1476, 669.8687
374.6298, 669.8412
375.1119, 669.6569
375.5940, 669.3026
376.0761, 668.7681
376.5582, 668.0590
377.0403, 666.8536
377.5225, 665.5255
378.0046, 666.1364
378.4867, 669.3037
378.9688, 672.1005
379.4509, 672.2086
379.9330, 669.5661
380.4152, 667.7145
380.8973, 667.0720
381.3794, 667.0306
381.8615, 666.5266
382.3436, 665.5638
382.8257, 664.8031
383.3079, 664.6356
383.7900, 664.8938
384.2721, 665.1322
384.7542, 665.3718
385.2363, 665.2911
385.7184, 664.2803
386.2006, 662.6762
386.6827, 661.3655
387.1648, 660.7575
387.6469, 660.4592
388.1290, 660.1432
388.6111, 659.7669
389.0933, 659.0656
389.5754, 657.3977
390.0575, 655.5091
390.5396, 654.3310
391.0217, 654.1942
391.5038, 654.2371
391.9860, 653.6638
392.4681, 652.8582
392.9502, 652.5134
393.4323, 653.4061
393.9144, 654.4722
394.3965, 655.1165
394.8787, 655.2907
395.3608, 655.2391
395.8429, 654.9862
396.3250, 654.5714
396.8071, 654.0306
397.2892, 652.7067
397.7714, 651.9741
398.2535, 652.3812
398.7356, 653.7256
399.2177, 655.0105
399.6998, 656.3766
400.1819, 657.4731
400.6641, 658.0675
401.1462, 657.5576
401.6283, 657.8177
402.1104, 659.3434
402.5925, 661.4082
403.0746, 662.9310
403.5568, 663.7328
404.0389, 664.2598
404.5210, 664.2894
405.0031, 663.8154
405.4852, 665.0060
405.9673, 668.4133
406.4495, 672.4685
406.9316, 675.9465
407.4137, 678.8554
407.8958, 681.2489
408.3779, 683.0071
408.8600, 684.3903
409.3422, 685.8391
409.8243, 687.3165
410.3064, 689.4564
410.7885, 693.1331
411.2706, 697.9421
411.7527, 701.6986
412.2349, 704.2206
412.7170, 706.3884
413.1991, 709.0486
413.6812, 712.1653
414.1633, 715.5657
414.6454, 719.3690
415.1276, 723.2636
415.6097, 726.9653
416.0918, 730.4083
416.5739, 733.3874
417.0560, 735.3659
417.5381, 736.9527
418.0203, 738.9316
418.5024, 741.6198
418.9845, 744.2867
419.4666, 746.2386
419.9487, 747.8546
420.4308, 749.7955
420.9130, 753.5800
421.3951, 756.7249
421.8772, 757.8062
422.3593, 756.5901
422.8414, 755.1369
423.3235, 753.6183
423.8057, 752.2955
424.2878, 751.3961
424.7699, 752.1422
425.2520, 751.9429
425.7341, 749.5129
426.2162, 745.7321
426.6984, 743.6758
427.1805, 743.8011
427.6626, 745.1669
428.1447, 747.8399
428.6268, 752.6899
429.1089, 755.3931
429.5911, 754.8534
430.0732, 753.3407
430.5553, 753.8607
431.0374, 756.9804
431.5195, 759.8177
432.0016, 761.5389
432.4838, 762.4875
432.9659, 764.1506
433.4480, 766.4590
433.9301, 769.8799
434.4122, 775.1262
434.8943, 781.9671
435.3765, 788.7304
435.8586, 795.2042
436.3407, 801.7271
436.8228, 808.6928
437.3049, 816.1307
437.7870, 823.9564
438.2692, 832.3783
438.7513, 841.1418
439.2334, 850.0098
439.7155, 858.9716
440.1976, 867.7516
440.6797, 875.0287
441.1619, 882.4426
441.6440, 892.2020
442.1261, 905.6956
442.6082, 919.8317
443.0903, 932.6927
443.5724, 944.8625
444.0546, 957.6000
444.5367, 970.6716
445.0188, 984.9898
445.5009, 1001.061
445.9830, 1018.762
446.4651, 1038.259
446.9473, 1059.033
447.4294, 1081.958
447.9115, 1107.491
448.3936, 1136.370
448.8757, 1167.239
449.3578, 1200.465
449.8400, 1235.350
450.3221, 1271.802
450.8042, 1310.470
451.2863, 1349.802
451.7684, 1389.794
452.2505, 1430.772
452.7327, 1470.959
453.2148, 1510.708
453.6969, 1548.630
454.1790, 1582.476
454.6611, 1612.685
455.1432, 1637.496
455.6254, 1655.592
456.1075, 1668.530
456.5896, 1679.925
457.0717, 1689.828
457.5538, 1696.723
458.0359, 1700.376
458.5181, 1700.218
459.0002, 1695.147
459.4823, 1685.198
459.9644, 1669.623
460.4465, 1646.195
460.9286, 1616.776
461.4108, 1585.345
461.8929, 1552.872
462.3750, 1519.447
462.8571, 1485.437
463.3392, 1450.478
463.8214, 1414.412
464.3035, 1374.627
464.7856, 1334.960
465.2677, 1297.809
465.7498, 1263.697
466.2319, 1231.656
466.7141, 1202.047
467.1962, 1174.290
467.6783, 1147.250
468.1604, 1119.815
468.6425, 1094.472
469.1246, 1072.009
469.6068, 1052.235
470.0889, 1032.972
470.5710, 1013.816
471.0531, 995.7003
471.5352, 979.2722
472.0173, 964.6606
472.4995, 950.6844
472.9816, 937.2373
473.4637, 924.5021
473.9458, 913.0078
474.4279, 902.7372
474.9100, 893.2324
475.3922, 884.5690
475.8743, 876.4852
476.3564, 867.9095
476.8385, 858.8568
477.3206, 850.4901
477.8027, 843.7523
478.2849, 838.3861
478.7670, 834.1861
479.2491, 831.3451
479.7312, 828.6377
480.2133, 824.5776
480.6954, 819.8347
481.1776, 815.6484
481.6597, 812.8096
482.1418, 810.5109
482.6239, 808.4101
483.1060, 806.4578
483.5881, 804.4761
484.0703, 802.9796
484.5524, 800.9989
485.0345, 797.5730
485.5166, 790.9885
485.9987, 786.6046
486.4808, 786.9747
486.9630, 789.3990
487.4451, 790.2097
487.9272, 788.7516
488.4093, 786.5844
488.8914, 783.6030
489.3735, 779.9711
489.8557, 777.3240
490.3378, 775.7644
490.8199, 774.8826
491.3020, 774.6940
491.7841, 775.2997
492.2662, 775.2809
492.7484, 774.4982
493.2305, 773.3399
493.7126, 772.1685
494.1947, 771.0193
494.6768, 770.2719
495.1589, 769.9955
495.6411, 770.2313
496.1232, 771.5266
496.6053, 773.6667
497.0874, 775.1699
497.5695, 774.3535
498.0516, 772.7493
498.5338, 772.1827
499.0159, 772.9907
499.4980, 774.0413
499.9801, 774.8117
500.4622, 775.3777
500.9443, 775.8464
501.4265, 776.1258
501.9086, 776.4402
502.3907, 776.8318
502.8728, 777.3184
503.3549, 777.9489
503.8370, 779.1367
504.3192, 780.1183
504.8013, 780.5186
505.2834, 780.1039
505.7655, 780.2240
506.2476, 781.2087
506.7297, 782.3570
507.2119, 782.9775
507.6940, 782.9528
508.1761, 782.7723
508.6582, 782.3113
509.1403, 781.9130
509.6224, 782.4496
510.1046, 783.9290
510.5867, 785.8559
511.0688, 788.3506
511.5509, 791.0883
512.0330, 792.9227
512.5151, 793.8378
512.9973, 794.7268
513.4794, 796.5403
513.9615, 798.7991
514.4436, 800.7233
514.9257, 802.0346
515.4078, 803.2180
515.8900, 804.5392
516.3721, 805.9836
516.8542, 807.5233
517.3363, 809.0961
517.8184, 810.8261
518.3005, 812.4949
518.7827, 814.1348
519.2648, 816.8482
519.7469, 821.9626
520.2290, 827.3377
520.7111, 831.7283
521.1932, 834.0793
521.6754, 837.5748
522.1575, 842.6039
522.6396, 848.4678
523.1217, 854.1148
523.6038, 859.3360
524.0859, 865.0886
524.5681, 871.5111
525.0502, 878.5883
525.5323, 886.4803
526.0144, 895.2353
526.4965, 904.4888
526.9786, 913.8663
527.4608, 923.6761
527.9429, 934.6283
528.4250, 946.8752
528.9071, 960.1457
529.3892, 974.4267
529.8713, 989.5981
530.3535, 1005.061
530.8356, 1020.127
531.3177, 1036.492
531.7998, 1055.959
532.2819, 1077.668
532.7640, 1098.651
533.2462, 1117.655
533.7283, 1136.354
534.2104, 1156.301
534.6925, 1177.706
535.1746, 1196.568
535.6567, 1214.032
536.1389, 1227.573
536.6210, 1235.457
537.1031, 1237.721
537.5852, 1234.448
538.0673, 1225.033
538.5494, 1210.624
539.0316, 1192.337
539.5137, 1169.504
539.9958, 1146.266
540.4779, 1123.716
540.9600, 1101.673
541.4421, 1078.995
541.9243, 1055.863
542.4064, 1034.354
542.8885, 1016.444
543.3706, 1001.201
543.8527, 987.1049
544.3348, 974.0534
544.8170, 961.7863
545.2991, 950.0421
545.7812, 939.0213
546.2633, 928.7750
546.7454, 918.7504
547.2275, 910.4266
547.7097, 905.2316
548.1918, 902.1640
548.6739, 898.9737
549.1560, 895.2895
549.6381, 891.2950
550.1202, 886.7929
550.6024, 881.7460
551.0845, 877.6555
551.5666, 874.9426
552.0487, 872.6131
552.5308, 869.9460
553.0129, 866.7109
553.4951, 864.3549
553.9772, 863.0613
554.4593, 862.3680
554.9414, 861.8658
555.4235, 861.5051
555.9056, 860.6306
556.3878, 858.7313
556.8699, 856.5997
557.3520, 855.7477
557.8341, 855.9282
558.3162, 856.0959
558.7983, 855.3875
559.2805, 854.5373
559.7626, 854.5308
560.2447, 855.4582
560.7268, 855.7263
561.2089, 853.4968
561.6910, 850.9424
562.1732, 849.8641
562.6553, 851.9869
563.1374, 853.4147
563.6195, 853.1218
564.1016, 852.0276
564.5837, 851.4614
565.0659, 851.5017
565.5480, 851.9519
566.0301, 852.9551
566.5122, 854.3380
566.9943, 855.0865
567.4764, 855.0356
567.9586, 855.1160
568.4407, 856.1582
568.9228, 857.8912
569.4049, 858.6019
569.8870, 858.1639
570.3691, 857.6962
570.8513, 858.3250
571.3334, 859.6995
571.8155, 861.1990
572.2976, 862.8916
572.7797, 864.2086
573.2618, 864.4555
573.7440, 864.0720
574.2261, 863.8580
574.7082, 864.0692
575.1903, 864.5457
575.6724, 865.3239
576.1545, 866.3663
576.6367, 867.3646
577.1188, 868.2579
577.6009, 869.1451
578.0830, 870.1747
578.5651, 871.5012
579.0472, 872.0729
579.5294, 871.5632
580.0115, 870.9099
580.4936, 871.0564
580.9757, 872.0222
581.4578, 873.0451
581.9399, 874.0321
582.4221, 874.9979
582.9042, 875.9952
583.3863, 876.9984
583.8684, 877.9630
584.3505, 878.9921
584.8326, 879.8674
585.3148, 880.0670
585.7969, 879.7905
