##NAMES=Marialite
##RRUFFID=R070689
##IDEAL CHEMISTRY=Na_4_Al_3_Si_9_O_24_Cl
##LOCALITY=Itaguassu, Espirito Santo State, Brazil
##OWNER=RRUFF
##SOURCE=Michael Scott
##DESCRIPTION=Pale yellow striated prism; bright orange-pink fluorescence under SW UV light
##STATUS=The identification of this mineral has been confirmed by X-ray diffraction and chemical analysis
##URL=rruff.info/R070689
##MEASURED CHEMISTRY=(Na_2.48_Ca_1.28_K_0.24_)_Σ=4_(Si_7.91_Al_4.09_)_Σ=12_O_24_(Cl_0.81_(CO_3_)_0.19_)_Σ=1_; CO_2_ estimated by difference and charge balance
120.1119, 15547.00
120.5940, 15832.17
121.0761, 16233.83
121.5582, 16641.88
122.0403, 17010.77
122.5224, 17336.24
123.0046, 17604.12
123.4867, 17781.62
123.9688, 17903.48
124.4509, 18010.45
124.9330, 18093.87
125.4151, 18183.36
125.8973, 18304.10
126.3794, 18456.17
126.8615, 18645.70
127.3436, 18939.37
127.8257, 19283.34
128.3078, 19535.61
128.7900, 19581.28
129.2721, 19497.75
129.7542, 19428.55
130.2363, 19368.10
130.7184, 19264.19
131.2005, 19131.93
131.6827, 19031.42
132.1648, 18927.33
132.6469, 18789.39
133.1290, 18625.50
133.6111, 18479.93
134.0932, 18355.12
134.5754, 18253.47
135.0575, 18201.67
135.5396, 18208.50
136.0217, 18203.23
136.5038, 18099.26
136.9859, 17890.93
137.4681, 17724.94
137.9502, 17652.90
138.4323, 17668.08
138.9144, 17654.11
139.3965, 17604.55
139.8786, 17537.60
140.3608, 17478.32
140.8429, 17427.89
141.3250, 17379.79
141.8071, 17326.44
142.2892, 17257.93
142.7713, 17221.04
143.2535, 17225.64
143.7356, 17257.81
144.2177, 17275.73
144.6998, 17263.97
145.1819, 17260.04
145.6640, 17288.06
146.1461, 17371.42
146.6283, 17442.00
147.1104, 17487.71
147.5925, 17509.50
148.0746, 17548.55
148.5567, 17617.82
149.0388, 17695.51
149.5210, 17760.85
150.0031, 17799.58
150.4852, 17843.17
150.9673, 17897.25
151.4494, 17964.73
151.9315, 18035.53
152.4137, 18107.99
152.8958, 18184.35
153.3779, 18266.79
153.8600, 18339.11
154.3421, 18430.28
154.8242, 18552.79
155.3064, 18740.85
155.7885, 18904.95
156.2706, 19016.06
156.7527, 19092.22
157.2348, 19188.69
157.7169, 19361.34
158.1991, 19529.16
158.6812, 19644.71
159.1633, 19649.26
159.6454, 19651.05
160.1275, 19673.17
160.6096, 19715.44
161.0918, 19770.95
161.5739, 19878.68
162.0560, 19983.75
162.5381, 20033.07
163.0202, 19985.31
163.5023, 19898.25
163.9845, 19788.13
164.4666, 19651.46
164.9487, 19523.60
165.4308, 19441.31
165.9129, 19375.83
166.3951, 19280.89
166.8772, 19114.09
167.3593, 18924.45
167.8414, 18746.55
168.3235, 18592.29
168.8056, 18438.83
169.2878, 18276.25
169.7699, 18104.47
170.2520, 17922.16
170.7341, 17704.93
171.2162, 17487.60
171.6983, 17309.88
172.1805, 17207.87
172.6626, 17121.24
173.1447, 16988.86
173.6268, 16818.58
174.1089, 16664.68
174.5910, 16571.66
175.0732, 16519.88
175.5553, 16477.19
176.0374, 16445.38
176.5195, 16410.45
177.0016, 16346.23
177.4837, 16250.04
177.9659, 16162.13
178.4480, 16118.91
178.9301, 16112.14
179.4122, 16119.83
179.8943, 16138.64
180.3764, 16163.58
180.8586, 16186.65
181.3407, 16207.77
181.8228, 16225.78
182.3049, 16240.52
182.7870, 16251.65
183.2691, 16257.20
183.7513, 16243.58
184.2334, 16222.73
184.7155, 16230.94
185.1976, 16281.93
185.6797, 16350.17
186.1618, 16399.73
186.6440, 16431.16
187.1261, 16440.46
187.6082, 16400.71
188.0903, 16327.65
188.5724, 16298.00
189.0545, 16344.24
189.5366, 16436.01
190.0188, 16507.17
190.5009, 16557.28
190.9830, 16584.43
191.4651, 16579.57
191.9472, 16544.63
192.4293, 16502.11
192.9115, 16453.40
193.3936, 16402.35
193.8757, 16369.96
194.3578, 16359.56
194.8399, 16357.30
195.3220, 16348.77
195.8042, 16334.27
196.2863, 16310.53
196.7684, 16270.25
197.2505, 16215.59
197.7326, 16175.89
198.2147, 16155.95
198.6969, 16144.71
199.1790, 16120.66
199.6611, 16081.73
200.1432, 16044.56
200.6253, 16013.02
201.1074, 15986.44
201.5896, 15982.92
202.0717, 16011.05
202.5538, 16056.17
203.0359, 16079.63
203.5180, 16078.59
204.0001, 16064.19
204.4823, 16041.00
204.9644, 16007.15
205.4465, 15975.02
205.9286, 15946.51
206.4107, 15920.95
206.8928, 15893.15
207.3750, 15860.73
207.8571, 15833.09
208.3392, 15819.03
208.8213, 15820.61
209.3034, 15829.74
209.7855, 15847.88
210.2677, 15874.54
210.7498, 15896.46
211.2319, 15917.22
211.7140, 15927.73
212.1961, 15910.26
212.6782, 15848.19
213.1604, 15807.87
213.6425, 15811.16
214.1246, 15861.64
214.6067, 15912.58
215.0888, 15968.48
215.5709, 16019.95
216.0531, 16049.27
216.5352, 16045.58
217.0173, 16044.69
217.4994, 16058.80
217.9815, 16089.42
218.4636, 16132.94
218.9458, 16205.98
219.4279, 16282.40
219.9100, 16302.13
220.3921, 16236.75
220.8742, 16167.44
221.3563, 16133.59
221.8385, 16153.66
222.3206, 16155.71
222.8027, 16128.22
223.2848, 16083.08
223.7669, 16062.64
224.2490, 16085.49
224.7312, 16103.66
225.2133, 16085.78
225.6954, 16009.85
226.1775, 15951.09
226.6596, 15923.20
227.1417, 15918.71
227.6239, 15889.71
228.1060, 15823.65
228.5881, 15749.51
229.0702, 15688.15
229.5523, 15644.81
230.0344, 15604.75
230.5165, 15565.63
230.9987, 15527.66
231.4808, 15499.94
231.9629, 15490.04
232.4450, 15482.56
232.9271, 15464.96
233.4092, 15438.84
233.8914, 15399.25
234.3735, 15334.14
234.8556, 15239.73
235.3377, 15195.63
235.8198, 15234.38
236.3019, 15294.93
236.7841, 15305.77
237.2662, 15232.30
237.7483, 15170.81
238.2304, 15148.27
238.7125, 15173.77
239.1946, 15177.81
239.6768, 15143.79
240.1589, 15100.35
240.6410, 15090.08
241.1231, 15140.82
241.6052, 15178.96
242.0873, 15173.15
242.5695, 15097.28
243.0516, 15082.29
243.5337, 15158.95
244.0158, 15280.04
244.4979, 15360.25
244.9800, 15375.31
245.4622, 15386.90
245.9443, 15414.89
246.4264, 15460.96
246.9085, 15520.37
247.3906, 15606.77
247.8727, 15701.04
248.3549, 15756.53
248.8370, 15743.73
249.3191, 15736.16
249.8012, 15765.62
250.2833, 15846.12
250.7654, 15930.76
251.2476, 16022.35
251.7297, 16117.30
252.2118, 16204.00
252.6939, 16276.32
253.1760, 16350.55
253.6581, 16434.63
254.1403, 16531.51
254.6224, 16633.66
255.1045, 16740.81
255.5866, 16852.96
256.0687, 16967.24
256.5508, 17081.86
257.0330, 17202.41
257.5151, 17338.41
257.9972, 17505.41
258.4793, 17644.13
258.9614, 17738.64
259.4435, 17800.70
259.9257, 17891.30
260.4078, 18024.35
260.8899, 18164.68
261.3720, 18289.95
261.8541, 18402.12
262.3362, 18493.75
262.8184, 18571.40
263.3005, 18629.28
263.7826, 18632.73
264.2647, 18572.08
264.7468, 18472.02
265.2289, 18342.01
265.7111, 18167.01
266.1932, 18011.69
266.6753, 17894.78
267.1574, 17808.88
267.6395, 17678.52
268.1216, 17491.38
268.6038, 17284.68
269.0859, 17088.04
269.5680, 16898.34
270.0501, 16731.42
270.5322, 16593.86
271.0143, 16482.62
271.4965, 16379.26
271.9786, 16286.04
272.4607, 16196.71
272.9428, 16101.25
273.4249, 15993.08
273.9070, 15911.31
274.3892, 15875.09
274.8713, 15877.81
275.3534, 15844.29
275.8355, 15761.05
276.3176, 15673.55
276.7997, 15634.07
277.2819, 15649.03
277.7640, 15670.54
278.2461, 15691.72
278.7282, 15710.95
279.2103, 15703.44
279.6924, 15659.44
280.1746, 15615.76
280.6567, 15618.33
281.1388, 15671.12
281.6209, 15723.88
282.1030, 15759.91
282.5851, 15782.76
283.0673, 15811.82
283.5494, 15845.22
284.0315, 15892.00
284.5136, 15976.46
284.9957, 16099.43
285.4778, 16196.11
285.9600, 16235.08
286.4421, 16228.05
286.9242, 16238.07
287.4063, 16266.87
287.8884, 16304.69
288.3705, 16338.31
288.8527, 16368.34
289.3348, 16408.64
289.8169, 16477.24
290.2990, 16560.55
290.7811, 16602.72
291.2632, 16599.19
291.7453, 16577.71
292.2274, 16564.17
292.7096, 16558.38
293.1917, 16559.21
293.6738, 16557.40
294.1559, 16562.38
294.6380, 16605.55
295.1201, 16689.72
295.6023, 16792.31
296.0844, 16899.78
296.5665, 17009.56
297.0486, 17107.72
297.5307, 17208.80
298.0128, 17292.79
298.4950, 17314.20
298.9771, 17273.45
299.4592, 17182.25
299.9413, 17030.19
300.4234, 16834.21
300.9055, 16643.04
301.3877, 16472.46
301.8698, 16322.42
302.3519, 16197.61
302.8340, 16097.75
303.3161, 16007.92
303.7982, 15903.78
304.2804, 15798.44
304.7625, 15717.92
305.2446, 15687.07
305.7267, 15680.15
306.2088, 15664.34
306.6909, 15637.80
307.1731, 15625.91
307.6552, 15675.41
308.1373, 15750.09
308.6194, 15787.88
309.1015, 15725.71
309.5836, 15639.63
310.0658, 15592.59
310.5479, 15585.61
311.0300, 15602.73
311.5121, 15668.65
311.9942, 15744.76
312.4763, 15777.46
312.9585, 15691.64
313.4406, 15597.10
313.9227, 15571.47
314.4048, 15617.56
314.8869, 15669.51
315.3690, 15698.94
315.8512, 15714.41
316.3333, 15725.93
316.8154, 15718.53
317.2975, 15723.26
317.7796, 15770.51
318.2617, 15860.17
318.7439, 15919.44
319.2260, 15892.84
319.7081, 15834.09
320.1902, 15794.33
320.6723, 15777.98
321.1544, 15791.66
321.6366, 15851.15
322.1187, 15955.11
322.6008, 16049.09
323.0829, 16127.50
323.5650, 16187.40
324.0471, 16226.43
324.5293, 16212.02
325.0114, 16210.36
325.4935, 16246.97
325.9756, 16320.28
326.4577, 16367.29
326.9398, 16351.88
327.4220, 16325.39
327.9041, 16322.90
328.3862, 16357.62
328.8683, 16403.17
329.3504, 16462.21
329.8326, 16533.12
330.3147, 16598.18
330.7968, 16651.28
331.2789, 16703.93
331.7610, 16766.08
332.2431, 16868.12
332.7253, 16930.39
333.2074, 16928.90
333.6895, 16876.33
334.1716, 16857.18
334.6537, 16899.12
335.1358, 16940.12
335.6180, 16936.99
336.1001, 16861.48
336.5822, 16813.54
337.0643, 16808.43
337.5464, 16835.31
338.0285, 16853.92
338.5107, 16862.44
338.9928, 16866.05
339.4749, 16869.28
339.9570, 16874.20
340.4391, 16865.39
340.9212, 16835.70
341.4034, 16796.26
341.8855, 16774.48
342.3676, 16772.27
342.8497, 16780.07
343.3318, 16795.51
343.8139, 16818.79
344.2961, 16839.16
344.7782, 16856.38
345.2603, 16870.14
345.7424, 16874.43
346.2245, 16868.79
346.7066, 16875.39
347.1888, 16914.29
347.6709, 16977.50
348.1530, 17029.39
348.6351, 17066.04
349.1172, 17094.46
349.5993, 17117.20
350.0815, 17136.90
350.5636, 17169.89
351.0457, 17242.36
351.5278, 17331.00
352.0099, 17381.92
352.4920, 17388.22
352.9742, 17389.47
353.4563, 17425.27
353.9384, 17488.36
354.4205, 17558.44
354.9026, 17637.05
355.3847, 17714.47
355.8669, 17775.46
356.3490, 17819.00
356.8311, 17866.72
357.3132, 17941.35
357.7953, 18030.33
358.2774, 18111.78
358.7596, 18187.46
359.2417, 18245.91
359.7238, 18270.53
360.2059, 18262.08
360.6880, 18256.39
361.1701, 18294.99
361.6523, 18336.13
362.1344, 18337.40
362.6165, 18246.16
363.0986, 18149.30
363.5807, 18083.48
364.0628, 18044.62
364.5450, 17994.93
365.0271, 17907.22
365.5092, 17813.53
365.9913, 17735.85
366.4734, 17681.99
366.9555, 17641.52
367.4377, 17619.32
367.9198, 17611.98
368.4019, 17602.88
368.8840, 17591.99
369.3661, 17578.64
369.8482, 17562.04
370.3304, 17519.27
370.8125, 17506.41
371.2946, 17536.74
371.7767, 17596.93
372.2588, 17651.45
372.7409, 17708.95
373.2230, 17749.30
373.7051, 17760.22
374.1873, 17724.17
374.6694, 17705.87
375.1515, 17706.00
375.6336, 17722.58
376.1157, 17754.53
376.5978, 17807.45
377.0800, 17859.66
377.5621, 17902.81
378.0442, 17936.81
378.5263, 17966.93
379.0084, 17994.33
379.4905, 18015.54
379.9727, 18020.66
380.4548, 18007.86
380.9369, 18006.77
381.4190, 18037.27
381.9011, 18088.23
382.3832, 18108.11
382.8654, 18094.85
383.3475, 18062.85
383.8296, 18012.43
384.3117, 17951.30
384.7938, 17915.32
385.2759, 17929.76
385.7581, 17964.97
386.2402, 17969.88
386.7223, 17946.03
387.2044, 17907.39
387.6865, 17851.89
388.1686, 17791.55
388.6508, 17749.73
389.1329, 17740.63
389.6150, 17738.85
390.0971, 17716.28
390.5792, 17679.69
391.0613, 17652.89
391.5435, 17659.55
392.0256, 17676.40
392.5077, 17679.33
392.9898, 17654.68
393.4719, 17639.51
393.9540, 17665.46
394.4362, 17713.69
394.9183, 17747.14
395.4004, 17739.76
395.8825, 17723.72
396.3646, 17714.22
396.8467, 17714.84
397.3289, 17713.04
397.8110, 17694.98
398.2931, 17676.04
398.7752, 17675.61
399.2573, 17716.11
399.7394, 17755.26
400.2216, 17781.06
400.7037, 17791.40
401.1858, 17810.96
401.6679, 17857.13
402.1500, 17900.43
402.6321, 17913.33
403.1143, 17871.94
403.5964, 17844.54
404.0785, 17842.78
404.5606, 17863.57
405.0427, 17884.67
405.5248, 17903.65
406.0070, 17928.08
406.4891, 17967.75
406.9712, 18028.36
407.4533, 18068.99
407.9354, 18080.29
408.4175, 18075.50
408.8997, 18081.20
409.3818, 18096.74
409.8639, 18130.21
410.3460, 18201.82
410.8281, 18301.95
411.3102, 18361.73
411.7924, 18371.03
412.2745, 18365.26
412.7566, 18383.22
413.2387, 18424.08
413.7208, 18485.71
414.2029, 18588.06
414.6851, 18701.92
415.1672, 18778.45
415.6493, 18815.97
416.1314, 18844.15
416.6135, 18886.03
417.0956, 18935.41
417.5778, 18983.59
418.0599, 19031.84
418.5420, 19073.92
419.0241, 19097.20
419.5062, 19106.48
419.9883, 19131.41
420.4705, 19227.93
420.9526, 19323.45
421.4347, 19357.22
421.9168, 19275.10
422.3989, 19191.48
422.8810, 19140.43
423.3632, 19112.06
423.8453, 19078.56
424.3274, 19020.13
424.8095, 18966.62
425.2916, 18928.07
425.7737, 18904.46
426.2559, 18897.51
426.7380, 18917.73
427.2201, 18949.46
427.7022, 18971.70
428.1843, 18984.18
428.6664, 18987.51
429.1486, 18977.90
429.6307, 18954.79
430.1128, 18945.33
430.5949, 18951.73
431.0770, 18969.49
431.5591, 18992.30
432.0413, 19018.55
432.5234, 19065.83
433.0055, 19142.98
433.4876, 19240.60
433.9697, 19331.49
434.4518, 19415.00
434.9340, 19490.74
435.4161, 19556.36
435.8982, 19613.39
436.3803, 19666.27
436.8624, 19710.24
437.3445, 19764.31
437.8267, 19857.70
438.3088, 19983.92
438.7909, 20118.71
439.2730, 20257.04
439.7551, 20393.32
440.2372, 20522.25
440.7194, 20643.77
441.2015, 20754.58
441.6836, 20832.30
442.1657, 20902.74
442.6478, 21001.99
443.1299, 21151.15
443.6121, 21324.49
444.0942, 21522.86
444.5763, 21740.42
445.0584, 21943.35
445.5405, 22086.99
446.0226, 22232.89
446.5048, 22422.42
446.9869, 22675.96
447.4690, 22954.17
447.9511, 23262.16
448.4332, 23594.08
448.9153, 23933.36
449.3975, 24264.88
449.8796, 24619.18
450.3617, 25006.10
450.8438, 25437.77
451.3259, 25870.33
451.8080, 26314.59
452.2902, 26754.29
452.7723, 27164.69
453.2544, 27548.16
453.7365, 27906.25
454.2186, 28236.85
454.7007, 28540.11
455.1828, 28794.56
455.6649, 29001.57
456.1471, 29159.52
456.6292, 29252.39
457.1113, 29289.16
457.5934, 29313.69
458.0755, 29335.54
458.5576, 29344.08
459.0398, 29345.68
459.5219, 29328.78
460.0040, 29242.03
460.4861, 29003.80
460.9682, 28702.10
461.4503, 28459.85
461.9325, 28299.83
462.4146, 28114.80
462.8967, 27822.92
463.3788, 27461.70
463.8609, 27087.82
464.3430, 26724.85
464.8252, 26350.27
465.3073, 25938.33
465.7894, 25499.14
466.2715, 25096.66
466.7536, 24769.90
467.2357, 24476.21
467.7179, 24185.69
468.2000, 23908.04
468.6821, 23621.18
469.1642, 23308.28
469.6463, 22985.45
470.1284, 22705.71
470.6106, 22470.78
471.0927, 22273.55
471.5748, 22121.11
472.0569, 22022.66
472.5390, 21899.24
473.0211, 21743.80
473.5033, 21575.16
473.9854, 21411.63
474.4675, 21251.17
474.9496, 21116.27
475.4317, 21024.18
475.9138, 20954.64
476.3960, 20843.87
476.8781, 20692.52
477.3602, 20546.80
477.8423, 20448.49
478.3244, 20381.91
478.8065, 20315.83
479.2887, 20246.69
479.7708, 20174.46
480.2529, 20088.37
480.7350, 19998.86
481.2171, 19929.58
481.6992, 19899.82
482.1814, 19889.09
482.6635, 19888.50
483.1456, 19897.64
483.6277, 19901.64
484.1098, 19885.70
484.5919, 19865.31
485.0741, 19854.17
485.5562, 19873.87
486.0383, 19881.00
486.5204, 19867.05
487.0025, 19833.89
487.4846, 19791.80
487.9668, 19727.00
488.4489, 19669.91
488.9310, 19635.07
489.4131, 19630.71
489.8952, 19621.18
490.3773, 19603.18
490.8595, 19584.62
491.3416, 19578.73
491.8237, 19587.88
492.3058, 19594.97
492.7879, 19594.06
493.2701, 19587.64
493.7522, 19590.45
494.2343, 19603.39
494.7164, 19605.16
495.1985, 19563.61
495.6806, 19497.59
496.1628, 19459.86
496.6449, 19467.82
497.1270, 19485.53
497.6091, 19466.78
498.0912, 19426.47
498.5733, 19402.75
499.0555, 19447.55
499.5376, 19492.00
500.0197, 19474.92
500.5018, 19388.69
500.9839, 19315.71
501.4660, 19286.14
501.9482, 19287.21
502.4303, 19307.57
502.9124, 19381.66
503.3945, 19433.17
503.8766, 19434.67
504.3587, 19401.10
504.8409, 19394.15
505.3230, 19436.05
505.8051, 19476.72
506.2872, 19494.64
506.7693, 19483.52
507.2514, 19477.30
507.7336, 19473.01
508.2157, 19477.84
508.6978, 19504.24
509.1799, 19553.97
509.6620, 19603.10
510.1441, 19647.34
510.6263, 19685.72
511.1084, 19717.69
511.5905, 19742.79
512.0726, 19757.75
512.5547, 19750.54
513.0368, 19733.05
513.5189, 19729.03
514.0010, 19743.61
514.4832, 19763.66
514.9653, 19776.33
515.4474, 19786.89
515.9295, 19804.90
516.4116, 19839.29
516.8937, 19878.71
517.3759, 19923.41
517.8580, 19972.73
518.3401, 20006.00
518.8222, 19985.32
519.3043, 19968.67
519.7864, 19993.19
520.2686, 20106.99
520.7507, 20202.32
521.2328, 20271.98
521.7149, 20324.09
522.1970, 20367.39
522.6791, 20383.82
523.1613, 20431.42
523.6434, 20538.76
524.1255, 20702.04
524.6076, 20844.43
525.0897, 20961.91
525.5718, 21069.09
526.0540, 21167.12
526.5361, 21260.73
527.0182, 21383.71
527.5003, 21547.90
527.9824, 21729.40
528.4645, 21887.27
528.9467, 22028.27
529.4288, 22189.03
529.9109, 22398.22
530.3930, 22629.84
530.8751, 22863.45
531.3572, 23098.44
531.8394, 23333.81
532.3215, 23566.29
532.8036, 23801.53
533.2857, 24051.31
533.7678, 24344.70
534.2499, 24620.41
534.7321, 24887.70
535.2142, 25131.63
535.6963, 25293.20
536.1784, 25335.17
536.6605, 25343.04
537.1426, 25359.83
537.6248, 25403.36
538.1069, 25321.41
538.5890, 25082.32
539.0711, 24773.80
539.5532, 24469.83
540.0353, 24170.97
540.5175, 23890.71
540.9996, 23630.21
541.4817, 23391.00
541.9638, 23186.39
542.4459, 23010.96
542.9280, 22834.74
543.4102, 22637.80
543.8923, 22429.03
544.3744, 22209.63
544.8565, 21976.81
545.3386, 21777.54
545.8207, 21672.50
546.3029, 21609.60
546.7850, 21526.84
547.2671, 21367.79
547.7492, 21226.42
548.2313, 21139.95
548.7134, 21097.55
549.1956, 21058.95
549.6777, 20971.57
550.1598, 21006.52
550.6419, 21012.82
551.1240, 20992.00
551.6061, 20862.85
552.0883, 20873.57
552.5704, 20828.25
553.0525, 20780.63
553.5346, 20811.05
554.0167, 20697.65
554.4988, 20726.84
554.9810, 20699.10
555.4631, 20697.43
555.9452, 20639.34
556.4273, 20598.67
556.9094, 20614.43
557.3915, 20598.95
557.8737, 20534.36
558.3558, 20534.34
558.8379, 20425.92
559.3200, 20441.24
559.8021, 20482.28
560.2842, 20500.80
560.7664, 20456.28
561.2485, 20422.67
561.7306, 20434.95
562.2127, 20480.82
562.6948, 20526.60
563.1769, 20582.08
563.6591, 20621.05
564.1412, 20628.33
564.6233, 20597.67
565.1054, 20584.29
565.5875, 20595.25
566.0696, 20613.46
566.5518, 20620.17
567.0339, 20609.41
567.5160, 20623.27
567.9981, 20675.28
568.4802, 20741.62
568.9623, 20781.23
569.4445, 20795.05
569.9266, 20792.86
570.4087, 20768.04
570.8908, 20735.15
571.3729, 20725.07
571.8550, 20737.41
572.3372, 20740.74
572.8193, 20693.70
573.3014, 20635.82
573.7835, 20610.36
574.2656, 20638.64
574.7477, 20676.80
575.2299, 20712.04
575.7120, 20745.79
576.1941, 20779.31
576.6762, 20832.22
577.1583, 20862.93
577.6404, 20852.28
578.1226, 20802.03
578.6047, 20771.65
579.0868, 20755.32
579.5689, 20768.92
580.0510, 20841.20
580.5331, 20979.76
581.0153, 21056.90
581.4974, 21056.05
581.9795, 21022.45
582.4616, 21017.64
582.9437, 21035.65
583.4258, 21047.64
583.9080, 21036.42
584.3901, 21020.45
584.8722, 21027.29
585.3543, 21051.51
585.8364, 21068.27
586.3185, 21046.46
586.8007, 21023.35
587.2828, 21027.60
587.7649, 21067.10
588.2470, 21114.15
588.7291, 21189.79
589.2112, 21256.56
589.6934, 21272.82
590.1755, 21177.83
590.6576, 21126.13
591.1397, 21149.64
591.6218, 21222.38
592.1039, 21267.38
592.5861, 21281.39
593.0682, 21280.26
593.5503, 21258.31
594.0324, 21222.67
594.5145, 21235.04
594.9966, 21299.65
595.4788, 21367.33
595.9609, 21395.04
596.4430, 21392.97
596.9251, 21375.60
597.4072, 21334.40
597.8893, 21307.75
598.3715, 21354.72
598.8536, 21435.76
599.3357, 21476.43
599.8178, 21399.89
600.2999, 21326.68
600.7820, 21304.70
601.2642, 21333.85
601.7463, 21369.64
602.2284, 21412.53
602.7105, 21456.29
603.1926, 21499.99
603.6747, 21547.17
604.1569, 21574.22
604.6390, 21570.94
605.1211, 21563.81
605.6032, 21595.76
606.0853, 21665.27
606.5674, 21713.76
607.0496, 21721.89
607.5317, 21707.08
608.0138, 21689.68
608.4959, 21673.62
608.9780, 21675.54
609.4601, 21726.24
609.9423, 21787.17
610.4244, 21818.06
610.9065, 21815.58
611.3886, 21815.44
611.8707, 21844.72
612.3528, 21875.96
612.8350, 21886.43
