##NAMES=Marialite
##RRUFFID=R070689
##IDEAL CHEMISTRY=Na_4_Al_3_Si_9_O_24_Cl
##LOCALITY=Itaguassu, Espirito Santo State, Brazil
##OWNER=RRUFF
##SOURCE=Michael Scott
##DESCRIPTION=Pale yellow striated prism; bright orange-pink fluorescence under SW UV light
##STATUS=The identification of this mineral has been confirmed by X-ray diffraction and chemical analysis
##URL=rruff.info/R070689
##MEASURED CHEMISTRY=(Na_2.48_Ca_1.28_K_0.24_)_Σ=4_(Si_7.91_Al_4.09_)_Σ=12_O_24_(Cl_0.81_(CO_3_)_0.19_)_Σ=1_; CO_2_ estimated by difference and charge balance
89.93622, 9667.999
90.41833, 10006.49
90.90045, 10374.23
91.38257, 10747.70
91.86469, 11091.90
92.34680, 11388.59
92.82892, 11646.40
93.31104, 11915.18
93.79315, 12230.15
94.27527, 12487.76
94.75739, 12572.08
95.23950, 12484.16
95.72162, 12374.20
96.20374, 12245.65
96.68585, 12102.08
97.16797, 11959.93
97.65009, 11823.77
98.13220, 11689.21
98.61432, 11546.19
99.09644, 11387.47
99.57855, 11231.88
100.0607, 11091.18
100.5428, 10962.64
101.0249, 10839.45
101.5070, 10716.98
101.9891, 10594.01
102.4713, 10476.36
102.9534, 10352.78
103.4355, 10241.13
103.9176, 10151.43
104.3997, 10085.28
104.8818, 10034.70
105.3640, 9987.338
105.8461, 9940.113
106.3282, 9901.512
106.8103, 9879.032
107.2924, 9860.729
107.7745, 9831.551
108.2567, 9782.871
108.7388, 9721.248
109.2209, 9689.478
109.7030, 9697.896
110.1851, 9723.739
110.6672, 9776.938
111.1494, 9846.164
111.6315, 9904.286
112.1136, 9924.465
112.5957, 9900.593
113.0778, 9919.173
113.5599, 10000.10
114.0421, 10104.79
114.5242, 10212.43
115.0063, 10319.18
115.4884, 10419.50
115.9705, 10501.30
116.4526, 10565.00
116.9348, 10631.52
117.4169, 10703.40
117.8990, 10781.74
118.3811, 10868.42
118.8632, 10964.45
119.3453, 11069.25
119.8275, 11182.41
120.3096, 11305.49
120.7917, 11425.80
121.2738, 11540.21
121.7559, 11649.54
122.2381, 11733.69
122.7202, 11758.81
123.2023, 11766.32
123.6844, 11789.43
124.1665, 11842.22
124.6486, 11901.06
125.1308, 11919.17
125.6129, 11875.43
126.0950, 11826.23
126.5771, 11792.64
127.0592, 11762.56
127.5413, 11722.65
128.0235, 11665.71
128.5056, 11592.02
128.9877, 11500.31
129.4698, 11362.91
129.9519, 11233.35
130.4340, 11144.48
130.9162, 11078.33
131.3983, 10985.91
131.8804, 10814.84
132.3625, 10533.31
132.8446, 10311.91
133.3267, 10168.27
133.8089, 10056.83
134.2910, 9958.674
134.7731, 9867.420
135.2552, 9775.814
135.7373, 9673.654
136.2194, 9552.151
136.7016, 9436.940
137.1837, 9330.419
137.6658, 9230.238
138.1479, 9134.977
138.6300, 9044.563
139.1121, 8956.404
139.5943, 8867.618
140.0764, 8781.020
140.5585, 8687.876
141.0406, 8571.229
141.5227, 8439.961
142.0048, 8331.731
142.4870, 8274.546
142.9691, 8246.775
143.4512, 8203.076
143.9333, 8134.573
144.4154, 8058.247
144.8975, 7989.153
145.3797, 7927.526
145.8618, 7872.231
146.3439, 7821.881
146.8260, 7777.828
147.3081, 7743.787
147.7902, 7726.586
148.2724, 7718.346
148.7545, 7697.284
149.2366, 7651.277
149.7187, 7612.339
150.2008, 7595.327
150.6829, 7593.479
151.1651, 7594.031
151.6472, 7586.406
152.1293, 7570.710
152.6114, 7566.029
153.0935, 7580.497
153.5757, 7600.289
154.0578, 7620.953
154.5399, 7642.859
155.0220, 7668.980
155.5041, 7704.082
155.9862, 7754.261
156.4684, 7794.339
156.9505, 7832.742
157.4326, 7857.403
157.9147, 7855.563
158.3968, 7827.146
158.8789, 7787.378
159.3611, 7760.138
159.8432, 7754.468
160.3253, 7749.157
160.8074, 7739.234
161.2895, 7731.824
161.7716, 7737.416
162.2538, 7760.397
162.7359, 7790.785
163.2180, 7802.971
163.7001, 7812.254
164.1822, 7786.188
164.6643, 7693.404
165.1465, 7562.315
165.6286, 7444.802
166.1107, 7366.747
166.5928, 7320.770
167.0749, 7277.513
167.5570, 7248.222
168.0392, 7209.868
168.5213, 7141.112
169.0034, 7048.535
169.4855, 6966.483
169.9676, 6921.543
170.4497, 6904.602
170.9319, 6877.581
171.4140, 6833.244
171.8961, 6781.698
172.3782, 6729.904
172.8603, 6677.167
173.3424, 6629.767
173.8246, 6594.970
174.3067, 6568.933
174.7888, 6545.396
175.2709, 6520.992
175.7530, 6498.304
176.2351, 6482.478
176.7173, 6473.994
177.1994, 6472.084
177.6815, 6483.018
178.1636, 6500.273
178.6457, 6508.247
179.1278, 6485.258
179.6100, 6439.227
180.0921, 6423.144
180.5742, 6451.153
181.0563, 6497.742
181.5384, 6561.413
182.0205, 6634.569
182.5027, 6694.958
182.9848, 6715.800
183.4669, 6691.383
183.9490, 6683.367
184.4311, 6710.868
184.9132, 6742.923
185.3954, 6765.818
185.8775, 6779.418
186.3596, 6793.144
186.8417, 6821.137
187.3238, 6873.392
187.8059, 6910.297
188.2881, 6919.536
188.7702, 6923.378
189.2523, 6936.003
189.7344, 6960.218
190.2165, 6987.703
190.6986, 7004.317
191.1808, 6998.748
191.6629, 7001.120
192.1450, 7017.681
192.6271, 7038.324
193.1092, 7057.237
193.5914, 7071.851
194.0735, 7079.646
194.5556, 7074.846
195.0377, 7035.691
195.5198, 7008.697
196.0019, 7008.619
196.4841, 7016.807
196.9662, 7006.843
197.4483, 6965.540
197.9304, 6906.888
198.4125, 6879.664
198.8946, 6912.348
199.3768, 6940.856
199.8589, 6958.554
200.3410, 6964.287
200.8231, 6952.538
201.3052, 6916.371
201.7873, 6864.859
202.2695, 6842.567
202.7516, 6870.013
203.2337, 6898.601
203.7158, 6907.184
204.1979, 6901.553
204.6800, 6900.704
205.1622, 6917.414
205.6443, 6948.068
206.1264, 6970.407
206.6085, 6980.578
207.0906, 6986.601
207.5727, 6988.442
208.0549, 6987.511
208.5370, 6995.404
209.0191, 7024.417
209.5012, 7069.144
209.9833, 7103.115
210.4654, 7112.971
210.9476, 7119.963
211.4297, 7142.029
211.9118, 7179.757
212.3939, 7226.140
212.8760, 7285.540
213.3581, 7350.104
213.8403, 7396.514
214.3224, 7400.453
214.8045, 7393.194
215.2866, 7418.051
215.7687, 7481.992
216.2508, 7550.452
216.7330, 7599.523
217.2151, 7635.079
217.6972, 7664.840
218.1793, 7698.328
218.6614, 7726.329
219.1435, 7725.373
219.6257, 7681.933
220.1078, 7640.970
220.5899, 7640.386
221.0720, 7663.945
221.5541, 7678.524
222.0362, 7666.042
222.5184, 7632.660
223.0005, 7595.802
223.4826, 7551.590
223.9647, 7510.888
224.4468, 7480.492
224.9289, 7457.816
225.4111, 7436.961
225.8932, 7417.345
226.3753, 7397.728
226.8574, 7371.271
227.3395, 7338.918
227.8216, 7296.942
228.3038, 7235.460
228.7859, 7162.848
229.2680, 7099.959
229.7501, 7071.034
230.2322, 7072.986
230.7143, 7049.156
231.1965, 6963.179
231.6786, 6889.622
232.1607, 6876.987
232.6428, 6907.187
233.1249, 6925.693
233.6070, 6876.528
234.0892, 6756.430
234.5713, 6673.383
235.0534, 6658.802
235.5355, 6656.365
236.0176, 6647.675
236.4998, 6632.784
236.9819, 6619.238
237.4640, 6616.254
237.9461, 6626.190
238.4282, 6624.509
238.9103, 6590.761
239.3925, 6562.320
239.8746, 6553.307
240.3567, 6562.956
240.8388, 6582.776
241.3209, 6605.214
241.8030, 6629.901
242.2852, 6659.960
242.7673, 6700.670
243.2494, 6742.142
243.7315, 6776.769
244.2136, 6806.742
244.6957, 6841.428
245.1779, 6891.170
245.6600, 6958.917
246.1421, 7026.958
246.6242, 7092.564
247.1063, 7160.484
247.5884, 7230.082
248.0706, 7303.142
248.5527, 7384.503
249.0348, 7480.379
249.5169, 7594.506
249.9990, 7707.898
250.4811, 7814.216
250.9633, 7924.538
251.4454, 8047.729
251.9275, 8181.598
252.4096, 8316.841
252.8917, 8439.749
253.3738, 8539.715
253.8560, 8672.822
254.3381, 8856.277
254.8202, 9051.902
255.3023, 9239.476
255.7844, 9419.345
256.2665, 9608.190
256.7487, 9826.927
257.2308, 10091.58
257.7129, 10321.48
258.1950, 10503.42
258.6771, 10670.07
259.1592, 10841.10
259.6414, 11015.81
260.1235, 11179.78
260.6056, 11323.22
261.0877, 11457.58
261.5698, 11512.02
262.0519, 11469.69
262.5341, 11382.22
263.0162, 11278.08
263.4983, 11157.03
263.9804, 10999.09
264.4625, 10780.63
264.9446, 10485.61
265.4268, 10206.98
265.9089, 9963.336
266.3910, 9717.696
266.8731, 9441.065
267.3552, 9140.884
267.8373, 8851.657
268.3195, 8608.522
268.8016, 8422.029
269.2837, 8222.444
269.7658, 7988.732
270.2479, 7763.426
270.7300, 7563.022
271.2122, 7389.517
271.6943, 7238.749
272.1764, 7108.468
272.6585, 7000.433
273.1406, 6899.213
273.6227, 6796.947
274.1049, 6705.837
274.5870, 6639.155
275.0691, 6591.130
275.5512, 6540.239
276.0333, 6467.159
276.5154, 6368.109
276.9976, 6293.420
277.4797, 6248.233
277.9618, 6215.864
278.4439, 6195.466
278.9260, 6182.782
279.4081, 6167.562
279.8903, 6140.176
280.3724, 6099.982
280.8545, 6081.931
281.3366, 6090.119
281.8187, 6111.231
282.3008, 6149.559
282.7830, 6197.790
283.2651, 6240.161
283.7472, 6265.154
284.2293, 6273.612
284.7114, 6284.427
285.1935, 6284.153
285.6757, 6299.369
286.1578, 6351.543
286.6399, 6425.834
287.1220, 6487.988
287.6041, 6514.394
288.0862, 6511.908
288.5684, 6540.591
289.0505, 6631.948
289.5326, 6716.711
290.0147, 6765.104
290.4968, 6796.844
290.9789, 6845.617
291.4611, 6929.964
291.9432, 7045.617
292.4253, 7172.437
292.9074, 7310.853
293.3895, 7459.549
293.8716, 7620.405
294.3538, 7791.137
294.8359, 7978.812
295.3180, 8190.300
295.8001, 8402.694
296.2823, 8542.224
296.7644, 8614.615
297.2465, 8598.327
297.7286, 8457.334
298.2107, 8238.158
298.6928, 7982.140
299.1750, 7705.668
299.6571, 7424.091
300.1392, 7169.857
300.6213, 6948.533
301.1034, 6752.127
301.5855, 6588.970
302.0677, 6446.402
302.5498, 6314.323
303.0319, 6189.635
303.5140, 6073.065
303.9961, 5967.825
304.4782, 5871.846
304.9604, 5793.499
305.4425, 5737.184
305.9246, 5693.952
306.4067, 5658.912
306.8888, 5630.271
307.3709, 5606.483
307.8531, 5586.687
308.3352, 5577.017
308.8173, 5555.841
309.2994, 5514.036
309.7815, 5469.667
310.2636, 5431.815
310.7458, 5402.778
311.2279, 5381.645
311.7100, 5368.035
312.1921, 5363.761
312.6742, 5360.450
313.1563, 5360.925
313.6385, 5359.724
314.1206, 5349.635
314.6027, 5334.020
315.0848, 5325.075
315.5669, 5337.169
316.0490, 5373.906
316.5312, 5390.198
317.0133, 5367.000
317.4954, 5341.871
317.9775, 5323.174
318.4596, 5312.370
318.9417, 5310.168
319.4239, 5318.848
319.9060, 5337.278
320.3881, 5346.863
320.8702, 5336.100
321.3523, 5328.558
321.8344, 5329.529
322.3166, 5337.244
322.7987, 5349.329
323.2808, 5365.176
323.7629, 5382.964
324.2450, 5395.311
324.7271, 5401.685
325.2093, 5402.431
325.6914, 5392.408
326.1735, 5379.405
326.6556, 5371.301
327.1377, 5371.346
327.6198, 5379.154
328.1020, 5395.041
328.5841, 5422.290
329.0662, 5450.549
329.5483, 5483.837
330.0304, 5513.915
330.5125, 5531.195
330.9947, 5532.812
331.4768, 5529.495
331.9589, 5537.424
332.4410, 5559.972
332.9231, 5579.267
333.4052, 5583.741
333.8874, 5589.716
334.3695, 5613.438
334.8516, 5655.252
335.3337, 5691.303
335.8158, 5688.435
336.2979, 5644.775
336.7801, 5624.873
337.2622, 5655.531
337.7443, 5693.699
338.2264, 5711.860
338.7085, 5712.006
339.1906, 5712.857
339.6728, 5727.753
340.1549, 5754.680
340.6370, 5777.678
341.1191, 5775.527
341.6012, 5804.908
342.0833, 5936.467
342.5655, 6128.916
343.0476, 6270.487
343.5297, 6278.441
344.0118, 6206.722
344.4939, 6167.079
344.9760, 6163.556
345.4582, 6179.303
345.9403, 6216.147
346.4224, 6264.076
346.9045, 6307.088
347.3866, 6336.482
347.8687, 6363.695
348.3509, 6403.904
348.8330, 6457.542
349.3151, 6507.014
349.7972, 6537.802
350.2793, 6561.757
350.7614, 6601.858
351.2436, 6664.525
351.7257, 6734.045
352.2078, 6804.945
352.6899, 6875.500
353.1720, 6935.318
353.6541, 6976.911
354.1363, 7010.627
354.6184, 7055.219
355.1005, 7111.384
355.5826, 7172.387
356.0647, 7243.788
356.5468, 7316.801
357.0290, 7375.565
357.5111, 7415.724
357.9932, 7444.225
358.4753, 7471.840
358.9574, 7501.858
359.4395, 7512.978
359.9217, 7505.228
360.4038, 7476.216
360.8859, 7414.688
361.3680, 7321.872
361.8501, 7226.689
362.3322, 7158.353
362.8144, 7120.725
363.2965, 7061.463
363.7786, 6953.626
364.2607, 6850.776
364.7428, 6783.672
365.2249, 6747.338
365.7071, 6719.758
366.1892, 6686.020
366.6713, 6648.257
367.1534, 6626.362
367.6355, 6630.012
368.1176, 6637.108
368.5998, 6641.783
369.0819, 6647.344
369.5640, 6659.182
370.0461, 6679.671
370.5282, 6706.877
371.0103, 6736.164
371.4925, 6772.961
371.9746, 6802.994
372.4567, 6825.021
372.9388, 6840.805
373.4209, 6849.877
373.9030, 6852.851
374.3852, 6853.274
374.8673, 6854.902
375.3494, 6855.771
375.8315, 6864.067
376.3136, 6892.447
376.7957, 6917.146
377.2779, 6925.798
377.7600, 6919.400
378.2421, 6906.813
378.7242, 6897.313
379.2064, 6890.144
379.6885, 6866.573
380.1706, 6810.456
380.6527, 6758.514
381.1348, 6727.183
381.6169, 6708.905
382.0991, 6691.401
382.5812, 6671.341
383.0633, 6645.327
383.5454, 6600.792
384.0275, 6527.699
384.5096, 6466.704
384.9918, 6448.042
385.4739, 6443.370
385.9560, 6425.670
386.4381, 6387.763
386.9202, 6340.587
387.4023, 6289.254
387.8845, 6234.693
388.3666, 6192.763
388.8487, 6176.786
389.3308, 6165.505
389.8129, 6132.925
390.2950, 6077.836
390.7772, 6022.236
391.2593, 5971.475
391.7414, 5928.156
392.2235, 5900.368
392.7056, 5892.131
393.1877, 5887.154
393.6699, 5868.447
394.1520, 5837.223
394.6341, 5809.510
395.1162, 5789.239
395.5983, 5771.859
396.0804, 5752.477
396.5626, 5731.679
397.0447, 5714.517
397.5268, 5704.817
398.0089, 5701.572
398.4910, 5697.601
398.9731, 5689.455
399.4553, 5684.546
399.9374, 5689.314
400.4195, 5698.087
400.9016, 5701.141
401.3837, 5694.411
401.8658, 5681.261
402.3480, 5668.219
402.8301, 5646.140
403.3122, 5639.460
403.7943, 5656.723
404.2764, 5683.098
404.7585, 5709.819
405.2407, 5734.119
405.7228, 5754.522
406.2049, 5767.289
406.6870, 5769.316
407.1691, 5783.865
407.6512, 5815.772
408.1334, 5855.580
408.6155, 5904.875
409.0976, 5959.545
409.5797, 6011.416
410.0618, 6054.407
410.5439, 6091.672
411.0261, 6134.601
411.5082, 6182.591
411.9903, 6237.580
412.4724, 6302.854
412.9545, 6372.999
413.4366, 6440.666
413.9188, 6502.843
414.4009, 6568.670
414.8830, 6653.489
415.3651, 6758.125
415.8472, 6854.201
416.3293, 6929.985
416.8115, 7000.004
417.2936, 7084.384
417.7757, 7181.598
418.2578, 7257.930
418.7399, 7297.142
419.2220, 7302.078
419.7042, 7275.168
420.1863, 7214.356
420.6684, 7133.431
421.1505, 7042.164
421.6326, 6939.168
422.1147, 6817.081
422.5969, 6656.147
423.0790, 6492.737
423.5611, 6338.941
424.0432, 6200.647
424.5253, 6102.032
425.0074, 6062.780
425.4896, 6060.775
425.9717, 6029.187
426.4538, 5938.447
426.9359, 5868.487
427.4180, 5845.554
427.9001, 5844.520
428.3823, 5838.024
428.8644, 5819.199
429.3465, 5795.549
429.8286, 5775.394
430.3107, 5755.500
430.7928, 5752.092
431.2750, 5770.676
431.7571, 5796.999
432.2392, 5825.973
432.7213, 5856.874
433.2034, 5891.662
433.6855, 5933.008
434.1677, 5977.806
434.6498, 6008.086
435.1319, 6001.490
435.6140, 6015.670
436.0961, 6077.778
436.5782, 6156.683
437.0604, 6218.565
437.5425, 6252.419
438.0246, 6279.662
438.5067, 6332.112
438.9888, 6412.405
439.4709, 6478.202
439.9531, 6515.373
440.4352, 6543.019
440.9173, 6570.573
441.3994, 6599.664
441.8815, 6639.703
442.3636, 6698.168
442.8458, 6770.172
443.3279, 6847.327
443.8100, 6928.737
444.2921, 7016.233
444.7742, 7106.801
445.2563, 7205.642
445.7385, 7323.258
446.2206, 7457.126
446.7027, 7613.249
447.1848, 7802.680
447.6669, 8016.273
448.1490, 8231.528
448.6312, 8437.934
449.1133, 8647.780
449.5954, 8886.354
450.0775, 9181.882
450.5596, 9444.521
451.0417, 9656.600
451.5239, 9844.009
452.0060, 10031.56
452.4881, 10217.28
452.9702, 10378.95
453.4523, 10495.11
453.9344, 10565.49
454.4166, 10636.30
454.8987, 10729.25
455.3808, 10798.31
455.8629, 10826.31
456.3450, 10826.85
456.8271, 10819.27
457.3093, 10811.83
457.7914, 10797.01
458.2735, 10763.55
458.7556, 10712.80
459.2377, 10636.91
459.7198, 10521.73
460.2020, 10389.27
460.6841, 10247.96
461.1662, 10099.85
461.6483, 9949.705
462.1305, 9805.758
462.6126, 9661.872
463.0947, 9498.804
463.5768, 9310.624
464.0589, 9118.580
464.5410, 8933.307
465.0232, 8753.687
465.5053, 8577.160
465.9874, 8400.975
466.4695, 8230.482
466.9516, 8070.213
467.4337, 7918.575
467.9159, 7775.104
468.3980, 7640.443
468.8801, 7508.193
469.3622, 7366.662
469.8443, 7203.624
470.3264, 7062.439
470.8086, 6958.000
471.2907, 6866.145
471.7728, 6769.728
472.2549, 6668.540
472.7370, 6572.170
473.2191, 6488.875
473.7013, 6417.560
474.1834, 6342.824
474.6655, 6256.159
475.1476, 6177.085
475.6297, 6109.648
476.1118, 6051.135
476.5940, 5998.145
477.0761, 5949.662
477.5582, 5905.526
478.0403, 5868.200
478.5224, 5839.456
479.0045, 5800.571
479.4867, 5744.574
479.9688, 5682.424
480.4509, 5617.466
480.9330, 5552.055
481.4151, 5493.762
481.8972, 5448.698
482.3794, 5411.760
482.8615, 5376.985
483.3436, 5344.558
483.8257, 5308.351
484.3078, 5263.765
484.7899, 5214.279
485.2721, 5168.441
485.7542, 5124.963
486.2363, 5087.737
486.7184, 5060.822
487.2005, 5039.898
487.6826, 5019.206
488.1648, 4997.574
488.6469, 4977.118
489.1290, 4960.231
489.6111, 4947.388
490.0932, 4935.469
490.5753, 4926.690
491.0575, 4916.410
491.5396, 4901.402
492.0217, 4884.020
492.5038, 4867.964
492.9859, 4855.177
493.4680, 4844.942
493.9502, 4836.658
494.4323, 4832.648
494.9144, 4823.875
495.3965, 4806.807
495.8786, 4786.295
496.3607, 4761.843
496.8429, 4735.198
497.3250, 4714.004
497.8071, 4702.939
498.2892, 4701.422
498.7713, 4712.114
499.2534, 4739.400
499.7356, 4758.384
500.2177, 4751.530
500.6998, 4726.783
501.1819, 4702.870
501.6640, 4677.545
502.1461, 4658.442
502.6283, 4651.044
503.1104, 4652.000
503.5925, 4656.151
504.0746, 4662.243
504.5567, 4668.040
505.0388, 4671.109
505.5210, 4671.403
506.0031, 4668.335
506.4852, 4660.479
506.9673, 4651.114
507.4494, 4636.884
507.9315, 4622.799
508.4137, 4619.458
508.8958, 4633.077
509.3779, 4656.321
509.8600, 4671.545
510.3421, 4676.664
510.8242, 4678.915
511.3064, 4673.149
511.7885, 4669.537
512.2706, 4675.400
512.7527, 4690.332
513.2349, 4707.663
513.7170, 4721.842
514.1991, 4735.088
514.6812, 4754.883
515.1633, 4782.716
515.6454, 4808.351
516.1276, 4818.218
516.6097, 4825.349
517.0918, 4859.328
517.5739, 4934.685
518.0560, 5010.687
518.5381, 5070.146
519.0203, 5118.981
519.5024, 5164.614
519.9845, 5208.987
520.4666, 5254.990
520.9487, 5303.097
521.4308, 5350.526
521.9130, 5427.707
522.3951, 5549.444
522.8772, 5680.354
523.3593, 5812.252
523.8414, 5944.494
524.3235, 6077.919
524.8057, 6212.282
525.2878, 6347.960
525.7699, 6476.619
526.2520, 6588.094
526.7341, 6743.752
527.2162, 6980.499
527.6984, 7235.132
528.1805, 7467.353
528.6626, 7683.536
529.1447, 7916.642
529.6268, 8179.264
530.1089, 8468.318
530.5911, 8786.136
531.0732, 9131.711
531.5553, 9481.806
532.0374, 9833.683
532.5195, 10179.03
533.0016, 10509.22
533.4838, 10845.56
533.9659, 11110.63
534.4480, 11292.80
534.9301, 11396.74
535.4122, 11425.95
535.8943, 11382.25
536.3765, 11267.03
536.8586, 11075.37
537.3407, 10814.01
537.8228, 10535.92
538.3049, 10246.77
538.7870, 9928.703
539.2692, 9555.561
539.7513, 9166.439
540.2334, 8792.421
540.7155, 8441.875
541.1976, 8117.621
541.6797, 7827.945
542.1619, 7568.598
542.6440, 7314.237
543.1261, 7054.231
543.6082, 6821.878
544.0903, 6653.115
544.5724, 6525.555
545.0546, 6396.955
545.5367, 6255.354
546.0188, 6121.034
546.5009, 6008.194
546.9830, 5909.890
547.4651, 5812.020
547.9473, 5710.119
548.4294, 5615.429
548.9115, 5540.818
549.3936, 5489.011
549.8757, 5443.661
550.3578, 5409.138
550.8400, 5375.224
551.3221, 5340.597
551.8042, 5303.410
552.2863, 5257.496
552.7684, 5200.007
553.2505, 5144.624
553.7327, 5117.898
554.2148, 5125.100
554.6969, 5121.625
555.1790, 5092.745
555.6611, 5063.353
556.1432, 5052.510
556.6254, 5054.802
557.1075, 5051.802
557.5896, 5031.155
558.0717, 5007.068
558.5538, 4996.731
559.0359, 4996.929
559.5181, 4989.476
560.0002, 4965.141
560.4823, 4937.715
560.9644, 4931.266
561.4465, 4957.671
561.9286, 4972.396
562.4108, 4965.864
562.8929, 4955.723
563.3750, 4951.706
563.8571, 4953.067
564.3392, 4955.702
564.8214, 4957.428
565.3035, 4958.143
565.7856, 4956.970
566.2677, 4952.248
566.7498, 4950.683
567.2319, 4957.387
567.7141, 4964.322
568.1962, 4965.719
568.6783, 4962.356
569.1604, 4959.905
569.6425, 4964.189
570.1246, 4969.559
570.6068, 4965.417
571.0889, 4952.603
571.5710, 4945.077
572.0531, 4950.842
572.5352, 4962.620
573.0173, 4965.481
573.4995, 4956.204
573.9816, 4947.363
574.4637, 4935.888
574.9458, 4928.634
575.4279, 4934.101
575.9100, 4948.969
576.3922, 4962.470
576.8743, 4968.001
577.3564, 4966.125
577.8385, 4954.719
578.3206, 4919.869
578.8027, 4909.796
579.2849, 4965.820
579.7670, 5024.974
580.2491, 5043.850
580.7312, 5023.736
581.2133, 4998.385
581.6954, 4980.832
582.1776, 4972.036
582.6597, 4979.620
