##NAMES=Marialite
##RRUFFID=R060469
##IDEAL CHEMISTRY=Na_4_Al_3_Si_9_O_24_Cl
##LOCALITY=Mpwa-Mpwa mine, Umba Valley, near Arusha, Tanzania
##OWNER=RRUFF
##SOURCE=Michael Scott
##DESCRIPTION=Yellow tetragonal prism with pronounced striations along the c-axis direction
##STATUS=The identification of this mineral has been confirmed by X-ray diffraction and chemical analysis
##URL=rruff.info/R060469
##MEASURED CHEMISTRY=(Na_0.66_Ca_0.27_K_0.07_)_4_(Si_0.68_Al_0.32_)_12_O_24_(Cl_0.75_(CO_3_)_0.25_)
91.72394, 0.0000000E+00
92.20605, 228.3754
92.68817, 222.3535
93.17029, 221.2099
93.65240, 225.4819
94.13452, 232.1866
94.61664, 238.2778
95.09875, 242.9526
95.58087, 246.5270
96.06299, 249.1461
96.54510, 250.4942
97.02721, 251.3141
97.50933, 252.1046
97.99145, 252.6623
98.47356, 252.6667
98.95568, 251.7447
99.43780, 249.5314
99.91991, 246.9705
100.4020, 243.7051
100.8841, 240.5724
101.3663, 237.8680
101.8484, 235.5624
102.3305, 233.4645
102.8126, 231.3627
103.2947, 229.1866
103.7768, 227.4133
104.2590, 226.1724
104.7411, 225.2282
105.2232, 224.3987
105.7053, 223.6623
106.1874, 222.9036
106.6695, 221.9363
107.1517, 220.7784
107.6338, 219.4584
108.1159, 218.0014
108.5980, 216.3897
109.0801, 214.5495
109.5622, 212.4840
110.0444, 210.0971
110.5265, 207.0886
111.0086, 203.3977
111.4907, 199.9104
111.9728, 197.9295
112.4549, 198.1636
112.9371, 197.4591
113.4192, 194.2540
113.9013, 190.5279
114.3834, 187.7089
114.8655, 186.3564
115.3476, 185.9789
115.8298, 185.2933
116.3119, 183.8286
116.7940, 182.6173
117.2761, 181.8378
117.7582, 181.3425
118.2403, 180.9167
118.7225, 180.4216
119.2046, 179.8850
119.6867, 179.6738
120.1688, 179.8202
120.6509, 180.1713
121.1330, 180.8748
121.6152, 181.8049
122.0973, 182.5391
122.5794, 182.6985
123.0615, 182.2668
123.5436, 181.9669
124.0257, 181.8822
124.5079, 181.8785
124.9900, 181.9310
125.4721, 182.0822
125.9542, 182.0029
126.4363, 181.0427
126.9184, 179.5563
127.4006, 178.4067
127.8827, 178.2136
128.3648, 178.6445
128.8469, 178.6931
129.3290, 178.2227
129.8111, 177.4001
130.2932, 176.2250
130.7754, 174.7947
131.2575, 173.4370
131.7396, 172.4592
132.2217, 171.9094
132.7038, 171.3169
133.1859, 170.5791
133.6681, 169.8596
134.1502, 169.2479
134.6323, 168.7435
135.1144, 168.2785
135.5965, 167.7399
136.0786, 166.9870
136.5608, 166.4601
137.0429, 166.0471
137.5250, 165.8736
138.0071, 166.1523
138.4892, 166.9154
138.9713, 167.8860
139.4535, 168.4768
139.9356, 168.3858
140.4177, 168.3112
140.8998, 168.2866
141.3819, 168.2992
141.8640, 168.2292
142.3462, 167.9469
142.8283, 167.7495
143.3104, 168.5672
143.7925, 170.8250
144.2746, 173.0919
144.7567, 174.7157
145.2388, 175.8278
145.7210, 177.0069
146.2031, 178.5662
146.6852, 180.3445
147.1673, 181.9620
147.6494, 183.2071
148.1315, 184.5759
148.6137, 186.7005
149.0958, 189.7172
149.5779, 192.5439
150.0600, 194.4129
150.5421, 195.9207
151.0242, 197.6310
151.5064, 199.7774
151.9885, 202.1464
152.4706, 204.2154
152.9527, 205.6800
153.4348, 207.4742
153.9169, 210.4421
154.3991, 213.7083
154.8812, 216.1343
155.3633, 216.9325
155.8454, 216.4416
156.3275, 216.7285
156.8096, 218.8675
157.2918, 220.7130
157.7739, 221.6552
158.2560, 222.0011
158.7381, 222.3757
159.2202, 223.3067
159.7023, 224.8326
160.1845, 225.3913
160.6666, 224.6428
161.1487, 223.4218
161.6308, 221.9666
162.1129, 220.2959
162.5950, 218.3226
163.0772, 215.9579
163.5593, 213.1265
164.0414, 210.3075
164.5235, 207.7135
165.0056, 204.9913
165.4877, 201.8493
165.9698, 198.2707
166.4520, 194.5745
166.9341, 191.0545
167.4162, 187.7198
167.8983, 184.4256
168.3804, 181.0159
168.8625, 177.6796
169.3447, 174.7439
169.8268, 172.3367
170.3089, 170.0067
170.7910, 167.2169
171.2731, 164.1018
171.7552, 161.1290
172.2374, 158.4112
172.7195, 155.9749
173.2016, 153.9083
173.6837, 152.2686
174.1658, 150.9787
174.6479, 149.9035
175.1301, 149.0449
175.6122, 148.4102
176.0943, 148.1352
176.5764, 148.1969
177.0585, 148.0472
177.5406, 147.3800
178.0228, 146.7412
178.5049, 146.4743
178.9870, 146.5150
179.4691, 146.5429
179.9512, 146.1160
180.4333, 145.0112
180.9155, 144.5000
181.3976, 145.2427
181.8797, 146.0359
182.3618, 146.2682
182.8439, 145.9322
183.3260, 145.4570
183.8082, 145.3992
184.2903, 146.0240
184.7724, 146.3752
185.2545, 146.2038
185.7366, 145.9984
186.2187, 146.1582
186.7009, 146.7160
187.1830, 147.3268
187.6651, 147.4884
188.1472, 146.9472
188.6293, 146.4257
189.1114, 146.0205
189.5936, 145.5863
190.0757, 144.9217
190.5578, 143.9849
191.0399, 143.0187
191.5220, 142.4446
192.0041, 142.4552
192.4863, 142.3274
192.9684, 141.8588
193.4505, 141.2538
193.9326, 140.7784
194.4147, 140.5195
194.8968, 140.3637
195.3790, 140.1820
195.8611, 140.0213
196.3432, 139.6406
196.8253, 138.7434
197.3074, 137.5794
197.7895, 136.6687
198.2717, 136.1301
198.7538, 135.9437
199.2359, 136.1903
199.7180, 136.8872
200.2001, 137.4206
200.6822, 137.3447
201.1644, 136.7829
201.6465, 136.3171
202.1286, 136.0036
202.6107, 135.9333
203.0928, 136.2518
203.5749, 136.9487
204.0571, 137.5923
204.5392, 137.8215
205.0213, 137.6431
205.5034, 137.4382
205.9855, 137.2750
206.4676, 137.0943
206.9497, 136.8407
207.4319, 136.5201
207.9140, 136.2060
208.3961, 135.9904
208.8782, 135.8959
209.3603, 135.7584
209.8424, 135.3877
210.3246, 135.1004
210.8067, 135.1637
211.2888, 135.5507
211.7709, 135.9357
212.2530, 135.8252
212.7351, 134.8996
213.2173, 134.5073
213.6994, 135.0553
214.1815, 135.7915
214.6636, 136.3290
215.1457, 136.6078
215.6278, 136.8024
216.1100, 137.1399
216.5921, 137.6904
217.0742, 138.2196
217.5563, 138.9377
218.0384, 139.4944
218.5205, 139.6100
219.0027, 139.2716
219.4848, 138.7187
219.9669, 138.2503
220.4490, 137.8249
220.9311, 137.6387
221.4132, 138.2035
221.8954, 138.6432
222.3775, 138.1794
222.8596, 136.7281
223.3417, 134.9292
223.8238, 133.5794
224.3059, 132.8433
224.7881, 132.2169
225.2702, 131.8030
225.7523, 131.4345
226.2344, 130.9837
226.7165, 130.4239
227.1986, 129.7867
227.6807, 129.1122
228.1629, 128.4088
228.6450, 127.5983
229.1271, 126.6028
229.6092, 125.5346
230.0913, 124.4932
230.5734, 123.4953
231.0556, 122.5731
231.5377, 121.8164
232.0198, 121.2240
232.5019, 120.5492
232.9840, 119.5846
233.4661, 118.5911
233.9483, 117.9198
234.4304, 117.6447
234.9125, 117.5133
235.3946, 117.2571
235.8767, 116.9219
236.3588, 116.7426
236.8410, 117.0420
237.3231, 117.4440
237.8052, 117.2779
238.2873, 116.3320
238.7694, 115.3884
239.2515, 115.2440
239.7337, 115.5920
240.2158, 115.7722
240.6979, 115.2900
241.1800, 114.5614
241.6621, 114.4107
242.1442, 115.0030
242.6264, 115.7597
243.1085, 116.4173
243.5906, 116.9756
244.0727, 117.4108
244.5548, 117.6999
245.0369, 117.8639
245.5191, 117.8901
246.0012, 117.6489
246.4833, 117.5874
246.9654, 117.8852
247.4475, 118.4773
247.9296, 119.3452
248.4117, 120.5931
248.8939, 121.9987
249.3760, 123.0734
249.8581, 123.7129
250.3402, 124.2140
250.8223, 124.3477
251.3044, 124.5309
251.7866, 125.3120
252.2687, 127.0129
252.7508, 129.2168
253.2329, 130.9615
253.7150, 131.9262
254.1971, 133.0660
254.6793, 134.5771
255.1614, 136.3581
255.6435, 138.4144
256.1256, 140.7627
256.6077, 143.1789
257.0898, 145.1798
257.5720, 146.5277
258.0541, 147.8941
258.5362, 149.5504
259.0183, 151.1804
259.5004, 152.5161
259.9825, 153.4616
260.4647, 154.1362
260.9468, 154.8075
261.4289, 155.7666
261.9110, 156.0903
262.3931, 155.6855
262.8752, 154.7779
263.3574, 153.4750
263.8395, 151.8257
264.3216, 149.9301
264.8037, 147.9573
265.2858, 146.0790
265.7679, 143.7249
266.2501, 140.5898
266.7322, 137.2865
267.2143, 134.1686
267.6964, 131.3396
268.1785, 128.7635
268.6606, 126.4162
269.1428, 124.3919
269.6249, 122.3870
270.1070, 120.1969
270.5891, 118.1744
271.0712, 116.6209
271.5533, 115.5135
272.0355, 114.5609
272.5176, 113.4482
272.9997, 112.1523
273.4818, 110.8102
273.9639, 109.1410
274.4460, 107.6734
274.9282, 106.7888
275.4103, 106.4115
275.8924, 106.1542
276.3745, 105.6451
276.8566, 104.8206
277.3387, 104.3765
277.8208, 104.6247
278.3029, 104.8595
278.7851, 104.7442
279.2672, 104.3422
279.7493, 103.9046
280.2314, 103.6091
280.7135, 103.4533
281.1956, 103.3622
281.6778, 103.2143
282.1599, 103.2396
282.6420, 103.6408
283.1241, 104.2787
283.6062, 104.8708
284.0883, 105.2594
284.5705, 105.4543
285.0526, 105.4823
285.5347, 105.1480
286.0168, 104.8990
286.4989, 104.8378
286.9810, 104.9314
287.4632, 105.1393
287.9453, 105.4531
288.4274, 105.8319
288.9095, 106.1667
289.3916, 106.4823
289.8737, 106.7214
290.3559, 106.7409
290.8380, 106.7159
291.3201, 106.9342
291.8022, 107.5073
292.2843, 108.2057
292.7664, 108.5956
293.2486, 108.4597
293.7307, 108.5363
294.2128, 108.9020
294.6949, 109.5127
295.1770, 110.4071
295.6591, 111.5933
296.1413, 112.8365
296.6234, 113.8850
297.1055, 114.7568
297.5876, 115.2247
298.0697, 115.3096
298.5518, 114.9694
299.0340, 114.0232
299.5161, 112.4964
299.9982, 110.8059
300.4803, 109.3184
300.9624, 108.0608
301.4445, 106.8262
301.9267, 105.5054
302.4088, 104.3031
302.8909, 103.3938
303.3730, 102.7523
303.8551, 102.1521
304.3372, 101.4034
304.8194, 100.5534
305.3015, 99.96194
305.7836, 99.85851
306.2657, 99.75404
306.7478, 99.36607
307.2299, 98.77794
307.7121, 98.25517
308.1942, 97.94561
308.6763, 97.78639
309.1584, 97.54932
309.6405, 97.03127
310.1227, 96.74488
310.6048, 97.02722
311.0869, 97.63539
311.5690, 98.07565
312.0511, 98.13060
312.5332, 98.05397
313.0154, 98.42040
313.4975, 99.48357
313.9796, 100.1627
314.4617, 99.88337
314.9438, 99.23813
315.4259, 99.02749
315.9081, 99.45646
316.3902, 100.1164
316.8723, 100.5102
317.3544, 100.5876
317.8365, 100.7147
318.3186, 100.9304
318.8007, 101.2015
319.2828, 101.4517
319.7650, 101.6866
320.2471, 102.0767
320.7292, 102.8372
321.2113, 103.9670
321.6934, 104.8260
322.1755, 105.2760
322.6577, 105.5901
323.1398, 105.8225
323.6219, 106.0307
324.1040, 106.4597
324.5861, 107.3425
325.0682, 108.5302
325.5504, 109.2343
326.0325, 109.1250
326.5146, 108.9846
326.9967, 108.9867
327.4788, 109.1593
327.9609, 109.6024
328.4431, 110.3964
328.9252, 111.3840
329.4073, 112.2028
329.8894, 112.8126
330.3715, 113.3741
330.8536, 113.9219
331.3358, 114.4326
331.8179, 114.7806
332.3000, 114.9283
332.7821, 115.2090
333.2642, 116.2055
333.7463, 118.3387
334.2285, 119.5223
334.7106, 118.8401
335.1927, 117.7562
335.6748, 117.4011
336.1569, 117.8829
336.6390, 118.7295
337.1212, 119.5874
337.6033, 120.4591
338.0854, 121.1387
338.5675, 121.6429
339.0496, 121.9747
339.5317, 122.0217
340.0139, 121.8831
340.4960, 121.8034
340.9781, 121.9145
341.4602, 122.2119
341.9423, 122.6965
342.4244, 123.7730
342.9066, 124.5246
343.3887, 124.4462
343.8708, 124.0142
344.3529, 123.9287
344.8350, 124.4601
345.3171, 125.3550
345.7993, 126.1424
346.2814, 126.7879
346.7635, 127.3657
347.2456, 127.8003
347.7277, 128.2093
348.2098, 128.6460
348.6920, 129.1370
349.1741, 129.7597
349.6562, 130.5915
350.1383, 131.6528
350.6204, 132.8878
351.1025, 134.5921
351.5847, 136.1705
352.0668, 137.2192
352.5489, 137.8532
353.0310, 138.4609
353.5131, 139.3157
353.9952, 140.3904
354.4774, 141.4306
354.9595, 142.1758
355.4416, 143.1831
355.9237, 144.7759
356.4058, 146.6296
356.8879, 148.3314
357.3701, 149.6926
357.8522, 150.7957
358.3343, 151.8594
358.8164, 153.1122
359.2985, 153.9299
359.7806, 154.1846
360.2627, 154.1215
360.7448, 153.9410
361.2270, 153.6710
361.7091, 153.1884
362.1912, 152.3101
362.6733, 150.9283
363.1554, 149.6220
363.6375, 148.4855
364.1197, 147.3326
364.6018, 145.9682
365.0839, 144.5098
365.5660, 143.2737
366.0481, 142.5040
366.5302, 142.1449
367.0124, 141.7613
367.4945, 141.2464
367.9766, 140.8544
368.4587, 140.7088
368.9408, 140.6792
369.4229, 140.6223
369.9051, 140.4801
370.3872, 140.2796
370.8693, 140.0373
371.3514, 139.6611
371.8335, 139.4944
372.3156, 139.7487
372.7978, 140.0828
373.2799, 140.2625
373.7620, 140.2764
374.2441, 140.3038
374.7262, 140.6265
375.2083, 141.2737
375.6905, 141.5077
376.1726, 140.9288
376.6547, 140.3690
377.1368, 140.2488
377.6189, 140.4143
378.1010, 140.5212
378.5832, 140.3551
379.0653, 140.0212
379.5474, 139.7745
380.0295, 139.5848
380.5116, 139.5681
380.9937, 140.0937
381.4759, 140.6549
381.9580, 140.6807
382.4401, 139.9744
382.9222, 139.0893
383.4043, 138.6632
383.8864, 138.6898
384.3686, 138.5900
384.8507, 138.1772
385.3328, 137.6584
385.8149, 137.3103
386.2970, 137.0913
386.7791, 136.6089
387.2613, 135.2535
387.7434, 133.5278
388.2255, 132.7517
388.7076, 133.2477
389.1897, 133.8855
389.6718, 133.8598
390.1540, 133.4017
390.6361, 132.9317
391.1182, 132.4894
391.6003, 132.1102
392.0824, 131.9091
392.5645, 131.8524
393.0467, 131.6288
393.5288, 131.0626
394.0109, 130.3018
394.4930, 129.5675
394.9751, 128.7830
395.4572, 128.2835
395.9394, 128.4660
396.4215, 128.9502
396.9036, 129.0550
397.3857, 128.6161
397.8678, 128.0404
398.3499, 127.7784
398.8321, 127.8543
399.3142, 127.7321
399.7963, 127.0174
400.2784, 126.3975
400.7605, 126.5368
401.2426, 127.2679
401.7247, 127.8067
402.2068, 127.6549
402.6890, 126.9803
403.1711, 126.5316
403.6532, 126.3709
404.1353, 126.3175
404.6174, 126.4035
405.0995, 126.5553
405.5817, 126.7081
406.0638, 126.8373
406.5459, 126.8965
407.0280, 126.7887
407.5101, 126.3673
407.9922, 126.2731
408.4744, 126.7595
408.9565, 127.3043
409.4386, 127.6494
409.9207, 127.8000
410.4028, 127.8724
410.8849, 127.9493
411.3671, 128.0226
411.8492, 128.0235
412.3313, 127.6332
412.8134, 127.5865
413.2955, 128.2148
413.7776, 129.1182
414.2598, 129.8450
414.7419, 130.2547
415.2240, 130.5902
415.7061, 131.3252
416.1882, 132.7445
416.6703, 133.5700
417.1525, 133.1217
417.6346, 132.5947
418.1167, 132.5540
418.5988, 132.9220
419.0809, 133.2965
419.5630, 133.3739
420.0452, 133.2385
420.5273, 133.2512
421.0094, 133.4520
421.4915, 133.7231
421.9736, 134.3411
422.4557, 134.8639
422.9379, 134.6507
423.4200, 133.4239
423.9021, 132.0663
424.3842, 131.6242
424.8663, 132.0565
425.3484, 132.2839
425.8306, 131.9622
426.3127, 131.5258
426.7948, 131.3397
427.2769, 131.3829
427.7590, 131.5380
428.2411, 131.8183
428.7233, 132.1547
429.2054, 132.4300
429.6875, 132.6358
430.1696, 132.8521
430.6517, 133.0976
431.1339, 133.4032
431.6160, 133.8122
432.0981, 134.2674
432.5802, 134.9186
433.0623, 135.9258
433.5444, 137.1704
434.0266, 138.3800
434.5087, 139.4496
434.9908, 140.5887
435.4729, 142.1126
435.9550, 144.1299
436.4371, 146.0682
436.9193, 147.9617
437.4014, 149.7298
437.8835, 151.1234
438.3656, 152.2848
438.8477, 153.7603
439.3298, 155.9576
439.8120, 158.7005
440.2941, 160.9895
440.7762, 161.9755
441.2583, 163.5715
441.7404, 166.2856
442.2225, 169.5318
442.7046, 172.7765
443.1867, 175.8435
443.6689, 178.7860
444.1510, 181.5233
444.6331, 183.8264
445.1152, 187.1197
445.5973, 192.2812
446.0794, 197.5659
446.5616, 201.7714
447.0437, 205.6967
447.5258, 211.0296
448.0079, 218.8005
448.4900, 228.1748
448.9721, 237.0160
449.4543, 244.8885
449.9364, 253.4725
450.4185, 263.8752
450.9006, 274.7088
451.3827, 285.1500
451.8648, 295.0809
452.3470, 304.6802
452.8291, 314.4778
453.3112, 324.1538
453.7933, 331.9368
454.2754, 337.3951
454.7575, 341.6769
455.2397, 345.4329
455.7218, 348.5379
456.2039, 350.5848
456.6860, 351.2113
457.1681, 351.1284
457.6502, 351.2431
458.1324, 351.2693
458.6145, 349.9120
459.0966, 346.7406
459.5787, 342.0128
460.0608, 335.7348
460.5429, 327.8881
461.0251, 319.7479
461.5072, 311.7130
461.9893, 303.3860
462.4714, 294.2213
462.9535, 284.3205
463.4356, 274.3857
463.9178, 264.7685
464.3999, 255.5235
464.8820, 246.6626
465.3641, 238.2310
465.8462, 230.0898
466.3283, 222.0217
466.8105, 214.2576
467.2926, 207.0710
467.7747, 200.4891
468.2568, 194.4277
468.7389, 188.8321
469.2210, 183.7154
469.7032, 178.6847
470.1853, 173.6367
470.6674, 168.7833
471.1495, 164.0761
471.6316, 159.6457
472.1137, 155.7676
472.5959, 152.5919
473.0780, 149.8593
473.5601, 147.1112
474.0422, 144.3465
474.5243, 141.5929
475.0064, 138.9744
475.4886, 136.2771
475.9707, 133.0322
476.4528, 129.4619
476.9349, 126.5769
477.4170, 125.4776
477.8991, 125.4177
478.3813, 124.6417
478.8634, 123.0404
479.3455, 121.3711
479.8276, 119.9717
480.3097, 118.7683
480.7918, 117.6313
481.2740, 116.5781
481.7561, 115.5336
482.2382, 114.3644
482.7203, 113.2015
483.2024, 112.3427
483.6845, 111.8590
484.1666, 111.4411
484.6487, 110.8261
485.1309, 110.0006
485.6130, 108.9801
486.0951, 107.2706
486.5772, 105.9018
487.0593, 105.5206
487.5414, 105.7429
488.0236, 105.8753
488.5057, 105.6404
488.9878, 105.2100
489.4699, 104.9098
489.9520, 104.9283
490.4341, 104.5902
490.9163, 103.5280
491.3984, 102.5131
491.8805, 102.0413
492.3626, 101.9490
492.8447, 101.7469
493.3268, 101.0932
493.8090, 100.2014
494.2911, 99.70598
494.7732, 99.70872
495.2553, 99.83681
495.7374, 100.2451
496.2195, 100.5807
496.7017, 100.4960
497.1838, 100.0071
497.6659, 99.56315
498.1480, 99.58977
498.6301, 99.89500
499.1122, 99.94913
499.5944, 99.71150
500.0765, 99.31660
500.5586, 98.69798
501.0407, 98.01546
501.5228, 97.58976
502.0049, 97.47359
502.4871, 97.53013
502.9692, 97.83647
503.4513, 98.23241
503.9334, 98.42491
504.4155, 98.34895
504.8976, 98.12735
505.3798, 97.84296
505.8619, 97.48507
506.3440, 97.32244
506.8261, 97.56013
507.3082, 97.74454
507.7903, 97.67243
508.2725, 97.45072
508.7546, 97.21548
509.2367, 97.02444
509.7188, 96.93511
510.2009, 97.07793
510.6830, 97.58527
511.1652, 97.87746
511.6473, 97.63377
512.1294, 97.49198
512.6115, 97.76413
513.0936, 98.31880
513.5757, 98.84303
514.0579, 99.14567
514.5400, 99.43723
515.0221, 100.2366
515.5042, 101.6664
515.9863, 102.6601
516.4684, 102.6058
516.9506, 102.4018
517.4327, 102.8383
517.9148, 103.8494
518.3969, 104.8824
518.8790, 105.8028
519.3611, 106.5673
519.8433, 106.9514
520.3254, 107.0044
520.8075, 107.4045
521.2896, 108.5428
521.7717, 110.1496
522.2538, 111.6522
522.7360, 113.1993
523.2181, 114.2996
523.7002, 114.2182
524.1823, 114.1027
524.6644, 115.0611
525.1465, 117.0490
525.6287, 119.2867
526.1108, 121.1995
526.5929, 122.8770
527.0750, 124.8503
527.5571, 127.2629
528.0392, 129.7697
528.5214, 132.1328
529.0035, 134.7210
529.4856, 137.7888
529.9677, 141.3849
530.4498, 145.4632
530.9319, 150.1033
531.4141, 155.2006
531.8962, 160.2013
532.3783, 165.0922
532.8604, 169.8808
533.3425, 174.7050
533.8246, 179.3491
534.3068, 183.7681
534.7889, 188.0312
535.2710, 191.4375
535.7531, 193.6538
536.2352, 194.6793
536.7173, 194.5283
537.1995, 193.2007
537.6816, 190.6415
538.1637, 186.4806
538.6458, 181.0024
539.1279, 176.1418
539.6100, 172.9090
540.0922, 168.9878
540.5743, 162.9655
541.0564, 156.2317
541.5385, 150.4091
542.0206, 145.8677
542.5027, 142.1178
542.9849, 138.7229
543.4670, 135.6854
543.9491, 132.8605
544.4312, 129.9554
544.9133, 127.6790
545.3954, 126.7512
545.8775, 126.2402
546.3596, 125.0323
546.8417, 122.8676
547.3239, 120.5252
547.8060, 118.8546
548.2881, 117.8044
548.7702, 116.8573
549.2523, 115.9911
549.7344, 115.2267
550.2166, 114.5827
550.6987, 114.0511
551.1808, 113.6678
551.6629, 113.5580
552.1450, 113.3267
552.6271, 112.4861
553.1093, 111.3911
553.5914, 110.8257
554.0735, 110.9543
554.5556, 111.3226
555.0377, 111.5700
555.5198, 111.6940
556.0020, 111.6071
556.4841, 111.0181
556.9662, 110.6015
557.4483, 110.5451
557.9304, 110.7508
558.4125, 111.1910
558.8947, 111.8136
559.3768, 112.3824
559.8589, 112.6138
560.3410, 112.4982
560.8231, 112.4133
561.3052, 112.3214
561.7874, 112.3224
562.2695, 112.6229
562.7516, 112.9393
563.2337, 112.8777
563.7158, 112.3223
564.1979, 111.7385
564.6801, 111.4607
565.1622, 111.4737
565.6443, 111.7894
566.1264, 112.4649
566.6085, 113.1608
567.0906, 113.6479
567.5728, 113.9683
568.0549, 114.3197
568.5370, 114.7985
569.0191, 115.1578
569.5012, 115.2224
569.9833, 115.1660
570.4655, 115.1715
570.9476, 115.2814
571.4297, 115.5270
571.9118, 115.9861
572.3939, 116.6118
572.8760, 116.7602
573.3582, 115.6204
573.8403, 115.1248
574.3224, 116.0556
574.8045, 117.3691
575.2866, 118.1540
575.7687, 118.2947
576.2509, 118.2472
576.7330, 118.3842
577.2151, 118.6467
577.6972, 118.8070
578.1793, 118.8533
578.6614, 118.8420
579.1436, 118.7183
579.6257, 118.6040
580.1078, 118.6924
580.5899, 119.0234
581.0720, 119.3373
581.5541, 119.5004
582.0363, 119.6193
582.5184, 119.9436
583.0005, 120.4005
583.4826, 120.4461
583.9647, 119.6604
584.4468, 118.4695
584.9290, 118.1382
585.4111, 119.6043
585.8932, 120.4746
