##NAMES=Marialite
##RRUFFID=R040043
##IDEAL CHEMISTRY=Na_4_Al_3_Si_9_O_24_Cl
##LOCALITY=Gouverneur, New York, USA
##OWNER=RRUFF
##SOURCE=University of Arizona Mineral Museum
##DESCRIPTION=White prismatic crystals
##STATUS=The identification of this mineral has been confirmed by X-ray diffraction and chemical analysis
##URL=rruff.info/R040043
##MEASURED CHEMISTRY=(Na_.493_Ca_.446_K_.061_)_4_(Si_.634_Al_.366_)_12_O_24_((CO_3_)_.581_Cl_.419_)
125.3791, 10200.14
125.8612, 10641.98
126.3433, 11050.20
126.8254, 11402.54
127.3075, 11700.91
127.7896, 11950.00
128.2718, 12137.42
128.7539, 12278.38
129.2360, 12407.73
129.7181, 12527.03
130.2002, 12623.64
130.6823, 12678.14
131.1645, 12692.68
131.6466, 12689.47
132.1287, 12667.68
132.6108, 12632.30
133.0929, 12618.51
133.5750, 12631.76
134.0572, 12663.63
134.5393, 12694.51
135.0214, 12722.83
135.5035, 12760.62
135.9856, 12813.49
136.4677, 12881.33
136.9498, 12973.84
137.4320, 13098.61
137.9141, 13252.22
138.3962, 13401.06
138.8783, 13544.79
139.3604, 13690.16
139.8425, 13848.37
140.3247, 14032.34
140.8068, 14191.52
141.2889, 14304.82
141.7710, 14364.15
142.2531, 14453.70
142.7352, 14585.04
143.2174, 14738.03
143.6995, 14884.46
144.1816, 15024.26
144.6637, 15153.92
145.1458, 15269.86
145.6279, 15369.63
146.1101, 15461.29
146.5922, 15542.75
147.0743, 15615.02
147.5564, 15682.87
148.0385, 15732.21
148.5206, 15788.94
149.0028, 15866.67
149.4849, 16014.00
149.9670, 16123.06
150.4491, 16163.64
150.9312, 16142.13
151.4133, 16160.57
151.8955, 16246.49
152.3776, 16358.86
152.8597, 16470.60
153.3418, 16568.96
153.8239, 16678.29
154.3060, 16810.65
154.7882, 16968.81
155.2703, 17119.27
155.7524, 17254.52
156.2345, 17381.08
156.7166, 17504.26
157.1987, 17618.45
157.6808, 17733.74
158.1630, 17857.16
158.6451, 17993.87
159.1272, 18115.78
159.6093, 18206.49
160.0914, 18274.86
160.5735, 18338.64
161.0557, 18426.23
161.5378, 18494.77
162.0199, 18516.19
162.5020, 18463.45
162.9841, 18397.80
163.4662, 18350.39
163.9484, 18312.32
164.4305, 18253.33
164.9126, 18151.10
165.3947, 18026.87
165.8768, 17898.95
166.3589, 17779.64
166.8411, 17653.08
167.3232, 17507.11
167.8053, 17343.47
168.2874, 17174.67
168.7695, 16987.18
169.2516, 16804.32
169.7338, 16656.08
170.2159, 16589.12
170.6980, 16540.06
171.1801, 16447.79
171.6622, 16308.57
172.1443, 16174.88
172.6265, 16091.32
173.1086, 16042.04
173.5907, 15996.24
174.0728, 15925.98
174.5549, 15855.53
175.0370, 15819.10
175.5192, 15823.87
176.0013, 15841.31
176.4834, 15843.29
176.9655, 15834.40
177.4476, 15830.31
177.9297, 15851.98
178.4118, 15882.65
178.8940, 15886.50
179.3761, 15848.46
179.8582, 15804.05
180.3403, 15807.86
180.8224, 15853.71
181.3046, 15897.98
181.7867, 15889.86
182.2688, 15854.46
182.7509, 15865.82
183.2330, 15956.46
183.7151, 16083.87
184.1973, 16178.55
184.6794, 16239.71
185.1615, 16288.24
185.6436, 16342.94
186.1257, 16400.81
186.6078, 16444.90
187.0900, 16466.18
187.5721, 16472.16
188.0542, 16484.19
188.5363, 16503.09
189.0184, 16522.98
189.5005, 16537.84
189.9827, 16548.05
190.4648, 16557.92
190.9469, 16574.40
191.4290, 16593.25
191.9111, 16589.39
192.3932, 16558.29
192.8754, 16520.83
193.3575, 16505.71
193.8396, 16513.30
194.3217, 16524.91
194.8038, 16534.92
195.2859, 16543.33
195.7681, 16546.04
196.2502, 16541.75
196.7323, 16534.76
197.2144, 16531.91
197.6965, 16533.49
198.1786, 16538.00
198.6607, 16546.84
199.1429, 16560.44
199.6250, 16566.79
200.1071, 16561.67
200.5892, 16552.30
201.0713, 16555.59
201.5534, 16572.07
202.0356, 16596.60
202.5177, 16632.76
202.9998, 16684.54
203.4819, 16706.86
203.9640, 16678.49
204.4461, 16622.20
204.9283, 16630.78
205.4104, 16723.87
205.8925, 16826.73
206.3746, 16885.02
206.8567, 16892.65
207.3388, 16882.97
207.8210, 16853.10
208.3031, 16809.38
208.7852, 16796.81
209.2673, 16829.31
209.7494, 16866.94
210.2315, 16867.63
210.7137, 16814.61
211.1958, 16787.34
211.6779, 16813.50
212.1600, 16889.27
212.6421, 16925.26
213.1242, 16903.31
213.6064, 16867.87
214.0885, 16867.63
214.5706, 16911.04
215.0527, 16964.97
215.5348, 17026.24
216.0169, 17094.50
216.4991, 17144.10
216.9812, 17165.08
217.4633, 17176.67
217.9454, 17207.97
218.4275, 17274.11
218.9096, 17325.87
219.3917, 17348.36
219.8739, 17338.06
220.3560, 17319.42
220.8381, 17291.63
221.3202, 17256.97
221.8023, 17218.09
222.2844, 17174.56
222.7666, 17128.72
223.2487, 17077.89
223.7308, 17015.90
224.2129, 16976.54
224.6950, 16972.86
225.1771, 16984.56
225.6593, 16969.05
226.1414, 16906.33
226.6235, 16848.97
227.1056, 16819.98
227.5877, 16837.31
228.0698, 16833.73
228.5520, 16797.34
229.0341, 16743.57
229.5162, 16712.89
229.9983, 16726.01
230.4804, 16731.47
230.9625, 16702.38
231.4447, 16612.35
231.9268, 16546.91
232.4089, 16514.14
232.8910, 16505.66
233.3731, 16494.27
233.8552, 16482.15
234.3374, 16464.63
234.8195, 16437.94
235.3016, 16393.80
235.7837, 16359.32
236.2658, 16341.86
236.7479, 16335.72
237.2301, 16314.37
237.7122, 16264.80
238.1943, 16217.38
238.6764, 16188.06
239.1585, 16177.15
239.6406, 16186.56
240.1227, 16228.30
240.6049, 16293.51
241.0870, 16329.71
241.5691, 16321.51
242.0512, 16302.64
242.5333, 16293.74
243.0154, 16295.63
243.4976, 16304.29
243.9797, 16316.88
244.4618, 16334.11
244.9439, 16367.19
245.4260, 16423.16
245.9081, 16485.29
246.3903, 16542.22
246.8724, 16593.92
247.3545, 16638.84
247.8366, 16671.50
248.3187, 16694.08
248.8008, 16734.25
249.2830, 16796.20
249.7651, 16872.24
250.2472, 16958.04
250.7293, 17063.21
251.2114, 17160.23
251.6935, 17237.75
252.1757, 17298.11
252.6578, 17393.16
253.1399, 17534.96
253.6220, 17696.51
254.1041, 17855.74
254.5862, 18012.99
255.0684, 18168.09
255.5505, 18317.49
256.0326, 18463.03
256.5147, 18629.66
256.9968, 18830.42
257.4789, 19038.52
257.9611, 19224.67
258.4432, 19377.62
258.9253, 19537.38
259.4074, 19712.87
259.8895, 19904.55
260.3716, 20083.50
260.8538, 20250.18
261.3359, 20402.15
261.8180, 20541.84
262.3001, 20688.79
262.7822, 20772.39
263.2643, 20770.08
263.7465, 20683.77
264.2286, 20579.92
264.7107, 20461.94
265.1928, 20324.89
265.6749, 20164.81
266.1570, 19976.41
266.6392, 19779.17
267.1213, 19578.63
267.6034, 19375.08
268.0855, 19137.88
268.5676, 18846.47
269.0497, 18559.07
269.5318, 18339.99
270.0139, 18209.74
270.4961, 18075.76
270.9782, 17910.29
271.4603, 17717.35
271.9424, 17551.82
272.4245, 17417.48
272.9066, 17302.95
273.3888, 17196.03
273.8709, 17095.57
274.3530, 17009.79
274.8351, 16943.04
275.3172, 16893.92
275.7993, 16848.29
276.2815, 16803.58
276.7636, 16767.90
277.2457, 16755.92
277.7278, 16771.65
278.2099, 16775.99
278.6920, 16755.55
279.1742, 16714.03
279.6563, 16676.68
280.1384, 16642.00
280.6205, 16614.27
281.1026, 16598.89
281.5847, 16596.31
282.0669, 16596.58
282.5490, 16596.71
283.0311, 16597.81
283.5132, 16606.68
283.9953, 16625.12
284.4774, 16644.17
284.9596, 16650.60
285.4417, 16645.28
285.9238, 16649.72
286.4059, 16668.24
286.8880, 16701.18
287.3701, 16752.07
287.8523, 16821.49
288.3344, 16901.07
288.8165, 16985.61
289.2986, 17074.27
289.7807, 17157.87
290.2628, 17232.36
290.7450, 17301.04
291.2271, 17367.77
291.7092, 17432.27
292.1913, 17505.21
292.6734, 17599.46
293.1555, 17711.78
293.6377, 17827.48
294.1198, 17941.69
294.6019, 18060.36
295.0840, 18202.57
295.5661, 18368.63
296.0482, 18524.50
296.5304, 18658.61
297.0125, 18761.07
297.4946, 18809.33
297.9767, 18791.96
298.4588, 18722.70
298.9409, 18609.55
299.4231, 18455.55
299.9052, 18285.58
300.3873, 18110.40
300.8694, 17935.38
301.3515, 17772.44
301.8336, 17620.76
302.3158, 17487.80
302.7979, 17387.77
303.2800, 17317.39
303.7621, 17265.24
304.2442, 17227.65
304.7263, 17201.44
305.2085, 17182.08
305.6906, 17172.72
306.1727, 17163.78
306.6548, 17145.15
307.1369, 17119.36
307.6190, 17094.37
308.1012, 17080.69
308.5833, 17069.19
309.0654, 17047.52
309.5475, 17006.58
310.0296, 16969.30
310.5117, 16952.25
310.9938, 16952.00
311.4760, 16957.99
311.9581, 16971.97
312.4402, 16986.04
312.9223, 16992.83
313.4044, 16989.05
313.8865, 16983.51
314.3687, 16988.10
314.8508, 16994.65
315.3329, 16985.41
315.8150, 16931.17
316.2971, 16873.75
316.7792, 16841.84
317.2614, 16846.20
317.7435, 16855.20
318.2256, 16854.12
318.7077, 16850.48
319.1898, 16857.10
319.6719, 16882.18
320.1541, 16915.04
320.6362, 16953.78
321.1183, 17002.68
321.6004, 17039.85
322.0825, 17049.78
322.5646, 17047.01
323.0468, 17051.74
323.5289, 17065.24
324.0110, 17088.73
324.4931, 17127.45
324.9752, 17187.02
325.4573, 17233.79
325.9395, 17266.37
326.4216, 17283.31
326.9037, 17283.62
327.3858, 17232.83
327.8679, 17200.53
328.3500, 17211.25
328.8322, 17273.07
329.3143, 17305.45
329.7964, 17283.91
330.2785, 17248.71
330.7606, 17235.01
331.2427, 17256.58
331.7249, 17280.67
332.2070, 17304.56
332.6891, 17328.45
333.1712, 17344.58
333.6533, 17344.25
334.1354, 17346.53
334.6176, 17370.86
335.0997, 17439.84
335.5818, 17476.30
336.0639, 17456.29
336.5460, 17393.18
337.0281, 17370.23
337.5103, 17397.92
337.9924, 17441.51
338.4745, 17479.54
338.9566, 17512.08
339.4387, 17538.07
339.9208, 17555.05
340.4030, 17567.21
340.8851, 17587.33
341.3672, 17617.26
341.8493, 17648.67
342.3314, 17679.29
342.8135, 17709.27
343.2957, 17731.44
343.7778, 17742.73
344.2599, 17751.65
344.7420, 17772.11
345.2241, 17803.99
345.7062, 17846.57
346.1884, 17905.78
346.6705, 17977.06
347.1526, 18032.99
347.6347, 18068.25
348.1168, 18101.74
348.5989, 18159.83
349.0811, 18237.49
349.5632, 18316.57
350.0453, 18391.19
350.5274, 18459.26
351.0095, 18515.27
351.4916, 18557.77
351.9737, 18598.76
352.4558, 18647.38
352.9380, 18703.35
353.4201, 18766.10
353.9022, 18846.55
354.3843, 18927.87
354.8664, 18990.75
355.3485, 19036.31
355.8307, 19076.53
356.3128, 19107.38
356.7949, 19141.53
357.2770, 19197.22
357.7591, 19308.05
358.2412, 19412.03
358.7234, 19457.74
359.2055, 19456.52
359.6876, 19461.77
360.1697, 19529.26
360.6518, 19596.87
361.1339, 19615.50
361.6161, 19552.99
362.0982, 19471.58
362.5803, 19385.89
363.0624, 19298.16
363.5445, 19215.45
364.0266, 19149.76
364.5088, 19081.86
364.9909, 19002.15
365.4730, 18903.62
365.9551, 18807.03
366.4372, 18697.81
366.9193, 18595.97
367.4015, 18534.10
367.8836, 18547.56
368.3657, 18572.46
368.8478, 18592.63
369.3299, 18606.56
369.8120, 18622.17
370.2942, 18644.05
370.7763, 18664.63
371.2584, 18673.47
371.7405, 18649.37
372.2226, 18646.07
372.7047, 18678.79
373.1869, 18746.26
373.6690, 18808.29
374.1511, 18863.40
374.6332, 18913.26
375.1153, 18958.69
375.5974, 18998.48
376.0796, 19036.73
376.5617, 19075.41
377.0438, 19112.67
377.5259, 19143.97
378.0080, 19169.29
378.4901, 19189.58
378.9723, 19203.72
379.4544, 19212.23
379.9365, 19222.99
380.4186, 19236.69
380.9007, 19254.50
381.3828, 19283.11
381.8650, 19322.31
382.3471, 19351.58
382.8292, 19350.06
383.3113, 19329.02
383.7934, 19330.13
384.2755, 19359.01
384.7577, 19385.91
385.2398, 19363.93
385.7219, 19308.85
386.2040, 19270.01
386.6861, 19295.90
387.1682, 19335.68
387.6504, 19312.09
388.1325, 19225.69
388.6146, 19138.68
389.0967, 19095.91
389.5788, 19080.47
390.0609, 19071.55
390.5431, 19079.00
391.0252, 19074.31
391.5073, 19028.93
391.9894, 18952.00
392.4715, 18882.27
392.9536, 18845.95
393.4357, 18820.98
393.9178, 18789.81
394.4000, 18738.20
394.8821, 18701.55
395.3642, 18701.54
395.8463, 18723.91
396.3284, 18738.89
396.8105, 18739.02
397.2927, 18730.14
397.7748, 18708.38
398.2569, 18661.40
398.7390, 18639.96
399.2211, 18667.22
399.7032, 18714.26
400.1854, 18747.85
400.6675, 18763.70
401.1496, 18771.56
401.6317, 18768.79
402.1138, 18755.61
402.5959, 18756.62
403.0781, 18777.87
403.5602, 18806.05
404.0423, 18830.23
404.5244, 18847.48
405.0065, 18871.79
405.4886, 18909.09
405.9708, 18952.80
406.4529, 18974.48
406.9350, 18965.69
407.4171, 18971.30
407.8992, 19029.26
408.3813, 19137.76
408.8635, 19219.24
409.3456, 19263.72
409.8277, 19295.15
410.3098, 19352.23
410.7919, 19432.29
411.2740, 19506.05
411.7562, 19553.38
412.2383, 19586.80
412.7204, 19632.48
413.2025, 19690.63
413.6846, 19761.45
414.1667, 19843.50
414.6489, 19937.63
415.1310, 20047.82
415.6131, 20197.40
416.0952, 20340.07
416.5773, 20413.34
417.0594, 20431.89
417.5416, 20460.76
418.0237, 20556.13
418.5058, 20668.31
418.9879, 20754.62
419.4700, 20807.10
419.9521, 20835.31
420.4343, 20839.18
420.9164, 20822.90
421.3985, 20794.85
421.8806, 20757.44
422.3627, 20709.32
422.8448, 20650.79
423.3270, 20583.77
423.8091, 20500.32
424.2912, 20375.06
424.7733, 20245.78
425.2554, 20146.53
425.7375, 20098.91
426.2197, 20053.49
426.7018, 19992.84
427.1839, 19922.36
427.6660, 19899.65
428.1481, 19950.32
428.6302, 20011.11
429.1124, 20042.15
429.5945, 20034.20
430.0766, 20029.68
430.5587, 20025.59
431.0408, 20031.46
431.5229, 20074.08
432.0051, 20158.60
432.4872, 20241.53
432.9693, 20306.84
433.4514, 20354.83
433.9335, 20376.12
434.4156, 20364.45
434.8977, 20363.84
435.3799, 20432.42
435.8620, 20556.31
436.3441, 20680.98
436.8262, 20785.96
437.3083, 20884.04
437.7904, 20986.27
438.2726, 21094.25
438.7547, 21219.22
439.2368, 21390.12
439.7189, 21573.09
440.2010, 21722.80
440.6831, 21813.91
441.1653, 21910.75
441.6474, 22060.97
442.1295, 22244.75
442.6116, 22424.23
443.0937, 22556.09
443.5758, 22703.79
444.0580, 22903.58
444.5401, 23161.65
445.0222, 23430.87
445.5043, 23700.83
445.9864, 23979.41
446.4685, 24273.41
446.9507, 24589.17
447.4328, 24914.60
447.9149, 25235.29
448.3970, 25559.86
448.8791, 25951.45
449.3612, 26448.45
449.8434, 26955.24
450.3255, 27426.59
450.8076, 27844.59
451.2897, 28274.53
451.7718, 28732.84
452.2539, 29184.90
452.7361, 29589.75
453.2182, 29955.88
453.7003, 30235.10
454.1824, 30396.23
454.6645, 30458.42
455.1466, 30513.83
455.6288, 30562.75
456.1109, 30606.28
456.5930, 30651.38
457.0751, 30693.16
457.5572, 30716.78
458.0393, 30721.60
458.5215, 30702.50
459.0036, 30655.09
459.4857, 30578.63
459.9678, 30471.01
460.4499, 30328.90
460.9320, 30157.38
461.4142, 29968.95
461.8963, 29765.33
462.3784, 29520.78
462.8605, 29195.15
463.3426, 28828.04
463.8247, 28470.00
464.3069, 28154.83
464.7890, 27831.88
465.2711, 27474.75
465.7532, 27091.45
466.2353, 26725.00
466.7174, 26385.72
467.1996, 26065.70
467.6817, 25761.68
468.1638, 25467.23
468.6459, 25193.27
469.1280, 24946.03
469.6101, 24714.43
470.0923, 24476.30
470.5744, 24226.17
471.0565, 23983.57
471.5386, 23749.77
472.0207, 23525.14
472.5028, 23338.67
472.9850, 23200.38
473.4671, 23061.30
473.9492, 22864.14
474.4313, 22613.99
474.9134, 22405.26
475.3955, 22253.39
475.8776, 22149.07
476.3597, 22092.36
476.8419, 22076.91
477.3240, 22067.68
477.8061, 22081.29
478.2882, 22076.00
478.7703, 21963.02
479.2524, 21731.87
479.7346, 21518.45
480.2167, 21447.82
480.6988, 21445.63
481.1809, 21419.88
481.6630, 21307.28
482.1451, 21199.31
482.6273, 21139.00
483.1094, 21116.76
483.5915, 21101.28
484.0736, 21093.93
484.5557, 21081.30
485.0378, 21056.85
485.5200, 21017.51
486.0021, 20972.50
486.4842, 20921.03
486.9663, 20865.50
487.4484, 20808.16
487.9305, 20748.77
488.4127, 20690.87
488.8948, 20632.85
489.3769, 20577.40
489.8590, 20536.17
490.3411, 20511.47
490.8232, 20495.60
491.3054, 20487.28
491.7875, 20486.30
492.2696, 20476.65
492.7517, 20455.51
493.2338, 20429.71
493.7159, 20404.18
494.1981, 20380.32
494.6802, 20365.65
495.1623, 20371.11
495.6444, 20382.50
496.1265, 20377.50
496.6086, 20357.64
497.0908, 20337.19
497.5729, 20323.18
498.0550, 20315.04
498.5371, 20315.18
499.0192, 20333.15
499.5013, 20338.40
499.9835, 20293.95
500.4656, 20230.95
500.9477, 20200.28
501.4298, 20240.96
501.9119, 20292.24
502.3940, 20342.78
502.8762, 20392.45
503.3583, 20418.58
503.8404, 20401.25
504.3225, 20376.70
504.8046, 20366.83
505.2867, 20375.57
505.7689, 20389.33
506.2510, 20410.64
506.7331, 20433.83
507.2152, 20447.73
507.6973, 20451.88
508.1794, 20450.17
508.6616, 20440.26
509.1437, 20425.60
509.6258, 20422.29
510.1079, 20430.67
510.5900, 20450.00
511.0721, 20491.87
511.5543, 20544.45
512.0364, 20573.07
512.5185, 20560.74
513.0006, 20545.90
513.4827, 20570.75
513.9648, 20623.83
514.4470, 20677.76
514.9291, 20723.88
515.4112, 20762.20
515.8933, 20791.02
516.3754, 20810.01
516.8575, 20827.47
517.3397, 20818.12
517.8218, 20824.85
518.3039, 20879.01
518.7860, 21044.36
519.2681, 21183.18
519.7502, 21269.13
520.2324, 21328.25
520.7145, 21414.91
521.1966, 21542.96
521.6787, 21674.90
522.1608, 21799.40
522.6429, 21916.79
523.1251, 22046.76
523.6072, 22191.77
524.0893, 22339.14
524.5714, 22472.19
525.0535, 22594.30
525.5356, 22741.56
526.0178, 22924.88
526.4999, 23123.21
526.9820, 23299.54
527.4641, 23459.89
527.9462, 23639.89
528.4283, 23851.83
528.9105, 24094.23
529.3926, 24383.87
529.8747, 24715.18
530.3568, 25038.08
530.8389, 25315.91
531.3210, 25575.25
531.8032, 25845.31
532.2853, 26126.94
532.7674, 26424.78
533.2495, 26777.12
533.7316, 27140.66
534.2137, 27429.80
534.6959, 27630.39
535.1780, 27768.33
535.6601, 27853.13
536.1422, 27883.96
536.6243, 27843.52
537.1064, 27724.60
537.5885, 27547.38
538.0706, 27318.30
538.5527, 27036.09
539.0349, 26713.06
539.5170, 26338.35
539.9991, 25949.58
540.4812, 25605.82
540.9633, 25298.72
541.4454, 24994.08
541.9276, 24665.36
542.4097, 24339.90
542.8918, 24062.52
543.3739, 23829.07
543.8560, 23613.65
544.3381, 23396.89
544.8203, 23191.48
545.3024, 23014.74
545.7845, 22874.20
546.2666, 22742.79
546.7487, 22594.86
547.2308, 22456.40
547.7130, 22354.45
548.1951, 22350.13
548.6772, 22322.15
549.1593, 22238.07
549.6414, 22110.13
550.1235, 21992.79
550.6057, 21879.12
551.0878, 21787.01
551.5699, 21726.87
552.0520, 21701.78
552.5341, 21681.53
553.0162, 21669.69
553.4984, 21652.62
553.9805, 21612.65
554.4626, 21551.77
554.9447, 21482.93
555.4268, 21396.86
555.9089, 21326.72
556.3911, 21342.43
556.8732, 21424.54
557.3553, 21496.54
557.8374, 21522.42
558.3195, 21516.91
558.8016, 21478.74
559.2838, 21408.78
559.7659, 21359.84
560.2480, 21382.26
560.7301, 21421.90
561.2122, 21434.22
561.6943, 21366.78
562.1765, 21337.69
562.6586, 21394.49
563.1407, 21489.84
563.6228, 21546.45
564.1049, 21542.52
564.5870, 21536.09
565.0692, 21540.89
565.5513, 21555.30
566.0334, 21566.46
566.5155, 21574.56
566.9976, 21578.93
567.4797, 21579.27
567.9619, 21575.70
568.4440, 21567.28
568.9261, 21553.31
569.4082, 21538.84
569.8903, 21528.44
570.3724, 21522.09
570.8546, 21519.61
571.3367, 21525.67
571.8188, 21530.12
572.3009, 21524.81
572.7830, 21511.13
573.2651, 21493.66
573.7473, 21463.81
574.2294, 21439.53
574.7115, 21431.29
575.1936, 21441.46
575.6757, 21457.81
576.1578, 21500.15
576.6400, 21533.20
577.1221, 21527.13
577.6042, 21455.11
578.0863, 21409.57
578.5684, 21397.55
579.0505, 21414.42
579.5327, 21466.58
580.0148, 21559.02
580.4969, 21620.21
580.9790, 21608.50
581.4611, 21553.70
581.9432, 21534.31
582.4254, 21549.09
582.9075, 21581.70
583.3896, 21636.89
583.8717, 21695.92
584.3538, 21731.76
584.8359, 21738.57
585.3181, 21736.05
585.8002, 21732.41
586.2823, 21727.34
586.7644, 21720.51
587.2465, 21701.70
587.7286, 21692.84
588.2108, 21700.25
588.6929, 21721.64
589.1750, 21750.40
589.6571, 21806.54
590.1392, 21839.55
590.6213, 21823.48
591.1035, 21595.30
591.5856, 21761.46
592.0677, 21857.64
592.5498, 21887.59
593.0319, 21652.96
593.5140, 21759.98
593.9962, 21730.09
594.4783, 21694.58
594.9604, 21849.69
595.4425, 21653.54
595.9246, 21805.62
596.4067, 21818.70
596.8889, 21895.40
597.3710, 21834.33
597.8531, 21815.82
598.3352, 21935.11
598.8173, 21978.10
599.2994, 21901.17
599.7816, 21981.91
600.2637, 21780.96
600.7458, 21879.97
601.2279, 21899.57
601.7100, 21953.54
602.1921, 22013.46
602.6743, 22059.22
603.1564, 22088.18
603.6385, 22108.93
604.1206, 22117.27
604.6027, 22125.06
605.0848, 22158.22
605.5670, 22214.49
606.0491, 22259.89
606.5312, 22277.44
607.0133, 22282.42
607.4954, 22303.55
607.9775, 22336.81
608.4597, 22363.41
608.9418, 22364.20
609.4239, 22357.91
609.9060, 22361.06
610.3881, 22376.08
610.8702, 22389.56
611.3524, 22406.64
611.8345, 22414.75
612.3166, 22403.89
612.7987, 22190.70
613.2808, 22362.16
613.7629, 22463.63
614.2451, 22498.88
614.7272, 22269.55
615.2093, 22381.87
615.6914, 22357.27
616.1735, 22327.05
616.6556, 22487.46
617.1378, 22296.61
617.6199, 22453.99
618.1020, 22472.36
618.5840, 22554.35
619.0662, 22498.59
619.5483, 22485.37
620.0304, 22609.96
620.5125, 22658.24
620.9946, 22586.61
