##NAMES=Marialite
##RRUFFID=R100112
##IDEAL CHEMISTRY=Na_4_Al_3_Si_9_O_24_Cl
##LOCALITY=Sar-e-Sang District,  Koksha Valley,  Badakhshan Province,  Afghanistan
##OWNER=RRUFF
##SOURCE=Robert Woodside
##DESCRIPTION=Colorless crystal fragment
##STATUS=The identification of this mineral has been confirmed only by single crystal X-ray diffraction.
##URL=rruff.info/R100112
91.53320, 867.4664
92.01532, 848.0800
92.49744, 838.3858
92.97955, 854.2783
93.46167, 881.4390
93.94379, 903.2303
94.42590, 925.4396
94.90802, 946.3895
95.39014, 962.2297
95.87225, 972.5643
96.35437, 980.4641
96.83649, 988.2018
97.31860, 995.3310
97.80072, 1001.225
98.28284, 1004.720
98.76495, 1005.015
99.24707, 1002.415
99.72919, 994.3326
100.2113, 986.7236
100.6934, 981.0505
101.1755, 976.8035
101.6577, 972.8063
102.1398, 967.8010
102.6219, 961.1428
103.1040, 956.7539
103.5861, 954.8246
104.0682, 954.0578
104.5504, 953.4743
105.0325, 952.9885
105.5146, 953.5343
105.9967, 956.7825
106.4788, 965.0927
106.9609, 969.4666
107.4431, 967.9944
107.9252, 962.6671
108.4073, 956.4254
108.8894, 950.5690
109.3715, 943.0930
109.8536, 930.3821
110.3358, 911.9538
110.8179, 892.0507
111.3000, 872.4555
111.7821, 853.1497
112.2642, 834.0424
112.7463, 815.3372
113.2285, 796.6588
113.7106, 777.1762
114.1927, 756.3143
114.6748, 736.0506
115.1569, 719.5727
115.6390, 707.8586
116.1212, 697.2482
116.6033, 686.6702
117.0854, 676.3622
117.5675, 666.3900
118.0496, 656.6203
118.5317, 647.3536
119.0139, 640.1560
119.4960, 636.2830
119.9781, 633.4695
120.4602, 632.0113
120.9423, 631.2774
121.4244, 630.2712
121.9066, 628.1478
122.3887, 624.7588
122.8708, 622.3279
123.3529, 621.6125
123.8350, 620.9304
124.3171, 619.3409
124.7993, 616.8868
125.2814, 614.4280
125.7635, 612.9145
126.2456, 612.6466
126.7277, 611.6772
127.2098, 610.1594
127.6920, 607.8434
128.1741, 604.2075
128.6562, 599.0091
129.1383, 593.2315
129.6204, 588.1115
130.1025, 583.5593
130.5847, 578.8868
131.0668, 573.9532
131.5489, 568.7086
132.0310, 562.9144
132.5131, 556.0010
132.9952, 549.0085
133.4774, 543.0152
133.9595, 538.0250
134.4416, 532.9373
134.9237, 526.5015
135.4058, 518.3995
135.8879, 511.0070
136.3701, 504.7625
136.8522, 499.4182
137.3343, 495.0822
137.8164, 491.7294
138.2985, 489.0456
138.7806, 486.4317
139.2628, 483.6474
139.7449, 481.4510
140.2270, 480.3308
140.7091, 479.5218
141.1912, 478.2343
141.6733, 476.1202
142.1555, 473.5340
142.6376, 471.7337
143.1197, 470.2855
143.6018, 470.2036
144.0839, 472.2816
144.5660, 475.7375
145.0482, 479.4661
145.5303, 482.8889
146.0124, 485.9725
146.4945, 488.5466
146.9766, 489.0257
147.4587, 490.6038
147.9409, 495.1138
148.4230, 502.1266
148.9051, 509.5988
149.3872, 516.2861
149.8693, 522.2477
150.3514, 528.3854
150.8336, 533.8452
151.3157, 540.0132
151.7978, 548.6602
152.2799, 560.1945
152.7620, 571.8856
153.2441, 580.8601
153.7263, 588.5932
154.2084, 597.8676
154.6905, 610.4499
155.1726, 624.9932
155.6547, 638.7079
156.1368, 651.4586
156.6190, 663.4033
157.1011, 674.6873
157.5832, 685.3870
158.0653, 695.7828
158.5474, 706.1679
159.0295, 716.4708
159.5117, 725.7535
159.9938, 734.1109
160.4759, 741.1954
160.9580, 747.1564
161.4401, 751.8074
161.9222, 754.7458
162.4044, 755.7173
162.8865, 754.8206
163.3686, 751.0802
163.8507, 743.0765
164.3328, 733.6883
164.8149, 724.0402
165.2971, 714.1833
165.7792, 703.8008
166.2613, 692.4885
166.7434, 680.4628
167.2255, 666.5721
167.7076, 649.9316
168.1898, 632.2838
168.6719, 614.4536
169.1540, 596.6729
169.6361, 579.5330
170.1182, 563.8444
170.6003, 549.9813
171.0825, 536.9669
171.5646, 525.1212
172.0467, 514.0137
172.5288, 503.2324
173.0109, 492.6852
173.4930, 482.3201
173.9752, 471.6187
174.4573, 460.1207
174.9394, 450.4322
175.4215, 444.4415
175.9036, 440.7571
176.3857, 436.1750
176.8679, 429.2780
177.3500, 421.8952
177.8321, 416.3528
178.3142, 412.6288
178.7963, 409.8471
179.2784, 407.8911
179.7606, 406.6255
180.2427, 405.0065
180.7248, 402.0738
181.2069, 399.3326
181.6890, 398.3267
182.1711, 399.2238
182.6533, 400.4178
183.1354, 400.0145
183.6175, 397.6746
184.0996, 396.4375
184.5817, 398.2903
185.0638, 400.7085
185.5460, 402.2755
186.0281, 402.6871
186.5102, 402.5550
186.9923, 402.8365
187.4744, 403.9852
187.9565, 404.2845
188.4387, 402.6672
188.9208, 400.7549
189.4029, 399.9240
189.8850, 400.5383
190.3671, 401.6492
190.8492, 401.4287
191.3314, 399.1007
191.8135, 396.5496
192.2956, 394.0146
192.7777, 391.2979
193.2598, 388.1516
193.7419, 384.4966
194.2241, 380.5288
194.7062, 376.7235
195.1883, 372.4671
195.6704, 369.1670
196.1525, 367.4274
196.6346, 366.4854
197.1168, 365.5653
197.5989, 364.3467
198.0810, 362.8135
198.5631, 360.8742
199.0452, 357.9473
199.5273, 355.3999
200.0095, 353.5176
200.4916, 352.1479
200.9737, 351.1188
201.4558, 350.4279
201.9379, 349.8742
202.4200, 348.7490
202.9022, 346.3457
203.3843, 344.6601
203.8664, 344.8580
204.3485, 346.3844
204.8306, 347.6867
205.3127, 348.0223
205.7949, 347.8272
206.2770, 348.1687
206.7591, 349.4373
207.2412, 350.3798
207.7233, 350.2584
208.2054, 349.1601
208.6876, 347.6583
209.1697, 346.1568
209.6518, 344.1330
210.1339, 340.7459
210.6160, 335.4474
211.0981, 330.3163
211.5803, 327.4038
212.0624, 326.7215
212.5445, 325.6227
213.0266, 322.1449
213.5087, 318.5317
213.9908, 317.0170
214.4730, 318.1260
214.9551, 320.2828
215.4372, 321.9757
215.9193, 323.2109
216.4014, 323.9895
216.8836, 323.7285
217.3657, 323.3283
217.8478, 323.3725
218.3299, 324.0016
218.8120, 325.0065
219.2941, 326.3331
219.7763, 328.3648
220.2584, 329.3959
220.7405, 328.6414
221.2226, 327.1500
221.7047, 325.6646
222.1868, 324.3725
222.6690, 322.8268
223.1511, 320.1865
223.6332, 315.7589
224.1153, 311.7658
224.5974, 308.5506
225.0795, 305.6984
225.5617, 303.0091
226.0438, 300.3996
226.5259, 297.7882
227.0080, 295.0481
227.4901, 292.2842
227.9722, 289.1783
228.4544, 285.4183
228.9365, 281.5577
229.4186, 278.1491
229.9007, 275.3172
230.3828, 272.6692
230.8649, 269.5584
231.3471, 265.7457
231.8292, 261.7566
232.3113, 257.2191
232.7934, 252.7401
233.2755, 248.7314
233.7576, 245.3431
234.2398, 242.5184
234.7219, 240.2728
235.2040, 239.4164
235.6861, 237.6175
236.1682, 233.8357
236.6503, 229.6904
237.1325, 226.6973
237.6146, 225.2545
238.0967, 224.6646
238.5788, 223.9810
239.0609, 223.3645
239.5430, 222.1807
240.0252, 219.7917
240.5073, 217.1307
240.9894, 215.0384
241.4715, 213.7080
241.9536, 213.0597
242.4357, 213.0663
242.9179, 213.8291
243.4000, 214.8646
243.8821, 216.4924
244.3642, 218.2058
244.8463, 219.3438
245.3284, 219.7560
245.8106, 220.0322
246.2927, 220.9487
246.7748, 222.5400
247.2569, 223.8654
247.7390, 224.1337
248.2211, 224.3508
248.7033, 225.8672
249.1854, 228.9804
249.6675, 232.6526
250.1496, 235.8607
250.6317, 238.7181
251.1138, 241.8876
251.5960, 245.3644
252.0781, 249.2930
252.5602, 254.0172
253.0423, 259.6223
253.5244, 265.5365
254.0065, 270.8622
254.4887, 275.9853
254.9708, 282.2228
255.4529, 290.6197
255.9350, 300.0173
256.4171, 308.7704
256.8992, 316.7477
257.3813, 324.4572
257.8635, 332.5006
258.3456, 340.5203
258.8277, 347.8815
259.3098, 354.0853
259.7919, 359.6537
260.2740, 365.5965
260.7562, 372.2550
261.2383, 377.7899
261.7204, 381.2493
262.2025, 382.9078
262.6846, 382.7182
263.1667, 380.3525
263.6489, 376.5081
264.1310, 372.3864
264.6131, 368.3292
265.0952, 362.4808
265.5773, 352.7669
266.0594, 341.3274
266.5416, 329.8459
267.0237, 318.6509
267.5058, 307.8588
267.9879, 297.5838
268.4700, 287.9216
268.9521, 278.4671
269.4343, 268.9002
269.9164, 259.5798
270.3985, 250.9365
270.8806, 243.0978
271.3627, 235.6463
271.8448, 227.9519
272.3270, 219.7994
272.8091, 212.3571
273.2912, 205.8713
273.7733, 200.2464
274.2554, 195.5237
274.7375, 191.6756
275.2197, 188.5924
275.7018, 186.2188
276.1839, 184.6353
276.6660, 183.2903
277.1481, 182.5335
277.6302, 181.7006
278.1124, 180.2386
278.5945, 178.2202
279.0766, 176.4017
279.5587, 175.6096
280.0408, 175.9503
280.5229, 176.3292
281.0051, 176.5403
281.4872, 176.9465
281.9693, 177.8161
282.4514, 179.0538
282.9335, 180.3271
283.4156, 181.3203
283.8978, 182.0245
284.3799, 182.8774
284.8620, 184.1705
285.3441, 185.3146
285.8262, 185.8820
286.3083, 186.1336
286.7905, 186.6669
287.2726, 188.0015
287.7547, 190.0194
288.2368, 191.5983
288.7189, 193.0876
289.2010, 193.5905
289.6832, 192.4977
290.1653, 190.3885
290.6474, 188.0049
291.1295, 185.6980
291.6116, 183.5789
292.0938, 182.1834
292.5759, 182.2446
293.0580, 182.0078
293.5401, 180.7752
294.0222, 179.2234
294.5043, 178.0686
294.9865, 177.6240
295.4686, 177.7968
295.9507, 178.3563
296.4328, 179.2303
296.9149, 180.6998
297.3970, 183.5871
297.8792, 186.5499
298.3613, 188.5906
298.8434, 189.3728
299.3255, 188.9351
299.8076, 187.2988
300.2897, 184.2927
300.7719, 180.3340
301.2540, 174.4761
301.7361, 168.5306
302.2182, 163.7866
302.7003, 160.3630
303.1824, 157.2221
303.6646, 152.8869
304.1467, 146.6691
304.6288, 141.8465
305.1109, 139.3874
305.5930, 137.3528
306.0751, 134.6812
306.5573, 131.5425
307.0394, 128.9173
307.5215, 127.8656
308.0036, 128.5434
308.4857, 128.4098
308.9678, 126.3180
309.4500, 124.5119
309.9321, 123.8135
310.4142, 123.8963
310.8963, 124.0305
311.3784, 123.7422
311.8605, 123.0616
312.3427, 122.2329
312.8248, 121.0109
313.3069, 119.9165
313.7890, 119.0867
314.2711, 118.4226
314.7532, 117.6741
315.2354, 116.6960
315.7175, 115.7947
316.1996, 115.9497
316.6817, 118.2068
317.1638, 119.8864
317.6459, 120.2361
318.1281, 120.1929
318.6102, 120.7282
319.0923, 122.1096
319.5744, 123.6672
320.0565, 124.1279
320.5386, 122.5560
321.0208, 122.0809
321.5029, 123.5284
321.9850, 125.3951
322.4671, 126.7933
322.9492, 127.6101
323.4313, 128.2500
323.9135, 129.2160
324.3956, 130.6459
324.8777, 131.6824
325.3598, 131.6189
325.8419, 131.8174
326.3240, 132.9710
326.8062, 134.8742
327.2883, 136.8844
327.7704, 138.5522
328.2525, 139.8806
328.7346, 140.9629
329.2167, 141.1679
329.6989, 141.8744
330.1810, 143.7486
330.6631, 146.2541
331.1452, 148.6285
331.6273, 150.4830
332.1094, 151.8830
332.5916, 152.9544
333.0737, 153.2267
333.5558, 154.0056
334.0379, 156.1854
334.5200, 158.5538
335.0021, 159.7946
335.4843, 159.5150
335.9664, 158.6408
336.4485, 158.7112
336.9306, 160.1166
337.4127, 161.3055
337.8948, 162.2864
338.3770, 162.9038
338.8591, 163.0962
339.3412, 162.8353
339.8233, 162.0673
340.3055, 160.5176
340.7876, 158.0657
341.2697, 156.0901
341.7518, 154.2408
342.2339, 153.3287
342.7160, 154.4914
343.1982, 156.8849
343.6803, 158.4887
344.1624, 157.5744
344.6445, 154.8304
345.1266, 153.8089
345.6087, 155.5047
346.0909, 157.3888
346.5730, 158.9778
347.0551, 160.1242
347.5372, 160.4304
348.0193, 159.5559
348.5014, 158.4115
348.9836, 158.7698
349.4657, 161.0517
349.9478, 163.4251
350.4299, 165.2433
350.9120, 167.0841
351.3941, 169.4241
351.8763, 172.3401
352.3584, 175.4527
352.8405, 178.2499
353.3226, 180.7215
353.8047, 183.6266
354.2868, 186.8618
354.7690, 190.8488
355.2511, 196.3337
355.7332, 202.9363
356.2153, 209.0241
356.6974, 213.0905
357.1795, 215.7212
357.6617, 219.2860
358.1438, 224.1560
358.6259, 229.2034
359.1080, 234.2109
359.5901, 238.8766
360.0722, 242.7405
360.5544, 245.8258
361.0365, 247.8124
361.5186, 248.2273
362.0007, 247.0068
362.4828, 244.5967
362.9649, 240.3650
363.4471, 235.4272
363.9292, 231.1550
364.4113, 227.8658
364.8934, 224.3833
365.3755, 219.3505
365.8576, 213.1455
366.3398, 208.0571
366.8219, 205.2621
367.3040, 202.7144
367.7861, 197.6290
368.2682, 190.3147
368.7503, 184.2930
369.2325, 181.4299
369.7146, 180.5914
370.1967, 179.9871
370.6788, 179.4846
371.1609, 179.0496
371.6430, 178.6745
372.1252, 178.3504
372.6073, 178.0541
373.0894, 177.5034
373.5715, 177.2040
374.0536, 177.9028
374.5357, 179.3852
375.0179, 180.3676
375.5000, 180.1825
375.9821, 179.1219
376.4642, 177.7544
376.9463, 175.5255
377.4284, 174.2600
377.9106, 175.4454
378.3927, 177.8645
378.8748, 179.5507
379.3569, 180.0096
379.8390, 179.4362
380.3211, 177.8331
380.8033, 174.9559
381.2854, 172.4782
381.7675, 170.1124
382.2496, 168.4872
382.7317, 168.6394
383.2138, 170.3348
383.6960, 171.7775
384.1781, 171.5503
384.6602, 169.7862
385.1423, 168.5291
385.6244, 168.2399
386.1065, 167.8380
386.5887, 167.3078
387.0708, 166.3707
387.5529, 164.3675
388.0350, 160.9578
388.5171, 156.8830
388.9992, 153.7477
389.4814, 151.9232
389.9635, 150.6176
390.4456, 150.3163
390.9277, 150.2043
391.4098, 149.7480
391.8919, 148.8115
392.3741, 147.3662
392.8562, 145.2749
393.3383, 142.3486
393.8204, 140.1908
394.3025, 139.3545
394.7846, 138.6520
395.2668, 137.6148
395.7489, 136.4203
396.2310, 135.4977
396.7131, 135.1228
397.1952, 135.0962
397.6773, 134.7140
398.1595, 133.7696
398.6416, 132.7861
399.1237, 132.0608
399.6058, 131.1969
400.0879, 129.5303
400.5700, 127.0341
401.0522, 124.7735
401.5343, 124.2660
402.0164, 125.8945
402.4985, 127.0121
402.9806, 126.9114
403.4627, 126.8613
403.9449, 127.5078
404.4270, 128.6583
404.9091, 129.7424
405.3912, 130.3684
405.8733, 130.6928
406.3554, 131.2558
406.8376, 132.2561
407.3197, 133.0023
407.8018, 132.7528
408.2839, 132.3260
408.7660, 132.6702
409.2481, 134.1194
409.7303, 135.7611
410.2124, 136.4134
410.6945, 136.1850
411.1766, 136.8891
411.6587, 139.4790
412.1408, 142.3982
412.6230, 144.0813
413.1051, 144.6897
413.5872, 145.3881
414.0693, 146.4971
414.5514, 148.0598
415.0335, 150.3531
415.5157, 153.4727
415.9978, 156.4311
416.4799, 158.5395
416.9620, 159.9863
417.4441, 161.4535
417.9262, 162.9254
418.4084, 164.4755
418.8905, 166.4874
419.3726, 168.6203
419.8547, 169.6881
420.3368, 169.0156
420.8189, 168.0596
421.3011, 169.6057
421.7832, 174.7095
422.2653, 177.6846
422.7474, 176.5012
423.2295, 173.9060
423.7116, 172.1758
424.1938, 171.4678
424.6759, 170.7501
425.1580, 169.1416
425.6401, 166.7272
426.1222, 165.0561
426.6043, 164.4716
427.0865, 164.1031
427.5686, 163.8045
428.0507, 163.5685
428.5328, 163.3694
429.0149, 163.2012
429.4970, 163.1484
429.9792, 163.3176
430.4613, 163.4785
430.9434, 164.4370
431.4255, 166.7047
431.9076, 169.1728
432.3897, 171.0944
432.8719, 172.6150
433.3540, 174.3874
433.8361, 176.8750
434.3182, 180.0558
434.8003, 183.8793
435.2824, 188.7302
435.7646, 193.6458
436.2467, 197.9393
436.7288, 202.3566
437.2109, 207.7162
437.6930, 214.2811
438.1751, 221.5075
438.6573, 228.8592
439.1394, 236.3455
439.6215, 243.8122
440.1036, 251.3569
440.5857, 258.7545
441.0678, 266.0599
441.5500, 273.1786
442.0321, 279.7409
442.5142, 284.5393
442.9963, 289.0870
443.4784, 296.4588
443.9605, 306.9283
444.4427, 318.0823
444.9248, 328.3735
445.4069, 338.8497
445.8890, 350.9362
446.3711, 364.6604
446.8532, 380.1945
447.3354, 397.3926
447.8175, 416.4560
448.2996, 437.7189
448.7817, 461.1551
449.2638, 487.1257
449.7459, 515.6256
450.2281, 546.8623
450.7102, 582.3235
451.1923, 624.4882
451.6744, 668.7524
452.1565, 712.5560
452.6386, 755.9999
453.1208, 799.8135
453.6029, 844.7350
454.0850, 889.7861
454.5671, 932.2529
455.0492, 973.1738
455.5313, 1009.710
456.0135, 1041.925
456.4956, 1069.745
456.9777, 1093.534
457.4598, 1113.157
457.9419, 1128.496
458.4240, 1139.729
458.9062, 1146.856
459.3883, 1147.608
459.8704, 1139.955
460.3525, 1127.467
460.8346, 1110.953
461.3167, 1090.054
461.7989, 1063.793
462.2810, 1031.636
462.7631, 995.6149
463.2452, 958.4247
463.7273, 919.9698
464.2094, 880.8419
464.6916, 840.4556
465.1737, 799.9969
465.6558, 759.4199
466.1379, 719.3146
466.6200, 680.9300
467.1021, 644.7870
467.5843, 610.8629
468.0664, 579.7745
468.5485, 551.6800
469.0306, 524.3779
469.5127, 496.7169
469.9948, 469.4009
470.4770, 443.6241
470.9591, 419.2690
471.4412, 397.0663
471.9233, 377.9828
472.4054, 361.1244
472.8875, 345.1585
473.3697, 329.8596
473.8518, 315.2063
474.3339, 301.0949
474.8160, 287.6424
475.2981, 275.3332
475.7802, 264.4015
476.2624, 254.3717
476.7445, 245.0947
477.2266, 236.4981
477.7087, 228.6317
478.1908, 221.4565
478.6729, 214.7314
479.1551, 208.0241
479.6372, 201.0577
480.1193, 194.7562
480.6014, 189.5283
481.0835, 184.4757
481.5656, 178.7321
482.0478, 172.7182
482.5299, 167.7007
483.0120, 164.6485
483.4941, 162.9680
483.9762, 160.5328
484.4583, 157.1016
484.9405, 153.3834
485.4226, 149.0963
485.9047, 144.8733
486.3868, 141.1611
486.8689, 138.0383
487.3510, 135.5013
487.8332, 133.8464
488.3153, 132.8612
488.7974, 131.3089
489.2795, 128.7831
489.7616, 126.5949
490.2437, 125.9755
490.7259, 126.1147
491.2080, 125.8323
491.6901, 124.9801
492.1722, 123.5640
492.6543, 121.0252
493.1364, 117.8975
493.6186, 115.8733
494.1007, 115.5085
494.5828, 115.7267
495.0649, 115.3224
495.5470, 114.2220
496.0291, 113.2464
496.5113, 112.5616
496.9934, 111.8734
497.4755, 110.8175
497.9576, 109.6212
498.4397, 109.0021
498.9218, 109.3571
499.4040, 110.0096
499.8861, 109.3826
500.3682, 106.3683
500.8503, 104.1022
501.3324, 102.8888
501.8145, 102.0599
502.2967, 101.0602
502.7788, 100.0406
503.2609, 99.70702
503.7430, 100.7716
504.2251, 102.6359
504.7072, 102.7730
505.1894, 100.1920
505.6715, 98.15487
506.1536, 97.65881
506.6357, 97.90622
507.1178, 98.58609
507.5999, 99.58739
508.0821, 100.2720
508.5642, 99.75583
509.0463, 98.56869
509.5284, 98.51397
510.0105, 100.0078
510.4926, 101.2167
510.9748, 100.7097
511.4569, 99.18135
511.9390, 98.27091
512.4211, 98.10075
512.9032, 98.49753
513.3853, 100.0103
513.8674, 101.8665
514.3495, 102.4663
514.8317, 101.4627
515.3138, 100.2673
515.7959, 100.3211
516.2780, 101.7163
516.7601, 103.1016
517.2422, 104.6442
517.7244, 105.9991
518.2065, 106.7124
518.6886, 107.2786
519.1707, 108.5565
519.6528, 110.8080
520.1349, 113.3013
520.6171, 114.8443
521.0992, 115.1474
521.5813, 115.6750
522.0634, 115.6371
522.5455, 116.6853
523.0276, 120.1541
523.5098, 125.0470
523.9919, 129.4173
524.4740, 132.2858
524.9561, 134.6802
525.4382, 138.0988
525.9203, 142.5337
526.4025, 147.4038
526.8846, 152.6158
527.3667, 158.1419
527.8488, 163.5505
528.3309, 169.0169
528.8130, 176.1572
529.2952, 185.9831
529.7773, 197.2471
530.2594, 208.8522
530.7415, 220.8901
531.2236, 233.9885
531.7057, 248.4302
532.1879, 264.0618
532.6700, 280.5670
533.1521, 298.0765
533.6342, 316.5804
534.1163, 336.9034
534.5984, 357.4290
535.0806, 377.8257
535.5627, 397.5187
536.0448, 415.7483
536.5269, 432.1084
537.0090, 446.0502
537.4911, 455.9117
537.9733, 462.5802
538.4554, 463.0862
538.9375, 455.3919
539.4196, 443.2055
539.9017, 427.7423
540.3839, 409.5361
540.8660, 389.6354
541.3481, 367.8732
541.8302, 345.3128
542.3123, 324.1928
542.7944, 304.5664
543.2766, 286.2142
543.7587, 269.2881
544.2408, 253.5736
544.7229, 238.5378
545.2050, 224.0744
545.6871, 210.9950
546.1693, 199.6044
546.6514, 189.7926
547.1335, 181.8044
547.6156, 175.4326
548.0977, 169.3413
548.5798, 162.6846
549.0620, 155.7848
549.5441, 149.7837
550.0262, 145.1615
550.5083, 140.8774
550.9904, 136.9561
551.4725, 133.3454
551.9547, 130.0488
552.4368, 127.0336
552.9189, 124.1981
553.4010, 121.4914
553.8831, 118.9072
554.3652, 116.3999
554.8474, 113.7859
555.3295, 111.7458
555.8116, 110.6568
556.2937, 110.0817
556.7758, 110.0541
557.2579, 110.4572
557.7401, 110.3840
558.2222, 108.7979
558.7043, 106.5956
559.1864, 105.5078
559.6685, 105.5902
560.1506, 105.3571
560.6328, 103.9116
561.1149, 101.8860
561.5970, 100.6381
562.0791, 100.2339
562.5612, 100.1892
563.0433, 100.8886
563.5255, 101.5600
564.0076, 101.6724
564.4897, 101.1529
564.9718, 99.88879
565.4539, 97.69200
565.9360, 95.07564
566.4182, 93.84534
566.9003, 94.82531
567.3824, 95.65648
567.8645, 96.36533
568.3466, 96.73887
568.8287, 96.33232
569.3109, 95.40922
569.7930, 94.87238
570.2751, 95.44344
570.7572, 96.57947
571.2393, 97.16177
571.7214, 97.16506
572.2036, 96.91062
572.6857, 96.42377
573.1678, 95.79381
573.6499, 95.01337
574.1320, 94.08910
574.6141, 93.49596
575.0963, 93.51788
575.5784, 93.80325
576.0605, 94.21603
576.5426, 94.64832
577.0247, 94.75633
577.5068, 94.35373
577.9890, 93.73204
578.4711, 93.40768
578.9532, 93.30815
579.4353, 93.73898
579.9174, 95.57063
580.3995, 97.00185
580.8817, 96.57275
581.3638, 95.19685
581.8459, 94.82847
582.3280, 96.47811
582.8101, 98.78712
583.2922, 99.52728
583.7744, 98.60197
584.2565, 97.36858
584.7386, 95.40500
585.2207, 94.01006
585.7029, 94.61373
586.1850, 96.45667
586.6671, 97.57950
587.1492, 97.12551
587.6313, 96.34998
588.1135, 96.02396
588.5956, 96.08427
589.0777, 96.45702
