##NAMES=Marialite
##RRUFFID=R050123
##IDEAL CHEMISTRY=Na_4_Al_3_Si_9_O_24_Cl
##LOCALITY=Pakistan
##OWNER=RRUFF
##SOURCE=Syed Shah
##DESCRIPTION=Purple fragment
##STATUS=The identification of this mineral has been confirmed by X-ray diffraction and chemical analysis
##URL=rruff.info/R050123
##MEASURED CHEMISTRY=(Na_0.88_Ca_0.07_K_0.05_)_4_Al_3.00_Si_9.00_O_24_Cl_0.97
125.6462, 182.0659
126.1283, 185.1613
126.6104, 188.5277
127.0925, 192.0563
127.5746, 195.9190
128.0567, 200.4026
128.5389, 205.5952
129.0210, 211.1228
129.5031, 216.3911
129.9852, 221.5294
130.4673, 227.0278
130.9494, 233.6056
131.4316, 240.7304
131.9137, 245.8789
132.3958, 248.5295
132.8779, 250.6650
133.3600, 253.3222
133.8421, 256.4721
134.3243, 260.1675
134.8064, 264.7189
135.2885, 269.9995
135.7706, 274.9616
136.2527, 279.4399
136.7348, 283.6002
137.2169, 287.6828
137.6991, 291.6498
138.1812, 295.8696
138.6633, 300.5853
139.1454, 305.8156
139.6275, 311.5479
140.1096, 318.0574
140.5918, 325.0652
141.0739, 330.5180
141.5560, 333.7218
142.0381, 336.6307
142.5202, 341.2001
143.0023, 348.1870
143.4845, 354.5129
143.9666, 359.3039
144.4487, 362.5792
144.9308, 366.5646
145.4129, 371.5704
145.8951, 377.0131
146.3772, 382.4781
146.8593, 388.0616
147.3414, 393.4610
147.8235, 398.6139
148.3056, 403.6277
148.7878, 408.0954
149.2699, 411.6001
149.7520, 414.7907
150.2341, 418.4818
150.7162, 423.3261
151.1983, 428.0483
151.6805, 432.3905
152.1626, 436.2565
152.6447, 439.8934
153.1268, 443.2163
153.6089, 446.3578
154.0910, 449.5098
154.5732, 453.0063
155.0553, 456.2706
155.5374, 459.1397
156.0195, 461.7674
156.5016, 463.6650
156.9837, 464.5556
157.4659, 464.6679
157.9480, 464.4778
158.4301, 464.5656
158.9122, 464.0371
159.3943, 462.4325
159.8764, 459.3205
160.3586, 455.7462
160.8407, 451.9818
161.3228, 447.9676
161.8049, 443.5344
162.2870, 438.8693
162.7691, 433.6240
163.2512, 427.5269
163.7334, 420.0372
164.2155, 412.3314
164.6976, 404.7841
165.1797, 397.3869
165.6618, 390.0882
166.1439, 383.0941
166.6261, 376.1486
167.1082, 369.0460
167.5903, 361.5013
168.0724, 354.0231
168.5545, 346.7631
169.0366, 339.7614
169.5188, 333.2707
170.0009, 327.7085
170.4830, 322.6914
170.9651, 317.6133
171.4472, 312.1190
171.9293, 306.6438
172.4115, 301.3050
172.8936, 296.1465
173.3757, 291.6883
173.8578, 288.8213
174.3399, 286.8616
174.8220, 284.7365
175.3042, 281.8649
175.7863, 278.7535
176.2684, 275.8952
176.7505, 273.2850
177.2326, 270.7696
177.7147, 268.1686
178.1969, 265.5662
178.6790, 263.2082
179.1611, 261.2760
179.6432, 259.6086
180.1253, 258.0727
180.6074, 256.6954
181.0896, 255.2049
181.5717, 253.2366
182.0538, 250.9261
182.5359, 248.6230
183.0180, 246.7109
183.5001, 244.9109
183.9823, 242.5401
184.4644, 239.5452
184.9465, 236.4883
185.4286, 234.1748
185.9107, 232.4540
186.3928, 230.6521
186.8750, 228.3665
187.3571, 225.7668
187.8392, 223.3008
188.3213, 220.9920
188.8034, 218.8356
189.2855, 217.1057
189.7677, 215.7354
190.2498, 213.9153
190.7319, 210.7937
191.2140, 206.7407
191.6961, 203.8622
192.1782, 202.3932
192.6603, 201.5064
193.1425, 199.9751
193.6246, 197.8127
194.1067, 195.7354
194.5888, 194.1814
195.0709, 193.1081
195.5530, 191.9139
196.0352, 190.5742
196.5173, 189.1035
196.9994, 187.3668
197.4815, 185.3168
197.9636, 183.5856
198.4457, 182.5351
198.9279, 182.1715
199.4100, 181.9105
199.8921, 181.7481
200.3742, 181.6503
200.8563, 181.6172
201.3384, 181.6860
201.8206, 181.5849
202.3027, 181.0374
202.7848, 179.9754
203.2669, 179.4208
203.7490, 179.6066
204.2311, 180.0582
204.7133, 179.7399
205.1954, 178.5072
205.6775, 177.1131
206.1596, 175.9262
206.6417, 174.9816
207.1238, 173.9731
207.6060, 172.8666
208.0881, 171.7082
208.5702, 170.6342
209.0523, 169.7099
209.5344, 168.6684
210.0165, 167.3459
210.4987, 165.6706
210.9808, 163.9861
211.4629, 162.2313
211.9450, 160.5249
212.4271, 159.1921
212.9092, 158.3297
213.3914, 157.5953
213.8735, 156.8025
214.3556, 155.8945
214.8377, 155.1898
215.3198, 154.7779
215.8019, 154.5321
216.2841, 154.1285
216.7662, 153.4624
217.2483, 152.8640
217.7304, 152.4980
218.2125, 152.4229
218.6946, 152.3974
219.1767, 152.3745
219.6589, 152.4198
220.1410, 152.7907
220.6231, 153.8265
221.1052, 154.5564
221.5873, 154.4814
222.0694, 153.2998
222.5516, 152.1296
223.0337, 150.8296
223.5158, 149.6098
223.9979, 148.9991
224.4800, 149.3448
224.9621, 149.7009
225.4443, 149.6362
225.9264, 148.9731
226.4085, 148.3291
226.8906, 147.6642
227.3727, 147.0329
227.8548, 146.5474
228.3370, 146.2937
228.8191, 146.0533
229.3012, 145.7503
229.7833, 145.4216
230.2654, 144.9030
230.7475, 143.9526
231.2297, 142.9098
231.7118, 142.6457
232.1939, 143.7882
232.6760, 144.6994
233.1581, 144.6360
233.6402, 143.0729
234.1224, 141.9619
234.6045, 141.3538
235.0866, 141.1677
235.5687, 141.2642
236.0508, 141.8129
236.5329, 142.3630
237.0151, 142.6776
237.4972, 142.5199
237.9793, 142.8432
238.4614, 143.8473
238.9435, 145.2444
239.4256, 146.5006
239.9078, 147.5983
240.3899, 148.5596
240.8720, 149.3206
241.3541, 149.7143
241.8362, 150.5166
242.3183, 151.9477
242.8005, 153.6819
243.2826, 155.1302
243.7647, 156.0017
244.2468, 157.0492
244.7289, 158.5469
245.2110, 160.6155
245.6931, 162.6281
246.1753, 164.4766
246.6574, 166.3377
247.1395, 168.4992
247.6216, 171.0153
248.1037, 173.6957
248.5858, 176.5425
249.0680, 179.5849
249.5501, 182.4581
250.0322, 185.0419
250.5143, 187.5466
250.9964, 190.2581
251.4785, 193.2515
251.9607, 196.3152
252.4428, 199.3593
252.9249, 202.2991
253.4070, 205.7473
253.8891, 209.9363
254.3712, 214.4176
254.8534, 218.7140
255.3355, 222.8593
255.8176, 226.6779
256.2997, 230.1444
256.7818, 233.2228
257.2639, 236.1142
257.7461, 238.8651
258.2282, 241.3874
258.7103, 243.6149
259.1924, 245.7297
259.6745, 247.1921
260.1566, 247.9798
260.6388, 248.0920
261.1209, 246.9726
261.6030, 244.4574
262.0851, 240.9260
262.5672, 236.6475
263.0493, 231.3086
263.5315, 225.9743
264.0136, 220.9526
264.4957, 216.1739
264.9778, 210.5994
265.4599, 203.8844
265.9420, 197.0570
266.4242, 190.9626
266.9063, 185.5487
267.3884, 180.9387
267.8705, 177.5189
268.3526, 174.9378
268.8347, 171.0555
269.3169, 165.2193
269.7990, 159.5610
270.2811, 155.6038
270.7632, 153.7466
271.2453, 151.9839
271.7274, 150.0625
272.2096, 148.0979
272.6917, 146.3708
273.1738, 144.8506
273.6559, 143.6062
274.1380, 142.7825
274.6201, 142.4740
275.1023, 141.9013
275.5844, 140.8822
276.0665, 139.6874
276.5486, 138.9040
277.0307, 138.5683
277.5128, 138.5241
277.9950, 138.7495
278.4771, 139.2641
278.9592, 139.8090
279.4413, 140.4063
279.9234, 141.0004
280.4055, 141.4725
280.8877, 141.8134
281.3698, 142.1216
281.8519, 142.5078
282.3340, 142.9693
282.8161, 143.1216
283.2982, 142.9236
283.7804, 142.5032
284.2625, 142.0182
284.7446, 141.4638
285.2267, 140.8993
285.7088, 140.3216
286.1909, 139.7430
286.6730, 139.2550
287.1552, 138.8577
287.6373, 138.5462
288.1194, 138.2690
288.6015, 138.0352
289.0836, 138.0484
289.5657, 138.5112
290.0479, 139.2562
290.5300, 139.6352
291.0121, 139.6136
291.4942, 139.5210
291.9763, 139.5821
292.4584, 139.8168
292.9406, 140.3653
293.4227, 141.3250
293.9048, 142.5692
294.3869, 143.9436
294.8690, 145.4523
295.3511, 146.7412
295.8333, 147.4299
296.3154, 147.6539
296.7975, 147.9680
297.2796, 148.7067
297.7617, 149.2579
298.2438, 148.4499
298.7260, 146.4152
299.2081, 144.1378
299.6902, 142.5506
300.1723, 141.1986
300.6544, 138.8921
301.1365, 135.2410
301.6187, 131.2410
302.1008, 128.0113
302.5829, 125.4661
303.0650, 123.1550
303.5471, 120.8886
304.0292, 118.7009
304.5114, 116.5791
304.9935, 114.4539
305.4756, 112.6528
305.9577, 111.7552
306.4398, 111.4134
306.9219, 110.8182
307.4041, 109.1179
307.8862, 107.2295
308.3683, 106.1443
308.8504, 105.9459
309.3325, 105.8580
309.8146, 105.2434
310.2968, 104.3871
310.7789, 103.7049
311.2610, 103.4324
311.7431, 103.3551
312.2252, 103.3195
312.7073, 103.3300
313.1895, 103.4578
313.6716, 103.9541
314.1537, 104.5074
314.6358, 104.7806
315.1179, 104.4268
315.6000, 104.0360
316.0822, 103.8791
316.5643, 103.9339
317.0464, 104.1089
317.5285, 104.5902
318.0106, 105.0405
318.4927, 105.1576
318.9749, 104.5027
319.4570, 104.1702
319.9391, 104.9114
320.4212, 106.2762
320.9033, 107.2296
321.3854, 107.0250
321.8676, 106.6684
322.3497, 106.6696
322.8318, 107.2405
323.3139, 107.7169
323.7960, 107.8231
324.2781, 107.7804
324.7603, 107.9102
325.2424, 108.3537
325.7245, 108.8954
326.2066, 109.5473
326.6887, 110.3662
327.1708, 110.9472
327.6530, 111.0082
328.1351, 110.9339
328.6172, 111.0794
329.0993, 111.6493
329.5814, 112.2326
330.0635, 112.7945
330.5457, 113.3348
331.0278, 113.8436
331.5099, 114.3943
331.9920, 114.8557
332.4741, 115.0990
332.9562, 114.7198
333.4384, 114.8317
333.9205, 115.7915
334.4026, 117.2973
334.8847, 118.2341
335.3668, 118.2687
335.8489, 118.2217
336.3311, 118.5218
336.8132, 119.3982
337.2953, 119.9066
337.7774, 119.8001
338.2595, 119.5138
338.7416, 119.9472
339.2238, 121.3602
339.7059, 122.7276
340.1880, 123.6528
340.6701, 124.1210
341.1522, 124.5788
341.6343, 125.0121
342.1164, 125.4770
342.5985, 126.0326
343.0807, 126.6799
343.5628, 127.4514
344.0449, 128.3950
344.5270, 129.4682
345.0091, 130.5635
345.4912, 131.7022
345.9734, 132.7811
346.4555, 133.5711
346.9376, 134.1370
347.4197, 135.1725
347.9018, 136.9448
348.3839, 139.0257
348.8661, 140.6187
349.3482, 141.7525
349.8303, 142.9270
350.3124, 144.4372
350.7945, 146.2331
351.2766, 148.2402
351.7588, 150.5183
352.2409, 152.8335
352.7230, 154.9138
353.2051, 156.8264
353.6872, 158.8132
354.1693, 161.0359
354.6515, 163.3606
355.1336, 165.6323
355.6157, 167.8773
356.0978, 170.0255
356.5799, 172.2506
357.0620, 174.3275
357.5442, 175.9154
358.0263, 176.7513
358.5084, 177.1956
358.9905, 177.6071
359.4726, 177.9082
359.9547, 177.7086
360.4369, 176.3985
360.9190, 174.7120
361.4011, 173.2954
361.8832, 172.5079
362.3653, 171.5701
362.8474, 170.0571
363.3296, 168.1479
363.8117, 166.2101
364.2938, 164.1483
364.7759, 162.2893
365.2580, 160.9454
365.7401, 160.3687
366.2223, 159.3216
366.7044, 157.0936
367.1865, 154.4219
367.6686, 152.0992
368.1507, 150.5771
368.6328, 149.0927
369.1150, 147.5498
369.5971, 145.9469
370.0792, 144.1570
370.5613, 141.6648
371.0434, 139.3863
371.5255, 137.9307
372.0077, 138.2805
372.4898, 137.9223
372.9719, 136.5625
373.4540, 134.4301
373.9361, 132.1333
374.4182, 129.2801
374.9004, 126.9516
375.3825, 125.7638
375.8646, 126.0899
376.3467, 125.9548
376.8288, 125.2314
377.3109, 124.2027
377.7931, 123.2425
378.2752, 122.3548
378.7573, 121.4895
379.2394, 120.5780
379.7215, 119.6611
380.2036, 119.0345
380.6858, 118.7608
381.1679, 118.5287
381.6500, 118.0159
382.1321, 117.2485
382.6142, 116.6268
383.0963, 116.2671
383.5785, 116.0192
384.0606, 115.5567
384.5427, 114.9058
385.0248, 114.2623
385.5069, 113.8802
385.9890, 113.5882
386.4712, 112.8979
386.9533, 111.7057
387.4354, 110.5223
387.9175, 110.0181
388.3996, 109.9646
388.8817, 109.8480
389.3639, 109.2854
389.8460, 108.6528
390.3281, 108.2793
390.8102, 108.1681
391.2923, 108.2892
391.7744, 109.0066
392.2566, 109.7855
392.7387, 110.0323
393.2208, 109.3064
393.7029, 108.4586
394.1850, 107.7849
394.6671, 107.3082
395.1493, 107.0770
395.6314, 107.3152
396.1135, 107.6455
396.5956, 107.9013
397.0777, 108.0860
397.5598, 108.1213
398.0419, 107.9294
398.5240, 107.6005
399.0062, 107.2382
399.4883, 106.5116
399.9704, 106.1106
400.4525, 106.3743
400.9346, 107.2760
401.4167, 107.8170
401.8989, 107.7272
402.3810, 107.5173
402.8631, 107.4856
403.3452, 107.7103
403.8273, 107.9453
404.3094, 108.0919
404.7916, 108.2804
405.2737, 108.9216
405.7558, 110.3351
406.2379, 111.4006
406.7200, 111.5398
407.2021, 110.6968
407.6843, 110.3921
408.1664, 110.7502
408.6485, 111.3389
409.1306, 111.5702
409.6127, 111.4430
410.0948, 111.7227
410.5770, 112.7814
411.0591, 114.2236
411.5412, 114.8293
412.0233, 114.6202
412.5054, 114.5888
412.9875, 115.7438
413.4697, 117.5990
413.9518, 118.8426
414.4339, 119.2361
414.9160, 119.3135
415.3981, 119.5285
415.8802, 119.8786
416.3624, 120.3682
416.8445, 121.1516
417.3266, 121.9779
417.8087, 122.5477
418.2908, 122.8710
418.7729, 123.2916
419.2551, 124.0221
419.7372, 124.9534
420.2193, 125.9892
420.7014, 127.2355
421.1835, 128.3812
421.6656, 129.1611
422.1478, 129.7254
422.6299, 130.4476
423.1120, 131.4869
423.5941, 132.6676
424.0762, 133.9283
424.5583, 135.3216
425.0405, 136.6230
425.5226, 137.7527
426.0047, 138.8075
426.4868, 139.8579
426.9689, 140.6411
427.4510, 141.7908
427.9332, 143.5718
428.4153, 145.8209
428.8974, 147.6113
429.3795, 148.7004
429.8616, 149.6924
430.3438, 150.8785
430.8259, 152.2903
431.3080, 153.7928
431.7901, 155.3238
432.2722, 157.0321
432.7543, 159.1463
433.2365, 161.6474
433.7186, 164.7353
434.2007, 168.7929
434.6828, 173.4318
435.1649, 176.9128
435.6470, 179.1685
436.1292, 181.5120
436.6113, 184.6661
437.0934, 188.7430
437.5755, 194.3175
438.0576, 201.8248
438.5397, 209.9236
439.0219, 216.5390
439.5040, 222.3403
439.9861, 229.1827
440.4682, 239.0465
440.9503, 249.8223
441.4324, 259.3864
441.9146, 267.6664
442.3967, 275.9158
442.8788, 284.6811
443.3609, 293.9742
443.8430, 303.5929
444.3251, 313.8136
444.8073, 324.1563
445.2894, 334.2235
445.7715, 344.2707
446.2536, 354.9590
446.7357, 366.7169
447.2178, 378.9478
447.7000, 391.2382
448.1821, 403.3286
448.6642, 416.6409
449.1463, 431.6617
449.6284, 447.5600
450.1105, 463.7285
450.5927, 479.8641
451.0747, 496.8664
451.5569, 515.1204
452.0390, 534.3177
452.5211, 554.1439
453.0032, 574.6776
453.4853, 595.1994
453.9674, 615.4023
454.4496, 635.4626
454.9317, 654.2901
455.4138, 672.1354
455.8959, 687.7116
456.3780, 699.8375
456.8601, 708.5059
457.3423, 712.9104
457.8244, 712.8663
458.3065, 708.3035
458.7886, 698.7234
459.2707, 684.1293
459.7528, 666.0443
460.2350, 644.2549
460.7171, 619.7804
461.1992, 593.2281
461.6813, 564.5211
462.1634, 535.4570
462.6455, 506.2357
463.1277, 477.5349
463.6098, 450.1996
464.0919, 423.8849
464.5740, 399.7289
465.0561, 378.4033
465.5382, 359.7719
466.0204, 342.3751
466.5025, 325.4041
466.9846, 309.5510
467.4667, 295.3817
467.9488, 283.3082
468.4309, 272.0064
468.9131, 261.6660
469.3952, 252.0205
469.8773, 242.7761
470.3594, 233.8435
470.8415, 225.2882
471.3236, 216.9818
471.8058, 209.0508
472.2879, 202.0282
472.7700, 196.0740
473.2521, 190.6691
473.7342, 185.4822
474.2163, 180.4824
474.6985, 176.3807
475.1806, 173.4178
475.6627, 170.8282
476.1448, 167.3274
476.6269, 163.0405
477.1090, 159.0343
477.5912, 155.7376
478.0733, 152.9268
478.5554, 150.1578
479.0375, 147.4451
479.5196, 145.0584
480.0017, 143.4439
480.4839, 142.1293
480.9660, 140.4445
481.4481, 138.1754
481.9302, 135.9908
482.4123, 134.3303
482.8944, 133.0424
483.3766, 131.8956
483.8587, 131.0599
484.3408, 130.0960
484.8229, 128.7062
485.3050, 126.9501
485.7871, 125.4104
486.2693, 124.2145
486.7514, 123.2308
487.2335, 122.4264
487.7156, 121.8679
488.1977, 121.2906
488.6798, 120.5618
489.1620, 119.8939
489.6441, 119.6373
490.1262, 120.0452
490.6083, 120.2033
491.0904, 119.8862
491.5725, 119.1772
492.0547, 118.3543
492.5368, 117.3768
493.0189, 116.5650
493.5010, 116.2210
493.9831, 116.2743
494.4652, 116.2659
494.9474, 116.2089
495.4295, 115.9056
495.9116, 114.7170
496.3937, 113.0564
496.8758, 112.1801
497.3579, 113.0122
497.8401, 114.2040
498.3222, 114.1599
498.8043, 113.1790
499.2864, 112.3947
499.7685, 112.5746
500.2506, 113.0758
500.7328, 113.4984
501.2149, 113.8158
501.6970, 113.9021
502.1791, 113.6448
502.6612, 113.1626
503.1433, 112.5681
503.6255, 111.5096
504.1076, 110.7829
504.5897, 110.5861
505.0718, 110.7902
505.5539, 111.0598
506.0360, 111.6764
506.5181, 111.9284
507.0002, 111.3835
507.4824, 109.9559
507.9645, 109.3527
508.4466, 109.8561
508.9287, 110.5312
509.4108, 110.4792
509.8929, 109.7055
510.3751, 108.8349
510.8572, 107.8568
511.3393, 107.0010
511.8214, 106.6306
512.3035, 106.7122
512.7856, 107.0737
513.2678, 107.8781
513.7499, 108.7937
514.2320, 109.3405
514.7141, 109.5306
515.1962, 109.6126
515.6783, 109.5295
516.1605, 109.5319
516.6426, 109.8725
517.1247, 110.6593
517.6068, 111.6362
518.0889, 112.6208
518.5710, 113.7607
519.0532, 115.2506
519.5353, 117.5557
520.0174, 119.7727
520.4995, 121.5267
520.9816, 122.9103
521.4637, 124.7771
521.9459, 127.2486
522.4280, 130.0607
522.9101, 133.2194
523.3922, 136.9930
523.8743, 139.8031
524.3564, 141.3449
524.8386, 142.5696
525.3207, 144.6737
525.8028, 147.6347
526.2849, 150.6238
526.7670, 153.2843
527.2491, 156.0679
527.7313, 159.9789
528.2134, 164.8603
528.6955, 169.7367
529.1776, 172.9717
529.6597, 176.3370
530.1418, 183.0542
530.6240, 193.0811
531.1061, 202.2446
531.5882, 206.0390
532.0703, 208.4043
532.5524, 213.2030
533.0345, 222.3667
533.5167, 232.0867
533.9988, 241.4820
534.4809, 250.5079
534.9630, 259.0539
535.4451, 267.6671
535.9272, 275.2617
536.4094, 281.8441
536.8915, 287.3498
537.3736, 291.4256
537.8557, 294.5894
538.3378, 295.5296
538.8199, 293.5590
539.3021, 288.6304
539.7842, 280.9477
540.2663, 270.0769
540.7484, 257.4263
541.2305, 244.1748
541.7126, 230.3591
542.1948, 217.1010
542.6769, 204.6841
543.1590, 193.2065
543.6411, 183.1591
544.1232, 174.4570
544.6053, 166.8146
545.0875, 160.3613
545.5696, 154.5958
546.0517, 149.0638
546.5338, 143.7247
547.0159, 138.9649
547.4980, 134.9213
547.9802, 131.5050
548.4623, 128.6686
548.9444, 126.6712
549.4265, 124.7728
549.9086, 122.8676
550.3907, 121.0055
550.8729, 119.2145
551.3550, 117.3750
551.8371, 115.8100
552.3192, 114.6189
552.8013, 113.7617
553.2834, 113.1150
553.7656, 112.7807
554.2477, 112.2667
554.7298, 111.1074
555.2119, 109.4033
555.6940, 108.2848
556.1761, 107.7969
556.6583, 107.5303
557.1404, 107.1136
557.6225, 106.6024
558.1046, 106.1467
558.5867, 105.8097
559.0688, 105.4636
559.5510, 104.9109
560.0331, 104.2746
560.5152, 103.7850
560.9973, 103.6337
561.4794, 103.5654
561.9615, 103.4630
562.4437, 103.3306
562.9258, 103.2375
563.4079, 103.3228
563.8900, 103.3422
564.3721, 103.1527
564.8542, 102.6481
565.3364, 102.3113
565.8185, 102.3050
566.3006, 102.2795
566.7827, 101.7545
567.2648, 100.5832
567.7469, 99.87779
568.2291, 99.88911
568.7112, 100.3335
569.1933, 100.7780
569.6754, 101.2013
570.1575, 101.3855
570.6396, 101.0935
571.1218, 100.5742
571.6039, 100.1505
572.0860, 99.83842
572.5681, 99.73146
573.0502, 99.94576
573.5323, 100.3625
574.0145, 101.0015
574.4966, 101.9784
574.9787, 102.5553
575.4608, 102.1039
575.9429, 101.2689
576.4250, 100.6841
576.9072, 100.4708
577.3893, 100.4877
577.8714, 100.8154
578.3535, 101.3387
578.8356, 101.8023
579.3177, 102.2193
579.7999, 102.5399
580.2820, 102.7241
580.7641, 102.7972
581.2462, 102.9260
581.7283, 103.1137
582.2104, 103.3390
582.6926, 103.6199
583.1747, 103.9277
583.6568, 104.1867
584.1389, 104.3972
584.6210, 104.5303
585.1031, 104.3981
585.5853, 104.2186
586.0674, 104.3444
586.5495, 105.1189
587.0316, 105.7992
587.5137, 105.9764
587.9958, 105.8045
588.4779, 105.5857
588.9600, 105.2367
589.4421, 105.0163
589.9243, 105.1345
590.4064, 105.5231
590.8885, 105.5069
591.3706, 104.7311
591.8527, 104.1169
592.3348, 104.2202
592.8170, 105.1444
593.2991, 105.6257
593.7812, 105.6113
594.2633, 105.3675
594.7454, 105.0385
595.2275, 104.6814
595.7097, 104.6093
596.1918, 104.9387
596.6739, 105.3798
597.1560, 105.7200
597.6381, 105.9059
598.1202, 105.8169
598.6024, 105.0432
599.0845, 104.3085
599.5666, 104.0412
600.0487, 104.1729
600.5308, 104.4373
601.0129, 105.0518
601.4951, 105.5126
601.9772, 105.5473
602.4593, 105.1079
602.9414, 104.6982
603.4235, 104.1902
603.9056, 103.8769
604.3878, 104.0585
604.8699, 104.8616
605.3520, 105.2991
605.8341, 105.2542
606.3162, 105.0296
606.7983, 105.0580
607.2805, 105.2830
607.7626, 105.3663
608.2447, 105.1718
608.7268, 104.8684
609.2089, 104.5540
609.6910, 104.2912
610.1732, 104.2456
610.6553, 104.7631
611.1374, 105.3028
611.6195, 105.4335
612.1016, 105.2005
612.5837, 105.1325
613.0659, 105.4228
613.5480, 105.8751
614.0301, 106.4849
614.5122, 107.3991
614.9943, 107.7914
615.4764, 107.4401
615.9586, 106.8448
616.4407, 106.3536
616.9228, 105.9420
617.4049, 105.9415
617.8870, 106.4643
618.3691, 107.2231
618.8513, 107.8560
619.3334, 108.3582
619.8155, 108.7140
620.2976, 108.8670
620.7797, 108.9215
621.2618, 108.9936
621.7440, 109.0661
622.2261, 109.0874
622.7082, 108.8005
623.1903, 108.6534
