##NAMES=Marialite
##RRUFFID=R060458
##IDEAL CHEMISTRY=Na_4_Al_3_Si_9_O_24_Cl
##LOCALITY=Dading, Nepal
##OWNER=RRUFF
##SOURCE=Michael Scott
##DESCRIPTION=Colorless elongated prism
##STATUS=The identification of this mineral has been confirmed by X-ray diffraction and chemical analysis
##URL=rruff.info/R060458
##MEASURED CHEMISTRY=(Na_0.52_Ca_0.47_K_0.01_)_4_(Al_0.36_Si_0.64_)_12_O_24_(Cl_0.44_(CO_3_)_0.56_)
91.72394, 0.0000000E+00
92.20605, 323.5169
92.68817, 322.0177
93.17029, 323.5462
93.65240, 326.3396
94.13452, 329.4381
94.61664, 330.5849
95.09875, 329.3673
95.58087, 326.3094
96.06299, 321.7199
96.54510, 314.1834
97.02721, 307.1920
97.50933, 302.0499
97.99145, 297.8902
98.47356, 293.5009
98.95568, 287.8497
99.43780, 280.4962
99.91991, 273.5339
100.4020, 266.0154
100.8841, 259.6055
101.3663, 255.1787
101.8484, 252.5270
102.3305, 250.7442
102.8126, 249.0170
103.2947, 247.3446
103.7768, 245.6286
104.2590, 243.7964
104.7411, 241.9165
105.2232, 239.9625
105.7053, 237.8376
106.1874, 235.9333
106.6695, 234.8668
107.1517, 234.5493
107.6338, 234.2392
108.1159, 233.4861
108.5980, 232.3994
109.0801, 231.5624
109.5622, 231.1666
110.0444, 231.0393
110.5265, 231.0176
111.0086, 231.0858
111.4907, 231.2796
111.9728, 231.6597
112.4549, 232.2621
112.9371, 232.9234
113.4192, 233.4496
113.9013, 234.1009
114.3834, 235.1524
114.8655, 236.7032
115.3476, 238.5401
115.8298, 240.0753
116.3119, 241.1432
116.7940, 242.0826
117.2761, 242.6680
117.7582, 243.2090
118.2403, 244.1424
118.7225, 245.7602
119.2046, 247.9846
119.6867, 249.8728
120.1688, 251.3987
120.6509, 252.7020
121.1330, 253.6870
121.6152, 254.4371
122.0973, 255.2495
122.5794, 256.3846
123.0615, 257.8327
123.5436, 259.0919
124.0257, 260.0108
124.5079, 260.8258
124.9900, 261.9237
125.4721, 263.4405
125.9542, 264.5789
126.4363, 264.1129
126.9184, 262.6226
127.4006, 261.4131
127.8827, 261.3228
128.3648, 261.9327
128.8469, 261.9394
129.3290, 261.0033
129.8111, 259.7384
130.2932, 258.6574
130.7754, 257.6569
131.2575, 256.3723
131.7396, 254.3889
132.2217, 251.6162
132.7038, 248.9822
133.1859, 246.5065
133.6681, 244.1780
134.1502, 242.0168
134.6323, 240.0171
135.1144, 238.1709
135.5965, 236.5444
136.0786, 235.6003
136.5608, 233.8460
137.0429, 230.4529
137.5250, 226.8918
138.0071, 224.4648
138.4892, 223.5102
138.9713, 223.2093
139.4535, 221.8816
139.9356, 218.4716
140.4177, 215.4355
140.8998, 213.0792
141.3819, 211.1228
141.8640, 209.2267
142.3462, 207.2799
142.8283, 205.2451
143.3104, 202.9966
143.7925, 200.3095
144.2746, 197.8317
144.7567, 196.0451
145.2388, 194.7769
145.7210, 193.2491
146.2031, 190.9435
146.6852, 188.2263
147.1673, 185.8262
147.6494, 183.8269
148.1315, 182.0762
148.6137, 180.5461
149.0958, 179.2871
149.5779, 177.8708
150.0600, 175.5253
150.5421, 173.0914
151.0242, 171.5153
151.5064, 171.3796
151.9885, 171.9096
152.4706, 171.4754
152.9527, 169.5274
153.4348, 167.5925
153.9169, 165.9716
154.3991, 164.6811
154.8812, 163.7723
155.3633, 163.3298
155.8454, 163.2663
156.3275, 163.0601
156.8096, 162.6231
157.2918, 162.1138
157.7739, 161.5193
158.2560, 160.8766
158.7381, 160.2757
159.2202, 159.8137
159.7023, 159.5053
160.1845, 158.7411
160.6666, 156.9441
161.1487, 155.3063
161.6308, 154.4480
162.1129, 154.2127
162.5950, 153.9774
163.0772, 153.2123
163.5593, 151.8392
164.0414, 150.2935
164.5235, 148.5636
165.0056, 146.6986
165.4877, 144.6152
165.9698, 142.3305
166.4520, 140.1872
166.9341, 138.6195
167.4162, 137.6340
167.8983, 136.4843
168.3804, 134.9592
168.8625, 133.2762
169.3447, 131.7277
169.8268, 130.3837
170.3089, 129.0554
170.7910, 127.5160
171.2731, 125.8258
171.7552, 124.1846
172.2374, 122.7444
172.7195, 121.4209
173.2016, 119.9371
173.6837, 118.0979
174.1658, 116.3578
174.6479, 114.9567
175.1301, 113.8759
175.6122, 113.0425
176.0943, 112.5258
176.5764, 112.3067
177.0585, 111.9444
177.5406, 111.3296
178.0228, 110.6265
178.5049, 109.7949
178.9870, 108.9026
179.4691, 108.1763
179.9512, 107.8777
180.4333, 108.1043
180.9155, 108.3186
181.3976, 108.6902
181.8797, 108.9164
182.3618, 108.6403
182.8439, 107.9549
183.3260, 107.3835
183.8082, 107.6680
184.2903, 109.4160
184.7724, 110.4135
185.2545, 110.2010
185.7366, 109.7420
186.2187, 109.6265
186.7009, 109.9705
187.1830, 110.5259
187.6651, 110.9476
188.1472, 111.2160
188.6293, 111.3523
189.1114, 111.2200
189.5936, 111.0358
190.0757, 110.9533
190.5578, 111.0174
191.0399, 111.2459
191.5220, 111.7316
192.0041, 112.6847
192.4863, 113.2942
192.9684, 113.2456
193.4505, 112.8786
193.9326, 112.6436
194.4147, 112.6912
194.8968, 112.8121
195.3790, 112.5979
195.8611, 112.0115
196.3432, 111.5335
196.8253, 111.3554
197.3074, 111.3860
197.7895, 111.4241
198.2717, 111.4047
198.7538, 111.4011
199.2359, 111.4984
199.7180, 111.6918
200.2001, 111.9481
200.6822, 112.4278
201.1644, 113.0224
201.6465, 113.1685
202.1286, 112.5403
202.6107, 111.6143
203.0928, 110.6637
203.5749, 109.7065
204.0571, 109.2004
204.5392, 109.8473
205.0213, 111.6248
205.5034, 112.7581
205.9855, 112.5449
206.4676, 111.8833
206.9497, 111.1118
207.4319, 110.3199
207.9140, 109.7838
208.3961, 109.8922
208.8782, 110.7668
209.3603, 111.5171
209.8424, 111.8675
210.3246, 112.2141
210.8067, 112.7344
211.2888, 113.4513
211.7709, 114.2902
212.2530, 115.2081
212.7351, 116.2816
213.2173, 117.1637
213.6994, 117.6201
214.1815, 118.0733
214.6636, 118.8031
215.1457, 119.8182
215.6278, 120.9069
216.1100, 121.8128
216.5921, 122.5565
217.0742, 123.0248
217.5563, 123.2918
218.0384, 123.3016
218.5205, 122.8680
219.0027, 122.0386
219.4848, 121.1654
219.9669, 120.7397
220.4490, 121.0115
220.9311, 121.1421
221.4132, 121.1916
221.8954, 121.0819
222.3775, 120.6384
222.8596, 119.8747
223.3417, 119.1096
223.8238, 118.7769
224.3059, 119.1387
224.7881, 119.2257
225.2702, 118.7222
225.7523, 118.1360
226.2344, 117.9602
226.7165, 118.2745
227.1986, 118.7254
227.6807, 118.9187
228.1629, 118.8255
228.6450, 118.5129
229.1271, 117.7270
229.6092, 116.8505
230.0913, 116.4036
230.5734, 116.4965
231.0556, 116.5450
231.5377, 115.7590
232.0198, 114.1501
232.5019, 112.8249
232.9840, 112.0078
233.4661, 111.5451
233.9483, 111.3372
234.4304, 111.4113
234.9125, 111.4904
235.3946, 111.2826
235.8767, 110.8424
236.3588, 110.3462
236.8410, 109.7228
237.3231, 109.1081
237.8052, 108.6826
238.2873, 108.4522
238.7694, 108.4363
239.2515, 108.8825
239.7337, 109.5744
240.2158, 110.0115
240.6979, 109.7519
241.1800, 109.1932
241.6621, 109.0587
242.1442, 109.3961
242.6264, 110.0686
243.1085, 111.2750
243.5906, 112.7128
244.0727, 113.8607
244.5548, 114.3291
245.0369, 114.4487
245.5191, 114.9462
246.0012, 115.9488
246.4833, 117.0359
246.9654, 117.9855
247.4475, 118.8879
247.9296, 119.8688
248.4117, 120.9976
248.8939, 122.2180
249.3760, 123.3936
249.8581, 124.4079
250.3402, 125.6370
250.8223, 127.1529
251.3044, 128.9352
251.7866, 131.0260
252.2687, 133.5007
252.7508, 136.1585
253.2329, 138.5201
253.7150, 140.2859
254.1971, 142.3577
254.6793, 144.9836
255.1614, 147.9486
255.6435, 151.1299
256.1256, 154.4810
256.6077, 157.8935
257.0898, 161.2335
257.5720, 164.7670
258.0541, 167.6138
258.5362, 169.0924
259.0183, 170.2612
259.5004, 172.2737
259.9825, 175.4828
260.4647, 178.9358
260.9468, 180.8013
261.4289, 180.3886
261.9110, 179.6112
262.3931, 178.8293
262.8752, 177.7008
263.3574, 175.9801
263.8395, 173.5912
264.3216, 170.6285
264.8037, 167.1790
265.2858, 163.0269
265.7679, 158.7728
266.2501, 154.3363
266.7322, 149.8949
267.2143, 145.5844
267.6964, 141.4373
268.1785, 137.3869
268.6606, 133.3115
269.1428, 129.0266
269.6249, 125.2867
270.1070, 122.1811
270.5891, 119.4276
271.0712, 117.0786
271.5533, 115.0170
272.0355, 112.8187
272.5176, 109.8802
272.9997, 105.7339
273.4818, 103.0386
273.9639, 102.7512
274.4460, 102.7733
274.9282, 102.0260
275.4103, 100.5247
275.8924, 98.87820
276.3745, 97.63486
276.8566, 96.84166
277.3387, 96.00677
277.8208, 94.99221
278.3029, 94.07430
278.7851, 93.42747
279.2672, 92.98890
279.7493, 92.53793
280.2314, 91.88051
280.7135, 91.03582
281.1956, 90.60310
281.6778, 90.85566
282.1599, 91.14031
282.6420, 91.22150
283.1241, 91.16311
283.6062, 91.11824
284.0883, 91.16734
284.5705, 91.31605
285.0526, 91.60625
285.5347, 91.99946
286.0168, 92.54990
286.4989, 93.39697
286.9810, 94.39297
287.4632, 95.28416
287.9453, 95.94715
288.4274, 96.45540
288.9095, 97.01138
289.3916, 97.31313
289.8737, 98.08531
290.3559, 99.81263
290.8380, 101.9655
291.3201, 103.6835
291.8022, 104.6375
292.2843, 105.4498
292.7664, 107.3568
293.2486, 110.9755
293.7307, 114.1830
294.2128, 116.7655
294.6949, 118.8433
295.1770, 120.6559
295.6591, 122.2611
296.1413, 123.2686
296.6234, 123.1767
297.1055, 121.8048
297.5876, 119.6829
298.0697, 116.4842
298.5518, 112.7554
299.0340, 108.6657
299.5161, 104.3349
299.9982, 100.3854
300.4803, 97.49438
300.9624, 95.79800
301.4445, 93.86034
301.9267, 91.31469
302.4088, 88.84417
302.8909, 86.84294
303.3730, 85.32388
303.8551, 84.12661
304.3372, 83.17061
304.8194, 82.45370
305.3015, 81.82171
305.7836, 81.36561
306.2657, 80.89182
306.7478, 80.34193
307.2299, 79.70486
307.7121, 78.88817
308.1942, 77.74831
308.6763, 76.50357
309.1584, 75.96904
309.6405, 76.66965
310.1227, 77.13956
310.6048, 76.66228
311.0869, 75.65990
311.5690, 74.93607
312.0511, 74.80759
312.5332, 75.02878
313.0154, 75.18090
313.4975, 75.34127
313.9796, 75.24415
314.4617, 74.59340
314.9438, 73.74650
315.4259, 73.17712
315.9081, 73.00723
316.3902, 73.00645
316.8723, 72.87899
317.3544, 72.58215
317.8365, 72.45606
318.3186, 72.69193
318.8007, 73.00870
319.2828, 73.13834
319.7650, 73.05956
320.2471, 72.94612
320.7292, 72.96487
321.2113, 73.11369
321.6934, 73.12424
322.1755, 72.76403
322.6577, 72.46993
323.1398, 72.57054
323.6219, 73.00365
324.1040, 73.47429
324.5861, 73.83332
325.0682, 74.06451
325.5504, 74.09927
326.0325, 73.74438
326.5146, 73.43956
326.9967, 73.27140
327.4788, 73.26620
327.9609, 73.52641
328.4431, 74.13815
328.9252, 74.92444
329.4073, 75.47417
329.8894, 75.76023
330.3715, 75.92017
330.8536, 75.83039
331.3358, 75.68153
331.8179, 75.70979
332.3000, 75.97752
332.7821, 76.41601
333.2642, 76.97551
333.7463, 77.73108
334.2285, 78.30524
334.7106, 78.55218
335.1927, 78.70131
335.6748, 78.86782
336.1569, 79.08895
336.6390, 79.49324
337.1212, 80.26803
337.6033, 81.43483
338.0854, 82.10110
338.5675, 81.91531
339.0496, 81.63839
339.5317, 81.52998
340.0139, 81.62910
340.4960, 82.03304
340.9781, 82.86266
341.4602, 83.96941
341.9423, 84.57612
342.4244, 84.08440
342.9066, 83.88775
343.3887, 84.50808
343.8708, 85.53188
344.3529, 86.32173
344.8350, 86.62578
345.3171, 86.74065
345.7993, 87.23909
346.2814, 88.54623
346.7635, 89.51089
347.2456, 89.76697
347.7277, 89.89107
348.2098, 90.39095
348.6920, 91.33549
349.1741, 92.45921
349.6562, 93.45788
350.1383, 94.29922
350.6204, 95.19427
351.1025, 96.23230
351.5847, 97.23320
352.0668, 98.03997
352.5489, 98.71272
353.0310, 99.43916
353.5131, 100.3512
353.9952, 101.4326
354.4774, 102.5430
354.9595, 103.6641
355.4416, 104.8310
355.9237, 106.1101
356.4058, 107.4197
356.8879, 108.6300
357.3701, 109.6796
357.8522, 110.6717
358.3343, 111.8920
358.8164, 113.9138
359.2985, 115.2330
359.7806, 115.7283
360.2627, 115.6441
360.7448, 115.0746
361.2270, 114.0847
361.7091, 112.8131
362.1912, 111.3860
362.6733, 109.7516
363.1554, 108.1893
363.6375, 106.8194
364.1197, 105.4061
364.6018, 103.8443
365.0839, 102.1498
365.5660, 100.3670
366.0481, 98.46043
366.5302, 96.51468
367.0124, 95.21066
367.4945, 95.06560
367.9766, 94.93951
368.4587, 94.66088
368.9408, 94.25738
369.4229, 93.74058
369.9051, 93.11573
370.3872, 92.46777
370.8693, 91.94510
371.3514, 91.54869
371.8335, 91.29007
372.3156, 91.16689
372.7978, 91.17165
373.2799, 91.32285
373.7620, 91.61231
374.2441, 91.99255
374.7262, 92.45511
375.2083, 93.00669
375.6905, 93.46753
376.1726, 93.85213
376.6547, 94.11262
377.1368, 94.23045
377.6189, 94.21813
378.1010, 94.07151
378.5832, 93.68764
379.0653, 93.24566
379.5474, 93.28860
380.0295, 94.02703
380.5116, 94.69538
380.9937, 95.05252
381.4759, 95.18041
381.9580, 95.10754
382.4401, 94.82444
382.9222, 94.44543
383.4043, 94.08476
383.8864, 93.74139
384.3686, 93.37916
384.8507, 92.98293
385.3328, 92.57114
385.8149, 92.17702
386.2970, 91.79527
386.7791, 91.35714
387.2613, 90.77710
387.7434, 90.12290
388.2255, 89.60419
388.7076, 89.31269
389.1897, 88.89083
389.6718, 87.83107
390.1540, 86.47170
390.6361, 85.52076
391.1182, 85.35803
391.6003, 85.40147
392.0824, 85.22148
392.5645, 84.81456
393.0467, 84.09962
393.5288, 82.87211
394.0109, 81.48959
394.4930, 80.61877
394.9751, 80.34915
395.4572, 80.16248
395.9394, 79.88596
396.4215, 79.55562
396.9036, 79.16128
397.3857, 78.67239
397.8678, 78.37708
398.3499, 78.74287
398.8321, 79.82054
399.3142, 80.25572
399.7963, 79.40475
400.2784, 78.37418
400.7605, 77.94576
401.2426, 78.05075
401.7247, 78.22935
402.2068, 78.21928
402.6890, 78.06043
403.1711, 77.92889
403.6532, 77.72998
404.1353, 77.66911
404.6174, 77.83767
405.0995, 78.14214
405.5817, 78.43582
406.0638, 78.68139
406.5459, 79.02214
407.0280, 79.69607
407.5101, 80.90162
407.9922, 81.78967
408.4744, 82.08272
408.9565, 82.34566
409.4386, 82.96193
409.9207, 83.83921
410.4028, 84.61278
410.8849, 85.01048
411.3671, 85.09325
411.8492, 85.33553
412.3313, 85.55077
412.8134, 86.19984
413.2955, 87.55510
413.7776, 89.26528
414.2598, 91.00478
414.7419, 92.65662
415.2240, 94.23878
415.7061, 95.77215
416.1882, 97.25887
416.6703, 98.71259
417.1525, 99.87611
417.6346, 101.2282
418.1167, 103.1685
418.5988, 105.5377
419.0809, 107.7958
419.5630, 109.6595
420.0452, 111.1019
420.5273, 112.0478
421.0094, 112.5167
421.4915, 112.4096
421.9736, 111.5302
422.4557, 110.1724
422.9379, 108.5954
423.4200, 106.8541
423.9021, 105.0020
424.3842, 103.1362
424.8663, 101.2511
425.3484, 99.06111
425.8306, 96.14781
426.3127, 93.38963
426.7948, 91.63303
427.2769, 90.75340
427.7590, 89.94493
428.2411, 88.79617
428.7233, 87.54430
429.2054, 86.53972
429.6875, 85.79323
430.1696, 85.24509
430.6517, 84.83340
431.1339, 84.62949
431.6160, 84.76188
432.0981, 85.44505
432.5802, 86.12605
433.0623, 86.34098
433.5444, 86.37305
434.0266, 86.90031
434.5087, 88.16660
434.9908, 89.66917
435.4729, 90.68810
435.9550, 91.03842
436.4371, 91.75053
436.9193, 92.79579
437.4014, 94.26327
437.8835, 96.55204
438.3656, 99.40289
438.8477, 101.8441
439.3298, 103.1436
439.8120, 103.6284
440.2941, 105.0382
440.7762, 108.5746
441.2583, 111.5585
441.7404, 113.1778
442.2225, 114.3909
442.7046, 116.1290
443.1867, 118.6275
443.6689, 121.5689
444.1510, 124.5495
444.6331, 127.5647
445.1152, 130.6826
445.5973, 133.9225
446.0794, 137.2404
446.5616, 140.4834
447.0437, 143.7884
447.5258, 147.4263
448.0079, 151.5064
448.4900, 156.0337
448.9721, 161.1198
449.4543, 167.0083
449.9364, 172.7452
450.4185, 178.0545
450.9006, 183.2001
451.3827, 188.4698
451.8648, 193.8576
452.3470, 198.9304
452.8291, 203.6115
453.3112, 207.7537
453.7933, 210.4540
454.2754, 211.3497
454.7575, 211.5293
455.2397, 211.5800
455.7218, 211.4203
456.2039, 210.7985
456.6860, 209.3270
457.1681, 207.8584
457.6502, 207.3370
458.1324, 207.5145
458.6145, 207.1663
459.0966, 205.7391
459.5787, 203.9342
460.0608, 202.9474
460.5429, 202.8953
461.0251, 202.2504
461.5072, 200.6547
461.9893, 198.4174
462.4714, 195.8260
462.9535, 192.8768
463.4356, 189.3331
463.9178, 184.9077
464.3999, 179.8196
464.8820, 175.1355
465.3641, 171.4606
465.8462, 167.3885
466.3283, 162.1850
466.8105, 156.7210
467.2926, 152.1064
467.7747, 148.4972
468.2568, 145.0304
468.7389, 140.5691
469.2210, 134.7704
469.7032, 130.0285
470.1853, 127.3157
470.6674, 124.6656
471.1495, 121.4603
471.6316, 117.9457
472.1137, 114.5647
472.5959, 111.5104
473.0780, 108.7732
473.5601, 106.4401
474.0422, 104.6676
474.5243, 102.6359
475.0064, 99.77041
475.4886, 96.96903
475.9707, 94.86028
476.4528, 93.38140
476.9349, 91.95435
477.4170, 90.08469
477.8991, 88.06191
478.3813, 86.59166
478.8634, 85.76203
479.3455, 84.99895
479.8276, 84.01974
480.3097, 82.92229
480.7918, 81.88918
481.2740, 80.93909
481.7561, 80.02684
482.2382, 79.20067
482.7203, 78.38132
483.2024, 77.36451
483.6845, 76.09950
484.1666, 74.85542
484.6487, 73.88864
485.1309, 73.21644
485.6130, 72.53928
486.0951, 71.85088
486.5772, 71.16577
487.0593, 70.42083
487.5414, 69.69261
488.0236, 69.14216
488.5057, 68.83074
488.9878, 68.63673
489.4699, 68.35501
489.9520, 67.97622
490.4341, 67.51737
490.9163, 66.77897
491.3984, 66.15907
491.8805, 65.95126
492.3626, 66.03428
492.8447, 66.08775
493.3268, 65.90433
493.8090, 65.57058
494.2911, 65.36440
494.7732, 65.38558
495.2553, 65.26527
495.7374, 64.81070
496.2195, 64.25887
496.7017, 63.68453
497.1838, 63.12775
497.6659, 62.77217
498.1480, 62.88186
498.6301, 63.28452
499.1122, 63.52066
499.5944, 63.57112
500.0765, 63.46387
500.5586, 63.10830
501.0407, 62.63439
501.5228, 62.28968
502.0049, 62.03614
502.4871, 62.01972
502.9692, 62.68267
503.4513, 63.53960
503.9334, 63.56490
504.4155, 62.52456
504.8976, 61.32264
505.3798, 60.84707
505.8619, 61.14492
506.3440, 61.44153
506.8261, 61.81870
507.3082, 62.10626
507.7903, 62.25999
508.2725, 62.27960
508.7546, 62.05997
509.2367, 61.58194
509.7188, 61.17329
510.2009, 61.43895
510.6830, 62.71434
511.1652, 63.52858
511.6473, 63.25887
512.1294, 63.14248
512.6115, 63.84541
513.0936, 65.04495
513.5757, 66.02895
514.0579, 66.39375
514.5400, 66.49169
515.0221, 66.92168
515.5042, 67.69060
515.9863, 68.78233
516.4684, 70.50965
516.9506, 72.25451
517.4327, 73.42654
517.9148, 74.09502
518.3969, 74.80895
518.8790, 75.85606
519.3611, 77.04553
519.8433, 78.02763
520.3254, 78.83550
520.8075, 80.00314
521.2896, 81.86352
521.7717, 84.15101
522.2538, 86.18896
522.7360, 87.80063
523.2181, 89.72117
523.7002, 92.23281
524.1823, 94.98362
524.6644, 97.58485
525.1465, 100.0643
525.6287, 102.7546
526.1108, 105.8595
526.5929, 109.3854
527.0750, 113.4927
527.5571, 118.5872
528.0392, 123.6721
528.5214, 128.3680
529.0035, 133.2365
529.4856, 138.7825
529.9677, 145.0184
530.4498, 151.5397
530.9319, 158.1149
531.4141, 164.6742
531.8962, 170.9243
532.3783, 176.9423
532.8604, 182.4210
533.3425, 187.6704
533.8246, 192.0711
534.3068, 195.0190
534.7889, 196.4346
535.2710, 196.2234
535.7531, 194.1823
536.2352, 190.5089
536.7173, 185.3306
537.1995, 178.5871
537.6816, 171.3175
538.1637, 164.1270
538.6458, 157.0753
539.1279, 150.5787
539.6100, 145.0508
540.0922, 139.4949
540.5743, 133.3906
541.0564, 127.1898
541.5385, 121.3362
542.0206, 115.9743
542.5027, 111.1688
542.9849, 107.0728
543.4670, 103.7017
543.9491, 100.3293
544.4312, 96.51323
544.9133, 93.28221
545.3954, 91.30029
545.8775, 89.78384
546.3596, 87.75524
546.8417, 84.99443
547.3239, 82.29480
547.8060, 80.62775
548.2881, 79.90225
548.7702, 79.16883
549.2523, 78.46327
549.7344, 77.58259
550.2166, 76.07726
550.6987, 74.39469
551.1808, 73.28428
551.6629, 73.07951
552.1450, 72.97926
552.6271, 72.45909
553.1093, 71.68777
553.5914, 71.03585
554.0735, 70.58073
554.5556, 70.10495
555.0377, 69.39820
555.5198, 68.46196
556.0020, 67.59245
556.4841, 66.47224
556.9662, 65.78536
557.4483, 66.09338
557.9304, 66.75072
558.4125, 66.94011
558.8947, 66.48811
559.3768, 65.86125
559.8589, 65.58110
560.3410, 65.65690
560.8231, 65.69909
561.3052, 65.70110
561.7874, 65.67497
562.2695, 65.68530
562.7516, 65.64574
563.2337, 65.42632
563.7158, 64.98745
564.1979, 64.51443
564.6801, 64.14079
565.1622, 63.86020
565.6443, 63.63815
566.1264, 63.45811
566.6085, 63.40984
567.0906, 63.61802
567.5728, 64.00529
568.0549, 64.26537
568.5370, 64.39678
569.0191, 64.40628
569.5012, 64.13593
569.9833, 63.82335
570.4655, 63.87398
570.9476, 64.28834
571.4297, 64.58395
571.9118, 64.30346
572.3939, 63.49620
572.8760, 62.80321
573.3582, 62.03457
573.8403, 61.66607
574.3224, 61.92314
574.8045, 62.47924
575.2866, 63.17738
575.7687, 63.92733
576.2509, 64.48544
576.7330, 64.62843
577.2151, 64.41385
577.6972, 63.99297
578.1793, 63.28767
578.6614, 62.71884
579.1436, 62.52204
579.6257, 62.54641
580.1078, 62.57336
580.5899, 62.60502
581.0720, 62.60726
581.5541, 62.49762
582.0363, 62.39516
582.5184, 62.53161
583.0005, 62.85190
583.4826, 62.95601
583.9647, 62.56852
584.4468, 61.89144
584.9290, 61.51033
585.4111, 61.49607
585.8932, 61.69484
586.3753, 62.50552
586.8574, 63.17109
587.3395, 63.06774
587.8217, 62.39289
