##NAMES=Marialite
##RRUFFID=R060458
##IDEAL CHEMISTRY=Na_4_Al_3_Si_9_O_24_Cl
##LOCALITY=Dading, Nepal
##OWNER=RRUFF
##SOURCE=Michael Scott
##DESCRIPTION=Colorless elongated prism
##STATUS=The identification of this mineral has been confirmed by X-ray diffraction and chemical analysis
##URL=rruff.info/R060458
##MEASURED CHEMISTRY=(Na_0.52_Ca_0.47_K_0.01_)_4_(Al_0.36_Si_0.64_)_12_O_24_(Cl_0.44_(CO_3_)_0.56_)
92.10938, 8.162068
92.59149, 7.938195
93.07361, 8.057186
93.55573, 8.487349
94.03784, 8.828244
94.51996, 8.614285
95.00208, 7.996305
95.48419, 7.504682
95.96631, 7.323355
96.44843, 7.378284
96.93054, 7.472969
97.41266, 7.607404
97.89478, 7.776636
98.37689, 7.983494
98.85901, 8.224688
99.34113, 8.478349
99.82324, 8.762188
100.3054, 9.073780
100.7875, 9.268627
101.2696, 9.292170
101.7517, 9.269780
102.2338, 9.435239
102.7159, 9.812481
103.1981, 10.30911
103.6802, 10.88678
104.1623, 11.55791
104.6444, 12.28000
105.1265, 13.02836
105.6086, 13.82787
106.0908, 14.82397
106.5729, 16.13347
107.0550, 17.49391
107.5371, 18.73063
108.0192, 19.57765
108.5013, 20.71356
108.9835, 22.21801
109.4656, 24.08206
109.9477, 26.16535
110.4298, 28.38602
110.9119, 30.87694
111.3940, 33.78557
111.8762, 37.19300
112.3583, 40.90409
112.8404, 44.86942
113.3225, 49.04995
113.8046, 53.70625
114.2867, 59.46526
114.7689, 65.58401
115.2510, 71.20367
115.7331, 75.82640
116.2152, 80.23551
116.6973, 84.71534
117.1794, 89.36011
117.6616, 93.78863
118.1437, 97.60374
118.6258, 101.1676
119.1079, 104.9478
119.5900, 109.1608
120.0721, 113.6807
120.5543, 118.3753
121.0364, 123.1134
121.5185, 128.2784
122.0006, 134.2574
122.4827, 140.9084
122.9648, 147.9191
123.4470, 154.9879
123.9291, 162.2979
124.4112, 169.9970
124.8933, 178.0435
125.3754, 186.6024
125.8575, 196.0812
126.3397, 206.3625
126.8218, 216.7686
127.3039, 226.6926
127.7860, 236.3141
128.2681, 245.9788
128.7502, 256.2038
129.2324, 266.2551
129.7145, 274.5554
130.1966, 281.1431
130.6787, 287.0538
131.1608, 293.7346
131.6429, 300.7533
132.1251, 306.2509
132.6072, 309.0804
133.0893, 309.9122
133.5714, 311.2406
134.0535, 313.2104
134.5356, 315.0106
135.0178, 315.2534
135.4999, 313.8918
135.9820, 313.0396
136.4641, 313.6706
136.9462, 315.7487
137.4283, 317.6443
137.9105, 319.2432
138.3926, 320.8922
138.8747, 323.1319
139.3568, 326.0341
139.8389, 329.3264
140.3210, 332.9911
140.8032, 337.1569
141.2853, 341.0305
141.7674, 344.2492
142.2495, 347.3743
142.7316, 351.6134
143.2137, 356.5239
143.6959, 359.3080
144.1780, 360.6194
144.6601, 359.7820
145.1422, 359.3986
145.6243, 359.8273
146.1064, 360.7656
146.5886, 361.0494
147.0707, 360.4637
147.5528, 359.5021
148.0349, 358.4746
148.5170, 357.8163
148.9991, 356.4032
149.4813, 353.6573
149.9634, 349.7857
150.4455, 346.9997
150.9276, 346.4136
151.4097, 346.1005
151.8918, 344.9047
152.3740, 341.4481
152.8561, 338.6390
153.3382, 336.8087
153.8203, 335.9381
154.3024, 335.4105
154.7845, 335.5728
155.2667, 335.8542
155.7488, 335.8282
156.2309, 335.0987
156.7130, 334.4002
157.1951, 333.7406
157.6772, 333.1015
158.1594, 333.0159
158.6415, 334.2557
159.1236, 335.8400
159.6057, 336.8141
160.0878, 336.2635
160.5699, 335.6681
161.0521, 335.8061
161.5342, 336.8857
162.0163, 337.2207
162.4984, 335.6577
162.9805, 333.1672
163.4626, 330.9751
163.9448, 330.2583
164.4269, 329.3909
164.9090, 327.3658
165.3911, 323.9144
165.8732, 320.3426
166.3553, 317.4770
166.8375, 314.9050
167.3196, 311.9440
167.8017, 307.7631
168.2838, 303.4142
168.7659, 299.7656
169.2480, 297.1336
169.7302, 294.3375
170.2123, 290.1748
170.6944, 285.2013
171.1765, 280.7440
171.6586, 277.7195
172.1407, 275.3803
172.6229, 272.9405
173.1050, 270.2287
173.5871, 267.5532
174.0692, 265.2765
174.5513, 263.2878
175.0334, 261.2931
175.5156, 258.9976
175.9977, 256.6068
176.4798, 254.4539
176.9619, 252.5415
177.4440, 250.9054
177.9261, 249.5713
178.4083, 248.5455
178.8904, 247.8903
179.3725, 248.0268
179.8546, 248.5260
180.3367, 248.5032
180.8188, 247.6197
181.3010, 246.4698
181.7831, 245.9024
182.2652, 245.8617
182.7473, 245.8706
183.2294, 245.3775
183.7115, 244.6416
184.1937, 244.4318
184.6758, 245.0107
185.1579, 246.0415
185.6400, 247.0639
186.1221, 248.0661
186.6042, 248.9733
187.0864, 249.5556
187.5685, 249.9342
188.0506, 250.6812
188.5327, 252.1559
189.0148, 253.8694
189.4969, 254.7559
189.9791, 254.7908
190.4612, 254.4877
190.9433, 254.0989
191.4254, 253.6672
191.9075, 253.5828
192.3896, 254.1615
192.8718, 255.0298
193.3539, 254.9721
193.8360, 253.8916
194.3181, 252.6505
194.8002, 251.9762
195.2823, 251.8533
195.7645, 252.0229
196.2466, 252.6178
196.7287, 253.4160
197.2108, 253.3910
197.6929, 252.3970
198.1750, 251.2249
198.6572, 250.6924
199.1393, 250.8355
199.6214, 250.7968
200.1035, 250.3013
200.5856, 249.4444
201.0677, 248.8167
201.5499, 248.4380
202.0320, 248.2064
202.5141, 248.0901
202.9962, 248.1255
203.4783, 248.0149
203.9604, 247.6955
204.4426, 247.1789
204.9247, 246.4579
205.4068, 245.4430
205.8889, 244.4810
206.3710, 243.9847
206.8531, 244.0585
207.3353, 244.0605
207.8174, 243.7349
208.2995, 243.1405
208.7816, 243.1380
209.2637, 243.8945
209.7458, 244.9119
210.2280, 245.5768
210.7101, 245.6604
211.1922, 246.2637
211.6743, 247.9042
212.1564, 250.5053
212.6385, 252.1139
213.1207, 252.3779
213.6028, 252.1898
214.0849, 252.4696
214.5670, 253.3522
215.0491, 254.2644
215.5313, 255.0128
216.0134, 255.6058
216.4955, 256.6938
216.9776, 258.6273
217.4597, 260.5883
217.9418, 261.7105
218.4239, 261.7190
218.9061, 261.5800
219.3882, 261.5122
219.8703, 261.5181
220.3524, 261.2310
220.8345, 260.4420
221.3166, 259.6198
221.7988, 259.2584
222.2809, 259.5505
222.7630, 259.8610
223.2451, 260.0451
223.7272, 260.1023
224.2093, 260.2658
224.6915, 260.5597
225.1736, 260.9388
225.6557, 261.3937
226.1378, 262.0976
226.6199, 262.5210
227.1020, 262.5136
227.5842, 262.0737
228.0663, 261.6470
228.5484, 261.3534
229.0305, 260.9354
229.5126, 260.1133
229.9947, 258.6620
230.4769, 257.2555
230.9590, 255.9319
231.4411, 254.6969
231.9232, 253.8504
232.4053, 253.6331
232.8874, 253.5350
233.3696, 253.0871
233.8517, 252.0925
234.3338, 251.1436
234.8159, 250.3839
235.2980, 249.8013
235.7801, 249.0106
236.2623, 247.8147
236.7444, 246.6295
237.2265, 245.7879
237.7086, 245.3277
238.1907, 245.1532
238.6728, 245.3355
239.1550, 245.8506
239.6371, 246.2541
240.1192, 246.4033
240.6013, 246.5988
241.0834, 247.1113
241.5655, 248.1751
242.0477, 249.0515
242.5298, 249.4770
243.0119, 249.5382
243.4940, 250.1891
243.9761, 251.7156
244.4582, 253.4885
244.9404, 255.0333
245.4225, 256.0999
245.9046, 257.4445
246.3867, 259.1572
246.8688, 261.2211
247.3509, 263.5318
247.8331, 266.1273
248.3152, 268.9217
248.7973, 271.9105
249.2794, 275.3298
249.7615, 278.4339
250.2436, 280.8983
250.7258, 282.9767
251.2079, 285.8741
251.6900, 290.0055
252.1721, 294.3696
252.6542, 298.3249
253.1363, 301.3695
253.6185, 305.1256
254.1006, 309.7785
254.5827, 315.1774
255.0648, 320.8057
255.5469, 326.7973
256.0291, 332.7085
256.5112, 338.3307
256.9933, 343.7428
257.4754, 348.6740
257.9575, 352.8377
258.4396, 356.6208
258.9218, 361.1094
259.4039, 366.9264
259.8860, 372.3864
260.3681, 376.7948
260.8502, 380.1042
261.3323, 382.5408
261.8145, 384.1617
262.2966, 384.8735
262.7787, 384.4246
263.2608, 382.6142
263.7429, 380.0308
264.2250, 376.9496
264.7072, 373.5547
265.1893, 368.9063
265.6714, 362.7442
266.1535, 355.5645
266.6356, 348.2355
267.1177, 340.6766
267.5999, 332.9712
268.0820, 325.0425
268.5641, 316.7109
269.0462, 309.0253
269.5283, 301.9219
270.0104, 295.4448
270.4926, 289.6278
270.9747, 284.5990
271.4568, 279.6066
271.9389, 274.2962
272.4210, 268.5981
272.9031, 263.5997
273.3853, 259.2696
273.8674, 255.6935
274.3495, 253.2655
274.8316, 252.1664
275.3137, 251.1926
275.7958, 250.0352
276.2780, 248.7058
276.7601, 247.2896
277.2422, 245.7186
277.7243, 244.2218
278.2064, 243.0854
278.6885, 242.3481
279.1707, 241.5705
279.6528, 240.4819
280.1349, 239.2693
280.6170, 239.0078
281.0991, 239.8329
281.5812, 241.0763
282.0634, 242.3541
282.5455, 243.7030
283.0276, 244.3887
283.5097, 244.0449
283.9918, 243.0858
284.4739, 242.7323
284.9561, 242.9924
285.4382, 243.7954
285.9203, 245.2443
286.4024, 247.2908
286.8845, 249.4156
287.3666, 251.6023
287.8488, 253.7107
288.3309, 255.2071
288.8130, 256.0671
289.2951, 257.2120
289.7772, 259.4982
290.2593, 262.6881
290.7415, 265.4218
291.2236, 267.3789
291.7057, 269.2226
292.1878, 272.1428
292.6699, 276.0624
293.1520, 280.0329
293.6342, 283.4116
294.1163, 286.4092
294.5984, 289.7623
295.0805, 293.6822
295.5626, 297.3470
296.0447, 300.1126
296.5269, 301.8979
297.0090, 302.3004
297.4911, 300.8534
297.9732, 297.9160
298.4553, 294.3134
298.9374, 290.0929
299.4196, 284.9759
299.9017, 277.9047
300.3838, 269.6401
300.8659, 262.3261
301.3480, 257.1922
301.8301, 253.3603
302.3123, 249.6125
302.7944, 245.9260
303.2765, 242.5935
303.7586, 239.8832
304.2407, 237.6644
304.7228, 235.6431
305.2050, 233.7759
305.6871, 232.0449
306.1692, 230.3989
306.6513, 228.8580
307.1334, 227.6761
307.6155, 227.3174
308.0977, 227.3034
308.5798, 226.9960
309.0619, 226.1071
309.5440, 225.1347
310.0261, 224.4533
310.5082, 224.0123
310.9904, 223.6616
311.4725, 223.3549
311.9546, 223.0776
312.4367, 222.8430
312.9188, 222.6980
313.4009, 222.4524
313.8831, 221.9068
314.3652, 221.1863
314.8473, 220.5202
315.3294, 219.8451
315.8115, 219.3653
316.2936, 219.2629
316.7758, 219.6020
317.2579, 219.9973
317.7400, 220.3582
318.2221, 220.6613
318.7042, 220.8842
319.1863, 221.0691
319.6685, 221.1301
320.1506, 220.9520
320.6327, 220.5275
321.1148, 220.2242
321.5969, 220.2952
322.0790, 220.4599
322.5612, 220.4843
323.0433, 219.6875
323.5254, 219.4018
324.0075, 220.3985
324.4896, 222.4412
324.9717, 223.6922
325.4539, 223.1201
325.9360, 222.1872
326.4181, 221.7105
326.9002, 221.8166
327.3823, 222.3034
327.8644, 223.5635
328.3466, 225.2548
328.8287, 226.3255
329.3108, 225.8745
329.7929, 225.5799
330.2750, 226.1086
330.7571, 228.0676
331.2393, 229.4749
331.7214, 230.0967
332.2035, 230.2528
332.6856, 230.4381
333.1677, 230.6198
333.6498, 230.8730
334.1320, 231.1978
334.6141, 231.5700
335.0962, 232.1402
335.5783, 232.9220
336.0604, 233.8884
336.5425, 235.0521
337.0247, 236.5078
337.5068, 237.9548
337.9889, 239.4509
338.4710, 240.9349
338.9531, 241.8671
339.4352, 242.1106
339.9173, 242.1376
340.3994, 242.2988
340.8816, 242.6208
341.3637, 242.8998
341.8458, 243.0415
342.3279, 243.1862
342.8100, 243.8381
343.2921, 245.0851
343.7743, 246.2190
344.2564, 246.5479
344.7385, 246.1504
345.2206, 246.6351
345.7027, 248.2505
346.1848, 250.3609
346.6670, 251.5085
347.1491, 251.8344
347.6312, 253.5403
348.1133, 259.5478
348.5954, 267.7936
349.0775, 270.6335
349.5597, 267.7007
350.0418, 263.4641
350.5239, 262.2474
351.0060, 263.4586
351.4881, 265.4028
351.9702, 267.8849
352.4524, 270.5181
352.9345, 272.2628
353.4166, 273.2870
353.8987, 275.1053
354.3808, 280.3573
354.8629, 286.7154
355.3451, 290.2614
355.8272, 289.1962
356.3093, 287.2059
356.7914, 287.4948
357.2735, 289.5089
357.7556, 291.7430
358.2378, 293.6151
358.7199, 295.1958
359.2020, 296.5125
359.6841, 297.5529
360.1662, 298.4150
360.6483, 299.3672
361.1305, 300.1254
361.6126, 300.2916
362.0947, 299.7686
362.5768, 298.5790
363.0589, 296.5652
363.5410, 293.7408
364.0232, 290.7715
364.5053, 287.6581
364.9874, 284.6097
365.4695, 281.7886
365.9516, 279.4499
366.4337, 277.0985
366.9159, 274.2516
367.3980, 271.1971
367.8801, 269.0733
368.3622, 268.9603
368.8443, 269.0827
369.3264, 268.6529
369.8086, 267.1365
370.2907, 265.9643
370.7728, 265.1910
371.2549, 264.7391
371.7370, 264.5031
372.2191, 264.5807
372.7013, 264.7302
373.1834, 264.8109
373.6655, 264.7657
374.1476, 265.3265
374.6297, 266.9730
375.1118, 268.6259
375.5940, 269.0163
376.0761, 267.4732
376.5582, 266.8743
377.0403, 267.9940
377.5224, 270.3828
378.0045, 272.1430
378.4867, 273.1965
378.9688, 273.8065
379.4509, 274.0211
379.9330, 273.8306
380.4151, 273.6743
380.8972, 273.5685
381.3794, 273.5406
381.8615, 273.6639
382.3436, 273.9349
382.8257, 274.2259
383.3078, 274.6573
383.7899, 275.0730
384.2721, 274.7653
384.7542, 273.6638
385.2363, 272.6074
385.7184, 272.7639
386.2005, 273.6549
386.6826, 273.8990
387.1648, 272.6119
387.6469, 270.9636
388.1290, 270.6523
388.6111, 271.4528
389.0932, 272.0612
389.5753, 271.5284
390.0575, 270.3785
390.5396, 269.2064
391.0217, 268.1018
391.5038, 266.9998
391.9859, 265.7174
392.4680, 264.4177
392.9502, 263.3802
393.4323, 262.9460
393.9144, 262.6447
394.3965, 262.1521
394.8786, 261.4281
395.3607, 260.8966
395.8429, 260.7907
396.3250, 260.8998
396.8071, 261.0344
397.2892, 261.2803
397.7713, 261.4101
398.2534, 261.2589
398.7356, 260.9089
399.2177, 260.7584
399.6998, 260.9686
400.1819, 261.2916
400.6640, 261.6528
401.1461, 262.2159
401.6283, 262.4556
402.1104, 261.9522
402.5925, 261.3179
403.0746, 261.5491
403.5567, 263.1912
404.0388, 264.7071
404.5210, 265.6700
405.0031, 266.0781
405.4852, 266.5223
405.9673, 266.9557
406.4494, 267.5175
406.9315, 268.3860
407.4137, 269.6189
407.8958, 270.7202
408.3779, 271.5486
408.8600, 272.2796
409.3421, 273.3875
409.8242, 274.8879
410.3064, 276.4716
410.7885, 277.8826
411.2706, 279.2204
411.7527, 281.0098
412.2348, 283.3415
412.7169, 285.7611
413.1991, 287.5952
413.6812, 289.0390
414.1633, 290.6839
414.6454, 292.7895
415.1275, 295.1677
415.6096, 297.5778
416.0918, 300.0094
416.5739, 302.5571
417.0560, 305.2935
417.5381, 308.1764
418.0202, 311.1990
418.5023, 314.4104
418.9845, 317.6093
419.4666, 321.0135
419.9487, 324.2791
420.4308, 326.6772
420.9129, 327.4716
421.3951, 327.7442
421.8772, 328.2676
422.3593, 329.1668
422.8414, 328.9594
423.3235, 326.3503
423.8056, 322.9499
424.2878, 320.0734
424.7699, 319.0361
425.2520, 317.2261
425.7341, 313.7583
426.2162, 309.2086
426.6983, 305.4704
427.1805, 302.7311
427.6626, 300.6358
428.1447, 299.0882
428.6268, 298.2009
429.1089, 297.4933
429.5910, 296.9764
430.0732, 296.6167
430.5553, 296.3823
431.0374, 296.2995
431.5195, 296.1872
432.0016, 295.8221
432.4837, 295.4124
432.9659, 296.0524
433.4480, 297.8502
433.9301, 300.0061
434.4122, 301.9625
434.8943, 303.7653
435.3764, 305.7012
435.8586, 307.7548
436.3407, 310.0900
436.8228, 313.0890
437.3049, 316.6376
437.7870, 320.1588
438.2691, 323.1645
438.7513, 326.1319
439.2334, 329.6469
439.7155, 333.7168
440.1976, 338.3939
440.6797, 344.3443
441.1618, 350.6915
441.6440, 356.2603
442.1261, 360.0626
442.6082, 364.2390
443.0903, 370.1871
443.5724, 377.4082
444.0545, 384.8266
444.5367, 392.0379
445.0188, 399.3402
445.5009, 406.8907
445.9830, 414.6031
446.4651, 422.7708
446.9472, 431.5122
447.4294, 440.7163
447.9115, 450.1776
448.3936, 459.4482
448.8757, 469.6269
449.3578, 481.3028
449.8399, 493.8651
450.3221, 505.9570
450.8042, 517.2581
451.2863, 528.6481
451.7684, 540.7955
452.2505, 554.0179
452.7326, 566.2853
453.2148, 577.8925
453.6969, 587.8824
454.1790, 594.6284
454.6611, 598.1251
455.1432, 599.9940
455.6253, 600.2902
456.1075, 599.4280
456.5896, 598.5540
457.0717, 597.6420
457.5538, 596.0938
458.0359, 592.8282
458.5180, 588.7104
459.0002, 585.8671
459.4823, 584.6329
459.9644, 583.7376
460.4465, 582.5349
460.9286, 580.7313
461.4107, 577.7910
461.8929, 573.4544
462.3750, 567.9608
462.8571, 561.2721
463.3392, 553.4725
463.8213, 545.2420
464.3034, 536.8619
464.7856, 528.0952
465.2677, 518.6915
465.7498, 508.4132
466.2319, 498.0754
466.7140, 488.0652
467.1961, 478.0843
467.6783, 467.6108
468.1604, 455.3221
468.6425, 444.0292
469.1246, 434.3594
469.6067, 426.2099
470.0888, 418.4340
470.5710, 411.1557
471.0531, 404.0733
471.5352, 396.9774
472.0173, 389.6125
472.4994, 382.9562
472.9815, 377.1346
473.4637, 371.8477
473.9458, 366.6047
474.4279, 361.3397
474.9100, 356.8577
475.3921, 353.8030
475.8742, 351.5529
476.3564, 347.9577
476.8385, 343.0343
477.3206, 338.2583
477.8027, 334.7528
478.2848, 332.2343
478.7669, 330.3405
479.2491, 329.1811
479.7312, 327.9171
480.2133, 325.4779
480.6954, 322.3835
481.1775, 319.5949
481.6596, 317.6325
482.1418, 316.0414
482.6239, 314.6071
483.1060, 313.3133
483.5881, 312.1341
484.0702, 311.1729
484.5523, 310.2285
485.0345, 309.1503
485.5166, 307.8051
485.9987, 306.6081
486.4808, 305.9101
486.9629, 305.3091
487.4450, 304.2424
487.9272, 302.1518
488.4093, 300.3913
488.8914, 299.2108
489.3735, 298.5686
489.8556, 298.1880
490.3377, 298.1985
490.8199, 298.1769
491.3020, 297.7577
491.7841, 296.8734
492.2662, 296.6119
492.7483, 297.2302
493.2304, 297.8839
493.7126, 297.0174
494.1947, 294.8827
494.6768, 293.5194
495.1589, 293.8862
495.6410, 295.1289
496.1231, 295.8342
496.6053, 296.0587
497.0874, 296.1373
497.5695, 296.2778
498.0516, 296.3966
498.5337, 296.3746
499.0158, 296.1743
499.4980, 295.9691
499.9801, 295.9474
500.4622, 295.9491
500.9443, 295.7837
501.4264, 295.1196
501.9085, 294.5771
502.3907, 294.3308
502.8728, 294.3582
503.3549, 294.5395
503.8370, 295.2696
504.3191, 295.7749
504.8012, 295.6034
505.2834, 294.3955
505.7655, 294.1938
506.2476, 295.5517
506.7297, 297.2888
507.2118, 298.2359
507.6939, 298.1909
508.1761, 298.1277
508.6582, 298.1293
509.1403, 298.2442
509.6224, 298.5561
510.1045, 299.0608
510.5866, 299.8585
511.0688, 301.2711
511.5509, 303.0077
512.0330, 304.0737
512.5151, 304.4558
512.9973, 304.8280
513.4794, 305.7817
513.9615, 307.1089
514.4436, 308.4875
514.9257, 309.8393
515.4078, 311.2359
515.8900, 312.6667
516.3721, 314.1756
516.8542, 315.8482
517.3363, 317.8790
517.8184, 319.9454
518.3005, 321.7136
518.7827, 323.2025
519.2648, 325.3463
519.7469, 328.5432
520.2290, 332.2627
520.7111, 336.2709
521.1932, 340.8163
521.6754, 345.0266
522.1575, 348.6973
522.6396, 352.2267
523.1217, 356.1814
523.6038, 360.6157
524.0859, 365.2475
524.5681, 369.8606
525.0502, 374.6257
525.5323, 380.2879
526.0144, 386.8929
526.4965, 394.0046
526.9786, 401.5297
527.4608, 409.4300
527.9429, 417.3687
528.4250, 425.3736
528.9071, 433.7348
529.3892, 442.7661
529.8713, 452.3864
530.3535, 462.2646
530.8356, 472.3543
531.3177, 482.7878
531.7998, 493.9757
532.2819, 505.6179
532.7640, 516.4807
533.2462, 527.4544
533.7283, 536.6124
534.2104, 543.1783
534.6925, 546.9581
535.1746, 549.1182
535.6567, 550.5710
536.1389, 549.7410
536.6210, 545.5665
537.1031, 536.8508
537.5852, 527.3573
538.0673, 517.0764
538.5494, 506.0281
539.0316, 493.8926
539.5137, 480.3059
539.9958, 467.4265
540.4779, 456.0078
540.9600, 445.6663
541.4421, 435.0848
541.9243, 424.3434
542.4064, 414.2878
542.8885, 405.6265
543.3706, 398.1147
543.8527, 391.3412
544.3348, 385.2736
544.8170, 379.8962
545.2991, 375.3961
545.7812, 371.5228
546.2633, 367.9221
546.7454, 364.6120
547.2275, 361.4399
547.7097, 358.2212
548.1918, 355.0822
548.6739, 352.3712
549.1560, 350.4857
549.6381, 348.6838
550.1202, 346.6591
550.6024, 344.3892
551.0845, 342.6172
551.5666, 341.5750
552.0487, 340.7161
552.5308, 339.7088
553.0129, 338.5183
553.4951, 337.2672
553.9772, 335.8434
554.4593, 334.6076
554.9414, 334.2507
555.4235, 334.6892
555.9056, 334.9413
556.3878, 334.6826
556.8699, 334.1202
557.3520, 333.3499
557.8341, 332.4948
558.3162, 332.1117
558.7983, 333.1886
559.2805, 334.4811
559.7626, 334.6858
560.2447, 333.6945
560.7268, 332.6455
561.2089, 331.7402
561.6910, 331.1934
562.1732, 331.2413
562.6553, 332.7943
563.1374, 333.5792
563.6195, 332.6005
564.1016, 330.9125
564.5837, 330.0882
565.0659, 330.5494
565.5480, 331.0928
566.0301, 331.4882
566.5122, 331.7662
566.9943, 332.0473
567.4764, 332.3129
567.9586, 332.6595
568.4407, 333.3816
568.9228, 334.3070
569.4049, 334.2872
569.8870, 333.2285
570.3691, 332.0446
570.8513, 331.4597
571.3334, 331.4165
571.8155, 331.9510
572.2976, 333.4024
572.7797, 334.6270
573.2618, 334.4703
573.7440, 333.5325
574.2261, 332.8918
574.7082, 333.1203
575.1903, 333.5543
575.6724, 334.1182
576.1545, 334.7518
576.6367, 334.9813
577.1188, 334.2013
577.6009, 333.5834
578.0830, 333.6032
578.5651, 334.3657
579.0472, 335.2878
579.5294, 336.4984
580.0115, 337.6659
580.4936, 338.5338
580.9757, 339.1111
581.4578, 339.2531
581.9399, 338.8186
582.4221, 338.2303
582.9042, 338.1542
583.3863, 338.5023
583.8684, 338.9100
584.3505, 339.2774
584.8326, 339.5818
585.3148, 339.6512
585.7969, 339.5783
586.2789, 339.7961
586.7610, 340.9063
587.2432, 342.0986
587.7253, 342.7958
588.2074, 342.8654
588.6895, 342.9454
