##NAMES=Marialite
##RRUFFID=R060297
##IDEAL CHEMISTRY=Na_4_Al_3_Si_9_O_24_Cl
##LOCALITY=Morogoro District, Marasi, Tanzania
##OWNER=RRUFF
##SOURCE=Herb Obodda
##DESCRIPTION=Pale yellow crystal fragment
##STATUS=The identification of this mineral has been confirmed by X-ray diffraction and chemical analysis
##URL=rruff.info/R060297
##MEASURED CHEMISTRY=(Na_0.66_Ca_0.29_K_0.06_)_4_(Si_0.68_Al_0.32_)_12_O_24_(Cl_0.70_(CO_3_)_0.30_)
92.20605, 161.1596
92.68817, 157.1608
93.17029, 156.4660
93.65240, 159.3269
94.13452, 163.8091
94.61664, 167.9008
95.09875, 171.0990
95.58087, 173.5615
96.06299, 175.2306
96.54510, 176.0112
97.02722, 176.1074
97.50933, 175.4919
97.99145, 174.4649
98.47356, 173.4337
98.95568, 172.6215
99.43780, 171.7924
99.91991, 170.1418
100.4020, 166.8977
100.8841, 163.8161
101.3663, 161.6381
101.8484, 160.2888
102.3305, 159.1757
102.8126, 157.6501
103.2947, 155.4903
103.7768, 154.0897
104.2590, 154.0704
104.7411, 154.4889
105.2232, 154.2897
105.7053, 153.1588
106.1874, 151.7550
106.6695, 150.9346
107.1517, 150.6369
107.6338, 150.3377
108.1159, 149.7179
108.5980, 148.8556
109.0801, 148.1486
109.5622, 147.6098
110.0444, 147.3622
110.5265, 147.5595
111.0086, 148.2222
111.4907, 149.0049
111.9728, 149.4712
112.4549, 149.4670
112.9371, 149.6734
113.4192, 150.2952
113.9013, 151.1055
114.3834, 151.9485
114.8655, 152.7604
115.3476, 153.6007
115.8298, 154.6082
116.3119, 155.7771
116.7940, 157.1796
117.2761, 158.8430
117.7582, 160.7309
118.2403, 162.8218
118.7225, 165.1216
119.2046, 167.6136
119.6867, 170.0515
120.1688, 172.5331
120.6509, 174.8828
121.1330, 176.8832
121.6152, 178.6348
122.0973, 180.5345
122.5794, 182.9186
123.0615, 185.7947
123.5436, 188.5399
124.0257, 191.2236
124.5079, 193.7419
124.9900, 196.0704
125.4721, 198.2603
125.9542, 199.9654
126.4363, 200.5169
126.9184, 200.2865
127.4006, 200.0291
127.8827, 200.2228
128.3648, 200.6287
128.8469, 200.4913
129.3290, 199.5703
129.8111, 198.2934
130.2932, 197.0108
130.7754, 195.6712
131.2575, 194.0936
131.7396, 192.0254
132.2217, 189.3961
132.7038, 186.9297
133.1859, 184.7472
133.6681, 182.6514
134.1502, 180.5880
134.6323, 178.5385
135.1144, 176.5171
135.5965, 174.5322
136.0786, 172.5841
136.5608, 170.6583
137.0429, 168.8291
137.5250, 166.9716
138.0071, 164.9226
138.4892, 162.6512
138.9713, 160.3466
139.4535, 158.4556
139.9356, 157.5331
140.4177, 156.2484
140.8998, 154.2821
141.3819, 151.9650
141.8640, 149.7148
142.3462, 147.7090
142.8283, 145.9119
143.3104, 144.2605
143.7925, 142.7813
144.2746, 141.3620
144.7567, 139.9191
145.2388, 138.4850
145.7210, 137.2056
146.2031, 136.2480
146.6852, 135.4362
147.1673, 134.4027
147.6494, 133.0230
148.1315, 131.5893
148.6137, 130.2848
149.0958, 129.0779
149.5779, 128.2198
150.0600, 128.0619
150.5421, 128.2424
151.0242, 128.4761
151.5064, 128.6934
151.9885, 128.8813
152.4706, 128.9712
152.9527, 128.8049
153.4348, 128.8600
153.9169, 129.4476
154.3991, 130.2541
154.8812, 130.8855
155.3633, 131.0889
155.8454, 130.9522
156.3275, 131.0064
156.8096, 131.3012
157.2918, 131.7712
157.7739, 132.5029
158.2560, 133.3958
158.7381, 134.3098
159.2202, 135.1642
159.7023, 135.9652
160.1845, 136.4334
160.6666, 136.3954
161.1487, 136.2468
161.6308, 136.2697
162.1129, 136.3556
162.5950, 136.1002
163.0772, 135.1007
163.5593, 133.2259
164.0414, 131.5821
164.5235, 130.4618
165.0056, 129.3422
165.4877, 127.8104
165.9698, 125.8405
166.4520, 123.8072
166.9341, 122.0675
167.4162, 120.6322
167.8983, 119.2986
168.3804, 118.1821
168.8625, 117.0971
169.3447, 115.7921
169.8268, 114.2011
170.3089, 112.5282
170.7910, 110.9389
171.2731, 109.4285
171.7552, 108.0179
172.2374, 106.6883
172.7195, 105.4664
173.2016, 104.4294
173.6837, 103.5927
174.1658, 102.9598
174.6479, 102.5417
175.1301, 102.3008
175.6122, 102.0911
176.0943, 101.8713
176.5764, 101.6348
177.0585, 101.2037
177.5406, 100.1874
178.0228, 99.33340
178.5049, 99.01402
178.9870, 99.19749
179.4691, 99.64157
179.9512, 100.1760
180.4333, 100.8486
180.9155, 101.3921
181.3976, 101.8492
181.8797, 102.1498
182.3618, 102.0218
182.8439, 101.5763
183.3260, 101.3217
183.8082, 101.9965
184.2903, 104.2652
184.7724, 105.7043
185.2545, 105.6845
185.7366, 105.4751
186.2187, 105.9842
186.7009, 107.3302
187.1830, 108.8898
187.6651, 109.7484
188.1472, 109.4294
188.6293, 109.3494
189.1114, 109.5720
189.5936, 109.9842
190.0757, 110.5834
190.5578, 111.3553
191.0399, 112.0995
191.5220, 112.4675
192.0041, 112.3089
192.4863, 112.1816
192.9684, 112.2089
193.4505, 112.2766
193.9326, 112.2263
194.4147, 112.0009
194.8968, 111.6934
195.3790, 111.4483
195.8611, 111.2631
196.3432, 111.0975
196.8253, 110.9803
197.3074, 110.8717
197.7895, 110.6736
198.2717, 110.3331
198.7538, 109.9392
199.2359, 109.6034
199.7180, 109.3223
200.2001, 109.0603
200.6822, 108.7601
201.1644, 108.4470
201.6465, 108.2588
202.1286, 108.2896
202.6107, 108.3910
203.0928, 108.4078
203.5749, 108.3410
204.0571, 108.2987
204.5392, 108.4269
205.0213, 108.7221
205.5034, 108.8392
205.9855, 108.4495
206.4676, 108.0939
206.9497, 108.1650
207.4319, 108.6568
207.9140, 109.2204
208.3961, 109.5204
208.8782, 109.5300
209.3603, 109.4411
209.8424, 108.9802
210.3246, 108.6401
210.8067, 108.7010
211.2888, 109.1745
211.7709, 109.8572
212.2530, 110.4599
212.7351, 110.8158
213.2173, 111.6307
213.6994, 113.8749
214.1815, 115.8115
214.6636, 116.1700
215.1457, 114.9549
215.6278, 113.3393
216.1100, 112.8631
216.5921, 114.0248
217.0742, 115.1704
217.5563, 116.4877
218.0384, 117.6639
218.5205, 118.4560
219.0027, 118.8492
219.4848, 119.0601
219.9669, 119.3735
220.4490, 119.8647
220.9311, 120.2708
221.4132, 120.5227
221.8954, 120.7481
222.3775, 121.0523
222.8596, 121.4493
223.3417, 121.8597
223.8238, 122.1649
224.3059, 122.2581
224.7881, 122.5750
225.2702, 123.4614
225.7523, 124.3636
226.2344, 124.8173
226.7165, 124.7368
227.1986, 124.2981
227.6807, 123.6476
228.1629, 122.7250
228.6450, 121.9007
229.1271, 121.1224
229.6092, 120.4907
230.0913, 120.2604
230.5734, 120.4942
231.0556, 120.6735
231.5377, 120.1526
232.0198, 118.9426
232.5019, 117.7105
232.9840, 116.4102
233.4661, 115.2057
233.9483, 114.3154
234.4304, 113.7848
234.9125, 113.4654
235.3946, 113.3822
235.8767, 113.4533
236.3588, 113.2640
236.8410, 112.5087
237.3231, 111.4997
237.8052, 110.6601
238.2873, 110.0051
238.7694, 109.5657
239.2515, 109.5120
239.7337, 109.6992
240.2158, 109.8191
240.6979, 109.6651
241.1800, 109.4016
241.6621, 109.3061
242.1442, 109.3612
242.6264, 109.6526
243.1085, 110.3918
243.5906, 111.3736
244.0727, 112.2650
244.5548, 112.8179
245.0369, 113.2420
245.5191, 114.0117
246.0012, 115.2399
246.4833, 116.5536
246.9654, 117.6904
247.4475, 118.8072
247.9296, 120.1286
248.4117, 121.7783
248.8939, 123.6578
249.3760, 125.5784
249.8581, 127.5087
250.3402, 129.5479
250.8223, 131.4684
251.3044, 133.5784
251.7866, 136.2854
252.2687, 139.8295
252.7508, 143.9040
253.2329, 147.7997
253.7150, 151.1530
254.1971, 155.0714
254.6793, 159.7927
255.1614, 165.1086
255.6435, 170.9484
256.1256, 177.2849
256.6077, 183.9287
257.0898, 190.5477
257.5720, 197.1174
258.0541, 203.6664
258.5362, 210.0400
259.0183, 216.4734
259.5004, 223.4910
259.9825, 231.2080
260.4647, 238.8249
260.9468, 244.8297
261.4289, 248.7793
261.9110, 251.7979
262.3931, 254.4278
262.8752, 256.1386
263.3574, 256.5660
263.8395, 255.6023
264.3216, 253.3180
264.8037, 249.8074
265.2858, 245.0252
265.7679, 238.8839
266.2501, 230.7417
266.7322, 221.9841
267.2143, 213.3888
267.6964, 205.2023
268.1785, 197.3914
268.6606, 189.9360
269.1428, 182.9275
269.6249, 176.1422
270.1070, 169.5303
270.5891, 163.1269
271.0712, 156.9408
271.5533, 150.9950
272.0355, 145.3529
272.5176, 140.0596
272.9997, 135.1127
273.4818, 130.7409
273.9639, 126.8616
274.4460, 123.4966
274.9282, 120.8889
275.4103, 118.8870
275.8924, 117.0038
276.3745, 114.7717
276.8566, 112.1073
277.3387, 109.8938
277.8208, 108.0344
278.3029, 106.5867
278.7851, 105.8601
279.2672, 105.6123
279.7493, 105.1771
280.2314, 104.0126
280.7135, 102.1589
281.1956, 100.7895
281.6778, 99.92574
282.1599, 99.40276
282.6420, 99.30046
283.1241, 99.49888
283.6062, 99.77444
284.0883, 100.0027
284.5705, 100.1907
285.0526, 100.3689
285.5347, 100.2514
286.0168, 100.4475
286.4989, 101.2846
286.9810, 102.5059
287.4632, 103.6680
287.9453, 104.5573
288.4274, 105.2926
288.9095, 106.2197
289.3916, 107.1702
289.8737, 108.5245
290.3559, 110.5050
290.8380, 112.8736
291.3201, 115.2097
291.8022, 117.3487
292.2843, 119.6337
292.7664, 122.7393
293.2486, 126.7405
293.7307, 131.3704
294.2128, 136.8528
294.6949, 142.8417
295.1770, 149.2808
295.6591, 156.1664
296.1413, 162.7090
296.6234, 168.1602
297.1055, 172.7096
297.5876, 174.4888
298.0697, 172.6586
298.5518, 168.5139
299.0340, 162.6114
299.5161, 155.1941
299.9982, 147.2035
300.4803, 139.3443
300.9624, 131.6412
301.4445, 124.7230
301.9267, 118.6042
302.4088, 113.2807
302.8909, 108.7706
303.3730, 105.0586
303.8551, 101.9864
304.3372, 99.50082
304.8194, 97.59220
305.3015, 95.85423
305.7836, 94.35249
306.2657, 92.92638
306.7478, 91.40537
307.2299, 89.87962
307.7121, 88.62127
308.1942, 87.78043
308.6763, 87.30071
309.1584, 87.02723
309.6405, 87.22836
310.1227, 87.19750
310.6048, 86.52999
311.0869, 85.49487
311.5690, 84.57262
312.0511, 83.92915
312.5332, 83.52644
313.0154, 83.34121
313.4975, 83.41079
313.9796, 83.52678
314.4617, 83.63311
314.9438, 83.76991
315.4259, 84.03386
315.9081, 84.45542
316.3902, 84.86575
316.8723, 85.02708
317.3544, 84.88608
317.8365, 84.84008
318.3186, 84.94283
318.8007, 85.14001
319.2828, 85.36951
319.7650, 85.62971
320.2471, 86.00476
320.7292, 86.65022
321.2113, 87.55033
321.6934, 88.03822
322.1755, 87.73612
322.6577, 87.36541
323.1398, 87.41737
323.6219, 87.82262
324.1040, 88.17172
324.5861, 88.16764
325.0682, 87.92460
325.5504, 88.02337
326.0325, 88.76081
326.5146, 89.45238
326.9967, 89.69215
327.4788, 89.71976
327.9609, 90.10725
328.4431, 91.16271
328.9252, 92.52921
329.4073, 93.34332
329.8894, 93.38407
330.3715, 93.45259
330.8536, 93.67937
331.3358, 94.01755
331.8179, 94.40351
332.3000, 94.82018
332.7821, 95.30602
333.2642, 95.93893
333.7463, 96.78819
334.2285, 97.52311
334.7106, 98.00635
335.1927, 98.45341
335.6748, 99.10468
336.1569, 99.94836
336.6390, 100.6951
337.1212, 101.0216
337.6033, 100.9075
338.0854, 101.2673
338.5675, 102.5364
339.0496, 103.8064
339.5317, 104.4754
340.0139, 104.7506
340.4960, 105.3208
340.9781, 106.6602
341.4602, 108.5410
341.9423, 109.7883
342.4244, 109.7668
342.9066, 109.9737
343.3887, 110.8722
343.8708, 112.1414
344.3529, 113.3390
344.8350, 114.2928
345.3171, 115.0706
345.7993, 115.7757
346.2814, 116.1407
346.7635, 116.9396
347.2456, 118.3894
347.7277, 120.1406
348.2098, 121.9099
348.6920, 123.6364
349.1741, 125.4734
349.6562, 127.6370
350.1383, 130.3333
350.6204, 132.2739
351.1025, 132.7072
351.5847, 133.2062
352.0668, 134.5622
352.5489, 136.6673
353.0310, 139.0105
353.5131, 141.2072
353.9952, 143.3004
354.4774, 145.8166
354.9595, 149.4225
355.4416, 152.6675
355.9237, 154.8263
356.4058, 156.5835
356.8879, 159.0911
357.3701, 162.8670
357.8522, 167.1007
358.3343, 169.9498
358.8164, 170.7351
359.2985, 171.0255
359.7806, 170.6262
360.2627, 169.9454
360.7448, 169.5605
361.2270, 169.4286
361.7091, 168.7410
362.1912, 166.4015
362.6733, 161.9376
363.1554, 157.8935
363.6375, 154.1128
364.1197, 150.8708
364.6018, 148.5189
365.0839, 146.8137
365.5660, 145.2254
366.0481, 143.3317
366.5302, 141.2263
367.0124, 139.6510
367.4945, 139.0047
367.9766, 138.4152
368.4587, 137.4262
368.9408, 136.5049
369.4229, 136.3167
369.9051, 137.1430
370.3872, 138.4364
370.8693, 139.1591
371.3514, 139.0830
371.8335, 139.0055
372.3156, 138.8883
372.7978, 138.8976
373.2799, 139.3373
373.7620, 140.1351
374.2441, 140.7319
374.7262, 140.3199
375.2083, 138.8248
375.6905, 138.0965
376.1726, 138.8828
376.6547, 139.6220
377.1368, 139.6748
377.6189, 139.1758
378.1010, 138.4227
378.5832, 137.4699
379.0653, 136.4554
379.5474, 135.8071
380.0295, 135.7166
380.5116, 135.4842
380.9937, 134.6697
381.4759, 133.6725
381.9580, 132.9069
382.4401, 132.5064
382.9222, 132.1352
383.4043, 131.3708
383.8864, 130.2166
384.3686, 129.2136
384.8507, 128.6041
385.3328, 128.0472
385.8149, 127.1913
386.2970, 126.0785
386.7791, 125.0533
387.2613, 124.2728
387.7434, 123.7270
388.2255, 123.4646
388.7076, 123.5865
389.1897, 123.6609
389.6718, 123.3355
390.1540, 122.7434
390.6361, 122.1255
391.1182, 121.5395
391.6003, 120.9343
392.0824, 120.2556
392.5645, 119.5079
393.0467, 118.7371
393.5288, 117.9171
394.0109, 117.1343
394.4930, 116.5349
394.9751, 116.1313
395.4572, 115.8264
395.9394, 115.5654
396.4215, 115.3843
396.9036, 115.3974
397.3857, 115.6473
397.8678, 115.9056
398.3499, 115.9180
398.8321, 115.6644
399.3142, 115.4477
399.7963, 115.2115
400.2784, 115.0685
400.7605, 115.1498
401.2426, 115.4114
401.7247, 115.6354
402.2068, 115.6487
402.6890, 115.5644
403.1711, 115.9116
403.6532, 117.0159
404.1353, 118.0725
404.6174, 119.1076
405.0995, 119.9554
405.5817, 120.1945
406.0638, 119.7461
406.5459, 119.2999
407.0280, 119.8743
407.5101, 121.8907
407.9922, 123.6313
408.4744, 124.8669
408.9565, 126.0622
409.4386, 127.4056
409.9207, 128.9337
410.4028, 130.6446
410.8849, 132.5555
411.3671, 134.6588
411.8492, 136.9418
412.3313, 139.3963
412.8134, 142.0632
413.2955, 145.1143
413.7776, 148.2975
414.2598, 151.3773
414.7419, 154.2714
415.2240, 157.0160
415.7061, 159.6520
416.1882, 162.1789
416.6703, 164.6395
417.1525, 167.4230
417.6346, 169.7828
418.1167, 171.3482
418.5988, 172.1714
419.0809, 172.5153
419.5630, 172.7041
420.0452, 172.5421
420.5273, 171.0719
421.0094, 167.8272
421.4915, 164.2473
421.9736, 160.9560
422.4557, 157.6376
422.9379, 153.8824
423.4200, 149.5258
423.9021, 145.0720
424.3842, 141.0271
424.8663, 137.3902
425.3484, 133.8807
425.8306, 130.1365
426.3127, 126.9470
426.7948, 125.2252
427.2769, 124.7538
427.7590, 124.1046
428.2411, 122.4120
428.7233, 120.2892
429.2054, 118.6520
429.6875, 117.5395
430.1696, 116.7288
430.6517, 116.0921
431.1339, 115.6906
431.6160, 115.6051
432.0981, 115.9462
432.5802, 116.4290
433.0623, 116.8254
433.5444, 117.2687
434.0266, 118.0917
434.5087, 119.4154
434.9908, 120.9732
435.4729, 122.4377
435.9550, 123.8029
436.4371, 125.0570
436.9193, 125.9862
437.4014, 126.9776
437.8835, 128.4587
438.3656, 130.2898
438.8477, 131.8689
439.3298, 132.7576
439.8120, 133.1254
440.2941, 133.8664
440.7762, 135.4534
441.2583, 136.8330
441.7404, 137.7178
442.2225, 138.4358
442.7046, 139.1968
443.1867, 140.1010
443.6689, 141.3282
444.1510, 143.1069
444.6331, 145.4892
445.1152, 148.1927
445.5973, 150.8423
446.0794, 154.1941
446.5616, 158.6080
447.0437, 163.8960
447.5258, 169.7462
448.0079, 175.9379
448.4900, 182.5795
448.9721, 189.9170
449.4543, 197.9312
449.9364, 206.6955
450.4185, 217.2380
450.9006, 227.9121
451.3827, 237.7683
451.8648, 246.6512
452.3470, 254.5993
452.8291, 261.5526
453.3112, 267.5781
453.7933, 272.7760
454.2754, 277.1238
454.7575, 280.6484
455.2397, 283.0778
455.7218, 284.7294
456.2039, 286.0428
456.6860, 287.1575
457.1681, 287.8834
457.6502, 288.0413
458.1324, 287.6668
458.6145, 286.9871
459.0966, 286.1816
459.5787, 284.8856
460.0608, 282.5372
460.5429, 279.2312
461.0251, 274.9220
461.5072, 269.1031
461.9893, 262.6315
462.4714, 256.2520
462.9535, 249.9814
463.4356, 243.4535
463.9178, 236.3148
464.3999, 228.7507
464.8820, 221.5583
465.3641, 215.0681
465.8462, 208.4969
466.3283, 201.2478
466.8105, 194.0478
467.2926, 187.7930
467.7747, 182.6121
468.2568, 177.9191
468.7389, 173.0251
469.2210, 167.8182
469.7032, 162.8926
470.1853, 158.2214
470.6674, 153.8675
471.1495, 149.9346
471.6316, 146.3304
472.1137, 142.9194
472.5959, 139.6241
473.0780, 136.5626
473.5601, 133.9987
474.0422, 132.0208
474.5243, 130.1803
475.0064, 128.6073
475.4886, 126.9896
475.9707, 125.0437
476.4528, 122.8431
476.9349, 120.7481
477.4170, 119.0877
477.8991, 117.6781
478.3813, 116.0540
478.8634, 114.1811
479.3455, 112.3277
479.8276, 110.5662
480.3097, 108.9488
480.7918, 107.5900
481.2740, 106.5995
481.7561, 105.5755
482.2382, 104.2185
482.7203, 102.7136
483.2024, 101.4357
483.6845, 100.4674
484.1666, 99.54048
484.6487, 98.35818
485.1309, 96.91493
485.6130, 95.73544
486.0951, 95.14683
486.5772, 94.45987
487.0593, 93.11703
487.5414, 91.51475
488.0236, 90.47142
488.5057, 90.30703
488.9878, 90.50087
489.4699, 90.10300
489.9520, 88.69490
490.4341, 87.71543
490.9163, 87.35581
491.3984, 87.17117
491.8805, 87.05433
492.3626, 86.92549
492.8447, 86.64268
493.3268, 86.07796
493.8090, 85.38664
494.2911, 85.05238
494.7732, 85.21019
495.2553, 85.36191
495.7374, 85.48040
496.2195, 85.48957
496.7017, 85.27220
497.1838, 84.84415
497.6659, 84.42186
498.1480, 84.11666
498.6301, 83.93716
499.1122, 84.01094
499.5944, 84.44531
500.0765, 84.63070
500.5586, 84.00129
501.0407, 82.95045
501.5228, 82.30019
502.0049, 82.18285
502.4871, 82.26343
502.9692, 82.53255
503.4513, 82.84631
503.9334, 82.89117
504.4155, 82.59494
504.8976, 82.26871
505.3798, 82.23007
505.8619, 82.50081
506.3440, 82.69471
506.8261, 82.85954
507.3082, 82.90704
507.7903, 82.66659
508.2725, 82.32796
508.7546, 82.19253
509.2367, 82.36961
509.7188, 82.71799
510.2009, 83.02385
510.6830, 83.28780
511.1652, 83.50913
511.6473, 83.61663
512.1294, 83.75185
512.6115, 83.95914
513.0936, 84.23776
513.5757, 84.58094
514.0579, 84.99157
514.5400, 85.44851
515.0221, 85.88171
515.5042, 86.26763
515.9863, 86.83461
516.4684, 87.79325
516.9506, 88.79895
517.4327, 89.44945
517.9148, 89.81548
518.3969, 90.43177
518.8790, 91.81847
519.3611, 93.41312
519.8433, 94.28573
520.3254, 94.50451
520.8075, 95.22625
521.2896, 97.14899
521.7717, 99.74419
522.2538, 101.6888
522.7360, 102.6482
523.2181, 104.0475
523.7002, 106.2377
524.1823, 108.8772
524.6644, 111.6192
525.1465, 114.4723
525.6287, 117.7144
526.1108, 121.5334
526.5929, 125.8808
527.0750, 130.6113
527.5571, 135.4271
528.0392, 141.0830
528.5214, 147.7497
529.0035, 155.1757
529.4856, 163.0828
529.9677, 171.4749
530.4498, 180.6156
530.9319, 190.8248
531.4141, 201.9777
531.8962, 213.4810
532.3783, 225.2699
532.8604, 237.4880
533.3425, 251.2717
533.8246, 264.9728
534.3068, 277.2688
534.7889, 288.0549
535.2710, 296.5797
535.7531, 302.6116
536.2352, 306.0243
536.7173, 306.4906
537.1995, 303.9305
537.6816, 298.8891
538.1637, 291.6161
538.6458, 282.0970
539.1279, 271.0153
539.6100, 257.0413
540.0922, 243.2519
540.5743, 230.1457
541.0564, 217.8046
541.5385, 206.2874
542.0206, 195.6279
542.5027, 185.7745
542.9849, 176.7241
543.4670, 168.4727
543.9491, 161.1595
544.4312, 155.4644
544.9133, 150.0042
545.3954, 144.3009
545.8775, 138.8118
546.3596, 134.0695
546.8417, 130.2051
547.3239, 126.9981
547.8060, 124.4434
548.2881, 122.4716
548.7702, 120.3590
549.2523, 117.9666
549.7344, 115.6683
550.2166, 113.6611
550.6987, 111.9098
551.1808, 110.4003
551.6629, 109.2078
552.1450, 108.0941
552.6271, 106.9465
553.1093, 105.7605
553.5914, 104.4292
554.0735, 102.9225
554.5556, 101.6338
555.0377, 100.9858
555.5198, 100.9646
556.0020, 100.7027
556.4841, 100.1127
556.9662, 99.42757
557.4483, 98.42244
557.9304, 97.48454
558.4125, 97.21854
558.8947, 97.69892
559.3768, 98.30177
559.8589, 98.26711
560.3410, 97.57273
560.8231, 97.28515
561.3052, 97.77894
561.7874, 98.14080
562.2695, 98.05556
562.7516, 97.71130
563.2337, 97.21147
563.7158, 96.55789
564.1979, 96.17392
564.6801, 96.71011
565.1622, 97.82421
565.6443, 98.30799
566.1264, 97.94416
566.6085, 97.43897
567.0906, 97.20263
567.5728, 97.22308
568.0549, 97.38863
568.5370, 97.83568
569.0191, 98.21252
569.5012, 98.25900
569.9833, 98.23865
570.4655, 98.62154
570.9476, 99.40035
571.4297, 99.96653
571.9118, 99.70776
572.3939, 98.71590
572.8760, 98.19296
573.3582, 98.47964
573.8403, 98.79252
574.3224, 98.95183
574.8045, 99.13745
575.2866, 99.64021
575.7687, 100.4254
576.2509, 101.0113
576.7330, 100.8447
577.2151, 100.1492
577.6972, 99.77478
578.1793, 99.74625
578.6614, 99.94617
579.1436, 100.4774
579.6257, 101.1161
580.1078, 101.5320
580.5899, 101.6951
581.0720, 101.7884
581.5541, 101.9006
582.0363, 101.9664
582.5184, 101.8482
583.0005, 101.5829
583.4826, 101.4143
583.9647, 101.4998
584.4468, 101.7519
584.9290, 101.9141
585.4111, 101.9115
585.8932, 101.9335
586.3753, 101.9704
586.8574, 102.0385
587.3395, 102.2102
587.8217, 102.4240
