##NAMES=Marialite
##RRUFFID=R060526
##IDEAL CHEMISTRY=Na_4_Al_3_Si_9_O_24_Cl
##LOCALITY=Minas Gerais, Brazil
##OWNER=RRUFF
##SOURCE=Michael Scott
##DESCRIPTION=Heavily striated pale yellow elongated prism
##STATUS=The identification of this mineral has been confirmed by X-ray diffraction and chemical analysis
##URL=rruff.info/R060526
##MEASURED CHEMISTRY=(Na_0.62_Ca_0.33_K_0.05_)_4_(Si_0.66_Al_0.34_)_12_O_24_(Cl_0.77_(CO_3_)_0.23_)
91.72394, 0.0000000E+00
92.20605, 163.6464
92.68817, 160.7940
93.17029, 160.6295
93.65240, 162.8304
94.13452, 166.2015
94.61664, 169.1180
95.09875, 171.1236
95.58087, 172.6412
96.06299, 174.3996
96.54510, 176.7615
97.02721, 178.8026
97.50933, 180.3100
97.99145, 181.5545
98.47356, 182.8566
98.95568, 184.3091
99.43780, 185.6119
99.91991, 187.2237
100.4020, 189.1087
100.8841, 191.3033
101.3663, 193.7505
101.8484, 196.4637
102.3305, 199.5203
102.8126, 202.9915
103.2947, 206.9659
103.7768, 211.3511
104.2590, 216.6273
104.7411, 222.0939
105.2232, 227.1039
105.7053, 231.5991
106.1874, 235.3902
106.6695, 238.2813
107.1517, 240.4317
107.6338, 241.3083
108.1159, 240.4630
108.5980, 238.0534
109.0801, 234.8801
109.5622, 230.9490
110.0444, 226.3419
110.5265, 221.1540
111.0086, 215.3602
111.4907, 209.1688
111.9728, 202.5680
112.4549, 195.2527
112.9371, 188.7156
113.4192, 183.3314
113.9013, 178.6631
114.3834, 174.4705
114.8655, 170.6797
115.3476, 167.2699
115.8298, 164.2378
116.3119, 161.4261
116.7940, 159.2631
117.2761, 158.0043
117.7582, 157.3331
118.2403, 156.8437
118.7225, 156.2882
119.2046, 155.6970
119.6867, 155.4727
120.1688, 155.5218
120.6509, 155.9253
121.1330, 157.0830
121.6152, 158.7517
122.0973, 160.0631
122.5794, 160.2076
123.0615, 159.1878
123.5436, 158.6858
124.0257, 159.0387
124.5079, 159.7138
124.9900, 160.2408
125.4721, 160.5721
125.9542, 160.8321
126.4363, 161.1959
126.9184, 161.5918
127.4006, 161.7965
127.8827, 161.5896
128.3648, 161.1099
128.8469, 160.8049
129.3290, 160.8444
129.8111, 160.8741
130.2932, 160.6630
130.7754, 160.2553
131.2575, 159.8136
131.7396, 159.4883
132.2217, 159.3018
132.7038, 159.0352
133.1859, 158.4676
133.6681, 157.9813
134.1502, 157.7075
134.6323, 157.6796
135.1144, 157.8885
135.5965, 158.3276
136.0786, 159.0418
136.5608, 159.9457
137.0429, 161.1179
137.5250, 162.3950
138.0071, 163.5807
138.4892, 164.6338
138.9713, 165.7502
139.4535, 167.3270
139.9356, 169.8265
140.4177, 172.1799
140.8998, 174.0744
141.3819, 175.8530
141.8640, 178.0414
142.3462, 180.9044
142.8283, 184.1935
143.3104, 187.1420
143.7925, 189.4514
144.2746, 191.9793
144.7567, 195.1361
145.2388, 198.8276
145.7210, 202.7108
146.2031, 206.7645
146.6852, 210.8137
147.1673, 214.4897
147.6494, 217.3781
148.1315, 220.4668
148.6137, 224.9087
149.0958, 230.9155
149.5779, 236.8222
150.0600, 241.7159
150.5421, 246.1748
151.0242, 250.7647
151.5064, 255.7480
151.9885, 260.8256
152.4706, 265.3257
152.9527, 269.1649
153.4348, 272.5793
153.9169, 275.7764
154.3991, 278.6715
154.8812, 281.1387
155.3633, 283.0329
155.8454, 284.4662
156.3275, 286.1056
156.8096, 288.3097
157.2918, 290.3421
157.7739, 292.1104
158.2560, 293.6012
158.7381, 294.8284
159.2202, 295.8263
159.7023, 296.6037
160.1845, 296.7482
160.6666, 296.3506
161.1487, 295.3553
161.6308, 293.7224
162.1129, 291.4601
162.5950, 288.5524
163.0772, 284.9327
163.5593, 280.4605
164.0414, 276.1879
164.5235, 272.6022
165.0056, 268.8624
165.4877, 264.4847
165.9698, 259.4038
166.4520, 253.7341
166.9341, 247.3371
167.4162, 240.2232
167.8983, 233.5594
168.3804, 227.7506
168.8625, 222.3123
169.3447, 216.6049
169.8268, 210.4650
170.3089, 204.4020
170.7910, 198.9667
171.2731, 194.0529
171.7552, 189.4167
172.2374, 184.8550
172.7195, 180.5047
173.2016, 176.8214
173.6837, 174.1192
174.1658, 171.7369
174.6479, 169.0323
175.1301, 166.1271
175.6122, 163.4711
176.0943, 161.3458
176.5764, 159.7413
177.0585, 158.5978
177.5406, 158.4746
178.0228, 158.3125
178.5049, 157.4645
178.9870, 156.0432
179.4691, 154.6503
179.9512, 153.8736
180.4333, 153.8220
180.9155, 153.9044
181.3976, 154.0547
181.8797, 154.3884
182.3618, 155.0031
182.8439, 155.8880
183.3260, 156.9434
183.8082, 158.1102
184.2903, 159.6294
184.7724, 160.5778
185.2545, 160.6190
185.7366, 160.4643
186.2187, 160.4954
186.7009, 160.8118
187.1830, 161.3504
187.6651, 162.0410
188.1472, 163.0677
188.6293, 163.8448
189.1114, 164.3598
189.5936, 164.6428
190.0757, 164.5620
190.5578, 164.1006
191.0399, 163.6580
191.5220, 163.9721
192.0041, 165.5202
192.4863, 166.4820
192.9684, 166.4107
193.4505, 165.7301
193.9326, 164.9123
194.4147, 164.0637
194.8968, 163.2262
195.3790, 162.3961
195.8611, 161.4924
196.3432, 160.9541
196.8253, 161.2702
197.3074, 162.0331
197.7895, 162.2866
198.2717, 161.6018
198.7538, 160.6333
199.2359, 160.2354
199.7180, 160.4013
200.2001, 160.6516
200.6822, 160.6526
201.1644, 160.4906
201.6465, 160.6067
202.1286, 161.2383
202.6107, 162.0422
203.0928, 162.7583
203.5749, 163.3811
204.0571, 163.8128
204.5392, 164.0012
205.0213, 163.9478
205.5034, 163.6163
205.9855, 162.9220
206.4676, 161.9777
206.9497, 160.9077
207.4319, 159.7042
207.9140, 158.2105
208.3961, 156.1128
208.8782, 153.2565
209.3603, 150.7776
209.8424, 148.9683
210.3246, 147.4391
210.8067, 146.0882
211.2888, 144.8768
211.7709, 143.7617
212.2530, 142.6548
212.7351, 141.4717
213.2173, 140.6018
213.6994, 140.0406
214.1815, 139.7636
214.6636, 139.9481
215.1457, 140.5188
215.6278, 141.0859
216.1100, 141.1287
216.5921, 140.4426
217.0742, 139.6954
217.5563, 138.7592
218.0384, 137.8661
218.5205, 137.1153
219.0027, 136.5462
219.4848, 136.1815
219.9669, 136.0726
220.4490, 136.3504
220.9311, 136.5834
221.4132, 136.9493
221.8954, 137.1630
222.3775, 136.9191
222.8596, 136.2006
223.3417, 135.3540
223.8238, 134.8482
224.3059, 134.9414
224.7881, 134.6300
225.2702, 133.7702
225.7523, 132.6014
226.2344, 131.2393
226.7165, 129.7195
227.1986, 128.2161
227.6807, 126.9967
228.1629, 126.1785
228.6450, 125.0135
229.1271, 123.1163
229.6092, 121.0229
230.0913, 119.3018
230.5734, 118.0594
231.0556, 117.0412
231.5377, 115.9965
232.0198, 114.9264
232.5019, 113.9526
232.9840, 113.3246
233.4661, 112.7096
233.9483, 111.5294
234.4304, 109.6023
234.9125, 107.7765
235.3946, 107.1252
235.8767, 107.3728
236.3588, 107.4023
236.8410, 106.7959
237.3231, 105.8550
237.8052, 104.9778
238.2873, 104.1657
238.7694, 103.5031
239.2515, 103.1684
239.7337, 103.0387
240.2158, 102.8497
240.6979, 102.3557
241.1800, 101.7816
241.6621, 101.6029
242.1442, 101.9577
242.6264, 102.3488
243.1085, 102.3633
243.5906, 102.2080
244.0727, 102.2317
244.5548, 102.6626
245.0369, 103.3234
245.5191, 103.8435
246.0012, 104.1959
246.4833, 104.4619
246.9654, 104.5969
247.4475, 104.6961
247.9296, 104.8968
248.4117, 105.2841
248.8939, 105.7803
249.3760, 106.1762
249.8581, 106.3167
250.3402, 106.7033
250.8223, 107.6897
251.3044, 108.9175
251.7866, 109.9466
252.2687, 110.5349
252.7508, 110.9654
253.2329, 111.9471
253.7150, 113.8160
254.1971, 115.5486
254.6793, 116.6405
255.1614, 117.6068
255.6435, 119.0418
256.1256, 121.2038
256.6077, 123.6710
257.0898, 125.5147
257.5720, 126.2751
258.0541, 127.2953
258.5362, 128.9621
259.0183, 130.8286
259.5004, 132.5722
259.9825, 134.0697
260.4647, 135.3438
260.9468, 136.5060
261.4289, 137.9323
261.9110, 138.4107
262.3931, 137.4993
262.8752, 136.0293
263.3574, 134.6439
263.8395, 133.5071
264.3216, 132.3592
264.8037, 130.7887
265.2858, 128.7407
265.7679, 126.3118
266.2501, 123.2437
266.7322, 120.0596
267.2143, 117.0484
267.6964, 114.3039
268.1785, 111.8234
268.6606, 109.6009
269.1428, 107.6159
269.6249, 106.0202
270.1070, 105.2610
270.5891, 104.4662
271.0712, 103.0328
271.5533, 100.9598
272.0355, 98.69061
272.5176, 96.65910
272.9997, 94.80288
273.4818, 93.58212
273.9639, 93.25106
274.4460, 93.19304
274.9282, 93.11687
275.4103, 93.00940
275.8924, 93.01260
276.3745, 93.28237
276.8566, 93.87029
277.3387, 94.22646
277.8208, 94.06007
278.3029, 93.99704
278.7851, 94.35707
279.2672, 95.06844
279.7493, 95.86341
280.2314, 96.54932
280.7135, 97.12997
281.1956, 97.75068
281.6778, 98.16727
282.1599, 98.86573
282.6420, 100.0823
283.1241, 101.7110
283.6062, 103.5286
284.0883, 105.4140
284.5705, 107.3702
285.0526, 109.3419
285.5347, 111.5553
286.0168, 113.5362
286.4989, 115.2546
286.9810, 116.6541
287.4632, 117.6502
287.9453, 118.2042
288.4274, 118.3278
288.9095, 118.0236
289.3916, 117.3999
289.8737, 116.2469
290.3559, 114.4646
290.8380, 112.1503
291.3201, 109.2200
291.8022, 105.5979
292.2843, 101.9173
292.7664, 99.33945
293.2486, 98.31503
293.7307, 97.34969
294.2128, 96.18972
294.6949, 95.07353
295.1770, 94.21704
295.6591, 93.66990
296.1413, 93.49429
296.6234, 93.97519
297.1055, 95.54301
297.5876, 95.76662
298.0697, 93.84832
298.5518, 91.00105
299.0340, 87.94317
299.5161, 84.85826
299.9982, 82.17087
300.4803, 80.41363
300.9624, 79.70382
301.4445, 78.45381
301.9267, 76.14282
302.4088, 73.73751
302.8909, 71.66708
303.3730, 70.01550
303.8551, 68.97464
304.3372, 68.84651
304.8194, 69.48793
305.3015, 69.52956
305.7836, 68.52132
306.2657, 67.42841
306.7478, 66.68066
307.2299, 66.21741
307.7121, 65.81094
308.1942, 65.31952
308.6763, 64.83242
309.1584, 64.68862
309.6405, 65.15463
310.1227, 65.49104
310.6048, 65.38004
311.0869, 64.98640
311.5690, 64.57648
312.0511, 64.22367
312.5332, 63.98736
313.0154, 64.01992
313.4975, 64.36081
313.9796, 64.77966
314.4617, 65.37776
314.9438, 65.97541
315.4259, 66.24753
315.9081, 66.09676
316.3902, 65.94162
316.8723, 66.36648
317.3544, 67.49876
317.8365, 68.41018
318.3186, 68.79534
318.8007, 69.07441
319.2828, 69.66848
319.7650, 70.60931
320.2471, 71.56930
320.7292, 72.23933
321.2113, 72.61414
321.6934, 73.18448
322.1755, 74.15095
322.6577, 75.13531
323.1398, 75.84583
323.6219, 76.33910
324.1040, 76.90831
324.5861, 77.71726
325.0682, 78.75789
325.5504, 79.92172
326.0325, 81.40000
326.5146, 82.77449
326.9967, 83.81532
327.4788, 84.65154
327.9609, 85.54927
328.4431, 86.61575
328.9252, 87.82230
329.4073, 89.11447
329.8894, 90.45605
330.3715, 91.93623
330.8536, 93.78460
331.3358, 95.69685
331.8179, 97.29649
332.3000, 98.48414
332.7821, 99.38052
333.2642, 100.1726
333.7463, 100.9279
334.2285, 101.1943
334.7106, 100.7098
335.1927, 99.89848
335.6748, 99.12233
336.1569, 98.40275
336.6390, 97.45633
337.1212, 95.97138
337.6033, 93.91319
338.0854, 92.24963
338.5675, 91.26259
339.0496, 90.33230
339.5317, 89.11414
340.0139, 87.68633
340.4960, 86.31536
340.9781, 85.14809
341.4602, 84.17329
341.9423, 83.36726
342.4244, 82.93699
342.9066, 82.40246
343.3887, 81.45826
343.8708, 80.40452
344.3529, 79.74604
344.8350, 79.68555
345.3171, 79.89426
345.7993, 79.74507
346.2814, 78.90224
346.7635, 78.26125
347.2456, 77.70205
347.7277, 77.42679
348.2098, 77.77248
348.6920, 78.71667
349.1741, 79.75216
349.6562, 80.26228
350.1383, 80.05785
350.6204, 80.31189
351.1025, 81.24489
351.5847, 82.34885
352.0668, 83.43815
352.5489, 84.47865
353.0310, 85.48092
353.5131, 86.45229
353.9952, 87.38427
354.4774, 88.20425
354.9595, 88.68222
355.4416, 89.31203
355.9237, 90.14957
356.4058, 91.20433
356.8879, 92.56762
357.3701, 94.28090
357.8522, 96.12798
358.3343, 97.63453
358.8164, 98.75101
359.2985, 99.54604
359.7806, 100.0740
360.2627, 100.2833
360.7448, 100.1772
361.2270, 99.73287
361.7091, 98.84953
362.1912, 97.33416
362.6733, 94.99897
363.1554, 92.85659
363.6375, 90.79832
364.1197, 89.02285
364.6018, 87.76482
365.0839, 86.86650
365.5660, 85.97503
366.0481, 84.80851
366.5302, 83.43144
367.0124, 82.34737
367.4945, 81.69991
367.9766, 81.19283
368.4587, 80.70935
368.9408, 80.34837
369.4229, 80.30289
369.9051, 80.65701
370.3872, 81.14352
370.8693, 81.21825
371.3514, 80.65911
371.8335, 80.25791
372.3156, 80.07713
372.7978, 80.09233
373.2799, 80.37111
373.7620, 80.88003
374.2441, 81.42867
374.7262, 81.81564
375.2083, 82.03182
375.6905, 82.29381
376.1726, 82.77197
376.6547, 83.08920
377.1368, 82.99908
377.6189, 82.63956
378.1010, 82.31310
378.5832, 82.23003
379.0653, 82.25635
379.5474, 82.01744
380.0295, 81.43457
380.5116, 80.78956
380.9937, 79.89011
381.4759, 79.12099
381.9580, 79.04165
382.4401, 79.89671
382.9222, 80.75539
383.4043, 80.43925
383.8864, 78.96071
384.3686, 77.78391
384.8507, 77.37138
385.3328, 77.21301
385.8149, 76.91117
386.2970, 76.46472
386.7791, 75.89414
387.2613, 75.03027
387.7434, 74.07420
388.2255, 73.56979
388.7076, 73.67046
389.1897, 73.82211
389.6718, 73.62483
390.1540, 73.19628
390.6361, 72.75569
391.1182, 72.40884
391.6003, 71.99989
392.0824, 71.25529
392.5645, 70.23310
393.0467, 69.48217
393.5288, 69.27098
394.0109, 69.42823
394.4930, 69.68360
394.9751, 70.13110
395.4572, 70.33284
395.9394, 69.94015
396.4215, 69.23729
396.9036, 68.70060
397.3857, 68.42905
397.8678, 68.26447
398.3499, 68.03335
398.8321, 67.73042
399.3142, 67.53294
399.7963, 67.42400
400.2784, 67.44012
400.7605, 67.69514
401.2426, 68.12522
401.7247, 68.47788
402.2068, 68.59509
402.6890, 68.52607
403.1711, 68.48455
403.6532, 68.44353
404.1353, 68.45771
404.6174, 68.53220
405.0995, 68.66887
405.5817, 68.89831
406.0638, 69.22264
406.5459, 69.55757
407.0280, 69.76835
407.5101, 69.75877
407.9922, 69.93920
408.4744, 70.31312
408.9565, 70.84515
409.4386, 71.65220
409.9207, 72.62008
410.4028, 73.44969
410.8849, 73.91726
411.3671, 74.07623
411.8492, 74.35928
412.3313, 75.01511
412.8134, 75.47955
413.2955, 75.37737
413.7776, 75.18882
414.2598, 75.47495
414.7419, 76.40491
415.2240, 77.62705
415.7061, 78.61594
416.1882, 79.31010
416.6703, 79.99944
417.1525, 80.76615
417.6346, 81.46565
418.1167, 82.02298
418.5988, 82.45251
419.0809, 82.80040
419.5630, 83.07734
420.0452, 83.30620
420.5273, 83.64037
421.0094, 84.26450
421.4915, 84.59048
421.9736, 84.08958
422.4557, 83.32456
422.9379, 82.87935
423.4200, 82.90918
423.9021, 83.27448
424.3842, 83.92339
424.8663, 84.84264
425.3484, 85.72564
425.8306, 86.49435
426.3127, 87.22466
426.7948, 87.96262
427.2769, 88.71421
427.7590, 89.54025
428.2411, 90.42091
428.7233, 91.41121
429.2054, 92.76572
429.6875, 94.54783
430.1696, 95.91704
430.6517, 96.15488
431.1339, 95.63325
431.6160, 95.55134
432.0981, 95.99110
432.5802, 96.74789
433.0623, 97.70554
433.5444, 98.90471
434.0266, 100.4670
434.5087, 102.4344
434.9908, 104.6872
435.4729, 107.1027
435.9550, 109.7245
436.4371, 112.3132
436.9193, 114.8248
437.4014, 117.3319
437.8835, 119.9491
438.3656, 122.6173
438.8477, 125.0762
439.3298, 127.1044
439.8120, 128.8445
440.2941, 131.0224
440.7762, 133.7829
441.2583, 136.8250
441.7404, 140.1749
442.2225, 143.7566
442.7046, 147.4526
443.1867, 151.2314
443.6689, 155.2081
444.1510, 159.4369
444.6331, 163.8271
445.1152, 168.9906
445.5973, 175.3591
446.0794, 182.0737
446.5616, 188.6245
447.0437, 195.2915
447.5258, 202.7210
448.0079, 211.2280
448.4900, 220.6487
448.9721, 230.5927
449.4543, 241.0467
449.9364, 252.0526
450.4185, 264.5092
450.9006, 276.9897
451.3827, 288.6271
451.8648, 299.2965
452.3470, 309.1800
452.8291, 318.5199
453.3112, 327.2198
453.7933, 334.5646
454.2754, 340.3652
454.7575, 345.0844
455.2397, 348.9653
455.7218, 351.9745
456.2039, 353.8474
456.6860, 354.3683
457.1681, 353.9447
457.6502, 352.9153
458.1324, 351.2411
458.6145, 348.7833
459.0966, 345.5876
459.5787, 341.3920
460.0608, 335.5502
460.5429, 328.0757
461.0251, 320.0389
461.5072, 311.7213
461.9893, 302.8816
462.4714, 293.1581
462.9535, 282.6290
463.4356, 271.7980
463.9178, 260.8698
464.3999, 249.9393
464.8820, 239.1822
465.3641, 228.4361
465.8462, 218.0508
466.3283, 207.9323
466.8105, 198.1723
467.2926, 188.9509
467.7747, 180.2426
468.2568, 171.8704
468.7389, 163.5662
469.2210, 155.1331
469.7032, 147.6567
470.1853, 141.6405
470.6674, 136.0791
471.1495, 130.8938
471.6316, 125.9405
472.1137, 121.0307
472.5959, 116.0472
473.0780, 111.2260
473.5601, 107.0661
474.0422, 103.7016
474.5243, 100.4429
475.0064, 96.99365
475.4886, 93.79959
475.9707, 91.29188
476.4528, 89.37751
476.9349, 87.42318
477.4170, 84.82848
477.8991, 81.98295
478.3813, 79.76796
478.8634, 78.25108
479.3455, 77.04206
479.8276, 76.16875
480.3097, 75.38003
480.7918, 74.19703
481.2740, 72.42799
481.7561, 70.76342
482.2382, 69.71141
482.7203, 68.96487
483.2024, 67.89359
483.6845, 66.35982
484.1666, 64.78402
484.6487, 63.53674
485.1309, 62.64168
485.6130, 61.88139
486.0951, 61.38621
486.5772, 60.87969
487.0593, 60.19822
487.5414, 59.42828
488.0236, 58.73040
488.5057, 58.16603
488.9878, 57.69560
489.4699, 57.25755
489.9520, 56.85796
490.4341, 56.46863
490.9163, 56.12840
491.3984, 55.76152
491.8805, 55.33598
492.3626, 54.85297
492.8447, 54.30657
493.3268, 53.67281
493.8090, 53.02241
494.2911, 52.55970
494.7732, 52.30341
495.2553, 52.18859
495.7374, 52.46981
496.2195, 52.70085
496.7017, 52.48370
497.1838, 51.82590
497.6659, 51.16758
498.1480, 50.85063
498.6301, 50.76839
499.1122, 50.63648
499.5944, 50.44025
500.0765, 50.21482
500.5586, 49.95440
501.0407, 49.68363
501.5228, 49.45345
502.0049, 49.27253
502.4871, 49.11656
502.9692, 49.01618
503.4513, 48.92070
503.9334, 48.70255
504.4155, 48.33234
504.8976, 47.97090
505.3798, 47.76964
505.8619, 47.73602
506.3440, 47.79997
506.8261, 48.12349
507.3082, 48.35531
507.7903, 48.33784
508.2725, 48.15413
508.7546, 47.86330
509.2367, 47.50119
509.7188, 47.25245
510.2009, 47.49034
510.6830, 48.50138
511.1652, 49.02844
511.6473, 48.46758
512.1294, 48.01891
512.6115, 48.22108
513.0936, 48.87917
513.5757, 49.55132
514.0579, 50.01220
514.5400, 50.38281
515.0221, 50.88888
515.5042, 51.54814
515.9863, 52.21793
516.4684, 52.82290
516.9506, 53.48082
517.4327, 54.31726
517.9148, 55.30756
518.3969, 56.26481
518.8790, 57.09729
519.3611, 57.86565
519.8433, 58.59751
520.3254, 59.30684
520.8075, 60.18065
521.2896, 61.38084
521.7717, 62.71706
522.2538, 63.65002
522.7360, 63.91577
523.2181, 64.59975
523.7002, 66.18652
524.1823, 68.05073
524.6644, 69.60672
525.1465, 70.85571
525.6287, 72.15745
526.1108, 73.75134
526.5929, 75.62292
527.0750, 77.75845
527.5571, 80.30215
528.0392, 82.90024
528.5214, 85.34032
529.0035, 87.95110
529.4856, 91.00583
529.9677, 94.52330
530.4498, 98.31973
530.9319, 102.2273
531.4141, 106.2636
531.8962, 110.6932
532.3783, 115.7878
532.8604, 120.6130
533.3425, 124.7458
533.8246, 128.3980
534.3068, 131.9421
534.7889, 135.5253
535.2710, 138.2497
535.7531, 139.5837
536.2352, 139.6443
536.7173, 138.5742
537.1995, 136.3588
537.6816, 133.4567
538.1637, 130.2550
538.6458, 126.6314
539.1279, 122.1217
539.6100, 115.9084
540.0922, 109.8823
540.5743, 104.4059
541.0564, 99.45859
541.5385, 95.12070
542.0206, 91.35873
542.5027, 87.80706
542.9849, 84.07636
543.4670, 80.15169
543.9491, 76.68983
544.4312, 73.81487
544.9133, 71.32334
545.3954, 69.42979
545.8775, 67.78034
546.3596, 65.94024
546.8417, 63.81245
547.3239, 61.76914
547.8060, 60.25631
548.2881, 59.23553
548.7702, 58.34924
549.2523, 57.63592
549.7344, 56.94199
550.2166, 56.16914
550.6987, 55.35767
551.1808, 54.55565
551.6629, 53.76393
552.1450, 53.00662
552.6271, 52.31185
553.1093, 51.65742
553.5914, 50.95673
554.0735, 50.18889
554.5556, 49.52507
555.0377, 49.13903
555.5198, 49.02643
556.0020, 48.90308
556.4841, 48.86878
556.9662, 48.70656
557.4483, 48.20489
557.9304, 47.61456
558.4125, 47.26241
558.8947, 47.21368
559.3768, 47.27014
559.8589, 47.20583
560.3410, 47.01696
560.8231, 46.91290
561.3052, 47.12057
561.7874, 47.06828
562.2695, 46.23335
562.7516, 45.23460
563.2337, 44.84935
563.7158, 45.29235
564.1979, 45.92129
564.6801, 46.25526
565.1622, 46.33429
565.6443, 46.24638
566.1264, 45.96493
566.6085, 45.69897
567.0906, 45.57306
567.5728, 45.58446
568.0549, 45.69529
568.5370, 46.09662
569.0191, 46.29835
569.5012, 45.87852
569.9833, 45.29340
570.4655, 45.20467
570.9476, 45.65709
571.4297, 46.07355
571.9118, 45.89469
572.3939, 45.19139
572.8760, 44.89201
573.3582, 45.35865
573.8403, 45.74922
574.3224, 45.94588
574.8045, 46.02480
575.2866, 46.03759
575.7687, 46.00157
576.2509, 45.93674
576.7330, 45.85085
577.2151, 45.74998
577.6972, 45.65240
578.1793, 45.55290
578.6614, 45.47567
579.1436, 45.38569
579.6257, 45.36005
580.1078, 45.56066
580.5899, 46.05788
581.0720, 46.37460
581.5541, 46.09405
582.0363, 45.68769
582.5184, 45.77053
583.0005, 46.29871
583.4826, 46.74849
583.9647, 46.80314
584.4468, 46.58318
584.9290, 46.43783
585.4111, 46.35463
585.8932, 46.37545
586.3753, 46.62641
586.8574, 46.86523
587.3395, 46.89853
