##NAMES=Maricite
##RRUFFID=R070273
##IDEAL CHEMISTRY=NaFe^2+^PO_4_
##LOCALITY=Locality 16, Big Fish River, Richardson Mountains, Dawson Mining District, Yukon Territory, Canada
##OWNER=RRUFF
##SOURCE=Mark Mauthner
##DESCRIPTION=Compact radiating aggregate of gray prismatic crystals (with bluish to brownish sections) in phosphate nodule.
##STATUS=The identification of this mineral is confirmed by single-crystal X-ray diffraction and chemical analysis.
##URL=rruff.info/R070273
##MEASURED CHEMISTRY=Na_1.00_(Fe^2+^_0.90_Mn_0.06_Mg_0.03_Ca_0.01_)_Î£=1_P_1.00_O_4_
160.0709, 2260.497
160.5530, 2275.973
161.0351, 2305.812
161.5172, 2354.243
161.9993, 2401.188
162.4814, 2423.781
162.9636, 2434.469
163.4457, 2457.424
163.9278, 2508.259
164.4099, 2574.321
164.8920, 2633.829
165.3741, 2686.971
165.8563, 2732.373
166.3384, 2763.849
166.8205, 2787.783
167.3026, 2814.676
167.7847, 2847.319
168.2668, 2886.175
168.7490, 2935.915
169.2311, 3005.530
169.7132, 3065.559
170.1953, 3092.832
170.6774, 3102.362
171.1595, 3117.237
171.6417, 3149.841
172.1238, 3193.771
172.6059, 3233.285
173.0880, 3267.392
173.5701, 3298.786
174.0522, 3325.027
174.5344, 3350.542
175.0165, 3381.562
175.4986, 3421.742
175.9807, 3469.144
176.4628, 3517.974
176.9449, 3563.844
177.4271, 3620.427
177.9092, 3688.788
178.3913, 3769.802
178.8734, 3864.503
179.3555, 3973.960
179.8376, 4098.296
180.3197, 4243.454
180.8019, 4430.910
181.2840, 4600.177
181.7661, 4753.401
182.2482, 4875.747
182.7303, 4949.427
183.2124, 4967.985
183.6946, 4929.391
184.1767, 4819.463
184.6588, 4596.626
185.1409, 4372.802
185.6230, 4170.223
186.1051, 3987.086
186.5873, 3819.769
187.0694, 3666.416
187.5515, 3528.877
188.0336, 3408.899
188.5157, 3308.400
188.9978, 3226.773
189.4800, 3167.170
189.9621, 3121.770
190.4442, 3082.216
190.9263, 3045.242
191.4084, 3012.479
191.8905, 2988.965
192.3727, 2981.547
192.8548, 2971.311
193.3369, 2953.678
193.8190, 2932.787
194.3011, 2911.167
194.7832, 2889.721
195.2654, 2870.906
195.7475, 2861.014
196.2296, 2866.096
196.7117, 2868.918
197.1938, 2868.131
197.6759, 2864.101
198.1581, 2854.545
198.6402, 2839.049
199.1223, 2824.152
199.6044, 2823.881
200.0865, 2850.620
200.5686, 2867.162
201.0508, 2864.653
201.5329, 2856.185
202.0150, 2850.234
202.4971, 2849.561
202.9792, 2853.630
203.4613, 2863.475
203.9435, 2886.899
204.4256, 2897.781
204.9077, 2886.204
205.3898, 2869.886
205.8719, 2859.216
206.3540, 2856.893
206.8362, 2860.840
207.3183, 2870.665
207.8004, 2893.852
208.2825, 2902.847
208.7646, 2883.428
209.2467, 2862.454
209.7289, 2855.545
210.2110, 2864.322
210.6931, 2880.369
211.1752, 2895.125
211.6573, 2909.541
212.1395, 2918.569
212.6216, 2919.914
213.1037, 2918.269
213.5858, 2914.315
214.0679, 2909.015
214.5500, 2904.117
215.0322, 2900.981
215.5143, 2899.313
215.9964, 2901.663
216.4785, 2906.931
216.9606, 2917.149
217.4427, 2936.724
217.9249, 2962.708
218.4070, 2987.926
218.8891, 3006.896
219.3712, 3019.605
219.8533, 3026.425
220.3354, 3024.602
220.8176, 3019.096
221.2997, 3010.956
221.7818, 3000.055
222.2639, 2984.600
222.7460, 2961.837
223.2281, 2933.381
223.7103, 2918.801
224.1924, 2938.294
224.6745, 2950.112
225.1566, 2939.166
225.6387, 2916.385
226.1208, 2899.752
226.6030, 2900.762
227.0851, 2913.152
227.5672, 2910.127
228.0493, 2878.520
228.5314, 2848.124
229.0135, 2819.694
229.4957, 2796.726
229.9778, 2784.485
230.4599, 2785.643
230.9420, 2794.767
231.4241, 2798.533
231.9062, 2794.396
232.3884, 2788.750
232.8705, 2780.271
233.3526, 2772.064
233.8347, 2766.199
234.3168, 2763.480
234.7989, 2764.281
235.2811, 2769.686
235.7632, 2781.547
236.2453, 2793.849
236.7274, 2808.365
237.2095, 2821.642
237.6916, 2832.293
238.1738, 2839.661
238.6559, 2842.728
239.1380, 2838.454
239.6201, 2823.347
240.1022, 2813.917
240.5843, 2811.214
241.0665, 2813.901
241.5486, 2823.607
242.0307, 2839.182
242.5128, 2856.306
242.9949, 2872.270
243.4770, 2887.533
243.9592, 2896.015
244.4413, 2887.805
244.9234, 2882.061
245.4055, 2887.244
245.8876, 2900.986
246.3697, 2915.851
246.8519, 2925.705
247.3340, 2931.701
247.8161, 2943.912
248.2982, 2966.977
248.7803, 2990.503
249.2624, 3011.407
249.7446, 3030.311
250.2267, 3047.975
250.7088, 3064.408
251.1909, 3080.480
251.6730, 3099.388
252.1551, 3123.873
252.6373, 3145.637
253.1194, 3159.458
253.6015, 3170.518
254.0836, 3187.074
254.5657, 3214.448
255.0478, 3239.310
255.5300, 3235.246
256.0121, 3192.079
256.4942, 3158.740
256.9763, 3162.278
257.4584, 3173.573
257.9406, 3172.322
258.4227, 3154.187
258.9048, 3126.848
259.3869, 3094.199
259.8690, 3055.615
260.3511, 3025.915
260.8333, 3016.889
261.3154, 3009.524
261.7975, 2987.920
262.2796, 2952.484
262.7617, 2918.010
263.2438, 2897.115
263.7260, 2887.110
264.2081, 2870.908
264.6902, 2839.492
265.1723, 2813.406
265.6544, 2813.789
266.1365, 2832.678
266.6187, 2843.488
267.1008, 2824.527
267.5829, 2790.664
268.0650, 2776.262
268.5471, 2788.152
269.0292, 2799.804
269.5114, 2784.673
269.9935, 2757.424
270.4756, 2743.896
270.9577, 2757.743
271.4398, 2782.278
271.9219, 2804.099
272.4041, 2823.543
272.8862, 2826.750
273.3683, 2793.628
273.8504, 2745.857
274.3325, 2726.317
274.8146, 2750.161
275.2968, 2778.300
275.7789, 2785.395
276.2610, 2774.945
276.7431, 2759.424
277.2252, 2739.015
277.7073, 2721.334
278.1895, 2721.795
278.6716, 2744.665
279.1537, 2761.833
279.6358, 2757.427
280.1179, 2742.015
280.6000, 2734.559
281.0822, 2739.942
281.5643, 2748.922
282.0464, 2750.217
282.5285, 2743.079
283.0106, 2737.796
283.4927, 2736.981
283.9749, 2737.565
284.4570, 2736.769
284.9391, 2734.401
285.4212, 2731.440
285.9033, 2727.566
286.3854, 2723.225
286.8676, 2726.587
287.3497, 2751.023
287.8318, 2769.560
288.3139, 2764.317
288.7960, 2742.061
289.2781, 2721.622
289.7603, 2713.562
290.2424, 2714.960
290.7245, 2713.842
291.2066, 2706.350
291.6887, 2701.266
292.1708, 2703.346
292.6530, 2707.327
293.1351, 2706.334
293.6172, 2697.995
294.0993, 2685.324
294.5814, 2673.408
295.0635, 2660.666
295.5457, 2652.113
296.0278, 2648.723
296.5099, 2648.491
296.9920, 2651.016
297.4741, 2655.682
297.9562, 2660.838
298.4384, 2664.736
298.9205, 2667.097
299.4026, 2670.189
299.8847, 2677.668
300.3668, 2682.231
300.8489, 2681.092
301.3310, 2675.011
301.8131, 2665.086
302.2953, 2650.936
302.7774, 2634.702
303.2595, 2628.092
303.7416, 2640.305
304.2237, 2648.791
304.7058, 2647.266
305.1880, 2640.782
305.6701, 2633.925
306.1522, 2628.288
306.6343, 2624.816
307.1164, 2625.523
307.5985, 2631.370
308.0807, 2637.816
308.5628, 2644.471
309.0449, 2651.233
309.5270, 2659.535
310.0091, 2668.931
310.4912, 2674.856
310.9734, 2671.480
311.4555, 2659.781
311.9376, 2649.814
312.4197, 2638.971
312.9018, 2635.350
313.3839, 2650.948
313.8661, 2677.542
314.3482, 2693.088
314.8303, 2681.140
315.3124, 2654.962
315.7945, 2635.286
316.2766, 2621.465
316.7588, 2618.339
317.2409, 2635.491
317.7230, 2663.186
318.2051, 2685.684
318.6872, 2701.265
319.1693, 2711.023
319.6515, 2713.922
320.1336, 2710.999
320.6157, 2706.025
321.0978, 2698.412
321.5799, 2692.269
322.0620, 2694.908
322.5442, 2706.777
323.0263, 2720.708
323.5084, 2739.474
323.9905, 2757.207
324.4726, 2763.637
324.9547, 2757.150
325.4369, 2750.140
325.9190, 2754.918
326.4011, 2772.940
326.8832, 2788.342
327.3653, 2803.949
327.8474, 2814.604
328.3296, 2814.145
328.8117, 2805.819
329.2938, 2798.813
329.7759, 2798.367
330.2580, 2803.574
330.7401, 2810.376
331.2223, 2822.764
331.7044, 2831.821
332.1865, 2841.942
332.6686, 2845.886
333.1507, 2830.020
333.6328, 2792.061
334.1150, 2751.015
334.5971, 2737.531
335.0792, 2767.966
335.5613, 2781.703
336.0434, 2767.371
336.5255, 2748.531
337.0077, 2736.977
337.4898, 2731.957
337.9719, 2725.840
338.4540, 2711.010
338.9361, 2689.474
339.4182, 2680.400
339.9004, 2694.951
340.3825, 2705.732
340.8646, 2703.897
341.3467, 2694.478
341.8288, 2683.187
342.3109, 2671.737
342.7931, 2661.040
343.2752, 2653.054
343.7573, 2648.300
344.2394, 2642.240
344.7215, 2630.092
345.2036, 2619.379
345.6858, 2617.756
346.1679, 2625.265
346.6500, 2631.719
347.1321, 2630.978
347.6142, 2624.300
348.0963, 2611.081
348.5785, 2585.739
349.0606, 2571.385
349.5427, 2603.001
350.0248, 2662.451
350.5069, 2694.192
350.9890, 2668.759
351.4712, 2627.852
351.9533, 2600.173
352.4354, 2585.406
352.9175, 2582.349
353.3996, 2593.535
353.8817, 2612.533
354.3639, 2622.099
354.8460, 2619.499
355.3281, 2615.705
355.8102, 2616.318
356.2923, 2615.564
356.7744, 2603.272
357.2566, 2578.156
357.7387, 2553.173
358.2208, 2543.201
358.7029, 2551.229
359.1850, 2558.488
359.6671, 2567.346
360.1493, 2573.254
360.6314, 2572.113
361.1135, 2566.493
361.5956, 2562.050
362.0777, 2562.231
362.5598, 2565.592
363.0420, 2567.178
363.5241, 2569.130
364.0062, 2565.301
364.4883, 2545.677
364.9704, 2526.397
365.4525, 2525.127
365.9347, 2543.864
366.4168, 2564.070
366.8989, 2561.070
367.3810, 2532.717
367.8631, 2517.301
368.3452, 2524.979
368.8274, 2535.815
369.3095, 2539.494
369.7916, 2538.225
370.2737, 2537.674
370.7558, 2540.661
371.2379, 2545.741
371.7201, 2551.698
372.2022, 2559.013
372.6843, 2562.301
373.1664, 2556.691
373.6485, 2547.160
374.1306, 2541.432
374.6128, 2540.476
375.0949, 2540.635
375.5770, 2539.597
376.0591, 2538.422
376.5412, 2540.664
377.0233, 2547.722
377.5055, 2552.724
377.9876, 2546.856
378.4697, 2528.620
378.9518, 2518.032
379.4339, 2522.180
379.9160, 2527.894
380.3982, 2528.311
380.8803, 2523.853
381.3624, 2515.665
381.8445, 2503.568
382.3266, 2490.985
382.8087, 2488.449
383.2909, 2512.466
383.7730, 2524.846
384.2551, 2513.273
384.7372, 2497.389
385.2193, 2494.815
385.7014, 2507.237
386.1836, 2522.546
386.6657, 2527.497
387.1478, 2521.332
387.6299, 2519.131
388.1120, 2525.033
388.5941, 2530.238
389.0763, 2529.964
389.5584, 2527.576
390.0405, 2528.763
390.5226, 2536.554
391.0047, 2547.189
391.4868, 2556.741
391.9690, 2565.901
392.4511, 2566.343
392.9332, 2548.688
393.4153, 2527.731
393.8974, 2518.119
394.3795, 2519.906
394.8617, 2522.861
395.3438, 2519.536
395.8259, 2515.009
396.3080, 2518.566
396.7901, 2531.295
397.2722, 2546.978
397.7544, 2562.710
398.2365, 2577.750
398.7186, 2589.402
399.2007, 2600.700
399.6828, 2605.296
400.1649, 2594.015
400.6471, 2575.945
401.1292, 2566.264
401.6113, 2569.958
402.0934, 2581.837
402.5755, 2594.841
403.0576, 2610.032
403.5398, 2622.788
404.0219, 2637.623
404.5040, 2646.395
404.9861, 2640.741
405.4682, 2625.416
405.9503, 2611.183
406.4325, 2604.215
406.9146, 2604.777
407.3967, 2615.595
407.8788, 2644.835
408.3609, 2667.420
408.8430, 2673.213
409.3252, 2674.634
409.8073, 2679.249
410.2894, 2688.839
410.7715, 2705.296
411.2536, 2734.080
411.7357, 2772.334
412.2179, 2805.908
412.7000, 2836.086
413.1821, 2855.944
413.6642, 2844.048
414.1463, 2819.367
414.6284, 2822.587
415.1106, 2878.364
415.5927, 2943.088
416.0748, 2986.295
416.5569, 3012.626
417.0390, 3034.664
417.5211, 3055.436
418.0033, 3077.634
418.4854, 3104.958
418.9675, 3137.403
419.4496, 3176.141
419.9317, 3224.786
420.4138, 3276.612
420.8960, 3329.230
421.3781, 3381.389
421.8602, 3429.273
422.3423, 3469.332
422.8244, 3506.375
423.3065, 3561.043
423.7887, 3641.462
424.2708, 3728.439
424.7529, 3824.828
425.2350, 3923.102
425.7171, 4016.372
426.1992, 4104.284
426.6814, 4190.937
427.1635, 4278.022
427.6456, 4366.713
428.1277, 4463.603
428.6098, 4572.002
429.0919, 4682.112
429.5741, 4785.952
430.0562, 4889.560
430.5383, 5002.071
431.0204, 5126.788
431.5025, 5258.408
431.9846, 5400.580
432.4668, 5547.395
432.9489, 5675.378
433.4310, 5775.715
433.9131, 5865.761
434.3952, 5970.685
434.8773, 6093.648
435.3595, 6185.199
435.8416, 6229.007
436.3237, 6252.497
436.8058, 6278.289
437.2879, 6297.958
437.7701, 6284.923
438.2522, 6224.046
438.7343, 6132.032
439.2164, 6051.547
439.6985, 5991.530
440.1806, 5927.693
440.6628, 5860.951
441.1449, 5789.042
441.6270, 5711.682
442.1091, 5628.092
442.5912, 5534.102
443.0733, 5420.138
443.5555, 5296.342
444.0376, 5205.083
444.5197, 5156.453
445.0018, 5112.066
445.4839, 5061.115
445.9660, 5004.752
446.4482, 4943.637
446.9303, 4878.136
447.4124, 4807.521
447.8945, 4732.776
448.3766, 4652.218
448.8587, 4562.359
449.3409, 4462.137
449.8230, 4354.878
450.3051, 4238.948
450.7872, 4116.451
451.2693, 4008.097
451.7514, 3913.993
452.2336, 3832.640
452.7157, 3775.235
453.1978, 3726.367
453.6799, 3659.525
454.1620, 3568.857
454.6441, 3480.394
455.1263, 3431.263
455.6084, 3431.742
456.0905, 3413.561
456.5726, 3351.908
457.0547, 3296.667
457.5368, 3262.848
458.0190, 3245.516
458.5011, 3235.723
458.9832, 3229.923
459.4653, 3229.318
459.9474, 3239.618
460.4295, 3261.087
460.9117, 3272.224
461.3938, 3265.432
461.8759, 3251.704
462.3580, 3238.138
462.8401, 3225.381
463.3222, 3217.645
463.8044, 3224.842
464.2865, 3230.614
464.7686, 3218.472
465.2507, 3191.611
465.7328, 3163.732
466.2149, 3141.039
466.6971, 3119.586
467.1792, 3092.309
467.6613, 3058.321
468.1434, 3019.208
468.6255, 2968.136
469.1076, 2917.890
469.5898, 2877.585
470.0719, 2845.468
470.5540, 2814.873
471.0361, 2781.193
471.5182, 2746.718
472.0003, 2718.975
472.4825, 2703.277
472.9646, 2680.261
473.4467, 2636.368
473.9288, 2590.673
474.4109, 2555.372
474.8930, 2530.807
475.3752, 2509.860
475.8573, 2486.709
476.3394, 2465.306
476.8215, 2453.778
477.3036, 2452.398
477.7857, 2452.789
478.2679, 2452.323
478.7500, 2449.735
479.2321, 2440.872
479.7142, 2422.366
480.1963, 2407.155
480.6784, 2400.074
481.1606, 2395.741
481.6427, 2390.836
482.1248, 2384.148
482.6069, 2373.279
483.0890, 2355.514
483.5711, 2332.996
484.0533, 2317.724
484.5354, 2316.081
485.0175, 2311.233
485.4996, 2296.484
485.9817, 2280.976
486.4638, 2272.391
486.9460, 2271.244
487.4281, 2272.432
487.9102, 2273.349
488.3923, 2273.473
488.8744, 2270.294
489.3565, 2262.961
489.8387, 2257.193
490.3208, 2255.948
490.8029, 2258.210
491.2850, 2261.493
491.7671, 2266.014
492.2492, 2270.910
492.7314, 2281.553
493.2135, 2289.218
493.6956, 2278.465
494.1777, 2251.104
494.6598, 2229.074
495.1419, 2230.613
495.6241, 2250.829
496.1062, 2257.623
496.5883, 2235.952
497.0704, 2221.697
497.5525, 2224.983
498.0346, 2232.144
498.5168, 2230.323
498.9989, 2219.182
499.4810, 2209.473
499.9631, 2212.391
500.4452, 2223.740
500.9273, 2226.680
501.4095, 2219.175
501.8916, 2211.989
502.3737, 2211.704
502.8558, 2213.196
503.3379, 2207.231
503.8200, 2190.921
504.3022, 2178.878
504.7843, 2176.900
505.2664, 2181.902
505.7485, 2195.927
506.2306, 2216.079
506.7127, 2224.848
507.1949, 2207.869
507.6770, 2174.010
508.1591, 2162.716
508.6412, 2199.856
509.1233, 2221.945
509.6054, 2215.015
510.0876, 2200.779
510.5697, 2194.913
511.0518, 2197.697
511.5339, 2199.973
512.0161, 2193.665
512.4982, 2183.094
512.9803, 2181.804
513.4624, 2191.938
513.9445, 2197.819
514.4266, 2189.222
514.9088, 2177.948
515.3909, 2182.910
515.8730, 2206.262
516.3551, 2218.107
516.8372, 2199.199
517.3193, 2172.428
517.8015, 2155.460
518.2836, 2149.664
518.7657, 2155.628
519.2478, 2175.122
519.7299, 2200.003
520.2120, 2210.537
520.6942, 2199.261
521.1763, 2187.439
521.6584, 2168.492
522.1405, 2155.155
522.6226, 2161.386
523.1047, 2178.857
523.5869, 2185.144
524.0690, 2164.985
524.5511, 2135.677
525.0332, 2127.189
525.5153, 2139.378
525.9974, 2149.042
526.4796, 2150.707
526.9617, 2148.187
527.4438, 2142.774
527.9259, 2135.177
528.4080, 2133.937
528.8901, 2148.322
529.3723, 2161.411
529.8544, 2162.198
530.3365, 2154.663
530.8186, 2146.260
531.3007, 2139.602
531.7828, 2134.194
532.2650, 2129.251
532.7471, 2124.549
533.2292, 2121.505
533.7113, 2116.764
534.1934, 2117.933
534.6755, 2135.061
535.1577, 2156.374
535.6398, 2162.858
536.1219, 2147.351
536.6040, 2133.539
537.0861, 2153.051
537.5682, 2192.336
538.0504, 2202.704
538.5325, 2175.005
539.0146, 2145.069
539.4967, 2138.120
539.9788, 2149.963
540.4609, 2159.078
540.9431, 2165.786
541.4252, 2169.812
541.9073, 2166.743
542.3894, 2163.771
542.8715, 2167.826
543.3536, 2179.406
543.8358, 2195.171
544.3179, 2213.105
544.8000, 2232.460
545.2821, 2249.081
545.7642, 2260.131
546.2463, 2276.339
546.7285, 2311.167
547.2106, 2343.866
547.6926, 2352.217
548.1747, 2338.577
548.6569, 2335.854
549.1390, 2361.751
549.6211, 2403.296
550.1032, 2451.642
550.5853, 2504.263
551.0674, 2550.287
551.5496, 2585.056
552.0317, 2615.316
552.5138, 2652.068
552.9959, 2697.141
553.4780, 2743.199
553.9601, 2806.511
554.4423, 2853.644
554.9244, 2858.102
555.4065, 2841.607
555.8886, 2837.698
556.3707, 2858.758
556.8528, 2892.510
557.3350, 2926.343
557.8171, 2960.299
558.2992, 2992.985
558.7813, 3021.311
559.2634, 3057.451
559.7455, 3106.520
560.2277, 3171.073
560.7098, 3253.996
561.1919, 3359.299
561.6740, 3476.278
562.1561, 3606.623
562.6382, 3743.876
563.1204, 3878.840
563.6025, 4012.956
564.0846, 4158.354
564.5667, 4325.828
565.0488, 4511.667
565.5309, 4707.155
566.0131, 4924.463
566.4952, 5120.483
566.9773, 5308.445
567.4594, 5454.864
567.9415, 5543.414
568.4236, 5571.652
568.9058, 5535.183
569.3879, 5419.651
569.8700, 5249.481
570.3521, 5035.191
570.8342, 4784.995
571.3163, 4519.847
571.7985, 4243.854
572.2806, 3976.823
572.7627, 3744.165
573.2448, 3547.194
573.7269, 3365.689
574.2090, 3197.922
574.6912, 3044.410
575.1733, 2899.245
575.6554, 2771.714
576.1375, 2675.195
576.6196, 2611.024
577.1017, 2561.660
577.5839, 2514.120
578.0660, 2468.515
578.5481, 2425.110
579.0302, 2383.932
579.5123, 2344.534
579.9944, 2303.675
580.4766, 2267.344
580.9587, 2251.687
581.4408, 2263.811
581.9229, 2263.074
582.4050, 2234.847
582.8871, 2200.404
583.3693, 2168.407
583.8514, 2142.239
584.3335, 2126.365
584.8156, 2123.063
585.2977, 2127.250
585.7798, 2133.039
586.2620, 2141.156
586.7441, 2141.024
587.2262, 2126.154
587.7083, 2112.855
588.1904, 2116.124
588.6725, 2125.547
589.1547, 2121.507
589.6368, 2092.855
590.1189, 2073.415
590.6010, 2089.637
591.0831, 2118.704
591.5652, 2131.042
592.0474, 2125.529
592.5295, 2116.064
593.0116, 2110.855
593.4937, 2111.066
593.9758, 2121.646
594.4579, 2149.412
594.9401, 2171.193
595.4222, 2181.266
595.9043, 2188.187
596.3864, 2193.711
596.8685, 2199.441
597.3506, 2208.509
597.8328, 2222.049
598.3149, 2239.251
598.7970, 2261.196
599.2791, 2286.144
599.7612, 2309.678
600.2433, 2331.036
600.7255, 2351.284
601.2076, 2370.700
601.6897, 2389.883
602.1718, 2413.613
602.6539, 2436.522
603.1360, 2472.151
603.6182, 2534.123
604.1003, 2598.990
604.5824, 2649.481
605.0645, 2686.092
605.5466, 2719.322
606.0287, 2757.823
606.5109, 2793.003
606.9930, 2813.929
607.4751, 2820.529
607.9572, 2808.718
608.4393, 2773.410
608.9214, 2735.507
609.4036, 2718.527
609.8857, 2722.531
610.3678, 2709.517
610.8499, 2667.820
611.3320, 2625.738
611.8141, 2581.501
612.2963, 2545.095
612.7784, 2529.563
613.2605, 2533.958
613.7426, 2544.791
614.2247, 2554.716
614.7068, 2561.526
615.1890, 2557.036
615.6711, 2540.534
616.1532, 2528.374
616.6353, 2524.418
617.1174, 2528.073
617.5995, 2541.180
618.0817, 2564.013
618.5638, 2582.825
619.0459, 2595.662
619.5280, 2606.034
620.0101, 2625.272
620.4922, 2637.805
620.9744, 2619.081
621.4565, 2567.971
621.9386, 2510.696
622.4207, 2472.021
622.9028, 2445.483
623.3849, 2403.590
623.8671, 2342.331
624.3492, 2289.740
624.8313, 2258.325
625.3134, 2234.463
625.7955, 2201.998
626.2776, 2161.470
626.7598, 2123.487
627.2419, 2088.433
627.7240, 2057.545
628.2061, 2029.393
628.6882, 2006.932
629.1703, 1997.266
629.6525, 2000.512
630.1346, 2006.400
630.6167, 2006.156
631.0988, 1999.700
631.5809, 1984.013
632.0630, 1954.426
632.5452, 1934.435
633.0273, 1938.917
633.5094, 1948.437
633.9915, 1937.723
634.4736, 1908.211
634.9557, 1889.011
635.4379, 1891.290
635.9200, 1899.735
636.4021, 1911.453
636.8842, 1921.622
637.3663, 1922.143
637.8484, 1911.785
638.3306, 1897.453
638.8127, 1885.617
639.2948, 1875.878
639.7769, 1865.720
640.2590, 1854.248
640.7411, 1845.367
641.2233, 1839.794
641.7054, 1837.824
642.1875, 1843.263
642.6696, 1854.922
643.1517, 1856.660
643.6339, 1830.099
644.1160, 1808.886
644.5981, 1820.647
645.0802, 1846.083
645.5623, 1852.365
646.0444, 1834.572
646.5266, 1817.212
647.0087, 1825.763
647.4908, 1852.203
647.9729, 1855.212
648.4550, 1826.757
648.9371, 1807.613
649.4193, 1814.639
649.9014, 1827.492
650.3835, 1824.273
650.8656, 1807.823
651.3477, 1798.443
651.8298, 1808.063
652.3120, 1815.718
