##NAMES=Marialite
##RRUFFID=R060297
##IDEAL CHEMISTRY=Na_4_Al_3_Si_9_O_24_Cl
##LOCALITY=Morogoro District, Marasi, Tanzania
##OWNER=RRUFF
##SOURCE=Herb Obodda
##DESCRIPTION=Pale yellow crystal fragment
##STATUS=The identification of this mineral has been confirmed by X-ray diffraction and chemical analysis
##URL=rruff.info/R060297
##MEASURED CHEMISTRY=(Na_0.66_Ca_0.29_K_0.06_)_4_(Si_0.68_Al_0.32_)_12_O_24_(Cl_0.70_(CO_3_)_0.30_)
91.62726, 0.0000000E+00
92.10938, 14.06218
92.59149, 14.02086
93.07361, 14.04749
93.55573, 14.13535
94.03784, 14.19885
94.51996, 14.17358
95.00208, 14.06565
95.48419, 13.88810
95.96631, 13.55212
96.44843, 13.16574
96.93054, 13.04229
97.41266, 13.19606
97.89478, 13.54134
98.37689, 14.10611
98.85901, 14.88610
99.34113, 15.46509
99.82324, 15.59982
100.3054, 15.28948
100.7875, 15.05802
101.2696, 14.88745
101.7517, 14.81954
102.2338, 14.94850
102.7159, 15.31350
103.1981, 15.76335
103.6802, 16.24374
104.1623, 16.78403
104.6444, 17.25132
105.1265, 17.53691
105.6086, 17.75258
106.0908, 18.37868
106.5729, 19.71438
107.0550, 21.10464
107.5371, 22.14979
108.0192, 22.46043
108.5013, 23.01526
108.9835, 23.80210
109.4656, 24.82871
109.9477, 26.40635
110.4298, 28.86157
110.9119, 31.69310
111.3940, 34.61787
111.8762, 37.47271
112.3583, 40.54304
112.8404, 43.80354
113.3225, 47.20636
113.8046, 51.18257
114.2867, 56.41157
114.7689, 62.09398
115.2510, 67.31273
115.7331, 71.49921
116.2152, 75.54789
116.6973, 79.75320
117.1794, 84.17709
117.6616, 88.62066
118.1437, 92.94951
118.6258, 97.29260
119.1079, 101.7138
119.5900, 105.6849
120.0721, 110.1367
120.5543, 115.8151
121.0364, 123.1749
121.5185, 130.8961
122.0006, 138.1193
122.4827, 145.0696
122.9648, 152.5083
123.4470, 160.7307
123.9291, 169.6521
124.4112, 179.1708
124.8933, 189.3497
125.3754, 199.9907
125.8575, 211.0110
126.3397, 222.3760
126.8218, 233.9226
127.3039, 245.5725
127.7860, 257.2373
128.2681, 268.6615
128.7502, 279.9149
129.2324, 290.8304
129.7145, 301.1437
130.1966, 310.9063
130.6787, 319.6527
131.1608, 327.1991
131.6429, 333.4036
132.1251, 337.8538
132.6072, 339.6783
133.0893, 339.6471
133.5714, 340.6479
134.0535, 342.8922
134.5356, 345.1965
135.0178, 345.8775
135.4999, 344.8922
135.9820, 343.9660
136.4641, 343.4376
136.9462, 343.3369
137.4283, 344.5767
137.9105, 347.1656
138.3926, 351.0952
138.8747, 356.6005
139.3568, 364.0756
139.8389, 371.7250
140.3210, 378.5216
140.8032, 384.1055
141.2853, 391.0039
141.7674, 399.4272
142.2495, 409.0257
142.7316, 418.5568
143.2137, 426.8166
143.6959, 432.4504
144.1780, 437.0216
144.6601, 439.5605
145.1422, 443.8411
145.6243, 451.0788
146.1064, 460.1157
146.5886, 466.7003
147.0707, 469.4736
147.5528, 471.4067
148.0349, 474.0222
148.5170, 477.7685
148.9991, 481.4789
149.4813, 484.9611
149.9634, 488.2875
150.4455, 491.8666
150.9276, 495.6549
151.4097, 499.7213
151.8918, 503.9982
152.3740, 508.7849
152.8561, 513.5167
153.3382, 517.9843
153.8203, 522.1771
154.3024, 526.8157
154.7845, 532.9687
155.2667, 538.9932
155.7488, 543.7470
156.2309, 545.4475
156.7130, 547.3975
157.1951, 550.5071
157.6772, 554.8434
158.1594, 558.9307
158.6415, 562.1176
159.1236, 565.0231
159.6057, 568.2657
160.0878, 573.4325
160.5699, 577.6376
161.0521, 579.6735
161.5342, 579.2724
162.0163, 578.3740
162.4984, 578.1275
162.9805, 577.6660
163.4626, 575.8920
163.9448, 572.5613
164.4269, 567.7440
164.9090, 560.9897
165.3911, 551.9002
165.8732, 542.9941
166.3553, 535.9392
166.8375, 529.8529
167.3196, 523.2768
167.8017, 515.4343
168.2838, 506.9576
168.7659, 498.1076
169.2480, 488.8152
169.7302, 479.5504
170.2123, 470.3035
170.6944, 461.2467
171.1765, 452.9359
171.6586, 445.9404
172.1407, 439.6007
172.6229, 433.0456
173.1050, 425.9165
173.5871, 419.2049
174.0692, 414.1321
174.5513, 410.2919
175.0334, 406.5631
175.5156, 401.9979
175.9977, 397.1880
176.4798, 393.0244
176.9619, 389.5083
177.4440, 386.8089
177.9261, 385.5816
178.4083, 385.5415
178.8904, 385.4808
179.3725, 384.5234
179.8546, 383.0022
180.3367, 381.5215
180.8188, 380.1227
181.3010, 378.9307
181.7831, 378.2547
182.2652, 378.0426
182.7473, 377.8350
183.2294, 376.8557
183.7115, 375.5728
184.1937, 375.4033
184.6758, 376.9017
185.1579, 379.2922
185.6400, 381.5431
186.1221, 383.6258
186.6042, 385.2905
187.0864, 386.2676
187.5685, 386.6310
188.0506, 386.6377
188.5327, 386.2969
189.0148, 385.6826
189.4969, 384.8093
189.9791, 383.6661
190.4612, 382.6541
190.9433, 382.3599
191.4254, 382.6597
191.9075, 382.4306
192.3896, 381.3630
192.8718, 379.6369
193.3539, 377.5038
193.8360, 374.8564
194.3181, 372.4855
194.8002, 371.3154
195.2823, 371.3014
195.7645, 371.0966
196.2466, 370.3840
196.7287, 369.2396
197.2108, 367.9013
197.6929, 366.3130
198.1750, 364.7491
198.6572, 363.4117
199.1393, 362.2948
199.6214, 361.5128
200.1035, 361.2797
200.5856, 361.4228
201.0677, 360.8310
201.5499, 359.3198
202.0320, 357.6702
202.5141, 356.7626
202.9962, 356.7216
203.4783, 356.4371
203.9604, 355.5184
204.4426, 354.0943
204.9247, 353.2621
205.4068, 353.1556
205.8889, 353.3486
206.3710, 353.4309
206.8531, 353.3737
207.3353, 353.4312
207.8174, 353.9052
208.2995, 354.6911
208.7816, 354.1406
209.2637, 351.8265
209.7458, 349.0234
210.2280, 347.1270
210.7101, 346.4422
211.1922, 345.4834
211.6743, 343.6523
212.1564, 341.0227
212.6385, 339.6127
213.1207, 339.8695
213.6028, 340.6373
214.0849, 340.6039
214.5670, 339.3442
215.0491, 338.5907
215.5313, 338.8092
216.0134, 339.9966
216.4955, 341.2304
216.9776, 342.6230
217.4597, 343.9243
217.9418, 344.8770
218.4240, 345.3797
218.9061, 345.7807
219.3882, 346.2014
219.8703, 346.6405
220.3524, 346.6968
220.8345, 346.2376
221.3167, 345.5565
221.7988, 344.9784
222.2809, 344.6875
222.7630, 344.0721
223.2451, 342.9398
223.7272, 341.2738
224.2094, 339.6899
224.6915, 338.1382
225.1736, 336.7009
225.6557, 335.5890
226.1378, 335.1818
226.6199, 334.2168
227.1021, 332.1861
227.5842, 329.0642
228.0663, 326.9180
228.5484, 326.3383
229.0305, 326.0634
229.5126, 324.8329
229.9948, 322.0369
230.4769, 319.5381
230.9590, 317.7256
231.4411, 316.6049
231.9232, 315.3367
232.4053, 313.9687
232.8875, 312.3826
233.3696, 310.3658
233.8517, 307.3852
234.3338, 305.0593
234.8159, 303.9446
235.2980, 303.9958
235.7802, 303.1856
236.2623, 300.9268
236.7444, 298.4504
237.2265, 296.8544
237.7086, 296.8188
238.1907, 296.3137
238.6729, 294.7671
239.1550, 292.2818
239.6371, 290.6900
240.1192, 290.4744
240.6013, 290.6057
241.0834, 290.2407
241.5656, 288.9811
242.0477, 288.0056
242.5298, 287.4127
243.0119, 287.2057
243.4940, 287.5014
243.9761, 288.6229
244.4583, 289.8590
244.9404, 290.6694
245.4225, 290.7480
245.9046, 291.0032
246.3867, 291.4570
246.8688, 292.1422
247.3510, 293.3333
247.8331, 295.2993
248.3152, 297.4277
248.7973, 299.3214
249.2794, 300.8563
249.7615, 302.4291
250.2437, 304.0135
250.7258, 305.6569
251.2079, 307.5393
251.6900, 309.6326
252.1721, 312.0074
252.6542, 314.7291
253.1364, 317.8315
253.6185, 321.1323
254.1006, 324.5001
254.5827, 328.0514
255.0648, 332.2581
255.5469, 337.4598
256.0291, 342.6991
256.5112, 347.3607
256.9933, 350.9402
257.4754, 355.2939
257.9575, 360.5712
258.4396, 366.6528
258.9218, 373.1844
259.4039, 380.7529
259.8860, 387.8083
260.3681, 393.6318
260.8502, 397.9101
261.3323, 401.9106
261.8145, 405.6165
262.2966, 409.0514
262.7787, 412.5606
263.2608, 416.8614
263.7429, 419.6857
264.2250, 419.9459
264.7072, 417.1557
265.1893, 413.6846
265.6714, 409.5493
266.1535, 404.7206
266.6356, 399.1239
267.1177, 392.5838
267.5999, 385.5690
268.0820, 378.1649
268.5641, 370.2289
269.0462, 362.5177
269.5283, 354.9261
270.0104, 347.5902
270.4926, 340.5675
270.9747, 333.8199
271.4568, 327.3091
271.9389, 320.9193
272.4210, 314.5801
272.9031, 309.1479
273.3853, 304.6652
273.8674, 301.0120
274.3495, 298.4733
274.8316, 297.3515
275.3137, 295.6479
275.7958, 292.4684
276.2780, 287.9968
276.7601, 284.6757
277.2422, 282.6844
277.7243, 281.3666
278.2064, 280.2079
278.6885, 279.2578
279.1707, 277.9318
279.6528, 275.7567
280.1349, 273.0945
280.6170, 272.1322
281.0991, 273.2284
281.5812, 274.5912
282.0634, 274.5211
282.5455, 272.9852
283.0276, 271.5250
283.5097, 270.3340
283.9918, 269.4716
284.4739, 269.1785
284.9561, 269.4910
285.4382, 270.1073
285.9203, 270.8999
286.4024, 271.8460
286.8845, 272.7050
287.3666, 273.4245
287.8488, 274.0400
288.3309, 274.5327
288.8130, 274.8925
289.2951, 275.4215
289.7772, 276.2540
290.2593, 277.3964
290.7415, 279.0227
291.2236, 281.2329
291.7057, 283.6896
292.1878, 285.8340
292.6699, 287.6914
293.1520, 289.5606
293.6342, 291.4056
294.1163, 293.3745
294.5984, 295.8502
295.0805, 298.8631
295.5626, 302.4464
296.0447, 307.0831
296.5269, 312.5368
297.0090, 317.6739
297.4911, 322.5641
297.9732, 326.6529
298.4553, 328.5414
298.9374, 328.1649
299.4196, 326.1233
299.9017, 322.3330
300.3838, 317.2740
300.8659, 312.2755
301.3480, 307.8901
301.8301, 303.8859
302.3123, 299.8497
302.7944, 295.7617
303.2765, 292.0654
303.7586, 289.1239
304.2407, 286.7982
304.7228, 284.7774
305.2050, 283.0298
305.6871, 281.5091
306.1692, 280.3316
306.6513, 279.4290
307.1334, 278.4950
307.6155, 277.0140
308.0977, 275.4759
308.5798, 274.5545
309.0619, 274.6349
309.5440, 274.9381
310.0261, 274.8372
310.5082, 274.4385
310.9904, 274.0680
311.4725, 273.9120
311.9546, 273.8524
312.4367, 273.7799
312.9188, 273.6632
313.4009, 273.5727
313.8831, 273.5260
314.3652, 273.5377
314.8473, 273.6337
315.3294, 273.9417
315.8115, 274.2561
316.2936, 274.3795
316.7758, 274.2393
317.2579, 274.2986
317.7400, 274.8185
318.2221, 275.6405
318.7042, 276.5692
319.1863, 277.9594
319.6685, 279.0741
320.1506, 279.5088
320.6327, 279.2404
321.1148, 278.9423
321.5969, 278.5846
322.0790, 278.3953
322.5612, 278.5570
323.0433, 279.2280
323.5254, 280.1274
324.0075, 281.3705
324.4896, 282.8861
324.9717, 284.1110
325.4539, 284.9424
325.9360, 285.4803
326.4181, 285.7645
326.9002, 285.3355
327.3823, 285.2479
327.8644, 285.8737
328.3466, 286.9315
328.8287, 287.5555
329.3108, 286.8855
329.7929, 286.5284
330.2750, 287.1923
330.7571, 289.7979
331.2393, 291.3224
331.7214, 291.0912
332.2035, 290.0253
332.6856, 289.5688
333.1677, 289.6369
333.6498, 290.4573
334.1320, 292.5758
334.6141, 296.3636
335.0962, 298.0712
335.5783, 296.5869
336.0604, 294.1775
336.5425, 293.3099
337.0247, 294.7379
337.5068, 295.8026
337.9889, 295.9126
338.4710, 295.1886
338.9531, 294.6139
339.4352, 294.1092
339.9174, 293.9263
340.3995, 294.5215
340.8816, 296.1561
341.3637, 296.8371
341.8458, 296.0001
342.3279, 294.3393
342.8101, 293.6055
343.2922, 293.8597
343.7743, 294.6702
344.2564, 296.1444
344.7385, 298.2213
345.2206, 299.2985
345.7028, 299.0841
346.1849, 298.4047
346.6670, 298.3983
347.1491, 299.0537
347.6312, 300.2163
348.1133, 302.1911
348.5955, 304.6406
349.0776, 306.2722
349.5597, 307.0178
350.0418, 307.7974
350.5239, 309.8075
351.0060, 312.6764
351.4882, 315.1182
351.9703, 316.3475
352.4524, 317.2544
352.9345, 319.3844
353.4166, 322.6024
353.8987, 325.6964
354.3809, 327.1217
354.8630, 328.0044
355.3451, 330.1310
355.8272, 334.3094
356.3093, 338.9109
356.7914, 342.4154
357.2736, 345.1738
357.7557, 348.0575
358.2378, 352.0024
358.7199, 355.9678
359.2020, 359.0866
359.6841, 361.2253
360.1663, 362.7056
360.6484, 363.8078
361.1305, 364.3408
361.6126, 364.0375
362.0947, 362.5146
362.5768, 360.3838
363.0590, 357.7799
363.5411, 354.7227
364.0232, 351.5854
364.5053, 348.6947
364.9874, 345.6689
365.4695, 342.2117
365.9517, 337.3555
366.4338, 333.0658
366.9159, 329.5990
367.3980, 326.9444
367.8801, 325.0461
368.3622, 324.2667
368.8444, 323.9658
369.3265, 323.9420
369.8086, 324.6639
370.2907, 324.7580
370.7728, 323.3873
371.2549, 321.6426
371.7371, 321.3812
372.2192, 323.7912
372.7013, 326.0485
373.1834, 327.3109
373.6655, 327.4551
374.1476, 327.9127
374.6298, 328.7352
375.1119, 329.7971
375.5940, 331.1644
376.0761, 333.2133
376.5582, 334.2798
377.0403, 333.7995
377.5225, 332.1685
378.0046, 331.0085
378.4867, 330.3116
378.9688, 330.1890
379.4509, 331.0338
379.9330, 332.8672
380.4152, 333.9789
380.8973, 334.0781
381.3794, 333.7101
381.8615, 333.9593
382.3436, 334.7982
382.8257, 335.1738
383.3079, 334.1674
383.7900, 332.2953
384.2721, 331.4114
384.7542, 331.5883
385.2363, 332.0060
385.7184, 331.9316
386.2006, 331.4598
386.6827, 330.8296
387.1648, 330.0235
387.6469, 329.2031
388.1290, 328.7856
388.6111, 328.6484
389.0933, 328.0823
389.5754, 326.1252
390.0575, 323.6899
390.5396, 321.8131
391.0217, 320.6961
391.5038, 320.0412
391.9860, 319.9122
392.4681, 320.0715
392.9502, 320.0826
393.4323, 319.8836
393.9144, 319.3732
394.3965, 318.2502
394.8787, 316.4499
395.3608, 315.1341
395.8429, 315.0192
396.3250, 315.4183
396.8071, 315.7152
397.2892, 315.5211
397.7714, 315.4866
398.2535, 316.0131
398.7356, 316.9156
399.2177, 317.2753
399.6998, 316.0641
400.1819, 315.0612
400.6641, 315.1522
401.1462, 317.3935
401.6283, 318.5140
402.1104, 317.6138
402.5925, 316.0055
403.0746, 315.7659
403.5568, 317.7338
404.0389, 319.5447
404.5210, 320.5277
405.0031, 320.6800
405.4852, 321.0366
405.9673, 321.6101
406.4495, 322.3686
406.9316, 323.3091
407.4137, 324.4535
407.8958, 325.6455
408.3779, 326.8554
408.8600, 328.1137
409.3422, 329.5024
409.8243, 331.0202
410.3064, 332.6262
410.7885, 334.1544
411.2706, 335.7276
411.7527, 338.0937
412.2349, 341.4278
412.7170, 344.7597
413.1991, 346.6082
413.6812, 347.4279
414.1633, 348.6852
414.6454, 351.2305
415.1276, 354.2460
415.6097, 356.4998
416.0918, 358.0931
416.5739, 359.9278
417.0560, 363.2697
417.5381, 366.9267
418.0203, 369.4326
418.5024, 370.2165
418.9845, 370.5457
419.4666, 371.0255
419.9487, 371.6235
420.4308, 372.2654
420.9130, 373.6031
421.3951, 374.4164
421.8772, 373.8076
422.3593, 371.6180
422.8414, 369.7603
423.3235, 369.2816
423.8057, 369.0697
424.2878, 368.2402
424.7699, 365.9454
425.2520, 363.8709
425.7341, 362.0512
426.2162, 360.5872
426.6984, 359.7967
427.1805, 360.1307
427.6626, 360.6267
428.1447, 360.8803
428.6268, 360.7140
429.1089, 361.0035
429.5911, 362.0509
430.0732, 363.2370
430.5553, 363.6443
431.0374, 362.9368
431.5195, 362.7944
432.0016, 363.7403
432.4838, 365.5336
432.9659, 367.0115
433.4480, 368.1067
433.9301, 369.2949
434.4122, 370.7729
434.8943, 372.5838
435.3765, 375.1360
435.8586, 378.5809
436.3407, 382.4244
436.8228, 385.8958
437.3049, 389.1517
437.7870, 392.7593
438.2692, 397.5245
438.7513, 402.5836
439.2334, 406.3725
439.7155, 408.9879
440.1976, 412.0173
440.6797, 417.0571
441.1619, 423.0031
441.6440, 428.4878
442.1261, 432.7822
442.6082, 437.1819
443.0903, 442.2520
443.5724, 447.9679
444.0546, 454.2773
444.5367, 461.0721
445.0188, 468.5183
445.5009, 476.5623
445.9830, 485.0105
446.4651, 495.0288
446.9473, 506.5923
447.4294, 519.9795
447.9115, 535.2731
448.3936, 553.6345
448.8757, 572.5957
449.3578, 591.6715
449.8400, 611.0392
450.3221, 632.6942
450.8042, 657.5894
451.2863, 683.3443
451.7684, 709.5967
452.2505, 736.7105
452.7327, 762.3986
453.2148, 786.8746
453.6969, 809.2673
454.1790, 827.7602
454.6611, 842.4816
455.1432, 854.6174
455.6254, 863.9103
456.1075, 871.1060
456.5896, 878.1097
457.0717, 884.9410
457.5538, 890.1639
458.0359, 892.3815
458.5181, 892.3425
459.0002, 892.0995
459.4823, 892.0187
459.9644, 890.3327
460.4465, 885.7633
460.9286, 878.2875
461.4108, 867.9236
461.8929, 853.6984
462.3750, 837.4549
462.8571, 820.2018
463.3392, 801.9159
463.8214, 783.2666
464.3035, 763.9524
464.7856, 744.5671
465.2677, 725.5451
465.7498, 707.2245
466.2319, 688.5016
466.7141, 668.1100
467.1962, 647.5610
467.6783, 628.5233
468.1604, 611.8961
468.6425, 596.2288
469.1246, 581.3715
469.6068, 567.2989
470.0889, 553.7844
470.5710, 540.8923
471.0531, 528.4597
471.5352, 516.2875
472.0173, 503.9049
472.4995, 493.2472
472.9816, 484.7973
473.4637, 477.4037
473.9458, 469.1911
474.4279, 460.0152
474.9100, 451.7877
475.3922, 445.3060
475.8743, 440.1297
476.3564, 434.9681
476.8385, 429.8244
477.3206, 424.9095
477.8027, 420.3136
478.2849, 416.1068
478.7670, 412.6133
479.2491, 410.0020
479.7312, 407.5233
480.2133, 404.4182
480.6954, 400.9337
481.1776, 397.5197
481.6597, 394.1804
482.1418, 391.1654
482.6239, 388.7606
483.1060, 386.8846
483.5881, 385.0624
484.0703, 382.8971
484.5524, 380.8515
485.0345, 379.2602
485.5166, 378.4828
485.9987, 377.4978
486.4808, 376.0222
486.9630, 374.3287
487.4451, 372.7928
487.9272, 371.4892
488.4093, 370.2426
488.8914, 368.9289
489.3735, 367.5974
489.8557, 366.8291
490.3378, 366.8801
490.8199, 366.9047
491.3020, 366.2892
491.7841, 364.9532
492.2662, 364.0732
492.7484, 363.7822
493.2305, 363.7132
493.7126, 363.3130
494.1947, 362.6383
494.6768, 362.1564
495.1589, 362.0025
495.6411, 362.1380
496.1232, 362.7128
496.6053, 363.6349
497.0874, 364.2699
497.5695, 363.9065
498.0516, 363.1870
498.5338, 362.8829
499.0159, 363.1407
499.4980, 363.4498
499.9801, 363.8328
500.4622, 363.9731
500.9443, 363.4991
501.4265, 360.9029
501.9086, 359.1642
502.3907, 359.8896
502.8728, 362.3993
503.3549, 363.8473
503.8370, 362.7345
504.3192, 361.5515
504.8013, 361.2398
505.2834, 362.0383
505.7655, 362.6655
506.2476, 363.0503
506.7297, 363.3446
507.2119, 363.7289
507.6940, 364.2654
508.1761, 364.5825
508.6582, 364.5262
509.1403, 364.3120
509.6224, 364.4503
510.1046, 364.9431
510.5867, 365.6310
511.0688, 366.6111
511.5509, 367.7188
512.0330, 368.3162
512.5151, 368.3898
512.9973, 368.6084
513.4794, 369.8111
513.9615, 371.4701
514.4436, 372.7103
514.9257, 373.1805
515.4078, 373.5519
515.8900, 374.4171
516.3721, 375.5196
516.8542, 376.3699
517.3363, 376.1853
517.8184, 376.2766
518.3005, 377.4029
518.7827, 379.5554
519.2648, 381.4586
519.7469, 382.6718
520.2290, 383.7502
520.7111, 384.9844
521.1932, 386.3013
521.6754, 387.9015
522.1575, 389.7982
522.6396, 391.9711
523.1217, 394.4222
523.6038, 397.1986
524.0859, 400.0641
524.5681, 402.9041
525.0502, 405.7784
525.5323, 408.8498
526.0144, 412.1121
526.4965, 415.9204
526.9786, 420.6281
527.4608, 426.1075
527.9429, 431.8480
528.4250, 437.8575
528.9071, 444.3203
529.3892, 451.2696
529.8713, 458.8620
530.3535, 467.1786
530.8356, 476.1863
531.3177, 486.1626
531.7998, 497.4812
532.2819, 509.9554
532.7640, 522.6022
533.2462, 535.1432
533.7283, 547.9825
534.2104, 562.0535
534.6925, 577.5424
535.1746, 590.9417
535.6567, 601.8568
536.1389, 610.6075
536.6210, 617.3021
537.1031, 622.8416
537.5852, 624.5086
538.0673, 621.9623
538.5494, 615.8035
539.0316, 606.5026
539.5137, 593.6005
539.9958, 580.0790
540.4779, 566.5827
540.9600, 553.2037
541.4421, 540.2456
541.9243, 527.7512
542.4064, 515.4156
542.8885, 502.5186
543.3706, 489.9022
543.8527, 479.3217
544.3348, 471.0140
544.8170, 463.5460
545.2991, 455.5764
545.7812, 447.8838
546.2633, 441.3786
546.7454, 436.9882
547.2275, 433.0468
547.7097, 428.7057
548.1918, 424.2926
548.6739, 420.6417
549.1560, 418.1538
549.6381, 416.1858
550.1202, 414.7732
550.6024, 413.9415
551.0845, 412.6876
551.5666, 410.8595
552.0487, 408.8076
552.5308, 406.7944
553.0129, 404.8597
553.4951, 402.5445
553.9772, 399.5773
554.4593, 396.7690
554.9414, 395.4667
555.4235, 395.5502
555.9056, 395.6315
556.3878, 395.3426
556.8699, 394.7825
557.3520, 394.0610
557.8341, 393.1988
558.3162, 392.2959
558.7983, 390.8227
559.2805, 389.7042
559.7626, 390.3080
560.2447, 392.7577
560.7268, 394.4993
561.2089, 393.5637
561.6910, 391.8857
562.1732, 391.0273
562.6553, 391.9752
563.1374, 392.6587
563.6195, 392.7054
564.1016, 392.3778
564.5837, 392.0267
565.0659, 391.4757
565.5480, 391.2414
566.0301, 391.5563
566.5122, 392.2760
566.9943, 392.6419
567.4764, 392.5900
567.9586, 392.4782
568.4407, 392.5331
568.9228, 392.7147
569.4049, 392.8320
569.8870, 392.8871
570.3691, 392.7910
570.8513, 392.1050
571.3334, 391.2560
571.8155, 391.2039
572.2976, 392.4756
572.7797, 393.8172
573.2618, 394.1410
573.7440, 393.8981
574.2261, 393.9107
574.7082, 394.7440
575.1903, 395.6326
575.6724, 396.2752
576.1545, 396.6915
576.6367, 397.1137
577.1188, 397.9155
577.6009, 398.3691
578.0830, 398.0834
578.5651, 396.8522
579.0472, 395.9971
579.5294, 395.5945
580.0115, 395.4245
580.4936, 395.2247
580.9757, 394.9881
581.4578, 395.1555
581.9399, 395.9321
582.4221, 396.7998
582.9042, 396.7488
583.3863, 396.0251
583.8684, 395.6337
584.3505, 396.2939
584.8326, 397.2704
585.3148, 397.7772
585.7969, 397.8965
586.2790, 397.9933
586.7611, 397.8843
587.2432, 398.0931
