##NAMES=Maricite
##RRUFFID=R070273
##IDEAL CHEMISTRY=NaFe^2+^PO_4_
##LOCALITY=Locality 16, Big Fish River, Richardson Mountains, Dawson Mining District, Yukon Territory, Canada
##OWNER=RRUFF
##SOURCE=Mark Mauthner
##DESCRIPTION=Compact radiating aggregate of gray prismatic crystals (with bluish to brownish sections) in phosphate nodule.
##STATUS=The identification of this mineral is confirmed by single-crystal X-ray diffraction and chemical analysis.
##URL=rruff.info/R070273
##MEASURED CHEMISTRY=Na_1.00_(Fe^2+^_0.90_Mn_0.06_Mg_0.03_Ca_0.01_)_Î£=1_P_1.00_O_4_
192.0881, 51847.59
192.5702, 51832.14
193.0524, 51808.66
193.5345, 51772.72
194.0166, 51740.33
194.4987, 51739.05
194.9808, 51770.34
195.4629, 51810.84
195.9451, 51849.54
196.4272, 51887.06
196.9093, 51932.27
197.3914, 51988.83
197.8735, 52047.71
198.3556, 52080.28
198.8378, 52077.90
199.3199, 52102.57
199.8020, 52208.21
200.2841, 52402.54
200.7662, 52543.11
201.2483, 52605.67
201.7305, 52624.77
202.2126, 52689.75
202.6947, 52811.93
203.1768, 52937.71
203.6589, 53031.70
204.1410, 53087.35
204.6232, 53152.92
205.1053, 53236.49
205.5874, 53331.00
206.0695, 53409.46
206.5516, 53464.27
207.0337, 53523.01
207.5159, 53612.39
207.9980, 53742.14
208.4801, 53845.21
208.9622, 53900.13
209.4443, 53922.29
209.9264, 53995.07
210.4086, 54141.54
210.8907, 54292.78
211.3728, 54388.59
211.8549, 54410.27
212.3370, 54443.59
212.8191, 54504.40
213.3013, 54588.66
213.7834, 54666.61
214.2655, 54735.19
214.7476, 54802.67
215.2297, 54868.73
215.7118, 54919.01
216.1940, 55013.03
216.6761, 55178.68
217.1582, 55411.45
217.6403, 55594.77
218.1224, 55720.51
218.6045, 55805.09
219.0867, 55849.63
219.5688, 55813.62
220.0509, 55837.40
220.5330, 55979.57
221.0151, 56246.65
221.4972, 56398.70
221.9794, 56388.86
222.4615, 56317.96
222.9436, 56292.64
223.4257, 56330.46
223.9078, 56379.56
224.3899, 56436.29
224.8721, 56504.80
225.3542, 56531.00
225.8363, 56485.48
226.3184, 56425.75
226.8005, 56424.86
227.2827, 56518.77
227.7648, 56603.60
228.2469, 56656.63
228.7290, 56677.23
229.2111, 56666.29
229.6932, 56600.11
230.1754, 56521.72
230.6575, 56492.48
231.1396, 56551.04
231.6217, 56589.71
232.1038, 56566.23
232.5859, 56458.21
233.0681, 56411.27
233.5502, 56447.02
234.0323, 56528.09
234.5144, 56604.27
234.9965, 56679.27
235.4786, 56741.61
235.9608, 56782.49
236.4429, 56791.95
236.9250, 56822.70
237.4071, 56871.50
237.8892, 56943.59
238.3713, 57055.34
238.8535, 57248.85
239.3356, 57410.88
239.8177, 57493.61
240.2998, 57464.46
240.7819, 57485.82
241.2640, 57589.66
241.7462, 57725.73
242.2283, 57803.30
242.7104, 57781.67
243.1925, 57768.45
243.6746, 57800.66
244.1567, 57891.22
244.6389, 57984.43
245.1210, 58078.32
245.6031, 58175.69
246.0852, 58281.95
246.5673, 58402.84
247.0494, 58522.62
247.5316, 58632.36
248.0137, 58722.41
248.4958, 58837.52
248.9779, 58988.14
249.4600, 59157.51
249.9421, 59310.43
250.4243, 59440.07
250.9064, 59567.41
251.3885, 59701.70
251.8706, 59849.46
252.3527, 59984.07
252.8348, 60103.10
253.3170, 60210.28
253.7991, 60315.05
254.2812, 60428.13
254.7633, 60516.25
255.2454, 60565.73
255.7275, 60570.91
256.2097, 60555.07
256.6918, 60511.78
257.1739, 60452.16
257.6560, 60397.18
258.1381, 60352.06
258.6202, 60300.52
259.1024, 60236.25
259.5845, 60159.54
260.0666, 60068.15
260.5487, 59948.04
261.0308, 59824.15
261.5129, 59742.36
261.9951, 59720.71
262.4772, 59699.75
262.9593, 59655.86
263.4414, 59583.32
263.9235, 59507.27
264.4056, 59408.61
264.8878, 59323.58
265.3699, 59325.60
265.8520, 59445.89
266.3341, 59564.22
266.8162, 59634.85
267.2983, 59651.00
267.7805, 59657.97
268.2626, 59653.93
268.7447, 59642.60
269.2268, 59622.81
269.7089, 59584.36
270.1910, 59574.10
270.6732, 59617.98
271.1553, 59722.28
271.6374, 59822.68
272.1195, 59926.21
272.6016, 60015.66
273.0837, 60046.63
273.5659, 60003.94
274.0480, 59981.43
274.5301, 60032.11
275.0122, 60160.07
275.4943, 60228.68
275.9764, 60223.72
276.4586, 60186.10
276.9407, 60167.89
277.4228, 60167.91
277.9049, 60198.27
278.3870, 60272.98
278.8691, 60389.83
279.3513, 60504.11
279.8334, 60622.52
280.3155, 60721.19
280.7976, 60755.97
281.2798, 60723.73
281.7619, 60694.44
282.2440, 60699.83
282.7261, 60733.63
283.2082, 60743.34
283.6903, 60723.27
284.1725, 60700.14
284.6546, 60707.63
285.1367, 60744.89
285.6188, 60791.77
286.1009, 60850.04
286.5830, 60913.05
287.0652, 60939.87
287.5473, 60922.67
288.0294, 60914.55
288.5115, 61001.23
288.9936, 61167.90
289.4757, 61287.86
289.9579, 61296.17
290.4400, 61233.61
290.9221, 61207.14
291.4042, 61217.35
291.8863, 61256.74
292.3684, 61332.65
292.8506, 61436.21
293.3327, 61529.71
293.8148, 61597.45
294.2969, 61650.59
294.7790, 61719.21
295.2611, 61803.61
295.7433, 61872.78
296.2254, 61885.47
296.7075, 61860.57
297.1896, 61852.95
297.6717, 61895.07
298.1538, 61948.07
298.6360, 61928.39
299.1181, 61844.32
299.6002, 61795.67
300.0823, 61901.02
300.5644, 62091.16
301.0465, 62235.50
301.5287, 62290.49
302.0108, 62297.65
302.4929, 62282.64
302.9750, 62251.11
303.4571, 62236.13
303.9392, 62258.29
304.4214, 62310.71
304.9035, 62388.54
305.3856, 62501.56
305.8677, 62619.42
306.3498, 62729.46
306.8319, 62824.87
307.3141, 62883.33
307.7962, 62841.89
308.2783, 62779.27
308.7604, 62778.39
309.2425, 62878.09
309.7246, 62993.04
310.2068, 63085.07
310.6889, 63152.08
311.1710, 63190.17
311.6531, 63164.78
312.1352, 63129.77
312.6173, 63129.52
313.0995, 63184.23
313.5816, 63235.34
314.0637, 63227.65
314.5458, 63199.14
315.0279, 63220.99
315.5100, 63376.14
315.9922, 63546.93
316.4743, 63666.71
316.9564, 63715.44
317.4385, 63764.54
317.9206, 63833.59
318.4027, 63918.00
318.8849, 64011.29
319.3670, 64138.27
319.8491, 64250.55
320.3312, 64318.85
320.8133, 64329.95
321.2954, 64367.36
321.7776, 64488.93
322.2597, 64629.07
322.7418, 64717.88
323.2239, 64680.74
323.7060, 64655.85
324.1881, 64672.80
324.6703, 64733.96
325.1524, 64820.42
325.6345, 64977.77
326.1166, 65134.27
326.5987, 65233.06
327.0808, 65201.16
327.5630, 65197.04
328.0451, 65244.55
328.5272, 65341.62
329.0093, 65444.73
329.4914, 65562.16
329.9735, 65675.80
330.4557, 65777.89
330.9378, 65901.39
331.4199, 65950.82
331.9020, 65877.37
332.3841, 65717.47
332.8662, 65655.57
333.3484, 65739.58
333.8305, 65849.86
334.3126, 65925.63
334.7947, 65962.56
335.2768, 65974.02
335.7589, 65952.15
336.2411, 65909.83
336.7232, 65877.34
337.2053, 65855.06
337.6874, 65842.27
338.1695, 65837.53
338.6516, 65840.18
339.1338, 65859.79
339.6159, 65901.96
340.0980, 65952.23
340.5801, 65986.73
341.0622, 66005.24
341.5443, 66012.81
342.0265, 66007.20
342.5086, 65990.38
342.9907, 65983.50
343.4728, 65989.55
343.9549, 65994.07
344.4370, 65977.56
344.9192, 65941.80
345.4013, 65900.89
345.8834, 65848.43
346.3655, 65797.95
346.8476, 65787.62
347.3297, 65817.67
347.8119, 65876.98
348.2940, 65987.66
348.7761, 66123.76
349.2582, 66200.57
349.7403, 66163.66
350.2225, 66089.94
350.7046, 66091.73
351.1867, 66161.84
351.6688, 66244.87
352.1509, 66296.79
352.6331, 66337.23
353.1152, 66401.07
353.5973, 66513.92
354.0794, 66618.31
354.5615, 66654.29
355.0436, 66637.76
355.5258, 66617.07
356.0079, 66617.52
356.4900, 66626.16
356.9721, 66628.73
357.4542, 66617.63
357.9363, 66619.01
358.4185, 66676.51
358.9006, 66753.38
359.3827, 66786.00
359.8648, 66677.45
360.3469, 66575.45
360.8290, 66566.01
361.3112, 66668.37
361.7933, 66776.30
362.2754, 66875.06
362.7575, 66955.50
363.2396, 67007.85
363.7217, 66999.89
364.2039, 66992.88
364.6860, 67001.90
365.1681, 67027.56
365.6502, 67058.80
366.1323, 67097.61
366.6144, 67139.78
367.0966, 67182.59
367.5787, 67225.78
368.0608, 67269.76
368.5429, 67328.61
369.0250, 67392.80
369.5071, 67408.11
369.9893, 67317.34
370.4714, 67244.03
370.9535, 67253.36
371.4356, 67390.41
371.9177, 67509.15
372.3998, 67612.90
372.8820, 67695.07
373.3641, 67729.75
373.8462, 67690.92
374.3283, 67672.46
374.8104, 67723.95
375.2925, 67855.36
375.7747, 67943.06
376.2568, 67981.44
376.7389, 67988.90
377.2210, 67978.02
377.7031, 67945.90
378.1852, 67938.52
378.6674, 67979.02
379.1495, 68054.96
379.6316, 68110.05
380.1137, 68140.81
380.5958, 68178.10
381.0779, 68261.37
381.5601, 68380.61
382.0422, 68481.76
382.5243, 68558.09
383.0064, 68606.58
383.4885, 68601.02
383.9706, 68550.48
384.4528, 68522.05
384.9349, 68590.68
385.4170, 68703.77
385.8991, 68769.88
386.3812, 68764.98
386.8633, 68748.27
387.3455, 68775.93
387.8276, 68834.09
388.3097, 68891.70
388.7918, 68928.04
389.2739, 68960.26
389.7560, 69003.13
390.2382, 69058.53
390.7203, 69114.88
391.2024, 69166.16
391.6845, 69214.62
392.1666, 69263.51
392.6487, 69334.84
393.1309, 69386.62
393.6130, 69388.91
394.0951, 69346.80
394.5772, 69319.30
395.0593, 69297.99
395.5414, 69310.78
396.0236, 69375.77
396.5057, 69586.16
396.9878, 69741.54
397.4699, 69801.03
397.9520, 69788.48
398.4341, 69777.12
398.9163, 69727.99
399.3984, 69720.91
399.8805, 69795.97
400.3626, 69997.13
400.8447, 70148.14
401.3268, 70228.46
401.8090, 70273.57
402.2911, 70338.08
402.7732, 70436.66
403.2553, 70513.13
403.7374, 70542.21
404.2195, 70528.09
404.7017, 70552.21
405.1838, 70625.29
405.6659, 70708.16
406.1480, 70755.30
406.6301, 70765.87
407.1122, 70813.20
407.5944, 70922.36
408.0765, 71063.94
408.5586, 71157.73
409.0407, 71205.20
409.5228, 71263.80
410.0049, 71366.68
410.4871, 71509.00
410.9692, 71699.18
411.4513, 71956.69
411.9334, 72188.34
412.4155, 72238.67
412.8976, 72171.27
413.3798, 72167.03
413.8619, 72379.88
414.3440, 72656.00
414.8261, 72825.90
415.3082, 72886.82
415.7903, 72949.46
416.2725, 73088.76
416.7546, 73269.70
417.2367, 73456.28
417.7188, 73633.24
418.2009, 73813.19
418.6830, 73979.19
419.1652, 74146.52
419.6473, 74364.94
420.1294, 74700.52
420.6115, 75056.74
421.0937, 75382.78
421.5758, 75639.09
422.0579, 75922.65
422.5400, 76249.82
423.0221, 76611.23
423.5042, 76998.82
423.9864, 77403.08
424.4685, 77839.16
424.9506, 78326.54
425.4327, 78863.93
425.9148, 79383.65
426.3969, 79856.21
426.8791, 80344.33
427.3612, 80901.04
427.8433, 81542.98
428.3254, 82196.98
428.8075, 82853.31
429.2896, 83513.12
429.7718, 84159.49
430.2539, 84787.01
430.7360, 85434.38
431.2181, 86135.17
431.7002, 86883.41
432.1823, 87586.72
432.6645, 88234.04
433.1466, 88860.76
433.6287, 89522.90
434.1108, 90206.17
434.5929, 90843.00
435.0750, 91401.76
435.5572, 91891.80
436.0393, 92330.09
436.5214, 92716.24
437.0035, 93043.74
437.4856, 93339.84
437.9677, 93561.78
438.4499, 93639.27
438.9320, 93514.31
439.4141, 93309.23
439.8962, 93101.55
440.3783, 92881.48
440.8604, 92617.47
441.3426, 92301.48
441.8247, 91936.83
442.3068, 91519.05
442.7889, 91040.15
443.2710, 90544.78
443.7531, 89972.16
444.2353, 89418.77
444.7174, 88981.31
445.1995, 88812.10
445.6816, 88615.17
446.1637, 88331.87
446.6458, 87972.29
447.1280, 87616.22
447.6101, 87287.76
448.0922, 86934.53
448.5743, 86533.74
449.0564, 86081.61
449.5385, 85578.73
450.0207, 85020.41
450.5028, 84418.03
450.9849, 83773.05
451.4670, 83071.33
451.9491, 82428.75
452.4312, 81898.54
452.9134, 81471.68
453.3955, 81050.05
453.8776, 80628.90
454.3597, 80255.45
454.8418, 79993.59
455.3239, 79825.45
455.8061, 79691.11
456.2882, 79583.23
456.7703, 79490.29
457.2524, 79386.11
457.7345, 79278.89
458.2166, 79200.24
458.6988, 79161.21
459.1809, 79165.55
459.6630, 79232.23
460.1451, 79372.32
460.6272, 79510.27
461.1093, 79601.52
461.5915, 79661.45
462.0736, 79707.07
462.5557, 79734.45
463.0378, 79758.06
463.5199, 79799.50
464.0020, 79850.61
464.4842, 79851.91
464.9663, 79739.13
465.4484, 79611.46
465.9305, 79527.25
466.4126, 79574.07
466.8947, 79512.00
467.3769, 79316.71
467.8590, 79024.46
468.3411, 78676.73
468.8232, 78224.02
469.3053, 77817.80
469.7874, 77499.09
470.2696, 77264.57
470.7517, 77064.56
471.2338, 76914.45
471.7159, 76753.39
472.1980, 76501.59
472.6801, 76162.03
473.1623, 75913.09
473.6444, 75793.65
474.1265, 75744.11
474.6086, 75676.63
475.0907, 75592.02
475.5728, 75495.61
476.0550, 75375.83
476.5371, 75250.58
477.0192, 75155.38
477.5013, 75091.29
477.9834, 75029.30
478.4655, 74923.32
478.9477, 74813.11
479.4298, 74756.97
479.9119, 74843.84
480.3940, 74897.09
480.8761, 74764.41
481.3582, 74516.96
481.8404, 74361.28
482.3225, 74454.76
482.8046, 74581.12
483.2867, 74638.80
483.7688, 74595.66
484.2509, 74565.58
484.7331, 74583.73
485.2152, 74605.85
485.6973, 74587.47
486.1794, 74489.04
486.6615, 74417.52
487.1436, 74389.43
487.6258, 74399.34
488.1079, 74428.05
488.5900, 74486.04
489.0721, 74533.23
489.5542, 74539.14
490.0363, 74503.31
490.5185, 74491.87
491.0006, 74511.77
491.4827, 74538.79
491.9648, 74534.14
492.4470, 74505.20
492.9291, 74491.72
493.4112, 74503.73
493.8933, 74541.89
494.3754, 74626.03
494.8575, 74747.74
495.3397, 74849.04
495.8218, 74912.63
496.3039, 74926.88
496.7860, 74856.68
497.2681, 74664.15
497.7502, 74515.16
498.2324, 74524.94
498.7145, 74622.77
499.1966, 74712.74
499.6787, 74792.95
500.1608, 74834.09
500.6429, 74796.71
501.1251, 74689.18
501.6072, 74641.83
502.0893, 74714.67
502.5714, 74803.70
503.0535, 74860.39
503.5356, 74868.70
504.0178, 74881.59
504.4999, 74895.91
504.9820, 74917.70
505.4641, 74966.27
505.9462, 75052.79
506.4283, 75106.20
506.9105, 75098.12
507.3926, 75042.70
507.8747, 74981.52
508.3568, 74912.28
508.8389, 74878.38
509.3210, 74948.18
509.8032, 75077.62
510.2853, 75133.88
510.7674, 75085.94
511.2495, 75026.96
511.7316, 75062.45
512.2137, 75157.25
512.6959, 75239.09
513.1780, 75278.34
513.6601, 75294.88
514.1422, 75286.83
514.6243, 75260.34
515.1064, 75254.85
515.5886, 75311.26
516.0707, 75375.74
516.5528, 75412.39
517.0349, 75394.79
517.5170, 75395.80
517.9991, 75446.90
518.4813, 75510.69
518.9634, 75537.57
519.4455, 75500.13
519.9276, 75473.14
520.4097, 75474.40
520.8918, 75499.34
521.3740, 75516.05
521.8561, 75520.48
522.3382, 75530.05
522.8203, 75560.69
523.3024, 75610.45
523.7845, 75649.53
524.2667, 75675.43
524.7488, 75694.57
525.2309, 75719.73
525.7130, 75746.38
526.1951, 75755.99
526.6772, 75716.91
527.1594, 75682.01
527.6415, 75727.85
528.1236, 75837.99
528.6057, 75941.43
529.0878, 76000.11
529.5699, 76034.08
530.0521, 76054.87
530.5342, 76062.29
531.0163, 76065.67
531.4984, 76042.14
531.9805, 76027.16
532.4626, 76058.23
532.9448, 76220.20
533.4269, 76331.95
533.9090, 76355.54
534.3911, 76312.29
534.8732, 76278.38
535.3553, 76236.98
535.8375, 76237.44
536.3196, 76323.98
536.8017, 76505.71
537.2838, 76592.51
537.7659, 76567.08
538.2480, 76506.21
538.7302, 76473.58
539.2123, 76471.85
539.6944, 76528.02
540.1765, 76664.95
540.6586, 76830.85
541.1407, 76957.71
541.6229, 77053.94
542.1050, 77151.79
542.5871, 77285.02
543.0692, 77417.05
543.5513, 77503.23
544.0334, 77541.17
544.5156, 77593.14
544.9977, 77683.46
545.4798, 77802.61
545.9619, 77943.18
546.4440, 78115.00
546.9261, 78291.54
547.4083, 78448.48
547.8904, 78613.37
548.3725, 78834.17
548.8546, 79142.82
549.3367, 79456.91
549.8188, 79753.66
550.3010, 80036.18
550.7831, 80340.70
551.2652, 80668.63
551.7473, 81015.24
552.2294, 81389.34
552.7115, 81786.08
553.1937, 82158.39
553.6758, 82516.93
554.1579, 82791.16
554.6400, 82860.31
555.1221, 82770.55
555.6042, 82651.22
556.0864, 82520.45
556.5685, 82407.23
557.0506, 82310.40
557.5327, 82246.97
558.0148, 82283.54
558.4969, 82527.38
558.9791, 82825.74
559.4612, 83062.30
559.9433, 83190.27
560.4254, 83433.24
560.9075, 83872.61
561.3896, 84423.12
561.8718, 85014.78
562.3539, 85683.06
562.8360, 86329.75
563.3181, 86916.52
563.8002, 87485.41
564.2823, 88149.14
564.7645, 88909.17
565.2466, 89736.55
565.7287, 90643.85
566.2108, 91606.38
566.6929, 92534.92
567.1750, 93428.34
567.6572, 94143.22
568.1393, 94624.06
568.6214, 94816.98
569.1035, 94573.02
569.5856, 93835.80
570.0677, 92793.23
570.5499, 91422.56
571.0320, 89876.69
571.5141, 88389.31
571.9962, 86979.07
572.4783, 85709.67
572.9604, 84624.45
573.4426, 83719.01
573.9247, 82940.59
574.4068, 82371.20
574.8889, 81855.57
575.3710, 81326.85
575.8531, 80767.18
576.3353, 80325.08
576.8174, 80032.86
577.2995, 79816.65
577.7816, 79603.76
578.2637, 79391.67
578.7458, 79226.53
579.2280, 79124.34
579.7101, 79054.77
580.1922, 78966.81
580.6743, 78863.36
581.1564, 78760.79
581.6385, 78645.78
582.1207, 78546.91
582.6028, 78515.34
583.0849, 78544.23
583.5670, 78577.49
584.0491, 78582.84
584.5313, 78578.91
585.0134, 78586.79
585.4955, 78624.94
585.9776, 78624.49
586.4597, 78502.20
586.9418, 78359.96
587.4240, 78318.00
587.9061, 78466.52
588.3882, 78576.15
588.8703, 78604.15
589.3524, 78582.58
589.8345, 78612.10
590.3167, 78708.53
590.7988, 78795.02
591.2809, 78825.95
591.7630, 78817.03
592.2451, 78851.92
592.7272, 78931.94
593.2094, 79023.59
593.6915, 79107.89
594.1736, 79182.20
594.6557, 79230.73
595.1378, 79237.61
595.6199, 79272.30
596.1021, 79400.80
596.5842, 79586.20
597.0663, 79776.53
597.5485, 79948.39
598.0306, 80126.20
598.5127, 80320.38
598.9948, 80527.38
599.4769, 80733.35
599.9590, 80927.53
600.4412, 81135.01
600.9233, 81359.66
601.4054, 81601.90
601.8875, 81871.01
602.3696, 82166.19
602.8517, 82486.24
603.3339, 82830.51
603.8160, 83199.05
604.2981, 83559.68
604.7802, 83907.52
605.2623, 84240.34
605.7444, 84564.48
606.2266, 84870.38
606.7087, 85117.02
607.1908, 85274.70
607.6729, 85389.95
608.1550, 85545.03
608.6371, 85697.42
609.1193, 85714.27
609.6014, 85444.52
610.0835, 85108.76
610.5656, 84798.63
611.0477, 84518.03
611.5298, 84283.14
612.0120, 84108.69
612.4941, 83966.56
612.9762, 83838.63
613.4583, 83719.13
613.9404, 83631.11
614.4225, 83566.81
614.9047, 83551.19
615.3868, 83640.34
615.8689, 83827.16
616.3510, 84004.98
616.8331, 84132.63
617.3152, 84248.15
617.7974, 84416.00
618.2795, 84624.84
618.7616, 84838.60
619.2437, 85101.92
619.7258, 85313.55
620.2079, 85403.82
620.6901, 85367.59
621.1722, 85233.12
621.6543, 84973.80
622.1364, 84643.63
622.6185, 84274.17
623.1006, 83841.06
623.5828, 83422.88
624.0649, 83018.39
624.5470, 82629.97
625.0291, 82253.58
625.5112, 81881.38
625.9933, 81564.05
626.4755, 81318.95
626.9576, 81127.39
627.4397, 80971.23
627.9218, 80844.81
628.4039, 80704.94
628.8860, 80488.19
629.3682, 80267.24
629.8503, 80159.76
630.3324, 80152.43
630.8145, 80147.44
631.2966, 80085.08
631.7787, 80006.80
632.2609, 79938.17
632.7430, 79879.85
633.2251, 79841.95
633.7072, 79828.89
634.1893, 79836.58
634.6714, 79870.39
635.1536, 79982.68
635.6357, 79995.27
636.1178, 79855.52
636.5999, 79652.33
637.0820, 79545.33
637.5641, 79537.55
638.0463, 79574.59
638.5284, 79663.53
639.0105, 79764.94
639.4926, 79793.67
639.9747, 79759.39
640.4568, 79717.96
640.9390, 79710.51
641.4211, 79706.48
641.9032, 79667.93
642.3853, 79592.45
642.8674, 79537.36
643.3495, 79554.68
643.8317, 79581.01
644.3138, 79568.73
644.7959, 79468.59
645.2780, 79417.78
645.7601, 79445.73
646.2422, 79497.23
646.7244, 79495.63
647.2065, 79420.11
647.6886, 79405.73
648.1707, 79493.87
648.6528, 79629.66
649.1349, 79710.75
649.6171, 79740.66
650.0992, 79748.09
650.5813, 79739.89
651.0634, 79720.52
651.5455, 79674.80
652.0276, 79613.69
652.5098, 79598.53
652.9919, 79749.55
653.4740, 79888.79
653.9561, 79884.15
654.4382, 79691.91
654.9203, 79546.23
655.4025, 79468.72
655.8846, 79451.77
656.3667, 79507.84
656.8488, 79688.52
657.3309, 79777.58
657.8130, 79741.66
658.2952, 79661.08
658.7773, 79658.12
659.2594, 79724.51
659.7415, 79759.94
660.2236, 79731.15
660.7057, 79671.11
661.1879, 79613.90
661.6700, 79562.99
662.1521, 79528.98
662.6342, 79521.34
663.1163, 79528.50
663.5984, 79556.02
664.0806, 79598.53
664.5627, 79616.30
665.0448, 79581.38
665.5269, 79535.34
666.0090, 79488.04
666.4911, 79433.96
666.9733, 79426.32
667.4554, 79479.59
667.9375, 79550.64
668.4196, 79621.24
668.9017, 79689.48
669.3839, 79678.28
669.8660, 79566.81
670.3481, 79442.68
670.8302, 79402.71
671.3123, 79427.59
671.7944, 79481.55
672.2766, 79583.84
672.7587, 79662.09
673.2408, 79644.13
673.7229, 79571.41
674.2050, 79524.78
674.6871, 79549.57
675.1693, 79578.41
675.6514, 79594.63
676.1335, 79600.10
676.6156, 79606.00
677.0977, 79617.31
677.5798, 79617.29
678.0620, 79591.16
678.5441, 79543.59
679.0262, 79527.08
679.5083, 79543.31
679.9904, 79560.91
680.4725, 79564.61
680.9547, 79549.77
681.4368, 79487.45
681.9189, 79365.19
682.4010, 79288.63
682.8831, 79393.55
683.3652, 79549.47
683.8474, 79621.05
684.3295, 79511.11
