##NAMES=Maricopaite
##RRUFFID=R120147
##IDEAL CHEMISTRY=Ca_2_Pb^2+^_7_(Si_36_Al_12_)O_99_&#183;n(H_2_O,OH)
##LOCALITY=Moon Anchor mine, Hummingbird Spring,  Big Horn Mts, Maricopa County, Arizona, USA
##OWNER=RRUFF
##SOURCE=Bob Jenkins and Ron Gibbs
##DESCRIPTION=Spherical radial aggregates of white bladed crystals associated with yellow mimetite
##STATUS=The identification of this mineral has been confirmed by single-crystal X-ray diffraction.
##URL=rruff.info/R120147
8.936163e+001, 0.000000e+000
8.984375e+001, 5.930109e+002
9.032587e+001, 5.955474e+002
9.080798e+001, 5.961923e+002
9.129010e+001, 5.946848e+002
9.177222e+001, 5.915705e+002
9.225433e+001, 5.873282e+002
9.273645e+001, 5.819752e+002
9.321857e+001, 5.758087e+002
9.370068e+001, 5.687919e+002
9.418280e+001, 5.611246e+002
9.466492e+001, 5.534836e+002
9.514703e+001, 5.454620e+002
9.562915e+001, 5.377522e+002
9.611127e+001, 5.326082e+002
9.659338e+001, 5.304457e+002
9.707550e+001, 5.289293e+002
9.755762e+001, 5.252059e+002
9.803973e+001, 5.192217e+002
9.852185e+001, 5.127333e+002
9.900397e+001, 5.053323e+002
9.948608e+001, 4.969027e+002
9.996820e+001, 4.929610e+002
1.004503e+002, 4.951404e+002
1.009324e+002, 4.998973e+002
1.014146e+002, 4.997043e+002
1.018967e+002, 4.934526e+002
1.023788e+002, 4.854152e+002
1.028609e+002, 4.771836e+002
1.033430e+002, 4.680793e+002
1.038251e+002, 4.614485e+002
1.043073e+002, 4.588734e+002
1.047894e+002, 4.591882e+002
1.052715e+002, 4.560331e+002
1.057536e+002, 4.468686e+002
1.062357e+002, 4.370021e+002
1.067178e+002, 4.301161e+002
1.072000e+002, 4.288185e+002
1.076821e+002, 4.267919e+002
1.081642e+002, 4.228026e+002
1.086463e+002, 4.166200e+002
1.091284e+002, 4.116871e+002
1.096105e+002, 4.092579e+002
1.100927e+002, 4.075292e+002
1.105748e+002, 4.048510e+002
1.110569e+002, 4.000454e+002
1.115390e+002, 3.953714e+002
1.120211e+002, 3.914138e+002
1.125032e+002, 3.883939e+002
1.129854e+002, 3.853597e+002
1.134675e+002, 3.830955e+002
1.139496e+002, 3.805949e+002
1.144317e+002, 3.763528e+002
1.149138e+002, 3.675424e+002
1.153959e+002, 3.587766e+002
1.158781e+002, 3.522122e+002
1.163602e+002, 3.486534e+002
1.168423e+002, 3.461239e+002
1.173244e+002, 3.447229e+002
1.178065e+002, 3.439058e+002
1.182886e+002, 3.422860e+002
1.187708e+002, 3.381974e+002
1.192529e+002, 3.336142e+002
1.197350e+002, 3.302178e+002
1.202171e+002, 3.295027e+002
1.206992e+002, 3.287785e+002
1.211813e+002, 3.260067e+002
1.216635e+002, 3.215246e+002
1.221456e+002, 3.172508e+002
1.226277e+002, 3.145103e+002
1.231098e+002, 3.126620e+002
1.235919e+002, 3.108655e+002
1.240740e+002, 3.089549e+002
1.245562e+002, 3.068750e+002
1.250383e+002, 3.045363e+002
1.255204e+002, 3.019306e+002
1.260025e+002, 2.992685e+002
1.264846e+002, 2.965996e+002
1.269667e+002, 2.939991e+002
1.274489e+002, 2.916543e+002
1.279310e+002, 2.898624e+002
1.284131e+002, 2.883463e+002
1.288952e+002, 2.866161e+002
1.293773e+002, 2.846642e+002
1.298594e+002, 2.824351e+002
1.303416e+002, 2.795493e+002
1.308237e+002, 2.761448e+002
1.313058e+002, 2.730349e+002
1.317879e+002, 2.709230e+002
1.322700e+002, 2.695704e+002
1.327521e+002, 2.677665e+002
1.332343e+002, 2.653041e+002
1.337164e+002, 2.625483e+002
1.341985e+002, 2.600134e+002
1.346806e+002, 2.577000e+002
1.351627e+002, 2.555900e+002
1.356448e+002, 2.537952e+002
1.361270e+002, 2.523138e+002
1.366091e+002, 2.506956e+002
1.370912e+002, 2.488643e+002
1.375733e+002, 2.468779e+002
1.380554e+002, 2.446590e+002
1.385375e+002, 2.420060e+002
1.390197e+002, 2.396954e+002
1.395018e+002, 2.386554e+002
1.399839e+002, 2.394285e+002
1.404660e+002, 2.390476e+002
1.409481e+002, 2.365001e+002
1.414302e+002, 2.320549e+002
1.419124e+002, 2.293201e+002
1.423945e+002, 2.291412e+002
1.428766e+002, 2.295137e+002
1.433587e+002, 2.283812e+002
1.438408e+002, 2.250200e+002
1.443229e+002, 2.216356e+002
1.448051e+002, 2.186208e+002
1.452872e+002, 2.159192e+002
1.457693e+002, 2.137912e+002
1.462514e+002, 2.124081e+002
1.467335e+002, 2.114604e+002
1.472156e+002, 2.105247e+002
1.476978e+002, 2.094456e+002
1.481799e+002, 2.085890e+002
1.486620e+002, 2.081875e+002
1.491441e+002, 2.087240e+002
1.496262e+002, 2.083996e+002
1.501083e+002, 2.066299e+002
1.505905e+002, 2.041021e+002
1.510726e+002, 2.020045e+002
1.515547e+002, 2.006700e+002
1.520368e+002, 1.994976e+002
1.525189e+002, 1.983020e+002
1.530010e+002, 1.970664e+002
1.534832e+002, 1.958426e+002
1.539653e+002, 1.945414e+002
1.544474e+002, 1.932486e+002
1.549295e+002, 1.921703e+002
1.554116e+002, 1.917474e+002
1.558937e+002, 1.912429e+002
1.563759e+002, 1.903188e+002
1.568580e+002, 1.886774e+002
1.573401e+002, 1.869525e+002
1.578222e+002, 1.849066e+002
1.583043e+002, 1.827684e+002
1.587864e+002, 1.813787e+002
1.592686e+002, 1.817840e+002
1.597507e+002, 1.825327e+002
1.602328e+002, 1.826927e+002
1.607149e+002, 1.812061e+002
1.611970e+002, 1.799463e+002
1.616791e+002, 1.794554e+002
1.621613e+002, 1.797007e+002
1.626434e+002, 1.804276e+002
1.631255e+002, 1.819694e+002
1.636076e+002, 1.837641e+002
1.640897e+002, 1.853112e+002
1.645718e+002, 1.863445e+002
1.650540e+002, 1.871794e+002
1.655361e+002, 1.876852e+002
1.660182e+002, 1.879063e+002
1.665003e+002, 1.887222e+002
1.669824e+002, 1.913116e+002
1.674645e+002, 1.945980e+002
1.679467e+002, 1.972182e+002
1.684288e+002, 1.975832e+002
1.689109e+002, 1.978579e+002
1.693930e+002, 1.994966e+002
1.698751e+002, 2.025781e+002
1.703572e+002, 2.066087e+002
1.708394e+002, 2.113940e+002
1.713215e+002, 2.169351e+002
1.718036e+002, 2.231456e+002
1.722857e+002, 2.303105e+002
1.727678e+002, 2.380141e+002
1.732499e+002, 2.459812e+002
1.737321e+002, 2.543118e+002
1.742142e+002, 2.624642e+002
1.746963e+002, 2.703060e+002
1.751784e+002, 2.777931e+002
1.756605e+002, 2.848496e+002
1.761426e+002, 2.912201e+002
1.766248e+002, 2.971462e+002
1.771069e+002, 3.030773e+002
1.775890e+002, 3.092186e+002
1.780711e+002, 3.147409e+002
1.785532e+002, 3.184416e+002
1.790353e+002, 3.207027e+002
1.795175e+002, 3.227515e+002
1.799996e+002, 3.248995e+002
1.804817e+002, 3.273730e+002
1.809638e+002, 3.309618e+002
1.814459e+002, 3.361732e+002
1.819280e+002, 3.414138e+002
1.824102e+002, 3.439906e+002
1.828923e+002, 3.443129e+002
1.833744e+002, 3.452860e+002
1.838565e+002, 3.488965e+002
1.843386e+002, 3.546038e+002
1.848207e+002, 3.607773e+002
1.853029e+002, 3.672979e+002
1.857850e+002, 3.741173e+002
1.862671e+002, 3.813684e+002
1.867492e+002, 3.890120e+002
1.872313e+002, 3.968501e+002
1.877134e+002, 4.046066e+002
1.881956e+002, 4.124354e+002
1.886777e+002, 4.207792e+002
1.891598e+002, 4.300208e+002
1.896419e+002, 4.395840e+002
1.901240e+002, 4.482022e+002
1.906061e+002, 4.559517e+002
1.910883e+002, 4.634510e+002
1.915704e+002, 4.713565e+002
1.920525e+002, 4.796599e+002
1.925346e+002, 4.876107e+002
1.930167e+002, 4.951534e+002
1.934988e+002, 5.018544e+002
1.939810e+002, 5.053326e+002
1.944631e+002, 5.049626e+002
1.949452e+002, 5.046277e+002
1.954273e+002, 5.058797e+002
1.959094e+002, 5.086566e+002
1.963915e+002, 5.102207e+002
1.968737e+002, 5.098593e+002
1.973558e+002, 5.080533e+002
1.978379e+002, 5.063231e+002
1.983200e+002, 5.046841e+002
1.988021e+002, 5.031241e+002
1.992842e+002, 5.015326e+002
1.997664e+002, 4.998744e+002
2.002485e+002, 4.988258e+002
2.007306e+002, 4.988560e+002
2.012127e+002, 4.996299e+002
2.016948e+002, 4.989231e+002
2.021769e+002, 4.963076e+002
2.026591e+002, 4.936082e+002
2.031412e+002, 4.927751e+002
2.036233e+002, 4.940536e+002
2.041054e+002, 4.951432e+002
2.045875e+002, 4.953380e+002
2.050696e+002, 4.948112e+002
2.055518e+002, 4.953412e+002
2.060339e+002, 4.972718e+002
2.065160e+002, 4.994443e+002
2.069981e+002, 5.004928e+002
2.074802e+002, 5.000794e+002
2.079623e+002, 5.000913e+002
2.084445e+002, 5.011570e+002
2.089266e+002, 5.032094e+002
2.094087e+002, 5.044991e+002
2.098908e+002, 5.047474e+002
2.103729e+002, 5.047545e+002
2.108550e+002, 5.055523e+002
2.113372e+002, 5.075057e+002
2.118193e+002, 5.089175e+002
2.123014e+002, 5.092556e+002
2.127835e+002, 5.085199e+002
2.132656e+002, 5.078780e+002
2.137477e+002, 5.072641e+002
2.142299e+002, 5.068239e+002
2.147120e+002, 5.067324e+002
2.151941e+002, 5.070116e+002
2.156762e+002, 5.075802e+002
2.161583e+002, 5.086814e+002
2.166404e+002, 5.103952e+002
2.171226e+002, 5.108575e+002
2.176047e+002, 5.096840e+002
2.180868e+002, 5.077237e+002
2.185689e+002, 5.059157e+002
2.190510e+002, 5.042032e+002
2.195331e+002, 5.027597e+002
2.200153e+002, 5.016091e+002
2.204974e+002, 5.007548e+002
2.209795e+002, 5.002041e+002
2.214616e+002, 5.001367e+002
2.219437e+002, 5.001958e+002
2.224258e+002, 4.998745e+002
2.229080e+002, 4.989028e+002
2.233901e+002, 4.981579e+002
2.238722e+002, 4.979602e+002
2.243543e+002, 4.983935e+002
2.248364e+002, 4.985750e+002
2.253185e+002, 4.983777e+002
2.258007e+002, 4.980310e+002
2.262828e+002, 4.978466e+002
2.267649e+002, 4.979745e+002
2.272470e+002, 4.979175e+002
2.277291e+002, 4.973842e+002
2.282112e+002, 4.962002e+002
2.286934e+002, 4.958223e+002
2.291755e+002, 4.966799e+002
2.296576e+002, 4.979555e+002
2.301397e+002, 4.985919e+002
2.306218e+002, 4.984306e+002
2.311039e+002, 4.979321e+002
2.315861e+002, 4.971141e+002
2.320682e+002, 4.958721e+002
2.325503e+002, 4.950477e+002
2.330324e+002, 4.948138e+002
2.335145e+002, 4.948733e+002
2.339966e+002, 4.948428e+002
2.344788e+002, 4.946207e+002
2.349609e+002, 4.945210e+002
2.354430e+002, 4.947113e+002
2.359251e+002, 4.952896e+002
2.364072e+002, 4.954386e+002
2.368893e+002, 4.948119e+002
2.373715e+002, 4.940338e+002
2.378536e+002, 4.939292e+002
2.383357e+002, 4.949240e+002
2.388178e+002, 4.958181e+002
2.392999e+002, 4.962359e+002
2.397820e+002, 4.960663e+002
2.402642e+002, 4.961877e+002
2.407463e+002, 4.967209e+002
2.412284e+002, 4.974220e+002
2.417105e+002, 4.980226e+002
2.421926e+002, 4.985815e+002
2.426747e+002, 4.989077e+002
2.431569e+002, 4.989161e+002
2.436390e+002, 4.985699e+002
2.441211e+002, 4.981572e+002
2.446032e+002, 4.976203e+002
2.450853e+002, 4.970630e+002
2.455674e+002, 4.966020e+002
2.460496e+002, 4.962423e+002
2.465317e+002, 4.959893e+002
2.470138e+002, 4.959243e+002
2.474959e+002, 4.960969e+002
2.479780e+002, 4.959252e+002
2.484601e+002, 4.951942e+002
2.489423e+002, 4.943518e+002
2.494244e+002, 4.940079e+002
2.499065e+002, 4.947942e+002
2.503886e+002, 4.948176e+002
2.508707e+002, 4.932613e+002
2.513528e+002, 4.900130e+002
2.518350e+002, 4.882356e+002
2.523171e+002, 4.885944e+002
2.527992e+002, 4.897124e+002
2.532813e+002, 4.901484e+002
2.537634e+002, 4.894535e+002
2.542455e+002, 4.890457e+002
2.547277e+002, 4.893847e+002
2.552098e+002, 4.904878e+002
2.556919e+002, 4.908690e+002
2.561740e+002, 4.903662e+002
2.566561e+002, 4.893309e+002
2.571382e+002, 4.880085e+002
2.576204e+002, 4.861355e+002
2.581025e+002, 4.845768e+002
2.585846e+002, 4.835359e+002
2.590667e+002, 4.829887e+002
2.595488e+002, 4.825744e+002
2.600309e+002, 4.822939e+002
2.605131e+002, 4.821629e+002
2.609952e+002, 4.822827e+002
2.614773e+002, 4.828702e+002
2.619594e+002, 4.830991e+002
2.624415e+002, 4.826899e+002
2.629236e+002, 4.817370e+002
2.634058e+002, 4.812730e+002
2.638879e+002, 4.815382e+002
2.643700e+002, 4.818885e+002
2.648521e+002, 4.817512e+002
2.653342e+002, 4.809191e+002
2.658163e+002, 4.803158e+002
2.662985e+002, 4.801248e+002
2.667806e+002, 4.802763e+002
2.672627e+002, 4.803844e+002
2.677448e+002, 4.804343e+002
2.682269e+002, 4.804612e+002
2.687090e+002, 4.804949e+002
2.691912e+002, 4.805448e+002
2.696733e+002, 4.805171e+002
2.701554e+002, 4.803166e+002
2.706375e+002, 4.800408e+002
2.711196e+002, 4.801659e+002
2.716017e+002, 4.808293e+002
2.720839e+002, 4.814998e+002
2.725660e+002, 4.817576e+002
2.730481e+002, 4.815213e+002
2.735302e+002, 4.814308e+002
2.740123e+002, 4.815848e+002
2.744944e+002, 4.819038e+002
2.749766e+002, 4.821324e+002
2.754587e+002, 4.822339e+002
2.759408e+002, 4.824037e+002
2.764229e+002, 4.828892e+002
2.769050e+002, 4.837581e+002
2.773871e+002, 4.840975e+002
2.778693e+002, 4.836715e+002
2.783514e+002, 4.828875e+002
2.788335e+002, 4.826517e+002
2.793156e+002, 4.830175e+002
2.797977e+002, 4.836084e+002
2.802798e+002, 4.842717e+002
2.807620e+002, 4.850013e+002
2.812441e+002, 4.857144e+002
2.817262e+002, 4.864118e+002
2.822083e+002, 4.870717e+002
2.826904e+002, 4.876167e+002
2.831725e+002, 4.880310e+002
2.836547e+002, 4.885026e+002
2.841368e+002, 4.891536e+002
2.846189e+002, 4.899611e+002
2.851010e+002, 4.907263e+002
2.855831e+002, 4.914301e+002
2.860652e+002, 4.921294e+002
2.865474e+002, 4.929611e+002
2.870295e+002, 4.939203e+002
2.875116e+002, 4.947637e+002
2.879937e+002, 4.951569e+002
2.884758e+002, 4.952684e+002
2.889579e+002, 4.961524e+002
2.894401e+002, 4.979199e+002
2.899222e+002, 4.999240e+002
2.904043e+002, 5.014122e+002
2.908864e+002, 5.024284e+002
2.913685e+002, 5.033253e+002
2.918506e+002, 5.043854e+002
2.923328e+002, 5.054065e+002
2.928149e+002, 5.054378e+002
2.932970e+002, 5.043784e+002
2.937791e+002, 5.035436e+002
2.942612e+002, 5.047256e+002
2.947433e+002, 5.074215e+002
2.952255e+002, 5.096054e+002
2.957076e+002, 5.103520e+002
2.961897e+002, 5.103044e+002
2.966718e+002, 5.105614e+002
2.971539e+002, 5.111202e+002
2.976360e+002, 5.120184e+002
2.981182e+002, 5.135550e+002
2.986003e+002, 5.154607e+002
2.990824e+002, 5.170602e+002
2.995645e+002, 5.179626e+002
3.000466e+002, 5.187057e+002
3.005287e+002, 5.203424e+002
3.010109e+002, 5.227078e+002
3.014930e+002, 5.246806e+002
3.019751e+002, 5.249805e+002
3.024572e+002, 5.244154e+002
3.029393e+002, 5.243217e+002
3.034214e+002, 5.249933e+002
3.039036e+002, 5.262134e+002
3.043857e+002, 5.280547e+002
3.048678e+002, 5.303377e+002
3.053499e+002, 5.324400e+002
3.058320e+002, 5.338568e+002
3.063141e+002, 5.349151e+002
3.067963e+002, 5.359484e+002
3.072784e+002, 5.369943e+002
3.077605e+002, 5.381080e+002
3.082426e+002, 5.391684e+002
3.087247e+002, 5.403130e+002
3.092068e+002, 5.418757e+002
3.096890e+002, 5.445074e+002
3.101711e+002, 5.473422e+002
3.106532e+002, 5.495349e+002
3.111353e+002, 5.508762e+002
3.116174e+002, 5.521088e+002
3.120995e+002, 5.535632e+002
3.125817e+002, 5.552126e+002
3.130638e+002, 5.570359e+002
3.135459e+002, 5.595839e+002
3.140280e+002, 5.619019e+002
3.145101e+002, 5.632669e+002
3.149922e+002, 5.635802e+002
3.154744e+002, 5.638658e+002
3.159565e+002, 5.645520e+002
3.164386e+002, 5.655070e+002
3.169207e+002, 5.665684e+002
3.174028e+002, 5.680910e+002
3.178849e+002, 5.693707e+002
3.183671e+002, 5.702094e+002
3.188492e+002, 5.706070e+002
3.193313e+002, 5.704539e+002
3.198134e+002, 5.692349e+002
3.202955e+002, 5.676954e+002
3.207776e+002, 5.664423e+002
3.212598e+002, 5.656295e+002
3.217419e+002, 5.650620e+002
3.222240e+002, 5.648848e+002
3.227061e+002, 5.649844e+002
3.231882e+002, 5.647996e+002
3.236703e+002, 5.641765e+002
3.241525e+002, 5.632571e+002
3.246346e+002, 5.621208e+002
3.251167e+002, 5.606425e+002
3.255988e+002, 5.591201e+002
3.260809e+002, 5.573232e+002
3.265630e+002, 5.554811e+002
3.270452e+002, 5.542109e+002
3.275273e+002, 5.542689e+002
3.280094e+002, 5.543102e+002
3.284915e+002, 5.538248e+002
3.289736e+002, 5.524518e+002
3.294557e+002, 5.513732e+002
3.299379e+002, 5.506425e+002
3.304200e+002, 5.501864e+002
3.309021e+002, 5.499200e+002
3.313842e+002, 5.501182e+002
3.318663e+002, 5.501190e+002
3.323484e+002, 5.496242e+002
3.328306e+002, 5.484952e+002
3.333127e+002, 5.478139e+002
3.337948e+002, 5.477753e+002
3.342769e+002, 5.480027e+002
3.347590e+002, 5.480471e+002
3.352411e+002, 5.477014e+002
3.357233e+002, 5.476581e+002
3.362054e+002, 5.481425e+002
3.366875e+002, 5.491257e+002
3.371696e+002, 5.499766e+002
3.376517e+002, 5.506429e+002
3.381339e+002, 5.512957e+002
3.386160e+002, 5.521818e+002
3.390981e+002, 5.534662e+002
3.395802e+002, 5.541519e+002
3.400623e+002, 5.538923e+002
3.405444e+002, 5.530206e+002
3.410266e+002, 5.527263e+002
3.415087e+002, 5.530994e+002
3.419908e+002, 5.535491e+002
3.424729e+002, 5.537221e+002
3.429550e+002, 5.536105e+002
3.434371e+002, 5.533340e+002
3.439193e+002, 5.528171e+002
3.444014e+002, 5.522853e+002
3.448835e+002, 5.521240e+002
3.453656e+002, 5.523330e+002
3.458477e+002, 5.528484e+002
3.463298e+002, 5.540956e+002
3.468120e+002, 5.557412e+002
3.472941e+002, 5.561293e+002
3.477762e+002, 5.551102e+002
3.482583e+002, 5.535081e+002
3.487404e+002, 5.520720e+002
3.492225e+002, 5.508324e+002
3.497047e+002, 5.499111e+002
3.501868e+002, 5.495408e+002
3.506689e+002, 5.494369e+002
3.511510e+002, 5.490833e+002
3.516331e+002, 5.484818e+002
3.521152e+002, 5.478134e+002
3.525974e+002, 5.473713e+002
3.530795e+002, 5.469474e+002
3.535616e+002, 5.461206e+002
3.540437e+002, 5.445526e+002
3.545258e+002, 5.428243e+002
3.550079e+002, 5.417141e+002
3.554901e+002, 5.410385e+002
3.559722e+002, 5.399542e+002
3.564543e+002, 5.373163e+002
3.569364e+002, 5.343115e+002
3.574185e+002, 5.321701e+002
3.579006e+002, 5.312982e+002
3.583828e+002, 5.308236e+002
3.588649e+002, 5.305304e+002
3.593470e+002, 5.302281e+002
3.598291e+002, 5.295305e+002
3.603112e+002, 5.278346e+002
3.607933e+002, 5.260171e+002
3.612755e+002, 5.246111e+002
3.617576e+002, 5.237165e+002
3.622397e+002, 5.228359e+002
3.627218e+002, 5.218073e+002
3.632039e+002, 5.206777e+002
3.636860e+002, 5.195002e+002
3.641682e+002, 5.179550e+002
3.646503e+002, 5.166766e+002
3.651324e+002, 5.160413e+002
3.656145e+002, 5.160128e+002
3.660966e+002, 5.158069e+002
3.665787e+002, 5.153393e+002
3.670609e+002, 5.146296e+002
3.675430e+002, 5.136905e+002
3.680251e+002, 5.118510e+002
3.685072e+002, 5.105813e+002
3.689893e+002, 5.104841e+002
3.694714e+002, 5.111136e+002
3.699536e+002, 5.109858e+002
3.704357e+002, 5.093892e+002
3.709178e+002, 5.077850e+002
3.713999e+002, 5.067840e+002
3.718820e+002, 5.066472e+002
3.723641e+002, 5.064478e+002
3.728463e+002, 5.063052e+002
3.733284e+002, 5.060220e+002
3.738105e+002, 5.051840e+002
3.742926e+002, 5.033974e+002
3.747747e+002, 5.019528e+002
3.752568e+002, 5.014041e+002
3.757390e+002, 5.017611e+002
3.762211e+002, 5.012327e+002
3.767032e+002, 4.994667e+002
3.771853e+002, 4.975237e+002
3.776674e+002, 4.964125e+002
3.781495e+002, 4.962038e+002
3.786317e+002, 4.962177e+002
3.791138e+002, 4.964819e+002
3.795959e+002, 4.967881e+002
3.800780e+002, 4.963163e+002
3.805601e+002, 4.949930e+002
3.810422e+002, 4.937694e+002
3.815244e+002, 4.934758e+002
3.820065e+002, 4.939248e+002
3.824886e+002, 4.940666e+002
3.829707e+002, 4.937734e+002
3.834528e+002, 4.932397e+002
3.839349e+002, 4.926117e+002
3.844171e+002, 4.919340e+002
3.848992e+002, 4.914343e+002
3.853813e+002, 4.911885e+002
3.858634e+002, 4.911946e+002
3.863455e+002, 4.915057e+002
3.868276e+002, 4.921298e+002
3.873098e+002, 4.928293e+002
3.877919e+002, 4.934285e+002
3.882740e+002, 4.939573e+002
3.887561e+002, 4.944654e+002
3.892382e+002, 4.949210e+002
3.897203e+002, 4.954018e+002
3.902025e+002, 4.961016e+002
3.906846e+002, 4.969270e+002
3.911667e+002, 4.974698e+002
3.916488e+002, 4.971334e+002
3.921309e+002, 4.966056e+002
3.926130e+002, 4.965331e+002
3.930952e+002, 4.973306e+002
3.935773e+002, 4.979523e+002
3.940594e+002, 4.977175e+002
3.945415e+002, 4.970267e+002
3.950236e+002, 4.966220e+002
3.955057e+002, 4.971876e+002
3.959879e+002, 4.976905e+002
3.964700e+002, 4.975879e+002
3.969521e+002, 4.966991e+002
3.974342e+002, 4.961837e+002
3.979163e+002, 4.965645e+002
3.983984e+002, 4.972375e+002
3.988806e+002, 4.976508e+002
3.993627e+002, 4.975663e+002
3.998448e+002, 4.974501e+002
4.003269e+002, 4.973540e+002
4.008090e+002, 4.972681e+002
4.012911e+002, 4.971154e+002
4.017733e+002, 4.967148e+002
4.022554e+002, 4.964554e+002
4.027375e+002, 4.965804e+002
4.032196e+002, 4.973167e+002
4.037017e+002, 4.978725e+002
4.041838e+002, 4.982124e+002
4.046660e+002, 4.983872e+002
4.051481e+002, 4.985043e+002
4.056302e+002, 4.986021e+002
4.061123e+002, 4.984985e+002
4.065944e+002, 4.979792e+002
4.070765e+002, 4.970853e+002
4.075587e+002, 4.967855e+002
4.080408e+002, 4.971501e+002
4.085229e+002, 4.978144e+002
4.090050e+002, 4.984948e+002
4.094871e+002, 4.991749e+002
4.099692e+002, 4.996944e+002
4.104514e+002, 4.999435e+002
4.109335e+002, 5.000891e+002
4.114156e+002, 5.006254e+002
4.118977e+002, 5.014944e+002
4.123798e+002, 5.021007e+002
4.128619e+002, 5.016483e+002
4.133441e+002, 5.007241e+002
