##NAMES=Marialite
##RRUFFID=R040043
##IDEAL CHEMISTRY=Na_4_Al_3_Si_9_O_24_Cl
##LOCALITY=Gouverneur, New York, USA
##OWNER=RRUFF
##SOURCE=University of Arizona Mineral Museum
##DESCRIPTION=White prismatic crystals
##STATUS=The identification of this mineral has been confirmed by X-ray diffraction and chemical analysis
##URL=rruff.info/R040043
##MEASURED CHEMISTRY=(Na_.493_Ca_.446_K_.061_)_4_(Si_.634_Al_.366_)_12_O_24_((CO_3_)_.581_Cl_.419_)
112.8500, 773.8078
113.3322, 835.0579
113.8143, 905.8810
114.2964, 983.2420
114.7785, 1067.291
115.2606, 1164.546
115.7427, 1246.343
116.2248, 1298.442
116.7070, 1331.760
117.1891, 1358.359
117.6712, 1389.331
118.1533, 1408.762
118.6354, 1369.446
119.1175, 1223.548
119.5997, 1106.232
120.0818, 1055.342
120.5639, 1055.995
121.0460, 1090.225
121.5281, 1151.410
122.0102, 1236.840
122.4924, 1332.750
122.9745, 1425.295
123.4566, 1547.781
123.9387, 1711.877
124.4208, 1910.225
124.9029, 2132.160
125.3851, 2375.765
125.8672, 2641.257
126.3493, 2882.626
126.8314, 3076.423
127.3135, 3267.190
127.7956, 3451.401
128.2778, 3641.012
128.7599, 3863.388
129.2420, 4146.473
129.7241, 4499.581
130.2062, 4842.178
130.6884, 5205.126
131.1705, 5534.014
131.6526, 5853.363
132.1347, 6132.840
132.6168, 6285.851
133.0989, 6207.324
133.5811, 5827.055
134.0632, 5442.246
134.5453, 5004.638
135.0274, 4598.841
135.5095, 4269.368
135.9916, 4023.857
136.4738, 3845.718
136.9559, 3718.320
137.4380, 3655.677
137.9201, 3622.659
138.4022, 3613.724
138.8843, 3634.604
139.3665, 3692.472
139.8486, 3787.982
140.3307, 3913.376
140.8128, 4056.905
141.2949, 4219.830
141.7770, 4405.898
142.2592, 4619.560
142.7413, 4853.462
143.2234, 5102.970
143.7055, 5366.099
144.1876, 5640.513
144.6697, 5922.703
145.1518, 6199.936
145.6340, 6513.716
146.1161, 6910.770
146.5982, 7336.182
147.0803, 7717.924
147.5624, 8034.849
148.0445, 8300.236
148.5267, 8539.198
149.0088, 8771.313
149.4909, 8940.311
149.9730, 9010.017
150.4551, 9009.475
150.9372, 8988.681
151.4194, 8960.027
151.9015, 8928.230
152.3836, 8901.693
152.8657, 8879.509
153.3478, 8862.528
153.8299, 8849.085
154.3121, 8840.895
154.7942, 8843.632
155.2763, 8861.823
155.7584, 8889.255
156.2405, 8912.154
156.7226, 8925.873
157.2048, 8946.383
157.6869, 8976.790
158.1690, 9018.944
158.6511, 9084.149
159.1332, 9185.279
159.6153, 9304.142
160.0975, 9409.214
160.5796, 9502.052
161.0617, 9579.230
161.5438, 9639.872
162.0259, 9683.341
162.5080, 9707.554
162.9902, 9711.444
163.4723, 9692.332
163.9544, 9651.745
164.4365, 9586.585
164.9186, 9507.362
165.4007, 9422.495
165.8829, 9331.647
166.3650, 9229.794
166.8471, 9115.769
167.3292, 8988.432
167.8113, 8845.476
168.2934, 8682.765
168.7756, 8515.729
169.2577, 8361.463
169.7398, 8220.394
170.2219, 8072.852
170.7040, 7905.861
171.1861, 7731.888
171.6683, 7562.517
172.1504, 7398.451
172.6325, 7242.883
173.1146, 7099.671
173.5967, 6968.929
174.0788, 6846.465
174.5610, 6733.965
175.0431, 6626.521
175.5252, 6518.281
176.0073, 6405.148
176.4894, 6298.280
176.9715, 6209.216
177.4537, 6138.740
177.9358, 6079.442
178.4179, 6031.046
178.9000, 5992.603
179.3821, 5965.397
179.8642, 5951.209
180.3464, 5943.228
180.8285, 5931.690
181.3106, 5914.626
181.7927, 5905.561
182.2748, 5913.999
182.7569, 5930.608
183.2391, 5950.642
183.7212, 5974.136
184.2033, 5995.547
184.6854, 6004.519
185.1675, 5997.153
185.6496, 5997.602
186.1318, 6014.887
186.6139, 6043.167
187.0960, 6083.142
187.5781, 6137.432
188.0602, 6191.165
188.5423, 6229.259
189.0245, 6252.565
189.5066, 6254.716
189.9887, 6206.104
190.4708, 6149.936
190.9529, 6120.514
191.4350, 6128.705
191.9172, 6148.626
192.3993, 6146.665
192.8814, 6118.006
193.3635, 6090.968
193.8456, 6072.843
194.3277, 6059.424
194.8099, 6051.018
195.2920, 6048.395
195.7741, 6042.462
196.2562, 6017.054
196.7383, 5965.754
197.2204, 5927.250
197.7026, 5929.114
198.1847, 5936.827
198.6668, 5924.739
199.1489, 5886.867
199.6310, 5844.146
200.1131, 5822.973
200.5953, 5827.600
201.0774, 5828.918
201.5595, 5815.648
202.0416, 5799.859
202.5237, 5788.413
203.0058, 5782.523
203.4880, 5780.119
203.9701, 5781.213
204.4522, 5787.128
204.9343, 5786.422
205.4164, 5774.358
205.8985, 5756.027
206.3807, 5734.726
206.8628, 5710.664
207.3449, 5680.788
207.8270, 5639.494
208.3091, 5585.514
208.7912, 5534.287
209.2734, 5492.005
209.7555, 5450.129
210.2376, 5400.092
210.7197, 5342.397
211.2018, 5291.079
211.6839, 5262.962
212.1661, 5258.819
212.6482, 5250.659
213.1303, 5226.677
213.6124, 5205.951
214.0945, 5201.945
214.5766, 5213.660
215.0588, 5228.489
215.5409, 5235.360
216.0230, 5234.655
216.5051, 5237.449
216.9872, 5246.632
217.4693, 5257.837
217.9515, 5269.162
218.4336, 5280.367
218.9157, 5290.947
219.3978, 5301.437
219.8799, 5311.501
220.3620, 5319.241
220.8442, 5332.197
221.3263, 5331.550
221.8084, 5300.794
222.2905, 5247.272
222.7726, 5196.164
223.2547, 5166.762
223.7369, 5153.784
224.2190, 5131.047
224.7011, 5094.964
225.1832, 5052.982
225.6653, 5005.465
226.1474, 4955.554
226.6296, 4910.954
227.1117, 4880.617
227.5938, 4858.520
228.0759, 4827.776
228.5580, 4788.603
229.0401, 4739.794
229.5223, 4675.149
230.0044, 4601.674
230.4865, 4531.970
230.9686, 4468.969
231.4507, 4414.069
231.9328, 4372.711
232.4150, 4350.066
232.8971, 4325.376
233.3792, 4282.084
233.8613, 4230.644
234.3434, 4185.148
234.8255, 4153.006
235.3077, 4125.983
235.7898, 4092.356
236.2719, 4051.108
236.7540, 4009.000
237.2361, 3961.409
237.7182, 3917.632
238.2004, 3892.052
238.6825, 3895.705
239.1646, 3905.266
239.6467, 3896.442
240.1288, 3869.023
240.6109, 3840.143
241.0931, 3814.970
241.5752, 3793.280
242.0573, 3773.722
242.5394, 3755.102
243.0215, 3741.236
243.5036, 3737.691
243.9858, 3742.967
244.4679, 3745.136
244.9500, 3735.286
245.4321, 3725.785
245.9142, 3735.177
246.3963, 3767.262
246.8785, 3801.565
247.3606, 3826.624
247.8427, 3845.157
248.3248, 3865.310
248.8069, 3888.420
249.2890, 3915.262
249.7712, 3944.755
250.2533, 3974.880
250.7354, 4018.057
251.2175, 4084.355
251.6996, 4164.990
252.1817, 4245.720
252.6639, 4323.394
253.1460, 4400.590
253.6281, 4476.236
254.1102, 4549.147
254.5923, 4641.863
255.0744, 4769.071
255.5566, 4913.491
256.0387, 5056.222
256.5208, 5194.188
257.0029, 5333.045
257.4850, 5476.711
257.9671, 5625.646
258.4492, 5781.730
258.9314, 5959.172
259.4135, 6132.811
259.8956, 6287.945
260.3777, 6423.567
260.8598, 6540.713
261.3419, 6642.314
261.8241, 6725.936
262.3062, 6784.258
262.7883, 6833.594
263.2704, 6845.333
263.7525, 6797.444
264.2346, 6700.021
264.7168, 6580.471
265.1989, 6453.815
265.6810, 6318.025
266.1631, 6164.335
266.6452, 5988.125
267.1273, 5801.453
267.6095, 5593.946
268.0916, 5380.301
268.5737, 5183.195
269.0558, 5012.983
269.5379, 4860.771
270.0201, 4708.306
270.5022, 4537.074
270.9843, 4388.848
271.4664, 4274.672
271.9485, 4178.152
272.4306, 4084.068
272.9128, 3988.414
273.3949, 3895.317
273.8770, 3811.934
274.3591, 3739.903
274.8412, 3674.780
275.3233, 3615.498
275.8055, 3562.625
276.2876, 3519.544
276.7697, 3484.521
277.2518, 3450.097
277.7339, 3406.010
278.2160, 3347.907
278.6982, 3307.461
279.1803, 3300.730
279.6624, 3296.113
280.1445, 3282.624
280.6266, 3261.436
281.1087, 3238.413
281.5909, 3217.514
282.0730, 3198.630
282.5551, 3180.890
283.0372, 3161.638
283.5193, 3147.169
284.0014, 3139.420
284.4836, 3137.141
284.9657, 3138.586
285.4478, 3142.896
285.9299, 3150.405
286.4120, 3162.375
286.8941, 3180.560
287.3763, 3199.237
287.8584, 3212.549
288.3405, 3227.708
288.8226, 3250.405
289.3047, 3281.986
289.7868, 3323.745
290.2690, 3378.802
290.7511, 3447.893
291.2332, 3522.376
291.7153, 3604.183
292.1974, 3687.786
292.6795, 3768.066
293.1617, 3844.573
293.6438, 3922.759
294.1259, 4003.592
294.6080, 4088.077
295.0901, 4186.815
295.5722, 4313.491
296.0544, 4433.810
296.5365, 4531.313
297.0186, 4604.457
297.5007, 4634.434
297.9828, 4606.816
298.4649, 4533.986
298.9471, 4427.008
299.4292, 4281.271
299.9113, 4131.256
300.3934, 3999.330
300.8755, 3883.476
301.3576, 3775.500
301.8398, 3673.140
302.3219, 3580.137
302.8040, 3500.387
303.2861, 3433.096
303.7682, 3373.532
304.2503, 3318.527
304.7325, 3270.102
305.2146, 3234.121
305.6967, 3217.403
306.1788, 3201.397
306.6609, 3178.855
307.1430, 3153.277
307.6252, 3130.849
308.1073, 3113.983
308.5894, 3099.817
309.0715, 3083.739
309.5536, 3065.299
310.0357, 3045.188
310.5179, 3018.470
311.0000, 2993.108
311.4821, 2976.824
311.9642, 2970.104
312.4463, 2967.611
312.9284, 2964.720
313.4106, 2962.984
313.8927, 2951.419
314.3748, 2913.977
314.8569, 2883.741
315.3390, 2882.426
315.8211, 2900.439
316.3033, 2912.781
316.7854, 2901.702
317.2675, 2871.235
317.7496, 2846.938
318.2317, 2826.222
318.7138, 2816.493
319.1960, 2824.674
319.6781, 2841.662
320.1602, 2858.234
320.6423, 2870.820
321.1244, 2879.690
321.6065, 2883.610
322.0887, 2879.190
322.5708, 2880.804
323.0529, 2899.582
323.5350, 2919.187
324.0171, 2927.008
324.4992, 2922.322
324.9814, 2917.563
325.4635, 2927.078
325.9456, 2948.975
326.4277, 2959.951
326.9098, 2952.749
327.3919, 2941.662
327.8741, 2934.447
328.3562, 2931.186
328.8383, 2932.483
329.3204, 2943.835
329.8025, 2957.968
330.2846, 2960.780
330.7668, 2950.569
331.2489, 2942.729
331.7310, 2948.160
332.2131, 2962.244
332.6952, 2973.456
333.1773, 2983.273
333.6595, 2987.240
334.1416, 2978.753
334.6237, 2961.424
335.1058, 2946.485
335.5879, 2937.781
336.0700, 2934.316
336.5522, 2935.407
337.0343, 2943.273
337.5164, 2948.886
337.9985, 2950.834
338.4806, 2949.713
338.9627, 2945.676
339.4449, 2938.885
339.9270, 2929.841
340.4091, 2917.623
340.8912, 2899.625
341.3733, 2895.846
341.8554, 2920.823
342.3376, 2943.544
342.8197, 2945.541
343.3018, 2933.611
343.7839, 2925.086
344.2660, 2930.724
344.7481, 2948.750
345.2303, 2971.125
345.7124, 3003.425
346.1945, 3032.131
346.6766, 3053.185
347.1587, 3071.360
347.6408, 3090.322
348.1230, 3111.487
348.6051, 3136.299
349.0872, 3166.786
349.5693, 3203.320
350.0514, 3244.484
350.5335, 3296.628
351.0157, 3347.976
351.4978, 3391.490
351.9799, 3428.141
352.4620, 3463.429
352.9441, 3498.733
353.4262, 3535.532
353.9084, 3579.129
354.3905, 3631.039
354.8726, 3685.989
355.3547, 3738.285
355.8368, 3791.624
356.3189, 3853.396
356.8011, 3934.210
357.2832, 4012.949
357.7653, 4070.260
358.2474, 4108.213
358.7295, 4141.843
359.2116, 4180.701
359.6938, 4213.226
360.1759, 4215.149
360.6580, 4182.159
361.1401, 4142.870
361.6222, 4106.882
362.1043, 4067.563
362.5865, 4018.461
363.0686, 3957.941
363.5507, 3883.971
364.0328, 3792.056
364.5149, 3678.401
364.9970, 3578.700
365.4792, 3492.119
365.9613, 3417.244
366.4434, 3357.196
366.9255, 3308.194
367.4076, 3262.912
367.8897, 3216.617
368.3719, 3172.863
368.8540, 3143.563
369.3361, 3132.856
369.8182, 3131.700
370.3003, 3144.743
370.7824, 3162.165
371.2646, 3175.897
371.7467, 3184.360
372.2288, 3191.854
372.7109, 3202.306
373.1930, 3215.630
373.6751, 3233.767
374.1573, 3263.986
374.6394, 3290.006
375.1215, 3296.928
375.6036, 3293.073
376.0857, 3299.906
376.5678, 3336.256
377.0500, 3382.938
377.5321, 3406.033
378.0142, 3403.749
378.4963, 3400.530
378.9784, 3409.020
379.4605, 3422.201
379.9427, 3426.813
380.4248, 3420.024
380.9069, 3411.689
381.3890, 3405.834
381.8711, 3401.762
382.3532, 3398.749
382.8354, 3396.810
383.3175, 3394.285
383.7996, 3391.055
384.2817, 3388.933
384.7638, 3371.262
385.2459, 3316.022
385.7281, 3265.348
386.2102, 3252.638
386.6923, 3266.101
387.1744, 3268.866
387.6565, 3236.984
388.1386, 3180.406
388.6208, 3141.250
389.1029, 3141.492
389.5850, 3128.606
390.0671, 3084.030
390.5492, 3033.271
391.0313, 2999.828
391.5135, 2988.348
391.9956, 2984.727
392.4777, 2973.271
392.9598, 2953.243
393.4419, 2934.611
393.9240, 2918.275
394.4062, 2902.609
394.8883, 2886.600
395.3704, 2870.684
395.8525, 2855.664
396.3346, 2840.515
396.8167, 2827.730
397.2989, 2824.204
397.7810, 2830.413
398.2631, 2829.923
398.7452, 2811.882
399.2273, 2786.774
399.7094, 2772.322
400.1916, 2770.496
400.6737, 2771.679
401.1558, 2776.048
401.6379, 2779.773
402.1200, 2776.048
402.6021, 2763.855
403.0843, 2749.434
403.5664, 2737.513
404.0485, 2727.840
404.5306, 2728.115
405.0127, 2745.834
405.4948, 2764.106
405.9770, 2775.445
406.4591, 2782.954
406.9412, 2792.712
407.4233, 2807.497
407.9054, 2825.353
408.3875, 2840.459
408.8697, 2846.167
409.3518, 2864.392
409.8339, 2904.513
410.3160, 2950.045
410.7981, 2989.389
411.2802, 3023.497
411.7624, 3062.205
412.2445, 3116.946
412.7266, 3182.481
413.2087, 3236.902
413.6908, 3275.727
414.1729, 3314.473
414.6551, 3360.945
415.1372, 3412.166
415.6193, 3465.792
416.1014, 3521.952
416.5835, 3578.340
417.0656, 3632.633
417.5478, 3685.594
418.0299, 3742.215
418.5120, 3806.841
418.9941, 3865.074
419.4762, 3899.471
419.9583, 3906.845
420.4405, 3904.770
420.9226, 3894.842
421.4047, 3874.739
421.8868, 3839.066
422.3689, 3791.642
422.8510, 3742.882
423.3332, 3699.427
423.8153, 3657.747
424.2974, 3605.617
424.7795, 3525.365
425.2616, 3464.011
425.7437, 3430.025
426.2259, 3410.451
426.7080, 3399.401
427.1901, 3394.031
427.6722, 3388.791
428.1543, 3376.575
428.6364, 3358.750
429.1186, 3348.053
429.6007, 3343.700
430.0828, 3348.350
430.5649, 3370.945
431.0470, 3400.929
431.5291, 3421.753
432.0113, 3423.919
432.4934, 3427.550
432.9755, 3448.310
433.4576, 3484.274
433.9397, 3530.329
434.4218, 3587.405
434.9040, 3647.612
435.3861, 3699.803
435.8682, 3742.110
436.3503, 3791.243
436.8324, 3850.317
437.3145, 3914.700
437.7967, 3980.498
438.2788, 4048.946
438.7609, 4122.586
439.2430, 4203.517
439.7251, 4291.618
440.2072, 4387.077
440.6894, 4489.862
441.1715, 4601.546
441.6536, 4720.146
442.1357, 4848.237
442.6178, 4984.040
443.0999, 5129.720
443.5821, 5294.205
444.0642, 5486.421
444.5463, 5704.357
445.0284, 5931.897
445.5105, 6163.991
445.9926, 6418.387
446.4748, 6699.189
446.9569, 7010.339
447.4390, 7357.921
447.9211, 7738.832
448.4032, 8168.150
448.8853, 8693.528
449.3675, 9269.617
449.8496, 9801.902
450.3317, 10263.56
450.8138, 10706.37
451.2959, 11186.71
451.7780, 11709.98
452.2602, 12180.11
452.7423, 12607.07
453.2244, 12971.42
453.7065, 13254.69
454.1886, 13471.44
454.6707, 13644.04
455.1528, 13781.28
455.6349, 13886.72
456.1171, 13964.73
456.5992, 14010.13
457.0813, 14042.96
457.5634, 14064.55
458.0455, 14072.39
458.5276, 14077.63
459.0098, 14068.96
459.4919, 14015.12
459.9740, 13893.37
460.4561, 13720.63
460.9382, 13531.22
461.4203, 13325.67
461.9025, 13076.65
462.3846, 12767.94
462.8667, 12412.34
463.3488, 12026.09
463.8309, 11602.14
464.3130, 11191.06
464.7952, 10819.53
465.2773, 10461.34
465.7594, 10094.65
466.2415, 9716.961
466.7236, 9329.354
467.2057, 8928.532
467.6879, 8522.133
468.1700, 8151.245
468.6521, 7842.438
469.1342, 7539.113
469.6163, 7226.559
470.0984, 6923.064
470.5806, 6641.823
471.0627, 6387.243
471.5448, 6152.773
472.0269, 5937.308
472.5090, 5738.804
472.9911, 5546.083
473.4733, 5355.022
473.9554, 5175.040
474.4375, 5008.078
474.9196, 4855.743
475.4017, 4725.919
475.8839, 4625.204
476.3660, 4532.158
476.8481, 4433.090
477.3302, 4331.834
477.8123, 4237.516
478.2944, 4152.243
478.7766, 4071.424
479.2587, 3991.050
479.7408, 3910.677
480.2229, 3838.373
480.7050, 3779.264
481.1871, 3721.058
481.6693, 3658.029
482.1514, 3594.641
482.6335, 3539.199
483.1156, 3494.362
483.5977, 3451.296
484.0798, 3392.677
484.5620, 3313.334
485.0441, 3259.857
485.5262, 3257.190
486.0083, 3250.819
486.4904, 3209.130
486.9725, 3144.376
487.4547, 3081.006
487.9368, 3022.933
488.4189, 2975.318
488.9010, 2950.412
489.3831, 2942.403
489.8652, 2925.712
490.3474, 2891.013
490.8295, 2854.217
491.3116, 2836.319
491.7937, 2843.304
492.2758, 2835.957
492.7579, 2801.772
493.2401, 2766.073
493.7222, 2741.716
494.2043, 2724.756
494.6864, 2705.787
495.1685, 2680.591
495.6506, 2652.975
496.1328, 2629.917
496.6149, 2612.356
497.0970, 2594.797
497.5791, 2574.572
498.0612, 2556.819
498.5433, 2546.188
499.0255, 2540.142
499.5076, 2531.714
499.9897, 2514.622
500.4718, 2498.045
500.9539, 2498.675
501.4360, 2512.010
501.9182, 2508.458
502.4003, 2474.282
502.8824, 2431.675
503.3645, 2410.910
503.8466, 2417.594
504.3287, 2421.416
504.8109, 2421.976
505.2930, 2419.360
505.7751, 2410.304
506.2572, 2398.573
506.7393, 2391.073
507.2214, 2391.167
507.7036, 2396.892
508.1857, 2407.166
508.6678, 2426.504
509.1499, 2431.952
509.6320, 2407.469
510.1141, 2382.695
510.5963, 2373.344
511.0784, 2376.244
511.5605, 2381.395
512.0426, 2385.049
512.5247, 2389.061
513.0068, 2394.738
513.4890, 2402.341
513.9711, 2414.349
514.4532, 2432.752
514.9353, 2451.318
515.4174, 2460.198
515.8995, 2455.284
516.3817, 2461.074
516.8638, 2485.607
517.3459, 2512.443
517.8280, 2531.884
518.3101, 2548.259
518.7922, 2570.709
519.2744, 2603.252
519.7565, 2639.783
520.2386, 2668.170
520.7207, 2685.209
521.2028, 2716.309
521.6849, 2770.386
522.1671, 2829.964
522.6492, 2880.463
523.1313, 2928.711
523.6134, 2991.310
524.0955, 3075.693
524.5776, 3171.799
525.0598, 3270.867
525.5419, 3375.739
526.0240, 3493.271
526.5061, 3625.493
526.9882, 3770.928
527.4703, 3923.804
527.9525, 4081.671
528.4346, 4282.232
528.9167, 4568.424
529.3988, 4841.005
529.8809, 5059.622
530.3630, 5252.044
530.8452, 5451.000
531.3273, 5667.391
531.8094, 5905.696
532.2915, 6184.271
532.7736, 6499.936
533.2557, 6792.865
533.7379, 7065.568
534.2200, 7304.230
534.7021, 7506.722
535.1842, 7666.730
535.6663, 7769.246
536.1484, 7816.551
536.6306, 7798.034
537.1127, 7694.725
537.5948, 7528.751
538.0769, 7326.920
538.5590, 7094.456
539.0411, 6829.293
539.5233, 6522.681
540.0054, 6182.742
540.4875, 5865.584
540.9696, 5575.599
541.4517, 5307.742
541.9338, 5065.291
542.4160, 4841.990
542.8981, 4632.230
543.3802, 4435.571
543.8623, 4249.212
544.3444, 4069.305
544.8265, 3898.805
545.3087, 3744.520
545.7908, 3606.017
546.2729, 3481.361
546.7550, 3370.752
547.2371, 3272.092
547.7192, 3182.345
548.2014, 3101.064
548.6835, 3026.837
549.1656, 2962.821
549.6477, 2903.332
550.1298, 2843.159
550.6119, 2784.187
551.0941, 2732.590
551.5762, 2692.328
552.0583, 2658.799
552.5404, 2622.200
553.0225, 2581.193
553.5046, 2544.911
553.9868, 2518.541
554.4689, 2492.939
554.9510, 2460.294
555.4331, 2423.363
555.9152, 2389.939
556.3973, 2357.756
556.8795, 2335.323
557.3616, 2337.038
557.8437, 2352.542
558.3258, 2358.105
558.8079, 2347.329
559.2900, 2327.664
559.7722, 2305.560
560.2543, 2280.265
560.7364, 2264.701
561.2185, 2273.765
561.7006, 2275.263
562.1827, 2255.761
562.6649, 2229.279
563.1470, 2210.713
563.6291, 2203.181
564.1112, 2200.924
564.5933, 2201.450
565.0754, 2203.153
565.5576, 2202.377
566.0397, 2199.341
566.5218, 2188.966
567.0039, 2164.561
567.4860, 2133.990
567.9681, 2117.590
568.4503, 2121.075
568.9324, 2122.212
569.4145, 2113.340
569.8966, 2105.148
570.3787, 2107.862
570.8608, 2118.338
571.3430, 2126.643
571.8251, 2127.159
572.3072, 2121.641
572.7893, 2111.232
573.2714, 2093.998
573.7535, 2086.692
574.2357, 2100.809
574.7178, 2113.698
575.1999, 2104.063
575.6820, 2079.142
576.1641, 2061.666
576.6462, 2060.958
577.1284, 2064.198
577.6105, 2063.053
578.0926, 2060.832
578.5747, 2063.788
579.0568, 2073.150
579.5389, 2085.379
580.0211, 2098.104
580.5032, 2110.964
580.9853, 2113.964
581.4674, 2100.150
581.9495, 2086.997
582.4316, 2076.202
582.9138, 2068.957
583.3959, 2067.682
583.8780, 2072.149
584.3601, 2076.484
584.8422, 2078.031
585.3243, 2076.871
585.8065, 2070.812
586.2886, 2060.969
586.7707, 2056.452
587.2528, 2062.177
587.7349, 2071.991
588.2170, 2074.688
588.6992, 2066.005
589.1813, 2063.134
589.6634, 2072.697
590.1455, 2080.478
590.6276, 2077.532
591.1097, 2069.689
591.5919, 2068.264
592.0740, 2077.817
592.5561, 2086.303
593.0382, 2077.535
593.5203, 2055.516
594.0024, 2037.696
594.4846, 2025.095
594.9667, 2020.025
595.4488, 2027.069
595.9309, 2041.780
596.4130, 2048.289
596.8951, 2043.277
597.3773, 2037.023
597.8594, 2028.304
598.3415, 2021.038
598.8236, 2020.141
599.3057, 2023.763
599.7878, 2024.851
600.2700, 2018.442
600.7521, 2009.507
601.2342, 2009.147
601.7163, 2018.050
602.1984, 2025.600
602.6805, 2031.119
603.1627, 2032.957
603.6448, 2025.748
604.1269, 2012.683
604.6090, 2007.575
605.0911, 2016.349
605.5732, 2028.038
606.0554, 2040.911
606.5375, 2052.775
607.0196, 2060.813
607.5017, 2064.628
607.9838, 2065.533
608.4659, 2064.428
