##NAMES=Marialite
##RRUFFID=R050123
##IDEAL CHEMISTRY=Na_4_Al_3_Si_9_O_24_Cl
##LOCALITY=Pakistan
##OWNER=RRUFF
##SOURCE=Syed Shah
##DESCRIPTION=Purple fragment
##STATUS=The identification of this mineral has been confirmed by X-ray diffraction and chemical analysis
##URL=rruff.info/R050123
##MEASURED CHEMISTRY=(Na_0.88_Ca_0.07_K_0.05_)_4_Al_3.00_Si_9.00_O_24_Cl_0.97
122.5448, 151.5234
123.0269, 151.7054
123.5090, 150.9078
123.9911, 150.7126
124.4732, 151.2000
124.9554, 152.0553
125.4375, 153.3130
125.9196, 154.8828
126.4017, 156.4188
126.8838, 157.4716
127.3659, 157.7490
127.8481, 158.3992
128.3302, 159.8010
128.8123, 161.4387
129.2944, 162.6270
129.7765, 163.0937
130.2586, 163.4850
130.7408, 164.9637
131.2229, 167.5327
131.7050, 170.0429
132.1871, 171.9100
132.6692, 173.3132
133.1513, 174.9351
133.6335, 177.0129
134.1156, 179.3676
134.5977, 181.8316
135.0798, 184.4223
135.5619, 186.9697
136.0440, 189.1704
136.5262, 190.9206
137.0083, 193.0636
137.4904, 196.3000
137.9725, 199.7489
138.4546, 202.8071
138.9367, 205.2734
139.4189, 207.4547
139.9010, 209.9173
140.3831, 212.7755
140.8652, 215.7185
141.3473, 218.7351
141.8294, 221.7680
142.3116, 224.8069
142.7937, 227.8740
143.2758, 230.8517
143.7579, 233.3107
144.2400, 234.4378
144.7221, 235.8750
145.2043, 238.1438
145.6864, 240.8678
146.1685, 243.3415
146.6506, 245.0857
147.1327, 246.1681
147.6148, 247.6847
148.0969, 249.9693
148.5791, 252.2620
149.0612, 254.3486
149.5433, 256.1903
150.0254, 257.6921
150.5075, 258.6239
150.9896, 259.0677
151.4718, 259.9678
151.9539, 261.8089
152.4360, 263.8407
152.9181, 265.3444
153.4002, 266.2254
153.8823, 266.9391
154.3645, 267.9302
154.8466, 269.0404
155.3287, 269.8708
155.8108, 270.3219
156.2929, 270.4007
156.7750, 270.1450
157.2572, 269.5984
157.7393, 268.5686
158.2214, 266.9318
158.7035, 264.8087
159.1856, 262.4603
159.6677, 260.2452
160.1499, 258.1149
160.6320, 255.0376
161.1141, 250.0627
161.5962, 244.9953
162.0783, 240.6633
162.5604, 236.8921
163.0426, 233.0674
163.5247, 228.5078
164.0068, 223.0140
164.4889, 217.9321
164.9710, 213.4808
165.4531, 209.2193
165.9353, 204.8740
166.4174, 200.4860
166.8995, 196.2973
167.3816, 192.6661
167.8637, 189.8364
168.3458, 186.9470
168.8279, 184.0210
169.3101, 181.0375
169.7922, 177.9268
170.2743, 174.6926
170.7564, 171.5043
171.2385, 168.5588
171.7206, 165.8654
172.2028, 163.5010
172.6849, 161.6447
173.1670, 160.0524
173.6491, 158.4306
174.1312, 156.6725
174.6133, 154.9305
175.0955, 153.5538
175.5776, 152.6021
176.0597, 151.5359
176.5418, 150.0795
177.0239, 148.3962
177.5060, 146.8503
177.9882, 145.5998
178.4703, 144.4536
178.9524, 143.1025
179.4345, 141.5214
179.9166, 139.9989
180.3987, 138.8244
180.8809, 137.9344
181.3630, 136.8303
181.8451, 135.2628
182.3272, 133.5154
182.8093, 131.8093
183.2914, 130.1620
183.7736, 128.6087
184.2557, 127.2451
184.7378, 126.1131
185.2199, 124.8531
185.7020, 123.1386
186.1841, 121.4220
186.6663, 120.0129
187.1484, 118.9692
187.6305, 118.0583
188.1126, 116.9659
188.5947, 115.6790
189.0768, 114.2460
189.5589, 112.4696
190.0411, 110.6976
190.5232, 109.1814
191.0053, 107.9951
191.4874, 106.9943
191.9695, 105.8636
192.4516, 104.2936
192.9338, 103.1519
193.4159, 102.7838
193.8980, 102.6462
194.3801, 102.2736
194.8622, 101.4885
195.3443, 100.4149
195.8265, 99.33850
196.3086, 98.21445
196.7907, 97.13622
197.2728, 95.95930
197.7549, 94.87849
198.2370, 94.14003
198.7192, 93.85168
199.2013, 93.89376
199.6834, 93.96660
200.1655, 94.13066
200.6476, 94.23737
201.1297, 94.35623
201.6119, 94.38924
202.0940, 94.10916
202.5761, 93.36117
203.0582, 92.38136
203.5403, 91.83965
204.0224, 91.96007
204.5046, 91.96544
204.9867, 91.49047
205.4688, 90.67994
205.9509, 89.90526
206.4330, 89.31885
206.9151, 88.85583
207.3973, 88.37778
207.8794, 87.87944
208.3615, 87.38622
208.8436, 86.90618
209.3257, 86.44209
209.8078, 86.00048
210.2899, 85.57799
210.7721, 85.19267
211.2542, 84.83033
211.7363, 84.46590
212.2184, 84.22436
212.7005, 84.34760
213.1826, 84.83829
213.6648, 85.03603
214.1469, 84.34788
214.6290, 83.54678
215.1111, 83.39227
215.5932, 84.03355
216.0753, 84.76306
216.5575, 84.71045
217.0396, 83.71450
217.5217, 83.01005
218.0038, 83.16309
218.4859, 83.55185
218.9680, 83.89994
219.4502, 84.13887
219.9323, 84.19646
220.4144, 83.94698
220.8965, 83.30954
221.3786, 82.62119
221.8607, 81.75819
222.3429, 80.97225
222.8250, 80.45205
223.3071, 80.22820
223.7892, 80.16837
224.2713, 80.10059
224.7534, 80.07220
225.2356, 79.91284
225.7177, 79.58421
226.1998, 79.16800
226.6819, 78.68874
227.1640, 78.16598
227.6461, 77.63725
228.1283, 77.16604
228.6104, 76.77464
229.0925, 76.40221
229.5746, 75.85339
230.0567, 75.44283
230.5388, 75.45562
231.0210, 75.93069
231.5031, 76.62453
231.9852, 77.18542
232.4673, 77.53637
232.9494, 77.88166
233.4315, 78.15881
233.9137, 78.46751
234.3958, 78.88404
234.8779, 79.42494
235.3600, 80.06013
235.8421, 80.74638
236.3242, 81.47262
236.8064, 82.30290
237.2885, 83.19202
237.7706, 84.21159
238.2527, 85.46507
238.7348, 86.96540
239.2169, 88.56360
239.6991, 90.05772
240.1812, 91.41493
240.6633, 92.83285
241.1454, 94.38076
241.6275, 95.96043
242.1096, 97.49307
242.5918, 98.95466
243.0739, 100.3869
243.5560, 101.7910
244.0381, 103.1586
244.5202, 104.6434
245.0023, 106.3599
245.4845, 108.1567
245.9666, 109.8473
246.4487, 111.4002
246.9308, 112.9598
247.4129, 114.6504
247.8950, 116.4761
248.3772, 118.4063
248.8593, 120.6028
249.3414, 122.8260
249.8235, 124.7119
250.3056, 126.1929
250.7877, 127.6911
251.2698, 129.5452
251.7520, 131.6921
252.2341, 133.9990
252.7162, 136.6666
253.1983, 139.3726
253.6804, 141.6494
254.1625, 143.4534
254.6447, 145.0746
255.1268, 146.7924
255.6089, 148.4574
256.0910, 149.7781
256.5731, 150.6545
257.0552, 151.1704
257.5374, 151.4967
258.0195, 151.6887
258.5016, 151.4176
258.9837, 150.3647
259.4658, 148.7519
259.9479, 146.7637
260.4301, 144.4935
260.9122, 141.8042
261.3943, 138.3928
261.8764, 134.1047
262.3585, 129.7467
262.8406, 125.7725
263.3228, 121.8652
263.8049, 117.7067
264.2870, 113.1639
264.7691, 108.5030
265.2512, 103.9522
265.7333, 99.37674
266.2155, 95.48816
266.6976, 93.09913
267.1797, 91.17012
267.6618, 88.96489
268.1439, 86.30739
268.6260, 83.54665
269.1082, 81.08736
269.5903, 78.94430
270.0724, 76.99207
270.5545, 75.12975
271.0366, 73.52106
271.5187, 72.36141
272.0009, 71.66013
272.4830, 71.14781
272.9651, 70.47659
273.4472, 69.57005
273.9293, 68.95065
274.4114, 69.00066
274.8936, 69.11602
275.3757, 69.03759
275.8578, 68.74050
276.3399, 68.32563
276.8220, 67.80942
277.3041, 67.14076
277.7863, 66.76059
278.2684, 66.94637
278.7505, 67.21901
279.2326, 67.45125
279.7147, 67.62080
280.1968, 67.73901
280.6789, 67.83659
281.1610, 67.91887
281.6432, 67.81329
282.1253, 67.29440
282.6074, 66.79038
283.0895, 66.41617
283.5716, 66.15701
284.0537, 65.97176
284.5359, 65.85021
285.0180, 65.77899
285.5001, 65.60049
285.9822, 65.19882
286.4643, 64.81417
286.9464, 64.51041
287.4286, 64.25871
287.9107, 63.99494
288.3928, 63.66946
288.8749, 63.32853
289.3570, 63.18716
289.8391, 63.46738
290.3213, 63.66596
290.8034, 63.65079
291.2855, 63.53654
291.7676, 63.42779
292.2497, 63.37105
292.7318, 63.39883
293.2140, 63.61411
293.6961, 64.24161
294.1782, 64.70467
294.6603, 64.95623
295.1424, 65.04072
295.6245, 65.03303
296.1067, 64.94646
296.5888, 64.68418
297.0709, 64.05440
297.5530, 62.86701
298.0351, 61.65001
298.5172, 60.44658
298.9994, 59.20262
299.4815, 57.85664
299.9636, 56.40612
300.4457, 54.90459
300.9278, 53.39781
301.4099, 51.85583
301.8921, 50.41003
302.3742, 48.97445
302.8563, 47.67215
303.3384, 46.63660
303.8205, 45.81359
304.3026, 45.01401
304.7848, 44.05285
305.2669, 42.89470
305.7490, 41.86708
306.2311, 40.81852
306.7132, 40.03761
307.1953, 39.74126
307.6775, 39.79666
308.1596, 39.93790
308.6417, 39.98890
309.1238, 39.95296
309.6059, 39.86361
310.0880, 39.60824
310.5702, 39.42194
311.0523, 39.37859
311.5344, 39.42342
312.0165, 39.49564
312.4986, 39.56784
312.9807, 39.61238
313.4629, 39.52981
313.9450, 38.96628
314.4271, 38.75399
314.9092, 39.33305
315.3913, 40.09242
315.8734, 40.35371
316.3556, 39.90676
316.8377, 39.16549
317.3198, 38.87886
317.8019, 39.30050
318.2840, 39.75663
318.7661, 40.39273
319.2483, 40.95874
319.7304, 41.20766
320.2125, 41.14445
320.6946, 41.02605
321.1767, 41.16059
321.6588, 41.62595
322.1409, 42.04778
322.6230, 42.50098
323.1052, 42.85461
323.5873, 42.95512
324.0694, 42.88158
324.5515, 42.87331
325.0336, 43.14547
325.5157, 43.69709
325.9979, 44.11144
326.4800, 44.29307
326.9621, 44.43628
327.4442, 44.54906
327.9263, 44.65966
328.4084, 44.76775
328.8906, 44.85927
329.3727, 45.00372
329.8548, 45.50637
330.3369, 46.99894
330.8190, 48.03262
331.3011, 48.11941
331.7833, 47.85294
332.2654, 47.84726
332.7475, 48.32566
333.2296, 49.06881
333.7117, 49.65334
334.1938, 49.89281
334.6760, 50.33677
335.1581, 51.18701
335.6402, 52.07258
336.1223, 52.70297
336.6044, 53.06483
337.0865, 53.38305
337.5687, 53.92894
338.0508, 54.75558
338.5329, 55.54338
339.0150, 56.24660
339.4971, 56.95228
339.9792, 57.68702
340.4614, 58.45139
340.9435, 59.25290
341.4256, 60.10649
341.9077, 61.00129
342.3898, 61.79666
342.8719, 62.41514
343.3541, 63.02479
343.8362, 63.65441
344.3183, 64.29870
344.8004, 64.92236
345.2825, 65.50074
345.7646, 66.10526
346.2468, 66.93301
346.7289, 68.09120
347.2110, 69.28587
347.6931, 70.56006
348.1752, 71.79649
348.6573, 72.82388
349.1395, 73.62881
349.6216, 74.45525
350.1037, 75.71486
350.5858, 77.58247
351.0679, 79.16406
351.5500, 80.18082
352.0322, 81.08321
352.5143, 82.04665
352.9964, 83.08086
353.4785, 84.13988
353.9606, 85.20303
354.4427, 86.26509
354.9249, 87.26681
355.4070, 88.29812
355.8891, 89.13164
356.3712, 89.68875
356.8533, 90.01905
357.3354, 90.21444
357.8176, 90.33468
358.2997, 90.32380
358.7818, 90.04694
359.2639, 89.48345
359.7460, 88.68559
360.2281, 87.58071
360.7103, 86.31424
361.1924, 85.01084
361.6745, 83.70393
362.1566, 82.28989
362.6387, 80.52283
363.1208, 78.33211
363.6029, 76.54646
364.0851, 75.59402
364.5672, 74.82640
365.0493, 73.80957
365.5314, 72.57597
366.0135, 71.41961
366.4956, 70.68344
366.9778, 70.23653
367.4599, 69.44852
367.9420, 68.20982
368.4241, 66.79480
368.9062, 65.30684
369.3883, 63.77661
369.8705, 62.22371
370.3526, 60.55929
370.8347, 58.98562
371.3168, 57.86428
371.7989, 57.25441
372.2810, 56.61538
372.7632, 55.63599
373.2453, 54.55754
373.7274, 53.68122
374.2095, 53.06197
374.6916, 52.51826
375.1737, 51.94716
375.6559, 51.34652
376.1380, 50.67873
376.6201, 49.86833
377.1022, 49.09711
377.5843, 48.61858
378.0664, 48.39581
378.5486, 48.07354
379.0307, 47.45597
379.5128, 46.68974
379.9949, 45.93800
380.4770, 45.19610
380.9591, 44.62997
381.4413, 44.46473
381.9234, 44.58271
382.4055, 44.52858
382.8876, 44.21646
383.3697, 43.77699
383.8518, 43.20629
384.3340, 42.55711
384.8161, 42.06150
385.2982, 41.87986
385.7803, 41.82449
386.2624, 41.41719
386.7445, 40.46375
387.2267, 39.79405
387.7088, 39.88945
388.1909, 40.29098
388.6730, 40.35623
389.1551, 39.94647
389.6372, 39.39100
390.1194, 39.02960
390.6015, 38.89679
391.0836, 38.80684
391.5657, 38.90236
392.0478, 38.91718
392.5299, 38.54284
393.0121, 37.91093
393.4942, 37.49903
393.9763, 37.63825
394.4584, 38.20435
394.9405, 38.53666
395.4226, 38.54337
395.9048, 38.44844
396.3869, 38.24942
396.8690, 37.97986
397.3511, 37.60439
397.8332, 37.13042
398.3153, 36.74270
398.7975, 36.74759
399.2796, 37.34187
399.7617, 37.84196
400.2438, 38.36742
400.7259, 38.71478
401.2080, 38.67491
401.6902, 38.32872
402.1723, 37.93367
402.6544, 37.67331
403.1365, 37.55145
403.6186, 37.61881
404.1007, 38.00580
404.5828, 38.44388
405.0649, 38.97406
405.5471, 39.49266
406.0292, 39.85426
406.5113, 40.00356
406.9934, 40.06963
407.4755, 40.27929
407.9576, 40.67256
408.4398, 41.09035
408.9219, 41.62660
409.4040, 42.09655
409.8861, 42.30474
410.3682, 42.31110
410.8503, 42.41339
411.3325, 42.94933
411.8146, 43.83309
412.2967, 44.36007
412.7788, 44.30836
413.2609, 44.27616
413.7430, 44.56799
414.2252, 45.02307
414.7073, 45.40347
415.1894, 45.59363
415.6715, 45.77247
416.1536, 46.17760
416.6357, 46.81577
417.1179, 47.56701
417.6000, 48.62754
418.0821, 49.57025
418.5642, 49.83515
419.0463, 49.42266
419.5284, 49.27275
420.0106, 50.14119
420.4927, 51.58892
420.9748, 52.57317
421.4569, 52.89518
421.9390, 53.26266
422.4211, 54.38004
422.9033, 55.98022
423.3854, 57.18393
423.8675, 57.46954
424.3496, 57.73265
424.8317, 58.75043
425.3138, 60.30346
425.7960, 61.53228
426.2781, 61.98789
426.7602, 62.13733
427.2423, 62.93533
427.7244, 64.52742
428.2065, 66.11258
428.6887, 67.59013
429.1708, 68.97127
429.6529, 70.16041
430.1350, 71.18738
430.6171, 72.35316
431.0992, 73.91153
431.5814, 75.85410
432.0635, 78.16692
432.5456, 80.83613
433.0277, 83.79713
433.5098, 87.10560
433.9919, 90.69506
434.4741, 94.47852
434.9562, 98.43656
435.4383, 102.5750
435.9204, 106.8824
436.4025, 111.2343
436.8846, 116.1210
437.3668, 121.7944
437.8489, 127.7046
438.3310, 133.5608
438.8131, 139.3495
439.2952, 145.1408
439.7773, 151.0327
440.2595, 156.9922
440.7416, 162.6657
441.2237, 167.7584
441.7058, 172.9861
442.1879, 178.6450
442.6700, 184.4430
443.1522, 190.0516
443.6343, 195.3653
444.1164, 200.6047
444.5985, 206.1349
445.0806, 211.9400
445.5627, 217.8315
446.0448, 223.7485
446.5269, 229.7479
447.0091, 235.8085
447.4912, 241.9763
447.9733, 248.4801
448.4554, 255.3656
448.9375, 262.7162
449.4196, 270.7981
449.9018, 279.7074
450.3839, 288.8515
450.8660, 298.2970
451.3481, 307.6053
451.8302, 316.0258
452.3123, 323.4030
452.7945, 330.3912
453.2766, 337.7388
453.7587, 344.8661
454.2408, 350.8791
454.7229, 355.6607
455.2050, 358.7213
455.6872, 359.5325
456.1693, 357.8629
456.6514, 354.4931
457.1335, 349.8865
457.6156, 343.1449
458.0977, 333.4401
458.5799, 321.1722
459.0620, 307.1718
459.5441, 291.7617
460.0262, 275.4759
460.5083, 259.9370
460.9904, 245.4947
461.4726, 231.3538
461.9547, 217.3072
462.4368, 203.7055
462.9189, 190.6903
463.4010, 178.3924
463.8831, 167.1259
464.3653, 157.2175
464.8474, 148.6145
465.3295, 140.4570
465.8116, 132.5152
466.2937, 125.3941
466.7758, 119.4922
467.2580, 114.3339
467.7401, 109.4231
468.2222, 104.6372
468.7043, 100.0370
469.1864, 95.78641
469.6685, 91.91959
470.1507, 88.01193
470.6328, 83.63905
471.1149, 79.71211
471.5970, 76.89703
472.0791, 74.88441
472.5612, 72.84690
473.0434, 70.36441
473.5255, 67.70357
474.0076, 65.17044
474.4897, 62.76002
474.9718, 60.68884
475.4539, 59.16318
475.9361, 57.92220
476.4182, 56.57542
476.9003, 55.10659
477.3824, 53.64861
477.8645, 52.23142
478.3466, 50.85360
478.8288, 49.51564
479.3109, 48.21465
479.7930, 47.02013
480.2751, 46.00834
480.7572, 45.15301
481.2393, 44.17815
481.7215, 42.77034
482.2036, 41.64087
482.6857, 41.21125
483.1678, 41.08842
483.6499, 40.71601
484.1320, 39.94261
484.6142, 39.04204
485.0963, 38.35975
485.5784, 37.91720
486.0605, 37.60292
486.5426, 37.55497
487.0247, 37.47789
487.5068, 37.26032
487.9890, 36.93663
488.4711, 36.56930
488.9532, 36.18816
489.4353, 35.80898
489.9174, 35.49214
490.3995, 35.29047
490.8817, 34.97276
491.3638, 34.32422
491.8459, 33.69174
492.3280, 33.25991
492.8101, 33.02361
493.2922, 32.88346
493.7744, 32.80818
494.2565, 32.77708
494.7386, 32.77234
495.2207, 32.81387
495.7028, 32.74367
496.1849, 32.38096
496.6671, 31.92892
497.1492, 31.73385
497.6313, 31.88279
498.1134, 31.96582
498.5955, 31.70211
499.0776, 31.28144
499.5598, 31.03347
500.0419, 31.00661
500.5240, 30.97586
501.0061, 30.72584
501.4882, 30.28729
501.9703, 30.06812
502.4525, 30.20514
502.9346, 30.37393
503.4167, 30.55728
503.8988, 30.68417
504.3809, 30.61835
504.8630, 30.33286
505.3452, 30.00081
505.8273, 29.86898
506.3094, 30.00666
506.7915, 29.98120
507.2736, 29.52777
507.7557, 29.19300
508.2379, 29.28503
508.7200, 29.58519
509.2021, 29.71291
509.6842, 29.48934
510.1663, 29.12098
510.6484, 28.90767
511.1306, 28.83451
511.6127, 29.04137
512.0948, 29.79706
512.5769, 30.58601
513.0590, 30.95439
513.5411, 31.03983
514.0233, 31.34448
514.5054, 32.14514
514.9875, 33.24458
515.4696, 34.37199
515.9517, 35.53022
516.4338, 36.82679
516.9160, 38.30436
517.3981, 39.92919
517.8802, 41.63905
518.3623, 43.37328
518.8444, 45.41300
519.3265, 48.10601
519.8087, 50.92633
520.2908, 53.45784
520.7729, 55.66616
521.2550, 57.66082
521.7371, 59.50820
522.2192, 61.20325
522.7014, 62.72320
523.1835, 63.80290
523.6656, 65.05578
524.1477, 66.54408
524.6298, 68.17757
525.1119, 69.86584
525.5941, 71.62834
526.0762, 73.56020
526.5583, 75.79185
527.0404, 78.27125
527.5225, 80.66309
528.0046, 82.93919
528.4868, 85.19805
528.9689, 87.11812
529.4510, 89.23306
529.9331, 92.14072
530.4152, 95.93102
530.8973, 99.94898
531.3795, 103.6860
531.8616, 107.2452
532.3437, 110.9497
532.8258, 114.8508
533.3079, 118.7617
533.7900, 122.6616
534.2722, 126.4732
534.7543, 130.0840
535.2364, 134.1120
535.7185, 136.9029
536.2006, 137.6930
536.6827, 136.8652
537.1649, 134.9749
537.6470, 132.1245
538.1291, 128.0821
538.6112, 122.5156
539.0933, 115.4109
539.5754, 107.9917
540.0576, 99.60444
540.5397, 91.74102
541.0218, 84.69904
541.5039, 78.31533
541.9860, 72.43039
542.4681, 66.99056
542.9503, 62.02116
543.4324, 57.53312
543.9145, 53.50460
544.3966, 50.13082
544.8787, 47.68769
545.3608, 45.50585
545.8430, 43.23126
546.3251, 41.02352
546.8072, 39.12867
547.2892, 37.64008
547.7714, 36.37043
548.2535, 35.23305
548.7356, 34.19644
549.2177, 33.08068
549.6998, 31.81888
550.1819, 30.67896
550.6641, 29.92188
551.1462, 29.51905
551.6283, 29.06256
552.1104, 28.45659
552.5925, 27.90178
553.0746, 27.52646
553.5568, 27.23566
554.0389, 26.88184
554.5210, 26.42767
555.0031, 25.94791
555.4852, 25.52165
555.9673, 25.14832
556.4495, 24.83618
556.9316, 24.71426
557.4137, 24.50492
557.8958, 24.02731
558.3779, 23.48119
558.8600, 23.11141
559.3422, 22.98840
559.8243, 22.98664
560.3064, 22.97783
560.7885, 22.96402
561.2706, 23.00252
561.7527, 23.17850
562.2349, 23.23895
562.7170, 22.86590
563.1991, 22.31347
563.6812, 22.00497
564.1633, 22.10758
564.6454, 22.22925
565.1276, 22.10444
565.6097, 21.83408
566.0918, 21.59622
566.5739, 21.42456
567.0560, 21.32306
567.5381, 21.30606
568.0203, 21.36939
568.5024, 21.41498
568.9845, 21.42293
569.4666, 21.44032
569.9487, 21.51394
570.4308, 21.58197
570.9130, 21.53209
571.3951, 21.36989
571.8772, 21.26676
572.3593, 21.43495
572.8414, 21.84578
573.3235, 22.01745
573.8057, 21.77868
574.2878, 21.60754
574.7699, 21.75764
575.2520, 21.98918
575.7341, 22.01500
576.2162, 21.78556
576.6984, 21.65232
577.1805, 22.04036
577.6626, 22.65069
578.1447, 22.77195
578.6268, 22.33009
579.1089, 21.90601
579.5911, 21.82966
580.0732, 22.01594
580.5553, 22.23412
581.0374, 22.56227
581.5195, 22.75634
582.0016, 22.66990
582.4838, 22.49890
582.9659, 22.36836
583.4480, 22.31634
583.9301, 22.41224
584.4122, 22.73000
584.8943, 23.16644
585.3765, 23.32084
585.8586, 23.00280
586.3407, 22.79714
586.8228, 22.82648
587.3049, 22.93751
587.7870, 23.10415
588.2692, 23.28003
588.7513, 23.33389
589.2334, 23.11242
589.7155, 22.80203
590.1976, 22.76029
590.6797, 22.97964
591.1619, 23.09713
591.6440, 22.98051
592.1261, 22.74243
592.6082, 22.47231
593.0903, 22.16381
593.5724, 22.02086
594.0546, 22.14667
594.5367, 22.37302
595.0188, 22.72407
595.5009, 23.07901
595.9830, 23.15313
596.4651, 22.84026
596.9473, 22.39127
597.4294, 22.20587
597.9115, 22.36917
598.3936, 22.38204
598.8757, 21.96613
599.3578, 21.69678
599.8400, 21.89988
600.3221, 22.29586
600.8042, 22.46562
601.2863, 22.26564
601.7684, 21.99601
602.2505, 21.99904
602.7327, 22.20443
603.2148, 22.28231
603.6969, 22.17677
604.1790, 22.03974
604.6611, 21.96151
605.1432, 21.93040
605.6254, 21.90381
606.1075, 21.91298
606.5896, 21.86923
607.0717, 21.66558
607.5538, 21.44246
608.0359, 21.35779
608.5181, 21.41897
609.0002, 21.54528
609.4823, 21.68466
609.9644, 21.82908
610.4465, 21.95061
610.9286, 22.08313
611.4108, 22.12277
611.8929, 21.95273
612.3750, 21.78214
612.8571, 21.74564
613.3392, 21.83146
613.8214, 21.95351
614.3035, 22.07364
614.7856, 22.19523
615.2677, 22.36616
615.7498, 22.57257
616.2319, 22.59113
616.7141, 22.27292
617.1962, 21.94369
617.6783, 22.05332
618.1604, 22.61402
618.6425, 22.91013
619.1246, 22.64184
619.6068, 22.39473
620.0889, 22.46937
