##NAMES=Marialite
##RRUFFID=R040113
##IDEAL CHEMISTRY=Na_4_Al_3_Si_9_O_24_Cl
##LOCALITY=Gouverneur, New York, USA
##OWNER=RRUFF
##SOURCE=University of Arizona Mineral Museum
##DESCRIPTION=Green prismatic crystal
##STATUS=The identification of this mineral has been confirmed by X-ray diffraction and chemical analysis
##URL=rruff.info/R040113
##MEASURED CHEMISTRY=(Na_0.50_Ca_0.43_K_0.07_)_4_(Si_0.64_Al_0.36_)_12_O_24_(Cl_0.60_(CO_3_)_0.40_)
150.1439, 8076.312
150.6261, 8168.631
151.1082, 8267.476
151.5903, 8382.707
152.0724, 8525.992
152.5545, 8659.239
153.0366, 8781.525
153.5188, 8891.231
154.0009, 8984.778
154.4830, 9056.835
154.9651, 9117.151
155.4472, 9170.320
155.9293, 9213.480
156.4115, 9254.436
156.8936, 9296.749
157.3757, 9338.683
157.8578, 9374.944
158.3399, 9405.107
158.8221, 9428.402
159.3042, 9444.584
159.7863, 9442.671
160.2684, 9444.284
160.7505, 9461.499
161.2326, 9491.827
161.7148, 9514.764
162.1969, 9521.607
162.6790, 9516.958
163.1611, 9505.279
163.6432, 9474.684
164.1253, 9447.993
164.6075, 9444.694
165.0896, 9465.748
165.5717, 9475.873
166.0538, 9447.973
166.5359, 9397.942
167.0180, 9348.652
167.5002, 9308.986
167.9823, 9273.581
168.4644, 9239.314
168.9465, 9206.283
169.4286, 9172.141
169.9107, 9133.297
170.3929, 9092.159
170.8750, 9052.768
171.3571, 9020.226
171.8392, 8989.640
172.3213, 8955.596
172.8034, 8917.220
173.2856, 8877.200
173.7677, 8837.012
174.2498, 8796.871
174.7319, 8758.253
175.2140, 8717.930
175.6961, 8680.527
176.1783, 8653.973
176.6604, 8641.706
177.1425, 8637.628
177.6246, 8633.373
178.1067, 8629.961
178.5888, 8633.837
179.0710, 8659.399
179.5531, 8695.638
180.0352, 8715.790
180.5173, 8705.143
180.9994, 8683.809
181.4815, 8686.809
181.9637, 8713.536
182.4458, 8744.165
182.9279, 8757.004
183.4100, 8758.397
183.8921, 8773.298
184.3742, 8815.817
184.8564, 8873.390
185.3385, 8914.619
185.8206, 8938.936
186.3027, 8958.170
186.7848, 8984.925
187.2669, 9018.067
187.7491, 9050.037
188.2312, 9081.020
188.7133, 9108.816
189.1954, 9122.724
189.6775, 9120.274
190.1596, 9114.543
190.6418, 9121.978
191.1239, 9142.305
191.6060, 9164.571
192.0881, 9186.930
192.5702, 9208.642
193.0524, 9222.867
193.5345, 9228.967
194.0166, 9229.229
194.4987, 9224.802
194.9808, 9215.217
195.4629, 9207.981
195.9451, 9205.341
196.4272, 9207.289
196.9093, 9219.224
197.3914, 9245.117
197.8735, 9275.017
198.3556, 9288.658
198.8378, 9283.930
199.3199, 9276.264
199.8020, 9274.396
200.2841, 9278.938
200.7662, 9279.058
201.2483, 9270.759
201.7305, 9260.782
202.2126, 9270.829
202.6947, 9307.954
203.1768, 9338.761
203.6589, 9334.343
204.1410, 9286.080
204.6232, 9266.336
205.1053, 9289.581
205.5874, 9341.893
206.0695, 9377.914
206.5516, 9395.598
207.0337, 9402.353
207.5159, 9400.431
207.9980, 9387.178
208.4801, 9377.757
208.9622, 9373.153
209.4443, 9373.811
209.9264, 9384.702
210.4086, 9412.202
210.8907, 9437.178
211.3728, 9443.779
211.8549, 9427.847
212.3370, 9406.770
212.8191, 9377.709
213.3013, 9343.806
213.7834, 9331.334
214.2655, 9347.009
214.7476, 9373.425
215.2297, 9395.846
215.7118, 9412.942
216.1940, 9430.482
216.6761, 9450.242
217.1582, 9472.048
217.6403, 9490.448
218.1224, 9506.473
218.6045, 9517.466
219.0867, 9518.779
219.5688, 9503.718
220.0509, 9495.087
220.5330, 9499.925
221.0151, 9518.697
221.4972, 9531.716
221.9794, 9539.032
222.4615, 9540.691
222.9436, 9534.872
223.4257, 9514.138
223.9078, 9501.488
224.3899, 9504.553
224.8721, 9524.981
225.3542, 9540.641
225.8363, 9553.777
226.3184, 9560.184
226.8005, 9552.451
227.2827, 9518.945
227.7648, 9494.191
228.2469, 9492.534
228.7290, 9520.140
229.2111, 9520.814
229.6932, 9478.093
230.1754, 9421.789
230.6575, 9391.524
231.1396, 9400.636
231.6217, 9413.021
232.1038, 9421.765
232.5859, 9429.034
233.0681, 9419.098
233.5502, 9380.690
234.0323, 9333.266
234.5144, 9305.217
234.9965, 9305.542
235.4786, 9310.664
235.9608, 9315.291
236.4429, 9320.806
236.9250, 9318.827
237.4071, 9305.797
237.8892, 9287.469
238.3713, 9272.401
238.8535, 9259.627
239.3356, 9251.707
239.8177, 9249.165
240.2998, 9251.626
240.7819, 9262.073
241.2640, 9287.147
241.7462, 9316.513
242.2283, 9330.063
242.7104, 9311.978
243.1925, 9304.334
243.6746, 9325.356
244.1567, 9389.259
244.6389, 9432.297
245.1210, 9444.178
245.6031, 9441.309
246.0852, 9452.811
246.5673, 9485.164
247.0494, 9520.724
247.5316, 9550.825
248.0137, 9567.862
248.4958, 9607.407
248.9779, 9681.096
249.4600, 9770.599
249.9421, 9838.863
250.4243, 9874.935
250.9064, 9910.206
251.3885, 9955.768
251.8706, 10013.73
252.3527, 10075.61
252.8348, 10139.81
253.3170, 10208.66
253.7991, 10287.69
254.2812, 10381.16
254.7633, 10474.94
255.2454, 10562.54
255.7275, 10638.95
256.2097, 10726.01
256.6918, 10828.27
257.1739, 10937.06
257.6560, 11036.27
258.1381, 11120.13
258.6202, 11206.87
259.1024, 11308.47
259.5845, 11432.68
260.0666, 11535.88
260.5487, 11617.49
261.0308, 11678.21
261.5129, 11721.75
261.9951, 11746.35
262.4772, 11757.11
262.9593, 11756.63
263.4414, 11746.31
263.9235, 11717.20
264.4056, 11665.92
264.8878, 11598.51
265.3699, 11527.77
265.8520, 11459.98
266.3341, 11368.79
266.8162, 11230.77
267.2983, 11033.53
267.7805, 10881.01
268.2626, 10789.66
268.7447, 10726.25
269.2268, 10630.32
269.7089, 10491.39
270.1910, 10358.03
270.6732, 10248.55
271.1553, 10165.58
271.6374, 10085.95
272.1195, 10008.40
272.6016, 9935.879
273.0837, 9877.196
273.5659, 9834.104
274.0480, 9794.336
274.5301, 9751.628
275.0122, 9705.818
275.4943, 9668.638
275.9764, 9641.882
276.4586, 9620.381
276.9407, 9595.868
277.4228, 9568.002
277.9049, 9542.561
278.3870, 9519.633
278.8691, 9499.648
279.3513, 9496.808
279.8334, 9516.799
280.3155, 9539.297
280.7976, 9530.127
281.2798, 9487.565
281.7619, 9455.666
282.2440, 9455.566
282.7261, 9482.683
283.2082, 9501.935
283.6903, 9512.121
284.1725, 9518.864
284.6546, 9524.674
285.1367, 9529.982
285.6188, 9547.978
286.1009, 9588.481
286.5830, 9645.947
287.0652, 9695.744
287.5473, 9736.248
288.0294, 9776.059
288.5115, 9830.438
288.9936, 9896.499
289.4757, 9947.440
289.9579, 9962.175
290.4400, 9958.593
290.9221, 9991.068
291.4042, 10061.74
291.8863, 10141.76
292.3684, 10198.45
292.8506, 10238.19
293.3327, 10290.36
293.8148, 10373.93
294.2969, 10470.36
294.7790, 10543.91
295.2611, 10594.79
295.7433, 10638.08
296.2254, 10702.63
296.7075, 10772.59
297.1896, 10801.28
297.6717, 10768.62
298.1538, 10694.78
298.6360, 10598.86
299.1181, 10482.09
299.6002, 10369.65
300.0823, 10284.02
300.5644, 10214.97
301.0465, 10140.70
301.5287, 10047.17
302.0108, 9956.696
302.4929, 9896.728
302.9750, 9864.102
303.4571, 9844.033
303.9392, 9835.619
304.4214, 9830.721
304.9035, 9817.496
305.3856, 9790.444
305.8677, 9759.177
306.3498, 9725.738
306.8319, 9693.565
307.3141, 9674.288
307.7962, 9682.953
308.2783, 9704.341
308.7604, 9726.284
309.2425, 9751.436
309.7246, 9764.570
310.2068, 9746.200
310.6889, 9706.945
311.1710, 9674.241
311.6531, 9662.202
312.1352, 9661.194
312.6173, 9665.614
313.0995, 9676.271
313.5816, 9687.114
314.0637, 9697.390
314.5458, 9705.805
315.0279, 9710.052
315.5100, 9703.260
315.9922, 9696.573
316.4743, 9695.125
316.9564, 9699.147
317.4385, 9709.918
317.9206, 9737.817
318.4027, 9770.460
318.8849, 9790.537
319.3670, 9777.836
319.8491, 9765.474
320.3312, 9767.732
320.8133, 9788.725
321.2954, 9805.646
321.7776, 9807.855
322.2597, 9806.314
322.7418, 9812.708
323.2239, 9843.697
323.7060, 9867.813
324.1881, 9877.604
324.6703, 9872.257
325.1524, 9859.781
325.6345, 9818.969
326.1166, 9782.888
326.5987, 9778.037
327.0808, 9837.391
327.5630, 9889.358
328.0451, 9926.039
328.5272, 9947.796
329.0093, 9961.854
329.4914, 9958.389
329.9735, 9955.806
330.4557, 9968.188
330.9378, 10017.39
331.4199, 10041.99
331.9020, 10023.78
332.3841, 9975.153
332.8662, 9959.358
333.3484, 9995.019
333.8305, 10035.51
334.3126, 10052.87
334.7947, 10034.62
335.2768, 10032.54
335.7589, 10055.54
336.2411, 10092.58
336.7232, 10115.34
337.2053, 10119.08
337.6874, 10121.80
338.1695, 10134.28
338.6516, 10158.65
339.1338, 10170.75
339.6159, 10164.60
340.0980, 10154.84
340.5801, 10172.13
341.0622, 10220.64
341.5443, 10259.09
342.0265, 10263.04
342.5086, 10237.70
342.9907, 10231.94
343.4728, 10246.63
343.9549, 10277.76
344.4370, 10330.26
344.9192, 10400.63
345.4013, 10457.36
345.8834, 10481.07
346.3655, 10484.77
346.8476, 10501.47
347.3297, 10531.32
347.8119, 10566.29
348.2940, 10595.60
348.7761, 10623.46
349.2582, 10662.85
349.7403, 10725.94
350.2225, 10794.56
350.7046, 10839.81
351.1867, 10864.71
351.6688, 10889.52
352.1509, 10930.37
352.6331, 10980.14
353.1152, 11028.57
353.5973, 11074.15
354.0794, 11116.47
354.5615, 11155.50
355.0436, 11191.04
355.5258, 11222.58
356.0079, 11243.90
356.4900, 11264.36
356.9721, 11295.05
357.4542, 11342.82
357.9363, 11383.29
358.4185, 11393.10
358.9006, 11387.37
359.3827, 11392.22
359.8648, 11438.55
360.3469, 11481.69
360.8290, 11497.10
361.3112, 11480.02
361.7933, 11454.50
362.2754, 11434.06
362.7575, 11406.92
363.2396, 11360.05
363.7217, 11257.59
364.2039, 11168.66
364.6860, 11118.22
365.1681, 11106.91
365.6502, 11088.13
366.1323, 11042.80
366.6144, 10996.50
367.0966, 10966.86
367.5787, 10970.17
368.0608, 10971.19
368.5429, 10965.51
369.0250, 10955.10
369.5071, 10950.93
369.9893, 10961.33
370.4714, 10968.31
370.9535, 10959.86
371.4356, 10917.04
371.9177, 10904.29
372.3998, 10936.70
372.8820, 10992.44
373.3641, 11019.15
373.8462, 11003.04
374.3283, 10993.86
374.8104, 11018.32
375.2925, 11081.92
375.7747, 11112.93
376.2568, 11102.72
376.7389, 11077.60
377.2210, 11069.98
377.7031, 11080.16
378.1852, 11105.03
378.6674, 11153.39
379.1495, 11215.22
379.6316, 11245.24
380.1137, 11240.63
380.5958, 11227.45
381.0779, 11229.31
381.5601, 11243.54
382.0422, 11257.06
382.5243, 11268.46
383.0064, 11276.12
383.4885, 11277.70
383.9706, 11273.25
384.4528, 11263.15
384.9349, 11241.55
385.4170, 11215.94
385.8991, 11198.58
386.3812, 11192.10
386.8633, 11190.82
387.3455, 11194.87
387.8276, 11200.28
388.3097, 11197.99
388.7918, 11173.13
389.2739, 11145.28
389.7560, 11133.19
390.2382, 11139.87
390.7203, 11143.01
391.2024, 11122.56
391.6845, 11094.71
392.1666, 11077.87
392.6487, 11090.49
393.1309, 11103.87
393.6130, 11105.78
394.0951, 11097.05
394.5772, 11089.30
395.0593, 11089.03
395.5414, 11088.44
396.0236, 11082.64
396.5057, 11059.31
396.9878, 11044.51
397.4699, 11042.93
397.9520, 11052.02
398.4341, 11063.77
398.9163, 11080.50
399.3984, 11097.50
399.8805, 11113.61
400.3626, 11129.98
400.8447, 11141.49
401.3268, 11144.49
401.8090, 11145.33
402.2911, 11154.22
402.7732, 11175.28
403.2553, 11193.09
403.7374, 11201.58
404.2195, 11201.62
404.7017, 11209.06
405.1838, 11224.56
405.6659, 11245.88
406.1480, 11271.31
406.6301, 11300.96
407.1122, 11335.36
407.5944, 11378.40
408.0765, 11422.44
408.5586, 11443.82
409.0407, 11443.10
409.5228, 11444.88
410.0049, 11465.97
410.4871, 11502.00
410.9692, 11540.99
411.4513, 11581.47
411.9334, 11626.49
412.4155, 11679.72
412.8976, 11741.27
413.3798, 11808.88
413.8619, 11900.80
414.3440, 11988.39
414.8261, 12035.03
415.3082, 12040.40
415.7903, 12046.17
416.2725, 12080.22
416.7546, 12129.67
417.2367, 12180.82
417.7188, 12225.53
418.2009, 12274.00
418.6830, 12347.48
419.1652, 12433.13
419.6473, 12480.87
420.1294, 12440.66
420.6115, 12383.32
421.0937, 12349.19
421.5758, 12363.09
422.0579, 12359.29
422.5400, 12310.90
423.0221, 12243.55
423.5042, 12198.61
423.9864, 12206.52
424.4685, 12204.52
424.9506, 12173.32
425.4327, 12109.92
425.9148, 12062.47
426.3969, 12039.92
426.8791, 12023.15
427.3612, 11992.94
427.8433, 11939.43
428.3254, 11904.17
428.8075, 11896.00
429.2896, 11909.06
429.7718, 11923.63
430.2539, 11939.03
430.7360, 11959.38
431.2181, 11988.29
431.7002, 12025.23
432.1823, 12061.34
432.6645, 12094.79
433.1466, 12132.15
433.6287, 12181.76
434.1108, 12242.61
434.5929, 12310.91
435.0750, 12390.23
435.5572, 12473.22
436.0393, 12545.77
436.5214, 12608.29
437.0035, 12669.76
437.4856, 12732.28
437.9677, 12798.92
438.4499, 12873.19
438.9320, 12954.34
439.4141, 13046.09
439.8962, 13154.15
440.3783, 13274.70
440.8604, 13401.10
441.3426, 13518.94
441.8247, 13648.77
442.3068, 13809.19
442.7889, 14011.63
443.2710, 14198.99
443.7531, 14338.75
444.2353, 14462.02
444.7174, 14605.67
445.1995, 14789.71
445.6816, 14975.97
446.1637, 15148.91
446.6458, 15311.09
447.1280, 15510.80
447.6101, 15763.48
448.0922, 16037.82
448.5743, 16316.18
449.0564, 16605.18
449.5385, 16887.54
450.0207, 17160.11
450.5028, 17427.32
450.9849, 17701.13
451.4670, 17984.44
451.9491, 18248.49
452.4312, 18495.92
452.9134, 18718.54
453.3955, 18848.91
453.8776, 18878.57
454.3597, 18874.63
454.8418, 18905.10
455.3239, 18958.49
455.8061, 18984.08
456.2882, 18964.04
456.7703, 18921.62
457.2524, 18888.57
457.7345, 18862.09
458.2166, 18829.84
458.6988, 18789.54
459.1809, 18737.32
459.6630, 18673.24
460.1451, 18598.60
460.6272, 18497.33
461.1093, 18354.33
461.5915, 18180.85
462.0736, 17993.40
462.5557, 17800.96
463.0378, 17591.87
463.5199, 17350.92
464.0020, 17085.10
464.4842, 16836.50
464.9663, 16621.31
465.4484, 16422.58
465.9305, 16232.04
466.4126, 16060.71
466.8947, 15872.61
467.3769, 15653.74
467.8590, 15425.07
468.3411, 15217.49
468.8232, 15035.83
469.3053, 14867.88
469.7874, 14709.68
470.2696, 14561.30
470.7517, 14426.15
471.2338, 14307.82
471.7159, 14192.76
472.1980, 14066.61
472.6801, 13929.48
473.1623, 13812.41
473.6444, 13726.46
474.1265, 13647.46
474.6086, 13522.92
475.0907, 13361.17
475.5728, 13216.02
476.0550, 13112.30
476.5371, 13044.29
477.0192, 13016.53
477.5013, 13029.51
477.9834, 13037.70
478.4655, 12999.92
478.9477, 12937.98
479.4298, 12881.32
479.9119, 12846.12
480.3940, 12807.96
480.8761, 12741.06
481.3582, 12659.50
481.8404, 12604.72
482.3225, 12622.80
482.8046, 12643.93
483.2867, 12633.65
483.7688, 12578.16
484.2509, 12529.01
484.7331, 12483.76
485.2152, 12450.52
485.6973, 12438.53
486.1794, 12469.41
486.6615, 12484.00
487.1436, 12469.25
487.6258, 12431.74
488.1079, 12403.27
488.5900, 12387.38
489.0721, 12371.25
489.5542, 12344.26
490.0363, 12306.08
490.5185, 12283.28
491.0006, 12278.85
491.4827, 12282.72
491.9648, 12282.93
492.4470, 12280.23
492.9291, 12279.16
493.4112, 12285.10
493.8933, 12290.24
494.3754, 12276.67
494.8575, 12247.85
495.3397, 12226.36
495.8218, 12235.37
496.3039, 12255.26
496.7860, 12262.75
497.2681, 12250.56
497.7502, 12241.52
498.2324, 12253.24
498.7145, 12273.83
499.1966, 12287.35
499.6787, 12272.52
500.1608, 12266.54
500.6429, 12281.29
501.1251, 12316.30
501.6072, 12359.59
502.0893, 12445.09
502.5714, 12508.50
503.0535, 12515.74
503.5356, 12436.75
504.0178, 12372.31
504.4999, 12321.06
504.9820, 12286.35
505.4641, 12277.44
505.9462, 12299.95
506.4283, 12318.09
506.9105, 12316.47
507.3926, 12303.77
507.8747, 12317.65
508.3568, 12359.38
508.8389, 12406.07
509.3210, 12447.75
509.8032, 12481.78
510.2853, 12498.58
510.7674, 12494.07
511.2495, 12484.78
511.7316, 12486.50
512.2137, 12496.05
512.6959, 12506.85
513.1780, 12508.08
513.6601, 12516.43
514.1422, 12548.95
514.6243, 12601.80
515.1064, 12648.49
515.5886, 12664.42
516.0707, 12681.13
516.5528, 12719.47
517.0349, 12796.88
517.5170, 12865.55
517.9991, 12911.22
518.4813, 12949.10
518.9634, 12998.15
519.4455, 13063.36
519.9276, 13131.07
520.4097, 13198.39
520.8918, 13265.19
521.3740, 13337.77
521.8561, 13415.03
522.3382, 13501.70
522.8203, 13602.61
523.3024, 13716.43
523.7845, 13836.37
524.2667, 13963.93
524.7488, 14093.29
525.2309, 14217.93
525.7130, 14341.43
526.1951, 14473.21
526.6772, 14617.79
527.1594, 14773.20
527.6415, 14935.31
528.1236, 15104.07
528.6057, 15283.62
529.0878, 15482.36
529.5699, 15687.13
530.0521, 15886.53
530.5342, 16081.54
531.0163, 16268.50
531.4984, 16452.65
531.9805, 16627.37
532.4626, 16786.56
532.9448, 16942.53
533.4269, 17066.72
533.9090, 17160.54
534.3911, 17220.78
534.8732, 17231.12
535.3553, 17184.96
535.8375, 17100.47
536.3196, 16984.07
536.8017, 16833.83
537.2838, 16661.33
537.7659, 16462.66
538.2480, 16249.12
538.7302, 16024.05
539.2123, 15789.29
539.6944, 15572.13
540.1765, 15380.18
540.6586, 15204.95
541.1407, 15032.75
541.6229, 14863.58
542.1050, 14694.75
542.5871, 14503.87
543.0692, 14326.11
543.5513, 14206.82
544.0334, 14148.69
544.5156, 14083.88
544.9977, 13957.88
545.4798, 13825.29
545.9619, 13732.22
546.4440, 13725.33
546.9261, 13701.48
547.4083, 13632.18
547.8904, 13539.74
548.3725, 13464.69
548.8546, 13407.57
549.3367, 13367.03
549.8188, 13350.06
550.3010, 13353.18
550.7831, 13332.22
551.2652, 13280.94
551.7473, 13226.21
552.2294, 13184.73
552.7115, 13156.16
553.1937, 13143.65
553.6758, 13150.97
554.1579, 13159.62
554.6400, 13144.21
555.1221, 13111.16
555.6042, 13078.60
556.0864, 13047.24
556.5685, 13024.57
557.0506, 13023.75
557.5327, 13039.50
558.0148, 13052.17
558.4969, 13047.04
558.9791, 13039.80
559.4612, 13042.00
559.9433, 13057.97
560.4254, 13066.82
560.9075, 13063.18
561.3896, 13051.51
561.8718, 13034.60
562.3539, 12995.96
562.8360, 12981.52
563.3181, 13004.13
563.8002, 13048.50
564.2823, 13079.67
564.7645, 13096.73
565.2466, 13103.32
565.7287, 13097.88
566.2108, 13082.85
566.6929, 13067.57
567.1750, 13051.87
567.6572, 13042.88
568.1393, 13051.64
568.6214, 13070.78
569.1035, 13086.61
569.5856, 13098.09
570.0677, 13102.20
570.5499, 13089.52
571.0320, 13069.34
571.5141, 13056.31
571.9962, 13067.21
572.4783, 13074.88
572.9604, 13059.93
573.4426, 13029.11
573.9247, 13017.37
574.4068, 13044.79
574.8889, 13079.67
575.3710, 13113.01
575.8531, 13147.13
576.3353, 13165.08
576.8174, 13162.34
577.2995, 13149.85
577.7816, 13131.61
578.2637, 13105.06
578.7458, 13106.81
579.2280, 13152.10
579.7101, 13209.65
580.1922, 13215.45
580.6743, 13178.78
581.1564, 13152.06
581.6385, 13169.07
582.1207, 13204.64
582.6028, 13228.52
583.0849, 13241.21
583.5670, 13248.41
584.0491, 13252.45
584.5313, 13252.93
585.0134, 13247.24
585.4955, 13230.22
585.9776, 13222.81
586.4597, 13240.99
586.9418, 13267.12
587.4240, 13280.88
587.9061, 13274.98
588.3882, 13267.13
588.8703, 13256.79
589.3524, 13246.37
589.8345, 13243.71
590.3167, 13250.39
590.7988, 13258.81
591.2809, 13265.75
591.7630, 13271.65
592.2451, 13278.60
592.7272, 13286.63
593.2094, 13294.71
593.6915, 13304.39
594.1736, 13313.00
594.6557, 13314.44
595.1378, 13306.42
595.6199, 13296.75
596.1021, 13286.02
596.5842, 13278.70
597.0663, 13281.18
597.5485, 13315.37
598.0306, 13338.75
598.5127, 13325.29
598.9948, 13286.38
599.4769, 13272.28
599.9590, 13308.75
600.4412, 13342.28
600.9233, 13352.32
601.4054, 13336.55
601.8875, 13338.39
602.3696, 13365.85
602.8517, 13391.24
603.3339, 13381.76
603.8160, 13341.48
604.2981, 13326.29
604.7802, 13344.17
605.2623, 13382.39
605.7444, 13443.36
606.2266, 13512.97
606.7087, 13549.49
607.1908, 13507.92
607.6729, 13459.48
608.1550, 13471.18
608.6371, 13524.74
609.1193, 13561.11
609.6014, 13540.65
610.0835, 13510.89
610.5656, 13491.93
611.0477, 13485.31
611.5298, 13489.55
612.0120, 13522.69
612.4941, 13548.42
612.9762, 13537.11
613.4583, 13471.54
613.9404, 13432.21
614.4225, 13426.27
614.9047, 13440.71
615.3868, 13465.09
615.8689, 13497.78
616.3510, 13510.90
616.8331, 13481.98
617.3152, 13448.10
617.7974, 13485.17
618.2795, 13572.56
618.7616, 13632.15
619.2437, 13591.23
619.7258, 13528.11
620.2079, 13500.40
620.6901, 13511.35
621.1722, 13528.48
621.6543, 13549.19
622.1364, 13566.37
622.6185, 13573.99
623.1006, 13563.97
623.5828, 13562.21
624.0649, 13571.41
624.5470, 13586.37
625.0291, 13602.47
625.5112, 13621.07
625.9933, 13633.08
626.4755, 13635.25
626.9576, 13631.97
627.4397, 13630.89
627.9218, 13632.08
628.4039, 13636.08
628.8860, 13646.87
629.3682, 13658.70
629.8503, 13660.28
630.3324, 13653.51
630.8145, 13652.64
631.2966, 13672.35
631.7787, 13696.50
632.2609, 13716.79
632.7430, 13735.88
633.2251, 13736.05
633.7072, 13685.44
634.1893, 13632.01
634.6714, 13616.38
635.1536, 13656.20
635.6357, 13697.05
636.1178, 13740.45
636.5999, 13777.03
637.0820, 13781.97
637.5641, 13753.55
638.0463, 13735.95
638.5284, 13747.62
639.0105, 13775.17
639.4926, 13794.20
639.9747, 13805.50
640.4568, 13813.26
640.9390, 13818.70
641.4211, 13822.79
641.9032, 13827.67
642.3853, 13833.48
642.8674, 13834.38
643.3495, 13813.43
643.8317, 13796.55
644.3138, 13803.68
644.7959, 13860.26
645.2780, 13895.28
645.7601, 13897.65
