##NAMES=Markascherite
##RRUFFID=R100030
##IDEAL CHEMISTRY=Cu^2+^_3_Mo^6+^O_4_(OH)_4_
##LOCALITY=Childs Aldwinkle mine, Bunker Hill District, Copper Creek, Pinal County, Arizona, USA
##OWNER=RRUFF
##SOURCE=Mark Ascher
##DESCRIPTION=Green bladed crystals on quartz. This is the type specimen
##STATUS=The identification of this mineral is confirmed by single-crystal X-ray diffraction and chemical analysis.
##URL=rruff.info/R100030
##MEASURED CHEMISTRY=Cu_2.91_Mo_1.029_O_4_(OH)_4_; the lighter shade was probed
90.01007, 0.0000000E+00
90.49219, 2.503949
90.97430, 2.134567
91.45642, 2.003294
91.93854, 2.356337
92.42065, 2.875663
92.90277, 3.029921
93.38489, 2.721660
93.86700, 2.347288
94.34912, 2.475662
94.83124, 3.021919
95.31335, 3.495216
95.79547, 3.401374
96.27759, 2.929357
96.75970, 2.885959
97.24182, 3.457474
97.72394, 4.412880
98.20605, 5.537023
98.68817, 6.925984
99.17029, 7.706175
99.65240, 6.742395
100.1345, 3.861534
100.6166, 1.786190
101.0988, 1.195067
101.5809, 1.918721
102.0630, 2.517886
102.5451, 3.005708
103.0272, 3.355468
103.5093, 3.506891
103.9915, 3.367748
104.4736, 3.266485
104.9557, 3.304661
105.4378, 3.515054
105.9199, 3.698291
106.4020, 3.953633
106.8842, 4.135058
107.3663, 3.959544
107.8484, 3.054334
108.3305, 2.224834
108.8126, 1.740908
109.2947, 1.667822
109.7769, 1.832090
110.2590, 2.230329
110.7411, 2.868038
111.2232, 3.750594
111.7053, 6.074727
112.1874, 7.805833
112.6696, 8.008668
113.1517, 4.622146
113.6338, 1.827430
114.1159, 0.1033327
114.5980, -0.5755781
115.0801, -0.4511154
115.5623, 1.513840
116.0444, 3.745647
116.5265, 5.022800
117.0086, 4.233023
117.4907, 3.145074
117.9728, 2.171329
118.4550, 1.319978
118.9371, 1.153515
119.4192, 2.884218
119.9013, 5.235168
120.3834, 6.549620
120.8655, 4.884329
121.3477, 2.745385
121.8298, 2.164822
122.3119, 3.580799
122.7940, 4.973571
123.2761, 4.469254
123.7582, 2.828750
124.2404, 1.746592
124.7225, 2.683808
125.2046, 4.493042
125.6867, 5.789290
126.1688, 6.369711
126.6509, 6.431260
127.1331, 5.807360
127.6152, 4.671386
128.0973, 3.884961
128.5794, 4.474531
129.0615, 5.864409
129.5436, 6.542859
130.0258, 5.710703
130.5079, 4.536050
130.9900, 5.584018
131.4721, 8.843447
131.9542, 11.96173
132.4363, 12.44850
132.9185, 10.70073
133.4006, 9.407650
133.8827, 9.089060
134.3648, 9.803712
134.8469, 12.12459
135.3290, 16.33109
135.8112, 20.93483
136.2933, 23.93861
136.7754, 25.22572
137.2575, 26.97897
137.7396, 30.12967
138.2217, 34.57937
138.7039, 38.69735
139.1860, 42.43220
139.6681, 45.92483
140.1502, 49.69403
140.6323, 54.06905
141.1144, 57.49519
141.5966, 58.95739
142.0787, 57.70366
142.5608, 57.88263
143.0429, 59.87880
143.5250, 63.08039
144.0071, 66.10670
144.4893, 68.76024
144.9714, 71.51730
145.4535, 74.48921
145.9356, 77.42228
146.4177, 81.17820
146.8998, 86.11954
147.3820, 91.94279
147.8641, 97.58702
148.3462, 102.5303
148.8283, 107.7133
149.3104, 113.7112
149.7925, 121.0604
150.2747, 128.4937
150.7568, 135.9095
151.2389, 143.2982
151.7210, 150.5331
152.2031, 157.8820
152.6852, 164.8452
153.1674, 171.1919
153.6495, 177.0328
154.1316, 182.0629
154.6137, 186.0944
155.0958, 189.1159
155.5779, 191.7981
156.0601, 194.7708
156.5422, 197.1979
157.0243, 198.3233
157.5064, 197.1882
157.9885, 195.5071
158.4706, 193.9771
158.9528, 192.7764
159.4349, 190.4052
159.9170, 185.4393
160.3991, 179.4062
160.8812, 174.0711
161.3633, 169.9593
161.8455, 166.6382
162.3276, 164.2420
162.8097, 163.1046
163.2918, 161.4080
163.7739, 157.6240
164.2560, 152.7715
164.7382, 147.8099
165.2203, 144.7552
165.7024, 142.6379
166.1845, 140.7754
166.6666, 139.1947
167.1487, 137.4392
167.6309, 134.9563
168.1130, 132.0847
168.5951, 129.5854
169.0772, 128.0662
169.5593, 126.8969
170.0414, 125.3789
170.5236, 122.9706
171.0057, 121.1560
171.4878, 121.6598
171.9699, 123.7702
172.4520, 125.3197
172.9341, 124.4456
173.4163, 122.5887
173.8984, 121.5223
174.3805, 122.0161
174.8626, 122.7415
175.3447, 122.1590
175.8268, 120.5593
176.3090, 119.2986
176.7911, 119.4003
177.2732, 120.4221
177.7553, 121.7320
178.2374, 123.4572
178.7195, 125.0813
179.2017, 126.1269
179.6838, 126.5875
180.1659, 126.2394
180.6480, 124.0282
181.1301, 120.8629
181.6122, 118.9496
182.0944, 119.7943
182.5765, 121.5829
183.0586, 120.5345
183.5407, 116.7081
184.0228, 113.3899
184.5049, 114.4463
184.9871, 118.7328
185.4692, 122.1181
185.9513, 123.3004
186.4334, 122.7726
186.9155, 121.3258
187.3976, 118.8866
187.8798, 116.4618
188.3619, 115.2002
188.8440, 114.9383
189.3261, 114.7246
189.8082, 114.3327
190.2903, 113.7384
190.7725, 112.9580
191.2546, 112.0421
191.7367, 110.6255
192.2188, 107.7375
192.7009, 103.4680
193.1830, 100.0681
193.6652, 98.84348
194.1473, 99.35381
194.6294, 98.85313
195.1115, 97.19624
195.5936, 95.02557
196.0757, 93.03041
196.5579, 91.20298
197.0400, 89.72859
197.5221, 88.96824
198.0042, 88.83746
198.4863, 87.72633
198.9684, 85.32645
199.4506, 82.64017
199.9327, 81.27166
200.4148, 81.32789
200.8969, 81.60770
201.3790, 81.59985
201.8611, 81.28539
202.3433, 81.30692
202.8254, 81.81336
203.3075, 82.41673
203.7896, 82.29877
204.2717, 81.26643
204.7538, 80.48403
205.2360, 80.55836
205.7181, 81.60254
206.2002, 82.43775
206.6823, 83.02088
207.1644, 83.44728
207.6465, 84.02763
208.1287, 84.95800
208.6108, 85.35059
209.0929, 84.51826
209.5750, 82.05345
210.0571, 80.61990
210.5392, 80.46962
211.0214, 81.11631
211.5035, 81.57993
211.9856, 81.79987
212.4677, 81.99874
212.9498, 82.29540
213.4319, 82.73463
213.9140, 83.08241
214.3962, 83.35601
214.8783, 83.52489
215.3604, 83.47983
215.8425, 83.11855
216.3246, 82.76950
216.8067, 82.55092
217.2889, 82.43372
217.7710, 82.52089
218.2531, 82.73051
218.7352, 83.18352
219.2173, 84.34794
219.6994, 86.80400
220.1816, 88.86723
220.6637, 89.63947
221.1458, 88.43986
221.6279, 87.97855
222.1100, 88.67228
222.5921, 89.97633
223.0743, 90.37858
223.5564, 89.32336
224.0385, 88.34413
224.5206, 88.16036
225.0027, 88.95322
225.4848, 90.08837
225.9670, 91.80833
226.4491, 93.77338
226.9312, 95.04456
227.4133, 95.18549
227.8954, 95.32686
228.3775, 96.00706
228.8597, 97.49208
229.3418, 98.88900
229.8239, 100.1799
230.3060, 101.3799
230.7881, 102.4754
231.2702, 103.3845
231.7524, 104.3290
232.2345, 105.3825
232.7166, 106.5354
233.1987, 107.8704
233.6808, 109.5000
234.1629, 111.2750
234.6451, 112.7847
235.1272, 113.7405
235.6093, 114.8487
236.0914, 116.4044
236.5735, 118.4347
237.0556, 120.9091
237.5378, 124.1650
238.0199, 127.7723
238.5020, 130.6356
238.9841, 132.6519
239.4662, 134.1322
239.9483, 135.0212
240.4305, 134.4846
240.9126, 135.3731
241.3947, 138.3605
241.8768, 142.5584
242.3589, 145.7262
242.8410, 147.2190
243.3232, 148.6606
243.8053, 150.7171
244.2874, 153.6179
244.7695, 156.6225
245.2516, 159.9172
245.7337, 163.2610
246.2159, 166.0997
246.6980, 168.2727
247.1801, 170.1976
247.6622, 171.9480
248.1443, 173.2336
248.6264, 175.2327
249.1086, 178.2800
249.5907, 181.8906
250.0728, 185.0994
250.5549, 187.9036
251.0370, 190.3076
251.5191, 192.2036
252.0013, 193.2840
252.4834, 194.8836
252.9655, 197.3491
253.4476, 200.1058
253.9297, 202.0513
254.4118, 202.8815
254.8940, 203.4228
255.3761, 203.9039
255.8582, 204.2680
256.3403, 204.9032
256.8224, 206.2351
257.3046, 207.5178
257.7867, 207.3469
258.2688, 205.0512
258.7509, 202.7333
259.2330, 201.2288
259.7151, 200.7916
260.1973, 199.5233
260.6794, 196.9847
261.1615, 194.0756
261.6436, 192.2272
262.1257, 191.7961
262.6078, 191.5129
263.0900, 190.9396
263.5721, 189.9929
264.0542, 189.5187
264.5363, 189.5658
265.0184, 190.0145
265.5005, 190.7106
265.9827, 191.6086
266.4648, 192.8580
266.9469, 194.4869
267.4290, 196.4835
267.9111, 198.9028
268.3932, 201.8333
268.8754, 205.0217
269.3575, 208.0961
269.8396, 210.9319
270.3217, 214.2571
270.8038, 218.4424
271.2859, 223.4514
271.7681, 227.7299
272.2502, 231.0162
272.7323, 234.1173
273.2144, 237.7156
273.6965, 241.8478
274.1786, 246.3747
274.6608, 251.4790
275.1429, 257.0157
275.6250, 262.1725
276.1071, 267.0048
276.5892, 271.2920
277.0714, 274.6349
277.5535, 276.9848
278.0356, 279.0692
278.5177, 281.1357
278.9998, 283.0158
279.4819, 283.8636
279.9641, 283.5224
280.4462, 282.8489
280.9283, 282.8499
281.4104, 283.5912
281.8925, 282.9327
282.3746, 280.2696
282.8568, 276.2126
283.3389, 272.2080
283.8210, 268.1793
284.3031, 264.7715
284.7852, 262.8934
285.2673, 262.4329
285.7495, 261.0458
286.2316, 258.2515
286.7137, 254.6650
287.1958, 251.1284
287.6779, 247.6035
288.1600, 245.2287
288.6422, 245.2242
289.1243, 247.2629
289.6064, 248.9350
290.0885, 249.9976
290.5706, 250.7979
291.0527, 251.8102
291.5349, 253.0370
292.0170, 254.4966
292.4991, 256.3101
292.9812, 258.3874
293.4633, 260.1576
293.9454, 261.4614
294.4276, 263.0645
294.9097, 266.2807
295.3918, 270.8371
295.8739, 275.2460
296.3560, 278.6185
296.8381, 281.3327
297.3203, 284.1127
297.8024, 286.9482
298.2845, 289.9504
298.7666, 293.1791
299.2487, 296.6341
299.7308, 300.4203
300.2130, 304.9217
300.6951, 309.6539
301.1772, 313.4574
301.6593, 316.3207
302.1414, 319.8820
302.6235, 326.2216
303.1057, 334.2587
303.5878, 341.6096
304.0699, 346.7927
304.5520, 351.5609
305.0341, 357.5912
305.5162, 364.8771
305.9984, 373.7158
306.4805, 384.5451
306.9626, 396.9534
307.4447, 410.1377
307.9268, 423.9409
308.4089, 438.6106
308.8911, 454.1792
309.3732, 470.7527
309.8553, 488.7817
310.3374, 509.7355
310.8195, 531.7558
311.3016, 552.7365
311.7838, 572.0009
312.2659, 590.6169
312.7480, 608.9843
313.2301, 626.9813
313.7122, 644.6856
314.1943, 662.9001
314.6765, 680.5294
315.1586, 696.1547
315.6407, 708.3884
316.1228, 722.6973
316.6049, 741.4135
317.0870, 763.9363
317.5692, 788.9440
318.0513, 815.9335
318.5334, 845.5277
319.0155, 877.6296
319.4976, 912.3626
319.9797, 950.7523
320.4619, 993.1803
320.9440, 1039.622
321.4261, 1089.454
321.9082, 1141.073
322.3903, 1197.858
322.8724, 1261.480
323.3546, 1332.021
323.8367, 1405.747
324.3188, 1485.830
324.8009, 1567.073
325.2830, 1644.589
325.7651, 1720.382
326.2473, 1790.449
326.7294, 1858.629
327.2115, 1923.101
327.6936, 1969.519
328.1757, 1999.365
328.6578, 2008.755
329.1400, 1995.703
329.6221, 1957.309
330.1042, 1900.511
330.5863, 1818.262
331.0684, 1716.975
331.5505, 1616.673
332.0327, 1511.104
332.5148, 1412.777
332.9969, 1325.311
333.4790, 1249.506
333.9611, 1187.214
334.4432, 1141.564
334.9254, 1107.472
335.4075, 1077.726
335.8896, 1054.295
336.3717, 1030.849
336.8538, 1006.548
337.3359, 981.5650
337.8180, 951.2242
338.3001, 914.7310
338.7823, 874.2228
339.2644, 832.3561
339.7465, 788.6700
340.2286, 744.4299
340.7107, 699.8747
341.1928, 654.7653
341.6750, 611.9523
342.1571, 570.8596
342.6392, 531.9252
343.1213, 494.5177
343.6034, 458.9175
344.0855, 426.7014
344.5677, 398.7053
345.0498, 374.0144
345.5319, 351.3850
346.0140, 330.8359
346.4961, 311.8622
346.9782, 294.2538
347.4604, 277.8799
347.9425, 263.0709
348.4246, 249.8551
348.9067, 237.7454
349.3888, 225.8360
349.8709, 214.2608
350.3531, 203.7612
350.8352, 195.1965
351.3173, 187.8867
351.7994, 180.3180
352.2815, 172.4326
352.7636, 164.8532
353.2458, 157.9038
353.7279, 151.7062
354.2100, 146.5435
354.6921, 143.1801
355.1742, 140.4657
355.6563, 137.1846
356.1385, 133.3871
356.6206, 129.4803
357.1027, 125.5361
357.5848, 121.7234
358.0669, 118.1847
358.5490, 114.9756
359.0312, 112.0407
359.5133, 109.4694
359.9954, 107.1564
360.4775, 104.7410
360.9596, 101.6474
361.4417, 98.65926
361.9239, 96.30035
362.4060, 94.75703
362.8881, 93.53963
363.3702, 92.66769
363.8523, 91.96850
364.3344, 91.17744
364.8166, 90.71255
365.2987, 89.69442
365.7808, 87.34669
366.2629, 83.33373
366.7450, 80.53626
367.2271, 80.47967
367.7093, 81.30415
368.1914, 81.37484
368.6735, 79.86113
369.1556, 78.34172
369.6377, 77.03951
370.1198, 75.92415
370.6020, 74.83386
371.0841, 73.88570
371.5662, 72.84889
372.0483, 71.55112
372.5304, 69.45122
373.0125, 68.11909
373.4947, 67.89627
373.9768, 68.35860
374.4589, 68.53266
374.9410, 68.36852
375.4231, 68.01238
375.9052, 67.45206
376.3874, 66.63317
376.8695, 66.04149
377.3516, 65.72099
377.8337, 65.54429
378.3158, 65.28993
378.7979, 64.91310
379.2801, 64.82359
379.7622, 65.26673
380.2443, 66.06927
380.7264, 66.33904
381.2085, 65.98474
381.6906, 65.73535
382.1728, 66.54705
382.6549, 68.17612
383.1370, 68.84023
383.6191, 67.85245
384.1012, 66.47219
384.5833, 67.16151
385.0655, 69.64644
385.5476, 71.83289
386.0297, 72.20871
386.5118, 71.56245
386.9939, 71.17791
387.4760, 71.11066
387.9582, 71.65451
388.4403, 73.57674
388.9224, 76.31672
389.4045, 78.69151
389.8866, 79.99075
390.3687, 80.89712
390.8509, 81.90990
391.3330, 83.02359
391.8151, 84.17020
392.2972, 85.00477
392.7793, 85.98141
393.2614, 87.58981
393.7436, 90.41448
394.2257, 93.20003
394.7078, 95.14825
395.1899, 96.61153
395.6720, 98.51522
396.1541, 101.8624
396.6363, 105.1524
397.1184, 107.5547
397.6005, 108.5959
398.0826, 109.9806
398.5647, 111.8452
399.0468, 114.2290
399.5290, 117.1795
400.0111, 122.2890
400.4932, 126.2367
400.9753, 128.0851
401.4574, 127.8460
401.9395, 128.0142
402.4217, 129.0593
402.9038, 130.0169
403.3859, 130.1427
403.8680, 128.8427
404.3501, 128.1299
404.8322, 128.2416
405.3144, 128.9776
405.7965, 129.8509
406.2786, 130.9039
406.7607, 131.9664
407.2428, 132.9016
407.7249, 133.7020
408.2071, 134.7906
408.6892, 136.1936
409.1713, 137.8195
409.6534, 139.4463
410.1355, 141.0949
410.6176, 143.3284
411.0998, 146.5993
411.5819, 150.3935
412.0640, 153.2761
412.5461, 155.2670
413.0282, 157.5216
413.5103, 160.7397
413.9925, 164.8400
414.4746, 169.8684
414.9567, 176.0848
415.4388, 182.5116
415.9209, 188.0168
416.4030, 192.9554
416.8852, 198.3721
417.3673, 204.6482
417.8494, 211.6278
418.3315, 219.5612
418.8136, 228.4035
419.2957, 237.0665
419.7779, 244.6208
420.2600, 251.7616
420.7421, 259.0618
421.2242, 267.8521
421.7063, 275.6991
422.1884, 281.6608
422.6706, 286.0495
423.1527, 290.2811
423.6348, 296.0976
424.1169, 300.6353
424.5990, 302.6761
425.0811, 301.9138
425.5633, 299.0323
426.0454, 293.3952
426.5275, 286.0061
427.0096, 278.0081
427.4917, 269.5964
427.9738, 260.3092
428.4560, 249.7079
428.9381, 237.8009
429.4202, 226.9008
429.9023, 217.3936
430.3844, 208.4109
430.8665, 199.1937
431.3487, 189.4237
431.8308, 181.5000
432.3129, 176.0022
432.7950, 171.9586
433.2771, 167.4775
433.7592, 162.5643
434.2414, 158.0050
434.7235, 154.2290
435.2056, 151.1173
435.6877, 148.0923
436.1698, 145.1288
436.6519, 142.6682
437.1341, 141.3766
437.6162, 140.9802
438.0983, 140.7293
438.5804, 140.3938
439.0625, 140.1626
439.5446, 140.3500
440.0268, 140.8579
440.5089, 141.3259
440.9910, 141.0896
441.4731, 140.9887
441.9552, 141.8240
442.4373, 143.7707
442.9195, 146.1497
443.4016, 149.2234
443.8837, 152.3371
444.3658, 154.6943
444.8479, 155.5109
445.3300, 156.0896
445.8122, 156.8675
446.2943, 157.8037
446.7764, 158.5189
447.2585, 158.6746
447.7406, 158.8122
448.2227, 159.3288
448.7049, 161.3085
449.1870, 161.5532
449.6691, 159.4297
450.1512, 155.8802
450.6333, 152.3463
451.1154, 148.6702
451.5976, 145.3205
452.0797, 142.6845
452.5618, 140.6484
453.0439, 137.4051
453.5260, 132.5912
454.0081, 127.8945
454.4903, 124.9336
454.9724, 123.7021
455.4545, 121.9003
455.9366, 119.0894
456.4187, 115.9789
456.9008, 113.9574
457.3830, 112.8713
457.8651, 111.7454
458.3472, 109.7880
458.8293, 107.5625
459.3114, 106.1465
459.7935, 105.5533
460.2757, 105.1124
460.7578, 104.4574
461.2399, 103.5792
461.7220, 102.3884
462.2041, 100.4734
462.6862, 98.88364
463.1684, 98.80857
463.6505, 99.58875
464.1326, 99.69943
464.6147, 97.84998
465.0968, 95.73104
465.5789, 94.20013
466.0611, 93.37033
466.5432, 92.72298
467.0253, 92.26900
467.5074, 91.90209
467.9895, 91.53676
468.4716, 91.28097
468.9538, 90.88308
469.4359, 90.47289
469.9180, 89.91651
470.4001, 88.61936
470.8822, 85.87885
471.3643, 83.68047
471.8465, 83.08647
472.3286, 84.33360
472.8107, 84.66780
473.2928, 83.95914
473.7749, 82.66669
474.2570, 80.96732
474.7392, 78.87000
475.2213, 77.69460
475.7034, 77.96232
476.1855, 79.02768
476.6676, 79.68063
477.1497, 79.93779
477.6319, 79.94444
478.1140, 79.66982
478.5961, 79.24003
479.0782, 78.83362
479.5603, 78.45676
480.0424, 78.17480
480.5246, 77.80341
481.0067, 77.62585
481.4888, 78.05966
481.9709, 79.75573
482.4530, 81.49875
482.9352, 82.92651
483.4173, 83.94365
483.8994, 84.24907
484.3815, 82.70489
484.8636, 81.27219
485.3457, 81.00908
485.8279, 82.34821
486.3100, 83.48091
486.7921, 84.49465
487.2742, 85.10175
487.7563, 84.99387
488.2384, 83.58359
488.7206, 82.47070
489.2027, 81.91978
489.6848, 81.77978
490.1669, 81.56784
490.6490, 81.32948
491.1311, 80.88573
491.6133, 80.00597
492.0954, 78.70033
492.5775, 78.01888
493.0596, 78.12200
493.5417, 78.18520
494.0238, 77.08895
494.5060, 75.09242
494.9881, 73.46883
495.4702, 72.74843
495.9523, 72.22778
496.4344, 70.88367
496.9165, 68.87012
497.3987, 66.77461
497.8808, 64.49068
498.3629, 62.51844
498.8450, 61.61006
499.3271, 61.86634
499.8092, 61.81668
500.2914, 60.27683
500.7735, 58.24798
501.2556, 56.64072
501.7377, 55.97143
502.2198, 55.41819
502.7019, 54.83458
503.1841, 54.23680
503.6662, 53.66352
504.1483, 52.88294
504.6304, 52.38522
505.1125, 52.60158
505.5946, 53.69247
506.0768, 53.34956
506.5589, 50.81227
507.0410, 47.97347
507.5231, 46.44905
508.0052, 46.44978
508.4873, 46.39537
508.9695, 46.11431
509.4516, 45.71154
509.9337, 45.35089
510.4158, 45.03405
510.8979, 44.80243
511.3800, 44.83544
511.8622, 44.91293
512.3443, 44.44219
512.8264, 43.45289
513.3085, 42.42862
513.7906, 41.53590
514.2728, 40.90456
514.7549, 40.80107
515.2370, 41.46243
515.7191, 42.07981
516.2012, 42.20380
516.6833, 41.94321
517.1655, 41.46899
517.6476, 40.54747
518.1297, 39.70881
518.6118, 39.08825
519.0939, 38.69436
519.5760, 38.55691
520.0582, 39.30820
520.5403, 39.77101
521.0224, 39.26118
521.5045, 37.00018
521.9866, 36.15490
522.4688, 37.46834
522.9509, 39.37783
523.4330, 39.82832
523.9151, 38.50032
524.3972, 37.50312
524.8793, 37.41368
525.3615, 37.83615
525.8436, 37.67809
526.3257, 36.94675
526.8078, 36.22416
527.2899, 35.77357
527.7720, 35.58308
528.2542, 35.68469
528.7363, 36.08480
529.2184, 36.57429
529.7005, 37.24831
530.1826, 37.81399
530.6647, 37.79844
531.1469, 36.65018
531.6290, 35.59853
532.1111, 35.37710
532.5932, 35.74382
533.0753, 36.20356
533.5574, 36.86113
534.0396, 37.35052
534.5217, 37.57755
535.0038, 37.53263
535.4859, 37.15813
535.9680, 35.93677
536.4501, 34.89839
536.9323, 34.69552
537.4144, 35.71001
537.8965, 36.52911
538.3786, 37.19827
538.8607, 37.57470
539.3428, 37.26465
539.8250, 36.19661
540.3071, 35.39761
540.7892, 35.22811
541.2713, 35.46583
541.7534, 35.65090
542.2355, 35.77954
542.7177, 35.80855
543.1998, 35.56627
543.6819, 35.26022
544.1640, 35.30235
544.6461, 35.74394
545.1282, 36.06879
545.6104, 35.85080
546.0925, 35.33905
546.5746, 34.79522
547.0567, 34.10191
547.5388, 33.65005
548.0209, 33.65283
548.5031, 33.99087
548.9852, 34.39941
549.4673, 34.96611
549.9494, 35.46993
550.4315, 35.91802
550.9136, 36.30938
551.3958, 36.29896
551.8779, 35.61055
552.3600, 34.98542
552.8421, 34.97426
553.3242, 35.66590
553.8063, 36.12212
554.2885, 36.28208
554.7706, 36.26472
555.2527, 36.19482
555.7348, 36.07728
556.2169, 35.95346
556.6990, 35.88446
557.1812, 35.75430
557.6633, 35.09325
558.1454, 34.13911
558.6275, 33.78714
559.1096, 35.34919
559.5917, 37.17805
560.0739, 37.78405
560.5560, 37.05247
561.0381, 36.34257
561.5202, 36.07788
562.0023, 36.13314
562.4844, 36.45067
562.9666, 37.59425
563.4487, 38.10680
563.9308, 37.33647
564.4129, 36.15194
564.8950, 36.01372
565.3771, 37.70129
565.8593, 38.64221
566.3414, 38.02512
566.8235, 36.25133
567.3056, 35.07335
567.7877, 34.53434
568.2698, 34.33152
568.7520, 34.37231
569.2341, 34.60912
569.7162, 34.94096
570.1983, 35.37849
570.6804, 35.64874
571.1625, 35.27930
571.6447, 34.62404
572.1268, 34.24774
572.6089, 34.30027
573.0910, 34.61890
573.5731, 35.38317
574.0552, 36.29613
574.5374, 36.85497
575.0195, 36.75004
575.5016, 36.40672
575.9837, 35.62631
576.4658, 34.52427
576.9479, 34.39627
577.4301, 36.29026
577.9122, 37.93916
578.3943, 38.19471
578.8764, 36.65376
579.3585, 36.08348
579.8406, 36.79677
580.3228, 37.78365
580.8049, 37.86719
581.2870, 37.11317
581.7691, 36.74635
582.2512, 37.05408
582.7333, 37.64627
583.2155, 38.03943
583.6975, 38.24154
