##NAMES=Marshite
##RRUFFID=R100001
##IDEAL CHEMISTRY=Cu^1+^I^1-^
##LOCALITY=Rubtsovskiy, Altai Kray, Russia
##OWNER=RRUFF
##SOURCE=Marcus Origlieri
##DESCRIPTION= Pale yellow vitreous tetrahedra associated with colorless cerussite
##STATUS=The identification of this mineral has been confirmed by single-crystal X-ray diffraction.
##URL=rruff.info/R100001
89.60352, 53.10954
90.08563, 53.16477
90.56775, 53.14618
91.04987, 52.85355
91.53198, 52.67337
92.01410, 53.34995
92.49622, 54.83408
92.97833, 56.16880
93.46045, 56.12798
93.94257, 55.12720
94.42468, 54.59776
94.90680, 55.36924
95.38892, 56.99428
95.87103, 57.98433
96.35315, 58.19763
96.83527, 58.32003
97.31738, 59.51261
97.79950, 61.82366
98.28162, 63.75173
98.76373, 64.40383
99.24585, 63.73718
99.72797, 63.44836
100.2101, 63.63141
100.6922, 64.16295
101.1743, 64.76385
101.6564, 65.43327
102.1385, 66.18832
102.6207, 67.19734
103.1028, 68.77361
103.5849, 69.53563
104.0670, 69.01007
104.5491, 67.43183
105.0313, 66.75645
105.5134, 68.10017
105.9955, 69.18657
106.4776, 67.94851
106.9597, 60.61747
107.4418, 56.37104
107.9240, 57.90329
108.4061, 66.31264
108.8882, 71.93845
109.3703, 72.54659
109.8524, 71.21239
110.3345, 71.16975
110.8167, 73.32772
111.2988, 75.99596
111.7809, 78.87502
112.2630, 82.09412
112.7451, 85.08217
113.2272, 85.57645
113.7094, 86.01923
114.1915, 90.49113
114.6736, 101.3708
115.1557, 115.4841
115.6378, 130.7488
116.1199, 144.3318
116.6021, 163.7860
117.0842, 192.1962
117.5663, 228.7157
118.0484, 270.8004
118.5305, 317.6454
119.0126, 369.5565
119.4948, 426.3178
119.9769, 488.5406
120.4590, 555.2776
120.9411, 624.6061
121.4232, 697.0723
121.9053, 774.7777
122.3875, 856.2145
122.8696, 944.2622
123.3517, 1042.918
123.8338, 1147.944
124.3159, 1267.797
124.7980, 1405.674
125.2802, 1561.660
125.7623, 1746.727
126.2444, 1972.892
126.7265, 2236.300
127.2086, 2526.674
127.6907, 2867.268
128.1729, 3227.750
128.6550, 3551.777
129.1371, 3838.940
129.6192, 4083.505
130.1013, 4280.878
130.5834, 4430.512
131.0656, 4542.490
131.5477, 4617.518
132.0298, 4657.672
132.5119, 4669.429
132.9940, 4646.781
133.4761, 4605.894
133.9583, 4574.321
134.4404, 4551.984
134.9225, 4539.806
135.4046, 4535.965
135.8867, 4540.151
136.3688, 4564.735
136.8510, 4615.616
137.3331, 4686.631
137.8152, 4758.828
138.2973, 4832.275
138.7794, 4907.300
139.2615, 4989.912
139.7437, 5085.402
140.2258, 5162.898
140.7079, 5216.968
141.1900, 5247.471
141.6721, 5259.070
142.1542, 5251.526
142.6364, 5225.659
143.1185, 5181.437
143.6006, 5117.242
144.0827, 5038.296
144.5648, 4943.683
145.0469, 4828.749
145.5291, 4718.161
146.0112, 4613.258
146.4933, 4510.667
146.9754, 4402.565
147.4575, 4277.782
147.9396, 4162.460
148.4218, 4063.411
148.9039, 3986.395
149.3860, 3913.383
149.8681, 3840.889
150.3502, 3773.608
150.8323, 3720.904
151.3145, 3686.958
151.7966, 3664.469
152.2787, 3651.021
152.7608, 3648.116
153.2429, 3652.159
153.7250, 3664.393
154.2072, 3683.623
154.6893, 3706.497
155.1714, 3720.096
155.6535, 3715.646
156.1356, 3714.252
156.6177, 3723.047
157.0999, 3731.059
157.5820, 3735.749
158.0641, 3737.932
158.5462, 3740.867
159.0283, 3745.358
159.5104, 3750.885
159.9926, 3757.098
160.4747, 3766.752
160.9568, 3774.301
161.4389, 3777.786
161.9210, 3777.429
162.4031, 3775.209
162.8853, 3773.221
163.3674, 3769.130
163.8495, 3760.792
164.3316, 3747.697
164.8137, 3730.079
165.2958, 3707.346
165.7780, 3679.441
166.2601, 3649.083
166.7422, 3616.176
167.2243, 3581.635
167.7064, 3547.111
168.1885, 3510.366
168.6707, 3475.387
169.1528, 3446.050
169.6349, 3422.677
170.1170, 3399.892
170.5991, 3373.579
171.0812, 3345.052
171.5634, 3317.006
172.0455, 3289.068
172.5276, 3262.691
173.0097, 3240.658
173.4918, 3223.800
173.9739, 3206.064
174.4561, 3180.580
174.9382, 3149.740
175.4203, 3119.153
175.9024, 3091.782
176.3845, 3066.583
176.8666, 3043.659
177.3488, 3024.129
177.8309, 3002.205
178.3130, 2969.538
178.7951, 2928.182
179.2772, 2887.059
179.7593, 2851.413
180.2415, 2819.290
180.7236, 2786.358
181.2057, 2752.070
181.6878, 2716.682
182.1699, 2678.068
182.6520, 2637.528
183.1342, 2599.034
183.6163, 2568.164
184.0984, 2541.853
184.5805, 2512.083
185.0626, 2476.726
185.5447, 2438.453
186.0269, 2399.541
186.5090, 2360.256
186.9911, 2323.429
187.4732, 2292.618
187.9553, 2266.350
188.4374, 2239.429
188.9196, 2211.174
189.4017, 2181.150
189.8838, 2147.208
190.3659, 2108.711
190.8480, 2070.484
191.3301, 2037.029
191.8123, 2007.442
192.2944, 1975.328
192.7765, 1938.888
193.2586, 1899.416
193.7407, 1861.610
194.2228, 1825.552
194.7050, 1790.554
195.1871, 1756.064
195.6692, 1722.083
196.1513, 1688.912
196.6334, 1656.899
197.1155, 1625.790
197.5977, 1593.629
198.0798, 1560.313
198.5619, 1526.841
199.0440, 1494.622
199.5261, 1463.564
200.0082, 1432.603
200.4904, 1400.361
200.9725, 1367.690
201.4546, 1339.577
201.9367, 1316.635
202.4188, 1296.357
202.9009, 1276.962
203.3831, 1258.503
203.8652, 1239.677
204.3473, 1219.283
204.8294, 1197.780
205.3115, 1180.959
205.7936, 1169.865
206.2758, 1161.217
206.7579, 1151.294
207.2400, 1139.593
207.7221, 1129.354
208.2042, 1121.788
208.6863, 1116.808
209.1685, 1111.219
209.6506, 1104.798
210.1327, 1098.128
210.6148, 1091.364
211.0969, 1083.823
211.5790, 1078.849
212.0612, 1078.236
212.5433, 1082.127
213.0254, 1083.444
213.5075, 1081.422
213.9896, 1077.846
214.4717, 1074.709
214.9538, 1071.832
215.4360, 1069.790
215.9181, 1068.931
216.4002, 1069.357
216.8823, 1069.177
217.3644, 1067.728
217.8465, 1066.405
218.3287, 1066.944
218.8108, 1069.681
219.2929, 1073.631
219.7750, 1079.293
220.2571, 1087.211
220.7392, 1091.884
221.2214, 1092.196
221.7035, 1090.455
222.1856, 1089.504
222.6677, 1089.498
223.1498, 1090.005
223.6319, 1091.006
224.1141, 1092.588
224.5962, 1094.193
225.0783, 1096.508
225.5604, 1098.221
226.0425, 1097.063
226.5246, 1090.575
227.0068, 1086.106
227.4889, 1086.923
227.9710, 1094.630
228.4531, 1096.758
228.9352, 1091.530
229.4173, 1082.236
229.8995, 1073.252
230.3816, 1064.800
230.8637, 1056.019
231.3458, 1046.575
231.8279, 1036.068
232.3100, 1026.721
232.7922, 1019.227
233.2743, 1012.369
233.7564, 1004.414
234.2385, 994.8171
234.7206, 985.1851
235.2027, 975.9455
235.6849, 967.1683
236.1670, 958.3200
236.6491, 949.1808
237.1312, 940.1540
237.6133, 931.9056
238.0954, 925.1002
238.5776, 917.7302
239.0597, 908.9533
239.5418, 898.4911
240.0239, 889.0496
240.5060, 880.3219
240.9881, 872.8587
241.4703, 867.5734
241.9524, 865.7342
242.4345, 863.7845
242.9166, 860.7528
243.3987, 856.4160
243.8808, 852.6404
244.3630, 849.6199
244.8451, 846.9677
245.3272, 844.1659
245.8093, 840.8275
246.2914, 838.0687
246.7735, 836.3513
247.2557, 835.8347
247.7378, 834.5384
248.2199, 831.8231
248.7020, 828.9229
249.1841, 827.1462
249.6662, 826.5546
250.1484, 826.9857
250.6305, 828.8640
251.1126, 832.3192
251.5947, 834.1385
252.0768, 833.0892
252.5589, 831.6718
253.0411, 832.8666
253.5232, 838.5513
254.0053, 842.6896
254.4874, 843.5807
254.9695, 841.1544
255.4516, 840.0736
255.9338, 841.4592
256.4159, 842.8303
256.8980, 841.3585
257.3801, 835.2166
257.8622, 830.7578
258.3444, 829.7684
258.8265, 832.0721
259.3086, 833.0010
259.7907, 832.2526
260.2728, 830.5834
260.7549, 828.7251
261.2371, 826.9331
261.7192, 824.0898
262.2013, 819.3423
262.6834, 813.0334
263.1655, 809.6167
263.6476, 810.5653
264.1298, 811.8351
264.6119, 809.7557
265.0940, 802.9219
265.5761, 797.5687
266.0582, 795.1073
266.5403, 794.9369
267.0225, 793.8131
267.5046, 792.0411
267.9867, 788.6512
268.4688, 782.3375
268.9509, 772.0327
269.4330, 763.2144
269.9152, 757.0526
270.3973, 752.7137
270.8794, 747.2007
271.3615, 740.4915
271.8436, 732.7050
272.3257, 723.7692
272.8079, 713.3944
273.2900, 703.6048
273.7721, 694.6461
274.2542, 686.2750
274.7363, 677.6771
275.2184, 668.8618
275.7006, 659.8915
276.1827, 651.2525
276.6648, 643.0339
277.1469, 633.4798
277.6290, 622.0687
278.1111, 609.7126
278.5933, 598.3971
279.0754, 588.0776
279.5575, 578.4189
280.0396, 569.5831
280.5217, 561.6494
281.0038, 552.4635
281.4860, 541.4807
281.9681, 530.0012
282.4502, 520.7108
282.9323, 513.7777
283.4144, 506.5286
283.8965, 497.1878
284.3787, 486.0717
284.8608, 476.1168
285.3429, 467.5972
285.8250, 459.6251
286.3071, 450.7640
286.7892, 441.0427
287.2714, 431.6829
287.7535, 423.1344
288.2356, 415.3156
288.7177, 408.3067
289.1998, 402.0800
289.6819, 396.4019
290.1641, 390.9727
290.6462, 385.8211
291.1283, 381.2158
291.6104, 378.2210
292.0925, 375.7285
292.5746, 370.0705
293.0568, 361.0173
293.5389, 351.3629
294.0210, 343.6342
294.5031, 337.6778
294.9852, 333.1818
295.4673, 331.0756
295.9495, 329.7889
296.4316, 325.5351
296.9137, 318.4409
297.3958, 312.0644
297.8779, 310.7178
298.3600, 312.4778
298.8422, 312.4198
299.3243, 308.5818
299.8064, 303.0629
300.2885, 298.5733
300.7706, 295.0445
301.2527, 291.8629
301.7349, 288.1982
302.2170, 284.6852
302.6991, 282.7526
303.1812, 283.4259
303.6633, 284.3257
304.1454, 282.9468
304.6276, 279.6405
305.1097, 275.5976
305.5918, 270.6688
306.0739, 265.7689
306.5560, 262.1845
307.0381, 260.3098
307.5203, 259.0414
308.0024, 257.5390
308.4845, 255.9387
308.9666, 254.5598
309.4487, 254.5098
309.9308, 254.1987
310.4130, 251.8488
310.8951, 246.9231
311.3772, 242.1944
311.8593, 239.5382
312.3414, 238.2629
312.8235, 237.2255
313.3057, 236.6102
313.7878, 235.5903
314.2699, 233.1004
314.7520, 228.9870
315.2341, 225.9338
315.7162, 226.6810
316.1984, 228.6945
316.6805, 229.1324
317.1626, 225.5054
317.6447, 221.6193
318.1268, 219.0296
318.6089, 217.6738
319.0911, 216.3420
319.5732, 214.6497
320.0553, 212.8026
320.5374, 210.9801
321.0195, 208.9658
321.5016, 207.2349
321.9838, 206.2851
322.4659, 205.8600
322.9480, 204.7069
323.4301, 201.8682
323.9122, 198.7348
324.3943, 196.0460
324.8765, 193.7318
325.3586, 192.0369
325.8407, 191.0098
326.3228, 190.6158
326.8049, 190.7693
327.2870, 193.0502
327.7692, 194.4945
328.2513, 193.8712
328.7334, 189.8766
329.2155, 186.8363
329.6976, 185.2651
330.1797, 184.4717
330.6619, 183.3569
331.1440, 181.1458
331.6261, 179.6571
332.1082, 179.7513
332.5903, 181.8550
333.0724, 182.3988
333.5546, 180.3061
334.0367, 177.6381
334.5188, 176.8182
335.0009, 178.9719
335.4830, 180.3722
335.9651, 180.0219
336.4473, 178.1023
336.9294, 177.1163
337.4115, 177.5972
337.8936, 177.9680
338.3757, 176.8702
338.8578, 174.0173
339.3399, 171.0573
339.8221, 167.9950
340.3042, 165.0918
340.7863, 163.2289
341.2684, 162.3555
341.7505, 162.6125
342.2326, 164.8588
342.7148, 169.0480
343.1969, 171.3493
343.6790, 171.2487
344.1611, 169.6080
344.6432, 167.5293
345.1253, 165.0196
345.6075, 162.8506
346.0896, 161.4191
346.5717, 160.6308
347.0538, 160.4075
347.5359, 160.8861
348.0180, 161.0933
348.5002, 159.3340
348.9823, 156.1431
349.4644, 153.7470
349.9465, 153.1321
350.4286, 153.7207
350.9107, 154.8428
351.3929, 156.4726
351.8750, 157.8964
352.3571, 158.7342
352.8392, 158.9373
353.3213, 158.3166
353.8034, 156.4065
354.2856, 154.2731
354.7677, 152.8435
355.2498, 152.0711
355.7319, 151.7269
356.2140, 151.9903
356.6961, 152.4581
357.1783, 152.7472
357.6604, 152.8006
358.1425, 152.6328
358.6246, 152.1942
359.1067, 151.5372
359.5888, 150.7650
360.0710, 149.3068
360.5531, 148.2105
361.0352, 148.3214
361.5173, 149.8716
361.9994, 151.1797
362.4815, 151.7170
362.9637, 151.6425
363.4458, 151.1273
363.9279, 149.7582
364.4100, 148.4015
364.8921, 147.1323
365.3742, 145.9847
365.8564, 145.5250
366.3385, 147.6895
366.8206, 149.3686
367.3027, 148.6923
367.7848, 140.4283
368.2669, 135.9175
368.7491, 138.6850
369.2312, 145.8669
369.7133, 149.1203
370.1954, 144.9889
370.6775, 140.6704
371.1596, 138.9577
371.6418, 140.9088
372.1239, 142.4663
372.6060, 143.9421
373.0881, 144.7924
373.5702, 143.9612
374.0523, 140.4059
374.5345, 137.5854
375.0166, 136.7206
375.4987, 137.7675
375.9808, 137.6340
376.4629, 135.8640
376.9450, 133.8853
377.4272, 132.9147
377.9093, 132.9983
378.3914, 133.8273
378.8735, 135.8371
379.3556, 138.1892
379.8377, 137.9532
380.3199, 134.8764
380.8020, 132.3147
381.2841, 133.3476
381.7662, 137.1344
382.2483, 138.9181
382.7304, 138.0407
383.2126, 135.9542
383.6947, 134.3111
384.1768, 133.1003
384.6589, 132.2507
385.1410, 131.7496
385.6231, 131.5648
386.1053, 131.7432
386.5874, 132.2941
387.0695, 132.8309
387.5516, 132.9477
388.0337, 132.8437
388.5158, 132.8998
388.9980, 133.6557
389.4801, 134.1575
389.9622, 133.4468
390.4443, 131.7351
390.9264, 129.8737
391.4085, 127.5506
391.8907, 125.7394
392.3728, 125.4102
392.8549, 127.2735
393.3370, 129.2167
393.8191, 130.2229
394.3012, 130.7258
394.7834, 131.4571
395.2655, 133.8751
395.7476, 135.4540
396.2297, 134.8199
396.7118, 131.5748
397.1939, 128.8084
397.6761, 127.3403
398.1582, 126.3734
398.6403, 125.2415
399.1224, 122.5914
399.6045, 121.3276
400.0866, 122.3990
400.5688, 125.3412
401.0509, 127.3847
401.5330, 128.4796
402.0151, 128.7710
402.4972, 128.1751
402.9793, 126.0927
403.4615, 124.6706
403.9436, 123.9978
404.4257, 123.9210
404.9078, 124.3441
405.3899, 125.4797
405.8720, 126.3101
406.3542, 126.4541
406.8363, 125.9528
407.3184, 125.2195
407.8005, 124.1092
408.2826, 123.3353
408.7647, 124.1069
409.2469, 126.2329
409.7290, 127.0908
410.2111, 125.7101
410.6932, 123.4078
411.1753, 122.8522
411.6574, 123.9053
412.1396, 125.1681
412.6217, 126.1266
413.1038, 126.5980
413.5859, 126.0316
414.0680, 124.2355
414.5501, 122.2661
415.0323, 121.2110
415.5144, 120.6978
415.9965, 119.9723
416.4786, 118.4630
416.9607, 116.8110
417.4428, 115.1378
417.9250, 113.5622
418.4071, 112.9694
418.8892, 115.4353
419.3713, 118.2411
419.8534, 118.8231
420.3355, 114.4050
420.8177, 111.3729
421.2998, 113.1352
421.7819, 117.6918
422.2640, 120.7396
422.7461, 120.3554
423.2282, 119.1346
423.7104, 117.9264
424.1925, 116.8312
424.6746, 115.5550
425.1567, 113.5768
425.6388, 111.7250
426.1209, 110.7307
426.6031, 110.9710
427.0852, 111.4911
427.5673, 112.2921
428.0494, 113.3002
428.5315, 114.1606
429.0136, 115.0554
429.4958, 115.3984
429.9779, 114.5691
430.4600, 112.2659
430.9421, 110.8745
431.4242, 110.5327
431.9063, 110.9602
432.3885, 112.1299
432.8706, 114.0493
433.3527, 115.1979
433.8348, 114.6388
434.3169, 113.0326
434.7990, 112.5101
435.2812, 113.0790
435.7633, 113.6818
436.2454, 113.0815
436.7275, 111.8574
437.2096, 111.4295
437.6917, 112.2746
438.1739, 113.4883
438.6560, 114.3542
439.1381, 114.8439
439.6202, 114.8800
440.1023, 114.3749
440.5844, 113.4322
441.0666, 111.7271
441.5487, 109.2057
442.0308, 107.5420
442.5129, 108.1879
442.9950, 109.8257
443.4771, 111.1967
443.9593, 112.5865
444.4414, 112.9950
444.9235, 111.3691
445.4056, 108.3952
445.8877, 106.4605
446.3698, 106.7382
446.8520, 107.4067
447.3341, 107.8295
447.8162, 108.0419
448.2983, 107.8299
448.7804, 106.8039
449.2625, 105.6252
449.7447, 105.0873
450.2268, 105.4133
450.7089, 105.8561
451.1910, 106.2755
451.6731, 106.6979
452.1552, 107.4256
452.6374, 108.6655
453.1195, 109.4157
453.6016, 108.5492
454.0837, 106.1562
454.5658, 105.2043
455.0479, 106.1768
455.5301, 107.7287
456.0122, 107.7729
456.4943, 106.5705
456.9764, 105.7114
457.4585, 106.2173
457.9406, 107.1711
458.4228, 106.6187
458.9049, 104.7585
459.3870, 103.5058
459.8691, 105.3512
460.3512, 108.1930
460.8333, 109.2089
461.3155, 107.2869
461.7976, 105.1049
462.2797, 103.8684
462.7618, 103.6098
463.2439, 104.4165
463.7260, 108.8084
464.2082, 112.0436
464.6903, 111.1187
465.1724, 105.9801
465.6545, 101.8873
466.1366, 99.51727
466.6187, 98.82641
467.1009, 99.81673
467.5830, 105.2355
468.0651, 108.6282
468.5472, 109.1997
469.0293, 107.9483
469.5114, 106.8028
469.9936, 105.7348
470.4757, 104.8336
470.9578, 104.0517
471.4399, 103.3929
471.9220, 103.5464
472.4041, 104.8587
472.8863, 105.9472
473.3684, 105.0184
473.8505, 102.1531
474.3326, 100.8275
474.8147, 101.9506
475.2968, 104.0703
475.7790, 104.7857
476.2611, 104.2231
476.7432, 103.2295
477.2253, 101.8679
477.7074, 100.4823
478.1895, 99.51380
478.6717, 98.97639
479.1538, 99.05463
479.6359, 100.6227
480.1180, 102.6254
480.6001, 103.7126
481.0822, 103.1497
481.5644, 102.2778
482.0465, 101.5393
482.5286, 101.0047
483.0107, 100.8265
483.4928, 101.4420
483.9749, 102.0798
484.4571, 102.4158
484.9392, 102.3993
485.4213, 102.3527
485.9034, 102.1694
486.3855, 102.0530
486.8676, 102.1576
487.3498, 102.6874
487.8319, 103.0621
488.3140, 103.1994
488.7961, 103.1804
489.2782, 103.2301
489.7603, 103.4200
490.2425, 103.4327
490.7246, 103.1221
491.2067, 102.5099
491.6888, 101.8879
492.1709, 101.3016
492.6530, 100.4616
493.1352, 98.31552
493.6173, 95.48579
494.0994, 95.01106
494.5815, 98.17838
495.0636, 102.1621
495.5457, 103.2977
496.0279, 102.1758
496.5100, 100.5517
496.9921, 98.50783
497.4742, 96.86325
497.9563, 96.68875
498.4384, 97.93464
498.9206, 98.94796
499.4027, 98.84753
499.8848, 98.16878
500.3669, 97.26160
500.8490, 95.56982
501.3311, 94.71449
501.8133, 95.66854
502.2954, 97.60097
502.7775, 98.94405
503.2596, 99.55691
503.7417, 99.59390
504.2238, 98.88080
504.7060, 97.43834
505.1881, 96.39494
505.6702, 95.92181
506.1523, 95.57890
506.6344, 95.03084
507.1165, 94.21887
507.5987, 93.60860
508.0808, 93.19887
508.5629, 93.07829
509.0450, 93.47258
509.5271, 94.35314
510.0092, 95.35768
510.4914, 96.57759
510.9735, 97.71086
511.4556, 98.04227
511.9377, 97.64000
512.4199, 97.10170
512.9020, 96.69254
513.3841, 96.44439
513.8662, 96.53363
514.3483, 97.11751
514.8304, 97.36282
515.3126, 96.71702
515.7947, 95.44011
516.2768, 93.85667
516.7589, 90.47742
517.2410, 88.46590
517.7231, 89.84297
518.2053, 93.78139
518.6874, 96.21196
519.1695, 95.23549
519.6516, 93.96284
520.1337, 93.45132
520.6158, 93.86105
521.0980, 94.36880
521.5801, 95.27068
522.0622, 95.89216
522.5443, 95.17445
523.0264, 92.66786
523.5085, 91.74472
523.9907, 93.54964
524.4728, 96.49602
524.9549, 96.62609
525.4370, 94.07485
525.9191, 92.16939
526.4012, 93.73271
526.8834, 96.87538
527.3655, 97.00548
527.8476, 94.16598
528.3297, 91.30336
528.8118, 90.97653
529.2939, 91.89326
529.7761, 92.51227
530.2582, 92.49722
530.7403, 92.10201
531.2224, 90.69032
531.7045, 89.12996
532.1866, 88.84566
532.6688, 91.79210
533.1509, 94.48425
533.6330, 95.57201
534.1151, 95.10429
534.5972, 95.43889
535.0793, 97.94127
535.5615, 99.84485
536.0436, 99.62013
536.5257, 96.43758
537.0078, 94.00858
537.4899, 92.32156
537.9720, 91.40578
538.4542, 91.67200
538.9363, 93.22896
539.4184, 94.10979
539.9005, 93.64614
540.3826, 92.51317
540.8647, 92.03798
541.3469, 92.18919
541.8290, 92.72331
542.3111, 94.21867
542.7932, 95.71729
543.2753, 95.46017
543.7574, 93.41834
544.2396, 91.44997
544.7217, 90.77394
545.2038, 90.84483
545.6859, 91.20023
546.1680, 92.14519
546.6501, 92.59324
547.1323, 91.28854
547.6144, 89.39791
548.0965, 88.92820
548.5786, 92.67657
549.0607, 95.06310
549.5428, 94.32966
550.0250, 90.86678
550.5071, 88.85362
550.9892, 88.75810
551.4713, 89.26709
551.9534, 89.76525
552.4355, 90.25703
552.9177, 90.71436
553.3998, 91.15497
553.8819, 91.50490
554.3640, 91.72371
554.8461, 91.79205
555.3282, 91.49732
555.8104, 90.51044
556.2925, 89.62822
556.7746, 90.44913
557.2567, 92.37659
557.7388, 93.55047
558.2209, 92.06326
558.7031, 90.10378
559.1852, 89.43599
559.6673, 90.07243
560.1494, 90.82415
560.6315, 91.80647
561.1136, 92.33255
561.5958, 91.77515
562.0779, 88.68950
562.5600, 87.19568
563.0421, 88.99123
563.5242, 91.64760
564.0063, 91.85268
564.4885, 87.88274
564.9706, 85.65645
565.4527, 87.01054
565.9348, 90.52621
566.4169, 91.01424
566.8990, 88.09030
567.3812, 85.35207
567.8633, 84.96437
568.3454, 86.30247
568.8275, 87.00856
569.3096, 87.04807
569.7917, 87.12193
570.2739, 88.33077
570.7560, 89.81267
571.2381, 90.02568
571.7202, 88.13922
572.2023, 86.50652
572.6844, 87.01704
573.1666, 88.63766
573.6487, 89.82114
574.1308, 89.77501
574.6129, 89.54351
575.0950, 89.53893
575.5771, 89.66339
576.0593, 89.25021
576.5414, 87.76005
577.0235, 86.38374
577.5056, 85.39154
577.9877, 84.71010
578.4698, 85.55323
578.9520, 88.60216
579.4341, 91.48812
579.9162, 91.64784
580.3983, 89.29279
580.8804, 87.59456
581.3625, 87.02996
581.8447, 87.12847
582.3268, 87.27990
582.8089, 87.56463
583.2910, 88.24721
583.7731, 89.98085
584.2552, 91.65862
584.7373, 92.14925
585.2194, 91.69917
585.7015, 91.23067
586.1837, 91.22724
586.6658, 91.26099
587.1479, 90.94350
