##NAMES=Marshite
##RRUFFID=R100001
##IDEAL CHEMISTRY=Cu^1+^I^1-^
##LOCALITY=Rubtsovskiy, Altai Kray, Russia
##OWNER=RRUFF
##SOURCE=Marcus Origlieri
##DESCRIPTION= Pale yellow vitreous tetrahedra associated with colorless cerussite
##STATUS=The identification of this mineral has been confirmed by single-crystal X-ray diffraction.
##URL=rruff.info/R100001
91.18097, 0.0000000E+00
91.66309, 8590.655
92.14520, 8444.431
92.62732, 8449.079
93.10944, 8611.777
93.59155, 8824.789
94.07367, 8991.504
94.55579, 9121.361
95.03790, 9233.890
95.52002, 9344.112
96.00214, 9453.597
96.48425, 9551.742
96.96637, 9629.572
97.44849, 9711.527
97.93060, 9814.085
98.41272, 9930.214
98.89484, 10049.07
99.37695, 10181.08
99.85907, 10329.63
100.3412, 10494.44
100.8233, 10678.46
101.3054, 10874.79
101.7875, 11072.82
102.2697, 11268.05
102.7518, 11459.97
103.2339, 11660.33
103.7160, 11876.12
104.1981, 12089.77
104.6802, 12289.38
105.1624, 12476.50
105.6445, 12666.79
106.1266, 12869.69
106.6087, 13086.08
107.0908, 13311.93
107.5729, 13544.03
108.0551, 13787.23
108.5372, 14046.27
109.0193, 14321.79
109.5014, 14610.36
109.9835, 14914.40
110.4656, 15233.46
110.9478, 15566.87
111.4299, 15914.60
111.9120, 16278.67
112.3941, 16675.68
112.8762, 17115.87
113.3583, 17588.01
113.8405, 18091.04
114.3226, 18620.65
114.8047, 19165.82
115.2868, 19708.88
115.7689, 20251.83
116.2510, 20801.51
116.7332, 21392.88
117.2153, 21972.69
117.6974, 22501.58
118.1795, 22969.33
118.6616, 23395.79
119.1437, 23825.83
119.6259, 24353.35
120.1080, 24757.86
120.5901, 25049.07
121.0722, 25213.12
121.5543, 25235.33
122.0364, 25109.03
122.5186, 24832.66
123.0007, 24375.73
123.4828, 23727.65
123.9649, 22964.72
124.4470, 22083.13
124.9291, 21097.12
125.4113, 20061.52
125.8934, 18983.28
126.3755, 17881.40
126.8576, 16838.44
127.3397, 15862.21
127.8218, 14942.61
128.3040, 14060.25
128.7861, 13215.86
129.2682, 12426.42
129.7503, 11714.61
130.2324, 11063.24
130.7145, 10464.13
131.1967, 9922.372
131.6788, 9430.293
132.1609, 8964.341
132.6430, 8509.440
133.1251, 8103.060
133.6072, 7759.997
134.0894, 7470.732
134.5715, 7214.318
135.0536, 6978.345
135.5357, 6762.260
136.0178, 6561.309
136.4999, 6379.346
136.9821, 6211.060
137.4642, 6060.565
137.9463, 5924.108
138.4284, 5794.007
138.9105, 5660.663
139.3926, 5524.102
139.8748, 5382.914
140.3569, 5229.577
140.8390, 5077.181
141.3211, 4937.351
141.8032, 4812.468
142.2853, 4691.379
142.7675, 4557.011
143.2496, 4403.682
143.7317, 4246.194
144.2138, 4077.373
144.6959, 3906.865
145.1780, 3746.650
145.6602, 3601.347
146.1423, 3467.286
146.6244, 3335.986
147.1065, 3205.844
147.5886, 3081.684
148.0707, 2964.153
148.5529, 2853.766
149.0350, 2752.908
149.5171, 2663.572
149.9992, 2584.169
150.4813, 2508.506
150.9634, 2436.240
151.4456, 2368.204
151.9277, 2304.604
152.4098, 2245.018
152.8919, 2190.502
153.3740, 2142.936
153.8561, 2100.222
154.3383, 2061.037
154.8204, 2025.500
155.3025, 1993.012
155.7846, 1962.825
156.2667, 1936.331
156.7488, 1909.398
157.2310, 1878.523
157.7131, 1847.542
158.1952, 1820.056
158.6773, 1797.989
159.1594, 1780.576
159.6415, 1765.181
160.1237, 1756.367
160.6058, 1743.877
161.0879, 1722.482
161.5700, 1697.108
162.0521, 1674.787
162.5342, 1660.200
163.0164, 1652.729
163.4985, 1644.287
163.9806, 1633.865
164.4627, 1623.521
164.9448, 1616.071
165.4269, 1609.483
165.9091, 1598.769
166.3912, 1579.402
166.8733, 1551.161
167.3554, 1526.409
167.8375, 1506.563
168.3196, 1488.258
168.8018, 1469.773
169.2839, 1451.006
169.7660, 1433.050
170.2481, 1417.309
170.7302, 1403.656
171.2123, 1388.278
171.6945, 1369.523
172.1766, 1349.835
172.6587, 1331.545
173.1408, 1314.918
173.6229, 1299.198
174.1050, 1284.188
174.5872, 1269.578
175.0693, 1254.575
175.5514, 1238.660
176.0335, 1222.151
176.5156, 1205.731
176.9977, 1189.124
177.4799, 1172.978
177.9620, 1157.339
178.4441, 1142.332
178.9262, 1128.616
179.4083, 1117.760
179.8904, 1109.002
180.3726, 1097.712
180.8547, 1081.483
181.3368, 1065.378
181.8189, 1051.816
182.3010, 1040.396
182.7831, 1029.933
183.2653, 1019.517
183.7474, 1009.118
184.2295, 999.2230
184.7116, 993.1916
185.1937, 984.7264
185.6758, 968.7381
186.1580, 947.3052
186.6401, 927.5524
187.1222, 917.8759
187.6043, 922.3192
188.0864, 918.9774
188.5685, 901.8043
189.0507, 883.0082
189.5328, 867.7589
190.0149, 856.7766
190.4970, 848.7158
190.9791, 842.3732
191.4612, 839.6420
191.9434, 832.3488
192.4255, 816.2859
192.9076, 799.3487
193.3897, 787.0472
193.8718, 780.2317
194.3539, 775.7697
194.8361, 769.9352
195.3182, 762.3271
195.8003, 753.8856
196.2824, 744.0573
196.7645, 733.7172
197.2466, 723.5763
197.7288, 713.7941
198.2109, 704.3661
198.6930, 695.3598
199.1751, 686.7955
199.6572, 678.3866
200.1393, 669.0861
200.6215, 660.2307
201.1036, 654.0679
201.5857, 651.5219
202.0678, 650.1537
202.5499, 646.7131
203.0320, 641.4185
203.5142, 636.2295
203.9963, 631.7333
204.4784, 627.8305
204.9605, 624.3688
205.4426, 621.4396
205.9247, 618.7545
206.4069, 615.9913
206.8890, 613.1621
207.3711, 610.5155
207.8532, 609.6017
208.3353, 609.5050
208.8174, 604.9007
209.2996, 590.7314
209.7817, 577.2175
210.2638, 572.7265
210.7459, 576.0422
211.2280, 579.6644
211.7101, 576.6213
212.1923, 567.1995
212.6744, 562.3046
213.1565, 567.2552
213.6386, 572.9927
214.1207, 574.5055
214.6028, 572.3117
215.0850, 569.9485
215.5671, 571.7169
216.0492, 578.6371
216.5313, 581.4149
217.0134, 575.7437
217.4955, 569.0957
217.9777, 563.7275
218.4598, 559.9526
218.9419, 557.2377
219.4240, 555.1676
219.9061, 553.8187
220.3882, 552.7750
220.8704, 552.2191
221.3525, 551.7897
221.8346, 550.9786
222.3167, 550.0103
222.7988, 549.8401
223.2809, 551.9098
223.7631, 557.6575
224.2452, 559.2924
224.7273, 553.8763
225.2094, 547.6605
225.6915, 543.7491
226.1736, 542.2023
226.6558, 541.1311
227.1379, 538.3820
227.6200, 533.1028
228.1021, 530.2701
228.5842, 531.5214
229.0663, 533.4274
229.5485, 534.0511
230.0306, 533.3027
230.5127, 532.3969
230.9948, 532.8817
231.4769, 535.4956
231.9590, 534.1979
232.4412, 524.3336
232.9233, 514.5585
233.4054, 511.7717
233.8875, 515.7758
234.3696, 519.8197
234.8517, 517.1576
235.3339, 506.7643
235.8160, 499.7583
236.2981, 498.0615
236.7802, 498.2376
237.2623, 497.5508
237.7444, 495.9049
238.2266, 495.5785
238.7087, 499.8375
239.1908, 508.1107
239.6729, 510.8774
240.1550, 504.0270
240.6371, 494.0496
241.1193, 485.4640
241.6014, 478.5391
242.0835, 473.7585
242.5656, 472.8183
243.0477, 474.5326
243.5298, 473.7979
244.0120, 467.5609
244.4941, 460.3037
244.9762, 456.3453
245.4583, 455.8410
245.9404, 456.3506
246.4225, 456.8331
246.9047, 457.1443
247.3868, 456.9215
247.8689, 455.3805
248.3510, 453.9019
248.8331, 454.4569
249.3152, 457.3155
249.7974, 459.5119
250.2795, 458.9195
250.7616, 456.8261
251.2437, 454.9485
251.7258, 453.6454
252.2079, 452.5934
252.6901, 451.4465
253.1722, 450.2063
253.6543, 448.8876
254.1364, 447.1445
254.6185, 445.5048
255.1006, 444.5500
255.5828, 444.5014
256.0649, 444.9068
256.5470, 445.4448
257.0291, 446.2349
257.5112, 446.4288
257.9933, 445.1633
258.4755, 443.4613
258.9576, 442.3588
259.4397, 442.2133
259.9218, 441.5089
260.4039, 437.4002
260.8860, 428.7828
261.3682, 423.1209
261.8503, 425.3895
262.3324, 429.3129
262.8145, 430.8049
263.2966, 429.2047
263.7787, 427.3196
264.2609, 429.7536
264.7430, 438.2393
265.2251, 441.2866
265.7072, 430.9513
266.1893, 419.1104
266.6714, 411.8318
267.1536, 409.6134
267.6357, 409.0757
268.1178, 406.3439
268.5999, 400.7279
269.0820, 397.0470
269.5641, 397.5715
270.0463, 398.5203
270.5284, 398.6457
271.0105, 397.7554
271.4926, 396.0528
271.9747, 393.9020
272.4568, 391.4351
272.9390, 387.2572
273.4211, 377.6340
273.9032, 369.5629
274.3853, 366.0794
274.8674, 366.3773
275.3495, 367.9008
275.8317, 368.8824
276.3138, 369.3322
276.7959, 368.2279
277.2780, 363.9521
277.7601, 359.5262
278.2422, 355.1573
278.7244, 351.2502
279.2065, 348.6445
279.6886, 348.2304
280.1707, 349.6154
280.6528, 348.6320
281.1349, 341.8730
281.6171, 336.2594
282.0992, 334.1866
282.5813, 333.9037
283.0634, 332.5945
283.5455, 328.5391
284.0276, 322.5102
284.5098, 317.9999
284.9919, 315.5861
285.4740, 314.2238
285.9561, 314.6778
286.4382, 315.7622
286.9203, 316.2501
287.4025, 315.5820
287.8846, 313.8747
288.3667, 311.3990
288.8488, 307.6332
289.3309, 303.7434
289.8130, 299.2242
290.2952, 294.9306
290.7773, 291.5609
291.2594, 289.3772
291.7415, 288.2298
292.2236, 287.9630
292.7057, 289.5167
293.1879, 290.3875
293.6700, 290.9616
294.1521, 290.7089
294.6342, 288.3564
295.1163, 284.0821
295.5984, 280.2319
296.0806, 280.3702
296.5627, 287.4641
297.0448, 289.7800
297.5269, 283.6193
298.0090, 276.5631
298.4911, 272.7801
298.9733, 272.5806
299.4554, 274.3230
299.9375, 276.7500
300.4196, 280.3956
300.9017, 280.9425
301.3839, 274.6545
301.8660, 269.4012
302.3481, 269.9502
302.8302, 274.5960
303.3123, 277.8754
303.7944, 275.3229
304.2766, 267.1994
304.7587, 262.8037
305.2408, 265.4071
305.7229, 267.8986
306.2050, 268.6695
306.6871, 268.0077
307.1693, 266.4355
307.6514, 264.1585
308.1335, 261.5281
308.6156, 260.2089
309.0977, 261.4771
309.5798, 262.6269
310.0620, 263.5922
310.5441, 264.2334
311.0262, 264.2122
311.5083, 263.4049
311.9904, 262.3291
312.4725, 262.1870
312.9547, 265.2898
313.4368, 266.0480
313.9189, 262.1846
314.4010, 257.3974
314.8831, 255.3867
315.3652, 256.8361
315.8474, 259.0446
316.3295, 258.0136
316.8116, 251.5693
317.2937, 247.5875
317.7758, 246.4990
318.2579, 247.1284
318.7401, 250.1309
319.2222, 254.6851
319.7043, 257.8407
320.1864, 256.2752
320.6685, 248.9672
321.1506, 245.3945
321.6328, 250.3724
322.1149, 253.7392
322.5970, 249.4457
323.0791, 240.0544
323.5612, 232.3669
324.0433, 231.2046
324.5255, 235.9001
325.0076, 239.1133
325.4897, 238.2342
325.9718, 238.8456
326.4539, 244.7303
326.9360, 252.0673
327.4182, 254.7976
327.9003, 249.9172
328.3824, 240.4144
328.8645, 234.6906
329.3466, 235.3763
329.8287, 236.6948
330.3109, 239.7189
330.7930, 242.5508
331.2751, 243.2439
331.7572, 241.3332
332.2393, 238.0276
332.7214, 234.9215
333.2036, 230.9187
333.6857, 229.9384
334.1678, 234.8423
334.6499, 239.9481
335.1320, 241.7494
335.6141, 240.1123
336.0963, 236.9091
336.5784, 233.8256
337.0605, 230.7748
337.5426, 228.5597
338.0247, 227.7385
338.5068, 227.1474
338.9890, 226.5926
339.4711, 225.9566
339.9532, 224.9836
340.4353, 223.3821
340.9174, 221.4231
341.3995, 220.8319
341.8817, 222.1922
342.3638, 224.4023
342.8459, 228.4899
343.3280, 232.8775
343.8101, 235.8272
344.2922, 236.5989
344.7744, 235.6167
345.2565, 233.6246
345.7386, 229.8184
346.2207, 226.5622
346.7028, 223.8421
347.1849, 221.7496
347.6671, 220.2745
348.1492, 219.4446
348.6313, 219.4702
349.1134, 221.1227
349.5955, 225.2884
350.0776, 227.1079
350.5598, 224.3566
351.0419, 221.1890
351.5240, 218.4602
352.0061, 216.6721
352.4882, 216.7022
352.9703, 219.8826
353.4525, 225.6859
353.9346, 228.5558
354.4167, 226.6912
354.8988, 224.0583
355.3809, 220.0579
355.8630, 216.5528
356.3452, 216.6980
356.8273, 222.5299
357.3094, 230.7052
357.7915, 233.5922
358.2736, 229.2452
358.7557, 224.5463
359.2379, 220.6532
359.7200, 217.2835
360.2021, 213.8629
360.6842, 210.3323
361.1663, 207.9487
361.6484, 208.3366
362.1306, 211.6872
362.6127, 215.7445
363.0948, 222.8753
363.5769, 227.9911
364.0590, 227.5270
364.5411, 222.3564
365.0233, 216.2692
365.5054, 210.5780
365.9875, 205.8479
366.4696, 205.0615
366.9517, 210.1354
367.4338, 215.4682
367.9160, 219.3514
368.3981, 221.4169
368.8802, 220.4623
369.3623, 214.6232
369.8444, 207.6895
370.3265, 205.6089
370.8087, 208.9276
371.2908, 212.2658
371.7729, 213.6615
372.2550, 214.1002
372.7371, 214.6392
373.2192, 215.4250
373.7014, 215.9272
374.1835, 215.5517
374.6656, 214.4988
375.1477, 213.7459
375.6298, 213.7292
376.1119, 213.6358
376.5941, 212.5906
377.0762, 210.7445
377.5583, 208.7972
378.0404, 206.4873
378.5225, 204.4381
379.0046, 203.5600
379.4868, 203.9305
379.9689, 205.2878
380.4510, 208.3519
380.9331, 212.1904
381.4152, 214.0237
381.8973, 212.5658
382.3795, 210.2670
382.8616, 208.0142
383.3437, 206.0748
383.8258, 205.7822
384.3079, 208.1837
384.7900, 211.7357
385.2722, 213.3725
385.7543, 213.0532
386.2364, 211.7734
386.7185, 208.3000
387.2006, 204.6237
387.6827, 204.3080
388.1649, 208.0714
388.6470, 211.3219
389.1291, 208.2697
389.6112, 197.6431
390.0933, 193.6367
390.5754, 203.3744
391.0576, 213.3545
391.5397, 214.2685
392.0218, 207.9614
392.5039, 202.1747
392.9860, 201.7286
393.4681, 205.3469
393.9503, 206.9198
394.4324, 204.5293
394.9145, 202.6507
395.3966, 202.0438
395.8787, 202.2451
396.3608, 203.4239
396.8430, 205.4624
397.3251, 206.4248
397.8072, 202.7749
398.2893, 190.2732
398.7714, 184.9988
399.2535, 192.8161
399.7357, 201.6220
400.2178, 204.7549
400.6999, 202.5430
401.1820, 198.3514
401.6641, 194.2116
402.1462, 190.4651
402.6284, 191.3592
403.1105, 204.9012
403.5926, 213.5394
404.0747, 211.0851
404.5568, 203.4028
405.0389, 196.7802
405.5211, 193.6908
406.0032, 193.7596
406.4853, 197.7045
406.9674, 208.8449
407.4495, 213.6320
407.9316, 202.5370
408.4138, 191.3809
408.8959, 190.4244
409.3780, 198.6161
409.8601, 206.8149
410.3422, 206.6512
410.8243, 199.4193
411.3065, 196.0309
411.7886, 198.9423
412.2707, 201.5660
412.7528, 201.0394
413.2349, 198.4426
413.7170, 194.7861
414.1992, 189.6169
414.6813, 185.3703
415.1634, 186.2221
415.6455, 192.4809
416.1276, 197.8428
416.6097, 200.3548
417.0919, 201.2090
417.5740, 201.9212
418.0561, 202.5346
418.5382, 202.0642
419.0203, 199.6319
419.5024, 195.8023
419.9846, 191.0690
420.4667, 184.9089
420.9488, 180.6588
421.4309, 182.6137
421.9130, 188.9326
422.3951, 192.6877
422.8773, 190.8792
423.3594, 188.2443
423.8415, 188.0966
424.3236, 189.9263
424.8057, 191.9282
425.2878, 193.5287
425.7700, 194.5453
426.2521, 194.4220
426.7342, 192.8333
427.2163, 191.2711
427.6984, 189.5828
428.1805, 188.2573
428.6627, 187.7727
429.1448, 188.2035
429.6269, 189.4591
430.1090, 191.6200
430.5911, 194.7854
431.0732, 197.0361
431.5554, 199.4861
432.0375, 200.0524
432.5196, 196.5036
433.0017, 190.9076
433.4838, 186.5120
433.9659, 184.8312
434.4481, 185.2062
434.9302, 186.3298
435.4123, 189.0220
435.8944, 190.9458
436.3765, 193.3109
436.8586, 194.0501
437.3408, 190.2016
437.8229, 182.8009
438.3050, 176.5625
438.7871, 175.9315
439.2692, 180.5553
439.7513, 184.1771
440.2335, 186.8460
440.7156, 188.3196
441.1977, 188.5961
441.6798, 187.7769
442.1619, 185.4530
442.6440, 181.2251
443.1262, 177.3228
443.6083, 177.4702
444.0904, 182.1001
444.5725, 185.4059
445.0546, 186.0804
445.5367, 185.2165
446.0189, 183.0277
446.5010, 179.8728
446.9831, 177.5643
447.4652, 177.5535
447.9473, 178.8515
448.4294, 179.5841
448.9116, 179.6248
449.3937, 179.8422
449.8758, 181.0913
450.3579, 182.6942
450.8400, 183.1672
451.3221, 182.0223
451.8043, 180.6370
452.2864, 179.5602
452.7685, 178.7845
453.2506, 178.2380
453.7327, 177.8717
454.2148, 177.9463
454.6970, 178.8378
455.1791, 180.7021
455.6612, 182.5855
456.1433, 185.7947
456.6254, 187.8497
457.1075, 186.6349
457.5897, 182.9283
458.0718, 178.9974
458.5539, 176.0141
459.0360, 173.9046
459.5181, 172.3901
460.0002, 169.7619
460.4824, 170.2793
460.9645, 178.9728
461.4466, 187.4254
461.9287, 186.9579
462.4108, 177.8627
462.8929, 168.7139
463.3751, 168.5661
463.8572, 177.5236
464.3393, 182.1197
464.8214, 178.8929
465.3035, 175.2854
465.7856, 172.3752
466.2678, 170.5741
466.7499, 170.5792
467.2320, 172.7487
467.7141, 175.6832
468.1962, 177.1432
468.6783, 176.9182
469.1605, 177.7464
469.6426, 181.6603
470.1247, 184.9367
470.6068, 184.0702
471.0889, 180.0844
471.5710, 177.3004
472.0532, 179.2350
472.5353, 182.9455
473.0174, 183.0605
473.4995, 179.3816
473.9816, 177.2623
474.4637, 180.6711
474.9459, 186.1858
475.4280, 186.6644
475.9101, 180.3229
476.3922, 174.7070
476.8743, 173.2193
477.3564, 173.9567
477.8386, 174.0874
478.3207, 173.1536
478.8028, 172.7298
479.2849, 174.5488
479.7670, 178.6256
480.2491, 180.7663
480.7313, 179.4255
481.2134, 178.1958
481.6955, 179.3342
482.1776, 181.0843
482.6597, 180.2770
483.1418, 175.8391
483.6240, 170.0027
484.1061, 166.3079
484.5882, 164.5916
485.0703, 165.6596
485.5524, 172.9669
486.0345, 179.5265
486.5167, 181.8258
486.9988, 180.7688
487.4809, 178.9216
487.9630, 177.7452
488.4451, 176.0076
488.9272, 175.2031
489.4094, 172.3568
489.8915, 169.9126
490.3736, 167.6566
490.8557, 166.4236
491.3378, 167.7408
491.8199, 171.4167
492.3021, 174.0365
492.7842, 171.8175
493.2663, 167.1222
493.7484, 166.0906
494.2305, 169.5542
494.7126, 173.6261
495.1948, 176.4319
495.6769, 178.0239
496.1590, 178.6787
496.6411, 177.8738
497.1232, 177.1337
497.6053, 177.2030
498.0875, 177.8143
498.5696, 178.9339
499.0517, 180.5517
499.5338, 181.1919
500.0159, 178.8292
500.4980, 173.0025
500.9802, 169.8758
501.4623, 172.7677
501.9444, 174.4023
502.4265, 169.9921
502.9086, 162.9358
503.3907, 158.9772
503.8729, 160.3933
504.3550, 164.9463
504.8371, 168.8371
505.3192, 171.8345
505.8013, 174.8470
506.2834, 180.5382
506.7656, 183.7149
507.2477, 180.0221
507.7298, 171.9843
508.2119, 165.5362
508.6940, 164.2267
509.1761, 165.8621
509.6583, 165.9882
510.1404, 164.3138
510.6225, 162.7647
511.1046, 161.5364
511.5867, 160.9780
512.0688, 161.6390
512.5510, 163.4557
513.0331, 165.0697
513.5152, 165.3487
513.9973, 165.2792
514.4794, 166.4726
514.9615, 168.9780
515.4437, 171.6722
515.9258, 174.5892
516.4079, 176.7913
516.8900, 175.0458
517.3721, 166.9943
517.8542, 160.4798
518.3364, 157.1664
518.8185, 156.2232
519.3006, 157.2305
519.7827, 159.8917
520.2648, 163.5964
520.7469, 168.0724
521.2291, 173.1463
521.7112, 176.2004
522.1933, 176.2188
522.6754, 175.2605
523.1575, 173.4546
523.6396, 170.8698
524.1218, 166.7728
524.6039, 161.3501
525.0860, 156.9685
525.5681, 156.7708
526.0502, 160.6554
526.5323, 163.3307
527.0145, 164.6543
527.4966, 164.9380
527.9787, 163.7820
528.4608, 161.9362
528.9429, 160.3937
529.4250, 159.3892
529.9072, 158.7161
530.3893, 157.9814
530.8714, 157.4180
531.3535, 158.1922
531.8356, 160.9037
532.3177, 163.1568
532.7999, 161.8001
533.2820, 157.2198
533.7641, 156.5308
534.2462, 164.9272
534.7283, 171.8540
535.2104, 170.8082
535.6926, 165.4035
536.1747, 162.0902
536.6568, 163.0040
537.1389, 165.6066
537.6210, 166.4036
538.1031, 164.9893
538.5853, 163.5593
539.0674, 161.7589
539.5495, 160.3234
540.0316, 159.5140
540.5137, 159.2307
540.9958, 159.3129
541.4780, 159.6963
541.9601, 160.3638
542.4422, 161.6001
542.9243, 163.5255
543.4064, 164.3341
543.8885, 163.7272
544.3707, 161.9677
544.8528, 157.3095
545.3349, 151.6572
545.8170, 150.4689
546.2991, 159.2302
546.7813, 168.8041
547.2634, 169.1197
547.7455, 162.5193
548.2276, 158.7226
548.7097, 161.1632
549.1918, 165.9417
549.6740, 168.2237
550.1561, 167.5555
550.6382, 166.2016
551.1203, 163.9371
551.6024, 161.2100
552.0845, 156.7394
552.5667, 152.2319
553.0488, 151.7214
553.5309, 156.9324
554.0130, 163.8485
554.4951, 164.5832
554.9772, 155.8989
555.4594, 150.9124
555.9415, 153.2576
556.4236, 155.8938
556.9057, 155.6352
557.3878, 153.7529
557.8699, 153.1356
558.3521, 155.3138
558.8342, 158.4797
559.3163, 160.3236
559.7984, 160.8586
560.2805, 160.7184
560.7626, 159.8396
561.2448, 158.6503
561.7269, 158.0162
562.2090, 157.6234
562.6911, 155.5998
563.1732, 149.3809
563.6553, 143.5451
564.1375, 141.1175
564.6196, 141.3891
565.1017, 142.8131
565.5838, 144.8901
566.0659, 147.1087
566.5480, 148.8490
567.0302, 150.3395
567.5123, 150.2921
567.9944, 146.0446
568.4765, 143.3475
568.9586, 145.5280
569.4407, 150.2768
569.9229, 154.0436
570.4050, 155.4667
570.8871, 155.6487
571.3692, 156.0660
571.8513, 156.7407
572.3334, 157.1764
572.8156, 157.4520
573.2977, 157.2887
573.7798, 156.3475
574.2619, 154.9180
574.7440, 153.4475
575.2261, 151.8218
575.7083, 150.6293
576.1904, 151.0054
576.6725, 152.0930
577.1546, 151.3298
577.6367, 148.0218
578.1188, 144.8278
578.6010, 144.2122
579.0831, 146.1873
579.5652, 148.9314
580.0473, 152.6006
580.5294, 156.7299
581.0115, 162.9223
581.4937, 168.6311
581.9758, 170.4068
582.4579, 167.7898
582.9400, 163.7218
583.4221, 161.2926
583.9042, 160.4062
584.3864, 158.4496
584.8685, 154.2413
585.3506, 151.0431
585.8327, 149.6482
586.3148, 149.9083
586.7969, 152.6697
587.2791, 158.1804
587.7612, 162.2015
588.2433, 161.3714
588.7254, 157.2833
