##NAMES=Marsturite
##RRUFFID=R141122
##IDEAL CHEMISTRY=NaCaMn^2+^_3_Si_5_O_14_(OH)
##LOCALITY=Joaquina 1<sup>a</sup> mine, Bellmunt del Priorat, Tarragona, Catalonia, Spain
##OWNER=RRUFF
##SOURCE=Joan Abella i Creus
##DESCRIPTION=Massive aggregate of elongated or bladed grey to grey-brownish crystals
##STATUS=The identification of this mineral is confirmed by single-crystal X-ray diffraction and chemical analysis.
##URL=rruff.info/R141122
##MEASURED CHEMISTRY=(Na_0.91_Ca_0.09_)(Ca_0.97_Mn^2+^_0.03_)(Mn^2+^_2.98_Mg_0.03_Fe^2+^_0.01_)_Σ=3.02_(Si_4.95_V^3+^_0.02_)_Σ=4.97_O_14_(OH)
100.7201, 75.30701
101.2023, 75.35379
101.6844, 75.80032
102.1665, 76.45493
102.6486, 77.32913
103.1307, 78.38625
103.6128, 79.68826
104.0950, 81.30997
104.5771, 82.80005
105.0592, 83.57146
105.5413, 84.01311
106.0234, 84.72060
106.5055, 86.01100
106.9877, 87.77639
107.4698, 89.58934
107.9519, 91.38631
108.4340, 93.32269
108.9161, 95.25381
109.3982, 97.32466
109.8804, 99.83728
110.3625, 103.0908
110.8446, 107.1418
111.3267, 111.5953
111.8088, 116.5376
112.2909, 121.7688
112.7731, 127.5997
113.2552, 133.8532
113.7373, 139.8790
114.2194, 144.7793
114.7015, 149.1657
115.1836, 150.8047
115.6658, 149.0721
116.1479, 145.0774
116.6300, 139.5258
117.1121, 132.5848
117.5942, 124.8382
118.0763, 117.6040
118.5584, 110.5719
119.0406, 104.4012
119.5227, 99.38271
120.0048, 95.39631
120.4869, 92.11167
120.9690, 89.49850
121.4511, 87.53913
121.9333, 85.92362
122.4154, 84.63073
122.8975, 83.70969
123.3796, 83.33466
123.8617, 83.56255
124.3438, 83.83562
124.8260, 83.91940
125.3081, 83.90051
125.7902, 83.84347
126.2723, 83.77360
126.7544, 83.67306
127.2365, 83.47565
127.7187, 83.04005
128.2008, 82.75651
128.6829, 82.78912
129.1650, 83.00635
129.6471, 83.24180
130.1292, 83.39699
130.6114, 83.47540
131.0935, 83.52220
131.5756, 83.42179
132.0577, 83.40245
132.5398, 83.45180
133.0219, 83.62256
133.5041, 84.01070
133.9862, 84.70934
134.4683, 85.76264
134.9504, 86.92400
135.4325, 88.04748
135.9146, 89.36429
136.3968, 90.70890
136.8789, 92.17371
137.3610, 94.40206
137.8431, 98.20469
138.3252, 103.9344
138.8073, 109.9553
139.2895, 116.8077
139.7716, 123.6843
140.2537, 130.1420
140.7358, 136.3937
141.2179, 140.8663
141.7000, 141.0731
142.1821, 137.5424
142.6643, 132.0759
143.1464, 124.3274
143.6285, 114.9699
144.1106, 106.3318
144.5927, 98.80424
145.0748, 92.43879
145.5570, 87.03136
146.0391, 82.59039
146.5212, 78.92110
147.0033, 75.98299
147.4854, 73.81820
147.9675, 71.94017
148.4497, 70.31207
148.9318, 68.91617
149.4139, 67.78268
149.8960, 66.91810
150.3781, 66.26144
150.8602, 65.76659
151.3424, 65.54555
151.8245, 65.23301
152.3066, 64.60383
152.7887, 63.98879
153.2708, 63.65710
153.7529, 63.70908
154.2351, 64.03403
154.7172, 64.35582
155.1993, 64.48090
155.6814, 64.85905
156.1635, 65.74120
156.6456, 66.81718
157.1278, 67.66219
157.6099, 68.04704
158.0920, 68.13939
158.5741, 68.67165
159.0562, 70.06136
159.5383, 71.35444
160.0205, 72.22803
160.5026, 72.82312
160.9847, 73.46539
161.4668, 74.32668
161.9489, 75.39047
162.4310, 76.50499
162.9131, 77.71814
163.3953, 78.92740
163.8774, 79.97671
164.3595, 80.89872
164.8416, 82.01685
165.3237, 83.67552
165.8058, 85.64751
166.2880, 87.37868
166.7701, 88.58901
167.2522, 89.72140
167.7343, 91.27673
168.2164, 93.30230
168.6985, 95.51505
169.1807, 97.81007
169.6628, 100.1669
170.1449, 102.6176
170.6270, 105.2941
171.1091, 107.9899
171.5912, 110.2923
172.0734, 112.3645
172.5555, 113.6376
173.0376, 114.0103
173.5197, 113.6060
174.0018, 112.5555
174.4839, 110.8733
174.9661, 108.6193
175.4482, 106.1523
175.9303, 103.2625
176.4124, 100.3730
176.8945, 97.53002
177.3766, 94.77371
177.8588, 92.16949
178.3409, 89.73643
178.8230, 87.46939
179.3051, 85.54131
179.7872, 83.98730
180.2693, 82.72639
180.7515, 81.73579
181.2336, 81.02636
181.7157, 80.64051
182.1978, 80.61592
182.6799, 80.96447
183.1620, 81.63930
183.6441, 82.78631
184.1263, 84.04574
184.6084, 85.25784
185.0905, 86.41264
185.5726, 87.57294
186.0547, 88.78823
186.5368, 90.06702
187.0190, 91.37063
187.5011, 92.74686
187.9832, 94.10336
188.4653, 95.50333
188.9474, 96.92540
189.4296, 98.03826
189.9117, 98.52527
190.3938, 98.35999
190.8759, 97.66874
191.3580, 96.18682
191.8401, 94.31015
192.3223, 92.59008
192.8044, 91.17496
193.2865, 89.43468
193.7686, 86.35920
194.2507, 82.35030
194.7328, 78.59900
195.2150, 75.46257
195.6971, 72.81579
196.1792, 70.39049
196.6613, 68.13158
197.1434, 66.20010
197.6255, 64.79606
198.1077, 63.77968
198.5898, 62.85870
199.0719, 61.87008
199.5540, 60.84440
200.0361, 59.92046
200.5182, 59.09624
201.0004, 58.39541
201.4825, 57.78431
201.9646, 57.28293
202.4467, 56.95191
202.9288, 56.90697
203.4109, 57.12476
203.8930, 57.19742
204.3752, 56.94386
204.8573, 56.72755
205.3394, 56.65940
205.8215, 56.73685
206.3036, 56.92494
206.7857, 57.18510
207.2679, 57.51208
207.7500, 58.01690
208.2321, 58.73360
208.7142, 59.61296
209.1963, 60.68079
209.6784, 61.90881
210.1606, 63.23473
210.6427, 64.60379
211.1248, 65.99885
211.6069, 67.52157
212.0890, 69.28102
212.5711, 71.04865
213.0533, 72.74126
213.5354, 74.36019
214.0175, 76.00204
214.4996, 77.80647
214.9817, 79.89115
215.4638, 81.22733
215.9460, 81.70793
216.4281, 81.73549
216.9102, 81.43008
217.3923, 80.83821
217.8744, 79.98999
218.3565, 78.86538
218.8387, 77.40986
219.3208, 76.24416
219.8029, 75.28658
220.2850, 74.63363
220.7671, 74.40720
221.2492, 74.58119
221.7314, 74.96889
222.2135, 75.44450
222.6956, 76.01543
223.1777, 76.55833
223.6598, 77.07204
224.1419, 77.56015
224.6240, 78.03237
225.1062, 78.48827
225.5883, 78.90781
226.0704, 79.33012
226.5525, 79.70560
227.0346, 79.79269
227.5167, 79.44971
227.9989, 78.88969
228.4810, 78.28031
228.9631, 77.63012
229.4452, 76.94436
229.9273, 76.22097
230.4094, 75.46681
230.8916, 74.69678
231.3737, 73.97766
231.8558, 73.21021
232.3379, 72.19585
232.8200, 70.88033
233.3021, 69.70067
233.7843, 69.05088
234.2664, 68.69925
234.7485, 68.29478
235.2306, 67.61159
235.7127, 66.95601
236.1948, 66.82066
236.6770, 67.33099
237.1591, 67.83991
237.6412, 67.97963
238.1233, 67.94318
238.6054, 67.92427
239.0875, 67.97894
239.5697, 68.08131
240.0518, 68.18598
240.5339, 68.28222
241.0160, 68.41871
241.4981, 68.66032
241.9802, 68.93041
242.4624, 69.18240
242.9445, 69.42126
243.4266, 69.56728
243.9087, 69.48496
244.3908, 69.15609
244.8729, 68.63221
245.3550, 67.64834
245.8372, 66.63404
246.3193, 66.01838
246.8014, 65.96180
247.2835, 66.14664
247.7656, 66.04128
248.2477, 65.59888
248.7299, 64.94948
249.2120, 63.88190
249.6941, 62.78374
250.1762, 61.95531
250.6583, 61.48656
251.1404, 61.25743
251.6226, 61.09123
252.1047, 61.05346
252.5868, 60.92818
253.0689, 60.45356
253.5510, 60.05228
254.0331, 60.07148
254.5153, 60.57995
254.9974, 61.33318
255.4795, 61.94261
255.9616, 62.21984
256.4437, 62.77418
256.9258, 63.81140
257.4080, 64.93237
257.8901, 65.81206
258.3722, 66.42525
258.8543, 67.05421
259.3364, 68.07667
259.8185, 69.57957
260.3007, 71.30421
260.7828, 73.18008
261.2649, 75.29065
261.7470, 77.76315
262.2291, 80.57179
262.7112, 83.48606
263.1934, 86.24470
263.6755, 88.74541
264.1576, 91.48013
264.6397, 94.70634
265.1218, 97.89566
265.6039, 100.6851
266.0861, 103.1015
266.5682, 105.4754
267.0503, 108.1762
267.5324, 111.3332
268.0145, 113.8783
268.4966, 115.7526
268.9788, 117.2159
269.4609, 118.3162
269.9430, 119.0960
270.4251, 119.5917
270.9072, 119.7762
271.3893, 119.6251
271.8715, 119.8917
272.3536, 120.8253
272.8357, 121.8330
273.3178, 122.7722
273.7999, 123.5903
274.2820, 124.2001
274.7642, 124.5301
275.2463, 124.5974
275.7284, 124.5929
276.2105, 124.8113
276.6926, 124.6727
277.1747, 123.8743
277.6568, 122.5671
278.1389, 121.0205
278.6211, 119.3112
279.1032, 117.5719
279.5853, 116.4107
280.0674, 116.0276
280.5495, 115.8450
281.0316, 115.9454
281.5138, 116.1248
281.9959, 115.9556
282.4780, 115.2076
282.9601, 114.1588
283.4422, 113.5415
283.9243, 113.4112
284.4065, 113.5035
284.8886, 113.8413
285.3707, 114.3520
285.8528, 114.9751
286.3349, 115.7104
286.8170, 116.4380
287.2992, 116.9295
287.7813, 117.1008
288.2634, 117.3403
288.7455, 117.7330
289.2276, 118.2136
289.7097, 118.7157
290.1919, 119.2260
290.6740, 119.7234
291.1561, 120.1772
291.6382, 120.5760
292.1203, 121.0113
292.6024, 121.5941
293.0846, 122.1596
293.5667, 122.5536
294.0488, 122.7573
294.5309, 122.8115
295.0130, 122.6885
295.4951, 122.3925
295.9773, 122.2946
296.4594, 122.5289
296.9415, 122.8773
297.4236, 123.1484
297.9057, 123.3463
298.3878, 123.6298
298.8700, 124.1106
299.3521, 124.7868
299.8342, 125.5294
300.3163, 126.1676
300.7984, 127.0149
301.2805, 128.3287
301.7627, 130.0426
302.2448, 131.8900
302.7269, 133.8052
303.2090, 135.7150
303.6911, 137.4080
304.1732, 138.6953
304.6554, 140.1027
305.1375, 141.9660
305.6196, 144.1370
306.1017, 146.2744
306.5838, 148.3015
307.0659, 150.1365
307.5481, 151.6489
308.0302, 152.9711
308.5123, 153.7160
308.9944, 153.5472
309.4765, 152.7624
309.9586, 151.9053
310.4408, 151.1543
310.9229, 150.1911
311.4050, 148.5863
311.8871, 146.3744
312.3692, 143.6773
312.8513, 140.2583
313.3335, 136.4843
313.8156, 132.6915
314.2977, 128.9301
314.7798, 125.2807
315.2619, 121.7833
315.7440, 118.4454
316.2262, 115.3501
316.7083, 112.5226
317.1904, 109.9281
317.6725, 107.5260
318.1546, 105.3115
318.6367, 103.3473
319.1188, 101.6355
319.6010, 100.2525
320.0831, 99.29489
320.5652, 98.99299
321.0473, 98.86545
321.5294, 98.73524
322.0115, 98.58221
322.4937, 98.32565
322.9758, 97.91878
323.4579, 97.39622
323.9400, 96.85954
324.4221, 96.32364
324.9042, 95.74625
325.3864, 95.09343
325.8685, 94.39127
326.3506, 93.67011
326.8327, 92.92960
327.3148, 92.20625
327.7969, 91.55327
328.2791, 90.96426
328.7612, 90.44990
329.2433, 89.95916
329.7254, 89.57138
330.2075, 89.36682
330.6896, 89.35921
331.1718, 89.54373
331.6539, 89.89340
332.1360, 90.42776
332.6181, 91.32000
333.1002, 92.79119
333.5823, 94.45231
334.0645, 96.02756
334.5466, 97.51135
335.0287, 99.05161
335.5108, 100.6942
335.9929, 102.4904
336.4750, 104.6476
336.9572, 107.5010
337.4393, 110.3409
337.9214, 112.8653
338.4035, 115.1558
338.8856, 117.4512
339.3677, 119.9176
339.8499, 122.3264
340.3320, 123.9886
340.8141, 124.7361
341.2962, 125.1871
341.7783, 125.5350
342.2604, 125.6221
342.7426, 125.2097
343.2247, 124.2319
343.7068, 122.8591
344.1889, 121.3358
344.6710, 119.7152
345.1531, 117.6638
345.6353, 114.8054
346.1174, 111.7910
346.5995, 109.1368
347.0816, 106.8819
347.5637, 104.6802
348.0458, 102.2168
348.5280, 99.45729
349.0101, 97.13615
349.4922, 95.54466
349.9743, 94.01852
350.4564, 92.06281
350.9385, 89.95754
351.4207, 88.40412
351.9028, 87.86327
352.3849, 88.09196
352.8670, 88.04926
353.3491, 87.34092
353.8312, 86.85180
354.3134, 86.72287
354.7955, 86.85484
355.2776, 87.15700
355.7597, 87.59444
356.2418, 88.12908
356.7239, 88.68690
357.2061, 89.13957
357.6882, 89.91608
358.1703, 91.39462
358.6524, 92.88494
359.1345, 93.80925
359.6166, 94.19520
360.0987, 94.53056
360.5808, 95.29806
361.0630, 96.54037
361.5451, 97.81177
362.0272, 99.05596
362.5093, 100.3803
362.9914, 101.8868
363.4735, 103.5007
363.9557, 105.0029
364.4378, 106.2329
364.9199, 107.3449
365.4020, 109.0070
365.8841, 111.5685
366.3662, 114.2501
366.8484, 117.0679
367.3305, 119.8906
367.8126, 122.5928
368.2947, 125.1256
368.7768, 127.5608
369.2589, 130.0508
369.7411, 132.7161
370.2232, 135.0824
370.7053, 137.4256
371.1874, 139.2575
371.6695, 140.2902
372.1516, 140.5408
372.6338, 140.2410
373.1159, 139.5452
373.5980, 138.4595
374.0801, 137.0916
374.5622, 135.0938
375.0443, 133.2349
375.5265, 131.8736
376.0086, 130.7819
376.4907, 129.5708
376.9728, 127.9841
377.4549, 126.3126
377.9370, 125.2766
378.4192, 125.1435
378.9013, 124.8895
379.3834, 124.1692
379.8655, 123.2592
380.3476, 122.3800
380.8297, 121.5739
381.3119, 120.6790
381.7940, 119.4710
382.2761, 117.9564
382.7582, 116.6100
383.2403, 115.9047
383.7224, 114.8520
384.2046, 112.6738
384.6867, 109.6072
385.1688, 106.4622
385.6509, 103.6751
386.1330, 101.1358
386.6151, 98.57359
387.0973, 95.97732
387.5794, 93.42274
388.0615, 90.87137
388.5436, 88.40398
389.0257, 86.15716
389.5078, 84.19066
389.9900, 82.38703
390.4721, 80.72851
390.9542, 79.18037
391.4363, 77.47904
391.9184, 75.38451
392.4005, 73.29802
392.8827, 71.79424
393.3648, 70.89294
393.8469, 70.09371
394.3290, 69.28056
394.8111, 68.42656
395.2932, 67.45070
395.7754, 66.31646
396.2575, 65.23235
396.7396, 64.30575
397.2217, 63.57860
397.7038, 63.23484
398.1859, 63.69630
398.6681, 64.17790
399.1501, 64.11121
399.6323, 63.60981
400.1144, 63.10814
400.5965, 62.80894
401.0786, 62.67200
401.5607, 62.60374
402.0428, 62.66817
402.5250, 62.67757
403.0071, 62.51880
403.4892, 62.32447
403.9713, 62.29935
404.4534, 62.47538
404.9355, 62.63186
405.4177, 62.48769
405.8998, 61.95002
406.3819, 61.57850
406.8640, 61.55373
407.3461, 61.50314
407.8282, 61.25402
408.3104, 60.82598
408.7925, 60.29692
409.2746, 59.70141
409.7567, 59.06187
410.2388, 58.46899
410.7209, 57.88012
411.2031, 57.40694
411.6852, 57.00863
412.1673, 56.75288
412.6494, 56.81561
413.1315, 57.19456
413.6136, 57.55974
414.0958, 57.44836
414.5779, 56.74366
415.0600, 56.02448
415.5421, 55.33222
416.0242, 54.58876
416.5063, 53.73875
416.9885, 52.80771
417.4706, 51.87768
417.9527, 51.00362
418.4348, 50.15826
418.9169, 49.23198
419.3990, 48.21601
419.8812, 47.14572
420.3633, 45.93590
420.8454, 44.73718
421.3275, 43.68764
421.8096, 42.82068
422.2917, 42.10382
422.7739, 41.57409
423.2560, 41.21910
423.7381, 40.73555
424.2202, 39.93189
424.7023, 39.19952
425.1844, 38.90910
425.6666, 38.94753
426.1487, 38.90169
426.6308, 38.49171
427.1129, 37.94617
427.5950, 37.53777
428.0771, 37.25654
428.5593, 37.30425
429.0414, 38.01390
429.5235, 39.01429
430.0056, 39.46758
430.4877, 39.15857
430.9698, 38.78840
431.4520, 38.72720
431.9341, 38.84599
432.4162, 38.90190
432.8983, 38.83906
433.3804, 38.67164
433.8625, 38.36322
434.3447, 37.87774
434.8268, 37.61293
435.3089, 37.87104
435.7910, 38.10729
436.2731, 37.91956
436.7552, 37.38308
437.2374, 36.80635
437.7195, 36.36164
438.2016, 36.02525
438.6837, 35.71613
439.1658, 35.43892
439.6479, 35.18329
440.1301, 34.94093
440.6122, 34.72526
441.0943, 34.60069
441.5764, 34.55481
442.0585, 34.43734
442.5406, 34.03672
443.0227, 33.27414
443.5049, 32.80024
443.9870, 32.90908
444.4691, 33.00723
444.9512, 32.92065
445.4333, 32.70051
445.9154, 32.44996
446.3976, 32.22266
446.8797, 31.99470
447.3618, 31.68853
447.8439, 31.23759
448.3260, 30.90854
448.8081, 30.76634
449.2903, 30.75065
449.7724, 30.89277
450.2545, 31.16397
450.7366, 31.40107
451.2187, 31.46969
451.7008, 31.39878
452.1830, 31.29431
452.6651, 31.13290
453.1472, 31.00233
453.6293, 30.97734
454.1114, 31.01073
454.5935, 31.04072
455.0757, 31.05211
455.5578, 31.06173
456.0399, 31.05886
456.5220, 31.05901
457.0041, 31.13463
457.4862, 31.31550
457.9684, 31.56028
458.4505, 31.85085
458.9326, 32.19073
459.4147, 32.44370
459.8968, 32.53800
460.3789, 32.56881
460.8611, 32.59538
461.3432, 32.62940
461.8253, 32.69864
462.3074, 32.82871
462.7895, 32.99918
463.2716, 33.12704
463.7538, 33.12445
464.2359, 33.19685
464.7180, 33.53155
465.2001, 33.86428
465.6822, 33.81311
466.1643, 33.36155
466.6465, 32.95515
467.1286, 33.13245
467.6107, 33.99401
468.0928, 34.47631
468.5749, 34.17780
469.0570, 33.92246
469.5392, 33.89717
470.0213, 34.06273
470.5034, 34.37300
470.9855, 34.81453
471.4676, 35.28844
471.9497, 35.56714
472.4319, 35.55345
472.9140, 35.77447
473.3961, 36.58414
473.8782, 37.41355
474.3603, 37.92049
474.8424, 38.14486
475.3246, 38.34019
475.8067, 38.63551
476.2888, 39.00755
476.7709, 39.43638
477.2530, 39.93878
477.7351, 40.37492
478.2173, 40.59524
478.6994, 40.75814
479.1815, 41.10326
479.6636, 41.65995
480.1457, 42.32190
480.6278, 43.15181
481.1100, 44.02212
481.5920, 44.66405
482.0742, 45.02227
482.5563, 45.32812
483.0384, 45.75383
483.5205, 46.31146
484.0026, 47.05860
484.4847, 47.95580
484.9669, 49.06673
485.4490, 50.51065
485.9311, 52.17285
486.4132, 53.79916
486.8953, 55.30223
487.3774, 56.91502
487.8596, 59.06182
488.3417, 62.15008
488.8238, 64.68705
489.3059, 66.36220
489.7880, 67.87642
490.2701, 69.66186
490.7523, 71.55396
491.2344, 73.12211
491.7165, 74.09443
492.1986, 74.59218
492.6807, 74.94247
493.1628, 75.17076
493.6450, 75.17888
494.1271, 74.82655
494.6092, 74.32982
495.0913, 73.80737
495.5734, 73.27316
496.0555, 72.69730
496.5377, 72.04626
497.0198, 71.34304
497.5019, 70.64182
497.9840, 69.93320
498.4661, 69.28189
498.9482, 68.83576
499.4304, 68.41464
499.9125, 67.65251
500.3946, 66.36610
500.8767, 65.13845
501.3588, 64.30595
501.8409, 63.70771
502.3231, 63.03664
502.8052, 62.23134
503.2873, 61.43941
503.7694, 60.83050
504.2515, 60.40889
504.7336, 59.79933
505.2158, 58.87309
505.6979, 57.92655
506.1800, 57.06429
506.6621, 56.24848
507.1442, 55.43643
507.6263, 54.60907
508.1085, 53.74005
508.5906, 52.79055
509.0727, 51.74224
509.5548, 50.67542
510.0369, 49.53172
510.5190, 48.43050
511.0012, 47.47443
511.4833, 46.58290
511.9654, 45.57153
512.4475, 44.30975
512.9296, 43.00765
513.4117, 42.08884
513.8939, 41.60727
514.3760, 41.06218
514.8581, 40.26630
515.3402, 39.45077
515.8223, 38.86186
516.3044, 38.45707
516.7866, 37.94627
517.2687, 37.04994
517.7508, 36.06946
518.2329, 35.38773
518.7150, 34.99856
519.1971, 34.71985
519.6793, 34.44520
520.1614, 34.25444
520.6435, 34.41258
521.1256, 35.13021
521.6077, 35.51961
522.0898, 35.02140
522.5720, 34.42069
523.0541, 34.48108
523.5362, 35.16564
524.0183, 35.92445
524.5004, 36.36584
524.9825, 36.54350
525.4647, 36.73147
525.9468, 36.74107
526.4289, 37.05074
526.9110, 37.95460
527.3931, 38.98315
527.8752, 39.69253
528.3574, 40.07645
528.8395, 40.51208
529.3216, 41.39087
529.8037, 42.61779
530.2858, 43.59829
530.7679, 44.21410
531.2501, 44.85133
531.7322, 45.72494
532.2143, 46.67994
532.6964, 47.59311
533.1785, 48.45465
533.6606, 49.20463
534.1428, 49.87367
534.6249, 50.39293
535.1070, 50.61430
535.5891, 50.51480
536.0712, 50.16555
536.5533, 49.59606
537.0355, 48.81077
537.5176, 47.90654
537.9997, 46.74109
538.4818, 45.63854
538.9639, 44.75026
539.4460, 43.94300
539.9282, 43.01909
540.4103, 41.95415
540.8924, 40.91811
541.3745, 40.12930
541.8566, 39.60316
542.3387, 38.78183
542.8209, 37.26271
543.3029, 35.93001
543.7850, 35.05891
544.2672, 34.41975
544.7493, 33.79413
545.2314, 33.11365
545.7135, 32.35134
546.1956, 31.37153
546.6777, 30.21524
547.1599, 29.44863
547.6420, 29.22444
548.1241, 29.12999
548.6062, 28.93813
549.0883, 28.70190
549.5704, 28.51931
550.0526, 28.46731
550.5347, 28.34198
551.0168, 27.86639
551.4989, 27.25090
551.9810, 26.96429
552.4631, 27.10875
552.9453, 27.41496
553.4274, 27.65994
553.9095, 27.84355
554.3916, 27.93032
554.8737, 27.91319
555.3558, 27.82413
555.8380, 27.51703
556.3201, 27.21238
556.8022, 27.20268
557.2843, 27.54979
557.7664, 28.06819
558.2485, 28.58127
558.7307, 29.09095
559.2128, 29.46529
559.6949, 29.62718
560.1770, 29.75382
560.6591, 29.87522
561.1412, 30.01310
561.6234, 30.19681
562.1055, 30.43478
562.5876, 30.70302
563.0697, 31.05835
563.5518, 31.43222
564.0339, 31.57314
564.5161, 31.42789
564.9982, 31.16990
565.4803, 30.87384
565.9624, 30.56681
566.4445, 30.35485
566.9266, 30.31227
567.4088, 30.25821
567.8909, 30.14016
568.3730, 29.97248
568.8551, 29.77413
569.3372, 29.54855
569.8193, 29.27872
570.3015, 28.94891
570.7836, 28.56020
571.2657, 28.15897
571.7478, 27.73295
572.2299, 27.30814
572.7120, 26.82604
573.1942, 26.38362
573.6763, 26.10126
574.1584, 25.97977
574.6405, 25.87481
575.1226, 25.63726
575.6047, 25.30838
576.0869, 25.05957
576.5690, 24.89789
577.0511, 24.79052
577.5332, 24.76202
578.0153, 24.75827
578.4974, 24.69511
578.9796, 24.56519
579.4617, 24.40312
579.9438, 24.17593
580.4259, 23.95087
580.9080, 23.80936
581.3901, 23.75125
581.8723, 23.74801
582.3544, 23.80824
582.8365, 23.85808
583.3186, 23.63423
583.8007, 22.71572
584.2828, 22.17083
584.7650, 22.21406
585.2471, 22.44438
585.7292, 22.66866
586.2113, 22.84376
586.6934, 22.96923
587.1755, 23.06059
587.6577, 23.07257
588.1398, 22.82043
588.6219, 22.23082
589.1040, 21.89132
589.5861, 22.06062
590.0682, 22.40235
590.5504, 22.61765
591.0325, 22.72118
591.5146, 22.80107
591.9967, 22.97120
592.4788, 23.05412
