##NAMES=Marthozite
##RRUFFID=R090052
##IDEAL CHEMISTRY=Cu^2+^(U^6+^O_2_)_3_(Se^4+^O_3_)_2_O_2_&#183;8H_2_O
##LOCALITY=Musonoi mine, Kolwezi, Katanga, Congo
##OWNER=RRUFF
##SOURCE=William W. Pinch
##DESCRIPTION=Yellowish green triangular shaped flattened and striated crystals, associated with guilleminite and green brochantite.  Sample is from the same specimen used in the Cooper and Hawthorne (2001) study
##STATUS=The identification of this mineral has been confirmed only by single crystal X-ray diffraction.
##URL=rruff.info/R090052
92.02539, 71.09915
92.50751, 71.65532
92.98962, 72.43340
93.47174, 72.45749
93.95386, 72.24414
94.43597, 71.71471
94.91809, 70.90425
95.40021, 69.94567
95.88232, 69.04201
96.36444, 68.56006
96.84656, 67.62508
97.32867, 65.80860
97.81078, 63.49641
98.29290, 61.28687
98.77502, 59.58015
99.25713, 58.26979
99.73925, 57.40147
100.2214, 57.30748
100.7035, 57.25637
101.1856, 56.76540
101.6677, 55.87168
102.1498, 55.08081
102.6320, 55.04406
103.1141, 56.20893
103.5962, 57.06969
104.0783, 57.59435
104.5604, 57.83770
105.0425, 57.82640
105.5247, 57.55151
106.0068, 57.08477
106.4889, 56.54067
106.9710, 55.95182
107.4531, 55.21041
107.9352, 54.05803
108.4173, 52.60989
108.8995, 51.48913
109.3816, 50.88332
109.8637, 50.78308
110.3458, 51.28166
110.8279, 52.54168
111.3100, 53.84076
111.7922, 54.31958
112.2743, 53.84248
112.7564, 52.93175
113.2385, 50.83791
113.7206, 48.80643
114.2027, 48.24243
114.6849, 49.95346
115.1670, 53.01131
115.6491, 54.06253
116.1312, 50.66917
116.6133, 47.97114
117.0954, 46.94204
117.5776, 47.13334
118.0597, 47.88033
118.5418, 48.79931
119.0239, 49.90331
119.5060, 50.20580
119.9881, 49.00617
120.4703, 47.83217
120.9524, 47.14424
121.4345, 47.01260
121.9166, 47.43773
122.3987, 48.51525
122.8808, 50.38118
123.3630, 52.05094
123.8451, 54.16870
124.3272, 55.77226
124.8093, 55.47332
125.2914, 52.80835
125.7735, 49.75334
126.2557, 48.79062
126.7378, 49.48132
127.2199, 50.24554
127.7020, 50.32716
128.1841, 49.99456
128.6662, 50.23003
129.1483, 51.85835
129.6305, 53.21780
130.1126, 52.84180
130.5947, 50.88068
131.0768, 48.80566
131.5589, 47.90682
132.0410, 48.31702
132.5232, 48.82413
133.0053, 49.44382
133.4874, 50.01307
133.9695, 50.38267
134.4516, 50.54587
134.9337, 50.67531
135.4159, 51.10805
135.8980, 52.32159
136.3801, 52.88993
136.8622, 52.83376
137.3443, 52.18828
137.8264, 50.67317
138.3086, 48.22956
138.7907, 45.43571
139.2728, 43.94419
139.7549, 45.02638
140.2370, 46.01614
140.7191, 46.79876
141.2013, 47.36157
141.6834, 47.67941
142.1655, 47.72225
142.6476, 47.52892
143.1297, 47.27537
143.6118, 47.22464
144.0939, 46.87573
144.5761, 45.69246
145.0582, 43.89005
145.5403, 42.47642
146.0224, 42.19605
146.5045, 42.74708
146.9866, 43.00824
147.4688, 42.45221
147.9509, 41.99663
148.4330, 42.88015
148.9151, 45.39080
149.3972, 47.43702
149.8793, 47.27787
150.3615, 45.97340
150.8436, 44.65388
151.3257, 43.51681
151.8078, 42.71394
152.2899, 42.71433
152.7720, 44.01332
153.2542, 45.27262
153.7363, 46.27654
154.2184, 46.86035
154.7005, 46.69615
155.1826, 45.34988
155.6647, 42.99292
156.1469, 41.42988
156.6290, 41.09488
157.1111, 41.25739
157.5932, 42.33605
158.0753, 43.80775
158.5574, 44.60329
159.0396, 43.62934
159.5217, 40.52673
160.0038, 39.01628
160.4859, 40.46977
160.9680, 42.04277
161.4501, 42.23782
161.9323, 41.24741
162.4144, 40.46659
162.8965, 41.44394
163.3786, 44.85547
163.8607, 47.11400
164.3428, 47.93408
164.8250, 47.92551
165.3071, 47.23964
165.7892, 45.96014
166.2713, 44.60991
166.7534, 43.78697
167.2355, 43.53656
167.7177, 43.60214
168.1998, 44.45714
168.6819, 45.44360
169.1640, 45.42803
169.6461, 43.91407
170.1282, 42.38659
170.6104, 43.23832
171.0925, 46.16388
171.5746, 48.35770
172.0567, 47.82235
172.5388, 45.60714
173.0209, 45.10830
173.5031, 48.26741
173.9852, 51.37367
174.4673, 50.67566
174.9494, 46.56124
175.4315, 42.69457
175.9136, 42.30407
176.3958, 45.23484
176.8779, 46.82821
177.3600, 45.10218
177.8421, 42.93167
178.3242, 41.80814
178.8063, 41.83274
179.2885, 42.50684
179.7706, 43.52903
180.2527, 45.11160
180.7348, 46.09869
181.2169, 45.78305
181.6990, 45.33361
182.1812, 45.42015
182.6633, 46.11623
183.1454, 46.98524
183.6275, 47.41467
184.1096, 47.22218
184.5917, 46.93386
185.0738, 46.61652
185.5560, 46.19068
186.0381, 45.43862
186.5202, 44.36698
187.0023, 43.35539
187.4844, 43.08907
187.9665, 44.44352
188.4487, 45.16118
188.9308, 44.97523
189.4129, 44.31565
189.8950, 43.27341
190.3771, 41.90593
190.8592, 40.81196
191.3414, 41.34152
191.8235, 45.04490
192.3056, 47.42157
192.7877, 46.71062
193.2698, 44.75999
193.7519, 44.30354
194.2341, 46.51433
194.7162, 49.80210
195.1983, 50.72517
195.6804, 48.93047
196.1625, 46.96241
196.6446, 45.09862
197.1268, 43.60713
197.6089, 43.34227
198.0910, 45.11402
198.5731, 47.40940
199.0552, 47.72543
199.5373, 45.81479
200.0195, 43.72749
200.5016, 42.40920
200.9837, 41.79822
201.4658, 41.63344
201.9479, 42.06422
202.4300, 42.71783
202.9122, 43.25004
203.3943, 43.67211
203.8764, 43.79588
204.3585, 43.25167
204.8406, 42.04452
205.3227, 41.20603
205.8048, 41.06165
206.2870, 41.36407
206.7691, 42.22620
207.2512, 43.63293
207.7333, 44.76361
208.2154, 44.50430
208.6975, 42.54829
209.1797, 41.02625
209.6618, 40.55643
210.1439, 40.45569
210.6260, 40.50355
211.1081, 40.62128
211.5902, 40.67440
212.0724, 40.44337
212.5545, 39.79117
213.0366, 39.27616
213.5187, 38.76701
214.0008, 38.50751
214.4829, 38.97882
214.9651, 40.13136
215.4472, 41.16978
215.9293, 40.71886
216.4114, 37.35602
216.8935, 35.49714
217.3756, 36.08488
217.8578, 37.24235
218.3399, 37.52699
218.8220, 36.69518
219.3041, 35.69315
219.7862, 36.05476
220.2683, 39.04125
220.7505, 40.94936
221.2326, 41.22147
221.7147, 40.90145
222.1968, 40.85097
222.6789, 41.25269
223.1610, 41.60547
223.6432, 41.09460
224.1253, 38.79737
224.6074, 37.61006
225.0895, 38.57973
225.5716, 40.06225
226.0537, 40.51429
226.5358, 39.58781
227.0180, 38.08097
227.5001, 37.08445
227.9822, 36.79021
228.4643, 36.44605
228.9464, 35.68227
229.4285, 34.99970
229.9107, 35.06433
230.3928, 36.04138
230.8749, 37.31249
231.3570, 38.08451
231.8391, 38.31724
232.3212, 38.54793
232.8034, 38.84929
233.2855, 39.19414
233.7676, 39.79842
234.2497, 40.83241
234.7318, 41.33490
235.2139, 39.20861
235.6961, 34.86359
236.1782, 32.45860
236.6603, 34.91258
237.1424, 39.37227
237.6245, 41.24213
238.1066, 39.46637
238.5888, 36.77592
239.0709, 35.39652
239.5530, 35.08417
240.0351, 35.41570
240.5172, 36.96349
240.9993, 38.92553
241.4815, 39.51295
241.9636, 38.07211
242.4457, 36.69911
242.9278, 37.46515
243.4099, 39.45351
243.8920, 40.74461
244.3742, 39.90971
244.8563, 37.92336
245.3384, 37.19151
245.8205, 38.34614
246.3026, 39.33497
246.7847, 38.88763
247.2668, 37.55054
247.7490, 36.08479
248.2311, 34.51519
248.7132, 33.19622
249.1953, 33.19023
249.6774, 35.27470
250.1595, 37.10365
250.6417, 37.65776
251.1238, 37.42106
251.6059, 36.91388
252.0880, 36.26740
252.5701, 35.62339
253.0522, 35.28385
253.5344, 35.12615
254.0165, 35.58358
254.4986, 37.52143
254.9807, 39.76220
255.4628, 40.96386
255.9449, 40.47181
256.4271, 38.88728
256.9092, 37.44006
257.3913, 35.63747
257.8734, 35.04535
258.3555, 37.29270
258.8376, 40.03024
259.3198, 40.74783
259.8019, 38.43827
260.2840, 34.70533
260.7661, 33.02501
261.2482, 34.85082
261.7303, 36.01695
262.2125, 35.28760
262.6946, 34.23129
263.1767, 34.39645
263.6588, 36.20873
264.1409, 38.56294
264.6230, 39.45377
265.1052, 38.01267
265.5873, 36.71737
266.0694, 35.29785
266.5515, 34.28560
267.0336, 34.37904
267.5157, 35.59971
267.9979, 37.07206
268.4800, 37.44100
268.9621, 36.03146
269.4442, 34.93846
269.9263, 33.50979
270.4084, 32.78862
270.8906, 34.33638
271.3727, 37.87318
271.8548, 40.97480
272.3369, 40.34455
272.8190, 33.99522
273.3011, 30.61757
273.7833, 31.98511
274.2654, 34.21780
274.7475, 35.39027
275.2296, 35.31036
275.7117, 34.64362
276.1938, 33.99275
276.6760, 33.31966
277.1581, 32.92119
277.6402, 32.95621
278.1223, 33.04899
278.6044, 33.05929
279.0865, 32.97498
279.5686, 32.83429
280.0508, 32.67311
280.5329, 32.49407
281.0150, 32.18153
281.4971, 30.86672
281.9792, 30.30632
282.4613, 32.01191
282.9435, 35.05629
283.4256, 37.17629
283.9077, 36.79807
284.3898, 34.26697
284.8719, 32.70686
285.3540, 32.51845
285.8362, 32.66497
286.3183, 33.11835
286.8004, 33.69951
287.2825, 34.24161
287.7646, 34.72101
288.2467, 34.91640
288.7289, 33.97994
289.2110, 29.73653
289.6931, 27.11233
290.1752, 28.12435
290.6573, 30.88940
291.1394, 32.71600
291.6216, 32.54037
292.1037, 31.27719
292.5858, 30.79932
293.0679, 31.60658
293.5500, 32.23845
294.0321, 32.60125
294.5143, 32.70023
294.9964, 32.46471
295.4785, 31.87735
295.9606, 31.15851
296.4427, 30.61029
296.9248, 30.28428
297.4070, 30.00070
297.8891, 29.39762
298.3712, 29.04684
298.8533, 29.63324
299.3354, 31.20360
299.8175, 33.07394
300.2997, 34.73562
300.7818, 36.22337
301.2639, 36.39910
301.7460, 34.16132
302.2281, 31.50682
302.7102, 29.40141
303.1924, 28.03387
303.6745, 27.78423
304.1566, 29.35928
304.6387, 32.54543
305.1208, 33.67501
305.6029, 30.82246
306.0851, 27.99426
306.5672, 27.27873
307.0493, 28.29109
307.5314, 29.64743
308.0135, 30.64549
308.4956, 31.33142
308.9778, 31.89532
309.4599, 32.34938
309.9420, 32.69761
310.4241, 32.69743
310.9062, 32.60923
311.3883, 33.07145
311.8705, 34.44680
312.3526, 36.18338
312.8347, 37.04470
313.3168, 37.06651
313.7989, 36.37727
314.2810, 34.45059
314.7632, 32.01260
315.2453, 29.87040
315.7274, 28.22996
316.2095, 27.20710
316.6916, 27.01997
317.1737, 27.78208
317.6559, 28.98419
318.1380, 31.58005
318.6201, 34.01290
319.1022, 34.58315
319.5843, 33.14759
320.0664, 31.13351
320.5485, 29.74588
321.0306, 29.06470
321.5128, 28.75626
321.9949, 29.54015
322.4770, 30.08369
322.9591, 29.19410
323.4412, 27.13428
323.9233, 25.23803
324.4055, 24.31160
324.8876, 24.34829
325.3697, 25.11778
325.8518, 27.87677
326.3339, 29.90906
326.8160, 29.41117
327.2982, 27.45278
327.7803, 26.56812
328.2624, 28.12325
328.7445, 30.97066
329.2266, 31.94637
329.7087, 30.13351
330.1909, 28.41954
330.6730, 27.04477
331.1551, 26.16050
331.6372, 26.11252
332.1193, 27.01087
332.6014, 28.33120
333.0836, 29.34880
333.5657, 29.95374
334.0478, 30.53750
334.5299, 31.38420
335.0120, 32.03357
335.4941, 31.95540
335.9763, 31.15485
336.4584, 30.21230
336.9405, 29.62734
337.4226, 29.42373
337.9047, 29.56729
338.3868, 30.34867
338.8690, 31.16294
339.3511, 31.62221
339.8332, 31.83488
340.3153, 32.25758
340.7974, 33.27330
341.2795, 34.67106
341.7617, 35.01699
342.2438, 32.80608
342.7259, 31.47243
343.2080, 32.64327
343.6901, 34.96271
344.1722, 36.29536
344.6544, 35.74092
345.1365, 34.16264
345.6186, 33.35552
346.1007, 34.28302
346.5828, 34.52570
347.0649, 33.40594
347.5471, 31.98368
348.0292, 31.25355
348.5113, 31.37315
348.9934, 31.71607
349.4755, 31.45519
349.9576, 30.20490
350.4398, 30.04771
350.9219, 31.93979
351.4040, 33.87795
351.8861, 34.72521
352.3682, 34.64858
352.8503, 34.51386
353.3325, 35.01967
353.8146, 36.08602
354.2967, 36.42898
354.7788, 35.34393
355.2609, 34.34494
355.7430, 33.59085
356.2252, 33.15532
356.7073, 33.29902
357.1894, 34.16297
357.6715, 35.22373
358.1536, 35.10638
358.6357, 32.49610
359.1179, 30.68778
359.5999, 30.09299
360.0821, 30.08693
360.5642, 30.13814
361.0463, 30.15538
361.5284, 30.46594
362.0105, 31.66181
362.4926, 34.28813
362.9748, 35.65073
363.4569, 34.95901
363.9390, 33.83708
364.4211, 32.91941
364.9032, 32.16217
365.3853, 31.17753
365.8675, 29.54137
366.3496, 27.41528
366.8317, 26.36479
367.3138, 26.89660
367.7959, 27.98056
368.2780, 29.92187
368.7602, 32.06712
369.2423, 33.60685
369.7244, 34.17371
370.2065, 34.15364
370.6886, 34.35447
371.1707, 35.05519
371.6529, 35.24562
372.1350, 34.38690
372.6171, 33.29493
373.0992, 32.45701
373.5813, 31.95638
374.0634, 31.60179
374.5456, 31.22715
375.0277, 30.83278
375.5098, 30.43379
375.9919, 30.10509
376.4740, 29.67815
376.9561, 28.56094
377.4383, 27.27649
377.9204, 27.09775
378.4025, 29.29742
378.8846, 32.79168
379.3667, 34.49706
379.8488, 33.94587
380.3310, 32.78357
380.8131, 31.35182
381.2952, 29.80713
381.7773, 28.05814
382.2594, 25.88421
382.7415, 24.42620
383.2237, 25.59783
383.7058, 29.37825
384.1879, 31.94996
384.6700, 31.83125
385.1521, 30.72264
385.6342, 30.10938
386.1164, 29.99133
386.5985, 30.05998
387.0806, 30.09070
387.5627, 30.19291
388.0448, 30.83895
388.5269, 32.34506
389.0091, 33.44394
389.4912, 32.73366
389.9733, 30.91208
390.4554, 29.45528
390.9375, 28.45386
391.4196, 28.11239
391.9018, 28.91036
392.3839, 30.73034
392.8660, 32.56550
393.3481, 34.28837
393.8302, 35.44109
394.3123, 34.92823
394.7945, 32.00592
395.2766, 29.95246
395.7587, 30.83511
396.2408, 33.22929
396.7229, 34.79604
397.2050, 35.02698
397.6872, 34.41644
398.1693, 33.20125
398.6514, 31.29062
399.1335, 30.38018
399.6156, 31.33992
400.0977, 32.67304
400.5798, 33.34663
401.0620, 33.41315
401.5441, 33.44645
402.0262, 33.85415
402.5083, 34.46922
402.9904, 34.40883
403.4725, 32.56890
403.9547, 31.51818
404.4368, 32.32863
404.9189, 33.96971
405.4010, 35.27631
405.8831, 35.86124
406.3652, 35.80571
406.8474, 35.13259
407.3295, 33.41278
407.8116, 32.35984
408.2937, 31.88650
408.7758, 32.05920
409.2579, 33.42143
409.7401, 35.54480
410.2222, 37.24382
410.7043, 37.60705
411.1864, 36.79655
411.6685, 36.27357
412.1506, 36.48269
412.6328, 36.43486
413.1149, 36.21938
413.5970, 35.57640
414.0791, 33.68031
414.5612, 30.36283
415.0433, 27.33558
415.5255, 27.82166
416.0076, 33.42982
416.4897, 36.98462
416.9718, 36.20314
417.4539, 34.82004
417.9360, 34.57397
418.4182, 35.29945
418.9003, 35.85998
419.3824, 35.30444
419.8645, 33.93914
420.3466, 33.09245
420.8287, 32.77743
421.3109, 32.99253
421.7930, 33.84490
422.2751, 35.13702
422.7572, 36.94952
423.2393, 39.53325
423.7214, 41.54930
424.2036, 41.07045
424.6857, 38.20988
425.1678, 35.91807
425.6499, 34.85192
426.1320, 34.58242
426.6141, 35.01233
427.0963, 36.00050
427.5784, 36.38224
428.0605, 34.91866
428.5426, 32.85448
429.0247, 32.33879
429.5068, 33.56727
429.9890, 34.76476
430.4711, 34.61244
430.9532, 33.64353
431.4353, 33.62676
431.9174, 35.17179
432.3995, 36.77248
432.8817, 37.92129
433.3638, 38.55660
433.8459, 38.40155
434.3280, 37.29721
434.8101, 35.84348
435.2922, 34.84959
435.7744, 34.41962
436.2565, 34.10819
436.7386, 33.95350
437.2207, 33.87075
437.7028, 33.94943
438.1849, 34.08398
438.6671, 33.84928
439.1492, 32.87066
439.6313, 31.37957
440.1134, 30.76741
440.5955, 31.37029
441.0776, 32.46722
441.5598, 34.46743
442.0418, 36.68104
442.5240, 38.48206
443.0061, 39.67241
443.4882, 40.35809
443.9703, 40.73867
444.4524, 40.98030
444.9345, 40.12783
445.4167, 36.23629
445.8988, 33.17175
446.3809, 32.87291
446.8630, 34.39056
447.3451, 35.77771
447.8272, 35.91547
448.3094, 35.27947
448.7915, 35.08239
449.2736, 35.50396
449.7557, 35.85089
450.2378, 36.11883
450.7199, 36.13847
451.2021, 35.69882
451.6842, 34.79982
452.1663, 33.75583
452.6484, 32.60546
453.1305, 31.46898
453.6126, 31.03963
454.0948, 31.66286
454.5769, 32.26791
455.0590, 31.58126
455.5411, 30.43985
456.0232, 30.49083
456.5053, 32.90558
456.9875, 35.48986
457.4696, 36.32335
457.9517, 35.69519
458.4338, 34.84694
458.9159, 34.03002
459.3980, 33.47139
459.8802, 33.68920
460.3623, 34.75833
460.8444, 35.59194
461.3265, 35.95653
461.8086, 36.03041
462.2907, 35.80868
462.7729, 35.38140
463.2550, 35.18764
463.7371, 35.60765
464.2192, 36.46004
464.7013, 36.69419
465.1834, 36.07512
465.6656, 35.18800
466.1477, 33.46472
466.6298, 31.83136
467.1119, 31.53385
467.5940, 32.73933
468.0761, 34.31664
468.5583, 34.91254
469.0404, 34.38699
469.5225, 33.80183
470.0046, 32.19402
470.4867, 31.54609
470.9688, 33.90247
471.4510, 37.33014
471.9331, 38.32759
472.4152, 35.01056
472.8973, 29.98073
473.3794, 28.41515
473.8615, 31.19325
474.3437, 33.70394
474.8258, 35.46940
475.3079, 36.38204
475.7900, 35.91717
476.2721, 34.34058
476.7542, 32.97628
477.2364, 33.08538
477.7185, 33.88716
478.2006, 33.30688
478.6827, 31.03298
479.1648, 29.24558
479.6469, 29.38620
480.1291, 30.59796
480.6112, 31.22152
481.0933, 30.88978
481.5754, 30.80699
482.0575, 32.36016
482.5396, 34.39713
483.0217, 34.31880
483.5038, 31.51477
483.9860, 28.61730
484.4681, 28.36249
484.9502, 30.87936
485.4323, 31.95414
485.9144, 30.11899
486.3965, 28.49330
486.8787, 28.46117
487.3608, 29.55492
487.8429, 31.02249
488.3250, 32.56272
488.8071, 33.86655
489.2892, 34.32962
489.7714, 33.52756
490.2535, 32.91084
490.7356, 32.48782
491.2177, 32.20910
491.6998, 32.29769
492.1819, 32.51360
492.6641, 32.18697
493.1462, 30.71872
493.6283, 28.81218
494.1104, 28.84998
494.5925, 31.96032
495.0746, 33.94425
495.5568, 32.90081
496.0389, 31.00789
496.5210, 29.52402
497.0031, 28.62119
497.4852, 28.16491
497.9673, 28.32178
498.4495, 28.84258
498.9316, 28.88228
499.4137, 28.22552
499.8958, 28.00096
500.3779, 29.27667
500.8600, 31.29104
501.3422, 32.50980
501.8243, 32.84055
502.3064, 32.41433
502.7885, 30.54908
503.2706, 28.15838
503.7527, 27.01729
504.2349, 27.52504
504.7170, 28.53146
505.1991, 28.93839
505.6812, 28.70708
506.1633, 28.59309
506.6454, 28.66781
507.1276, 28.76624
507.6097, 29.06716
508.0918, 29.28460
508.5739, 28.64383
509.0560, 26.92187
509.5381, 25.34228
510.0203, 26.21100
510.5024, 30.91113
510.9845, 33.31185
511.4666, 31.10124
511.9487, 28.87012
512.4308, 28.43689
512.9130, 29.30184
513.3951, 30.38772
513.8772, 31.31559
514.3593, 31.69846
514.8414, 30.31499
515.3235, 26.74033
515.8057, 24.66623
516.2878, 25.76574
516.7699, 27.84974
517.2520, 29.19695
517.7341, 29.83893
518.2162, 30.18996
518.6984, 30.40575
519.1805, 30.43746
519.6626, 30.10330
520.1447, 29.43877
520.6268, 28.93777
521.1089, 28.89826
521.5911, 29.08864
522.0732, 28.94200
522.5553, 28.29936
523.0374, 27.84537
523.5195, 27.86544
524.0016, 28.00187
524.4838, 28.03536
524.9659, 27.89945
525.4480, 27.39980
525.9301, 26.28655
526.4122, 24.84787
526.8943, 24.63266
527.3765, 27.25448
527.8586, 28.78672
528.3407, 27.74754
528.8228, 26.35135
529.3049, 26.77084
529.7870, 28.97579
530.2692, 30.92506
530.7513, 30.49414
531.2334, 28.22209
531.7155, 27.50180
532.1976, 29.12142
532.6797, 30.45890
533.1619, 29.67537
533.6440, 28.40899
534.1261, 28.55580
534.6082, 30.58809
535.0903, 32.44261
535.5724, 32.72334
536.0546, 31.88633
536.5367, 30.68682
537.0188, 29.16363
537.5009, 28.01194
537.9830, 27.89222
538.4651, 28.59009
538.9473, 28.84270
539.4294, 28.01499
539.9115, 27.58163
540.3936, 28.35088
540.8757, 29.55204
541.3578, 30.26393
541.8400, 30.29866
542.3221, 29.97041
542.8042, 29.53667
543.2863, 28.98987
543.7684, 28.80940
544.2505, 29.18192
544.7326, 29.72646
545.2147, 30.99379
545.6968, 32.08490
546.1790, 31.70831
546.6611, 29.64144
547.1432, 27.41974
547.6253, 26.74256
548.1074, 27.49418
548.5895, 28.47407
549.0717, 29.89492
549.5538, 30.97915
550.0359, 31.19855
550.5180, 30.79167
551.0001, 29.97114
551.4822, 28.58137
551.9644, 27.25003
552.4465, 26.40273
552.9286, 25.88334
553.4107, 25.22742
553.8928, 24.33160
554.3749, 23.92088
554.8571, 24.84072
555.3392, 27.03472
555.8213, 28.23523
556.3034, 27.40437
556.7855, 26.99771
557.2676, 28.04875
557.7498, 29.67435
558.2319, 30.89354
558.7140, 31.44441
559.1961, 31.53174
559.6782, 31.35021
560.1603, 30.90048
560.6425, 30.25488
561.1246, 29.02521
561.6067, 28.19745
562.0888, 28.50584
562.5709, 29.11394
563.0530, 28.91436
563.5352, 27.61335
564.0173, 26.37396
564.4994, 26.09055
564.9815, 26.66132
565.4636, 28.02813
565.9457, 30.42424
566.4279, 32.38054
566.9100, 32.86602
567.3921, 32.10153
567.8742, 31.10256
568.3563, 29.57034
568.8384, 28.30152
569.3206, 27.42181
569.8027, 27.02566
570.2848, 27.61865
570.7669, 29.06008
571.2490, 30.01314
571.7311, 29.11954
572.2133, 26.66600
572.6954, 25.87754
573.1775, 28.57923
573.6596, 30.46952
574.1417, 31.13470
574.6238, 30.72530
575.1060, 28.69813
575.5881, 25.39692
576.0702, 22.79465
576.5523, 22.74871
577.0344, 24.69064
577.5165, 26.78743
577.9987, 29.28125
578.4808, 30.82782
578.9629, 30.37632
579.4450, 28.93395
579.9271, 27.88269
580.4092, 27.25797
580.8914, 26.92261
581.3735, 27.04866
581.8556, 27.29884
582.3377, 27.37609
582.8198, 27.23410
583.3019, 26.67063
583.7841, 25.42624
584.2662, 24.04315
584.7483, 24.07967
585.2304, 27.50203
