##NAMES=Marthozite
##RRUFFID=R090052
##IDEAL CHEMISTRY=Cu^2+^(U^6+^O_2_)_3_(Se^4+^O_3_)_2_O_2_&#183;8H_2_O
##LOCALITY=Musonoi mine, Kolwezi, Katanga, Congo
##OWNER=RRUFF
##SOURCE=William W. Pinch
##DESCRIPTION=Yellowish green triangular shaped flattened and striated crystals, associated with guilleminite and green brochantite.  Sample is from the same specimen used in the Cooper and Hawthorne (2001) study
##STATUS=The identification of this mineral has been confirmed only by single crystal X-ray diffraction.
##URL=rruff.info/R090052
89.78156, 0.0000000E+00
90.26367, 76.98341
90.74579, 80.62344
91.22791, 78.80070
91.71002, 72.17131
92.19214, 66.52625
92.67426, 67.61167
93.15638, 73.50172
93.63850, 79.12638
94.12061, 83.23991
94.60273, 85.90674
95.08485, 87.26337
95.56696, 87.29604
96.04908, 86.03329
96.53120, 81.93925
97.01331, 75.33649
97.49543, 71.34069
97.97755, 73.95191
98.45966, 82.64790
98.94178, 87.91371
99.42390, 89.24076
99.90602, 87.75601
100.3881, 84.53074
100.8703, 78.42461
101.3524, 74.64130
101.8345, 77.05746
102.3166, 87.87256
102.7987, 95.23019
103.2808, 97.50557
103.7630, 95.75932
104.2451, 94.52007
104.7272, 94.04795
105.2093, 93.72343
105.6914, 93.08595
106.1735, 91.77500
106.6557, 90.71004
107.1378, 89.21924
107.6199, 87.18172
108.1020, 88.78460
108.5841, 97.83357
109.0662, 108.5420
109.5484, 115.8329
110.0305, 114.9000
110.5126, 115.4053
110.9947, 118.8138
111.4768, 125.2885
111.9590, 134.1746
112.4411, 146.5253
112.9232, 161.0756
113.4053, 175.8297
113.8874, 191.0515
114.3695, 206.0656
114.8517, 219.7643
115.3338, 230.1283
115.8159, 244.0053
116.2980, 262.1580
116.7801, 285.3614
117.2622, 314.9450
117.7444, 354.3058
118.2265, 398.7004
118.7086, 444.3366
119.1907, 487.9845
119.6728, 537.3090
120.1549, 597.0148
120.6371, 666.2394
121.1192, 741.8144
121.6013, 823.5550
122.0834, 909.4373
122.5655, 996.9971
123.0476, 1087.052
123.5298, 1177.122
124.0119, 1265.467
124.4940, 1352.054
124.9761, 1436.794
125.4582, 1516.517
125.9404, 1593.788
126.4225, 1672.970
126.9046, 1757.301
127.3867, 1844.111
127.8688, 1928.453
128.3509, 2010.001
128.8331, 2092.265
129.3152, 2176.213
129.7973, 2263.368
130.2794, 2358.967
130.7615, 2467.554
131.2436, 2586.934
131.7258, 2707.283
132.2079, 2827.142
132.6900, 2951.180
133.1721, 3090.055
133.6542, 3243.363
134.1364, 3396.551
134.6185, 3544.980
135.1006, 3689.112
135.5827, 3823.612
136.0648, 3947.255
136.5469, 4063.433
137.0291, 4181.762
137.5112, 4303.207
137.9933, 4419.594
138.4754, 4528.343
138.9575, 4629.171
139.4396, 4717.735
139.9218, 4790.585
140.4039, 4850.438
140.8860, 4910.042
141.3681, 4972.297
141.8502, 5028.382
142.3323, 5067.756
142.8145, 5082.819
143.2966, 5102.249
143.7787, 5131.001
144.2608, 5169.174
144.7429, 5206.284
145.2250, 5239.774
145.7072, 5274.962
146.1893, 5317.258
146.6714, 5370.005
147.1535, 5424.705
147.6356, 5478.614
148.1178, 5530.478
148.5999, 5588.669
149.0820, 5655.903
149.5641, 5728.139
150.0462, 5800.054
150.5283, 5875.492
151.0105, 5902.925
151.4926, 5953.912
151.9747, 5942.146
152.4568, 5935.582
152.9389, 5938.176
153.4210, 5945.521
153.9032, 5951.492
154.3853, 5953.397
154.8674, 5955.720
155.3495, 5960.362
155.8316, 5969.610
156.3137, 5976.109
156.7959, 5976.080
157.2780, 5972.685
157.7601, 5971.910
158.2422, 5979.173
158.7243, 5986.127
159.2065, 5988.062
159.6886, 5979.414
160.1707, 5974.039
160.6528, 5976.443
161.1349, 5984.992
161.6170, 5995.575
162.0992, 6008.955
162.5813, 6022.424
163.0634, 6034.013
163.5455, 6041.387
164.0276, 6049.353
164.5097, 6060.164
164.9919, 6073.384
165.4740, 6087.375
165.9561, 6104.754
166.4382, 6121.041
166.9203, 6132.190
167.4024, 6132.846
167.8846, 6132.501
168.3667, 6135.941
168.8488, 6143.140
169.3309, 6154.047
169.8130, 6173.672
170.2952, 6195.593
170.7773, 6211.544
171.2594, 6214.950
171.7415, 6214.344
172.2236, 6216.306
172.7057, 6220.682
173.1879, 6226.148
173.6700, 6230.464
174.1521, 6235.231
174.6342, 6243.185
175.1163, 6258.803
175.5984, 6276.393
176.0806, 6288.283
176.5627, 6294.460
177.0448, 6300.134
177.5269, 6313.032
178.0090, 6329.190
178.4911, 6339.509
178.9733, 6338.403
179.4554, 6329.642
179.9375, 6316.351
180.4196, 6297.987
180.9017, 6282.721
181.3838, 6283.596
181.8660, 6296.212
182.3481, 6304.776
182.8302, 6296.664
183.3123, 6279.969
183.7944, 6274.068
184.2766, 6280.530
184.7587, 6292.137
185.2408, 6301.653
185.7229, 6309.120
186.2050, 6315.093
186.6871, 6316.427
187.1693, 6315.841
187.6514, 6324.704
188.1335, 6345.249
188.6156, 6369.299
189.0977, 6385.569
189.5798, 6394.182
190.0620, 6400.515
190.5441, 6408.098
191.0262, 6416.117
191.5083, 6419.112
191.9904, 6415.867
192.4725, 6409.619
192.9547, 6404.617
193.4368, 6400.754
193.9189, 6400.442
194.4010, 6406.083
194.8831, 6417.364
195.3652, 6429.513
195.8474, 6443.190
196.3295, 6456.198
196.8116, 6463.579
197.2937, 6464.930
197.7758, 6464.557
198.2579, 6463.400
198.7401, 6461.315
199.2222, 6464.059
199.7043, 6472.829
200.1864, 6485.498
200.6685, 6498.324
201.1507, 6511.678
201.6328, 6522.780
202.1149, 6529.297
202.5970, 6530.758
203.0791, 6532.089
203.5612, 6533.475
204.0434, 6535.130
204.5255, 6538.096
205.0076, 6543.038
205.4897, 6547.181
205.9718, 6548.458
206.4539, 6546.354
206.9361, 6544.888
207.4182, 6544.700
207.9003, 6545.331
208.3824, 6545.463
208.8645, 6545.393
209.3466, 6544.163
209.8288, 6540.434
210.3109, 6533.054
210.7930, 6528.561
211.2751, 6528.724
211.7572, 6531.887
212.2393, 6531.563
212.7215, 6526.424
213.2036, 6520.651
213.6857, 6517.258
214.1678, 6517.467
214.6499, 6515.392
215.1320, 6509.127
215.6142, 6500.185
216.0963, 6496.009
216.5784, 6498.851
217.0605, 6502.110
217.5426, 6501.343
218.0247, 6495.163
218.5069, 6489.030
218.9890, 6483.136
219.4711, 6477.681
219.9532, 6473.562
220.4353, 6471.314
220.9175, 6469.571
221.3996, 6467.163
221.8817, 6463.034
222.3638, 6461.442
222.8459, 6464.346
223.3280, 6470.306
223.8102, 6471.181
224.2923, 6463.496
224.7744, 6455.985
225.2565, 6454.670
225.7386, 6462.740
226.2207, 6469.066
226.7029, 6472.506
227.1850, 6473.354
227.6671, 6472.822
228.1492, 6469.692
228.6313, 6466.899
229.1134, 6466.843
229.5956, 6472.616
230.0777, 6473.978
230.5598, 6468.134
231.0419, 6457.073
231.5240, 6449.937
232.0062, 6445.961
232.4883, 6447.079
232.9704, 6455.971
233.4525, 6479.716
233.9346, 6495.369
234.4167, 6497.647
234.8989, 6490.060
235.3810, 6489.322
235.8631, 6498.938
236.3452, 6510.692
236.8273, 6520.233
237.3094, 6527.592
237.7916, 6532.161
238.2737, 6532.255
238.7558, 6529.337
239.2379, 6529.964
239.7200, 6536.124
240.2021, 6543.014
240.6843, 6548.830
241.1664, 6556.276
241.6485, 6556.045
242.1306, 6542.673
242.6127, 6521.425
243.0948, 6514.069
243.5770, 6531.348
244.0591, 6547.917
244.5412, 6549.378
245.0233, 6525.127
245.5054, 6510.292
245.9876, 6509.795
246.4697, 6519.089
246.9518, 6523.386
247.4339, 6519.401
247.9160, 6515.349
248.3981, 6515.404
248.8803, 6521.690
249.3624, 6526.803
249.8445, 6530.243
250.3266, 6532.377
250.8087, 6534.760
251.2908, 6539.333
251.7730, 6540.701
252.2551, 6535.123
252.7372, 6517.015
253.2193, 6506.509
253.7014, 6507.344
254.1835, 6514.148
254.6657, 6513.624
255.1478, 6499.814
255.6299, 6489.206
256.1120, 6490.317
256.5941, 6509.464
257.0763, 6519.811
257.5584, 6518.153
258.0405, 6509.932
258.5226, 6506.233
259.0047, 6509.306
259.4868, 6512.288
259.9690, 6512.393
260.4511, 6508.875
260.9332, 6505.967
261.4153, 6503.652
261.8974, 6501.920
262.3795, 6500.608
262.8617, 6499.267
263.3438, 6499.396
263.8259, 6502.240
264.3080, 6508.554
264.7901, 6511.592
265.2722, 6510.227
265.7544, 6506.863
266.2365, 6504.987
266.7186, 6505.042
267.2007, 6505.326
267.6828, 6506.470
268.1649, 6508.865
268.6471, 6503.877
269.1292, 6487.970
269.6113, 6470.150
270.0934, 6463.392
270.5755, 6471.616
271.0576, 6475.416
271.5398, 6467.789
272.0219, 6449.123
272.5040, 6435.901
272.9861, 6429.471
273.4682, 6425.854
273.9503, 6420.851
274.4325, 6414.085
274.9146, 6408.158
275.3967, 6404.252
275.8788, 6401.839
276.3610, 6397.007
276.8431, 6389.507
277.3252, 6380.507
277.8073, 6371.349
278.2894, 6362.221
278.7715, 6350.719
279.2537, 6334.248
279.7358, 6315.544
280.2179, 6308.069
280.7000, 6314.426
281.1821, 6320.467
281.6642, 6311.914
282.1464, 6288.665
282.6285, 6271.896
283.1106, 6266.015
283.5927, 6267.884
284.0748, 6270.330
284.5569, 6273.555
285.0391, 6274.905
285.5212, 6270.835
286.0033, 6261.921
286.4854, 6256.585
286.9675, 6257.154
287.4496, 6259.615
287.9318, 6254.648
288.4139, 6242.058
288.8960, 6230.341
289.3781, 6225.204
289.8602, 6225.475
290.3423, 6225.557
290.8245, 6225.427
291.3066, 6224.032
291.7887, 6219.456
292.2708, 6211.922
292.7529, 6203.118
293.2350, 6191.882
293.7172, 6179.995
294.1993, 6173.776
294.6814, 6174.006
295.1635, 6177.349
295.6456, 6180.917
296.1277, 6184.381
296.6099, 6186.354
297.0920, 6186.253
297.5741, 6184.141
298.0562, 6179.125
298.5383, 6170.963
299.0204, 6163.213
299.5026, 6159.997
299.9847, 6160.108
300.4668, 6160.298
300.9489, 6160.639
301.4311, 6159.731
301.9132, 6153.540
302.3953, 6142.352
302.8774, 6133.762
303.3595, 6136.579
303.8416, 6145.821
304.3238, 6152.677
304.8059, 6152.501
305.2880, 6150.481
305.7701, 6153.353
306.2522, 6160.020
306.7343, 6163.671
307.2165, 6155.193
307.6986, 6142.611
308.1807, 6136.343
308.6628, 6141.284
309.1449, 6149.079
309.6270, 6153.900
310.1092, 6156.331
310.5913, 6158.202
311.0734, 6160.010
311.5555, 6161.894
312.0376, 6164.290
312.5197, 6167.950
313.0019, 6170.144
313.4840, 6166.476
313.9661, 6160.308
314.4482, 6158.469
314.9303, 6171.646
315.4124, 6184.593
315.8946, 6186.017
316.3767, 6171.993
316.8588, 6160.158
317.3409, 6162.796
317.8230, 6170.602
318.3051, 6171.299
318.7873, 6150.979
319.2694, 6131.763
319.7515, 6123.748
320.2336, 6128.195
320.7157, 6133.422
321.1978, 6136.146
321.6800, 6138.127
322.1621, 6140.935
322.6442, 6146.857
323.1263, 6151.510
323.6084, 6153.351
324.0905, 6152.529
324.5727, 6151.859
325.0548, 6152.060
325.5369, 6152.384
326.0190, 6152.404
326.5012, 6151.784
326.9833, 6151.336
327.4654, 6151.415
327.9475, 6151.852
328.4296, 6151.858
328.9117, 6150.297
329.3939, 6149.315
329.8760, 6149.984
330.3581, 6154.745
330.8402, 6156.326
331.3223, 6152.216
331.8044, 6145.451
332.2866, 6142.215
332.7687, 6143.264
333.2508, 6146.523
333.7329, 6151.910
334.2150, 6160.264
334.6971, 6166.452
335.1793, 6170.397
335.6614, 6172.335
336.1435, 6171.899
336.6256, 6167.401
337.1077, 6165.603
337.5898, 6169.795
338.0720, 6179.606
338.5541, 6183.472
339.0362, 6179.805
339.5183, 6174.330
340.0004, 6172.348
340.4825, 6174.370
340.9647, 6176.616
341.4468, 6177.865
341.9289, 6179.214
342.4110, 6184.702
342.8931, 6194.605
343.3752, 6206.072
343.8574, 6217.490
344.3395, 6228.795
344.8216, 6238.827
345.3037, 6247.093
345.7858, 6254.417
346.2679, 6261.721
346.7501, 6269.065
347.2322, 6277.476
347.7143, 6289.202
348.1964, 6302.549
348.6785, 6311.666
349.1607, 6315.971
349.6428, 6318.877
350.1249, 6324.727
350.6070, 6332.563
351.0891, 6339.390
351.5713, 6342.630
352.0534, 6344.822
352.5355, 6350.705
353.0176, 6360.078
353.4997, 6368.644
353.9818, 6371.490
354.4640, 6371.690
354.9461, 6374.470
355.4282, 6384.459
355.9103, 6393.521
356.3924, 6391.524
356.8745, 6381.429
357.3567, 6374.928
357.8388, 6384.332
358.3209, 6397.011
358.8030, 6401.008
359.2851, 6390.915
359.7672, 6380.939
360.2494, 6380.794
360.7315, 6385.908
361.2136, 6387.847
361.6957, 6382.324
362.1778, 6373.751
362.6599, 6363.741
363.1421, 6352.232
363.6242, 6340.725
364.1063, 6328.818
364.5884, 6317.344
365.0705, 6307.253
365.5526, 6300.685
366.0348, 6293.405
366.5169, 6281.626
366.9990, 6266.023
367.4811, 6258.362
367.9632, 6271.500
368.4453, 6284.773
368.9275, 6286.132
369.4096, 6261.067
369.8917, 6244.122
370.3738, 6240.845
370.8559, 6245.874
371.3380, 6243.555
371.8202, 6224.799
372.3023, 6211.120
372.7844, 6213.410
373.2665, 6238.605
373.7487, 6250.492
374.2308, 6243.080
374.7129, 6228.447
375.1950, 6223.726
375.6771, 6232.724
376.1592, 6239.500
376.6414, 6239.080
377.1235, 6232.397
377.6056, 6228.580
378.0877, 6227.896
378.5698, 6229.246
379.0519, 6232.177
379.5341, 6236.694
380.0162, 6241.292
380.4983, 6245.906
380.9804, 6250.222
381.4625, 6252.797
381.9446, 6253.702
382.4268, 6255.172
382.9089, 6260.127
383.3910, 6266.854
383.8731, 6268.630
384.3552, 6263.830
384.8373, 6259.275
385.3195, 6264.230
385.8016, 6276.161
386.2837, 6287.760
386.7658, 6295.741
387.2479, 6301.500
387.7300, 6306.101
388.2122, 6309.623
388.6943, 6314.068
389.1764, 6322.794
389.6585, 6332.671
390.1406, 6339.185
390.6227, 6338.208
391.1049, 6337.683
391.5870, 6343.514
392.0691, 6354.143
392.5512, 6364.907
393.0333, 6373.631
393.5154, 6381.839
393.9976, 6390.282
394.4797, 6398.808
394.9618, 6408.490
395.4439, 6418.871
395.9260, 6430.836
396.4081, 6445.494
396.8903, 6470.051
397.3724, 6490.662
397.8545, 6500.696
398.3366, 6499.463
398.8188, 6504.731
399.3009, 6522.673
399.7830, 6544.198
400.2651, 6563.417
400.7472, 6575.663
401.2293, 6592.810
401.7115, 6618.139
402.1936, 6648.538
402.6757, 6674.058
403.1578, 6690.900
403.6399, 6709.391
404.1220, 6733.388
404.6042, 6763.268
405.0863, 6797.906
405.5684, 6839.176
406.0505, 6881.526
406.5326, 6916.459
407.0147, 6942.956
407.4969, 6970.915
407.9790, 7003.843
408.4611, 7040.354
408.9432, 7072.832
409.4253, 7100.321
409.9074, 7132.650
410.3896, 7182.597
410.8717, 7245.610
411.3538, 7300.102
411.8359, 7340.010
412.3180, 7376.348
412.8001, 7426.589
413.2823, 7486.747
413.7644, 7544.576
414.2465, 7589.106
414.7286, 7629.178
415.2107, 7677.788
415.6928, 7735.212
416.1750, 7795.804
416.6571, 7858.943
417.1392, 7921.059
417.6213, 7979.413
418.1034, 8029.499
418.5855, 8078.542
419.0677, 8130.817
419.5498, 8185.583
420.0319, 8237.946
420.5140, 8286.740
420.9961, 8332.672
421.4782, 8377.552
421.9604, 8424.932
422.4425, 8462.072
422.9246, 8480.956
423.4067, 8489.123
423.8889, 8497.126
424.3710, 8514.524
424.8531, 8522.966
425.3352, 8519.624
425.8173, 8504.747
426.2994, 8476.087
426.7816, 8426.903
427.2637, 8370.967
427.7458, 8317.932
428.2279, 8271.651
428.7100, 8217.072
429.1921, 8152.727
429.6743, 8080.412
430.1564, 8005.884
430.6385, 7928.898
431.1206, 7850.676
431.6027, 7771.607
432.0848, 7691.116
432.5670, 7610.617
433.0491, 7529.041
433.5312, 7450.931
434.0133, 7380.655
434.4954, 7317.583
434.9775, 7257.337
435.4597, 7198.913
435.9418, 7142.807
436.4239, 7090.159
436.9060, 7041.580
437.3881, 6997.868
437.8702, 6963.968
438.3524, 6933.735
438.8345, 6896.762
439.3166, 6850.677
439.7987, 6806.187
440.2808, 6770.737
440.7629, 6742.463
441.2451, 6718.842
441.7272, 6705.810
442.2093, 6690.929
442.6914, 6664.341
443.1735, 6628.219
443.6556, 6597.294
444.1378, 6582.343
444.6199, 6570.627
445.1020, 6553.794
445.5841, 6525.841
446.0662, 6502.501
446.5483, 6488.857
447.0305, 6480.604
447.5126, 6470.396
447.9947, 6453.995
448.4768, 6440.839
448.9590, 6434.329
449.4411, 6434.662
449.9232, 6430.915
450.4053, 6419.662
450.8874, 6409.007
451.3695, 6405.658
451.8517, 6411.423
452.3338, 6416.018
452.8159, 6418.423
453.2980, 6419.119
453.7801, 6418.839
454.2622, 6417.500
454.7444, 6416.029
455.2265, 6414.149
455.7086, 6412.422
456.1907, 6413.591
456.6728, 6417.846
457.1549, 6423.287
457.6371, 6428.235
458.1192, 6433.089
458.6013, 6439.192
459.0834, 6447.595
459.5655, 6455.916
460.0476, 6461.016
460.5298, 6463.783
461.0119, 6466.572
461.4940, 6468.120
461.9761, 6471.960
462.4582, 6482.894
462.9403, 6502.092
463.4225, 6517.991
463.9046, 6522.684
464.3867, 6522.882
464.8688, 6524.833
465.3509, 6530.981
465.8330, 6537.973
466.3152, 6546.072
466.7973, 6554.709
467.2794, 6561.745
467.7615, 6566.258
468.2436, 6570.071
468.7257, 6574.200
469.2079, 6579.355
469.6900, 6580.950
470.1721, 6576.674
470.6542, 6571.275
471.1363, 6571.555
471.6184, 6581.139
472.1006, 6581.292
472.5827, 6566.430
473.0648, 6541.455
473.5469, 6521.166
474.0291, 6505.908
474.5112, 6491.430
474.9933, 6475.946
475.4754, 6459.366
475.9575, 6441.020
476.4396, 6420.792
476.9218, 6399.533
477.4039, 6376.294
477.8860, 6352.856
478.3681, 6333.958
478.8502, 6323.414
479.3323, 6315.068
479.8145, 6304.156
480.2966, 6290.436
480.7787, 6273.830
481.2608, 6250.006
481.7429, 6225.869
482.2250, 6205.979
482.7072, 6190.999
483.1893, 6179.318
483.6714, 6174.606
484.1535, 6171.083
484.6356, 6162.958
485.1177, 6146.022
485.5999, 6128.302
486.0820, 6108.263
486.5641, 6087.991
487.0462, 6075.162
487.5283, 6075.643
488.0104, 6075.857
488.4926, 6069.563
488.9747, 6055.060
489.4568, 6046.080
489.9389, 6044.382
490.4210, 6045.189
490.9031, 6043.931
491.3853, 6040.621
491.8674, 6033.890
492.3495, 6021.621
492.8316, 6007.914
493.3137, 6002.765
493.7958, 6005.474
494.2780, 6008.990
494.7601, 6008.726
495.2422, 6006.516
495.7243, 6006.614
496.2064, 6009.331
496.6885, 6010.578
497.1707, 6005.876
497.6528, 5998.045
498.1349, 5990.857
498.6170, 5985.092
499.0992, 5980.521
499.5813, 5977.955
500.0634, 5976.482
500.5455, 5973.854
501.0276, 5966.576
501.5097, 5960.484
501.9919, 5959.189
502.4740, 5964.147
502.9561, 5965.144
503.4382, 5957.436
503.9203, 5948.403
504.4024, 5943.087
504.8846, 5943.403
505.3667, 5944.012
505.8488, 5946.201
506.3309, 5947.581
506.8130, 5941.198
507.2951, 5924.572
507.7773, 5911.646
508.2594, 5909.565
508.7415, 5915.933
509.2236, 5916.014
509.7057, 5909.354
510.1878, 5902.307
510.6700, 5900.433
511.1521, 5902.375
511.6342, 5904.505
512.1163, 5906.704
512.5984, 5907.365
513.0806, 5902.472
513.5627, 5894.837
514.0448, 5890.335
514.5269, 5897.039
515.0090, 5903.165
515.4911, 5897.549
515.9733, 5882.346
516.4554, 5872.745
516.9375, 5881.328
517.4196, 5892.192
517.9017, 5895.530
518.3839, 5886.714
518.8660, 5878.799
519.3481, 5873.954
519.8302, 5870.303
520.3123, 5865.671
520.7944, 5857.159
521.2766, 5853.349
521.7587, 5857.897
522.2408, 5867.909
522.7229, 5872.015
523.2050, 5869.576
523.6871, 5864.009
524.1693, 5854.535
524.6514, 5842.138
525.1335, 5838.077
525.6156, 5843.229
526.0977, 5851.182
526.5798, 5857.216
527.0620, 5860.952
527.5441, 5860.733
528.0262, 5854.904
528.5083, 5847.483
528.9904, 5841.236
529.4725, 5836.624
529.9547, 5834.961
530.4368, 5839.532
530.9189, 5845.034
531.4010, 5847.937
531.8831, 5848.111
532.3652, 5847.923
532.8474, 5848.368
533.3295, 5848.524
533.8116, 5847.813
534.2937, 5845.848
534.7758, 5843.534
535.2579, 5839.211
535.7401, 5835.505
536.2222, 5837.250
536.7043, 5849.235
537.1864, 5855.604
537.6685, 5851.633
538.1506, 5839.763
538.6328, 5830.518
539.1149, 5823.806
539.5970, 5820.224
540.0791, 5822.296
540.5612, 5828.352
541.0433, 5829.625
541.5255, 5825.383
542.0076, 5820.242
542.4897, 5817.190
542.9718, 5816.650
543.4539, 5820.017
543.9360, 5829.850
544.4182, 5839.567
544.9003, 5843.930
545.3824, 5844.111
545.8645, 5842.792
546.3466, 5838.899
546.8287, 5835.583
547.3109, 5834.369
547.7930, 5835.353
548.2751, 5836.986
548.7572, 5839.826
549.2393, 5842.679
549.7214, 5844.996
550.2036, 5847.085
550.6857, 5848.019
551.1678, 5847.310
551.6499, 5846.076
552.1320, 5846.307
552.6141, 5848.549
553.0963, 5849.033
553.5784, 5846.574
554.0605, 5842.170
554.5426, 5837.460
555.0247, 5832.583
555.5068, 5829.799
555.9890, 5832.070
556.4711, 5836.815
556.9532, 5839.580
557.4353, 5840.154
557.9174, 5839.643
558.3995, 5836.516
558.8817, 5833.719
559.3638, 5835.223
559.8459, 5845.268
560.3281, 5852.784
560.8102, 5848.641
561.2923, 5840.143
561.7744, 5838.828
562.2565, 5858.638
562.7386, 5872.687
563.2208, 5872.011
563.7029, 5859.470
564.1850, 5855.674
564.6671, 5865.908
565.1492, 5875.627
565.6313, 5876.681
566.1135, 5868.127
566.5956, 5864.176
567.0777, 5865.768
567.5598, 5868.708
568.0419, 5867.666
568.5240, 5863.724
569.0062, 5862.978
569.4883, 5867.561
569.9704, 5873.439
570.4525, 5875.989
570.9346, 5875.786
571.4167, 5874.245
571.8989, 5872.075
572.3810, 5868.795
572.8631, 5864.056
573.3452, 5857.924
573.8273, 5850.523
574.3094, 5839.297
574.7916, 5828.952
575.2737, 5822.481
575.7558, 5821.821
576.2379, 5819.771
576.7200, 5815.247
577.2021, 5810.040
577.6843, 5805.551
578.1664, 5801.695
578.6485, 5798.991
579.1306, 5798.142
579.6127, 5797.573
580.0948, 5793.681
580.5770, 5786.460
581.0591, 5779.105
581.5412, 5772.664
582.0233, 5767.086
582.5054, 5763.511
582.9875, 5761.478
