##NAMES=Mascagnite
##RRUFFID=R141117
##IDEAL CHEMISTRY=(N^3-^H_4_)_2_S^6+^O_4_
##LOCALITY=Ravat Saravanan, Tajikistan
##OWNER=RRUFF
##SOURCE=Kenny Lloyd and Dirk Andrews
##DESCRIPTION=Colorless prismatic crystals
##STATUS=The identification of this mineral has been confirmed by single-crystal X-ray diffraction.
##URL=rruff.info/R141117
9.059570e+001, 1.369542e+003
9.107782e+001, 1.357794e+003
9.155994e+001, 1.353683e+003
9.204205e+001, 1.360682e+003
9.252417e+001, 1.373075e+003
9.300629e+001, 1.390248e+003
9.348840e+001, 1.403997e+003
9.397052e+001, 1.403508e+003
9.445264e+001, 1.382880e+003
9.493475e+001, 1.360190e+003
9.541687e+001, 1.337701e+003
9.589898e+001, 1.316016e+003
9.638110e+001, 1.295660e+003
9.686321e+001, 1.277058e+003
9.734533e+001, 1.259462e+003
9.782745e+001, 1.240390e+003
9.830956e+001, 1.223495e+003
9.879168e+001, 1.208338e+003
9.927380e+001, 1.195403e+003
9.975591e+001, 1.185172e+003
1.002380e+002, 1.176924e+003
1.007201e+002, 1.169325e+003
1.012023e+002, 1.161857e+003
1.016844e+002, 1.154211e+003
1.021665e+002, 1.145707e+003
1.026486e+002, 1.134603e+003
1.031307e+002, 1.123552e+003
1.036128e+002, 1.115236e+003
1.040950e+002, 1.109875e+003
1.045771e+002, 1.105376e+003
1.050592e+002, 1.099750e+003
1.055413e+002, 1.093722e+003
1.060234e+002, 1.088604e+003
1.065055e+002, 1.085173e+003
1.069877e+002, 1.083057e+003
1.074698e+002, 1.080972e+003
1.079519e+002, 1.079886e+003
1.084340e+002, 1.077333e+003
1.089161e+002, 1.071932e+003
1.093982e+002, 1.064266e+003
1.098804e+002, 1.055817e+003
1.103625e+002, 1.047538e+003
1.108446e+002, 1.039168e+003
1.113267e+002, 1.032527e+003
1.118088e+002, 1.028323e+003
1.122909e+002, 1.025044e+003
1.127731e+002, 1.022326e+003
1.132552e+002, 1.019962e+003
1.137373e+002, 1.017637e+003
1.142194e+002, 1.014881e+003
1.147015e+002, 1.010906e+003
1.151836e+002, 1.007950e+003
1.156658e+002, 1.007077e+003
1.161479e+002, 1.006678e+003
1.166300e+002, 1.004990e+003
1.171121e+002, 1.001319e+003
1.175942e+002, 9.966542e+002
1.180763e+002, 9.935253e+002
1.185584e+002, 9.929670e+002
1.190406e+002, 9.914830e+002
1.195227e+002, 9.869142e+002
1.200048e+002, 9.804509e+002
1.204869e+002, 9.755176e+002
1.209690e+002, 9.743020e+002
1.214511e+002, 9.751051e+002
1.219333e+002, 9.740255e+002
1.224154e+002, 9.699691e+002
1.228975e+002, 9.658828e+002
1.233796e+002, 9.647635e+002
1.238617e+002, 9.669727e+002
1.243438e+002, 9.689832e+002
1.248260e+002, 9.693893e+002
1.253081e+002, 9.686060e+002
1.257902e+002, 9.666024e+002
1.262723e+002, 9.630039e+002
1.267544e+002, 9.586357e+002
1.272365e+002, 9.554305e+002
1.277187e+002, 9.539430e+002
1.282008e+002, 9.527871e+002
1.286829e+002, 9.515823e+002
1.291650e+002, 9.503738e+002
1.296471e+002, 9.492623e+002
1.301292e+002, 9.483464e+002
1.306114e+002, 9.475992e+002
1.310935e+002, 9.465704e+002
1.315756e+002, 9.452369e+002
1.320577e+002, 9.436249e+002
1.325398e+002, 9.414759e+002
1.330219e+002, 9.390099e+002
1.335041e+002, 9.367082e+002
1.339862e+002, 9.349879e+002
1.344683e+002, 9.339283e+002
1.349504e+002, 9.330056e+002
1.354325e+002, 9.322401e+002
1.359146e+002, 9.315608e+002
1.363968e+002, 9.308439e+002
1.368789e+002, 9.301085e+002
1.373610e+002, 9.295910e+002
1.378431e+002, 9.296463e+002
1.383252e+002, 9.304387e+002
1.388073e+002, 9.309544e+002
1.392895e+002, 9.311053e+002
1.397716e+002, 9.309637e+002
1.402537e+002, 9.305378e+002
1.407358e+002, 9.297760e+002
1.412179e+002, 9.289380e+002
1.417000e+002, 9.284509e+002
1.421821e+002, 9.282880e+002
1.426643e+002, 9.279535e+002
1.431464e+002, 9.273195e+002
1.436285e+002, 9.263699e+002
1.441106e+002, 9.248922e+002
1.445927e+002, 9.221146e+002
1.450748e+002, 9.196915e+002
1.455570e+002, 9.192586e+002
1.460391e+002, 9.208140e+002
1.465212e+002, 9.225799e+002
1.470033e+002, 9.227647e+002
1.474854e+002, 9.211280e+002
1.479675e+002, 9.202705e+002
1.484497e+002, 9.221022e+002
1.489318e+002, 9.239683e+002
1.494139e+002, 9.241656e+002
1.498960e+002, 9.223961e+002
1.503781e+002, 9.199361e+002
1.508602e+002, 9.188442e+002
1.513424e+002, 9.201956e+002
1.518245e+002, 9.205273e+002
1.523066e+002, 9.186021e+002
1.527887e+002, 9.162431e+002
1.532708e+002, 9.149012e+002
1.537529e+002, 9.151212e+002
1.542351e+002, 9.163758e+002
1.547172e+002, 9.173680e+002
1.551993e+002, 9.179777e+002
1.556814e+002, 9.184170e+002
1.561635e+002, 9.183554e+002
1.566456e+002, 9.182297e+002
1.571278e+002, 9.187203e+002
1.576099e+002, 9.202186e+002
1.580920e+002, 9.223160e+002
1.585741e+002, 9.232188e+002
1.590562e+002, 9.220366e+002
1.595383e+002, 9.208478e+002
1.600205e+002, 9.199811e+002
1.605026e+002, 9.194594e+002
1.609847e+002, 9.193870e+002
1.614668e+002, 9.199540e+002
1.619489e+002, 9.209440e+002
1.624310e+002, 9.213858e+002
1.629131e+002, 9.206426e+002
1.633953e+002, 9.199969e+002
1.638774e+002, 9.203810e+002
1.643595e+002, 9.216915e+002
1.648416e+002, 9.229053e+002
1.653237e+002, 9.234260e+002
1.658058e+002, 9.233707e+002
1.662880e+002, 9.230905e+002
1.667701e+002, 9.225560e+002
1.672522e+002, 9.218606e+002
1.677343e+002, 9.208209e+002
1.682164e+002, 9.191944e+002
1.686985e+002, 9.183894e+002
1.691807e+002, 9.202650e+002
1.696628e+002, 9.232220e+002
1.701449e+002, 9.253350e+002
1.706270e+002, 9.257745e+002
1.711091e+002, 9.249863e+002
1.715912e+002, 9.238789e+002
1.720734e+002, 9.221720e+002
1.725555e+002, 9.206736e+002
1.730376e+002, 9.197244e+002
1.735197e+002, 9.191303e+002
1.740018e+002, 9.186257e+002
1.744839e+002, 9.180763e+002
1.749661e+002, 9.174928e+002
1.754482e+002, 9.169730e+002
1.759303e+002, 9.171864e+002
1.764124e+002, 9.166412e+002
1.768945e+002, 9.142118e+002
1.773766e+002, 9.108008e+002
1.778588e+002, 9.080325e+002
1.783409e+002, 9.071891e+002
1.788230e+002, 9.082900e+002
1.793051e+002, 9.087035e+002
1.797872e+002, 9.081254e+002
1.802693e+002, 9.071676e+002
1.807515e+002, 9.058679e+002
1.812336e+002, 9.043063e+002
1.817157e+002, 9.025880e+002
1.821978e+002, 9.007587e+002
1.826799e+002, 8.987656e+002
1.831620e+002, 8.972067e+002
1.836441e+002, 8.961601e+002
1.841263e+002, 8.953538e+002
1.846084e+002, 8.948004e+002
1.850905e+002, 8.944229e+002
1.855726e+002, 8.939690e+002
1.860547e+002, 8.931829e+002
1.865368e+002, 8.920024e+002
1.870190e+002, 8.909933e+002
1.875011e+002, 8.908019e+002
1.879832e+002, 8.903456e+002
1.884653e+002, 8.884402e+002
1.889474e+002, 8.850413e+002
1.894296e+002, 8.817126e+002
1.899117e+002, 8.802870e+002
1.903938e+002, 8.806962e+002
1.908759e+002, 8.801024e+002
1.913580e+002, 8.771321e+002
1.918401e+002, 8.735142e+002
1.923223e+002, 8.714018e+002
1.928044e+002, 8.712611e+002
1.932865e+002, 8.714301e+002
1.937686e+002, 8.700828e+002
1.942507e+002, 8.676727e+002
1.947328e+002, 8.655306e+002
1.952150e+002, 8.644993e+002
1.956971e+002, 8.639291e+002
1.961792e+002, 8.624550e+002
1.966613e+002, 8.596995e+002
1.971434e+002, 8.565977e+002
1.976255e+002, 8.538682e+002
1.981077e+002, 8.513562e+002
1.985898e+002, 8.487213e+002
1.990719e+002, 8.454709e+002
1.995540e+002, 8.418557e+002
2.000361e+002, 8.390455e+002
2.005182e+002, 8.374860e+002
2.010004e+002, 8.361928e+002
2.014825e+002, 8.346152e+002
2.019646e+002, 8.328545e+002
2.024467e+002, 8.312178e+002
2.029288e+002, 8.302669e+002
2.034109e+002, 8.298947e+002
2.038930e+002, 8.281307e+002
2.043752e+002, 8.232667e+002
2.048573e+002, 8.187432e+002
2.053394e+002, 8.161315e+002
2.058215e+002, 8.149695e+002
2.063036e+002, 8.139739e+002
2.067857e+002, 8.121166e+002
2.072679e+002, 8.093531e+002
2.077500e+002, 8.066133e+002
2.082321e+002, 8.034063e+002
2.087142e+002, 8.006814e+002
2.091963e+002, 7.991782e+002
2.096784e+002, 7.985164e+002
2.101606e+002, 7.976956e+002
2.106427e+002, 7.957731e+002
2.111248e+002, 7.926068e+002
2.116069e+002, 7.896786e+002
2.120890e+002, 7.867906e+002
2.125711e+002, 7.842903e+002
2.130533e+002, 7.824641e+002
2.135354e+002, 7.811945e+002
2.140175e+002, 7.801236e+002
2.144996e+002, 7.789833e+002
2.149817e+002, 7.778387e+002
2.154638e+002, 7.760555e+002
2.159460e+002, 7.730887e+002
2.164281e+002, 7.701146e+002
2.169102e+002, 7.673516e+002
2.173923e+002, 7.650094e+002
2.178744e+002, 7.636375e+002
2.183565e+002, 7.640163e+002
2.188387e+002, 7.664980e+002
2.193208e+002, 7.670817e+002
2.198029e+002, 7.640486e+002
2.202850e+002, 7.607540e+002
2.207671e+002, 7.594603e+002
2.212492e+002, 7.601119e+002
2.217314e+002, 7.609786e+002
2.222135e+002, 7.606458e+002
2.226956e+002, 7.589742e+002
2.231777e+002, 7.570269e+002
2.236598e+002, 7.541537e+002
2.241419e+002, 7.514726e+002
2.246240e+002, 7.501506e+002
2.251062e+002, 7.501670e+002
2.255883e+002, 7.500769e+002
2.260704e+002, 7.485421e+002
2.265525e+002, 7.457570e+002
2.270346e+002, 7.435135e+002
2.275167e+002, 7.418970e+002
2.279989e+002, 7.408858e+002
2.284810e+002, 7.408873e+002
2.289631e+002, 7.419645e+002
2.294452e+002, 7.426367e+002
2.299273e+002, 7.414521e+002
2.304094e+002, 7.390085e+002
2.308916e+002, 7.369794e+002
2.313737e+002, 7.355842e+002
2.318558e+002, 7.347543e+002
2.323379e+002, 7.347213e+002
2.328200e+002, 7.356492e+002
2.333021e+002, 7.362092e+002
2.337843e+002, 7.350660e+002
2.342664e+002, 7.330766e+002
2.347485e+002, 7.315322e+002
2.352306e+002, 7.309358e+002
2.357127e+002, 7.307683e+002
2.361948e+002, 7.303149e+002
2.366770e+002, 7.295008e+002
2.371591e+002, 7.287001e+002
2.376412e+002, 7.282620e+002
2.381233e+002, 7.278954e+002
2.386054e+002, 7.271830e+002
2.390875e+002, 7.257844e+002
2.395697e+002, 7.242950e+002
2.400518e+002, 7.237951e+002
2.405339e+002, 7.246127e+002
2.410160e+002, 7.253692e+002
2.414981e+002, 7.255866e+002
2.419802e+002, 7.254640e+002
2.424624e+002, 7.251799e+002
2.429445e+002, 7.248193e+002
2.434266e+002, 7.242372e+002
2.439087e+002, 7.229762e+002
2.443908e+002, 7.205182e+002
2.448729e+002, 7.188258e+002
2.453550e+002, 7.190309e+002
2.458372e+002, 7.198588e+002
2.463193e+002, 7.203223e+002
2.468014e+002, 7.200941e+002
2.472835e+002, 7.193229e+002
2.477656e+002, 7.181403e+002
2.482477e+002, 7.162279e+002
2.487299e+002, 7.146830e+002
2.492120e+002, 7.139747e+002
2.496941e+002, 7.134994e+002
2.501762e+002, 7.126970e+002
2.506583e+002, 7.114138e+002
2.511404e+002, 7.101083e+002
2.516226e+002, 7.096434e+002
2.521047e+002, 7.106036e+002
2.525868e+002, 7.110897e+002
2.530689e+002, 7.112364e+002
2.535510e+002, 7.107566e+002
2.540331e+002, 7.089932e+002
2.545153e+002, 7.059534e+002
2.549974e+002, 7.027822e+002
2.554795e+002, 7.013449e+002
2.559616e+002, 7.027195e+002
2.564437e+002, 7.035683e+002
2.569258e+002, 7.036380e+002
2.574080e+002, 7.034075e+002
2.578901e+002, 7.031047e+002
2.583722e+002, 7.028124e+002
2.588543e+002, 7.025695e+002
2.593364e+002, 7.024454e+002
2.598185e+002, 7.025336e+002
2.603007e+002, 7.024980e+002
2.607828e+002, 7.025674e+002
2.612649e+002, 7.023721e+002
2.617470e+002, 7.013880e+002
2.622291e+002, 6.997298e+002
2.627112e+002, 6.982375e+002
2.631934e+002, 6.980193e+002
2.636755e+002, 6.998265e+002
2.641576e+002, 7.000754e+002
2.646397e+002, 6.981581e+002
2.651218e+002, 6.955308e+002
2.656039e+002, 6.921649e+002
2.660861e+002, 6.885793e+002
2.665682e+002, 6.862393e+002
2.670503e+002, 6.868307e+002
2.675324e+002, 6.910487e+002
2.680145e+002, 6.937410e+002
2.684966e+002, 6.946180e+002
2.689788e+002, 6.945960e+002
2.694609e+002, 6.937549e+002
2.699430e+002, 6.923252e+002
2.704251e+002, 6.907769e+002
2.709072e+002, 6.894388e+002
2.713893e+002, 6.883116e+002
2.718715e+002, 6.877433e+002
2.723536e+002, 6.883802e+002
2.728357e+002, 6.888199e+002
2.733178e+002, 6.883144e+002
2.737999e+002, 6.870915e+002
2.742820e+002, 6.858816e+002
2.747642e+002, 6.852119e+002
2.752463e+002, 6.850043e+002
2.757284e+002, 6.842919e+002
2.762105e+002, 6.824579e+002
2.766926e+002, 6.809011e+002
2.771747e+002, 6.801341e+002
2.776568e+002, 6.799944e+002
2.781389e+002, 6.801257e+002
2.786211e+002, 6.803637e+002
2.791032e+002, 6.806826e+002
2.795853e+002, 6.809760e+002
2.800674e+002, 6.813271e+002
2.805495e+002, 6.815690e+002
2.810316e+002, 6.816993e+002
2.815138e+002, 6.816911e+002
2.819959e+002, 6.814476e+002
2.824780e+002, 6.808982e+002
2.829601e+002, 6.801949e+002
2.834422e+002, 6.798105e+002
2.839243e+002, 6.803461e+002
2.844065e+002, 6.800713e+002
2.848886e+002, 6.775535e+002
2.853707e+002, 6.742938e+002
2.858528e+002, 6.727218e+002
2.863349e+002, 6.737527e+002
2.868170e+002, 6.759401e+002
2.872992e+002, 6.768388e+002
2.877813e+002, 6.761094e+002
2.882634e+002, 6.753915e+002
2.887455e+002, 6.749364e+002
2.892276e+002, 6.746218e+002
2.897097e+002, 6.743351e+002
2.901919e+002, 6.740543e+002
2.906740e+002, 6.737272e+002
2.911561e+002, 6.732573e+002
2.916382e+002, 6.726188e+002
2.921203e+002, 6.720504e+002
2.926024e+002, 6.714115e+002
2.930846e+002, 6.709442e+002
2.935667e+002, 6.710375e+002
2.940488e+002, 6.717260e+002
2.945309e+002, 6.724137e+002
2.950130e+002, 6.725834e+002
2.954951e+002, 6.721942e+002
2.959773e+002, 6.715657e+002
2.964594e+002, 6.700685e+002
2.969415e+002, 6.687934e+002
2.974236e+002, 6.689697e+002
2.979057e+002, 6.704846e+002
2.983878e+002, 6.717324e+002
2.988700e+002, 6.715759e+002
2.993521e+002, 6.701086e+002
2.998342e+002, 6.685939e+002
3.003163e+002, 6.665387e+002
3.007984e+002, 6.648862e+002
3.012805e+002, 6.643124e+002
3.017627e+002, 6.646694e+002
3.022448e+002, 6.653129e+002
3.027269e+002, 6.660748e+002
3.032090e+002, 6.667676e+002
3.036911e+002, 6.668834e+002
3.041732e+002, 6.662324e+002
3.046554e+002, 6.654011e+002
3.051375e+002, 6.645550e+002
3.056196e+002, 6.637252e+002
3.061017e+002, 6.629631e+002
3.065838e+002, 6.622568e+002
3.070659e+002, 6.616983e+002
3.075481e+002, 6.615900e+002
3.080302e+002, 6.621188e+002
3.085123e+002, 6.623219e+002
3.089944e+002, 6.613159e+002
3.094765e+002, 6.598990e+002
3.099586e+002, 6.596699e+002
3.104408e+002, 6.612150e+002
3.109229e+002, 6.632203e+002
3.114050e+002, 6.639615e+002
3.118871e+002, 6.634736e+002
3.123692e+002, 6.625106e+002
3.128513e+002, 6.604482e+002
3.133335e+002, 6.583344e+002
3.138156e+002, 6.576266e+002
3.142977e+002, 6.585766e+002
3.147798e+002, 6.598577e+002
3.152619e+002, 6.603469e+002
3.157440e+002, 6.600461e+002
3.162262e+002, 6.594623e+002
3.167083e+002, 6.584218e+002
3.171904e+002, 6.572589e+002
3.176725e+002, 6.561066e+002
3.181546e+002, 6.550016e+002
3.186367e+002, 6.542571e+002
3.191188e+002, 6.540956e+002
3.196010e+002, 6.545094e+002
3.200831e+002, 6.551868e+002
3.205652e+002, 6.568170e+002
3.210473e+002, 6.580318e+002
3.215294e+002, 6.579401e+002
3.220115e+002, 6.567741e+002
3.224937e+002, 6.552074e+002
3.229758e+002, 6.533140e+002
3.234579e+002, 6.515139e+002
3.239400e+002, 6.510202e+002
3.244221e+002, 6.524824e+002
3.249042e+002, 6.536005e+002
3.253864e+002, 6.533643e+002
3.258685e+002, 6.522653e+002
3.263506e+002, 6.510883e+002
3.268327e+002, 6.499844e+002
3.273148e+002, 6.492269e+002
3.277969e+002, 6.495213e+002
3.282791e+002, 6.511479e+002
3.287612e+002, 6.520540e+002
3.292433e+002, 6.514382e+002
3.297254e+002, 6.501019e+002
3.302075e+002, 6.488104e+002
3.306896e+002, 6.476956e+002
3.311718e+002, 6.469451e+002
3.316539e+002, 6.469175e+002
3.321360e+002, 6.476813e+002
3.326181e+002, 6.478460e+002
3.331002e+002, 6.465894e+002
3.335823e+002, 6.453099e+002
3.340645e+002, 6.452572e+002
3.345466e+002, 6.463167e+002
3.350287e+002, 6.472240e+002
3.355108e+002, 6.469807e+002
3.359929e+002, 6.458210e+002
3.364750e+002, 6.455148e+002
3.369572e+002, 6.469725e+002
3.374393e+002, 6.482179e+002
3.379214e+002, 6.482083e+002
3.384035e+002, 6.473426e+002
3.388856e+002, 6.465965e+002
3.393677e+002, 6.464368e+002
3.398499e+002, 6.466303e+002
3.403320e+002, 6.465239e+002
3.408141e+002, 6.457696e+002
3.412962e+002, 6.453762e+002
3.417783e+002, 6.457582e+002
3.422604e+002, 6.465252e+002
3.427426e+002, 6.474787e+002
3.432247e+002, 6.485641e+002
3.437068e+002, 6.489822e+002
3.441889e+002, 6.473732e+002
3.446710e+002, 6.424347e+002
3.451531e+002, 6.393697e+002
3.456353e+002, 6.394129e+002
3.461174e+002, 6.405284e+002
3.465995e+002, 6.414339e+002
3.470816e+002, 6.419078e+002
3.475637e+002, 6.420682e+002
3.480458e+002, 6.420332e+002
3.485280e+002, 6.418041e+002
3.490101e+002, 6.410520e+002
3.494922e+002, 6.387214e+002
3.499743e+002, 6.370106e+002
3.504564e+002, 6.374600e+002
3.509385e+002, 6.392990e+002
3.514207e+002, 6.407103e+002
3.519028e+002, 6.406234e+002
3.523849e+002, 6.393254e+002
3.528670e+002, 6.380092e+002
3.533491e+002, 6.362170e+002
3.538312e+002, 6.349770e+002
3.543134e+002, 6.344425e+002
3.547955e+002, 6.345159e+002
3.552776e+002, 6.353451e+002
3.557597e+002, 6.369414e+002
3.562418e+002, 6.386270e+002
3.567239e+002, 6.392281e+002
3.572061e+002, 6.380555e+002
3.576882e+002, 6.371281e+002
3.581703e+002, 6.364198e+002
3.586524e+002, 6.359426e+002
3.591345e+002, 6.358981e+002
3.596166e+002, 6.361786e+002
3.600987e+002, 6.362991e+002
3.605808e+002, 6.357253e+002
3.610630e+002, 6.343382e+002
3.615451e+002, 6.333892e+002
3.620272e+002, 6.331146e+002
3.625093e+002, 6.329969e+002
3.629914e+002, 6.329681e+002
3.634735e+002, 6.329626e+002
3.639557e+002, 6.329070e+002
3.644378e+002, 6.327601e+002
3.649199e+002, 6.325226e+002
3.654020e+002, 6.321842e+002
3.658841e+002, 6.315543e+002
3.663662e+002, 6.310993e+002
3.668484e+002, 6.307792e+002
3.673305e+002, 6.306984e+002
3.678126e+002, 6.312572e+002
3.682947e+002, 6.324966e+002
3.687768e+002, 6.335771e+002
3.692589e+002, 6.328943e+002
3.697411e+002, 6.292831e+002
3.702232e+002, 6.271212e+002
3.707053e+002, 6.277755e+002
3.711874e+002, 6.287833e+002
3.716695e+002, 6.288571e+002
3.721516e+002, 6.280082e+002
3.726338e+002, 6.270082e+002
3.731159e+002, 6.265529e+002
3.735980e+002, 6.266205e+002
3.740801e+002, 6.265035e+002
3.745622e+002, 6.261428e+002
3.750443e+002, 6.256409e+002
3.755265e+002, 6.250273e+002
3.760086e+002, 6.243058e+002
3.764907e+002, 6.234246e+002
3.769728e+002, 6.222817e+002
3.774549e+002, 6.211334e+002
3.779370e+002, 6.205684e+002
3.784192e+002, 6.207170e+002
3.789013e+002, 6.210938e+002
3.793834e+002, 6.218815e+002
3.798655e+002, 6.226534e+002
3.803476e+002, 6.231465e+002
3.808297e+002, 6.233041e+002
3.813119e+002, 6.230374e+002
3.817940e+002, 6.218746e+002
3.822761e+002, 6.198497e+002
3.827582e+002, 6.188545e+002
3.832403e+002, 6.197833e+002
3.837224e+002, 6.210654e+002
3.842046e+002, 6.218981e+002
3.846867e+002, 6.222250e+002
3.851688e+002, 6.219063e+002
3.856509e+002, 6.202792e+002
3.861330e+002, 6.180525e+002
3.866151e+002, 6.169193e+002
3.870973e+002, 6.171070e+002
3.875794e+002, 6.175833e+002
3.880615e+002, 6.182526e+002
3.885436e+002, 6.187003e+002
3.890257e+002, 6.181368e+002
3.895078e+002, 6.158873e+002
3.899900e+002, 6.135510e+002
3.904721e+002, 6.126226e+002
3.909542e+002, 6.129492e+002
3.914363e+002, 6.134220e+002
3.919184e+002, 6.138157e+002
3.924005e+002, 6.140275e+002
3.928827e+002, 6.137874e+002
3.933648e+002, 6.130323e+002
3.938469e+002, 6.126310e+002
3.943290e+002, 6.132580e+002
3.948111e+002, 6.143469e+002
3.952932e+002, 6.150492e+002
3.957754e+002, 6.152546e+002
3.962575e+002, 6.150679e+002
3.967396e+002, 6.145491e+002
3.972217e+002, 6.136824e+002
3.977038e+002, 6.125486e+002
3.981859e+002, 6.103408e+002
3.986681e+002, 6.085676e+002
3.991501e+002, 6.088490e+002
3.996323e+002, 6.105604e+002
4.001144e+002, 6.112602e+002
4.005965e+002, 6.094835e+002
4.010786e+002, 6.062989e+002
4.015607e+002, 6.048787e+002
4.020428e+002, 6.058771e+002
4.025250e+002, 6.071480e+002
4.030071e+002, 6.089640e+002
4.034892e+002, 6.105665e+002
4.039713e+002, 6.109097e+002
4.044534e+002, 6.098022e+002
4.049355e+002, 6.080368e+002
4.054177e+002, 6.064027e+002
4.058998e+002, 6.047468e+002
4.063819e+002, 6.042349e+002
4.068640e+002, 6.059745e+002
4.073461e+002, 6.076545e+002
4.078282e+002, 6.080916e+002
4.083104e+002, 6.075211e+002
4.087925e+002, 6.067508e+002
4.092746e+002, 6.062718e+002
4.097567e+002, 6.060064e+002
4.102388e+002, 6.055801e+002
4.107209e+002, 6.047719e+002
4.112031e+002, 6.040891e+002
4.116852e+002, 6.034030e+002
4.121673e+002, 6.029478e+002
4.126494e+002, 6.031629e+002
4.131315e+002, 6.040681e+002
4.136136e+002, 6.049666e+002
4.140958e+002, 6.046760e+002
4.145779e+002, 6.025436e+002
4.150600e+002, 6.018605e+002
4.155421e+002, 6.045045e+002
4.160242e+002, 6.068851e+002
4.165063e+002, 6.073012e+002
4.169885e+002, 6.063048e+002
