##NAMES=Masutomilite
##RRUFFID=R061008
##IDEAL CHEMISTRY=KLiAlMn^2+^(Si_3_Al)O_10_(F,OH)_2_
##LOCALITY=Tanokamiyama, Shiga Prefecture, Japan
##OWNER=RRUFF
##SOURCE=Michael Scott
##DESCRIPTION=Brownish purple mica fragment
##STATUS=The identification of this mineral has been made only by X-ray diffraction.
##URL=rruff.info/R061008
151.8955, 9406.526
152.3776, 9449.057
152.8597, 9480.552
153.3418, 9484.507
153.8239, 9486.566
154.3061, 9503.913
154.7882, 9549.167
155.2703, 9599.677
155.7524, 9653.058
156.2345, 9709.290
156.7166, 9762.839
157.1988, 9808.220
157.6809, 9850.715
158.1630, 9896.403
158.6451, 9948.440
159.1272, 10000.64
159.6093, 10052.90
160.0915, 10107.28
160.5736, 10150.47
161.0557, 10167.33
161.5378, 10169.82
162.0199, 10180.08
162.5020, 10218.83
162.9841, 10259.74
163.4663, 10286.91
163.9484, 10294.53
164.4305, 10293.44
164.9126, 10281.46
165.3947, 10263.27
165.8768, 10254.05
166.3590, 10273.95
166.8411, 10301.52
167.3232, 10317.03
167.8053, 10305.96
168.2874, 10290.41
168.7695, 10279.95
169.2517, 10275.47
169.7338, 10284.42
170.2159, 10333.53
170.6980, 10394.53
171.1801, 10429.71
171.6622, 10390.73
172.1444, 10338.78
172.6265, 10335.17
173.1086, 10383.37
173.5907, 10441.30
174.0728, 10474.95
174.5549, 10492.84
175.0371, 10513.66
175.5192, 10555.48
176.0013, 10601.97
176.4834, 10628.95
176.9655, 10630.96
177.4476, 10626.25
177.9298, 10633.99
178.4119, 10651.72
178.8940, 10668.86
179.3761, 10680.59
179.8582, 10687.47
180.3403, 10690.40
180.8225, 10688.55
181.3046, 10684.46
181.7867, 10676.82
182.2688, 10666.91
182.7509, 10666.61
183.2330, 10693.35
183.7152, 10737.92
184.1973, 10773.91
184.6794, 10796.89
185.1615, 10806.26
185.6436, 10794.63
186.1257, 10761.28
186.6079, 10726.18
187.0900, 10707.44
187.5721, 10703.08
188.0542, 10701.60
188.5363, 10700.32
189.0184, 10699.45
189.5006, 10699.02
189.9827, 10698.86
190.4648, 10700.68
190.9469, 10710.21
191.4290, 10726.73
191.9111, 10735.91
192.3932, 10728.50
192.8754, 10707.45
193.3575, 10693.43
193.8396, 10687.29
194.3217, 10686.19
194.8038, 10684.16
195.2859, 10680.79
195.7681, 10685.94
196.2502, 10710.96
196.7323, 10755.21
197.2144, 10781.54
197.6965, 10783.18
198.1786, 10775.26
198.6608, 10789.38
199.1429, 10829.05
199.6250, 10871.50
200.1071, 10905.73
200.5892, 10931.48
201.0714, 10949.09
201.5535, 10954.10
202.0356, 10953.58
202.5177, 10973.08
202.9998, 11019.57
203.4819, 11059.47
203.9641, 11064.76
204.4462, 11029.72
204.9283, 10996.65
205.4104, 10971.66
205.8925, 10952.49
206.3746, 10928.92
206.8568, 10899.44
207.3389, 10869.11
207.8210, 10845.15
208.3031, 10831.60
208.7852, 10806.34
209.2673, 10758.40
209.7495, 10691.89
210.2316, 10657.56
210.7137, 10669.76
211.1958, 10691.36
211.6779, 10685.57
212.1600, 10648.50
212.6422, 10597.21
213.1243, 10532.46
213.6064, 10454.24
214.0885, 10374.34
214.5706, 10284.93
215.0527, 10202.21
215.5349, 10150.59
216.0170, 10140.79
216.4991, 10134.11
216.9812, 10120.42
217.4633, 10099.44
217.9454, 10070.99
218.4276, 10029.73
218.9097, 9985.257
219.3918, 9953.897
219.8739, 9944.342
220.3560, 9931.241
220.8381, 9905.794
221.3203, 9866.657
221.8024, 9821.014
222.2845, 9763.796
222.7666, 9703.746
223.2487, 9660.138
223.7308, 9640.168
224.2129, 9625.347
224.6951, 9609.569
225.1772, 9595.375
225.6593, 9572.016
226.1414, 9531.309
226.6235, 9483.063
227.1056, 9455.494
227.5878, 9457.324
228.0699, 9465.816
228.5520, 9470.932
229.0341, 9473.111
229.5162, 9469.924
229.9983, 9458.557
230.4805, 9441.768
230.9626, 9429.955
231.4447, 9426.389
231.9268, 9423.646
232.4089, 9417.686
232.8910, 9407.196
233.3732, 9395.558
233.8553, 9378.129
234.3374, 9358.579
234.8195, 9360.741
235.3016, 9401.194
235.7837, 9443.267
236.2659, 9461.790
236.7480, 9442.267
237.2301, 9428.529
237.7122, 9426.340
238.1943, 9434.593
238.6764, 9441.264
239.1586, 9440.386
239.6407, 9444.849
240.1228, 9464.789
240.6049, 9505.791
241.0870, 9552.282
241.5691, 9607.422
242.0513, 9670.170
242.5334, 9713.196
243.0155, 9727.461
243.4976, 9730.796
243.9797, 9736.894
244.4618, 9742.269
244.9440, 9756.480
245.4261, 9785.117
245.9082, 9828.305
246.3903, 9858.179
246.8724, 9868.869
247.3545, 9871.699
247.8367, 9877.619
248.3188, 9889.059
248.8009, 9899.062
249.2830, 9905.827
249.7651, 9909.327
250.2472, 9915.604
250.7294, 9925.290
251.2115, 9938.124
251.6936, 9954.616
252.1757, 9978.769
252.6578, 10000.01
253.1399, 10015.02
253.6220, 10023.04
254.1042, 10037.85
254.5863, 10063.27
255.0684, 10091.74
255.5505, 10113.36
256.0326, 10123.41
256.5147, 10136.36
256.9969, 10160.20
257.4790, 10198.34
257.9611, 10210.86
258.4432, 10185.40
258.9253, 10145.90
259.4074, 10123.93
259.8896, 10124.81
260.3717, 10130.42
260.8538, 10136.89
261.3359, 10144.50
261.8180, 10151.21
262.3001, 10163.06
262.7823, 10167.52
263.2644, 10144.46
263.7465, 10084.65
264.2286, 10020.48
264.7107, 9961.454
265.1928, 9906.758
265.6750, 9859.927
266.1571, 9825.667
266.6392, 9793.741
267.1213, 9745.888
267.6034, 9675.082
268.0855, 9610.145
268.5677, 9560.835
269.0498, 9528.207
269.5319, 9503.082
270.0140, 9489.429
270.4961, 9478.046
270.9782, 9453.810
271.4604, 9413.184
271.9425, 9371.771
272.4246, 9331.930
272.9067, 9292.768
273.3888, 9270.973
273.8709, 9271.380
274.3531, 9281.409
274.8352, 9281.308
275.3173, 9268.342
275.7994, 9257.547
276.2815, 9259.273
276.7636, 9274.080
277.2458, 9264.698
277.7279, 9222.072
278.2100, 9171.469
278.6921, 9153.988
279.1742, 9173.881
279.6563, 9193.872
280.1385, 9197.942
280.6206, 9186.668
281.1027, 9179.765
281.5848, 9178.837
282.0669, 9178.730
282.5490, 9173.668
283.0312, 9163.912
283.5133, 9145.970
283.9954, 9109.440
284.4775, 9057.778
284.9596, 9037.718
285.4417, 9055.979
285.9239, 9084.601
286.4060, 9078.942
286.8881, 9040.107
287.3702, 9012.547
287.8523, 9020.768
288.3344, 9058.394
288.8166, 9089.299
289.2987, 9113.542
289.7808, 9131.310
290.2629, 9143.659
290.7450, 9150.159
291.2271, 9148.204
291.7093, 9124.526
292.1914, 9089.982
292.6735, 9089.522
293.1556, 9127.897
293.6377, 9173.209
294.1198, 9185.896
294.6020, 9171.764
295.0841, 9159.559
295.5662, 9163.197
296.0483, 9177.546
296.5304, 9189.793
297.0125, 9199.756
297.4947, 9211.387
297.9768, 9231.664
298.4589, 9257.535
298.9410, 9279.184
299.4231, 9287.758
299.9052, 9290.441
300.3873, 9299.260
300.8694, 9314.137
301.3516, 9330.705
301.8337, 9348.692
302.3158, 9365.277
302.7979, 9374.257
303.2800, 9368.577
303.7621, 9355.703
304.2443, 9342.985
304.7264, 9330.495
305.2085, 9320.624
305.6906, 9320.715
306.1727, 9324.079
306.6548, 9319.657
307.1370, 9298.310
307.6191, 9270.929
308.1012, 9241.681
308.5833, 9211.999
309.0654, 9196.122
309.5475, 9221.294
310.0297, 9261.151
310.5118, 9283.108
310.9939, 9263.417
311.4760, 9231.764
311.9581, 9200.183
312.4402, 9169.923
312.9224, 9152.623
313.4045, 9172.306
313.8866, 9200.376
314.3687, 9208.496
314.8508, 9170.094
315.3329, 9126.988
315.8151, 9096.103
316.2972, 9076.405
316.7793, 9063.880
317.2614, 9055.247
317.7435, 9053.867
318.2256, 9062.798
318.7078, 9099.906
319.1899, 9128.272
319.6720, 9127.461
320.1541, 9105.204
320.6362, 9094.991
321.1183, 9126.972
321.6005, 9160.636
322.0826, 9171.010
322.5647, 9126.272
323.0468, 9093.237
323.5289, 9085.801
324.0110, 9099.497
324.4932, 9119.242
324.9753, 9156.764
325.4574, 9188.670
325.9395, 9203.592
326.4216, 9186.885
326.9037, 9173.825
327.3859, 9162.783
327.8680, 9156.313
328.3501, 9161.256
328.8322, 9185.124
329.3143, 9213.514
329.7964, 9243.487
330.2786, 9283.723
330.7607, 9307.093
331.2428, 9306.254
331.7249, 9290.792
332.2070, 9277.646
332.6891, 9261.009
333.1713, 9255.256
333.6534, 9266.608
334.1355, 9299.209
334.6176, 9333.853
335.0997, 9375.120
335.5818, 9414.728
336.0640, 9438.586
336.5461, 9437.874
337.0282, 9441.808
337.5103, 9460.702
337.9924, 9495.188
338.4745, 9525.266
338.9567, 9547.979
339.4388, 9570.856
339.9209, 9607.869
340.4030, 9663.272
340.8851, 9706.585
341.3672, 9723.469
341.8494, 9718.959
342.3315, 9729.284
342.8136, 9756.904
343.2957, 9791.540
343.7778, 9823.724
344.2599, 9853.537
344.7421, 9886.296
345.2242, 9921.974
345.7063, 9961.857
346.1884, 10008.50
346.6705, 10061.69
347.1526, 10119.39
347.6348, 10184.32
348.1169, 10252.51
348.5990, 10308.16
349.0811, 10340.28
349.5632, 10365.52
350.0453, 10412.93
350.5275, 10480.19
351.0096, 10549.67
351.4917, 10611.30
351.9738, 10666.74
352.4559, 10719.56
352.9380, 10769.00
353.4202, 10818.06
353.9023, 10872.62
354.3844, 10929.98
354.8665, 10980.62
355.3486, 11015.27
355.8307, 11042.68
356.3129, 11073.68
356.7950, 11111.12
357.2771, 11145.39
357.7592, 11164.63
358.2413, 11176.14
358.7234, 11193.57
359.2056, 11221.62
359.6877, 11258.38
360.1698, 11305.21
360.6519, 11363.72
361.1340, 11420.50
361.6161, 11483.47
362.0982, 11537.40
362.5804, 11563.87
363.0625, 11532.55
363.5446, 11495.49
364.0267, 11471.39
364.5088, 11461.41
364.9909, 11451.41
365.4731, 11447.60
365.9552, 11437.93
366.4373, 11412.65
366.9194, 11351.38
367.4015, 11295.64
367.8836, 11252.70
368.3658, 11221.83
368.8479, 11192.31
369.3300, 11171.06
369.8121, 11145.67
370.2942, 11109.33
370.7763, 11053.88
371.2585, 10999.30
371.7406, 10943.19
372.2227, 10888.42
372.7048, 10843.00
373.1869, 10807.86
373.6690, 10780.60
374.1512, 10761.44
374.6333, 10753.88
375.1154, 10742.13
375.5975, 10725.17
376.0796, 10704.79
376.5617, 10684.14
377.0439, 10663.21
377.5260, 10643.02
378.0081, 10624.24
378.4902, 10606.91
378.9723, 10591.71
379.4544, 10579.13
379.9366, 10568.04
380.4187, 10560.13
380.9008, 10555.21
381.3829, 10540.16
381.8650, 10501.71
382.3471, 10452.90
382.8293, 10434.36
383.3114, 10446.55
383.7935, 10471.66
384.2756, 10504.29
384.7577, 10538.17
385.2398, 10553.14
385.7220, 10536.96
386.2041, 10508.45
386.6862, 10491.74
387.1683, 10484.94
387.6504, 10479.80
388.1325, 10470.38
388.6147, 10459.30
389.0968, 10452.81
389.5789, 10457.16
390.0610, 10452.80
390.5431, 10418.19
391.0252, 10363.92
391.5074, 10313.71
391.9895, 10273.86
392.4716, 10245.04
392.9537, 10232.98
393.4358, 10242.50
393.9179, 10244.08
394.4001, 10224.00
394.8822, 10190.28
395.3643, 10152.96
395.8464, 10100.71
396.3285, 10058.25
396.8106, 10034.27
397.2928, 10028.95
397.7749, 10032.60
398.2570, 10057.43
398.7391, 10082.67
399.2212, 10093.05
399.7033, 10073.75
400.1855, 10057.45
400.6676, 10043.10
401.1497, 10032.82
401.6318, 10037.86
402.1139, 10069.56
402.5960, 10102.27
403.0782, 10121.50
403.5603, 10118.68
404.0424, 10128.21
404.5245, 10158.77
405.0066, 10195.82
405.4887, 10204.33
405.9709, 10172.86
406.4530, 10156.43
406.9351, 10185.15
407.4172, 10257.73
407.8993, 10307.83
408.3814, 10331.24
408.8636, 10345.80
409.3457, 10372.90
409.8278, 10411.62
410.3099, 10450.16
410.7920, 10484.37
411.2741, 10515.95
411.7563, 10546.50
412.2384, 10576.35
412.7205, 10610.35
413.2026, 10655.89
413.6847, 10708.75
414.1668, 10759.09
414.6490, 10804.14
415.1311, 10847.89
415.6132, 10892.95
416.0953, 10940.44
416.5774, 10992.21
417.0595, 11062.89
417.5417, 11131.07
418.0238, 11173.38
418.5059, 11179.41
418.9880, 11193.66
419.4701, 11253.13
419.9522, 11332.24
420.4344, 11393.89
420.9165, 11401.72
421.3986, 11412.80
421.8807, 11454.19
422.3628, 11527.98
422.8449, 11593.00
423.3270, 11632.60
423.8091, 11665.08
424.2913, 11704.49
424.7734, 11751.93
425.2555, 11805.83
425.7376, 11870.88
426.2197, 11942.92
426.7018, 12005.01
427.1840, 12054.36
427.6661, 12097.80
428.1482, 12136.14
428.6303, 12164.16
429.1124, 12205.32
429.5945, 12265.76
430.0767, 12332.50
430.5588, 12384.44
431.0409, 12418.88
431.5230, 12450.03
432.0051, 12480.94
432.4872, 12512.45
432.9694, 12552.77
433.4515, 12604.83
433.9336, 12652.19
434.4157, 12672.25
434.8978, 12671.10
435.3799, 12680.99
435.8621, 12712.64
436.3442, 12755.23
436.8263, 12788.18
437.3084, 12814.20
437.7905, 12848.30
438.2726, 12903.87
438.7548, 12971.76
439.2369, 13040.65
439.7190, 13109.24
440.2011, 13177.05
440.6832, 13232.04
441.1653, 13286.71
441.6475, 13362.14
442.1296, 13473.42
442.6117, 13602.38
443.0938, 13749.07
443.5759, 13913.32
444.0580, 14061.64
444.5402, 14167.23
445.0223, 14258.38
445.5044, 14356.01
445.9865, 14455.19
446.4686, 14571.56
446.9507, 14706.92
447.4329, 14861.19
447.9150, 15031.50
448.3971, 15242.35
448.8792, 15442.63
449.3613, 15612.97
449.8434, 15741.84
450.3256, 15877.55
450.8077, 16015.70
451.2898, 16162.89
451.7719, 16338.15
452.2540, 16554.80
452.7361, 16737.40
453.2183, 16856.60
453.7004, 16923.89
454.1825, 17006.84
454.6646, 17104.46
455.1467, 17219.90
455.6288, 17366.60
456.1110, 17536.89
456.5931, 17686.13
457.0752, 17797.16
457.5573, 17899.19
458.0394, 18028.76
458.5215, 18183.56
459.0037, 18348.65
459.4858, 18524.43
459.9679, 18703.26
460.4500, 18872.21
460.9321, 19033.01
461.4142, 19182.12
461.8964, 19342.65
462.3785, 19483.93
462.8606, 19568.42
463.3427, 19578.32
463.8248, 19534.82
464.3069, 19451.02
464.7891, 19323.12
465.2712, 19133.93
465.7533, 18845.12
466.2354, 18518.59
466.7175, 18185.64
467.1996, 17835.06
467.6818, 17504.23
468.1639, 17187.43
468.6460, 16891.24
469.1281, 16616.90
469.6102, 16354.55
470.0923, 16132.49
470.5745, 15964.32
471.0566, 15849.95
471.5387, 15729.74
472.0208, 15599.69
472.5029, 15472.52
472.9850, 15362.34
473.4672, 15270.08
473.9493, 15163.38
474.4314, 15031.95
474.9135, 14893.78
475.3956, 14788.79
475.8777, 14713.64
476.3599, 14636.96
476.8420, 14531.90
477.3241, 14416.56
477.8062, 14330.25
478.2883, 14277.27
478.7704, 14229.12
479.2526, 14167.46
479.7347, 14093.13
480.2168, 14008.18
480.6989, 13904.18
481.1810, 13797.33
481.6631, 13693.07
482.1453, 13592.26
482.6274, 13499.29
483.1095, 13426.72
483.5916, 13354.36
484.0737, 13270.33
484.5558, 13165.36
485.0379, 13065.67
485.5201, 12975.66
486.0022, 12893.52
486.4843, 12817.93
486.9664, 12764.42
487.4485, 12695.99
487.9306, 12595.33
488.4128, 12467.94
488.8949, 12375.68
489.3770, 12328.47
489.8591, 12295.54
490.3412, 12258.45
490.8233, 12216.88
491.3055, 12174.47
491.7876, 12130.88
492.2697, 12088.38
492.7518, 12048.09
493.2339, 12010.59
493.7160, 11980.78
494.1982, 11968.74
494.6803, 11963.41
495.1624, 11937.47
495.6445, 11891.02
496.1266, 11848.89
496.6087, 11828.90
497.0909, 11824.89
497.5730, 11830.06
498.0551, 11849.70
498.5372, 11865.30
499.0193, 11864.11
499.5014, 11850.22
499.9836, 11832.45
500.4657, 11796.22
500.9478, 11772.61
501.4299, 11783.86
501.9120, 11838.60
502.3941, 11872.25
502.8763, 11864.04
503.3584, 11837.62
503.8405, 11810.35
504.3226, 11774.43
504.8047, 11751.21
505.2868, 11751.13
505.7690, 11762.23
506.2511, 11745.82
506.7332, 11690.68
507.2153, 11640.65
507.6974, 11616.96
508.1795, 11618.94
508.6617, 11622.72
509.1438, 11630.06
509.6259, 11631.93
510.1080, 11614.87
510.5901, 11582.92
511.0722, 11554.05
511.5544, 11534.97
512.0365, 11518.70
512.5186, 11491.67
513.0007, 11457.86
513.4828, 11433.60
513.9650, 11436.58
514.4471, 11448.11
514.9292, 11451.65
515.4113, 11444.76
515.8934, 11434.58
516.3755, 11425.94
516.8576, 11414.84
517.3397, 11397.12
517.8218, 11356.13
518.3040, 11325.90
518.7861, 11323.28
519.2682, 11339.71
519.7503, 11335.83
520.2324, 11291.99
520.7145, 11251.65
521.1967, 11234.39
521.6788, 11246.51
522.1609, 11246.59
522.6430, 11231.56
523.1251, 11209.90
523.6072, 11189.03
524.0894, 11168.75
524.5715, 11156.04
525.0536, 11155.06
525.5357, 11159.54
526.0178, 11154.59
526.4999, 11140.98
526.9821, 11128.09
527.4642, 11123.67
527.9463, 11122.81
528.4284, 11117.58
528.9105, 11107.17
529.3926, 11095.45
529.8748, 11082.70
530.3569, 11071.30
530.8390, 11064.51
531.3211, 11065.64
531.8032, 11069.22
532.2853, 11074.85
532.7675, 11081.84
533.2496, 11087.51
533.7317, 11092.44
534.2138, 11095.39
534.6959, 11097.65
535.1780, 11101.78
535.6602, 11094.31
536.1423, 11074.79
536.6244, 11044.37
537.1065, 10997.33
537.5886, 10922.91
538.0707, 10879.30
538.5529, 10885.75
539.0350, 10916.44
539.5171, 10900.99
539.9992, 10838.64
540.4813, 10783.31
540.9634, 10771.51
541.4456, 10786.31
541.9277, 10785.24
542.4098, 10767.43
542.8919, 10740.87
543.3740, 10705.29
543.8561, 10667.72
544.3383, 10638.02
544.8204, 10618.01
545.3025, 10607.73
545.7846, 10618.29
546.2667, 10638.39
546.7488, 10644.47
547.2310, 10616.92
547.7131, 10585.84
548.1952, 10560.67
548.6773, 10542.44
549.1594, 10527.65
549.6415, 10518.16
550.1237, 10510.22
550.6058, 10501.13
551.0879, 10489.62
551.5700, 10481.05
552.0521, 10476.41
552.5342, 10473.88
553.0164, 10471.21
553.4985, 10468.55
553.9806, 10462.30
554.4627, 10446.99
554.9448, 10428.85
555.4269, 10431.45
555.9091, 10453.26
556.3912, 10467.94
556.8733, 10438.92
557.3554, 10396.84
557.8375, 10389.83
558.3196, 10432.16
558.8018, 10478.39
559.2839, 10499.91
559.7660, 10506.84
560.2481, 10513.22
560.7302, 10534.63
561.2123, 10544.18
561.6945, 10520.44
562.1766, 10471.55
562.6587, 10449.28
563.1408, 10478.83
563.6229, 10510.99
564.1050, 10524.51
564.5872, 10512.05
565.0693, 10521.54
565.5514, 10564.46
566.0335, 10609.34
566.5156, 10615.94
566.9977, 10583.15
567.4799, 10562.15
567.9620, 10564.12
568.4441, 10580.12
568.9262, 10594.70
569.4083, 10608.84
569.8904, 10626.86
570.3726, 10663.48
570.8547, 10698.55
571.3368, 10700.58
571.8189, 10670.42
572.3010, 10649.39
572.7831, 10668.83
573.2653, 10704.50
573.7474, 10735.31
574.2295, 10752.63
574.7116, 10774.05
575.1937, 10807.75
575.6758, 10847.36
576.1580, 10882.30
576.6401, 10915.66
577.1222, 10940.44
577.6043, 10953.90
578.0864, 10957.47
578.5685, 10960.16
579.0507, 10962.42
579.5328, 10962.59
580.0149, 10953.73
580.4970, 10938.07
580.9791, 10950.42
581.4612, 10996.79
581.9434, 11040.70
582.4255, 11026.80
582.9076, 10978.56
583.3897, 10954.01
583.8718, 10980.23
584.3539, 11018.95
584.8361, 11036.46
585.3182, 11040.60
585.8003, 11052.21
586.2824, 11097.28
586.7645, 11136.81
587.2466, 11145.89
587.7288, 11120.93
588.2109, 11109.98
588.6930, 11139.53
589.1751, 11168.59
589.6572, 11172.14
590.1393, 11131.53
590.6215, 11111.25
591.1036, 11117.90
591.5857, 11138.07
592.0678, 11149.56
592.5499, 11151.38
593.0320, 11163.26
593.5142, 11193.78
593.9963, 11235.54
594.4784, 11271.85
594.9605, 11303.68
595.4426, 11335.41
595.9247, 11361.65
596.4069, 11393.86
596.8890, 11451.14
597.3711, 11537.12
597.8532, 11618.10
598.3353, 11686.60
598.8174, 11737.45
599.2996, 11764.46
599.7817, 11732.30
600.2638, 11723.70
600.7459, 11762.23
601.2280, 11829.34
601.7101, 11892.63
602.1923, 11950.70
602.6744, 12007.05
603.1565, 12060.49
603.6386, 12112.49
604.1207, 12174.24
604.6028, 12249.70
605.0850, 12312.43
605.5671, 12336.55
606.0492, 12332.03
606.5313, 12344.51
607.0134, 12379.54
607.4955, 12397.95
607.9777, 12342.52
608.4598, 12251.68
608.9419, 12186.63
609.4240, 12181.28
609.9061, 12178.77
610.3882, 12150.67
610.8704, 12103.04
611.3525, 12048.82
611.8346, 11986.87
612.3167, 11922.93
612.7988, 11852.75
613.2809, 11777.08
613.7631, 11726.05
614.2452, 11711.10
614.7273, 11701.45
615.2094, 11681.43
615.6915, 11650.75
616.1736, 11615.35
616.6558, 11575.62
617.1379, 11530.49
617.6200, 11466.78
618.1021, 11393.97
618.5842, 11352.43
619.0663, 11362.06
619.5485, 11384.50
620.0306, 11380.46
620.5127, 11356.93
620.9948, 11331.11
621.4769, 11315.14
621.9590, 11295.10
622.4412, 11260.70
622.9233, 11212.87
623.4054, 11169.33
623.8875, 11139.06
624.3696, 11108.88
624.8517, 11070.82
625.3339, 11019.90
625.8160, 10982.22
626.2981, 10957.54
626.7802, 10946.70
627.2623, 10962.26
627.7444, 11005.43
628.2266, 11011.12
628.7087, 10959.76
629.1908, 10886.24
629.6729, 10844.77
630.1550, 10828.84
630.6371, 10816.82
631.1193, 10796.00
631.6014, 10777.19
632.0835, 10776.22
632.5656, 10788.56
633.0477, 10789.76
633.5298, 10754.87
634.0120, 10717.67
634.4941, 10698.16
634.9762, 10703.19
635.4583, 10702.84
635.9404, 10689.92
636.4225, 10676.82
636.9047, 10675.26
637.3868, 10691.18
637.8689, 10692.47
638.3510, 10672.06
638.8331, 10644.37
639.3152, 10636.50
639.7973, 10645.67
640.2794, 10645.74
640.7615, 10623.03
641.2437, 10592.32
641.7258, 10574.72
642.2079, 10567.36
642.6900, 10558.36
643.1721, 10533.59
643.6542, 10511.42
644.1364, 10509.87
644.6185, 10531.12
645.1006, 10537.63
645.5827, 10505.00
646.0648, 10466.13
646.5469, 10438.70
647.0291, 10417.58
647.5112, 10422.83
647.9933, 10467.60
648.4754, 10519.83
648.9575, 10533.00
649.4396, 10505.78
649.9218, 10492.64
650.4039, 10510.42
