##NAMES=Masutomilite
##RRUFFID=R061008
##IDEAL CHEMISTRY=KLiAlMn^2+^(Si_3_Al)O_10_(F,OH)_2_
##LOCALITY=Tanokamiyama, Shiga Prefecture, Japan
##OWNER=RRUFF
##SOURCE=Michael Scott
##DESCRIPTION=Brownish purple mica fragment
##STATUS=The identification of this mineral has been made only by X-ray diffraction.
##URL=rruff.info/R061008
187.5780, 4832.947
188.0601, 4831.433
188.5422, 4831.809
189.0244, 4831.705
189.5065, 4829.823
189.9886, 4826.543
190.4707, 4822.840
190.9528, 4815.375
191.4349, 4811.483
191.9170, 4820.099
192.3992, 4839.747
192.8813, 4855.135
193.3634, 4854.899
193.8455, 4847.468
194.3276, 4852.547
194.8097, 4881.466
195.2919, 4907.177
195.7740, 4903.387
196.2561, 4873.946
196.7382, 4854.439
197.2203, 4866.651
197.7024, 4894.787
198.1846, 4906.388
198.6667, 4892.807
199.1488, 4878.177
199.6309, 4883.953
200.1130, 4906.688
200.5951, 4918.290
201.0773, 4899.937
201.5594, 4870.383
202.0415, 4862.662
202.5236, 4884.637
203.0057, 4908.279
203.4878, 4912.197
203.9700, 4900.041
204.4521, 4894.887
204.9342, 4909.959
205.4163, 4930.474
205.8984, 4933.534
206.3805, 4915.139
206.8627, 4894.603
207.3448, 4883.142
207.8269, 4879.260
208.3090, 4876.080
208.7911, 4870.635
209.2732, 4866.441
209.7554, 4870.248
210.2375, 4884.098
210.7196, 4891.879
211.2017, 4878.154
211.6838, 4850.015
212.1659, 4832.242
212.6480, 4833.262
213.1302, 4843.524
213.6123, 4851.955
214.0944, 4858.629
214.5765, 4864.835
215.0586, 4874.089
215.5407, 4883.499
216.0229, 4882.771
216.5050, 4864.293
216.9871, 4846.576
217.4692, 4854.686
217.9513, 4886.243
218.4334, 4912.241
218.9156, 4919.696
219.3977, 4913.950
219.8798, 4903.825
220.3619, 4888.418
220.8440, 4874.864
221.3261, 4870.274
221.8083, 4873.395
222.2904, 4881.726
222.7725, 4900.104
223.2546, 4921.490
223.7367, 4933.837
224.2188, 4934.782
224.7010, 4932.108
225.1831, 4933.170
225.6652, 4936.557
226.1473, 4936.365
226.6294, 4926.874
227.1115, 4915.105
227.5937, 4910.371
228.0758, 4913.664
228.5579, 4918.548
229.0400, 4919.553
229.5221, 4918.139
230.0042, 4919.797
230.4864, 4930.306
230.9685, 4940.887
231.4506, 4940.637
231.9327, 4929.651
232.4148, 4921.764
232.8969, 4927.023
233.3791, 4942.545
233.8612, 4956.040
234.3433, 4969.084
234.8254, 4978.198
235.3075, 4979.097
235.7896, 4972.771
236.2717, 4965.354
236.7539, 4957.143
237.2360, 4951.998
237.7181, 4959.620
238.2002, 4992.562
238.6823, 5020.622
239.1644, 5023.069
239.6466, 5006.724
240.1287, 4993.711
240.6108, 4993.462
241.0929, 5001.838
241.5750, 5010.236
242.0571, 5022.063
242.5393, 5027.369
243.0214, 5012.607
243.5035, 4989.654
243.9856, 4986.304
244.4677, 5015.814
244.9498, 5056.534
245.4320, 5066.563
245.9141, 5038.002
246.3962, 5013.592
246.8783, 4999.576
247.3604, 4995.720
247.8425, 5007.184
248.3247, 5036.445
248.8068, 5065.158
249.2889, 5066.789
249.7710, 5032.455
250.2531, 5006.924
250.7352, 4995.624
251.2174, 4992.909
251.6995, 4994.636
252.1816, 4999.912
252.6637, 5008.454
253.1458, 5020.828
253.6279, 5038.205
254.1101, 5050.732
254.5922, 5058.097
255.0743, 5061.110
255.5564, 5056.842
256.0385, 5047.343
256.5206, 5041.664
257.0027, 5048.716
257.4849, 5068.464
257.9670, 5073.179
258.4491, 5050.399
258.9312, 5028.516
259.4133, 5017.101
259.8954, 5015.374
260.3776, 5020.979
260.8597, 5033.482
261.3418, 5050.870
261.8239, 5061.778
262.3060, 5068.338
262.7881, 5066.253
263.2703, 5044.115
263.7524, 5015.743
264.2345, 5002.036
264.7166, 5012.607
265.1987, 5036.355
265.6808, 5045.060
266.1630, 5015.718
266.6451, 5002.060
267.1272, 5021.063
267.6093, 5047.343
268.0914, 5056.354
268.5735, 5041.812
269.0557, 5016.828
269.5378, 5001.813
270.0199, 5004.696
270.5020, 4999.825
270.9841, 4973.269
271.4662, 4951.203
271.9484, 4954.996
272.4305, 4982.774
272.9126, 5012.648
273.3947, 5019.850
273.8768, 4999.165
274.3589, 4991.190
274.8411, 5013.375
275.3232, 5032.213
275.8053, 5031.240
276.2874, 5016.581
276.7695, 5005.753
277.2516, 5013.133
277.7338, 5035.841
278.2159, 5047.389
278.6980, 5035.451
279.1801, 5028.391
279.6622, 5043.064
280.1443, 5065.142
280.6265, 5071.821
281.1086, 5048.597
281.5907, 5011.253
282.0728, 4999.358
282.5549, 5024.160
283.0370, 5046.508
283.5192, 5053.119
284.0013, 5053.684
284.4834, 5057.324
284.9655, 5066.917
285.4476, 5076.099
285.9297, 5076.410
286.4119, 5067.055
286.8940, 5057.018
287.3761, 5045.604
287.8582, 5036.499
288.3403, 5034.140
288.8224, 5038.581
289.3046, 5041.822
289.7867, 5035.684
290.2688, 5022.606
290.7509, 5015.749
291.2330, 5020.597
291.7151, 5025.611
292.1972, 5018.491
292.6794, 5002.536
293.1615, 4991.712
293.6436, 4994.206
294.1257, 5004.344
294.6078, 5014.303
295.0899, 5024.274
295.5721, 5030.231
296.0542, 5026.328
296.5363, 5015.960
297.0184, 5009.427
297.5005, 5007.181
297.9826, 5009.703
298.4648, 5020.945
298.9469, 5039.049
299.4290, 5052.177
299.9111, 5052.637
300.3932, 5045.504
300.8753, 5045.081
301.3575, 5053.874
301.8396, 5063.918
302.3217, 5075.271
302.8038, 5085.436
303.2859, 5087.983
303.7680, 5079.948
304.2502, 5069.286
304.7323, 5069.468
305.2144, 5086.072
305.6965, 5098.786
306.1786, 5106.261
306.6607, 5109.428
307.1429, 5107.504
307.6250, 5101.094
308.1071, 5094.226
308.5892, 5091.252
309.0713, 5093.130
309.5534, 5091.616
310.0356, 5086.389
310.5177, 5078.813
310.9998, 5066.746
311.4819, 5052.708
311.9640, 5042.217
312.4461, 5038.996
312.9283, 5041.937
313.4104, 5044.118
313.8925, 5048.053
314.3746, 5047.995
314.8567, 5036.635
315.3388, 5023.774
315.8210, 5021.624
316.3031, 5034.659
316.7852, 5055.105
317.2673, 5070.525
317.7494, 5083.648
318.2315, 5084.300
318.7137, 5060.738
319.1958, 5033.634
319.6779, 5013.118
320.1600, 5001.175
320.6421, 4996.699
321.1242, 5001.289
321.6064, 5014.970
322.0885, 5024.408
322.5706, 5022.637
323.0527, 5025.262
323.5348, 5044.949
324.0169, 5074.437
324.4991, 5097.077
324.9812, 5103.324
325.4633, 5098.086
325.9454, 5088.267
326.4275, 5070.871
326.9096, 5061.462
327.3918, 5076.966
327.8739, 5101.373
328.3560, 5113.419
328.8381, 5105.753
329.3202, 5094.401
329.8023, 5091.416
330.2845, 5095.898
330.7666, 5103.917
331.2487, 5117.012
331.7308, 5129.308
332.2129, 5131.470
332.6950, 5122.980
333.1772, 5114.087
333.6593, 5112.644
334.1414, 5110.602
334.6235, 5091.194
335.1056, 5051.858
335.5877, 5018.935
336.0698, 5019.361
336.5519, 5055.992
337.0341, 5079.672
337.5162, 5077.752
337.9983, 5075.124
338.4804, 5090.516
338.9625, 5116.886
339.4446, 5131.956
339.9268, 5121.581
340.4089, 5093.708
340.8910, 5079.702
341.3731, 5097.501
341.8552, 5107.520
342.3373, 5096.028
342.8195, 5080.510
343.3016, 5083.398
343.7837, 5109.188
344.2658, 5138.772
344.7479, 5141.759
345.2300, 5102.867
345.7122, 5084.429
346.1943, 5100.391
346.6764, 5123.127
347.1585, 5145.053
347.6406, 5163.125
348.1227, 5173.304
348.6049, 5169.925
349.0870, 5156.365
349.5691, 5152.121
350.0512, 5159.199
350.5333, 5172.902
351.0154, 5198.212
351.4976, 5225.877
351.9797, 5244.223
352.4618, 5248.207
352.9439, 5245.728
353.4260, 5246.294
353.9081, 5249.997
354.3903, 5252.344
354.8724, 5251.468
355.3545, 5249.416
355.8366, 5247.416
356.3187, 5245.404
356.8008, 5246.709
357.2830, 5259.059
357.7651, 5274.215
358.2472, 5276.616
358.7293, 5263.739
359.2114, 5243.200
359.6935, 5216.065
360.1757, 5184.633
360.6578, 5168.306
361.1399, 5185.125
361.6220, 5201.165
362.1041, 5191.395
362.5862, 5164.273
363.0684, 5144.144
363.5505, 5143.080
364.0326, 5155.428
364.5147, 5166.715
364.9968, 5180.081
365.4789, 5187.654
365.9611, 5188.759
366.4432, 5183.956
366.9253, 5169.083
367.4074, 5145.863
367.8895, 5126.067
368.3716, 5123.324
368.8538, 5139.951
369.3359, 5157.180
369.8180, 5178.418
370.3001, 5196.678
370.7822, 5211.684
371.2643, 5221.759
371.7465, 5223.489
372.2286, 5213.782
372.7107, 5197.590
373.1928, 5186.468
373.6749, 5180.128
374.1570, 5179.673
374.6392, 5195.108
375.1213, 5210.536
375.6034, 5211.015
376.0855, 5194.225
376.5676, 5177.220
377.0497, 5176.598
377.5319, 5188.372
378.0140, 5193.962
378.4961, 5189.927
378.9782, 5182.109
379.4603, 5172.174
379.9424, 5161.739
380.4246, 5157.010
380.9066, 5165.215
381.3888, 5175.374
381.8709, 5179.743
382.3530, 5177.998
382.8351, 5168.411
383.3172, 5148.305
383.7993, 5121.933
384.2815, 5101.447
384.7636, 5088.994
385.2457, 5077.487
385.7278, 5059.005
386.2099, 5044.352
386.6920, 5050.170
387.1742, 5077.477
387.6563, 5107.031
388.1384, 5117.145
388.6205, 5104.421
389.1026, 5096.900
389.5847, 5098.515
390.0669, 5100.796
390.5490, 5099.351
391.0311, 5096.829
391.5132, 5099.375
391.9953, 5110.983
392.4774, 5125.533
392.9596, 5126.735
393.4417, 5107.294
393.9238, 5094.862
394.4059, 5099.431
394.8880, 5109.425
395.3701, 5118.294
395.8523, 5125.151
396.3344, 5131.396
396.8165, 5138.548
397.2986, 5145.986
397.7807, 5151.005
398.2628, 5152.708
398.7450, 5154.206
399.2271, 5162.468
399.7092, 5171.795
400.1913, 5167.161
400.6734, 5127.621
401.1555, 5094.062
401.6377, 5104.971
402.1198, 5146.188
402.6019, 5174.445
403.0840, 5172.919
403.5661, 5154.029
404.0482, 5137.744
404.5304, 5124.496
405.0125, 5113.038
405.4946, 5101.466
405.9767, 5093.245
406.4588, 5093.434
406.9409, 5100.372
407.4231, 5106.974
407.9052, 5108.113
408.3873, 5104.052
408.8694, 5096.533
409.3515, 5076.034
409.8336, 5064.953
410.3158, 5068.537
410.7979, 5081.922
411.2800, 5103.944
411.7621, 5133.495
412.2442, 5159.855
412.7263, 5168.271
413.2085, 5157.718
413.6906, 5148.043
414.1727, 5137.423
414.6548, 5132.574
415.1369, 5138.882
415.6190, 5153.606
416.1012, 5169.064
416.5833, 5183.191
417.0654, 5195.819
417.5475, 5208.112
418.0296, 5219.759
418.5117, 5224.342
418.9939, 5216.360
419.4760, 5202.760
419.9581, 5199.067
420.4402, 5209.659
420.9223, 5214.852
421.4044, 5201.942
421.8866, 5185.999
422.3687, 5185.921
422.8508, 5202.144
423.3329, 5218.609
423.8150, 5220.719
424.2971, 5208.909
424.7793, 5202.549
425.2614, 5205.798
425.7435, 5209.671
426.2256, 5210.705
426.7077, 5212.128
427.1898, 5219.955
427.6719, 5235.819
428.1541, 5251.789
428.6362, 5255.907
429.1183, 5246.585
429.6004, 5235.753
430.0825, 5217.820
430.5646, 5205.859
431.0468, 5212.451
431.5289, 5230.815
432.0110, 5241.330
432.4931, 5229.424
432.9752, 5209.879
433.4573, 5203.935
433.9395, 5211.318
434.4216, 5219.322
434.9037, 5221.779
435.3858, 5223.415
435.8679, 5234.371
436.3500, 5257.982
436.8322, 5276.312
437.3143, 5281.710
437.7964, 5281.540
438.2785, 5283.709
438.7606, 5288.673
439.2427, 5291.428
439.7249, 5286.990
440.2070, 5276.582
440.6891, 5274.733
441.1712, 5292.145
441.6533, 5305.503
442.1354, 5305.330
442.6176, 5302.558
443.0997, 5310.031
443.5818, 5330.632
444.0639, 5355.250
444.5460, 5374.009
445.0281, 5386.795
445.5103, 5394.878
445.9924, 5396.673
446.4745, 5395.635
446.9566, 5387.897
447.4387, 5379.533
447.9208, 5384.767
448.4030, 5418.624
448.8851, 5452.182
449.3672, 5450.051
449.8493, 5418.405
450.3314, 5391.343
450.8135, 5378.388
451.2957, 5376.457
451.7778, 5385.231
452.2599, 5407.854
452.7420, 5420.043
453.2241, 5412.547
453.7062, 5399.647
454.1884, 5389.490
454.6705, 5382.586
455.1526, 5377.216
455.6347, 5372.256
456.1168, 5368.497
456.5989, 5369.291
457.0811, 5382.932
457.5632, 5386.137
458.0453, 5368.124
458.5274, 5347.389
459.0095, 5335.226
459.4916, 5332.924
459.9738, 5337.140
460.4559, 5348.228
460.9380, 5363.532
461.4201, 5373.179
461.9022, 5376.840
462.3843, 5375.898
462.8665, 5366.405
463.3486, 5354.757
463.8307, 5351.096
464.3128, 5358.829
464.7949, 5365.716
465.2770, 5365.347
465.7592, 5360.264
466.2413, 5352.512
466.7234, 5342.700
467.2055, 5337.143
467.6876, 5342.653
468.1697, 5358.996
468.6519, 5368.483
469.1340, 5373.530
469.6161, 5369.925
470.0982, 5347.086
470.5803, 5319.131
471.0624, 5304.723
471.5445, 5308.533
472.0266, 5317.519
472.5088, 5313.558
472.9909, 5294.449
473.4730, 5283.315
473.9551, 5283.719
474.4372, 5287.706
474.9193, 5298.399
475.4015, 5308.431
475.8836, 5301.612
476.3657, 5262.990
476.8478, 5226.679
477.3299, 5237.293
477.8120, 5281.525
478.2942, 5299.502
478.7763, 5272.236
479.2584, 5228.452
479.7405, 5198.234
480.2226, 5183.039
480.7047, 5172.688
481.1869, 5169.973
481.6690, 5169.269
482.1511, 5168.948
482.6332, 5168.321
483.1153, 5165.414
483.5974, 5159.332
484.0796, 5153.710
484.5617, 5157.354
485.0438, 5177.421
485.5259, 5185.369
486.0080, 5159.919
486.4901, 5140.653
486.9723, 5149.930
487.4544, 5179.390
487.9365, 5207.713
488.4186, 5228.510
488.9007, 5237.376
489.3828, 5219.870
489.8650, 5177.705
490.3471, 5149.261
490.8292, 5150.131
491.3113, 5163.201
491.7934, 5165.508
492.2755, 5156.666
492.7577, 5149.828
493.2398, 5152.534
493.7219, 5153.100
494.2040, 5137.901
494.6861, 5113.107
495.1682, 5097.366
495.6504, 5100.488
496.1325, 5115.081
496.6146, 5123.487
497.0967, 5120.086
497.5788, 5122.873
498.0609, 5146.115
498.5431, 5163.128
499.0252, 5155.684
499.5073, 5129.109
499.9894, 5100.742
500.4715, 5075.847
500.9536, 5059.721
501.4358, 5068.614
501.9179, 5103.252
502.4000, 5123.802
502.8821, 5110.865
503.3642, 5086.827
503.8463, 5085.119
504.3285, 5107.238
504.8106, 5118.844
505.2927, 5102.398
505.7748, 5082.125
506.2569, 5078.677
506.7390, 5087.956
507.2212, 5093.946
507.7033, 5088.191
508.1854, 5076.121
508.6675, 5070.207
509.1496, 5072.538
509.6317, 5076.652
510.1139, 5087.064
510.5960, 5094.811
511.0781, 5092.593
511.5602, 5083.537
512.0423, 5076.966
512.5244, 5078.257
513.0065, 5083.975
513.4886, 5089.305
513.9708, 5094.248
514.4529, 5099.145
514.9350, 5105.516
515.4171, 5109.595
515.8992, 5104.953
516.3813, 5091.375
516.8635, 5078.978
517.3456, 5064.950
517.8277, 5056.216
518.3098, 5061.742
518.7919, 5075.874
519.2740, 5084.728
519.7562, 5081.938
520.2383, 5073.762
520.7204, 5073.285
521.2025, 5086.294
521.6846, 5089.184
522.1667, 5068.307
522.6489, 5049.556
523.1310, 5045.584
523.6131, 5051.544
524.0952, 5056.695
524.5773, 5057.628
525.0594, 5054.122
525.5416, 5039.917
526.0237, 5018.918
526.5058, 5015.712
526.9879, 5040.744
527.4700, 5069.499
527.9521, 5071.766
528.4343, 5044.529
528.9164, 5024.764
529.3985, 5046.279
529.8806, 5058.232
530.3627, 5061.137
530.8448, 5027.896
531.3270, 5041.330
531.8091, 5036.059
532.2912, 5049.639
532.7733, 5052.032
533.2554, 5050.795
533.7375, 5044.580
534.2197, 5026.851
534.7018, 5014.180
535.1839, 5016.261
535.6660, 5026.646
536.1481, 5036.970
536.6302, 5046.036
537.1124, 5052.453
537.5945, 5051.399
538.0766, 5047.831
538.5587, 5053.245
539.0408, 5069.142
539.5229, 5086.290
540.0051, 5098.467
540.4872, 5105.282
540.9693, 5102.949
541.4514, 5094.795
541.9335, 5073.083
542.4156, 5011.176
542.8978, 4952.601
543.3799, 4946.792
543.8620, 4990.778
544.3441, 5031.104
544.8262, 5019.011
545.3083, 4970.790
545.7905, 4941.718
546.2726, 4933.499
546.7547, 4936.711
547.2368, 4955.849
547.7189, 4978.451
548.2010, 4985.997
548.6832, 4976.571
549.1653, 4967.975
549.6474, 4965.042
550.1295, 4964.692
550.6116, 4964.576
551.0938, 4964.641
551.5759, 4964.706
552.0580, 4964.427
552.5401, 4966.217
553.0222, 4978.283
553.5043, 5012.663
553.9865, 5024.881
554.4686, 4987.480
554.9507, 4951.686
555.4328, 4939.430
555.9149, 4945.438
556.3970, 4956.983
556.8792, 4971.992
557.3613, 4984.853
557.8434, 4988.808
558.3255, 4985.475
558.8076, 4980.271
559.2897, 4974.079
559.7719, 4967.891
560.2540, 4961.996
560.7361, 4956.413
561.2182, 4955.369
561.7003, 4962.278
562.1824, 4968.768
562.6646, 4976.744
563.1467, 4981.076
563.6288, 4973.939
564.1109, 4955.257
564.5930, 4935.096
565.0751, 4920.983
565.5573, 4913.206
566.0394, 4916.295
566.5215, 4934.713
567.0036, 4946.255
567.4857, 4939.474
567.9678, 4922.406
568.4500, 4904.433
568.9321, 4882.945
569.4142, 4876.397
569.8963, 4905.005
570.3784, 4939.027
570.8605, 4953.321
571.3427, 4949.795
571.8248, 4938.886
572.3069, 4925.312
572.7890, 4913.182
573.2711, 4911.645
573.7532, 4923.874
574.2354, 4936.316
574.7175, 4951.342
575.1996, 4963.341
575.6817, 4967.912
576.1638, 4967.840
576.6459, 4968.232
577.1281, 4969.223
577.6102, 4974.396
578.0923, 4994.052
578.5744, 5019.099
579.0565, 5023.841
579.5386, 5003.712
580.0208, 4983.953
580.5029, 4986.624
580.9850, 5008.955
581.4671, 5023.510
581.9492, 5030.681
582.4313, 5028.665
582.9134, 5007.669
583.3955, 4984.237
583.8776, 4972.774
584.3597, 4973.239
584.8419, 4975.449
585.3240, 4970.677
585.8061, 4964.553
586.2882, 4971.710
586.7703, 4991.901
587.2524, 5005.061
587.7346, 5004.604
588.2167, 4994.800
588.6988, 4977.392
589.1809, 4949.527
589.6630, 4937.833
590.1451, 4956.905
590.6273, 4977.276
591.1094, 4989.183
591.5915, 4992.641
592.0736, 4985.007
592.5557, 4966.792
593.0378, 4950.758
593.5200, 4953.640
594.0021, 4973.963
594.4842, 4992.014
594.9663, 5010.222
595.4484, 5018.352
595.9305, 5006.323
596.4127, 4983.724
596.8948, 4965.992
597.3769, 4953.002
597.8590, 4946.209
598.3411, 4945.678
598.8232, 4951.833
599.3054, 4969.939
599.7875, 4995.387
600.2696, 5014.993
600.7517, 5021.914
601.2338, 5021.974
601.7159, 5027.532
602.1981, 5041.495
602.6802, 5045.804
603.1623, 5031.286
603.6444, 5017.972
604.1265, 5017.839
604.6086, 5025.835
605.0908, 5032.825
605.5729, 5036.751
606.0550, 5040.004
606.5371, 5044.598
607.0192, 5049.014
607.5013, 5051.560
607.9835, 5051.776
608.4656, 5048.466
608.9477, 5040.161
609.4298, 5028.817
609.9119, 5021.958
610.3940, 5021.899
610.8762, 5021.102
611.3583, 5026.204
611.8404, 5023.622
612.3225, 4998.121
612.8046, 4958.189
613.2867, 4928.395
613.7689, 4918.940
614.2510, 4921.681
614.7331, 4934.370
615.2152, 4953.085
615.6973, 4971.131
616.1794, 4986.997
616.6616, 4991.226
617.1437, 4972.058
617.6258, 4933.580
618.1079, 4916.332
618.5900, 4940.452
619.0721, 4955.948
619.5543, 4947.697
620.0364, 4936.435
620.5185, 4938.124
621.0006, 4952.137
621.4827, 4967.857
621.9648, 4983.683
622.4470, 4994.205
622.9291, 4990.429
623.4112, 4974.980
623.8933, 4956.717
624.3754, 4937.391
624.8575, 4923.878
625.3397, 4926.154
625.8218, 4944.881
626.3039, 4948.372
626.7860, 4914.915
627.2681, 4893.134
627.7502, 4900.986
628.2324, 4916.804
628.7145, 4919.337
629.1966, 4907.612
629.6787, 4897.411
630.1608, 4897.428
630.6429, 4906.354
631.1251, 4931.753
631.6072, 4968.701
632.0893, 4977.706
632.5714, 4941.661
633.0535, 4892.292
633.5356, 4867.757
634.0178, 4870.271
634.4999, 4876.386
634.9820, 4889.223
635.4641, 4901.565
635.9462, 4914.065
636.4283, 4923.904
636.9105, 4929.303
637.3926, 4929.487
637.8747, 4922.333
638.3568, 4895.706
638.8389, 4865.180
639.3210, 4863.841
639.8032, 4888.882
640.2853, 4913.350
640.7674, 4929.169
641.2495, 4934.654
641.7316, 4924.869
642.2137, 4895.766
642.6959, 4879.170
643.1780, 4883.402
643.6601, 4889.288
644.1422, 4898.831
644.6243, 4903.623
645.1064, 4890.692
645.5886, 4859.891
646.0707, 4830.847
646.5528, 4815.531
647.0349, 4812.860
647.5170, 4826.533
647.9991, 4854.311
648.4813, 4873.961
648.9634, 4876.592
649.4455, 4872.405
649.9276, 4876.347
650.4097, 4891.421
650.8918, 4894.384
651.3740, 4876.264
651.8561, 4857.149
652.3382, 4838.947
652.8203, 4823.783
653.3024, 4812.187
653.7845, 4804.700
654.2667, 4805.485
654.7488, 4821.598
655.2309, 4845.417
655.7130, 4869.674
656.1951, 4892.169
656.6772, 4898.511
657.1594, 4881.729
657.6415, 4858.608
658.1236, 4851.534
658.6057, 4862.736
659.0878, 4868.218
659.5699, 4862.276
660.0521, 4857.533
660.5342, 4858.886
661.0163, 4861.112
661.4984, 4860.364
661.9805, 4855.720
662.4626, 4845.533
662.9448, 4820.381
663.4269, 4795.271
663.9090, 4792.400
664.3911, 4805.931
664.8732, 4814.450
665.3553, 4811.279
665.8375, 4800.458
666.3196, 4784.403
666.8017, 4762.922
667.2838, 4757.311
667.7659, 4781.691
668.2480, 4799.486
668.7302, 4799.556
669.2123, 4792.671
669.6944, 4784.970
670.1765, 4777.870
670.6586, 4775.861
671.1407, 4782.418
671.6229, 4793.398
672.1050, 4808.968
672.5870, 4825.550
673.0692, 4834.928
673.5513, 4835.339
674.0334, 4831.397
674.5155, 4827.393
674.9976, 4823.104
675.4797, 4815.982
675.9619, 4802.873
676.4440, 4795.504
676.9261, 4802.527
677.4082, 4810.712
677.8903, 4808.677
678.3724, 4798.101
678.8546, 4788.479
679.3367, 4786.458
679.8188, 4781.044
680.3009, 4753.715
680.7830, 4725.908
681.2651, 4736.417
681.7473, 4783.161
682.2294, 4819.545
682.7115, 4807.938
683.1936, 4766.593
683.6757, 4745.102
684.1578, 4744.866
684.6400, 4755.102
685.1221, 4782.797
685.6042, 4804.264
686.0863, 4792.134
