##NAMES=Mattheddleite
##RRUFFID=R070490
##IDEAL CHEMISTRY=Pb^2+^_5_(SiO_4_)_1.5_(S^6+^O_4_)_1.5_Cl
##LOCALITY=Dry Smale Gill, Roughton Gill, Caldbeck Fells, Cumbria (Cumberland), England, United Kingdom
##OWNER=RRUFF
##SOURCE=Bob Jenkins
##DESCRIPTION=Radial aggregates of colorless hexagonal prisms associated with elongated bladed striated blue-green caledonite and creamy yellow barite
##STATUS=The identification of this mineral has been confirmed only by single crystal X-ray diffraction.
##URL=rruff.info/R070490
146.9515, 4118.564
147.4337, 4246.720
147.9158, 4364.574
148.3979, 4472.287
148.8800, 4570.077
149.3621, 4661.223
149.8442, 4738.124
150.3264, 4786.970
150.8085, 4802.988
151.2906, 4807.077
151.7727, 4806.912
152.2548, 4801.849
152.7369, 4789.452
153.2191, 4766.265
153.7012, 4737.918
154.1833, 4715.640
154.6654, 4701.928
155.1475, 4687.952
155.6296, 4670.108
156.1118, 4649.884
156.5939, 4627.800
157.0760, 4601.676
157.5581, 4576.347
158.0402, 4562.987
158.5223, 4562.162
159.0045, 4573.861
159.4866, 4597.485
159.9687, 4631.466
160.4508, 4674.284
160.9329, 4715.713
161.4150, 4744.378
161.8972, 4754.173
162.3793, 4730.847
162.8614, 4713.104
163.3435, 4716.053
163.8256, 4728.108
164.3077, 4735.624
164.7899, 4731.948
165.2720, 4719.833
165.7541, 4707.861
166.2362, 4697.651
166.7183, 4686.102
167.2004, 4678.729
167.6826, 4668.769
168.1647, 4647.113
168.6468, 4608.395
169.1289, 4557.378
169.6110, 4510.434
170.0931, 4460.006
170.5753, 4425.527
171.0574, 4420.300
171.5395, 4428.552
172.0216, 4432.134
172.5037, 4421.848
172.9858, 4399.297
173.4680, 4369.266
173.9501, 4312.688
174.4322, 4272.833
174.9143, 4262.009
175.3964, 4268.177
175.8785, 4277.437
176.3607, 4282.662
176.8428, 4284.354
177.3249, 4284.796
177.8070, 4286.352
178.2891, 4282.978
178.7712, 4270.524
179.2534, 4253.742
179.7355, 4238.206
180.2176, 4226.771
180.6997, 4218.506
181.1818, 4210.189
181.6639, 4195.874
182.1461, 4188.669
182.6282, 4196.812
183.1103, 4210.460
183.5924, 4216.137
184.0745, 4207.310
184.5566, 4190.070
185.0388, 4184.053
185.5209, 4210.987
186.0030, 4224.209
186.4851, 4209.735
186.9672, 4183.695
187.4493, 4165.731
187.9315, 4164.617
188.4136, 4174.203
188.8957, 4177.944
189.3778, 4169.290
189.8599, 4162.177
190.3420, 4158.592
190.8242, 4156.315
191.3063, 4150.814
191.7884, 4140.236
192.2705, 4130.083
192.7526, 4133.144
193.2347, 4178.500
193.7169, 4200.183
194.1990, 4174.617
194.6811, 4133.714
195.1632, 4116.226
195.6453, 4135.433
196.1274, 4168.721
196.6096, 4172.323
197.0917, 4110.940
197.5738, 4071.986
198.0559, 4073.217
198.5380, 4089.822
199.0201, 4097.747
199.5023, 4089.777
199.9844, 4072.905
200.4665, 4058.193
200.9486, 4047.443
201.4307, 4035.816
201.9128, 4021.517
202.3950, 4007.275
202.8771, 3997.927
203.3592, 3994.113
203.8413, 3988.034
204.3234, 3967.290
204.8055, 3918.646
205.2877, 3888.479
205.7698, 3891.320
206.2519, 3903.074
206.7340, 3903.061
207.2161, 3887.759
207.6982, 3867.859
208.1804, 3856.840
208.6625, 3860.764
209.1446, 3849.947
209.6267, 3813.517
210.1088, 3770.484
210.5909, 3732.857
211.0731, 3702.554
211.5552, 3678.191
212.0373, 3659.313
212.5194, 3647.434
213.0015, 3631.940
213.4836, 3608.704
213.9658, 3585.477
214.4479, 3567.189
214.9300, 3553.884
215.4121, 3543.523
215.8942, 3535.140
216.3763, 3529.026
216.8584, 3518.052
217.3406, 3500.784
217.8227, 3480.811
218.3048, 3457.616
218.7869, 3432.740
219.2690, 3411.224
219.7511, 3397.589
220.2333, 3391.305
220.7154, 3377.432
221.1975, 3349.013
221.6796, 3321.810
222.1617, 3303.442
222.6438, 3291.397
223.1260, 3278.089
223.6081, 3258.561
224.0902, 3234.330
224.5723, 3214.711
225.0544, 3203.315
225.5365, 3191.465
226.0187, 3175.814
226.5008, 3158.214
226.9829, 3141.784
227.4650, 3127.859
227.9471, 3116.726
228.4292, 3109.776
228.9114, 3120.124
229.3935, 3118.461
229.8756, 3089.912
230.3577, 3050.001
230.8398, 3022.199
231.3219, 3016.110
231.8041, 3018.942
232.2862, 3002.667
232.7683, 2944.775
233.2504, 2900.776
233.7325, 2881.373
234.2146, 2873.240
234.6968, 2863.666
235.1789, 2848.957
235.6610, 2832.205
236.1431, 2818.091
236.6252, 2808.867
237.1073, 2797.798
237.5895, 2781.252
238.0716, 2765.349
238.5537, 2756.224
239.0358, 2754.232
239.5179, 2753.520
240.0000, 2747.007
240.4822, 2732.190
240.9643, 2721.340
241.4464, 2722.156
241.9285, 2720.039
242.4106, 2704.723
242.8927, 2677.487
243.3749, 2647.360
243.8570, 2622.250
244.3391, 2602.635
244.8212, 2582.585
245.3033, 2557.274
245.7854, 2536.295
246.2676, 2527.789
246.7497, 2526.917
247.2318, 2521.392
247.7139, 2501.849
248.1960, 2470.140
248.6781, 2446.699
249.1603, 2437.725
249.6424, 2430.102
250.1245, 2421.286
250.6066, 2412.206
251.0887, 2405.248
251.5708, 2401.914
252.0530, 2400.141
252.5351, 2392.635
253.0172, 2372.233
253.4993, 2355.052
253.9814, 2346.618
254.4635, 2340.000
254.9457, 2325.951
255.4278, 2301.515
255.9099, 2274.705
256.3920, 2261.841
256.8741, 2273.997
257.3563, 2279.725
257.8384, 2277.854
258.3205, 2270.323
258.8026, 2256.431
259.2847, 2237.112
259.7668, 2216.617
260.2490, 2199.897
260.7311, 2187.396
261.2132, 2177.737
261.6953, 2175.977
262.1774, 2172.615
262.6595, 2162.655
263.1417, 2146.636
263.6238, 2128.150
264.1059, 2108.926
264.5880, 2088.845
265.0701, 2075.587
265.5522, 2076.601
266.0344, 2077.064
266.5165, 2075.055
266.9986, 2068.958
267.4807, 2055.477
267.9628, 2030.346
268.4449, 1997.685
268.9271, 1975.690
269.4092, 1967.946
269.8913, 1965.914
270.3734, 1971.183
270.8555, 1978.211
271.3376, 1980.665
271.8198, 1975.930
272.3019, 1965.542
272.7840, 1951.134
273.2661, 1930.782
273.7482, 1912.558
274.2303, 1897.797
274.7125, 1886.436
275.1946, 1880.036
275.6767, 1878.988
276.1588, 1878.337
276.6409, 1870.514
277.1230, 1855.043
277.6052, 1847.633
278.0873, 1862.249
278.5694, 1874.990
279.0515, 1866.252
279.5336, 1837.373
280.0157, 1807.790
280.4979, 1792.125
280.9800, 1786.895
281.4621, 1777.070
281.9442, 1757.822
282.4263, 1740.636
282.9084, 1736.817
283.3906, 1741.777
283.8727, 1743.474
284.3548, 1737.573
284.8369, 1725.536
285.3190, 1705.829
285.8011, 1675.907
286.2833, 1654.558
286.7654, 1664.275
287.2475, 1688.055
287.7296, 1690.480
288.2117, 1652.630
288.6938, 1609.591
289.1760, 1589.328
289.6581, 1589.555
290.1402, 1594.389
290.6223, 1598.783
291.1044, 1602.653
291.5865, 1607.097
292.0687, 1615.162
292.5508, 1615.995
293.0329, 1599.519
293.5150, 1573.459
293.9971, 1552.614
294.4792, 1541.102
294.9614, 1535.041
295.4435, 1529.504
295.9256, 1524.072
296.4077, 1521.410
296.8898, 1527.773
297.3719, 1533.492
297.8541, 1526.701
298.3362, 1507.072
298.8183, 1487.059
299.3004, 1477.882
299.7825, 1480.305
300.2646, 1479.462
300.7468, 1472.810
301.2289, 1465.737
301.7110, 1460.370
302.1931, 1456.611
302.6752, 1454.091
303.1573, 1452.768
303.6395, 1452.167
304.1216, 1450.059
304.6037, 1445.554
305.0858, 1440.650
305.5679, 1434.462
306.0500, 1428.423
306.5322, 1424.638
307.0143, 1423.716
307.4964, 1423.859
307.9785, 1421.562
308.4606, 1412.978
308.9427, 1409.912
309.4249, 1418.034
309.9070, 1426.288
310.3891, 1426.249
310.8712, 1418.494
311.3533, 1410.584
311.8354, 1410.942
312.3176, 1420.515
312.7997, 1422.696
313.2818, 1404.796
313.7639, 1392.352
314.2460, 1397.798
314.7281, 1413.559
315.2103, 1425.833
315.6924, 1426.805
316.1745, 1419.121
316.6566, 1408.976
317.1387, 1392.468
317.6208, 1382.563
318.1030, 1385.906
318.5851, 1395.354
319.0672, 1404.782
319.5493, 1412.543
320.0314, 1420.616
320.5135, 1433.428
320.9957, 1451.244
321.4778, 1461.884
321.9599, 1457.803
322.4420, 1450.803
322.9241, 1451.060
323.4063, 1458.028
323.8884, 1464.376
324.3705, 1464.072
324.8526, 1460.329
325.3347, 1461.899
325.8168, 1470.826
326.2990, 1480.133
326.7811, 1484.013
327.2632, 1484.229
327.7453, 1485.116
328.2274, 1486.741
328.7095, 1489.909
329.1917, 1497.515
329.6738, 1508.507
330.1559, 1514.664
330.6380, 1510.000
331.1201, 1499.840
331.6022, 1498.088
332.0844, 1508.230
332.5665, 1518.240
333.0486, 1523.619
333.5307, 1526.801
334.0128, 1530.920
334.4949, 1536.770
334.9771, 1544.747
335.4592, 1556.354
335.9413, 1574.826
336.4234, 1583.906
336.9055, 1577.128
337.3876, 1566.753
337.8698, 1559.471
338.3518, 1555.699
338.8340, 1553.167
339.3161, 1549.818
339.7982, 1546.197
340.2803, 1548.596
340.7624, 1567.087
341.2445, 1580.134
341.7267, 1580.576
342.2088, 1574.890
342.6909, 1570.735
343.1730, 1571.193
343.6551, 1574.727
344.1372, 1578.713
344.6194, 1583.232
345.1015, 1587.927
345.5836, 1591.476
346.0657, 1596.197
346.5478, 1606.217
347.0299, 1619.954
347.5121, 1629.680
347.9942, 1626.828
348.4763, 1612.825
348.9584, 1602.526
349.4405, 1596.231
349.9226, 1593.627
350.4048, 1595.382
350.8869, 1600.069
351.3690, 1605.588
351.8511, 1611.406
352.3332, 1617.341
352.8153, 1623.797
353.2975, 1630.885
353.7796, 1636.038
354.2617, 1640.500
354.7438, 1640.322
355.2259, 1628.221
355.7080, 1600.978
356.1902, 1581.016
356.6723, 1585.342
357.1544, 1603.149
357.6365, 1614.061
358.1186, 1614.287
358.6007, 1609.561
359.0829, 1603.927
359.5650, 1597.441
360.0471, 1593.440
360.5292, 1596.173
361.0113, 1597.781
361.4934, 1591.265
361.9756, 1579.065
362.4577, 1569.146
362.9398, 1565.787
363.4219, 1567.749
363.9040, 1571.047
364.3861, 1581.683
364.8683, 1585.872
365.3504, 1581.674
365.8325, 1571.271
366.3146, 1552.168
366.7967, 1526.038
367.2788, 1504.637
367.7610, 1504.813
368.2431, 1533.383
368.7252, 1545.073
369.2073, 1522.524
369.6894, 1500.149
370.1715, 1490.163
370.6537, 1489.221
371.1358, 1489.386
371.6179, 1486.660
372.1000, 1481.242
372.5821, 1473.378
373.0642, 1462.345
373.5464, 1450.867
374.0285, 1439.223
374.5106, 1427.716
374.9927, 1416.796
375.4748, 1406.586
375.9569, 1396.278
376.4391, 1385.059
376.9212, 1373.144
377.4033, 1360.972
377.8854, 1347.351
378.3675, 1336.165
378.8496, 1333.661
379.3318, 1336.811
379.8139, 1336.430
380.2960, 1327.143
380.7781, 1315.902
381.2602, 1310.258
381.7423, 1308.943
382.2245, 1303.620
382.7066, 1288.559
383.1887, 1269.130
383.6708, 1260.650
384.1529, 1271.932
384.6350, 1274.824
385.1172, 1257.825
385.5993, 1233.495
386.0814, 1212.577
386.5635, 1197.902
387.0456, 1191.392
387.5277, 1196.614
388.0099, 1215.778
388.4920, 1224.352
388.9741, 1216.517
389.4562, 1205.181
389.9383, 1189.062
390.4204, 1173.174
390.9026, 1165.982
391.3847, 1171.975
391.8668, 1184.254
392.3489, 1188.213
392.8310, 1181.841
393.3131, 1172.867
393.7953, 1156.993
394.2774, 1143.017
394.7595, 1138.575
395.2416, 1142.631
395.7237, 1145.423
396.2058, 1138.841
396.6880, 1125.194
397.1701, 1111.866
397.6522, 1097.928
398.1343, 1087.546
398.6164, 1085.845
399.0985, 1088.815
399.5807, 1089.883
400.0628, 1087.883
400.5449, 1084.202
401.0270, 1078.472
401.5091, 1071.709
401.9912, 1067.295
402.4734, 1066.630
402.9555, 1067.101
403.4376, 1065.171
403.9197, 1060.244
404.4018, 1055.562
404.8839, 1051.835
405.3661, 1047.946
405.8482, 1040.758
406.3303, 1032.227
406.8124, 1029.386
407.2945, 1037.411
407.7766, 1053.167
408.2588, 1063.132
408.7409, 1066.967
409.2230, 1064.632
409.7051, 1048.714
410.1872, 1031.530
410.6693, 1024.170
411.1515, 1028.260
411.6336, 1037.035
412.1157, 1043.942
412.5978, 1048.957
413.0799, 1054.031
413.5620, 1059.838
414.0442, 1064.712
414.5263, 1065.543
415.0084, 1065.551
415.4905, 1070.487
415.9726, 1083.438
416.4547, 1099.750
416.9369, 1114.304
417.4190, 1127.265
417.9011, 1141.528
418.3832, 1159.573
418.8653, 1176.767
419.3474, 1183.409
419.8296, 1178.770
420.3117, 1184.745
420.7938, 1216.068
421.2759, 1253.705
421.7580, 1278.689
422.2401, 1291.655
422.7223, 1305.212
423.2044, 1327.277
423.6865, 1356.499
424.1686, 1387.119
424.6507, 1423.778
425.1328, 1455.918
425.6150, 1476.114
426.0971, 1495.049
426.5792, 1523.424
427.0613, 1563.016
427.5434, 1608.017
428.0255, 1654.695
428.5077, 1703.610
428.9898, 1739.972
429.4719, 1750.192
429.9540, 1764.890
430.4361, 1802.025
430.9182, 1847.528
431.4004, 1879.279
431.8825, 1886.983
432.3646, 1887.207
432.8467, 1902.993
433.3288, 1933.105
433.8109, 1953.723
434.2931, 1957.993
434.7752, 1953.432
435.2573, 1944.634
435.7394, 1932.417
436.2215, 1924.821
436.7036, 1932.499
437.1858, 1939.378
437.6679, 1927.209
438.1500, 1899.374
438.6321, 1875.937
439.1142, 1868.798
439.5963, 1869.647
440.0785, 1855.895
440.5606, 1810.682
441.0427, 1775.956
441.5248, 1756.569
442.0069, 1745.308
442.4890, 1737.583
442.9712, 1732.356
443.4533, 1730.252
443.9354, 1732.537
444.4175, 1738.398
444.8996, 1740.733
445.3817, 1739.751
445.8639, 1734.494
446.3460, 1718.956
446.8281, 1702.615
447.3102, 1697.871
447.7923, 1707.790
448.2744, 1716.157
448.7566, 1706.755
449.2387, 1682.895
449.7208, 1658.123
450.2029, 1632.201
450.6850, 1611.182
451.1671, 1604.079
451.6493, 1606.445
452.1314, 1601.752
452.6135, 1584.277
453.0956, 1563.517
453.5777, 1543.552
454.0598, 1524.291
454.5420, 1506.028
455.0241, 1488.920
455.5062, 1471.212
455.9883, 1449.636
456.4704, 1421.586
456.9525, 1399.940
457.4347, 1390.540
457.9168, 1380.641
458.3989, 1365.189
458.8810, 1344.904
459.3631, 1321.473
459.8452, 1295.573
460.3274, 1268.775
460.8095, 1244.157
461.2916, 1221.218
461.7737, 1201.812
462.2558, 1187.801
462.7379, 1176.201
463.2201, 1165.007
463.7022, 1154.347
464.1843, 1145.487
464.6664, 1141.334
465.1485, 1138.093
465.6306, 1128.850
466.1128, 1114.126
466.5949, 1103.240
467.0770, 1102.246
467.5591, 1105.639
468.0412, 1100.356
468.5233, 1081.555
469.0055, 1068.650
469.4876, 1068.540
469.9697, 1072.665
470.4518, 1075.060
470.9339, 1074.845
471.4160, 1072.714
471.8982, 1069.052
472.3803, 1064.011
472.8624, 1058.164
473.3445, 1048.784
473.8266, 1043.307
474.3087, 1045.676
474.7909, 1049.760
475.2730, 1049.484
475.7551, 1044.774
476.2372, 1042.003
476.7193, 1050.820
477.2014, 1065.804
477.6836, 1066.156
478.1657, 1048.477
478.6478, 1030.070
479.1299, 1018.139
479.6120, 1012.435
480.0941, 1012.487
480.5763, 1021.891
481.0584, 1028.277
481.5405, 1023.176
482.0226, 1013.846
482.5047, 1011.657
482.9868, 1017.457
483.4690, 1020.602
483.9511, 1010.523
484.4332, 988.7813
484.9153, 978.7120
485.3974, 993.3470
485.8795, 1004.530
486.3617, 1008.415
486.8438, 1007.352
487.3259, 1001.577
487.8080, 992.1771
488.2901, 984.9660
488.7722, 988.3313
489.2544, 1000.796
489.7365, 1006.683
490.2186, 1004.544
490.7007, 998.9893
491.1828, 988.9876
491.6649, 978.1772
492.1471, 972.2966
492.6292, 973.8953
493.1113, 975.8384
493.5934, 973.7592
494.0755, 969.4097
494.5576, 965.6402
495.0398, 962.9669
495.5219, 961.0912
496.0040, 959.6036
496.4861, 958.5571
496.9682, 959.7531
497.4503, 965.2384
497.9325, 970.2838
498.4146, 975.6425
498.8967, 979.2455
499.3788, 977.9033
499.8609, 971.4232
500.3430, 963.9931
500.8252, 960.3110
501.3073, 960.1587
501.7894, 958.8759
502.2715, 955.7258
502.7536, 952.9245
503.2357, 952.4283
503.7179, 952.5735
504.2000, 950.5704
504.6821, 944.7566
505.1642, 941.0811
505.6463, 945.7414
506.1284, 954.2366
506.6106, 957.9463
507.0927, 955.6161
507.5748, 952.1688
508.0569, 951.6039
508.5390, 953.5561
509.0211, 953.9712
509.5033, 948.7067
509.9854, 947.2983
510.4675, 955.7481
510.9496, 966.0500
511.4317, 967.8708
511.9138, 961.1146
512.3960, 957.2791
512.8781, 970.7352
513.3602, 997.8098
513.8423, 1008.041
514.3245, 995.2667
514.8066, 981.0057
515.2887, 971.3076
515.7708, 966.2728
516.2529, 967.9069
516.7350, 977.7560
517.2172, 985.7272
517.6993, 983.1595
518.1814, 977.2691
518.6635, 979.7368
519.1456, 990.8604
519.6277, 1001.763
520.1099, 1006.632
520.5920, 1006.579
521.0741, 1006.132
521.5562, 1007.236
522.0383, 1005.160
522.5204, 997.2186
523.0026, 987.9862
523.4847, 980.0570
523.9668, 974.0698
524.4489, 970.4548
524.9310, 971.0110
525.4131, 972.8453
525.8953, 965.8508
526.3774, 947.5757
526.8595, 933.6571
527.3416, 932.0794
527.8237, 934.2906
528.3058, 929.7316
528.7880, 918.2592
529.2701, 908.2716
529.7522, 902.6220
530.2343, 899.4496
530.7164, 899.0888
531.1985, 900.0154
531.6807, 896.9485
532.1628, 887.0658
532.6449, 873.9299
533.1270, 864.6913
533.6091, 860.5671
534.0912, 857.4392
534.5734, 857.0863
535.0555, 855.8770
535.5376, 853.7700
536.0197, 849.3160
536.5018, 839.2590
536.9839, 820.9536
537.4661, 800.3580
537.9482, 784.1935
538.4303, 772.4977
538.9124, 766.3746
539.3945, 767.3667
539.8766, 770.8530
540.3588, 774.5166
540.8409, 777.6898
541.3230, 775.0660
541.8051, 760.1685
542.2872, 746.3202
542.7693, 737.6325
543.2515, 734.0399
543.7336, 737.7950
544.2157, 748.4210
544.6978, 758.1736
545.1799, 757.8333
545.6620, 747.4360
546.1442, 739.7421
546.6263, 734.4656
547.1084, 732.4916
547.5905, 738.3022
548.0726, 744.9352
548.5547, 743.6494
549.0369, 732.6659
549.5190, 722.5704
550.0011, 720.9136
550.4832, 724.3307
550.9653, 728.0580
551.4474, 731.5618
551.9296, 732.5181
552.4117, 728.6354
552.8938, 722.5060
553.3759, 721.3531
553.8580, 729.0079
554.3401, 735.8118
554.8223, 745.6700
555.3044, 751.2454
555.7865, 746.3871
556.2686, 733.1178
556.7507, 716.3438
557.2328, 697.5632
557.7150, 681.0866
558.1971, 676.1919
558.6792, 683.4673
559.1613, 693.0975
559.6434, 705.9938
560.1255, 716.7026
560.6077, 719.4473
561.0898, 715.6143
561.5719, 710.1448
562.0540, 701.9113
562.5361, 694.2245
563.0182, 688.1470
563.5004, 684.0411
563.9825, 682.8173
564.4646, 684.5777
564.9467, 688.1967
565.4288, 692.6483
565.9109, 697.9246
566.3931, 703.1190
566.8752, 712.3798
567.3573, 714.7594
567.8394, 700.1191
568.3215, 682.4639
568.8036, 677.3736
569.2858, 686.7232
569.7679, 694.9783
570.2500, 689.3092
570.7321, 677.7399
571.2142, 673.2935
571.6964, 676.0225
572.1785, 680.1353
572.6606, 683.1761
573.1427, 685.3542
573.6248, 687.2100
574.1069, 689.3264
574.5891, 689.5859
575.0712, 684.4869
575.5533, 681.0735
576.0354, 685.8966
576.5175, 694.4857
576.9996, 697.6104
577.4818, 690.8945
577.9639, 680.9821
578.4460, 675.7762
578.9281, 675.1945
579.4102, 679.2497
579.8923, 689.6935
580.3745, 699.7753
580.8566, 704.7545
581.3387, 705.3879
581.8208, 705.4579
582.3029, 703.8330
582.7850, 703.3675
583.2672, 706.6886
583.7493, 710.4200
584.2314, 710.2841
584.7135, 706.6276
585.1956, 703.3755
585.6777, 703.3627
586.1598, 705.9122
586.6419, 708.8304
587.1240, 711.9919
587.6061, 715.9258
588.0883, 720.5976
588.5704, 726.2850
589.0525, 733.5781
589.5346, 742.1210
590.0167, 750.3245
590.4988, 757.8106
590.9810, 764.6642
591.4631, 769.3146
591.9452, 773.6676
592.4273, 782.9688
592.9094, 798.3704
593.3915, 813.6326
593.8737, 821.3318
594.3558, 821.5960
594.8379, 827.3377
595.3200, 844.1516
595.8021, 858.2176
596.2842, 861.4639
596.7664, 864.4675
597.2485, 878.8355
597.7306, 904.8443
598.2127, 929.3583
598.6948, 943.9314
599.1769, 952.8289
599.6591, 960.3374
600.1412, 967.1128
600.6233, 976.9904
601.1054, 991.7639
601.5875, 1008.896
602.0696, 1025.126
602.5518, 1041.064
603.0339, 1052.840
603.5160, 1054.239
603.9981, 1058.970
604.4802, 1076.762
604.9623, 1098.008
605.4445, 1110.154
605.9266, 1109.867
606.4087, 1104.832
606.8908, 1099.965
607.3729, 1095.931
607.8550, 1096.353
608.3372, 1101.729
608.8193, 1102.970
609.3014, 1094.467
609.7835, 1080.725
610.2656, 1071.100
610.7477, 1068.825
611.2299, 1061.891
611.7120, 1044.985
612.1941, 1028.268
612.6762, 1016.644
613.1583, 1009.393
613.6404, 1005.398
614.1226, 1004.250
614.6047, 1003.296
615.0868, 999.4953
615.5689, 992.9810
616.0510, 984.1526
616.5331, 972.3215
617.0153, 961.5152
617.4974, 955.3248
617.9795, 951.1169
618.4616, 942.3196
618.9437, 928.9432
619.4258, 911.5452
619.9080, 886.2144
620.3901, 860.2946
620.8722, 839.9883
621.3543, 823.8100
621.8364, 806.6403
622.3185, 785.8767
622.8007, 764.6746
623.2828, 748.2314
623.7649, 736.5840
624.2470, 725.0631
624.7291, 713.4921
625.2112, 701.4910
625.6934, 688.0737
626.1755, 674.2397
626.6576, 662.3483
627.1397, 651.9358
627.6218, 644.5487
628.1039, 642.6376
628.5861, 642.2958
629.0682, 640.2731
629.5503, 636.5961
630.0324, 632.7494
630.5145, 629.5842
630.9966, 626.2540
631.4788, 620.6358
631.9609, 612.4451
632.4430, 605.6788
632.9251, 599.5248
633.4072, 597.1718
633.8893, 603.9663
634.3715, 615.6224
634.8536, 622.2428
635.3357, 621.5501
635.8178, 619.2468
636.2999, 616.4616
636.7820, 613.4522
637.2642, 610.2219
637.7463, 606.9796
638.2284, 603.6881
638.7105, 600.0742
639.1926, 598.1121
639.6747, 603.6788
640.1569, 618.1993
640.6390, 626.3009
