##NAMES=Mawbyite
##RRUFFID=R080011
##IDEAL CHEMISTRY=Pb^2+^Fe^3+^_2_(As^5+^O_4_)_2_(OH)_2_
##LOCALITY=Tsumeb, Namibia
##OWNER=RRUFF
##SOURCE=William W. Pinch
##DESCRIPTION=Reddish brown wedge-shaped crystals, many V-twinned, associated with quartz and scorodite
##STATUS=The identification of this mineral has been confirmed by single-crystal X-ray diffraction.
##URL=rruff.info/R080011
94.51007, 0.0000000E+00
94.99219, 1787.927
95.47430, 1798.156
95.95642, 1805.789
96.43854, 1810.439
96.92065, 1812.495
97.40277, 1806.599
97.88489, 1793.834
98.36700, 1781.354
98.84912, 1770.476
99.33124, 1758.914
99.81335, 1744.785
100.2955, 1727.941
100.7776, 1710.323
101.2597, 1695.176
101.7418, 1678.636
102.2239, 1663.712
102.7061, 1651.483
103.1882, 1641.499
103.6703, 1632.323
104.1524, 1622.983
104.6345, 1614.398
105.1166, 1607.742
105.5988, 1603.181
106.0809, 1599.845
106.5630, 1597.110
107.0451, 1594.935
107.5272, 1592.958
108.0093, 1590.711
108.4915, 1588.588
108.9736, 1587.005
109.4557, 1586.389
109.9378, 1585.913
110.4199, 1582.920
110.9020, 1573.305
111.3842, 1566.972
111.8663, 1568.767
112.3484, 1574.728
112.8305, 1578.991
113.3126, 1577.067
113.7947, 1568.684
114.2769, 1563.804
114.7590, 1565.021
115.2411, 1566.881
115.7232, 1567.780
116.2053, 1567.596
116.6874, 1566.912
117.1696, 1566.289
117.6517, 1565.761
118.1338, 1565.071
118.6159, 1562.349
119.0980, 1560.495
119.5801, 1562.560
120.0623, 1569.334
120.5444, 1577.933
121.0265, 1584.649
121.5086, 1589.615
121.9907, 1593.842
122.4728, 1596.843
122.9550, 1599.238
123.4371, 1602.896
123.9192, 1609.334
124.4013, 1615.799
124.8834, 1618.989
125.3655, 1618.750
125.8476, 1618.154
126.3298, 1619.513
126.8119, 1622.900
127.2940, 1627.162
127.7761, 1632.382
128.2582, 1638.217
128.7404, 1644.925
129.2225, 1652.591
129.7046, 1660.252
130.1867, 1666.363
130.6688, 1670.633
131.1509, 1673.646
131.6331, 1673.351
132.1152, 1672.998
132.5973, 1675.941
133.0794, 1683.834
133.5615, 1695.478
134.0436, 1705.742
134.5258, 1714.439
135.0079, 1721.803
135.4900, 1726.627
135.9721, 1730.198
136.4542, 1734.960
136.9363, 1742.813
137.4185, 1753.363
137.9006, 1760.206
138.3827, 1760.594
138.8648, 1760.746
139.3469, 1764.053
139.8290, 1770.188
140.3112, 1776.227
140.7933, 1779.682
141.2754, 1780.798
141.7575, 1782.664
142.2396, 1786.334
142.7217, 1790.391
143.2039, 1793.171
143.6860, 1794.372
144.1681, 1795.260
144.6502, 1797.214
145.1323, 1799.706
145.6144, 1801.480
146.0966, 1801.926
146.5787, 1801.243
147.0608, 1800.124
147.5429, 1798.948
148.0250, 1796.656
148.5071, 1791.510
148.9893, 1784.647
149.4714, 1779.181
149.9535, 1778.451
150.4356, 1782.937
150.9177, 1785.693
151.3998, 1785.912
151.8820, 1784.825
152.3641, 1782.474
152.8462, 1779.035
153.3283, 1774.938
153.8104, 1770.649
154.2925, 1766.309
154.7747, 1761.377
155.2568, 1756.341
155.7389, 1750.527
156.2210, 1742.903
156.7031, 1733.543
157.1852, 1723.948
157.6673, 1716.541
158.1495, 1713.502
158.6316, 1709.116
159.1137, 1702.351
159.5958, 1694.718
160.0779, 1687.627
160.5600, 1681.517
161.0422, 1676.178
161.5243, 1671.449
162.0064, 1668.272
162.4885, 1663.543
162.9706, 1656.237
163.4527, 1646.923
163.9349, 1635.996
164.4170, 1622.379
164.8991, 1609.199
165.3812, 1602.357
165.8633, 1603.247
166.3454, 1605.102
166.8276, 1604.428
167.3097, 1601.441
167.7918, 1597.601
168.2739, 1592.737
168.7560, 1587.813
169.2381, 1583.647
169.7203, 1580.111
170.2024, 1578.081
170.6845, 1579.222
171.1666, 1584.214
171.6487, 1588.346
172.1308, 1589.724
172.6130, 1589.660
173.0951, 1588.730
173.5772, 1586.993
174.0593, 1585.041
174.5414, 1583.875
175.0235, 1583.596
175.5057, 1583.991
175.9878, 1585.928
176.4699, 1587.969
176.9520, 1588.590
177.4341, 1587.031
177.9162, 1584.080
178.3984, 1582.155
178.8805, 1581.803
179.3626, 1581.936
179.8447, 1582.221
180.3268, 1582.926
180.8089, 1584.737
181.2911, 1588.145
181.7732, 1592.565
182.2553, 1594.576
182.7374, 1591.889
183.2195, 1589.356
183.7016, 1587.384
184.1838, 1586.235
184.6659, 1586.424
185.1480, 1588.457
185.6301, 1592.058
186.1122, 1594.315
186.5943, 1594.218
187.0765, 1594.134
187.5586, 1595.276
188.0407, 1597.279
188.5228, 1598.666
189.0049, 1597.968
189.4870, 1595.879
189.9692, 1596.501
190.4513, 1602.334
190.9334, 1608.624
191.4155, 1612.191
191.8976, 1613.111
192.3797, 1613.490
192.8619, 1614.394
193.3440, 1615.838
193.8261, 1617.789
194.3082, 1621.468
194.7903, 1624.842
195.2724, 1625.209
195.7546, 1622.120
196.2367, 1619.038
196.7188, 1618.954
197.2009, 1620.131
197.6830, 1620.228
198.1651, 1618.104
198.6473, 1614.833
199.1294, 1612.203
199.6115, 1610.363
200.0936, 1608.838
200.5757, 1607.605
201.0578, 1606.458
201.5400, 1605.270
202.0221, 1604.347
202.5042, 1603.076
202.9863, 1599.317
203.4684, 1591.028
203.9505, 1583.564
204.4327, 1578.861
204.9148, 1575.832
205.3969, 1573.106
205.8790, 1570.068
206.3611, 1566.595
206.8432, 1561.862
207.3254, 1553.544
207.8075, 1546.779
208.2896, 1544.443
208.7717, 1544.042
209.2538, 1541.835
209.7359, 1535.339
210.2181, 1525.032
210.7002, 1515.549
211.1823, 1507.607
211.6644, 1499.809
212.1465, 1491.010
212.6286, 1482.240
213.1108, 1475.594
213.5929, 1472.739
214.0750, 1473.238
214.5571, 1470.658
215.0392, 1462.153
215.5213, 1453.906
216.0035, 1447.754
216.4856, 1443.215
216.9677, 1439.297
217.4498, 1435.544
217.9319, 1431.819
218.4140, 1425.647
218.8962, 1414.153
219.3783, 1403.754
219.8604, 1397.060
220.3425, 1393.541
220.8246, 1391.276
221.3067, 1389.113
221.7889, 1387.193
222.2710, 1386.190
222.7531, 1387.951
223.2352, 1388.790
223.7173, 1386.145
224.1994, 1380.622
224.6816, 1375.149
225.1637, 1371.260
225.6458, 1368.958
226.1279, 1367.487
226.6100, 1367.742
227.0921, 1367.927
227.5743, 1366.541
228.0564, 1363.750
228.5385, 1361.186
229.0206, 1359.588
229.5027, 1358.951
229.9848, 1359.163
230.4670, 1360.899
230.9491, 1362.573
231.4312, 1362.546
231.9133, 1360.804
232.3954, 1359.289
232.8775, 1359.042
233.3597, 1359.504
233.8418, 1359.882
234.3239, 1359.936
234.8060, 1360.193
235.2881, 1361.299
235.7702, 1363.328
236.2524, 1365.532
236.7345, 1368.356
237.2166, 1370.817
237.6987, 1371.710
238.1808, 1370.545
238.6629, 1368.897
239.1451, 1368.602
239.6272, 1369.789
240.1093, 1371.640
240.5914, 1374.527
241.0735, 1377.659
241.5556, 1380.896
242.0378, 1384.255
242.5199, 1386.598
243.0020, 1385.865
243.4841, 1380.888
243.9662, 1377.166
244.4483, 1375.546
244.9305, 1375.550
245.4126, 1377.907
245.8947, 1382.536
246.3768, 1387.054
246.8589, 1387.641
247.3410, 1382.407
247.8232, 1379.156
248.3053, 1380.659
248.7874, 1382.750
249.2695, 1382.821
249.7516, 1380.475
250.2337, 1377.179
250.7159, 1374.798
251.1980, 1373.527
251.6801, 1372.742
252.1622, 1373.195
252.6443, 1373.509
253.1264, 1372.827
253.6086, 1371.088
254.0907, 1368.851
254.5728, 1366.832
255.0549, 1365.220
255.5370, 1363.192
256.0191, 1361.312
256.5013, 1358.656
256.9834, 1353.987
257.4655, 1347.672
257.9476, 1341.624
258.4297, 1338.105
258.9118, 1338.022
259.3940, 1336.712
259.8761, 1334.121
260.3582, 1330.643
260.8403, 1325.421
261.3224, 1319.144
261.8045, 1314.163
262.2867, 1313.141
262.7688, 1317.239
263.2509, 1317.146
263.7330, 1310.839
264.2151, 1303.245
264.6972, 1295.867
265.1794, 1289.135
265.6615, 1283.433
266.1436, 1279.420
266.6257, 1277.255
267.1078, 1272.323
267.5899, 1262.467
268.0721, 1252.570
268.5542, 1244.409
269.0363, 1237.956
269.5184, 1232.596
270.0005, 1228.008
270.4826, 1224.163
270.9648, 1220.858
271.4469, 1219.448
271.9290, 1217.063
272.4111, 1211.864
272.8932, 1204.802
273.3753, 1198.135
273.8575, 1193.192
274.3396, 1189.697
274.8217, 1186.270
275.3038, 1184.104
275.7859, 1180.690
276.2680, 1173.715
276.7502, 1164.973
277.2323, 1158.265
277.7144, 1155.562
278.1965, 1155.632
278.6786, 1154.920
279.1607, 1152.864
279.6429, 1151.223
280.1250, 1151.571
280.6071, 1152.519
281.0892, 1151.202
281.5713, 1146.242
282.0534, 1139.593
282.5356, 1135.275
283.0177, 1133.963
283.4998, 1132.080
283.9819, 1127.487
284.4640, 1122.119
284.9461, 1119.627
285.4283, 1121.439
285.9104, 1124.032
286.3925, 1121.654
286.8746, 1113.833
287.3567, 1107.412
287.8388, 1104.551
288.3210, 1103.510
288.8031, 1102.113
289.2852, 1099.941
289.7673, 1097.684
290.2494, 1096.274
290.7315, 1095.643
291.2137, 1094.459
291.6958, 1092.192
292.1779, 1089.451
292.6600, 1086.837
293.1421, 1084.413
293.6242, 1082.078
294.1064, 1079.604
294.5885, 1077.133
295.0706, 1075.381
295.5527, 1074.973
296.0348, 1074.925
296.5169, 1074.774
296.9991, 1074.464
297.4812, 1072.990
297.9633, 1069.005
298.4454, 1063.495
298.9275, 1059.630
299.4096, 1058.525
299.8918, 1057.936
300.3739, 1056.123
300.8560, 1053.289
301.3381, 1050.990
301.8202, 1050.287
302.3023, 1050.261
302.7845, 1049.039
303.2666, 1046.337
303.7487, 1043.197
304.2308, 1039.814
304.7129, 1036.400
305.1950, 1033.682
305.6772, 1031.924
306.1593, 1030.974
306.6414, 1030.597
307.1235, 1030.787
307.6056, 1031.311
308.0877, 1032.493
308.5699, 1033.921
309.0520, 1034.515
309.5341, 1033.828
310.0162, 1032.834
310.4983, 1032.682
310.9804, 1033.235
311.4626, 1033.755
311.9447, 1034.116
312.4268, 1034.260
312.9089, 1033.921
313.3910, 1032.932
313.8731, 1032.163
314.3553, 1032.751
314.8374, 1034.214
315.3195, 1035.005
315.8016, 1035.213
316.2837, 1034.370
316.7658, 1030.920
317.2480, 1024.721
317.7301, 1020.163
318.2122, 1020.629
318.6943, 1024.577
319.1764, 1027.959
319.6585, 1030.338
320.1407, 1032.285
320.6228, 1034.453
321.1049, 1036.717
321.5870, 1037.901
322.0691, 1036.621
322.5512, 1034.782
323.0334, 1035.929
323.5155, 1040.974
323.9976, 1045.975
324.4797, 1048.102
324.9618, 1048.435
325.4439, 1050.414
325.9261, 1055.410
326.4082, 1061.568
326.8903, 1066.533
327.3724, 1070.304
327.8545, 1074.045
328.3366, 1078.139
328.8188, 1082.435
329.3009, 1086.829
329.7830, 1091.390
330.2651, 1095.626
330.7472, 1098.656
331.2293, 1100.762
331.7115, 1103.606
332.1936, 1107.063
332.6757, 1111.652
333.1578, 1118.453
333.6399, 1127.517
334.1220, 1136.724
334.6042, 1145.268
335.0863, 1152.730
335.5684, 1158.070
336.0505, 1158.579
336.5326, 1159.695
337.0147, 1166.047
337.4969, 1176.486
337.9790, 1185.650
338.4611, 1190.759
338.9432, 1193.523
339.4253, 1197.761
339.9074, 1203.495
340.3896, 1210.236
340.8717, 1219.068
341.3538, 1228.631
341.8359, 1236.055
342.3180, 1240.367
342.8001, 1243.045
343.2823, 1245.939
343.7644, 1249.022
344.2465, 1252.359
344.7286, 1256.111
345.2107, 1260.048
345.6928, 1264.097
346.1750, 1268.251
346.6571, 1271.992
347.1392, 1274.829
347.6213, 1276.677
348.1034, 1278.154
348.5855, 1278.813
349.0677, 1279.480
349.5498, 1281.186
350.0319, 1283.585
350.5140, 1284.958
350.9961, 1284.108
351.4782, 1281.513
351.9604, 1279.512
352.4425, 1278.153
352.9246, 1277.193
353.4067, 1277.559
353.8888, 1278.127
354.3709, 1276.882
354.8531, 1273.035
355.3352, 1267.160
355.8173, 1259.976
356.2994, 1249.870
356.7815, 1242.190
357.2636, 1239.792
357.7458, 1238.698
358.2279, 1234.715
358.7100, 1227.258
359.1921, 1219.016
359.6742, 1213.045
360.1563, 1209.869
360.6385, 1205.842
361.1206, 1199.378
361.6027, 1193.570
362.0848, 1190.296
362.5669, 1189.209
363.0490, 1189.040
363.5312, 1189.164
364.0133, 1189.328
364.4954, 1187.362
364.9775, 1181.009
365.4596, 1175.336
365.9417, 1172.338
366.4239, 1170.314
366.9060, 1166.670
367.3881, 1160.342
367.8702, 1152.736
368.3523, 1146.635
368.8344, 1141.775
369.3166, 1139.206
369.7987, 1140.132
370.2808, 1142.288
370.7629, 1144.305
371.2450, 1145.834
371.7271, 1147.043
372.2093, 1148.290
372.6914, 1149.938
373.1735, 1149.245
373.6556, 1144.377
374.1377, 1139.168
374.6198, 1134.331
375.1020, 1130.229
375.5841, 1127.501
376.0662, 1126.689
376.5483, 1127.295
377.0304, 1126.840
377.5125, 1123.436
377.9947, 1121.781
378.4768, 1124.873
378.9589, 1128.829
379.4410, 1129.212
379.9231, 1124.680
380.4052, 1118.385
380.8874, 1115.512
381.3695, 1117.602
381.8516, 1118.059
382.3337, 1113.979
382.8158, 1110.130
383.2979, 1109.611
383.7801, 1111.958
384.2622, 1114.182
384.7443, 1113.707
385.2264, 1110.739
385.7085, 1107.870
386.1906, 1105.603
386.6728, 1102.653
387.1549, 1097.779
387.6370, 1092.170
388.1191, 1087.759
388.6012, 1085.588
389.0833, 1084.520
389.5655, 1082.555
390.0476, 1079.520
390.5297, 1076.378
391.0118, 1073.080
391.4939, 1070.003
391.9760, 1067.795
392.4582, 1066.563
392.9403, 1064.885
393.4224, 1061.185
393.9045, 1055.833
394.3866, 1051.249
394.8687, 1048.204
395.3509, 1045.239
395.8330, 1040.580
396.3151, 1034.889
396.7972, 1030.439
397.2793, 1029.268
397.7614, 1029.290
398.2436, 1027.405
398.7257, 1023.491
399.2078, 1019.208
399.6899, 1015.396
400.1720, 1011.906
400.6541, 1008.265
401.1363, 1004.082
401.6184, 1000.487
402.1005, 999.0249
402.5826, 998.7546
403.0647, 996.9036
403.5468, 992.4515
404.0290, 986.6522
404.5111, 980.5081
404.9932, 973.6464
405.4753, 969.4977
405.9574, 971.0532
406.4395, 974.1407
406.9217, 974.4310
407.4038, 971.7352
407.8859, 969.0088
408.3680, 968.7544
408.8501, 970.6566
409.3322, 970.6442
409.8144, 968.0984
410.2965, 964.6642
410.7786, 960.0200
411.2607, 955.0451
411.7428, 951.0900
412.2249, 948.7272
412.7071, 947.7310
413.1892, 947.7310
413.6713, 949.4412
414.1534, 950.9579
414.6355, 952.6676
415.1176, 953.9180
415.5998, 953.8525
416.0819, 952.6746
416.5640, 951.5682
417.0461, 951.6382
417.5282, 952.8997
418.0103, 953.9701
418.4925, 955.3088
418.9746, 955.9157
419.4567, 954.8905
419.9388, 953.1973
420.4209, 952.2122
420.9030, 952.5728
421.3852, 953.6097
421.8673, 953.6922
422.3494, 951.6868
422.8315, 951.6893
423.3136, 956.7136
423.7957, 961.7069
424.2779, 963.4352
424.7600, 961.9308
425.2421, 959.4043
425.7242, 957.2803
426.2063, 955.6222
426.6884, 955.2389
427.1706, 956.7640
427.6527, 958.5475
428.1348, 959.9663
428.6169, 961.1381
429.0990, 962.1978
429.5811, 963.1440
430.0633, 964.1170
430.5454, 965.6195
431.0275, 967.6862
431.5096, 968.5369
431.9917, 966.4945
432.4738, 964.2322
432.9560, 964.8477
433.4381, 968.3029
433.9202, 971.5301
434.4023, 972.4119
434.8844, 972.3055
435.3665, 973.8099
435.8487, 977.3094
436.3308, 981.0262
436.8129, 983.9456
437.2950, 985.9695
437.7771, 987.0425
438.2592, 985.3540
438.7414, 984.6691
439.2235, 988.0295
439.7056, 993.9416
440.1877, 998.8364
440.6698, 1001.416
441.1519, 1002.489
441.6341, 1003.275
442.1162, 1003.618
442.5983, 1004.130
443.0804, 1004.978
443.5625, 1005.904
444.0446, 1006.541
444.5268, 1007.007
445.0089, 1007.918
445.4910, 1009.803
445.9731, 1012.541
446.4552, 1014.948
446.9373, 1017.017
447.4195, 1018.788
447.9016, 1020.323
448.3837, 1021.537
448.8658, 1021.851
449.3479, 1021.257
449.8300, 1021.115
450.3122, 1023.604
450.7943, 1029.540
451.2764, 1035.040
451.7585, 1040.835
452.2406, 1045.467
452.7227, 1047.917
453.2049, 1048.707
453.6870, 1048.910
454.1691, 1048.923
454.6512, 1049.099
455.1333, 1050.659
455.6154, 1054.332
456.0976, 1057.191
456.5797, 1057.168
457.0618, 1056.642
457.5439, 1057.715
458.0260, 1060.656
458.5081, 1063.452
458.9903, 1064.289
459.4724, 1063.696
459.9545, 1063.545
460.4366, 1064.026
460.9187, 1064.981
461.4008, 1066.918
461.8830, 1069.259
462.3651, 1070.492
462.8472, 1070.481
463.3293, 1069.176
463.8114, 1064.991
464.2935, 1059.149
464.7756, 1056.757
465.2578, 1060.535
465.7399, 1066.377
466.2220, 1066.898
466.7041, 1060.543
467.1862, 1055.731
467.6683, 1053.956
468.1505, 1053.647
468.6326, 1054.070
469.1147, 1054.873
469.5968, 1055.252
470.0789, 1054.583
470.5610, 1053.043
471.0432, 1051.857
471.5253, 1050.827
472.0074, 1050.408
472.4895, 1051.514
472.9716, 1052.794
473.4537, 1052.684
473.9359, 1050.943
474.4180, 1048.770
474.9001, 1047.522
475.3822, 1047.240
475.8643, 1047.644
476.3464, 1050.460
476.8286, 1052.063
477.3107, 1049.927
477.7928, 1046.120
478.2749, 1044.114
478.7570, 1045.628
479.2391, 1048.897
479.7213, 1051.105
480.2034, 1052.142
480.6855, 1053.073
481.1676, 1053.741
481.6497, 1054.791
482.1318, 1057.098
482.6140, 1060.455
483.0961, 1063.188
483.5782, 1064.357
484.0603, 1064.484
484.5424, 1063.681
485.0245, 1061.876
485.5067, 1062.181
485.9888, 1067.836
486.4709, 1075.885
486.9530, 1078.429
487.4351, 1072.895
487.9172, 1067.943
488.3994, 1066.760
488.8815, 1067.762
489.3636, 1069.152
489.8457, 1070.522
490.3278, 1071.740
490.8099, 1072.740
491.2921, 1073.538
491.7742, 1073.639
492.2563, 1072.018
492.7384, 1070.989
493.2205, 1072.421
493.7026, 1074.491
494.1848, 1074.134
494.6669, 1070.316
495.1490, 1065.505
495.6311, 1064.163
496.1132, 1068.451
496.5953, 1069.182
497.0775, 1063.552
497.5596, 1056.914
498.0417, 1050.916
498.5238, 1045.569
499.0059, 1040.459
499.4880, 1035.276
499.9702, 1030.305
500.4523, 1026.511
500.9344, 1024.255
501.4165, 1020.810
501.8986, 1015.191
502.3807, 1008.219
502.8629, 1000.195
503.3450, 991.2657
503.8271, 983.2618
504.3092, 978.1613
504.7913, 974.0457
505.2734, 967.3480
505.7556, 957.9100
506.2377, 949.7272
506.7198, 945.9310
507.2019, 944.5388
507.6840, 939.1074
508.1661, 926.7228
508.6483, 916.3997
509.1304, 912.1253
509.6125, 910.2905
510.0946, 906.8384
510.5767, 901.1360
511.0588, 894.8777
511.5410, 889.6074
512.0231, 885.3158
512.5052, 880.8521
512.9873, 875.0742
513.4694, 870.4663
513.9515, 868.7594
514.4337, 867.9009
514.9158, 865.1787
515.3979, 859.9537
515.8800, 854.4591
516.3621, 851.8058
516.8442, 852.3651
517.3264, 851.9178
517.8085, 850.2560
518.2906, 847.7078
518.7727, 843.9258
519.2548, 839.5775
519.7369, 835.7948
520.2191, 833.0278
520.7012, 830.7228
521.1833, 827.8382
521.6654, 824.6224
522.1475, 823.4186
522.6296, 825.7032
523.1118, 828.2855
523.5939, 826.7736
524.0760, 821.8544
524.5581, 818.8065
525.0402, 820.7908
525.5223, 822.9039
526.0045, 820.6374
526.4866, 815.5043
526.9687, 812.2557
527.4508, 813.0626
527.9329, 816.0546
528.4150, 817.8662
528.8972, 818.4469
529.3793, 817.7314
529.8614, 813.6964
530.3435, 810.3119
530.8256, 810.9501
531.3077, 814.0925
531.7899, 815.4283
532.2720, 812.1776
532.7541, 806.5762
533.2362, 804.8771
533.7183, 809.0643
534.2004, 811.4938
534.6826, 809.0306
535.1647, 805.8885
535.6468, 804.3184
536.1289, 804.3137
536.6110, 804.9593
537.0931, 806.5127
537.5753, 807.9873
538.0574, 806.9052
538.5395, 803.1044
539.0216, 800.4865
539.5037, 801.5121
539.9858, 803.8329
540.4680, 803.3580
540.9501, 799.7007
541.4322, 796.1039
541.9143, 793.4514
542.3964, 791.3031
542.8785, 789.0538
543.3607, 786.8060
543.8428, 785.4998
544.3249, 785.9929
544.8070, 787.4349
545.2891, 786.6334
545.7712, 779.9905
546.2534, 776.0746
546.7355, 778.1431
547.2176, 780.6877
547.6997, 779.0635
548.1818, 773.6390
548.6639, 768.0896
549.1461, 765.2782
549.6282, 764.6432
550.1103, 763.9477
550.5924, 763.1066
551.0745, 762.4032
551.5566, 763.0085
552.0388, 763.0619
552.5209, 760.6275
553.0030, 755.6326
553.4851, 750.5276
553.9672, 745.9476
554.4493, 742.4261
554.9315, 741.5602
555.4136, 743.4428
555.8957, 744.8498
556.3778, 744.0618
556.8599, 741.6069
557.3420, 738.7363
557.8242, 735.0591
558.3063, 731.9580
558.7884, 729.9805
559.2705, 728.5092
559.7526, 727.1331
560.2347, 725.7501
560.7169, 724.1683
561.1990, 722.1517
561.6811, 720.0103
562.1632, 719.3895
562.6453, 722.3472
563.1274, 723.2101
563.6096, 719.4119
564.0917, 715.0848
564.5738, 713.3712
565.0559, 714.1865
565.5380, 715.2703
566.0201, 715.2947
566.5023, 714.3118
566.9844, 712.2586
567.4665, 708.9751
567.9486, 705.5427
568.4307, 701.7515
568.9128, 698.6095
569.3950, 697.5603
569.8771, 698.7510
570.3592, 700.1407
570.8413, 701.6074
571.3234, 702.5898
571.8055, 702.2886
572.2877, 700.8668
572.7698, 699.2153
573.2519, 697.7996
573.7340, 696.5494
574.2161, 695.3244
574.6982, 694.3600
575.1804, 692.9590
575.6625, 690.0093
576.1446, 687.6193
576.6267, 687.4854
577.1088, 689.0179
577.5909, 690.5905
578.0731, 691.3376
578.5552, 691.2367
579.0373, 689.8815
579.5194, 686.8739
580.0015, 684.8922
580.4836, 685.3507
580.9658, 686.0795
581.4479, 685.3917
581.9300, 683.5270
582.4121, 681.5739
582.8942, 679.1012
583.3763, 677.3831
583.8585, 678.3334
584.3406, 681.2450
584.8227, 683.5703
585.3048, 684.4889
585.7869, 684.2960
586.2690, 683.3658
586.7512, 681.6652
587.2333, 679.2079
587.7154, 674.8785
588.1975, 671.0359
588.6796, 668.7142
589.1617, 667.5209
589.6439, 666.8115
590.1260, 666.3342
590.6081, 666.0841
591.0902, 665.9756
591.5723, 665.9510
