##NAMES=Mawbyite
##RRUFFID=R080011
##IDEAL CHEMISTRY=Pb^2+^Fe^3+^_2_(As^5+^O_4_)_2_(OH)_2_
##LOCALITY=Tsumeb, Namibia
##OWNER=RRUFF
##SOURCE=William W. Pinch
##DESCRIPTION=Reddish brown wedge-shaped crystals, many V-twinned, associated with quartz and scorodite
##STATUS=The identification of this mineral has been confirmed by single-crystal X-ray diffraction.
##URL=rruff.info/R080011
93.40625, 127.9290
93.88837, 122.8711
94.37048, 126.9875
94.85260, 138.1049
95.33472, 149.9736
95.81683, 161.1738
96.29895, 172.3768
96.78107, 185.0814
97.26318, 199.3604
97.74530, 214.9654
98.22742, 231.5710
98.70953, 249.2390
99.19165, 267.8695
99.67377, 287.9727
100.1559, 309.1453
100.6380, 328.1332
101.1201, 344.1907
101.6022, 359.2087
102.0844, 375.8243
102.5665, 394.9184
103.0486, 412.9466
103.5307, 427.9705
104.0128, 439.1255
104.4949, 451.9505
104.9771, 467.3053
105.4592, 484.0409
105.9413, 499.7779
106.4234, 512.7689
106.9055, 526.9349
107.3876, 543.8574
107.8698, 565.3400
108.3519, 587.0802
108.8340, 608.2502
109.3161, 629.5307
109.7982, 653.4142
110.2803, 683.6387
110.7624, 714.2433
111.2446, 742.0674
111.7267, 763.4208
112.2088, 786.3140
112.6909, 812.7094
113.1730, 842.6136
113.6551, 870.9709
114.1373, 897.8501
114.6194, 922.4269
115.1015, 944.3372
115.5836, 962.3659
116.0657, 978.5360
116.5478, 992.7532
117.0300, 1005.096
117.5121, 1017.389
117.9942, 1030.110
118.4763, 1043.214
118.9584, 1056.584
119.4405, 1070.533
119.9227, 1084.712
120.4048, 1098.169
120.8869, 1110.240
121.3690, 1124.436
121.8511, 1144.603
122.3332, 1168.554
122.8154, 1191.680
123.2975, 1211.323
123.7796, 1228.996
124.2617, 1245.805
124.7438, 1260.354
125.2259, 1276.925
125.7081, 1300.320
126.1902, 1328.937
126.6723, 1352.542
127.1544, 1371.890
127.6365, 1390.967
128.1186, 1408.111
128.6008, 1422.359
129.0829, 1435.129
129.5650, 1448.589
130.0471, 1462.670
130.5292, 1475.925
131.0113, 1486.208
131.4935, 1494.347
131.9756, 1503.935
132.4577, 1516.352
132.9398, 1530.632
133.4219, 1543.510
133.9040, 1554.872
134.3862, 1566.205
134.8683, 1579.663
135.3504, 1595.230
135.8325, 1608.969
136.3146, 1618.431
136.7967, 1624.282
137.2789, 1634.225
137.7610, 1649.240
138.2431, 1666.098
138.7252, 1680.797
139.2073, 1693.150
139.6894, 1704.563
140.1716, 1715.035
140.6537, 1724.219
141.1358, 1736.163
141.6179, 1752.218
142.1000, 1769.971
142.5821, 1784.313
143.0643, 1793.869
143.5464, 1803.294
144.0285, 1814.860
144.5106, 1829.890
144.9927, 1843.537
145.4748, 1855.943
145.9570, 1866.886
146.4391, 1875.005
146.9212, 1879.273
147.4033, 1882.096
147.8854, 1884.585
148.3675, 1886.684
148.8497, 1888.492
149.3318, 1890.234
149.8139, 1891.732
150.2960, 1892.112
150.7781, 1891.349
151.2602, 1889.456
151.7424, 1886.309
152.2245, 1881.773
152.7066, 1876.575
153.1887, 1869.954
153.6708, 1862.228
154.1529, 1856.736
154.6351, 1855.751
155.1172, 1855.783
155.5993, 1854.495
156.0814, 1853.165
156.5635, 1848.934
157.0456, 1839.907
157.5278, 1826.184
158.0099, 1813.651
158.4920, 1803.928
158.9741, 1795.608
159.4562, 1787.401
159.9383, 1781.005
160.4205, 1772.913
160.9026, 1761.359
161.3847, 1746.110
161.8668, 1730.737
162.3489, 1714.901
162.8310, 1700.068
163.3132, 1687.942
163.7953, 1682.114
164.2774, 1676.767
164.7595, 1668.155
165.2416, 1655.284
165.7237, 1643.940
166.2059, 1637.639
166.6880, 1634.442
167.1701, 1631.407
167.6522, 1626.507
168.1343, 1621.778
168.6164, 1618.678
169.0986, 1617.466
169.5807, 1617.341
170.0628, 1619.496
170.5449, 1622.374
171.0270, 1622.885
171.5091, 1615.746
171.9913, 1607.376
172.4734, 1604.629
172.9555, 1609.640
173.4376, 1616.270
173.9197, 1619.479
174.4018, 1620.152
174.8840, 1620.628
175.3661, 1622.789
175.8482, 1625.343
176.3303, 1626.075
176.8124, 1623.686
177.2945, 1621.744
177.7767, 1625.196
178.2588, 1632.894
178.7409, 1639.968
179.2230, 1641.976
179.7051, 1641.481
180.1872, 1643.736
180.6694, 1650.915
181.1515, 1658.819
181.6336, 1660.597
182.1157, 1657.037
182.5978, 1653.740
183.0799, 1655.481
183.5621, 1660.547
184.0442, 1664.030
184.5263, 1664.336
185.0084, 1663.553
185.4905, 1665.307
185.9726, 1669.529
186.4547, 1674.588
186.9369, 1679.423
187.4190, 1684.124
187.9011, 1688.832
188.3832, 1693.707
188.8653, 1698.594
189.3474, 1702.999
189.8296, 1706.950
190.3117, 1711.122
190.7938, 1716.050
191.2759, 1721.716
191.7580, 1728.101
192.2401, 1735.981
192.7223, 1744.230
193.2044, 1748.853
193.6865, 1749.445
194.1686, 1749.869
194.6507, 1753.996
195.1328, 1761.624
195.6150, 1769.262
196.0971, 1776.910
196.5792, 1783.701
197.0613, 1785.447
197.5434, 1781.404
198.0255, 1775.786
198.5077, 1772.935
198.9898, 1772.958
199.4719, 1772.312
199.9540, 1769.920
200.4361, 1766.174
200.9182, 1763.385
201.4004, 1761.980
201.8825, 1760.324
202.3646, 1756.447
202.8467, 1750.113
203.3288, 1743.971
203.8109, 1738.608
204.2931, 1733.995
204.7752, 1730.079
205.2573, 1727.244
205.7394, 1724.207
206.2215, 1719.536
206.7036, 1713.069
207.1858, 1706.077
207.6679, 1698.907
208.1500, 1691.524
208.6321, 1683.100
209.1142, 1673.043
209.5963, 1663.051
210.0785, 1655.093
210.5606, 1649.703
211.0427, 1644.601
211.5248, 1639.523
212.0069, 1634.449
212.4890, 1627.824
212.9712, 1619.013
213.4533, 1609.621
213.9354, 1601.233
214.4175, 1593.432
214.8996, 1587.812
215.3817, 1585.516
215.8639, 1586.572
216.3460, 1585.131
216.8281, 1580.178
217.3102, 1574.036
217.7923, 1569.267
218.2744, 1566.056
218.7566, 1563.612
219.2387, 1561.867
219.7208, 1560.800
220.2029, 1560.233
220.6850, 1560.628
221.1671, 1560.965
221.6493, 1559.895
222.1314, 1556.466
222.6135, 1553.795
223.0956, 1552.743
223.5777, 1553.356
224.0598, 1553.935
224.5420, 1553.783
225.0241, 1554.373
225.5062, 1557.814
225.9883, 1566.346
226.4704, 1572.857
226.9525, 1574.991
227.4347, 1572.516
227.9168, 1572.120
228.3989, 1574.712
228.8810, 1578.404
229.3631, 1581.185
229.8452, 1582.609
230.3274, 1584.022
230.8095, 1585.322
231.2916, 1586.435
231.7737, 1589.758
232.2558, 1596.710
232.7379, 1604.405
233.2201, 1609.848
233.7022, 1612.272
234.1843, 1613.875
234.6664, 1614.462
235.1485, 1613.985
235.6306, 1616.014
236.1128, 1622.963
236.5949, 1629.971
237.0770, 1631.925
237.5591, 1624.989
238.0412, 1620.510
238.5233, 1621.428
239.0055, 1627.751
239.4876, 1631.969
239.9697, 1633.406
240.4518, 1633.537
240.9339, 1633.600
241.4160, 1633.674
241.8982, 1633.531
242.3803, 1633.048
242.8624, 1632.238
243.3445, 1631.503
243.8266, 1630.250
244.3087, 1629.715
244.7909, 1631.504
245.2730, 1638.705
245.7551, 1641.845
246.2372, 1638.264
246.7193, 1628.547
247.2014, 1620.825
247.6836, 1615.584
248.1657, 1611.793
248.6478, 1609.056
249.1299, 1608.539
249.6120, 1606.421
250.0941, 1601.697
250.5762, 1594.761
251.0584, 1588.826
251.5405, 1584.618
252.0226, 1580.543
252.5047, 1575.777
252.9868, 1570.836
253.4689, 1563.843
253.9511, 1553.478
254.4332, 1540.675
254.9153, 1531.266
255.3974, 1527.143
255.8795, 1523.557
256.3617, 1517.465
256.8438, 1507.652
257.3259, 1498.474
257.8080, 1490.342
258.2901, 1483.110
258.7722, 1476.135
259.2544, 1470.090
259.7365, 1463.070
260.2186, 1453.564
260.7007, 1440.659
261.1828, 1428.214
261.6649, 1416.509
262.1471, 1405.359
262.6292, 1393.677
263.1113, 1380.898
263.5934, 1368.830
264.0755, 1358.826
264.5576, 1351.800
265.0398, 1343.078
265.5219, 1331.843
266.0040, 1319.274
266.4861, 1308.044
266.9682, 1299.098
267.4503, 1289.376
267.9325, 1277.068
268.4146, 1260.823
268.8967, 1247.894
269.3788, 1239.522
269.8609, 1233.250
270.3430, 1224.282
270.8252, 1211.658
271.3073, 1199.615
271.7894, 1190.727
272.2715, 1185.501
272.7536, 1177.324
273.2357, 1164.986
273.7179, 1151.551
274.2000, 1142.025
274.6821, 1137.428
275.1642, 1132.315
275.6463, 1124.255
276.1284, 1113.232
276.6106, 1104.308
277.0927, 1097.927
277.5748, 1092.678
278.0569, 1086.538
278.5390, 1079.293
279.0211, 1073.205
279.5032, 1069.444
279.9854, 1067.721
280.4675, 1065.326
280.9496, 1062.416
281.4317, 1058.350
281.9138, 1051.834
282.3959, 1042.757
282.8781, 1034.333
283.3602, 1027.395
283.8423, 1021.722
284.3244, 1016.833
284.8065, 1012.861
285.2886, 1008.682
285.7708, 1003.163
286.2529, 996.3553
286.7350, 989.2358
287.2171, 981.5682
287.6992, 973.9777
288.1813, 968.3959
288.6635, 964.8265
289.1456, 962.4260
289.6277, 960.9402
290.1098, 960.2136
290.5919, 959.4707
291.0740, 958.9380
291.5562, 957.7767
292.0383, 953.8224
292.5204, 947.1670
293.0025, 940.4893
293.4846, 935.6816
293.9667, 932.2673
294.4489, 928.7479
294.9310, 925.2026
295.4131, 920.9849
295.8952, 913.9418
296.3773, 904.7331
296.8594, 897.3442
297.3416, 895.4168
297.8237, 896.7437
298.3058, 896.2896
298.7879, 893.5568
299.2700, 889.7817
299.7521, 885.8569
300.2343, 881.9745
300.7164, 878.9554
301.1985, 877.7923
301.6806, 877.4876
302.1627, 876.6577
302.6448, 875.2549
303.1270, 873.1566
303.6091, 868.7399
304.0912, 863.5690
304.5733, 860.6984
305.0554, 863.9417
305.5375, 868.7524
306.0197, 869.6029
306.5018, 866.6918
306.9839, 863.5759
307.4660, 863.0420
307.9481, 863.9399
308.4302, 864.6185
308.9124, 864.0930
309.3945, 863.6389
309.8766, 865.0747
310.3587, 867.8988
310.8408, 869.3743
311.3229, 866.1371
311.8051, 861.4884
312.2872, 858.9739
312.7693, 860.3874
313.2514, 862.4137
313.7335, 863.3156
314.2156, 863.3156
314.6978, 863.0836
315.1799, 861.8022
315.6620, 861.1027
316.1441, 862.4348
316.6262, 866.7892
317.1083, 871.0862
317.5905, 873.9917
318.0726, 875.9437
318.5547, 877.7495
319.0368, 879.5062
319.5189, 881.3038
320.0010, 882.9167
320.4832, 884.0891
320.9653, 886.3666
321.4474, 891.6128
321.9295, 897.7274
322.4116, 902.2548
322.8937, 902.0406
323.3759, 902.7164
323.8580, 906.3834
324.3401, 913.2440
324.8222, 919.7537
325.3043, 925.3659
325.7864, 930.4630
326.2686, 935.3389
326.7507, 939.3447
327.2328, 943.8798
327.7149, 949.1624
328.1970, 955.1256
328.6791, 961.5671
329.1613, 968.5412
329.6434, 975.8628
330.1255, 983.4227
330.6076, 991.1224
331.0897, 999.1807
331.5718, 1007.481
332.0540, 1016.146
332.5361, 1025.631
333.0182, 1036.497
333.5003, 1047.600
333.9824, 1058.631
334.4645, 1070.282
334.9467, 1079.843
335.4288, 1086.246
335.9109, 1091.267
336.3930, 1097.617
336.8751, 1105.650
337.3572, 1114.314
337.8394, 1123.380
338.3215, 1132.758
338.8036, 1142.784
339.2857, 1153.431
339.7678, 1164.812
340.2499, 1178.001
340.7321, 1193.423
341.2142, 1206.631
341.6963, 1215.866
342.1784, 1222.093
342.6605, 1229.583
343.1426, 1238.374
343.6248, 1247.928
344.1069, 1258.485
344.5890, 1269.795
345.0711, 1278.821
345.5532, 1284.179
346.0353, 1288.190
346.5175, 1296.392
346.9996, 1308.775
347.4817, 1320.188
347.9638, 1327.271
348.4459, 1330.814
348.9280, 1333.667
349.4102, 1336.090
349.8923, 1337.629
350.3744, 1336.984
350.8565, 1334.714
351.3386, 1332.961
351.8207, 1333.677
352.3029, 1335.260
352.7850, 1335.998
353.2671, 1335.908
353.7492, 1332.570
354.2313, 1321.139
354.7134, 1305.440
355.1956, 1292.093
355.6777, 1285.125
356.1598, 1279.879
356.6419, 1271.904
357.1240, 1261.624
357.6061, 1251.274
358.0883, 1243.101
358.5704, 1235.095
359.0525, 1225.059
359.5346, 1211.232
360.0167, 1197.852
360.4988, 1188.356
360.9810, 1181.201
361.4631, 1173.099
361.9452, 1161.409
362.4273, 1149.320
362.9094, 1138.450
363.3915, 1128.973
363.8737, 1120.670
364.3558, 1114.490
364.8379, 1109.161
365.3200, 1103.239
365.8021, 1095.413
366.2842, 1087.895
366.7664, 1081.411
367.2485, 1075.965
367.7306, 1070.891
368.2127, 1066.285
368.6948, 1061.962
369.1769, 1057.762
369.6591, 1054.359
370.1412, 1050.239
370.6233, 1044.366
371.1054, 1037.560
371.5875, 1033.013
372.0696, 1032.262
372.5518, 1031.955
373.0339, 1030.637
373.5160, 1027.730
373.9981, 1025.432
374.4802, 1023.777
374.9623, 1022.670
375.4445, 1022.038
375.9266, 1021.998
376.4087, 1022.140
376.8908, 1022.784
377.3729, 1023.853
377.8550, 1022.094
378.3372, 1016.484
378.8193, 1010.806
379.3014, 1009.024
379.7835, 1011.266
380.2656, 1014.472
380.7477, 1018.679
381.2299, 1022.914
381.7120, 1024.546
382.1941, 1023.522
382.6762, 1021.592
383.1583, 1019.774
383.6404, 1017.978
384.1226, 1015.543
384.6047, 1012.014
385.0868, 1009.262
385.5689, 1011.122
386.0510, 1016.217
386.5331, 1019.403
387.0153, 1016.937
387.4974, 1011.702
387.9795, 1007.586
388.4616, 1004.658
388.9437, 1002.367
389.4258, 1000.550
389.9080, 999.0435
390.3901, 997.6341
390.8722, 996.2249
391.3543, 994.9463
391.8364, 994.0327
392.3185, 993.3856
392.8007, 992.6001
393.2828, 992.2162
393.7649, 991.1404
394.2470, 988.2609
394.7291, 982.4886
395.2112, 977.4313
395.6934, 974.0516
396.1755, 972.2142
396.6576, 971.7251
397.1397, 974.8890
397.6218, 977.1449
398.1039, 976.4291
398.5861, 972.3249
399.0682, 969.3363
399.5503, 968.4672
400.0324, 968.5397
400.5145, 968.7444
400.9966, 970.4248
401.4788, 970.3224
401.9609, 967.2291
402.4430, 962.1071
402.9251, 958.7502
403.4072, 958.0412
403.8893, 957.7635
404.3714, 956.8001
404.8535, 954.7006
405.3357, 953.8832
405.8178, 954.8026
406.2999, 956.3945
406.7820, 957.1005
407.2641, 956.7719
407.7462, 956.3734
408.2284, 956.0796
408.7105, 955.9491
409.1926, 956.8387
409.6747, 959.0566
410.1568, 960.0626
410.6389, 956.0172
411.1211, 948.1848
411.6032, 943.9806
412.0853, 945.5067
412.5674, 949.3979
413.0495, 950.7950
413.5316, 950.0597
414.0138, 949.0005
414.4959, 947.7638
414.9780, 947.1279
415.4601, 948.9299
415.9422, 953.4469
416.4243, 957.5712
416.9065, 958.0358
417.3886, 956.6445
417.8707, 956.0785
418.3528, 958.0721
418.8349, 960.4022
419.3170, 961.4484
419.7992, 961.5300
420.2813, 962.1044
420.7634, 964.6229
421.2455, 967.3185
421.7276, 969.0093
422.2097, 969.3027
422.6919, 969.1221
423.1740, 968.3750
423.6561, 967.3696
424.1382, 966.5596
424.6203, 965.5739
425.1024, 965.2599
425.5846, 965.9603
426.0667, 967.7170
426.5488, 969.7148
427.0309, 973.1139
427.5130, 975.7531
427.9951, 975.8817
428.4773, 971.6838
428.9594, 968.9767
429.4415, 968.4938
429.9236, 969.5885
430.4057, 970.3203
430.8878, 970.0192
431.3700, 971.5065
431.8521, 977.1501
432.3342, 986.9573
432.8163, 992.9990
433.2984, 994.8045
433.7805, 994.5299
434.2627, 993.4230
434.7448, 991.7817
435.2269, 992.9009
435.7090, 998.7748
436.1911, 1006.728
436.6732, 1010.951
437.1554, 1011.883
437.6375, 1012.943
438.1196, 1016.666
438.6017, 1021.912
439.0838, 1027.052
439.5659, 1032.014
440.0481, 1036.247
440.5302, 1038.433
441.0123, 1039.741
441.4944, 1042.131
441.9765, 1046.316
442.4586, 1051.912
442.9408, 1059.707
443.4229, 1069.250
443.9050, 1077.509
444.3871, 1081.665
444.8692, 1085.068
445.3513, 1089.923
445.8335, 1097.303
446.3156, 1104.898
446.7977, 1112.731
447.2798, 1120.412
447.7619, 1127.196
448.2440, 1131.038
448.7262, 1136.119
449.2083, 1143.907
449.6904, 1154.655
450.1725, 1163.507
450.6546, 1169.189
451.1367, 1174.443
451.6189, 1181.487
452.1010, 1191.109
452.5831, 1199.881
453.0652, 1207.166
453.5473, 1213.925
454.0294, 1222.948
454.5116, 1234.631
454.9937, 1245.669
455.4758, 1254.320
455.9579, 1261.014
456.4400, 1268.339
456.9221, 1276.377
457.4043, 1284.748
457.8864, 1293.973
458.3685, 1303.334
458.8506, 1310.681
459.3327, 1314.254
459.8148, 1317.516
460.2970, 1325.613
460.7791, 1337.153
461.2612, 1347.293
461.7433, 1351.876
462.2254, 1354.833
462.7076, 1359.535
463.1897, 1366.459
463.6718, 1373.673
464.1539, 1380.395
464.6360, 1386.794
465.1181, 1392.920
465.6003, 1399.326
466.0824, 1404.907
466.5645, 1408.649
467.0466, 1411.138
467.5287, 1414.609
468.0108, 1421.354
468.4930, 1427.224
468.9751, 1430.118
469.4572, 1428.312
469.9393, 1430.025
470.4214, 1437.298
470.9035, 1446.191
471.3857, 1452.174
471.8678, 1454.023
472.3499, 1456.905
472.8320, 1462.155
473.3141, 1468.927
473.7962, 1473.863
474.2784, 1476.576
474.7605, 1480.348
475.2426, 1488.619
475.7247, 1500.255
476.2068, 1507.431
476.6889, 1509.414
477.1711, 1510.243
477.6532, 1514.689
478.1353, 1521.611
478.6174, 1527.679
479.0995, 1530.453
479.5816, 1533.460
480.0638, 1541.419
480.5459, 1553.215
481.0280, 1564.638
481.5101, 1572.609
481.9922, 1579.694
482.4743, 1587.970
482.9565, 1597.956
483.4386, 1607.705
483.9207, 1616.497
484.4028, 1624.533
484.8849, 1632.018
485.3670, 1639.542
485.8492, 1645.828
486.3313, 1648.680
486.8134, 1649.465
487.2955, 1655.227
487.7776, 1671.449
488.2597, 1685.915
488.7419, 1692.648
489.2240, 1688.853
489.7061, 1691.286
490.1882, 1702.672
490.6703, 1716.298
491.1524, 1724.783
491.6346, 1727.647
492.1167, 1729.032
492.5988, 1729.392
493.0809, 1729.107
493.5630, 1729.526
494.0451, 1730.575
494.5273, 1730.570
495.0094, 1727.743
495.4915, 1723.228
495.9736, 1719.964
496.4557, 1718.193
496.9378, 1715.772
497.4200, 1711.353
497.9021, 1704.955
498.3842, 1696.652
498.8663, 1686.008
499.3484, 1674.015
499.8305, 1660.245
500.3127, 1645.554
500.7948, 1632.144
501.2769, 1624.366
501.7590, 1614.869
502.2411, 1599.247
502.7232, 1576.004
503.2054, 1554.395
503.6875, 1537.344
504.1696, 1521.452
504.6517, 1504.543
505.1338, 1486.273
505.6159, 1467.538
506.0981, 1448.038
506.5802, 1428.345
507.0623, 1409.911
507.5444, 1392.711
508.0265, 1376.129
508.5086, 1359.997
508.9908, 1344.214
509.4729, 1327.443
509.9550, 1309.484
510.4371, 1292.564
510.9192, 1279.844
511.4013, 1270.136
511.8835, 1258.961
512.3655, 1245.229
512.8477, 1231.047
513.3298, 1219.077
513.8119, 1208.595
514.2940, 1197.861
514.7761, 1184.776
515.2582, 1172.170
515.7404, 1162.195
516.2225, 1154.661
516.7046, 1147.976
517.1867, 1142.109
517.6688, 1136.375
518.1509, 1130.317
518.6331, 1123.736
519.1152, 1117.092
519.5973, 1110.506
520.0794, 1103.872
520.5615, 1097.092
521.0436, 1089.005
521.5258, 1082.517
522.0079, 1078.635
522.4900, 1076.738
522.9721, 1073.826
523.4542, 1069.838
523.9363, 1065.177
524.4185, 1059.142
524.9006, 1051.752
525.3827, 1048.715
525.8648, 1050.789
526.3469, 1053.377
526.8290, 1051.086
527.3112, 1044.971
527.7933, 1038.915
528.2754, 1033.570
528.7575, 1029.120
529.2396, 1026.440
529.7217, 1024.876
530.2039, 1022.562
530.6860, 1017.947
531.1681, 1012.634
531.6502, 1007.366
532.1323, 1002.178
532.6144, 997.7632
533.0966, 994.2769
533.5787, 991.6595
534.0608, 989.9030
534.5429, 989.9955
535.0250, 989.3403
535.5071, 987.3451
535.9893, 984.6376
536.4714, 982.1357
536.9535, 979.9337
537.4356, 977.8387
537.9177, 976.1815
538.3998, 974.6650
538.8820, 971.4434
539.3641, 966.4287
539.8462, 960.3783
540.3283, 953.3822
540.8104, 945.6629
541.2925, 938.4408
541.7747, 931.7686
542.2568, 925.8391
542.7389, 921.0170
543.2210, 917.0947
543.7031, 913.6413
544.1852, 910.7752
544.6674, 907.9608
545.1495, 905.0463
545.6316, 901.8542
546.1137, 897.9351
546.5958, 893.6543
547.0779, 888.1173
547.5601, 880.1075
548.0422, 869.5070
548.5243, 860.1322
549.0064, 852.4487
549.4885, 846.4976
549.9706, 842.4091
550.4528, 841.4891
550.9349, 839.9324
551.4170, 837.7722
551.8991, 834.9032
552.3812, 831.2367
552.8633, 826.8629
553.3455, 821.1294
553.8276, 813.2304
554.3097, 804.2224
554.7918, 797.7825
555.2739, 794.0160
555.7560, 790.5337
556.2382, 785.7691
556.7203, 780.3074
557.2024, 775.4219
557.6845, 771.1819
558.1666, 767.2363
558.6487, 763.5392
559.1309, 759.9078
559.6130, 756.2418
560.0951, 752.7612
560.5772, 748.7018
561.0593, 742.7115
561.5414, 736.0182
562.0236, 730.8768
562.5057, 729.7677
562.9878, 728.1840
563.4699, 724.0202
563.9520, 717.7013
564.4341, 713.9263
564.9163, 714.8910
565.3984, 715.2815
565.8805, 711.8119
566.3626, 703.2918
566.8447, 698.6854
567.3268, 699.0807
567.8090, 700.1774
568.2911, 696.3120
568.7732, 688.1283
569.2553, 681.7830
569.7374, 678.7477
570.2195, 677.5151
570.7017, 676.4101
571.1838, 675.3235
571.6659, 673.9352
572.1480, 672.3986
572.6301, 670.2480
573.1122, 666.2117
573.5944, 660.6437
574.0765, 656.8027
574.5586, 658.6305
575.0407, 660.7777
575.5228, 659.7267
576.0049, 653.6288
576.4871, 648.3880
576.9692, 644.7616
577.4513, 641.9852
577.9334, 639.2434
578.4155, 636.1924
578.8976, 634.2359
579.3798, 634.0610
579.8619, 634.6708
580.3440, 633.7073
580.8261, 631.1282
581.3082, 627.6090
581.7903, 622.4279
582.2725, 616.8129
582.7546, 615.2527
583.2367, 617.4376
583.7188, 619.3931
584.2009, 617.2424
584.6830, 613.5100
585.1652, 611.7763
585.6473, 612.8055
586.1294, 613.6702
586.6115, 612.8151
587.0936, 610.8197
587.5757, 608.2984
588.0579, 605.1509
588.5400, 601.7786
589.0221, 597.4659
589.5042, 593.0406
589.9863, 590.4539
590.4684, 590.9705
