##NAMES=Maxwellite
##RRUFFID=R060955
##IDEAL CHEMISTRY=NaFe^3+^As^5+^O_4_F
##LOCALITY=Squaw Creek Tin mine, Catron County, New Mexico, USA
##OWNER=RRUFF
##SOURCE=Bob Jenkins
##DESCRIPTION=Red prismatic crystals in quartz matrix associated with hematite
##STATUS=The identification of this mineral is confirmed by single-crystal X-ray diffraction and chemical analysis.
##URL=rruff.info/R060955
##MEASURED CHEMISTRY=(Na_0.56_Ca_0.41_[box]_0.03_)_Σ=1_(Fe^3+^_0.24_Al_0.24_Fe^2+^_0.23_Mg_0.19_Ti_0.06_Mn_0.03_)_Σ=1_(As_0.99_P_0.01_)_Σ=1_O_4_)F_1.00_ ; trace of Sn, Zr and Nd ; Fe3 and Fe2 split by charge balance
145.6288, 5741.887
146.1110, 5779.896
146.5931, 5818.035
147.0752, 5859.916
147.5573, 5889.950
148.0394, 5901.412
148.5215, 5902.402
149.0037, 5907.520
149.4858, 5927.199
149.9679, 5941.208
150.4500, 5942.642
150.9321, 5923.135
151.4142, 5904.757
151.8964, 5880.950
152.3785, 5857.881
152.8606, 5852.561
153.3427, 5887.088
153.8248, 5925.078
154.3069, 5949.865
154.7890, 5947.369
155.2712, 5946.329
155.7533, 5952.378
156.2354, 5964.176
156.7175, 5973.261
157.1996, 5970.865
157.6817, 5969.054
158.1639, 5976.171
158.6460, 6001.459
159.1281, 6028.396
159.6102, 6050.065
160.0923, 6066.367
160.5744, 6087.839
161.0566, 6127.632
161.5387, 6170.403
162.0208, 6175.502
162.5029, 6208.050
162.9850, 6228.042
163.4671, 6236.155
163.9493, 6196.804
164.4314, 6218.742
164.9135, 6216.118
165.3956, 6212.486
165.8777, 6243.050
166.3598, 6210.602
166.8420, 6240.625
167.3241, 6227.603
167.8062, 6226.967
168.2883, 6231.268
168.7704, 6237.939
169.2525, 6246.849
169.7346, 6257.533
170.2168, 6274.167
170.6989, 6290.579
171.1810, 6298.820
171.6631, 6293.411
172.1452, 6289.442
172.6273, 6304.273
173.1095, 6332.883
173.5916, 6357.728
174.0737, 6359.836
174.5558, 6353.374
175.0379, 6360.127
175.5201, 6391.929
176.0022, 6428.895
176.4843, 6444.577
176.9664, 6441.769
177.4485, 6440.321
177.9306, 6462.861
178.4128, 6497.041
178.8949, 6516.396
179.3770, 6502.223
179.8591, 6477.883
180.3412, 6484.990
180.8233, 6522.937
181.3055, 6560.578
181.7876, 6564.329
182.2697, 6544.094
182.7518, 6531.859
183.2339, 6541.978
183.7160, 6566.461
184.1982, 6589.311
184.6803, 6610.638
185.1624, 6628.426
185.6445, 6639.664
186.1266, 6644.963
186.6087, 6648.638
187.0908, 6651.994
187.5730, 6654.927
188.0551, 6657.392
188.5372, 6659.631
189.0193, 6660.411
189.5014, 6657.763
189.9835, 6651.827
190.4657, 6645.019
190.9478, 6635.385
191.4299, 6624.415
191.9120, 6624.335
192.3941, 6637.628
192.8762, 6656.720
193.3584, 6671.094
193.8405, 6680.795
194.3226, 6685.720
194.8047, 6681.045
195.2868, 6667.734
195.7689, 6668.704
196.2511, 6690.253
196.7332, 6719.764
197.2153, 6727.291
197.6974, 6709.997
198.1795, 6693.874
198.6616, 6696.015
199.1438, 6717.416
199.6259, 6735.758
200.1080, 6748.294
200.5901, 6757.484
201.0722, 6770.693
201.5543, 6789.265
202.0364, 6806.172
202.5186, 6812.682
203.0007, 6805.835
203.4828, 6814.056
203.9649, 6846.678
204.4470, 6894.475
204.9291, 6918.422
205.4113, 6910.751
205.8934, 6901.496
206.3755, 6917.283
206.8576, 6965.655
207.3397, 6998.534
207.8218, 7002.658
208.3040, 6985.032
208.7861, 6990.985
209.2682, 7032.783
209.7503, 7072.760
210.2324, 7073.649
210.7145, 7021.664
211.1967, 6983.735
211.6788, 6973.093
212.1609, 6987.942
212.6430, 7007.995
213.1251, 7035.611
213.6072, 7064.790
214.0894, 7091.258
214.5715, 7116.496
215.0536, 7134.267
215.5357, 7139.894
216.0178, 7133.628
216.4999, 7135.533
216.9820, 7144.098
217.4642, 7162.122
217.9463, 7197.751
218.4284, 7264.925
218.9105, 7313.235
219.3926, 7326.741
219.8747, 7303.188
220.3569, 7282.936
220.8390, 7261.986
221.3211, 7248.691
221.8032, 7253.430
222.2853, 7282.017
222.7674, 7317.136
223.2496, 7358.093
223.7317, 7407.875
224.2138, 7441.707
224.6959, 7455.979
225.1780, 7458.227
225.6601, 7455.431
226.1423, 7437.642
226.6244, 7434.608
227.1065, 7458.594
227.5886, 7516.328
228.0707, 7561.417
228.5528, 7589.762
229.0350, 7608.622
229.5171, 7627.933
229.9992, 7648.255
230.4813, 7668.063
230.9634, 7685.076
231.4455, 7696.352
231.9276, 7720.018
232.4098, 7765.586
232.8919, 7817.651
233.3740, 7848.690
233.8561, 7843.666
234.3382, 7843.710
234.8203, 7862.507
235.3025, 7904.745
235.7846, 7948.125
236.2667, 7993.676
236.7488, 8040.046
237.2309, 8083.747
237.7130, 8121.422
238.1952, 8161.363
238.6773, 8206.844
239.1594, 8260.065
239.6415, 8312.378
240.1236, 8370.550
240.6057, 8424.979
241.0879, 8454.852
241.5700, 8435.136
242.0521, 8430.465
242.5342, 8467.488
243.0163, 8564.054
243.4984, 8644.447
243.9806, 8701.452
244.4627, 8745.421
244.9448, 8796.499
245.4269, 8861.835
245.9090, 8922.326
246.3911, 8970.688
246.8732, 9002.340
247.3554, 9034.056
247.8375, 9062.777
248.3196, 9092.609
248.8017, 9134.612
249.2838, 9202.734
249.7659, 9259.262
250.2481, 9288.146
250.7302, 9278.121
251.2123, 9277.227
251.6944, 9287.489
252.1765, 9306.530
252.6586, 9332.894
253.1408, 9379.919
253.6229, 9412.340
254.1050, 9414.242
254.5871, 9374.607
255.0692, 9343.238
255.5513, 9323.176
256.0334, 9309.898
256.5156, 9294.894
256.9977, 9279.505
257.4798, 9259.287
257.9619, 9228.518
258.4440, 9177.880
258.9261, 9153.383
259.4083, 9172.516
259.8904, 9205.171
260.3725, 9187.840
260.8546, 9092.548
261.3367, 9004.028
261.8188, 8956.924
262.3010, 8961.560
262.7831, 8963.813
263.2652, 8967.807
263.7473, 8965.829
264.2294, 8941.122
264.7115, 8885.197
265.1937, 8827.260
265.6758, 8776.785
266.1579, 8733.731
266.6400, 8704.045
267.1221, 8694.282
267.6042, 8691.809
268.0864, 8674.063
268.5685, 8636.365
269.0506, 8596.982
269.5327, 8561.198
270.0148, 8528.604
270.4969, 8505.645
270.9791, 8496.476
271.4612, 8491.837
271.9433, 8476.740
272.4254, 8449.508
272.9075, 8418.995
273.3896, 8384.666
273.8718, 8345.666
274.3539, 8326.276
274.8360, 8333.032
275.3181, 8348.213
275.8002, 8342.458
276.2823, 8310.929
276.7645, 8284.817
277.2466, 8278.956
277.7287, 8293.254
278.2108, 8292.660
278.6929, 8273.012
279.1750, 8247.421
279.6572, 8232.907
280.1393, 8229.908
280.6214, 8232.708
281.1035, 8241.038
281.5856, 8254.214
282.0677, 8267.365
282.5499, 8282.576
283.0320, 8291.194
283.5141, 8276.167
283.9962, 8236.774
284.4783, 8206.473
284.9604, 8199.214
285.4425, 8211.322
285.9247, 8221.559
286.4068, 8229.680
286.8889, 8237.505
287.3710, 8247.428
287.8531, 8259.313
288.3352, 8270.471
288.8174, 8280.223
289.2995, 8288.629
289.7816, 8296.275
290.2637, 8303.143
290.7458, 8307.755
291.2279, 8306.458
291.7101, 8300.462
292.1922, 8297.009
292.6743, 8297.227
293.1564, 8301.807
293.6385, 8315.735
294.1206, 8339.292
294.6028, 8360.892
295.0849, 8361.392
295.5670, 8349.932
296.0491, 8359.003
296.5312, 8405.492
297.0133, 8470.145
297.4955, 8530.758
297.9776, 8585.225
298.4597, 8613.779
298.9418, 8577.068
299.4239, 8502.891
299.9060, 8454.972
300.3882, 8458.017
300.8703, 8482.132
301.3524, 8487.918
301.8345, 8477.908
302.3166, 8469.371
302.7987, 8471.285
303.2809, 8482.515
303.7630, 8503.604
304.2451, 8539.772
304.7272, 8575.178
305.2093, 8588.028
305.6914, 8583.787
306.1736, 8583.487
306.6557, 8607.759
307.1378, 8639.814
307.6199, 8660.481
308.1020, 8665.973
308.5841, 8661.913
309.0663, 8650.250
309.5484, 8632.482
310.0305, 8612.736
310.5126, 8590.141
310.9947, 8568.247
311.4768, 8550.312
311.9590, 8537.125
312.4411, 8526.935
312.9232, 8520.346
313.4053, 8516.031
313.8874, 8511.612
314.3695, 8511.181
314.8517, 8506.616
315.3337, 8490.154
315.8159, 8458.263
316.2980, 8429.951
316.7801, 8416.334
317.2622, 8410.450
317.7443, 8402.562
318.2264, 8385.978
318.7086, 8369.978
319.1907, 8361.430
319.6728, 8362.244
320.1549, 8355.260
320.6370, 8325.106
321.1191, 8288.771
321.6013, 8263.524
322.0834, 8262.169
322.5655, 8263.630
323.0476, 8263.446
323.5297, 8261.305
324.0118, 8256.572
324.4940, 8250.935
324.9761, 8241.492
325.4582, 8226.019
325.9403, 8192.623
326.4224, 8165.761
326.9045, 8152.333
327.3867, 8151.069
327.8688, 8143.838
328.3509, 8126.399
328.8330, 8105.569
329.3151, 8084.789
329.7972, 8062.183
330.2794, 8042.393
330.7615, 8026.711
331.2436, 8014.185
331.7257, 8001.446
332.2078, 7992.803
332.6899, 7978.980
333.1721, 7954.114
333.6542, 7909.172
334.1363, 7873.378
334.6184, 7848.862
335.1005, 7832.813
335.5826, 7818.392
336.0648, 7805.991
336.5469, 7794.435
337.0290, 7781.915
337.5111, 7766.483
337.9932, 7760.481
338.4753, 7768.132
338.9575, 7779.501
339.4396, 7777.529
339.9217, 7758.591
340.4038, 7741.408
340.8859, 7734.390
341.3680, 7736.945
341.8502, 7729.029
342.3323, 7707.401
342.8144, 7685.546
343.2965, 7682.618
343.7786, 7698.979
344.2607, 7712.456
344.7429, 7717.333
345.2250, 7714.773
345.7071, 7708.145
346.1892, 7697.373
346.6713, 7683.986
347.1534, 7665.736
347.6355, 7644.560
348.1176, 7629.577
348.5998, 7622.004
349.0819, 7622.111
349.5640, 7633.662
350.0461, 7655.688
350.5282, 7677.061
351.0103, 7691.683
351.4925, 7699.637
351.9746, 7700.502
352.4567, 7692.331
352.9388, 7680.796
353.4209, 7671.917
353.9030, 7665.037
354.3852, 7657.958
354.8673, 7653.346
355.3494, 7646.373
355.8315, 7628.437
356.3136, 7595.957
356.7957, 7567.911
357.2779, 7567.548
357.7600, 7581.255
358.2421, 7584.149
358.7242, 7547.040
359.2063, 7509.267
359.6884, 7502.670
360.1706, 7531.062
360.6527, 7551.363
361.1348, 7534.915
361.6169, 7502.578
362.0990, 7477.133
362.5811, 7469.832
363.0633, 7465.604
363.5454, 7461.240
364.0275, 7456.243
364.5096, 7447.069
364.9917, 7423.812
365.4738, 7401.499
365.9560, 7390.043
366.4381, 7405.755
366.9202, 7415.777
367.4023, 7412.971
367.8844, 7400.963
368.3665, 7393.442
368.8487, 7400.156
369.3308, 7404.022
369.8129, 7397.216
370.2950, 7369.499
370.7771, 7352.204
371.2592, 7349.506
371.7414, 7355.710
372.2235, 7361.448
372.7056, 7370.319
373.1877, 7372.301
373.6698, 7361.922
374.1519, 7336.881
374.6341, 7316.881
375.1162, 7301.103
375.5983, 7291.356
376.0804, 7290.489
376.5625, 7299.442
377.0446, 7313.988
377.5267, 7337.629
378.0089, 7366.799
378.4910, 7374.760
378.9731, 7358.386
379.4552, 7335.645
379.9373, 7320.086
380.4194, 7311.625
380.9016, 7308.848
381.3837, 7313.255
381.8658, 7321.396
382.3479, 7325.203
382.8300, 7325.099
383.3121, 7326.673
383.7943, 7333.320
384.2764, 7344.285
384.7585, 7358.249
385.2406, 7375.238
385.7227, 7393.555
386.2048, 7412.932
386.6870, 7431.715
387.1691, 7445.688
387.6512, 7453.560
388.1333, 7454.476
388.6154, 7442.264
389.0975, 7416.153
389.5797, 7396.339
390.0618, 7399.100
390.5439, 7416.518
391.0260, 7438.690
391.5081, 7480.879
391.9902, 7510.492
392.4724, 7496.728
392.9545, 7448.556
393.4366, 7416.628
393.9187, 7445.860
394.4008, 7485.064
394.8829, 7497.408
395.3651, 7452.579
395.8472, 7418.568
396.3293, 7419.883
396.8114, 7443.786
397.2935, 7461.836
397.7756, 7465.872
398.2578, 7465.951
398.7399, 7464.096
399.2220, 7457.169
399.7041, 7457.666
400.1862, 7475.744
400.6683, 7496.101
401.1505, 7500.657
401.6326, 7480.216
402.1147, 7457.736
402.5968, 7434.232
403.0789, 7410.219
403.5610, 7401.457
404.0432, 7415.092
404.5253, 7432.652
405.0074, 7440.356
405.4895, 7436.603
405.9716, 7428.771
406.4537, 7413.767
406.9359, 7398.367
407.4180, 7404.674
407.9001, 7436.021
408.3822, 7464.888
408.8643, 7476.380
409.3464, 7471.719
409.8285, 7459.236
410.3106, 7437.400
410.7928, 7415.221
411.2749, 7402.855
411.7570, 7399.782
412.2391, 7403.447
412.7212, 7418.234
413.2033, 7436.907
413.6855, 7444.801
414.1676, 7442.317
414.6497, 7439.598
415.1318, 7447.160
415.6139, 7458.929
416.0960, 7464.459
416.5782, 7454.280
417.0603, 7447.162
417.5424, 7461.838
418.0245, 7492.332
418.5066, 7520.255
418.9887, 7540.154
419.4709, 7552.238
419.9530, 7553.966
420.4351, 7540.486
420.9172, 7533.545
421.3993, 7554.498
421.8814, 7582.909
422.3636, 7591.319
422.8457, 7539.768
423.3278, 7501.876
423.8099, 7504.500
424.2920, 7550.502
424.7741, 7587.773
425.2563, 7617.188
425.7384, 7635.065
426.2205, 7637.056
426.7026, 7606.624
427.1847, 7589.575
427.6668, 7594.463
428.1490, 7613.513
428.6311, 7621.951
429.1132, 7612.864
429.5953, 7607.871
430.0774, 7618.337
430.5595, 7646.091
431.0417, 7670.640
431.5238, 7692.480
432.0059, 7709.526
432.4880, 7709.477
432.9701, 7692.000
433.4522, 7704.101
433.9344, 7783.893
434.4165, 7893.796
434.8986, 7913.961
435.3807, 7844.410
435.8628, 7768.488
436.3449, 7758.347
436.8271, 7792.175
437.3092, 7818.415
437.7913, 7824.827
438.2734, 7826.847
438.7555, 7838.702
439.2376, 7859.031
439.7197, 7884.188
440.2018, 7917.089
440.6840, 7950.790
441.1661, 7981.168
441.6482, 8007.854
442.1303, 8026.455
442.6124, 8023.401
443.0945, 8015.337
443.5767, 8019.998
444.0588, 8054.967
444.5409, 8090.122
445.0230, 8117.272
445.5051, 8137.367
445.9872, 8155.547
446.4694, 8165.081
446.9515, 8179.049
447.4336, 8205.029
447.9157, 8254.430
448.3978, 8293.471
448.8799, 8318.848
449.3621, 8335.383
449.8442, 8350.024
450.3263, 8363.496
450.8084, 8372.727
451.2905, 8372.033
451.7726, 8362.733
452.2548, 8379.090
452.7369, 8430.063
453.2190, 8482.168
453.7011, 8504.453
454.1832, 8496.602
454.6653, 8490.370
455.1475, 8488.056
455.6296, 8493.057
456.1117, 8516.942
456.5938, 8557.572
457.0759, 8595.667
457.5580, 8618.942
458.0402, 8632.423
458.5223, 8647.732
459.0044, 8666.244
459.4865, 8676.948
459.9686, 8654.984
460.4507, 8621.976
460.9329, 8613.151
461.4150, 8664.488
461.8971, 8720.063
462.3792, 8738.578
462.8613, 8728.861
463.3434, 8726.639
463.8256, 8758.076
464.3077, 8794.183
464.7898, 8815.357
465.2719, 8808.719
465.7540, 8813.298
466.2361, 8850.254
466.7183, 8898.881
467.2004, 8930.310
467.6825, 8928.104
468.1646, 8924.875
468.6467, 8925.575
469.1288, 8930.056
469.6110, 8934.438
470.0930, 8933.766
470.5752, 8939.743
471.0573, 8964.285
471.5394, 9015.258
472.0215, 9049.057
472.5036, 9059.328
472.9857, 9055.402
473.4679, 9053.382
473.9500, 9053.304
474.4321, 9055.099
474.9142, 9062.246
475.3963, 9071.357
475.8784, 9067.290
476.3606, 9049.754
476.8427, 9032.859
477.3248, 9026.453
477.8069, 9030.620
478.2890, 9049.027
478.7711, 9093.225
479.2533, 9132.127
479.7354, 9121.630
480.2175, 9080.659
480.6996, 9059.055
481.1817, 9109.095
481.6638, 9166.942
482.1460, 9186.516
482.6281, 9159.439
483.1102, 9132.367
483.5923, 9107.503
484.0744, 9096.047
484.5565, 9108.207
485.0387, 9188.342
485.5208, 9242.464
486.0029, 9240.891
486.4850, 9200.828
486.9671, 9183.448
487.4492, 9208.060
487.9314, 9229.929
488.4135, 9226.391
488.8956, 9187.401
489.3777, 9186.528
489.8598, 9245.648
490.3419, 9307.046
490.8241, 9291.204
491.3062, 9190.026
491.7883, 9113.372
492.2704, 9089.634
492.7525, 9102.604
493.2346, 9114.727
493.7168, 9125.826
494.1989, 9137.121
494.6810, 9155.662
495.1631, 9173.423
495.6452, 9168.572
496.1273, 9135.487
496.6095, 9106.384
497.0916, 9119.396
497.5737, 9154.218
498.0558, 9179.627
498.5379, 9174.506
499.0201, 9164.712
499.5022, 9166.633
499.9843, 9177.248
500.4664, 9182.170
500.9485, 9169.690
501.4306, 9155.371
501.9127, 9147.785
502.3948, 9150.423
502.8770, 9153.462
503.3591, 9151.201
503.8412, 9151.180
504.3233, 9163.965
504.8054, 9205.814
505.2875, 9230.307
505.7697, 9221.151
506.2518, 9186.422
506.7339, 9179.128
507.2160, 9206.381
507.6981, 9238.122
508.1802, 9257.143
508.6624, 9263.762
509.1445, 9265.530
509.6266, 9262.153
510.1087, 9256.862
510.5908, 9248.736
511.0729, 9240.962
511.5551, 9247.450
512.0372, 9286.623
512.5193, 9330.568
513.0014, 9336.661
513.4835, 9311.997
513.9656, 9290.274
514.4478, 9294.886
514.9299, 9309.375
515.4120, 9319.587
515.8941, 9322.208
516.3762, 9325.371
516.8583, 9328.435
517.3405, 9334.984
517.8226, 9349.232
518.3047, 9386.839
518.7868, 9415.735
519.2689, 9418.367
519.7510, 9402.474
520.2332, 9415.462
520.7153, 9485.761
521.1974, 9545.451
521.6795, 9557.949
522.1616, 9508.905
522.6437, 9486.466
523.1259, 9498.372
523.6080, 9522.832
524.0901, 9534.218
524.5722, 9532.456
525.0543, 9526.690
525.5364, 9518.387
526.0186, 9508.166
526.5007, 9493.551
526.9828, 9476.052
527.4649, 9466.506
527.9470, 9479.701
528.4291, 9501.464
528.9113, 9512.342
529.3934, 9510.104
529.8755, 9504.345
530.3576, 9501.874
530.8397, 9499.311
531.3218, 9492.672
531.8040, 9477.253
532.2861, 9461.651
532.7682, 9455.359
533.2503, 9452.120
533.7324, 9433.403
534.2145, 9374.915
534.6967, 9321.882
535.1788, 9291.034
535.6609, 9287.107
536.1430, 9272.961
536.6251, 9241.502
537.1072, 9209.948
537.5894, 9197.868
538.0715, 9210.964
538.5536, 9207.187
539.0357, 9175.989
539.5178, 9133.240
539.9999, 9116.274
540.4821, 9122.954
540.9642, 9114.650
541.4463, 9056.587
541.9284, 8975.563
542.4105, 8928.271
542.8926, 8913.337
543.3748, 8904.394
543.8569, 8883.218
544.3390, 8856.341
544.8211, 8833.557
545.3032, 8823.331
545.7853, 8800.055
546.2675, 8733.610
546.7495, 8649.571
547.2316, 8587.842
547.7137, 8578.912
548.1959, 8572.690
548.6780, 8558.892
549.1601, 8537.140
549.6422, 8505.551
550.1243, 8458.346
550.6064, 8408.573
551.0886, 8361.356
551.5707, 8314.994
552.0528, 8279.502
552.5349, 8257.993
553.0170, 8241.994
553.4991, 8221.279
553.9813, 8195.937
554.4634, 8170.028
554.9455, 8145.193
555.4276, 8119.546
555.9097, 8089.217
556.3918, 8055.008
556.8740, 8020.128
557.3561, 7979.660
557.8382, 7943.446
558.3203, 7926.404
558.8024, 7930.313
559.2845, 7932.398
559.7667, 7919.290
560.2488, 7898.788
560.7309, 7877.959
561.2130, 7860.643
561.6951, 7839.889
562.1772, 7811.479
562.6594, 7778.797
563.1415, 7748.404
563.6236, 7711.407
564.1057, 7690.356
564.5878, 7697.450
565.0699, 7730.143
565.5521, 7741.612
566.0342, 7726.626
566.5163, 7705.144
566.9984, 7689.127
567.4805, 7678.620
567.9626, 7674.513
568.4448, 7678.260
568.9269, 7682.557
569.4090, 7675.973
569.8911, 7662.543
570.3732, 7653.180
570.8553, 7650.650
571.3375, 7655.221
571.8196, 7673.059
572.3017, 7699.613
572.7838, 7718.832
573.2659, 7727.802
573.7480, 7723.875
574.2302, 7697.726
574.7123, 7642.238
575.1944, 7608.466
575.6765, 7632.333
576.1586, 7663.237
576.6407, 7662.267
577.1229, 7600.018
577.6050, 7565.798
578.0871, 7575.722
578.5692, 7606.833
579.0513, 7612.683
579.5334, 7589.898
580.0156, 7564.436
580.4977, 7540.284
580.9798, 7521.555
581.4619, 7525.497
581.9440, 7551.111
582.4261, 7579.258
582.9083, 7593.820
583.3904, 7602.416
583.8725, 7619.528
584.3546, 7648.267
584.8367, 7671.616
585.3188, 7674.103
585.8010, 7666.267
586.2831, 7660.564
586.7652, 7664.224
587.2473, 7666.221
587.7294, 7661.520
588.2115, 7652.992
588.6937, 7649.104
589.1758, 7658.753
589.6579, 7661.785
590.1400, 7649.392
590.6221, 7621.936
591.1042, 7605.579
591.5864, 7601.999
592.0685, 7605.319
592.5506, 7614.223
593.0327, 7628.057
593.5148, 7637.500
593.9969, 7642.240
594.4791, 7640.940
594.9612, 7627.001
595.4433, 7605.789
595.9254, 7591.150
596.4075, 7593.539
596.8896, 7597.114
597.3718, 7582.850
597.8539, 7558.242
598.3360, 7544.585
598.8181, 7561.568
599.3002, 7582.228
599.7823, 7592.166
600.2645, 7589.168
600.7466, 7592.413
601.2287, 7609.707
601.7108, 7627.633
602.1929, 7636.860
602.6750, 7630.533
603.1572, 7637.000
603.6393, 7662.656
604.1214, 7692.165
604.6035, 7702.863
605.0856, 7694.807
605.5677, 7683.635
606.0499, 7670.169
606.5320, 7659.866
607.0141, 7665.945
607.4962, 7685.164
607.9783, 7703.463
608.4604, 7712.560
608.9425, 7716.916
609.4246, 7719.808
609.9067, 7721.460
610.3889, 7722.580
610.8710, 7716.327
611.3531, 7714.323
611.8352, 7726.526
612.3173, 7771.379
612.7994, 7797.829
613.2816, 7795.062
613.7637, 7779.084
614.2458, 7768.587
614.7279, 7763.969
615.2100, 7764.775
615.6921, 7773.127
616.1743, 7785.372
616.6564, 7790.664
617.1385, 7789.080
617.6206, 7786.180
618.1027, 7780.199
618.5848, 7776.155
619.0670, 7786.726
619.5491, 7811.088
620.0312, 7836.498
620.5133, 7855.551
620.9954, 7870.555
621.4775, 7884.463
621.9597, 7899.068
622.4418, 7907.580
622.9239, 7906.487
623.4060, 7898.594
623.8881, 7886.743
624.3702, 7865.661
624.8524, 7847.896
625.3345, 7832.112
625.8166, 7821.012
626.2987, 7823.774
626.7808, 7844.360
627.2629, 7862.410
627.7451, 7867.587
628.2272, 7864.976
628.7093, 7881.612
629.1914, 7917.099
629.6735, 7941.391
630.1556, 7919.061
630.6378, 7876.501
631.1199, 7856.834
631.6020, 7866.408
632.0841, 7873.459
632.5662, 7848.450
633.0483, 7814.785
633.5305, 7796.407
634.0126, 7811.055
634.4947, 7824.794
634.9768, 7832.579
635.4589, 7835.471
635.9410, 7834.523
636.4232, 7824.414
636.9053, 7820.659
