##NAMES=Maxwellite
##RRUFFID=R060955
##IDEAL CHEMISTRY=NaFe^3+^As^5+^O_4_F
##LOCALITY=Squaw Creek Tin mine, Catron County, New Mexico, USA
##OWNER=RRUFF
##SOURCE=Bob Jenkins
##DESCRIPTION=Red prismatic crystals in quartz matrix associated with hematite
##STATUS=The identification of this mineral is confirmed by single-crystal X-ray diffraction and chemical analysis.
##URL=rruff.info/R060955
##MEASURED CHEMISTRY=(Na_0.56_Ca_0.41_[box]_0.03_)_Σ=1_(Fe^3+^_0.24_Al_0.24_Fe^2+^_0.23_Mg_0.19_Ti_0.06_Mn_0.03_)_Σ=1_(As_0.99_P_0.01_)_Σ=1_O_4_)F_1.00_ ; trace of Sn, Zr and Nd ; Fe3 and Fe2 split by charge balance
146.3801, 4009.050
146.8622, 4127.160
147.3443, 4215.354
147.8264, 4297.043
148.3086, 4388.122
148.7907, 4482.942
149.2728, 4570.383
149.7549, 4645.217
150.2370, 4707.442
150.7191, 4758.167
151.2013, 4793.379
151.6834, 4820.726
152.1655, 4844.553
152.6476, 4863.908
153.1297, 4876.175
153.6118, 4877.834
154.0940, 4870.223
154.5761, 4864.770
155.0582, 4858.875
155.5403, 4858.975
156.0224, 4869.287
156.5045, 4886.838
156.9867, 4905.483
157.4688, 4919.327
157.9509, 4929.074
158.4330, 4949.899
158.9151, 4995.328
159.3972, 5039.001
159.8794, 5071.938
160.3615, 5097.678
160.8436, 5123.780
161.3257, 5154.619
161.8078, 5190.329
162.2899, 5236.733
162.7721, 5306.483
163.2542, 5375.660
163.7363, 5439.668
164.2184, 5498.344
164.7005, 5551.500
165.1826, 5598.334
165.6648, 5638.919
166.1469, 5685.458
166.6290, 5741.004
167.1111, 5799.659
167.5932, 5865.832
168.0753, 5934.323
168.5575, 5995.817
169.0396, 6043.401
169.5217, 6077.245
170.0038, 6101.886
170.4859, 6102.979
170.9680, 6110.119
171.4502, 6138.299
171.9323, 6180.179
172.4144, 6218.439
172.8965, 6240.124
173.3786, 6245.625
173.8607, 6254.703
174.3429, 6264.087
174.8250, 6279.711
175.3071, 6309.878
175.7892, 6348.355
176.2713, 6380.781
176.7534, 6396.164
177.2356, 6395.786
177.7177, 6404.047
178.1998, 6424.246
178.6819, 6447.816
179.1640, 6476.735
179.6461, 6507.114
180.1283, 6529.634
180.6104, 6537.021
181.0925, 6531.521
181.5746, 6537.529
182.0567, 6565.631
182.5388, 6591.234
183.0210, 6599.703
183.5031, 6598.803
183.9852, 6608.433
184.4673, 6642.129
184.9494, 6694.650
185.4315, 6733.089
185.9137, 6752.082
186.3958, 6766.301
186.8779, 6772.511
187.3600, 6777.075
187.8421, 6797.036
188.3242, 6844.778
188.8064, 6910.710
189.2885, 6952.747
189.7706, 6960.201
190.2527, 6962.565
190.7348, 6963.082
191.2169, 6965.091
191.6991, 6979.228
192.1812, 7014.271
192.6633, 7058.666
193.1454, 7072.528
193.6275, 7028.823
194.1096, 7002.795
194.5918, 7034.314
195.0739, 7098.949
195.5560, 7147.618
196.0381, 7158.964
196.5202, 7145.825
197.0023, 7137.372
197.4845, 7135.938
197.9666, 7132.844
198.4487, 7111.981
198.9308, 7089.000
199.4129, 7099.204
199.8950, 7160.708
200.3772, 7244.877
200.8593, 7297.744
201.3414, 7317.162
201.8235, 7326.933
202.3056, 7325.011
202.7877, 7319.272
203.2699, 7326.263
203.7520, 7353.716
204.2341, 7384.683
204.7162, 7387.242
205.1983, 7356.694
205.6804, 7339.533
206.1626, 7356.373
206.6447, 7390.611
207.1268, 7417.420
207.6089, 7430.707
208.0910, 7439.497
208.5731, 7456.036
209.0553, 7480.699
209.5374, 7501.229
210.0195, 7509.500
210.5016, 7514.443
210.9837, 7528.473
211.4658, 7554.234
211.9480, 7583.353
212.4301, 7609.104
212.9122, 7631.550
213.3943, 7646.640
213.8764, 7644.033
214.3585, 7638.913
214.8407, 7649.042
215.3228, 7676.621
215.8049, 7709.958
216.2870, 7740.253
216.7691, 7767.955
217.2512, 7796.008
217.7334, 7826.193
218.2155, 7855.880
218.6976, 7884.228
219.1797, 7910.854
219.6618, 7930.921
220.1439, 7935.966
220.6261, 7930.886
221.1082, 7939.664
221.5903, 7977.379
222.0724, 8017.842
222.5545, 8040.277
223.0366, 8046.564
223.5188, 8053.345
224.0009, 8070.081
224.4830, 8094.559
224.9651, 8117.776
225.4472, 8142.048
225.9293, 8162.313
226.4115, 8171.295
226.8936, 8172.338
227.3757, 8179.057
227.8578, 8198.546
228.3399, 8226.935
228.8220, 8254.336
229.3041, 8278.596
229.7863, 8305.835
230.2684, 8342.251
230.7505, 8383.966
231.2326, 8421.300
231.7147, 8450.779
232.1968, 8474.390
232.6790, 8494.939
233.1611, 8512.038
233.6432, 8528.727
234.1253, 8543.079
234.6074, 8558.239
235.0895, 8581.279
235.5717, 8615.424
236.0538, 8651.993
236.5359, 8675.726
237.0180, 8683.934
237.5001, 8703.931
237.9822, 8747.722
238.4644, 8803.223
238.9465, 8857.599
239.4286, 8908.787
239.9107, 8954.853
240.3928, 8992.203
240.8749, 9020.243
241.3571, 9048.073
241.8392, 9069.488
242.3213, 9095.342
242.8034, 9137.938
243.2855, 9197.161
243.7676, 9260.248
244.2498, 9321.162
244.7319, 9377.798
245.2140, 9416.393
245.6961, 9413.625
246.1782, 9413.712
246.6603, 9447.022
247.1425, 9508.562
247.6246, 9572.604
248.1067, 9625.085
248.5888, 9666.939
249.0709, 9705.699
249.5530, 9737.034
250.0352, 9770.481
250.5173, 9811.914
250.9994, 9857.777
251.4815, 9900.858
251.9636, 9937.567
252.4457, 9969.644
252.9279, 10001.26
253.4100, 10035.07
253.8921, 10064.63
254.3742, 10083.89
254.8563, 10099.89
255.3384, 10125.69
255.8206, 10165.87
256.3027, 10206.82
256.7848, 10225.61
257.2669, 10211.25
257.7490, 10196.77
258.2311, 10178.67
258.7133, 10163.37
259.1954, 10165.39
259.6775, 10183.74
260.1596, 10191.18
260.6417, 10154.33
261.1238, 10059.79
261.6060, 9980.025
262.0881, 9918.947
262.5702, 9867.715
263.0523, 9827.175
263.5344, 9793.827
264.0165, 9758.179
264.4987, 9712.107
264.9808, 9655.750
265.4629, 9601.099
265.9450, 9546.251
266.4271, 9494.943
266.9092, 9452.963
267.3914, 9414.988
267.8735, 9369.924
268.3556, 9310.386
268.8377, 9241.731
269.3198, 9186.124
269.8019, 9162.568
270.2841, 9131.256
270.7662, 9079.320
271.2483, 9022.194
271.7304, 8979.626
272.2125, 8958.418
272.6946, 8945.367
273.1768, 8912.935
273.6589, 8836.857
274.1410, 8785.602
274.6231, 8772.959
275.1052, 8773.085
275.5873, 8772.466
276.0695, 8766.709
276.5516, 8753.593
277.0337, 8726.761
277.5158, 8678.625
277.9979, 8652.264
278.4800, 8671.810
278.9622, 8690.638
279.4443, 8686.553
279.9264, 8664.765
280.4085, 8644.542
280.8906, 8642.024
281.3727, 8655.105
281.8549, 8658.615
282.3370, 8642.250
282.8191, 8628.949
283.3012, 8628.218
283.7833, 8633.519
284.2654, 8636.511
284.7476, 8633.870
285.2297, 8624.370
285.7118, 8600.655
286.1939, 8548.253
286.6760, 8516.860
287.1581, 8527.461
287.6403, 8557.286
288.1224, 8593.906
288.6045, 8634.300
289.0866, 8666.492
289.5687, 8673.087
290.0508, 8651.766
290.5330, 8629.557
291.0151, 8602.787
291.4972, 8584.198
291.9793, 8586.038
292.4614, 8606.330
292.9435, 8627.396
293.4257, 8636.477
293.9078, 8635.782
294.3899, 8635.564
294.8720, 8636.800
295.3541, 8637.848
295.8362, 8637.964
296.3184, 8637.122
296.8005, 8634.888
297.2826, 8625.676
297.7647, 8617.941
298.2468, 8628.974
298.7289, 8661.731
299.2111, 8687.963
299.6932, 8683.774
300.1753, 8666.918
300.6574, 8670.386
301.1395, 8707.469
301.6216, 8747.104
302.1038, 8766.675
302.5859, 8769.535
303.0680, 8768.097
303.5501, 8761.313
304.0322, 8760.006
304.5143, 8790.933
304.9964, 8863.828
305.4785, 8908.734
305.9607, 8880.919
306.4428, 8818.916
306.9249, 8777.719
307.4070, 8768.106
307.8891, 8771.516
308.3712, 8769.621
308.8534, 8761.563
309.3355, 8761.226
309.8176, 8782.793
310.2997, 8800.938
310.7818, 8793.314
311.2639, 8764.242
311.7461, 8737.400
312.2282, 8728.536
312.7103, 8734.933
313.1924, 8737.763
313.6745, 8740.458
314.1566, 8736.367
314.6388, 8724.361
315.1209, 8704.438
315.6030, 8672.245
316.0851, 8626.054
316.5672, 8577.958
317.0493, 8551.776
317.5315, 8560.372
318.0136, 8570.770
318.4957, 8600.223
318.9778, 8619.099
319.4599, 8596.478
319.9420, 8535.465
320.4242, 8470.296
320.9063, 8436.893
321.3884, 8438.688
321.8705, 8436.179
322.3526, 8427.913
322.8347, 8416.592
323.3169, 8405.010
323.7990, 8390.662
324.2811, 8367.754
324.7632, 8331.493
325.2453, 8287.443
325.7274, 8252.746
326.2096, 8227.930
326.6917, 8212.355
327.1738, 8215.322
327.6559, 8220.825
328.1380, 8213.692
328.6201, 8190.170
329.1023, 8160.719
329.5844, 8137.076
330.0665, 8119.474
330.5486, 8101.247
331.0307, 8081.257
331.5128, 8060.558
331.9950, 8039.782
332.4771, 8018.870
332.9592, 7998.241
333.4413, 7974.938
333.9234, 7952.429
334.4055, 7945.015
334.8877, 7960.399
335.3698, 7962.208
335.8519, 7910.163
336.3340, 7832.250
336.8161, 7779.055
337.2982, 7769.656
337.7804, 7772.122
338.2625, 7763.148
338.7446, 7744.369
339.2267, 7722.665
339.7088, 7697.653
340.1909, 7675.206
340.6731, 7669.290
341.1552, 7684.987
341.6373, 7690.964
342.1194, 7670.191
342.6015, 7639.083
343.0836, 7612.762
343.5658, 7594.378
344.0479, 7594.929
344.5300, 7631.380
345.0121, 7707.904
345.4942, 7751.195
345.9763, 7733.771
346.4585, 7712.917
346.9406, 7716.585
347.4227, 7737.911
347.9048, 7756.495
348.3869, 7760.772
348.8690, 7757.683
349.3512, 7769.874
349.8333, 7817.673
350.3154, 7853.903
350.7975, 7870.659
351.2796, 7879.447
351.7617, 7891.212
352.2439, 7907.575
352.7260, 7921.063
353.2081, 7919.258
353.6902, 7896.313
354.1723, 7893.315
354.6544, 7931.859
355.1366, 7971.219
355.6187, 7998.816
356.1008, 8017.249
356.5829, 8034.486
357.0650, 8056.211
357.5471, 8078.013
358.0293, 8087.134
358.5114, 8079.088
358.9935, 8071.013
359.4756, 8060.754
359.9577, 8057.267
360.4398, 8073.105
360.9220, 8111.688
361.4041, 8151.004
361.8862, 8175.905
362.3683, 8186.361
362.8504, 8178.265
363.3326, 8140.819
363.8147, 8103.949
364.2968, 8095.756
364.7789, 8110.933
365.2610, 8132.075
365.7431, 8172.742
366.2253, 8205.093
366.7074, 8187.781
367.1895, 8125.636
367.6716, 8076.676
368.1537, 8075.487
368.6358, 8108.204
369.1180, 8130.180
369.6001, 8142.249
370.0822, 8144.787
370.5643, 8131.601
371.0464, 8111.284
371.5285, 8092.872
372.0107, 8079.056
372.4928, 8072.836
372.9749, 8079.581
373.4570, 8104.511
373.9391, 8119.171
374.4212, 8119.016
374.9034, 8114.646
375.3855, 8107.975
375.8676, 8101.048
376.3497, 8097.498
376.8318, 8099.925
377.3139, 8105.905
377.7961, 8107.231
378.2782, 8103.541
378.7603, 8095.256
379.2424, 8073.979
379.7245, 8054.341
380.2066, 8049.454
380.6888, 8060.994
381.1709, 8078.607
381.6530, 8089.440
382.1351, 8093.934
382.6172, 8113.872
383.0993, 8168.840
383.5815, 8211.258
384.0636, 8204.111
384.5457, 8168.379
385.0278, 8144.961
385.5099, 8147.343
385.9920, 8170.958
386.4742, 8221.572
386.9563, 8297.819
387.4384, 8354.338
387.9205, 8365.534
388.4026, 8356.905
388.8847, 8371.823
389.3669, 8415.157
389.8490, 8452.046
390.3311, 8462.169
390.8132, 8463.579
391.2953, 8483.726
391.7774, 8525.417
392.2596, 8563.554
392.7417, 8572.645
393.2238, 8553.981
393.7059, 8569.324
394.1880, 8649.741
394.6701, 8723.830
395.1523, 8774.104
395.6344, 8801.481
396.1165, 8802.157
396.5986, 8775.248
397.0807, 8738.016
397.5628, 8722.105
398.0450, 8739.200
398.5271, 8750.587
399.0092, 8753.953
399.4913, 8754.358
399.9734, 8757.071
400.4555, 8759.471
400.9377, 8753.039
401.4197, 8729.186
401.9019, 8693.667
402.3840, 8669.716
402.8661, 8665.557
403.3482, 8653.121
403.8303, 8609.286
404.3124, 8559.974
404.7946, 8533.839
405.2767, 8538.486
405.7588, 8538.845
406.2409, 8498.600
406.7230, 8429.781
407.2051, 8379.558
407.6873, 8358.806
408.1694, 8345.360
408.6515, 8321.778
409.1336, 8289.274
409.6157, 8253.943
410.0978, 8214.094
410.5800, 8173.835
411.0621, 8131.261
411.5442, 8089.986
412.0263, 8061.242
412.5084, 8051.236
412.9905, 8051.790
413.4727, 8047.223
413.9548, 8037.476
414.4369, 8021.608
414.9190, 7992.978
415.4011, 7963.539
415.8832, 7942.609
416.3654, 7929.253
416.8475, 7916.481
417.3296, 7899.280
417.8117, 7877.645
418.2938, 7850.133
418.7759, 7805.619
419.2581, 7773.198
419.7402, 7762.520
420.2223, 7762.532
420.7044, 7764.716
421.1865, 7766.702
421.6686, 7766.672
422.1508, 7763.909
422.6329, 7758.094
423.1150, 7744.009
423.5971, 7715.325
424.0792, 7689.125
424.5613, 7679.549
425.0435, 7680.911
425.5256, 7681.729
426.0077, 7678.523
426.4898, 7674.490
426.9719, 7670.191
427.4540, 7666.824
427.9362, 7670.243
428.4183, 7683.892
428.9004, 7701.310
429.3825, 7711.850
429.8646, 7712.616
430.3467, 7717.749
430.8289, 7734.376
431.3110, 7750.590
431.7931, 7753.786
432.2752, 7748.178
432.7573, 7750.095
433.2394, 7770.998
433.7216, 7805.006
434.2037, 7828.449
434.6858, 7833.798
435.1679, 7839.886
435.6500, 7838.344
436.1321, 7845.042
436.6143, 7878.554
437.0964, 7937.170
437.5785, 7996.884
438.0606, 8034.549
438.5427, 8053.411
439.0248, 8075.676
439.5070, 8101.889
439.9891, 8130.526
440.4712, 8163.363
440.9533, 8197.484
441.4354, 8227.181
441.9175, 8247.159
442.3997, 8274.923
442.8818, 8329.508
443.3639, 8401.772
443.8460, 8467.059
444.3281, 8520.474
444.8102, 8565.529
445.2924, 8601.577
445.7745, 8627.950
446.2566, 8671.901
446.7387, 8751.977
447.2208, 8830.095
447.7029, 8883.369
448.1851, 8922.803
448.6672, 8970.965
449.1493, 9036.927
449.6314, 9110.853
450.1135, 9174.448
450.5956, 9223.084
451.0778, 9273.010
451.5599, 9321.284
452.0420, 9373.248
452.5241, 9431.844
453.0062, 9496.074
453.4883, 9564.271
453.9705, 9637.000
454.4526, 9710.662
454.9347, 9776.815
455.4168, 9833.716
455.8989, 9894.010
456.3810, 9964.730
456.8632, 10037.53
457.3453, 10104.04
457.8274, 10163.97
458.3095, 10221.71
458.7916, 10279.83
459.2737, 10336.36
459.7559, 10393.30
460.2380, 10449.00
460.7201, 10488.63
461.2022, 10497.79
461.6843, 10490.85
462.1664, 10516.43
462.6486, 10615.55
463.1307, 10684.16
463.6128, 10694.29
464.0949, 10683.27
464.5770, 10680.46
465.0591, 10689.43
465.5413, 10698.92
466.0234, 10698.12
466.5055, 10689.60
466.9876, 10695.39
467.4697, 10730.36
467.9518, 10753.83
468.4340, 10754.10
468.9161, 10740.63
469.3982, 10719.04
469.8803, 10690.67
470.3624, 10662.83
470.8445, 10640.58
471.3267, 10623.39
471.8088, 10608.05
472.2909, 10592.83
472.7730, 10588.09
473.2551, 10611.58
473.7372, 10649.49
474.2194, 10653.79
474.7015, 10600.65
475.1836, 10548.47
475.6657, 10525.69
476.1478, 10514.33
476.6299, 10488.46
477.1121, 10443.02
477.5942, 10390.42
478.0763, 10341.93
478.5584, 10297.25
479.0405, 10262.79
479.5226, 10252.58
480.0048, 10236.40
480.4869, 10204.07
480.9690, 10164.46
481.4511, 10127.19
481.9332, 10094.93
482.4153, 10067.61
482.8975, 10050.19
483.3796, 10041.16
483.8617, 10014.00
484.3438, 9960.117
484.8259, 9902.251
485.3080, 9852.715
485.7902, 9810.166
486.2723, 9773.438
486.7544, 9743.478
487.2365, 9717.104
487.7186, 9697.486
488.2007, 9679.258
488.6829, 9650.798
489.1650, 9609.282
489.6471, 9560.397
490.1292, 9508.472
490.6113, 9452.829
491.0934, 9403.492
491.5756, 9358.434
492.0577, 9320.765
492.5398, 9300.101
493.0219, 9283.776
493.5040, 9258.751
493.9861, 9220.276
494.4683, 9165.868
494.9504, 9082.650
495.4325, 8967.377
495.9146, 8885.447
496.3967, 8851.552
496.8788, 8830.724
497.3610, 8808.648
497.8431, 8785.870
498.3252, 8763.229
498.8073, 8740.418
499.2894, 8718.972
499.7715, 8706.813
500.2536, 8696.224
500.7357, 8664.564
501.2179, 8606.080
501.7000, 8541.904
502.1821, 8489.118
502.6642, 8447.941
503.1463, 8425.304
503.6284, 8450.575
504.1106, 8457.167
504.5927, 8410.440
505.0748, 8342.507
505.5569, 8292.124
506.0390, 8269.385
506.5211, 8256.015
507.0033, 8231.797
507.4854, 8196.742
507.9675, 8161.402
508.4496, 8123.219
508.9317, 8089.100
509.4138, 8065.290
509.8960, 8045.578
510.3781, 8019.706
510.8602, 7982.530
511.3423, 7953.961
511.8244, 7959.566
512.3066, 7981.139
512.7887, 7976.730
513.2708, 7940.176
513.7529, 7900.819
514.2350, 7882.106
514.7172, 7880.288
515.1993, 7866.206
515.6814, 7832.993
516.1635, 7797.849
516.6456, 7754.876
517.1277, 7716.658
517.6099, 7701.900
518.0920, 7708.467
518.5741, 7711.063
519.0562, 7682.148
519.5383, 7630.408
520.0204, 7613.215
520.5026, 7649.801
520.9847, 7674.459
521.4668, 7659.082
521.9489, 7624.276
522.4310, 7581.229
522.9131, 7530.678
523.3953, 7492.406
523.8774, 7476.932
524.3595, 7479.540
524.8416, 7504.756
525.3237, 7548.252
525.8058, 7572.156
526.2880, 7551.995
526.7701, 7505.865
527.2522, 7482.143
527.7343, 7503.604
528.2164, 7510.334
528.6985, 7493.402
529.1807, 7469.795
529.6628, 7449.856
530.1449, 7432.843
530.6270, 7411.194
531.1091, 7378.092
531.5912, 7344.445
532.0734, 7337.531
532.5555, 7361.480
533.0376, 7381.293
533.5197, 7393.668
534.0018, 7394.993
534.4839, 7378.518
534.9661, 7347.546
535.4482, 7318.637
535.9303, 7298.962
536.4124, 7280.216
536.8945, 7250.176
537.3766, 7216.749
537.8588, 7202.745
538.3409, 7216.001
538.8230, 7237.303
539.3051, 7242.693
539.7872, 7231.627
540.2693, 7207.051
540.7515, 7147.378
541.2336, 7098.640
541.7157, 7081.519
542.1978, 7078.740
542.6799, 7069.950
543.1620, 7048.993
543.6442, 7015.967
544.1263, 6963.886
544.6084, 6898.003
545.0905, 6846.390
545.5726, 6813.221
546.0547, 6784.556
546.5369, 6754.186
547.0190, 6721.319
547.5011, 6683.428
547.9832, 6632.547
548.4653, 6592.479
548.9474, 6583.589
549.4296, 6579.470
549.9116, 6555.044
550.3937, 6508.905
550.8759, 6450.021
551.3580, 6382.036
551.8401, 6311.489
552.3222, 6264.050
552.8043, 6251.023
553.2864, 6233.370
553.7686, 6201.708
554.2507, 6165.805
554.7328, 6130.232
555.2149, 6095.334
555.6970, 6060.895
556.1791, 6028.385
556.6613, 5994.869
557.1434, 5951.152
557.6255, 5902.347
558.1076, 5872.847
558.5897, 5872.542
559.0718, 5880.368
559.5540, 5870.750
560.0361, 5841.303
560.5182, 5810.147
561.0003, 5769.282
561.4824, 5736.055
561.9645, 5721.992
562.4467, 5715.926
562.9288, 5702.323
563.4109, 5677.656
563.8930, 5653.113
564.3751, 5644.875
564.8572, 5648.911
565.3394, 5637.105
565.8215, 5604.927
566.3036, 5571.760
566.7857, 5544.310
567.2678, 5523.375
567.7499, 5510.810
568.2321, 5509.583
568.7142, 5505.795
569.1963, 5494.510
569.6784, 5479.768
570.1605, 5462.465
570.6426, 5444.738
571.1248, 5432.231
571.6069, 5428.324
572.0890, 5429.776
572.5711, 5430.276
573.0532, 5431.152
573.5353, 5426.529
574.0175, 5411.343
574.4996, 5395.465
574.9817, 5383.297
575.4638, 5373.930
575.9459, 5364.706
576.4280, 5353.771
576.9102, 5345.178
577.3923, 5342.828
577.8744, 5345.165
578.3565, 5349.220
578.8386, 5354.433
579.3207, 5359.022
579.8029, 5361.490
580.2850, 5362.036
580.7671, 5362.267
581.2492, 5367.365
581.7313, 5365.017
582.2134, 5347.922
582.6956, 5327.977
583.1777, 5316.109
583.6598, 5311.042
584.1419, 5301.629
584.6240, 5276.195
585.1061, 5247.475
585.5883, 5242.392
586.0704, 5260.333
586.5525, 5276.343
587.0346, 5283.973
587.5167, 5286.671
587.9988, 5289.023
588.4810, 5291.017
588.9631, 5284.599
589.4452, 5260.637
589.9273, 5238.413
590.4094, 5225.046
590.8915, 5217.984
591.3737, 5214.468
591.8558, 5213.310
592.3379, 5212.797
592.8200, 5211.343
593.3021, 5209.036
593.7842, 5205.470
594.2664, 5198.691
594.7485, 5197.234
595.2306, 5208.171
595.7127, 5222.848
596.1948, 5232.156
596.6769, 5235.979
597.1591, 5234.500
597.6412, 5223.647
598.1233, 5211.112
598.6054, 5199.469
599.0875, 5191.320
599.5696, 5195.099
600.0518, 5213.511
600.5339, 5232.894
601.0160, 5232.602
601.4981, 5210.229
601.9802, 5192.706
602.4623, 5175.961
602.9445, 5170.770
603.4266, 5195.243
603.9087, 5225.047
604.3908, 5228.648
604.8729, 5199.803
605.3550, 5171.156
605.8372, 5164.566
606.3193, 5165.740
606.8014, 5152.028
607.2835, 5126.726
607.7656, 5113.952
608.2477, 5126.678
608.7299, 5149.274
609.2120, 5151.000
609.6941, 5119.977
610.1762, 5106.798
610.6583, 5130.248
611.1404, 5151.448
611.6226, 5160.247
612.1047, 5157.762
612.5868, 5141.326
613.0689, 5108.420
613.5510, 5084.946
614.0331, 5104.935
614.5153, 5145.273
614.9974, 5154.625
615.4795, 5130.684
615.9616, 5102.315
616.4437, 5083.480
616.9258, 5073.983
617.4080, 5074.588
617.8901, 5094.887
618.3722, 5103.994
618.8543, 5092.698
619.3364, 5080.627
619.8185, 5074.157
620.3007, 5074.218
620.7828, 5085.438
621.2649, 5111.121
621.7470, 5128.961
622.2291, 5101.981
622.7112, 5048.594
623.1934, 5034.382
623.6755, 5067.303
624.1576, 5102.672
624.6397, 5116.976
625.1218, 5113.748
625.6039, 5101.101
626.0861, 5067.601
626.5682, 5046.870
627.0503, 5046.551
627.5324, 5052.284
628.0145, 5059.382
628.4966, 5065.785
628.9788, 5069.298
629.4609, 5069.063
629.9430, 5065.691
630.4251, 5062.306
630.9072, 5056.959
631.3893, 5033.836
631.8715, 4986.952
632.3536, 4956.727
632.8357, 4972.833
633.3178, 5017.650
633.7999, 5043.525
634.2820, 5044.602
634.7642, 5040.695
635.2463, 5026.525
635.7284, 5013.830
636.2105, 5013.953
636.6926, 5020.310
637.1747, 5017.696
637.6569, 4999.509
