##NAMES=Mcgillite
##RRUFFID=R110206
##IDEAL CHEMISTRY=Mn^2+^_8_Si_6_O_15_(OH)_8_Cl_2_
##LOCALITY=Sullivan mine, Kimberley, British Columbia, Canada
##OWNER=RRUFF
##SOURCE=Royal Ontario Museum
##DESCRIPTION=Pink massive platy associated with black sphalerite and milky-white quartz. Metatype sample.
##STATUS=The identification of this mineral has been confirmed by single-crystal X-ray diffraction.
##URL=rruff.info/R110206
103.1743, 252.7733
103.6564, 252.9801
104.1385, 254.5931
104.6207, 258.9824
105.1028, 265.3375
105.5849, 271.0380
106.0670, 275.4002
106.5491, 278.3842
107.0313, 280.0981
107.5134, 280.4395
107.9955, 280.1331
108.4776, 279.8941
108.9597, 279.7950
109.4418, 279.3858
109.9240, 278.0277
110.4061, 276.5739
110.8882, 275.4988
111.3703, 274.9384
111.8524, 275.1260
112.3345, 276.7669
112.8167, 280.9725
113.2988, 285.3253
113.7809, 289.5542
114.2630, 293.6669
114.7451, 297.7449
115.2272, 301.8046
115.7094, 305.8760
116.1915, 309.8858
116.6736, 315.3170
117.1557, 319.3189
117.6378, 320.3722
118.1199, 318.9427
118.6021, 316.7057
119.0842, 314.9520
119.5663, 313.7372
120.0484, 312.5376
120.5305, 310.8099
121.0126, 309.3977
121.4948, 309.5590
121.9769, 311.6484
122.4590, 313.4943
122.9411, 312.9789
123.4232, 310.5045
123.9053, 306.3015
124.3875, 299.6874
124.8696, 291.3300
125.3517, 282.9952
125.8338, 274.4110
126.3159, 266.6016
126.7980, 260.0757
127.2802, 254.7504
127.7623, 250.2962
128.2444, 246.4383
128.7265, 243.1819
129.2086, 240.6474
129.6907, 238.8479
130.1729, 237.8302
130.6550, 238.0005
131.1371, 239.2599
131.6192, 240.9026
132.1013, 241.8012
132.5834, 240.8786
133.0656, 241.4755
133.5477, 244.4508
134.0298, 248.1931
134.5119, 251.6294
134.9940, 254.3613
135.4761, 256.5298
135.9583, 258.4088
136.4404, 259.9045
136.9225, 261.1908
137.4046, 262.2422
137.8867, 263.0994
138.3688, 263.8101
138.8510, 264.4055
139.3331, 264.7401
139.8152, 265.0608
140.2973, 264.9441
140.7794, 264.7527
141.2615, 264.4209
141.7437, 264.0317
142.2258, 263.9620
142.7079, 264.4489
143.1900, 265.4108
143.6721, 266.5500
144.1542, 267.8799
144.6364, 269.3567
145.1185, 270.9526
145.6006, 272.6726
146.0827, 274.4769
146.5648, 276.7801
147.0469, 279.0327
147.5291, 280.5688
148.0112, 280.9971
148.4933, 280.7415
148.9754, 280.8087
149.4575, 281.6200
149.9396, 281.9931
150.4218, 281.5229
150.9039, 280.4838
151.3860, 279.2310
151.8681, 277.9675
152.3502, 276.6656
152.8323, 275.1661
153.3145, 273.0938
153.7966, 271.1762
154.2787, 269.7389
154.7608, 268.5667
155.2429, 267.2463
155.7250, 265.4573
156.2072, 263.1916
156.6893, 260.5449
157.1714, 257.2583
157.6535, 253.8982
158.1356, 250.6033
158.6177, 247.4213
159.0999, 244.4191
159.5820, 241.7466
160.0641, 239.4915
160.5462, 236.5708
161.0283, 232.3125
161.5104, 227.8964
161.9926, 224.2234
162.4747, 221.4185
162.9568, 219.0069
163.4389, 216.6001
163.9210, 214.1945
164.4031, 211.8524
164.8853, 209.5930
165.3674, 207.4024
165.8495, 205.2804
166.3316, 203.1929
166.8137, 201.2482
167.2958, 199.4864
167.7780, 197.9024
168.2601, 196.6143
168.7422, 195.6628
169.2243, 195.0492
169.7064, 194.8718
170.1885, 195.5456
170.6707, 196.1411
171.1528, 195.8675
171.6349, 194.9216
172.1170, 194.1385
172.5991, 194.3287
173.0812, 195.5519
173.5634, 196.4656
174.0455, 196.7351
174.5276, 196.8765
175.0097, 197.0039
175.4918, 197.1691
175.9739, 197.4489
176.4561, 197.9623
176.9382, 198.8175
177.4203, 199.5493
177.9024, 200.5352
178.3845, 201.1316
178.8666, 200.7984
179.3488, 199.5730
179.8309, 198.0056
180.3130, 196.8676
180.7951, 196.4632
181.2772, 195.8154
181.7593, 194.8333
182.2415, 193.7066
182.7236, 192.6148
183.2057, 191.5884
183.6878, 190.4796
184.1699, 189.0547
184.6520, 187.1294
185.1342, 185.2140
185.6163, 183.1423
186.0984, 181.1631
186.5805, 179.5288
187.0626, 178.3137
187.5447, 177.4612
188.0269, 177.0123
188.5090, 177.1141
188.9911, 176.9623
189.4732, 176.0886
189.9553, 174.8889
190.4374, 174.1017
190.9196, 174.0141
191.4017, 174.2222
191.8838, 174.1180
192.3659, 173.6843
192.8480, 173.2864
193.3301, 173.0844
193.8123, 173.0508
194.2944, 173.1127
194.7765, 173.3555
195.2586, 173.5517
195.7407, 173.3884
196.2228, 172.8577
196.7050, 172.4504
197.1871, 172.8176
197.6692, 173.8962
198.1513, 174.1987
198.6334, 172.6936
199.1155, 170.9226
199.5977, 169.9276
200.0798, 169.7621
200.5619, 169.8766
201.0440, 169.6839
201.5261, 169.0887
202.0082, 168.8288
202.4904, 169.5493
202.9725, 170.2379
203.4546, 170.2875
203.9367, 169.6730
204.4188, 168.8860
204.9009, 168.5743
205.3831, 168.9594
205.8652, 169.1401
206.3473, 168.9796
206.8294, 168.7061
207.3115, 168.4637
207.7936, 168.2668
208.2758, 168.0140
208.7579, 167.5536
209.2400, 166.7757
209.7221, 166.0175
210.2042, 165.2283
210.6863, 164.4906
211.1685, 163.8568
211.6506, 163.3371
212.1327, 162.9039
212.6148, 162.5064
213.0969, 162.0815
213.5790, 161.8703
214.0612, 162.1773
214.5433, 162.4968
215.0254, 162.3150
215.5075, 161.5454
215.9896, 160.6462
216.4717, 160.2771
216.9539, 160.7015
217.4360, 161.0955
217.9181, 161.5689
218.4002, 161.9464
218.8823, 161.9056
219.3644, 161.3638
219.8466, 160.8572
220.3287, 161.2744
220.8108, 162.8760
221.2929, 163.8948
221.7750, 163.6628
222.2571, 162.8891
222.7393, 162.4204
223.2214, 162.4370
223.7035, 162.7330
224.1856, 163.2264
224.6677, 163.9052
225.1498, 164.2697
225.6320, 163.7741
226.1141, 162.9858
226.5962, 162.9546
227.0783, 164.0423
227.5604, 165.3231
228.0425, 165.7216
228.5247, 165.4552
229.0068, 165.4275
229.4889, 166.2754
229.9710, 167.5770
230.4531, 168.3469
230.9352, 168.3168
231.4174, 168.0996
231.8995, 168.1783
232.3816, 168.4576
232.8637, 168.6807
233.3458, 168.5849
233.8279, 168.3230
234.3101, 168.4755
234.7922, 169.4030
235.2743, 170.1410
235.7564, 169.9165
236.2385, 169.1298
236.7206, 168.6016
237.2028, 168.9584
237.6849, 169.9553
238.1670, 170.5573
238.6491, 170.6942
239.1312, 170.4815
239.6133, 169.8945
240.0955, 169.0620
240.5776, 168.1460
241.0597, 167.1366
241.5418, 166.1490
242.0239, 165.7923
242.5060, 166.4678
242.9882, 167.2788
243.4703, 168.0849
243.9524, 168.8176
244.4345, 169.3269
244.9166, 169.4483
245.3987, 169.3692
245.8809, 170.0019
246.3630, 171.9854
246.8451, 173.9064
247.3272, 175.7369
247.8093, 177.2724
248.2914, 178.1357
248.7736, 178.0696
249.2557, 177.4013
249.7378, 177.4525
250.2199, 178.5326
250.7020, 180.0584
251.1841, 182.2989
251.6663, 184.8080
252.1484, 187.0647
252.6305, 188.8290
253.1126, 190.2077
253.5947, 191.5695
254.0768, 192.5492
254.5590, 193.9786
255.0411, 196.4383
255.5232, 199.1651
256.0053, 201.2504
256.4874, 202.3068
256.9695, 202.7812
257.4517, 203.7483
257.9338, 205.4023
258.4159, 207.4067
258.8980, 210.0027
259.3801, 212.8448
259.8622, 215.7422
260.3444, 218.6102
260.8265, 221.1948
261.3086, 222.9944
261.7907, 223.4113
262.2728, 223.9253
262.7549, 224.6653
263.2371, 225.4582
263.7192, 226.1546
264.2013, 226.7126
264.6834, 227.1328
265.1655, 227.4111
265.6476, 227.5126
266.1298, 227.5196
266.6119, 227.3402
267.0940, 227.1196
267.5761, 227.0775
268.0582, 227.2418
268.5403, 227.3045
269.0225, 226.8606
269.5046, 225.7511
269.9867, 224.8273
270.4688, 224.4639
270.9509, 224.0757
271.4330, 223.1553
271.9152, 221.6499
272.3973, 219.7956
272.8794, 217.6979
273.3615, 215.3390
273.8436, 213.4208
274.3257, 212.4866
274.8079, 211.6092
275.2900, 210.0171
275.7721, 207.6912
276.2542, 205.2056
276.7363, 203.0110
277.2184, 201.0399
277.7006, 198.6736
278.1827, 195.5087
278.6648, 192.2841
279.1469, 189.5477
279.6290, 187.2682
280.1111, 185.1083
280.5933, 182.9733
281.0754, 180.7642
281.5575, 178.2110
282.0396, 175.0568
282.5217, 171.8840
283.0038, 169.0414
283.4860, 166.4893
283.9681, 163.9739
284.4502, 161.3359
284.9323, 158.7190
285.4144, 156.3285
285.8965, 154.0542
286.3787, 152.2318
286.8608, 151.3685
287.3429, 151.1900
287.8250, 150.6282
288.3071, 149.1664
288.7892, 147.4058
289.2714, 146.2555
289.7535, 145.7753
290.2356, 145.3092
290.7177, 144.4443
291.1998, 143.3569
291.6819, 142.4927
292.1641, 141.9391
292.6462, 141.6611
293.1283, 141.6726
293.6104, 141.9393
294.0925, 142.2686
294.5746, 142.5847
295.0568, 142.9117
295.5389, 143.2375
296.0210, 143.4820
296.5031, 143.9629
296.9852, 145.2204
297.4673, 146.9787
297.9495, 148.4948
298.4316, 149.2695
298.9137, 149.7598
299.3958, 150.6753
299.8779, 152.0999
300.3600, 153.6193
300.8422, 154.8975
301.3243, 156.0939
301.8064, 157.4751
302.2885, 159.1602
302.7706, 161.0134
303.2527, 162.8994
303.7349, 164.8252
304.2170, 166.7862
304.6991, 168.7173
305.1812, 170.7232
305.6633, 172.9164
306.1454, 175.2857
306.6276, 177.8952
307.1097, 181.0837
307.5918, 184.7834
308.0739, 187.8719
308.5560, 189.6747
309.0381, 190.9035
309.5203, 192.3905
310.0024, 194.1837
310.4845, 196.0076
310.9666, 197.6488
311.4487, 199.1496
311.9308, 200.7035
312.4130, 202.3331
312.8951, 204.0373
313.3772, 205.7991
313.8593, 207.6174
314.3414, 209.4478
314.8235, 211.4015
315.3057, 213.3487
315.7878, 214.8727
316.2699, 215.7050
316.7520, 216.6656
317.2341, 218.4867
317.7162, 220.8753
318.1984, 223.2511
318.6805, 225.1949
319.1626, 227.0971
319.6447, 229.5641
320.1268, 232.6317
320.6089, 236.0827
321.0911, 239.9294
321.5732, 244.0901
322.0553, 248.5976
322.5374, 253.9204
323.0195, 258.8715
323.5016, 262.3951
323.9838, 264.5169
324.4659, 265.1669
324.9480, 264.4102
325.4301, 261.8808
325.9122, 257.2972
326.3943, 250.4510
326.8765, 242.3530
327.3586, 233.0086
327.8407, 222.7225
328.3228, 213.4918
328.8049, 206.1459
329.2870, 199.5123
329.7692, 192.1293
330.2513, 184.1203
330.7334, 176.9159
331.2155, 171.3144
331.6976, 167.0273
332.1797, 163.4708
332.6619, 160.6833
333.1440, 158.3585
333.6261, 156.5299
334.1082, 154.9966
334.5903, 153.2499
335.0724, 150.8040
335.5546, 148.2458
336.0367, 146.4039
336.5188, 145.3420
337.0009, 144.4256
337.4830, 143.2679
337.9651, 142.0370
338.4473, 141.1037
338.9294, 140.7911
339.4115, 140.3357
339.8936, 138.9074
340.3757, 136.6525
340.8578, 134.7243
341.3400, 133.6011
341.8221, 132.9678
342.3042, 132.3533
342.7863, 131.7906
343.2684, 131.0706
343.7505, 129.8804
344.2327, 128.4634
344.7148, 127.4454
345.1969, 127.0280
345.6790, 126.8420
346.1611, 126.5201
346.6432, 126.0812
347.1254, 125.5693
347.6075, 125.0168
348.0896, 124.3874
348.5717, 123.4671
349.0538, 122.2098
349.5359, 121.3541
350.0181, 121.7059
350.5002, 122.9594
350.9823, 123.6331
351.4644, 123.1609
351.9465, 122.5024
352.4286, 122.2406
352.9108, 122.3368
353.3929, 122.6127
353.8750, 123.0183
354.3571, 123.5196
354.8392, 124.0164
355.3214, 124.4496
355.8035, 124.9987
356.2856, 125.8136
356.7677, 126.7703
357.2498, 127.6471
357.7319, 128.3794
358.2141, 129.0337
358.6962, 129.7048
359.1783, 130.3983
359.6604, 131.0758
360.1425, 131.5355
360.6246, 132.1036
361.1068, 133.1781
361.5889, 134.7696
362.0710, 136.4520
362.5531, 137.9533
363.0352, 139.2444
363.5173, 140.0080
363.9995, 139.6604
364.4816, 139.4179
364.9637, 140.1267
365.4458, 141.4219
365.9279, 142.3134
366.4100, 142.2555
366.8922, 141.5206
367.3743, 140.9848
367.8564, 140.9222
368.3385, 140.6563
368.8206, 139.9770
369.3027, 139.1015
369.7849, 138.2657
370.2670, 137.5412
370.7491, 136.8763
371.2312, 136.2100
371.7133, 135.5717
372.1954, 134.8402
372.6776, 133.9184
373.1597, 132.9958
373.6418, 132.2213
374.1239, 131.5662
374.6060, 130.8310
375.0881, 129.7865
375.5703, 128.4659
376.0524, 127.8632
376.5345, 128.6082
377.0166, 129.3277
377.4987, 129.8040
377.9808, 130.0430
378.4630, 130.0343
378.9451, 129.7713
379.4272, 129.3915
379.9093, 129.2388
380.3914, 129.5717
380.8735, 129.6959
381.3557, 129.3080
381.8378, 128.9192
382.3199, 128.8966
382.8020, 129.2929
383.2841, 129.9395
383.7662, 130.6678
384.2484, 131.4893
384.7305, 132.3289
385.2126, 133.2008
385.6947, 134.0811
386.1768, 134.9745
386.6589, 135.8694
387.1411, 136.7448
387.6232, 137.5857
388.1053, 138.4088
388.5874, 139.3089
389.0695, 140.5031
389.5516, 141.3383
390.0338, 141.2762
390.5159, 141.0566
390.9980, 141.4469
391.4801, 142.6535
391.9622, 144.0680
392.4443, 144.8278
392.9265, 144.8175
393.4086, 145.2756
393.8907, 146.7624
394.3728, 148.3853
394.8549, 149.7241
395.3370, 150.7641
395.8192, 151.5523
396.3013, 152.0203
396.7834, 152.2625
397.2655, 152.6052
397.7476, 153.1146
398.2297, 153.5502
398.7119, 153.3780
399.1940, 153.1775
399.6761, 153.8509
400.1582, 155.9266
400.6403, 158.2540
401.1224, 159.6202
401.6046, 160.0854
402.0867, 160.5056
402.5688, 161.1464
403.0509, 161.8295
403.5330, 162.2937
404.0151, 162.5302
404.4973, 162.8888
404.9794, 163.8506
405.4615, 164.9417
405.9436, 165.2799
406.4257, 164.7165
406.9078, 163.7955
407.3900, 162.9894
407.8721, 162.1936
408.3542, 160.9162
408.8363, 158.6404
409.3184, 156.3120
409.8005, 154.5919
410.2827, 153.3503
410.7648, 152.1792
411.2469, 150.9339
411.7290, 149.5923
412.2111, 148.1065
412.6932, 146.5382
413.1754, 144.7226
413.6575, 142.3401
414.1396, 139.8544
414.6217, 137.7209
415.1038, 136.0256
415.5859, 134.6150
416.0681, 133.3543
416.5502, 132.2522
417.0323, 131.2447
417.5144, 130.5094
417.9965, 129.6703
418.4786, 128.4333
418.9608, 126.9979
419.4429, 125.7933
419.9250, 125.0566
420.4071, 124.5569
420.8892, 123.6382
421.3713, 121.8841
421.8535, 120.3362
422.3356, 119.0083
422.8177, 117.8856
423.2998, 117.1461
423.7819, 116.6964
424.2640, 116.0564
424.7462, 114.5952
425.2283, 112.2018
425.7104, 110.5688
426.1925, 110.5150
426.6746, 110.3728
427.1567, 109.4835
427.6389, 108.2356
428.1210, 107.3036
428.6031, 107.0474
429.0852, 107.1081
429.5673, 106.7330
430.0494, 105.7826
430.5316, 104.9018
431.0137, 104.2170
431.4958, 103.6771
431.9779, 103.3193
432.4600, 103.1237
432.9421, 102.9323
433.4243, 102.5307
433.9064, 102.0137
434.3885, 101.8529
434.8706, 102.2402
435.3527, 102.5844
435.8348, 102.2389
436.3170, 101.6341
436.7991, 101.5631
437.2812, 102.5519
437.7633, 103.6636
438.2454, 103.9745
438.7275, 103.5831
439.2097, 103.0964
439.6918, 102.5606
440.1739, 102.2626
440.6560, 102.7529
441.1381, 104.0652
441.6202, 105.3559
442.1024, 106.4431
442.5845, 107.3589
443.0666, 108.0149
443.5487, 108.4398
444.0308, 109.0340
444.5129, 110.1971
444.9951, 111.8170
445.4772, 112.8742
445.9593, 112.7146
446.4414, 112.8321
446.9235, 114.0791
447.4056, 115.7715
447.8878, 116.8521
448.3699, 116.9650
448.8520, 116.5493
449.3341, 116.2464
449.8162, 116.0516
450.2983, 116.0077
450.7805, 116.0873
451.2626, 116.3160
451.7447, 116.8238
452.2268, 117.4994
452.7089, 118.0357
453.1910, 118.1801
453.6732, 118.1152
454.1553, 118.6504
454.6374, 120.2264
455.1195, 121.6689
455.6016, 122.7018
456.0837, 123.5943
456.5659, 124.5576
457.0480, 125.6401
457.5301, 126.7420
458.0122, 127.8687
458.4943, 129.0157
458.9764, 129.7715
459.4586, 130.3576
459.9407, 130.1356
460.4228, 128.4507
460.9049, 125.8933
461.3870, 123.5151
461.8691, 121.7646
462.3513, 120.2064
462.8334, 118.2582
463.3155, 115.9416
463.7976, 113.8270
464.2797, 112.1332
464.7618, 110.6739
465.2440, 109.2554
465.7261, 107.8809
466.2082, 106.4050
466.6903, 104.4408
467.1724, 102.5226
467.6545, 101.3205
468.1367, 100.8751
468.6188, 100.8556
469.1009, 101.1553
469.5830, 101.6777
470.0651, 101.9369
470.5472, 101.3809
471.0294, 101.2870
471.5115, 102.3051
471.9936, 103.8258
472.4757, 105.2366
472.9578, 106.3343
473.4399, 106.9519
473.9221, 106.8024
474.4042, 105.6748
474.8863, 105.0081
475.3684, 104.9358
475.8505, 105.1143
476.3326, 105.6074
476.8148, 106.2273
477.2969, 106.7438
477.7790, 107.0499
478.2611, 107.0855
478.7432, 106.5970
479.2253, 105.2275
479.7075, 104.3600
480.1896, 104.1491
480.6717, 104.4841
481.1538, 105.5491
481.6359, 107.1907
482.1180, 108.8790
482.6002, 110.2693
483.0823, 111.4391
483.5644, 112.5566
484.0465, 113.5251
484.5286, 114.7815
485.0107, 116.5501
485.4929, 118.7127
485.9750, 121.1992
486.4571, 124.0355
486.9392, 126.9523
487.4213, 129.9850
487.9034, 132.9554
488.3856, 135.3995
488.8677, 137.2317
489.3498, 138.8200
489.8319, 140.7225
490.3140, 142.7441
490.7961, 143.2817
491.2783, 141.7543
491.7604, 139.3825
492.2425, 136.7096
492.7246, 133.5796
493.2067, 129.4494
493.6888, 124.1443
494.1710, 118.4492
494.6531, 113.6281
495.1352, 109.8564
495.6173, 106.4961
496.0994, 103.6798
496.5815, 101.0817
497.0637, 98.43908
497.5458, 95.90852
498.0279, 93.89202
498.5100, 92.64575
498.9921, 91.88422
499.4742, 90.80837
499.9564, 89.13993
500.4385, 87.87601
500.9206, 87.39805
501.4027, 87.16403
501.8848, 86.95023
502.3669, 86.70287
502.8491, 86.36474
503.3312, 85.85342
503.8133, 85.23312
504.2954, 84.60929
504.7775, 83.91909
505.2596, 83.55018
505.7418, 83.91191
506.2239, 84.58537
506.7060, 84.90773
507.1881, 84.72270
507.6702, 84.71079
508.1523, 85.44067
508.6345, 86.49046
509.1166, 87.15238
509.5987, 87.32301
510.0808, 87.26262
510.5629, 87.12052
511.0450, 86.91943
511.5272, 86.90254
512.0093, 87.23005
512.4914, 87.52455
512.9735, 87.65975
513.4556, 87.70603
513.9377, 87.84708
514.4199, 88.09953
514.9020, 88.15545
515.3841, 87.56284
515.8662, 86.18241
516.3483, 85.12298
516.8304, 84.62350
517.3126, 84.20714
517.7947, 83.85391
518.2768, 83.47108
518.7589, 82.98050
519.2410, 82.35845
519.7231, 81.51249
520.2053, 80.09709
520.6874, 78.03407
521.1695, 76.63790
521.6516, 76.45092
522.1337, 76.51049
522.6158, 76.10378
523.0980, 75.39378
523.5801, 74.85482
524.0622, 74.77830
524.5443, 74.82268
525.0264, 74.61157
525.5085, 74.18765
525.9907, 73.77844
526.4728, 73.41037
526.9549, 73.20932
527.4370, 73.49182
527.9191, 74.40927
528.4012, 74.83552
528.8834, 74.26188
529.3655, 73.50432
529.8476, 73.08458
530.3297, 72.96468
530.8118, 72.96096
531.2939, 72.99202
531.7761, 72.96413
532.2582, 72.60530
532.7403, 71.54217
533.2224, 70.84164
533.7045, 70.66416
534.1866, 70.67750
534.6688, 70.70877
535.1509, 70.75291
535.6330, 70.89738
536.1151, 71.25693
536.5972, 71.67933
537.0793, 71.64460
537.5615, 70.95048
538.0436, 70.65353
538.5257, 71.59180
539.0078, 72.63537
539.4899, 72.66653
539.9720, 71.70889
540.4542, 70.86158
540.9363, 70.82860
541.4184, 71.13753
541.9005, 71.07124
542.3826, 70.62572
542.8647, 70.25493
543.3469, 70.20239
543.8290, 70.36700
544.3111, 70.51762
544.7932, 70.74309
545.2753, 70.75655
545.7574, 70.19893
546.2396, 69.63935
546.7217, 69.71876
547.2038, 70.32650
547.6859, 70.75548
548.1680, 70.46633
548.6501, 69.68710
549.1323, 69.47143
549.6144, 70.35758
550.0965, 70.87399
550.5786, 70.59863
551.0607, 70.14909
551.5428, 69.95750
552.0250, 70.04642
552.5071, 70.19290
552.9892, 70.21493
553.4713, 70.18117
553.9534, 70.32390
554.4355, 70.68726
554.9177, 71.01231
555.3998, 71.27422
555.8819, 71.37795
556.3640, 71.11243
556.8461, 70.39565
557.3282, 69.96704
557.8104, 70.24268
558.2925, 70.88000
558.7746, 71.67075
559.2567, 72.51783
559.7388, 72.90942
560.2209, 72.45974
560.7031, 71.46453
561.1852, 70.86561
561.6673, 70.81133
562.1494, 70.97094
562.6315, 71.59061
563.1136, 72.22767
563.5958, 72.52902
564.0779, 72.53298
564.5600, 72.52830
565.0421, 72.75807
565.5242, 73.06261
566.0063, 72.76566
566.4885, 71.45449
566.9706, 70.75280
567.4527, 71.68475
567.9348, 72.88899
568.4169, 73.33865
568.8990, 73.09567
569.3812, 73.03968
569.8633, 73.86897
570.3454, 75.02394
570.8275, 75.75307
571.3096, 76.05617
571.7917, 75.98608
572.2739, 75.39177
572.7560, 74.71357
573.2381, 74.82162
573.7202, 75.95753
574.2023, 76.87051
574.6844, 77.26861
575.1666, 77.56680
575.6487, 78.04857
576.1308, 78.67244
576.6129, 79.28470
577.0950, 79.81102
577.5771, 80.24370
578.0593, 80.50508
578.5414, 80.37083
579.0235, 80.68075
579.5056, 82.00025
579.9877, 83.28650
580.4698, 83.95572
580.9520, 84.22767
581.4341, 84.69877
581.9162, 85.72419
582.3983, 86.87443
582.8804, 87.48083
583.3625, 87.60966
583.8447, 87.92564
584.3268, 88.54970
584.8089, 89.47243
585.2910, 90.76933
585.7731, 92.40676
586.2552, 94.02608
586.7374, 95.40723
587.2195, 96.96194
587.7016, 98.94620
588.1837, 101.2324
588.6658, 103.6477
589.1479, 106.1271
589.6301, 108.5504
590.1122, 110.6973
590.5943, 112.4606
591.0764, 114.9943
591.5585, 118.9752
592.0406, 122.9797
592.5228, 126.6208
593.0049, 130.1337
593.4870, 133.6359
593.9691, 137.1973
594.4512, 141.2497
594.9333, 146.2344
595.4155, 152.0869
595.8976, 158.5502
596.3797, 165.6773
596.8618, 173.0755
597.3439, 180.5122
597.8260, 188.0527
598.3082, 195.7239
598.7903, 203.4300
599.2724, 211.4973
