##NAMES=Mcgovernite
##RRUFFID=R110030
##IDEAL CHEMISTRY=Zn^2+^_3_(Mn^2+^,Mg,Fe^3+^,Al)_42_(As^3+^O_3_)_2_(As^5+^O_4_)_4_[(Si,As^5+^)O_4_]_8_(OH)_42_
##LOCALITY=Sterling Hill mine, Odgensberg, Sussex County, New Jersey, USA
##OWNER=RRUFF
##SOURCE=William W Pinch
##DESCRIPTION=Dark orange-brown micaceous crystals
##STATUS=The identification of this mineral has been confirmed by single-crystal X-ray diffraction.
##URL=rruff.info/R110030
129.6907, 2034.936
130.1729, 2029.911
130.6550, 2025.247
131.1371, 2021.083
131.6192, 2016.792
132.1013, 2011.385
132.5834, 2003.807
133.0656, 1997.118
133.5477, 1991.066
134.0298, 1985.911
134.5119, 1981.961
134.9940, 1979.301
135.4761, 1977.635
135.9583, 1976.341
136.4404, 1975.621
136.9225, 1975.085
137.4046, 1975.045
137.8867, 1975.122
138.3688, 1974.796
138.8510, 1973.832
139.3331, 1972.293
139.8152, 1970.376
140.2973, 1967.918
140.7794, 1965.399
141.2615, 1962.814
141.7437, 1960.254
142.2258, 1958.109
142.7079, 1956.683
143.1900, 1955.810
143.6721, 1954.935
144.1542, 1953.694
144.6364, 1952.860
145.1185, 1953.547
145.6006, 1956.052
146.0827, 1958.244
146.5648, 1959.221
147.0469, 1959.245
147.5291, 1958.277
148.0112, 1955.954
148.4933, 1953.006
148.9754, 1951.245
149.4575, 1951.755
149.9396, 1951.558
150.4218, 1949.444
150.9039, 1946.237
151.3860, 1942.758
151.8681, 1939.147
152.3502, 1935.709
152.8323, 1935.272
153.3145, 1942.468
153.7966, 1948.331
154.2787, 1951.133
154.7608, 1951.201
155.2429, 1949.400
155.7250, 1946.129
156.2072, 1941.170
156.6893, 1938.172
157.1714, 1937.831
157.6535, 1938.326
158.1356, 1940.082
158.6177, 1942.398
159.0999, 1942.907
159.5820, 1938.777
160.0641, 1928.840
160.5462, 1923.635
161.0283, 1926.947
161.5104, 1932.170
161.9926, 1934.612
162.4747, 1933.633
162.9568, 1930.854
163.4389, 1927.556
163.9210, 1923.760
164.4031, 1919.954
164.8853, 1915.972
165.3674, 1912.107
165.8495, 1909.033
166.3316, 1907.105
166.8137, 1905.222
167.2958, 1902.344
167.7780, 1898.655
168.2601, 1894.634
168.7422, 1889.828
169.2243, 1884.695
169.7064, 1881.371
170.1885, 1881.368
170.6707, 1881.644
171.1528, 1880.226
171.6349, 1877.332
172.1170, 1873.996
172.5991, 1870.542
173.0812, 1866.892
173.5634, 1864.781
174.0455, 1866.284
174.5276, 1867.835
175.0097, 1867.916
175.4918, 1866.548
175.9739, 1864.628
176.4561, 1863.057
176.9382, 1861.831
177.4203, 1860.938
177.9024, 1860.650
178.3845, 1860.432
178.8666, 1860.279
179.3488, 1860.044
179.8309, 1859.261
180.3130, 1857.117
180.7951, 1852.184
181.2772, 1849.252
181.7593, 1849.380
182.2415, 1850.540
182.7236, 1851.605
183.2057, 1852.204
183.6878, 1852.138
184.1699, 1850.952
184.6520, 1847.242
185.1342, 1845.407
185.6163, 1847.603
186.0984, 1850.855
186.5805, 1851.564
187.0626, 1848.551
187.5447, 1844.264
188.0269, 1843.141
188.5090, 1846.022
188.9911, 1848.010
189.4732, 1846.859
189.9553, 1844.289
190.4374, 1843.538
190.9196, 1845.968
191.4017, 1849.508
191.8838, 1850.742
192.3659, 1849.417
192.8480, 1849.081
193.3301, 1852.720
193.8123, 1858.986
194.2944, 1862.649
194.7765, 1860.936
195.2586, 1857.877
195.7407, 1858.300
196.2228, 1862.270
196.7050, 1865.727
197.1871, 1864.958
197.6692, 1860.205
198.1513, 1856.830
198.6334, 1856.464
199.1155, 1857.459
199.5977, 1859.253
200.0798, 1861.675
200.5619, 1863.586
201.0440, 1863.624
201.5261, 1861.472
202.0082, 1859.619
202.4904, 1858.162
202.9725, 1857.266
203.4546, 1857.166
203.9367, 1857.840
204.4188, 1858.953
204.9009, 1860.167
205.3831, 1861.577
205.8652, 1862.778
206.3473, 1863.645
206.8294, 1864.393
207.3115, 1865.179
207.7936, 1866.001
208.2758, 1866.718
208.7579, 1867.154
209.2400, 1867.381
209.7221, 1867.073
210.2042, 1866.056
210.6863, 1864.730
211.1685, 1863.256
211.6506, 1861.711
212.1327, 1860.205
212.6148, 1858.870
213.0969, 1857.642
213.5790, 1856.825
214.0612, 1856.240
214.5433, 1856.130
215.0254, 1857.049
215.5075, 1859.019
215.9896, 1861.058
216.4717, 1861.725
216.9539, 1860.326
217.4360, 1859.036
217.9181, 1857.328
218.4002, 1856.017
218.8823, 1856.275
219.3644, 1858.400
219.8466, 1860.926
220.3287, 1861.715
220.8108, 1860.404
221.2929, 1859.547
221.7750, 1860.094
222.2571, 1861.047
222.7393, 1860.996
223.2214, 1859.540
223.7035, 1857.765
224.1856, 1857.161
224.6677, 1857.628
225.1498, 1857.924
225.6320, 1857.057
226.1141, 1855.993
226.5962, 1856.836
227.0783, 1860.653
227.5604, 1864.227
228.0425, 1863.444
228.5247, 1859.347
229.0068, 1855.998
229.4889, 1855.238
229.9710, 1856.301
230.4531, 1857.479
230.9352, 1858.482
231.4174, 1859.894
231.8995, 1862.461
232.3816, 1865.795
232.8637, 1868.848
233.3458, 1871.326
233.8279, 1873.154
234.3101, 1873.917
234.7922, 1872.815
235.2743, 1871.973
235.7564, 1872.889
236.2385, 1874.905
236.7206, 1876.679
237.2028, 1877.122
237.6849, 1876.692
238.1670, 1877.597
238.6491, 1881.402
239.1312, 1884.145
239.6133, 1883.333
240.0955, 1880.630
240.5776, 1878.849
241.0597, 1879.792
241.5418, 1882.940
242.0239, 1885.912
242.5060, 1889.587
242.9882, 1891.711
243.4703, 1890.452
243.9524, 1887.639
244.4345, 1885.977
244.9166, 1887.153
245.3987, 1890.504
245.8809, 1892.849
246.3630, 1893.190
246.8451, 1893.749
247.3272, 1895.559
247.8093, 1897.687
248.2914, 1898.756
248.7736, 1897.945
249.2557, 1895.841
249.7378, 1894.850
250.2199, 1896.175
250.7020, 1897.195
251.1841, 1897.212
251.6663, 1896.863
252.1484, 1897.084
252.6305, 1898.346
253.1126, 1900.108
253.5947, 1900.646
254.0768, 1898.318
254.5590, 1896.688
255.0411, 1896.319
255.5232, 1896.621
256.0053, 1896.798
256.4874, 1896.526
256.9695, 1896.274
257.4517, 1897.172
257.9338, 1899.665
258.4159, 1902.975
258.8980, 1908.604
259.3801, 1914.397
259.8622, 1917.837
260.3444, 1918.088
260.8265, 1916.668
261.3086, 1916.415
261.7907, 1917.961
262.2728, 1919.818
262.7549, 1922.832
263.2371, 1925.726
263.7192, 1926.984
264.2013, 1926.245
264.6834, 1924.623
265.1655, 1923.668
265.6476, 1923.365
266.1298, 1924.060
266.6119, 1927.216
267.0940, 1930.585
267.5761, 1931.302
268.0582, 1928.957
268.5403, 1926.885
269.0225, 1929.801
269.5046, 1939.823
269.9867, 1944.194
270.4688, 1937.379
270.9509, 1928.072
271.4330, 1923.913
271.9152, 1925.727
272.3973, 1929.310
272.8794, 1931.008
273.3615, 1930.601
273.8436, 1929.679
274.3257, 1926.275
274.8079, 1923.751
275.2900, 1926.146
275.7721, 1933.230
276.2542, 1939.254
276.7363, 1939.352
277.2184, 1934.117
277.7006, 1931.141
278.1827, 1932.209
278.6648, 1934.144
279.1469, 1934.760
279.6290, 1934.166
280.1111, 1933.528
280.5933, 1933.388
281.0754, 1933.824
281.5575, 1934.895
282.0396, 1937.897
282.5217, 1939.984
283.0038, 1938.788
283.4860, 1934.872
283.9681, 1931.066
284.4502, 1928.387
284.9323, 1926.881
285.4144, 1926.467
285.8965, 1927.542
286.3787, 1928.684
286.8608, 1928.988
287.3429, 1928.686
287.8250, 1928.632
288.3071, 1929.145
288.7892, 1929.973
289.2714, 1930.677
289.7535, 1931.191
290.2356, 1931.984
290.7177, 1933.938
291.1998, 1936.357
291.6819, 1937.301
292.1641, 1936.035
292.6462, 1933.756
293.1283, 1931.444
293.6104, 1929.131
294.0925, 1927.408
294.5746, 1926.662
295.0568, 1926.646
295.5389, 1927.209
296.0210, 1928.772
296.5031, 1929.600
296.9852, 1927.131
297.4673, 1922.551
297.9495, 1919.115
298.4316, 1919.034
298.9137, 1920.260
299.3958, 1919.379
299.8779, 1915.828
300.3600, 1912.570
300.8422, 1912.255
301.3243, 1913.490
301.8064, 1913.884
302.2885, 1912.228
302.7706, 1910.188
303.2527, 1909.920
303.7349, 1911.562
304.2170, 1913.017
304.6991, 1913.543
305.1812, 1913.141
305.6633, 1911.518
306.1454, 1907.970
306.6276, 1904.873
307.1097, 1904.923
307.5918, 1907.911
308.0739, 1910.146
308.5560, 1910.324
309.0381, 1909.218
309.5203, 1907.694
310.0024, 1905.717
310.4845, 1903.789
310.9666, 1902.127
311.4487, 1900.754
311.9308, 1899.863
312.4130, 1899.591
312.8951, 1899.680
313.3772, 1900.014
313.8593, 1900.532
314.3414, 1900.828
314.8235, 1900.589
315.3057, 1899.981
315.7878, 1899.360
316.2699, 1898.642
316.7520, 1898.200
317.2341, 1898.722
317.7162, 1899.742
318.1984, 1900.165
318.6805, 1898.466
319.1626, 1896.476
319.6447, 1897.758
320.1268, 1903.102
320.6089, 1907.794
321.0911, 1908.445
321.5732, 1906.975
322.0553, 1905.800
322.5374, 1905.230
323.0195, 1905.368
323.5016, 1907.115
323.9838, 1910.508
324.4659, 1912.019
324.9480, 1908.904
325.4301, 1904.141
325.9122, 1901.377
326.3943, 1900.972
326.8765, 1901.548
327.3586, 1902.473
327.8407, 1903.655
328.3228, 1904.637
328.8049, 1905.563
329.2870, 1905.851
329.7692, 1904.635
330.2513, 1902.065
330.7334, 1899.811
331.2155, 1898.704
331.6976, 1898.491
332.1797, 1898.748
332.6619, 1899.652
333.1440, 1900.398
333.6261, 1899.925
334.1082, 1898.746
334.5903, 1898.103
335.0724, 1897.973
335.5546, 1898.777
336.0367, 1901.972
336.5188, 1907.904
337.0009, 1912.349
337.4830, 1911.743
337.9651, 1908.331
338.4473, 1906.407
338.9294, 1906.960
339.4115, 1908.241
339.8936, 1909.020
340.3757, 1909.347
340.8578, 1909.591
341.3400, 1910.025
341.8221, 1910.270
342.3042, 1909.813
342.7863, 1908.612
343.2684, 1907.040
343.7505, 1904.817
344.2327, 1902.369
344.7148, 1900.822
345.1969, 1900.575
345.6790, 1900.830
346.1611, 1900.504
346.6432, 1899.719
347.1254, 1899.654
347.6075, 1901.531
348.0896, 1903.846
348.5717, 1904.579
349.0538, 1903.524
349.5359, 1902.062
350.0181, 1901.175
350.5002, 1900.717
350.9823, 1899.978
351.4644, 1897.973
351.9465, 1896.495
352.4286, 1897.248
352.9108, 1899.784
353.3929, 1902.026
353.8750, 1903.045
354.3571, 1903.042
354.8392, 1902.423
355.3214, 1900.635
355.8035, 1899.516
356.2856, 1900.245
356.7677, 1901.994
357.2498, 1903.428
357.7319, 1904.234
358.2141, 1904.292
358.6962, 1903.028
359.1783, 1900.021
359.6604, 1898.408
360.1425, 1900.037
360.6246, 1902.293
361.1068, 1902.354
361.5889, 1900.104
362.0710, 1897.975
362.5531, 1898.210
363.0352, 1900.754
363.5173, 1901.751
363.9995, 1899.208
364.4816, 1897.239
364.9637, 1898.641
365.4458, 1902.241
365.9279, 1904.683
366.4100, 1903.996
366.8922, 1901.497
367.3743, 1901.565
367.8564, 1906.314
368.3385, 1910.424
368.8206, 1912.906
369.3027, 1914.529
369.7849, 1916.152
370.2670, 1918.006
370.7491, 1919.808
371.2312, 1921.259
371.7133, 1922.658
372.1954, 1922.479
372.6776, 1919.948
373.1597, 1916.639
373.6418, 1912.916
374.1239, 1909.177
374.6060, 1906.287
375.0881, 1904.997
375.5703, 1905.266
376.0524, 1905.298
376.5345, 1905.396
377.0166, 1904.942
377.4987, 1902.965
377.9808, 1900.564
378.4630, 1899.402
378.9451, 1900.250
379.4272, 1902.363
379.9093, 1904.066
380.3914, 1905.966
380.8735, 1906.282
381.3557, 1903.852
381.8378, 1900.780
382.3199, 1898.370
382.8020, 1896.919
383.2841, 1896.228
383.7662, 1896.147
384.2484, 1896.738
384.7305, 1897.451
385.2126, 1897.350
385.6947, 1898.305
386.1768, 1902.098
386.6589, 1907.348
387.1411, 1911.344
387.6232, 1912.361
388.1053, 1911.112
388.5874, 1910.121
389.0695, 1909.575
389.5516, 1908.937
390.0338, 1907.443
390.5159, 1906.153
390.9980, 1905.954
391.4801, 1907.105
391.9622, 1909.492
392.4443, 1913.760
392.9265, 1920.332
393.4086, 1924.685
393.8907, 1925.132
394.3728, 1924.122
394.8549, 1922.517
395.3370, 1920.600
395.8192, 1919.040
396.3013, 1917.975
396.7834, 1917.603
397.2655, 1919.035
397.7476, 1923.310
398.2297, 1926.670
398.7119, 1925.860
399.1940, 1923.337
399.6761, 1922.486
400.1582, 1924.974
400.6403, 1927.501
401.1224, 1925.817
401.6046, 1920.230
402.0867, 1916.500
402.5688, 1917.272
403.0509, 1919.615
403.5330, 1920.125
404.0151, 1918.804
404.4973, 1916.730
404.9794, 1913.788
405.4615, 1910.559
405.9436, 1908.425
406.4257, 1907.760
406.9078, 1906.526
407.3900, 1902.575
407.8721, 1896.501
408.3542, 1891.508
408.8363, 1888.578
409.3184, 1886.127
409.8005, 1883.803
410.2827, 1881.266
410.7648, 1877.039
411.2469, 1869.987
411.7290, 1861.851
412.2111, 1856.832
412.6932, 1855.906
413.1754, 1855.055
413.6575, 1853.920
414.1396, 1852.358
414.6217, 1849.964
415.1038, 1846.758
415.5859, 1843.544
416.0681, 1841.195
416.5502, 1839.845
417.0323, 1837.792
417.5144, 1834.471
417.9965, 1831.153
418.4786, 1828.314
418.9608, 1825.864
419.4429, 1823.427
419.9250, 1820.791
420.4071, 1818.287
420.8892, 1816.917
421.3713, 1818.379
421.8535, 1818.388
422.3356, 1815.861
422.8177, 1812.624
423.2998, 1810.046
423.7819, 1808.309
424.2640, 1806.825
424.7462, 1805.066
425.2283, 1803.038
425.7104, 1800.493
426.1925, 1796.699
426.6746, 1793.166
427.1567, 1790.537
427.6389, 1788.398
428.1210, 1785.991
428.6031, 1782.862
429.0852, 1779.655
429.5673, 1777.768
430.0494, 1777.495
430.5316, 1777.462
431.0137, 1777.928
431.4958, 1778.146
431.9779, 1777.342
432.4600, 1775.580
432.9421, 1773.998
433.4243, 1773.717
433.9064, 1774.392
434.3885, 1774.466
434.8706, 1773.683
435.3527, 1772.732
435.8348, 1771.904
436.3170, 1771.226
436.7991, 1770.804
437.2812, 1770.882
437.7633, 1770.905
438.2454, 1770.431
438.7275, 1769.462
439.2097, 1767.977
439.6918, 1765.847
440.1739, 1763.383
440.6560, 1760.756
441.1381, 1757.793
441.6202, 1755.970
442.1024, 1756.674
442.5845, 1758.203
443.0666, 1758.683
443.5487, 1757.946
444.0308, 1756.515
444.5129, 1754.338
444.9951, 1751.755
445.4772, 1751.717
445.9593, 1758.185
446.4414, 1762.236
446.9235, 1758.746
447.4056, 1751.845
447.8878, 1747.953
448.3699, 1749.231
448.8520, 1752.918
449.3341, 1754.833
449.8162, 1754.230
450.2983, 1753.874
450.7805, 1754.082
451.2626, 1754.210
451.7447, 1753.736
452.2268, 1752.883
452.7089, 1752.246
453.1910, 1752.213
453.6732, 1752.723
454.1553, 1753.625
454.6374, 1755.592
455.1195, 1756.753
455.6016, 1756.526
456.0837, 1755.675
456.5659, 1754.550
457.0480, 1753.323
457.5301, 1752.527
458.0122, 1752.565
458.4943, 1753.441
458.9764, 1755.898
459.4586, 1762.495
459.9407, 1766.715
460.4228, 1763.311
460.9049, 1755.812
461.3870, 1750.615
461.8691, 1750.639
462.3513, 1752.712
462.8334, 1753.130
463.3155, 1751.955
463.7976, 1750.877
464.2797, 1750.857
464.7618, 1750.596
465.2440, 1747.732
465.7261, 1742.153
466.2082, 1738.525
466.6903, 1740.158
467.1724, 1743.633
467.6545, 1744.652
468.1367, 1742.980
468.6188, 1741.020
469.1009, 1740.468
469.5830, 1740.905
470.0651, 1740.160
470.5472, 1736.924
471.0294, 1734.332
471.5115, 1733.274
471.9936, 1733.250
472.4757, 1733.776
472.9578, 1734.686
473.4399, 1735.845
473.9221, 1737.266
474.4042, 1739.290
474.8863, 1739.465
475.3684, 1737.503
475.8505, 1734.247
476.3326, 1729.041
476.8148, 1722.946
477.2969, 1717.480
477.7790, 1713.392
478.2611, 1710.532
478.7432, 1708.636
479.2253, 1707.645
479.7075, 1707.848
480.1896, 1711.649
480.6717, 1714.699
481.1538, 1713.617
481.6359, 1709.226
482.1180, 1705.596
482.6002, 1706.265
483.0823, 1709.444
483.5644, 1709.726
484.0465, 1706.290
484.5286, 1702.961
485.0107, 1701.310
485.4929, 1700.756
485.9750, 1700.792
486.4571, 1701.507
486.9392, 1702.108
487.4213, 1701.872
487.9034, 1701.207
488.3856, 1701.203
488.8677, 1702.138
489.3498, 1702.878
489.8319, 1702.437
490.3140, 1700.822
490.7961, 1699.099
491.2783, 1695.780
491.7604, 1693.907
492.2425, 1695.514
492.7246, 1699.417
493.2067, 1703.552
493.6888, 1707.178
494.1710, 1710.558
494.6531, 1714.090
495.1352, 1718.090
495.6173, 1721.180
496.0994, 1722.432
496.5815, 1723.807
497.0637, 1726.098
497.5458, 1729.264
498.0279, 1733.168
498.5100, 1737.821
498.9921, 1742.723
499.4742, 1746.545
499.9564, 1748.594
500.4385, 1751.296
500.9206, 1755.302
501.4027, 1759.821
501.8848, 1764.464
502.3669, 1769.185
502.8491, 1773.986
503.3312, 1779.239
503.8133, 1784.500
504.2954, 1788.477
504.7775, 1791.022
505.2596, 1792.859
505.7418, 1793.327
506.2239, 1793.842
506.7060, 1796.934
507.1881, 1803.662
507.6702, 1809.002
508.1523, 1809.117
508.6345, 1806.649
509.1166, 1806.507
509.5987, 1809.427
510.0808, 1811.702
510.5629, 1809.925
511.0450, 1804.554
511.5272, 1801.171
512.0093, 1801.820
512.4914, 1801.719
512.9735, 1798.689
513.4556, 1794.420
513.9377, 1791.272
514.4199, 1789.842
514.9020, 1788.875
515.3841, 1787.111
515.8662, 1784.867
516.3483, 1779.737
516.8304, 1767.073
517.3126, 1756.462
517.7947, 1752.206
518.2768, 1751.242
518.7589, 1749.117
519.2410, 1744.074
519.7231, 1737.353
520.2053, 1730.136
520.6874, 1722.302
521.1695, 1716.084
521.6516, 1712.761
522.1337, 1709.888
522.6158, 1705.658
523.0980, 1700.500
523.5801, 1695.636
524.0622, 1691.673
524.5443, 1688.038
525.0264, 1684.069
525.5085, 1679.853
525.9907, 1676.171
526.4728, 1673.438
526.9549, 1671.023
527.4370, 1668.202
527.9191, 1665.129
528.4012, 1660.656
528.8834, 1653.082
529.3655, 1645.438
529.8476, 1639.670
530.3297, 1635.619
530.8118, 1632.644
531.2939, 1630.478
531.7761, 1628.624
532.2582, 1625.818
532.7403, 1621.643
533.2224, 1617.192
533.7045, 1611.579
534.1866, 1606.501
534.6688, 1603.159
535.1509, 1601.252
535.6330, 1599.619
536.1151, 1597.440
536.5972, 1595.099
537.0793, 1593.896
537.5615, 1594.355
538.0436, 1593.834
538.5257, 1590.926
539.0078, 1587.231
539.4899, 1583.937
539.9720, 1581.117
540.4542, 1578.856
540.9363, 1578.137
541.4184, 1577.560
541.9005, 1574.686
542.3826, 1569.571
542.8647, 1564.738
543.3469, 1561.500
543.8290, 1559.355
544.3111, 1557.081
544.7932, 1554.866
545.2753, 1552.135
545.7574, 1547.415
546.2396, 1543.106
546.7217, 1541.893
547.2038, 1543.315
547.6859, 1544.676
548.1680, 1544.091
548.6501, 1541.904
549.1323, 1539.507
549.6144, 1535.920
550.0965, 1533.931
550.5786, 1535.211
551.0607, 1536.921
551.5428, 1537.188
552.0250, 1535.841
552.5071, 1533.535
552.9892, 1530.149
553.4713, 1526.349
553.9534, 1524.257
554.4355, 1524.219
554.9177, 1524.152
555.3998, 1523.117
555.8819, 1521.713
556.3640, 1520.620
556.8461, 1519.808
557.3282, 1519.660
557.8104, 1521.210
558.2925, 1522.983
558.7746, 1522.769
559.2567, 1520.739
559.7388, 1519.433
560.2209, 1520.682
560.7031, 1523.255
561.1852, 1523.214
561.6673, 1517.585
562.1494, 1513.465
562.6315, 1511.257
563.1136, 1510.344
563.5958, 1511.301
564.0779, 1513.304
564.5600, 1513.837
565.0421, 1510.740
565.5242, 1505.541
566.0063, 1503.648
566.4885, 1506.334
566.9706, 1508.623
567.4527, 1509.830
567.9348, 1509.842
568.4169, 1507.619
568.8990, 1503.630
569.3812, 1500.871
569.8633, 1501.880
570.3454, 1504.544
570.8275, 1506.276
571.3096, 1507.011
571.7917, 1505.960
572.2739, 1502.036
572.7560, 1497.341
573.2381, 1495.829
573.7202, 1498.260
574.2023, 1500.612
574.6844, 1503.003
575.1666, 1504.796
575.6487, 1505.563
576.1308, 1505.365
576.6129, 1504.291
577.0950, 1502.341
577.5771, 1499.983
578.0593, 1498.203
578.5414, 1497.008
579.0235, 1496.358
579.5056, 1497.275
579.9877, 1497.765
580.4698, 1496.310
580.9520, 1493.743
581.4341, 1492.065
581.9162, 1492.360
582.3983, 1493.529
582.8804, 1494.272
583.3625, 1494.602
583.8447, 1494.682
584.3268, 1494.652
584.8089, 1494.150
585.2910, 1492.652
585.7731, 1490.244
586.2552, 1487.764
586.7374, 1484.973
587.2195, 1482.462
587.7016, 1480.697
588.1837, 1479.395
588.6658, 1477.963
589.1479, 1476.249
589.6301, 1474.788
590.1122, 1474.420
590.5943, 1475.399
591.0764, 1474.952
591.5585, 1471.027
592.0406, 1468.053
592.5228, 1467.701
593.0049, 1468.545
593.4870, 1468.879
593.9691, 1468.270
594.4512, 1467.523
594.9333, 1467.286
595.4155, 1467.536
595.8976, 1468.213
596.3797, 1469.340
596.8618, 1470.835
597.3439, 1473.177
597.8260, 1475.630
598.3082, 1476.362
598.7903, 1474.499
599.2724, 1473.150
599.7545, 1473.578
600.2366, 1474.855
600.7188, 1476.038
601.2009, 1477.061
601.6830, 1478.320
602.1651, 1480.128
602.6472, 1482.288
603.1293, 1484.163
603.6115, 1486.370
604.0936, 1487.066
604.5757, 1484.080
605.0578, 1481.493
605.5399, 1483.076
606.0220, 1487.426
606.5042, 1489.508
606.9863, 1485.484
607.4684, 1479.265
607.9505, 1477.567
608.4326, 1480.269
608.9147, 1482.482
609.3969, 1482.986
609.8790, 1482.529
610.3611, 1481.888
610.8432, 1481.039
611.3253, 1479.476
611.8074, 1475.588
612.2896, 1472.602
612.7717, 1473.288
613.2538, 1475.719
613.7359, 1476.415
614.2180, 1474.413
614.7001, 1471.582
615.1823, 1470.129
615.6644, 1470.127
616.1465, 1469.927
616.6286, 1470.213
617.1107, 1469.269
617.5928, 1466.003
618.0750, 1461.771
618.5571, 1457.472
619.0392, 1453.390
619.5213, 1450.722
620.0034, 1451.362
620.4855, 1453.828
620.9677, 1454.666
621.4498, 1453.688
621.9319, 1452.734
622.4140, 1453.012
622.8961, 1453.546
623.3782, 1451.881
623.8604, 1446.914
624.3425, 1443.535
624.8246, 1443.610
625.3067, 1444.285
