##NAMES=Mcgovernite
##RRUFFID=R110030
##IDEAL CHEMISTRY=Zn^2+^_3_(Mn^2+^,Mg,Fe^3+^,Al)_42_(As^3+^O_3_)_2_(As^5+^O_4_)_4_[(Si,As^5+^)O_4_]_8_(OH)_42_
##LOCALITY=Sterling Hill mine, Odgensberg, Sussex County, New Jersey, USA
##OWNER=RRUFF
##SOURCE=William W Pinch
##DESCRIPTION=Dark orange-brown micaceous crystals
##STATUS=The identification of this mineral has been confirmed by single-crystal X-ray diffraction.
##URL=rruff.info/R110030
179.6838, 1193.785
180.1659, 1189.958
180.6480, 1188.794
181.1301, 1189.451
181.6122, 1192.144
182.0944, 1196.248
182.5765, 1199.564
183.0586, 1199.712
183.5407, 1198.653
184.0228, 1201.233
184.5049, 1207.954
184.9871, 1215.546
185.4692, 1219.973
185.9513, 1221.705
186.4334, 1223.022
186.9155, 1225.154
187.3976, 1227.720
187.8798, 1228.788
188.3619, 1227.628
188.8440, 1227.333
189.3261, 1233.639
189.8082, 1246.048
190.2903, 1257.471
190.7725, 1263.047
191.2546, 1264.080
191.7367, 1268.229
192.2188, 1276.689
192.7009, 1286.174
193.1830, 1290.222
193.6652, 1288.802
194.1473, 1287.968
194.6294, 1292.215
195.1115, 1300.954
195.5936, 1306.008
196.0757, 1305.810
196.5579, 1303.670
197.0400, 1306.461
197.5221, 1314.602
198.0042, 1322.995
198.4863, 1329.474
198.9684, 1334.032
199.4506, 1335.836
199.9327, 1334.387
200.4148, 1330.770
200.8969, 1326.761
201.3790, 1322.034
201.8611, 1318.477
202.3433, 1317.353
202.8254, 1318.802
203.3075, 1321.091
203.7896, 1324.400
204.2717, 1328.174
204.7538, 1330.748
205.2360, 1331.745
205.7181, 1332.849
206.2002, 1335.350
206.6823, 1339.591
207.1644, 1342.780
207.6465, 1344.522
208.1287, 1345.136
208.6108, 1345.555
209.0929, 1345.711
209.5750, 1345.823
210.0571, 1345.970
210.5392, 1346.098
211.0214, 1346.595
211.5035, 1347.783
211.9856, 1349.296
212.4677, 1349.781
212.9498, 1348.983
213.4319, 1347.820
213.9141, 1346.591
214.3962, 1344.916
214.8783, 1344.802
215.3604, 1347.178
215.8425, 1351.153
216.3246, 1352.829
216.8067, 1351.314
217.2889, 1349.241
217.7710, 1348.351
218.2531, 1349.317
218.7352, 1349.197
219.2173, 1346.809
219.6994, 1343.083
220.1816, 1343.022
220.6637, 1348.715
221.1458, 1354.381
221.6279, 1355.930
222.1100, 1351.202
222.5921, 1348.274
223.0743, 1348.923
223.5564, 1351.933
224.0385, 1350.990
224.5206, 1343.416
225.0027, 1336.209
225.4848, 1334.124
225.9670, 1339.912
226.4491, 1344.249
226.9312, 1346.085
227.4133, 1345.930
227.8954, 1346.277
228.3775, 1347.383
228.8597, 1348.618
229.3418, 1349.501
229.8239, 1349.571
230.3060, 1350.270
230.7881, 1351.448
231.2702, 1353.278
231.7524, 1356.838
232.2345, 1363.310
232.7166, 1369.699
233.1987, 1374.240
233.6808, 1376.657
234.1629, 1377.645
234.6451, 1376.450
235.1272, 1373.775
235.6093, 1372.809
236.0914, 1374.377
236.5735, 1376.519
237.0556, 1378.137
237.5378, 1378.839
238.0199, 1379.995
238.5020, 1382.187
238.9841, 1384.950
239.4662, 1386.141
239.9483, 1384.880
240.4305, 1383.339
240.9126, 1382.613
241.3947, 1382.810
241.8768, 1383.708
242.3589, 1385.701
242.8410, 1388.375
243.3232, 1390.171
243.8053, 1390.289
244.2874, 1390.602
244.7695, 1392.174
245.2516, 1395.924
245.7337, 1398.769
246.2159, 1400.232
246.6980, 1400.738
247.1801, 1401.706
247.6622, 1403.471
248.1443, 1405.149
248.6264, 1406.158
249.1086, 1405.745
249.5907, 1406.585
250.0728, 1409.581
250.5549, 1413.627
251.0370, 1415.537
251.5191, 1413.902
252.0013, 1412.424
252.4834, 1412.986
252.9655, 1416.942
253.4476, 1419.304
253.9297, 1419.094
254.4118, 1417.749
254.8940, 1418.635
255.3761, 1422.842
255.8582, 1427.355
256.3403, 1430.876
256.8224, 1433.030
257.3046, 1435.399
257.7867, 1438.335
258.2688, 1441.197
258.7509, 1442.409
259.2330, 1440.745
259.7151, 1439.854
260.1973, 1441.246
260.6794, 1445.324
261.1615, 1449.967
261.6436, 1455.994
262.1257, 1461.848
262.6078, 1464.608
263.0900, 1463.224
263.5721, 1461.290
264.0542, 1460.038
264.5363, 1459.614
265.0184, 1458.934
265.5005, 1457.723
265.9827, 1456.623
266.4648, 1456.327
266.9469, 1456.541
267.4290, 1458.551
267.9111, 1463.758
268.3932, 1472.536
268.8754, 1477.327
269.3575, 1476.947
269.8396, 1474.349
270.3217, 1473.192
270.8038, 1473.774
271.2859, 1474.480
271.7681, 1474.687
272.2502, 1474.420
272.7323, 1474.960
273.2144, 1476.093
273.6965, 1478.428
274.1786, 1483.548
274.6608, 1492.486
275.1429, 1498.784
275.6250, 1500.305
276.1071, 1497.693
276.5892, 1495.733
277.0714, 1494.624
277.5535, 1493.694
278.0356, 1491.860
278.5177, 1488.860
278.9998, 1487.750
279.4819, 1489.863
279.9641, 1494.189
280.4462, 1496.321
280.9283, 1496.083
281.4104, 1494.391
281.8925, 1491.138
282.3746, 1486.280
282.8568, 1483.487
283.3389, 1483.907
283.8210, 1486.387
284.3031, 1487.862
284.7852, 1488.334
285.2673, 1488.166
285.7495, 1487.508
286.2316, 1486.410
286.7137, 1485.173
287.1958, 1483.791
287.6779, 1482.390
288.1600, 1480.787
288.6422, 1478.951
289.1243, 1478.350
289.6064, 1480.736
290.0885, 1485.431
290.5706, 1488.801
291.0527, 1490.269
291.5349, 1490.816
292.0170, 1492.211
292.4991, 1494.297
292.9812, 1495.681
293.4633, 1493.800
293.9454, 1490.429
294.4276, 1492.451
294.9097, 1501.215
295.3918, 1510.895
295.8739, 1513.786
296.3560, 1510.917
296.8381, 1507.247
297.3203, 1504.669
297.8024, 1503.012
298.2845, 1501.778
298.7666, 1500.919
299.2487, 1500.939
299.7308, 1503.126
300.2130, 1506.728
300.6951, 1509.557
301.1772, 1510.689
301.6593, 1510.575
302.1414, 1509.195
302.6235, 1506.602
303.1057, 1504.732
303.5878, 1506.373
304.0699, 1509.782
304.5520, 1511.646
305.0341, 1509.865
305.5162, 1507.039
305.9984, 1505.448
306.4805, 1505.101
306.9626, 1505.940
307.4447, 1509.376
307.9268, 1513.537
308.4089, 1515.827
308.8911, 1514.822
309.3732, 1512.958
309.8553, 1511.352
310.3374, 1510.298
310.8195, 1510.786
311.3016, 1514.592
311.7838, 1519.553
312.2659, 1523.948
312.7480, 1527.656
313.2301, 1530.160
313.7122, 1530.364
314.1943, 1529.161
314.6765, 1528.430
315.1586, 1528.517
315.6407, 1529.686
316.1228, 1532.623
316.6049, 1538.013
317.0870, 1542.553
317.5692, 1543.988
318.0513, 1543.844
318.5334, 1544.242
319.0155, 1546.841
319.4976, 1549.297
319.9797, 1550.235
320.4619, 1549.391
320.9440, 1549.244
321.4261, 1550.913
321.9082, 1553.434
322.3903, 1555.891
322.8724, 1558.137
323.3546, 1560.214
323.8367, 1562.383
324.3188, 1564.599
324.8009, 1565.836
325.2830, 1564.024
325.7651, 1562.363
326.2473, 1562.943
326.7294, 1568.480
327.2115, 1573.409
327.6936, 1577.712
328.1757, 1581.200
328.6578, 1583.021
329.1400, 1581.055
329.6221, 1579.262
330.1042, 1579.355
330.5863, 1582.661
331.0684, 1585.716
331.5505, 1588.594
332.0327, 1591.165
332.5148, 1593.024
332.9969, 1593.255
333.4790, 1593.896
333.9611, 1595.647
334.4432, 1598.677
334.9254, 1602.031
335.4075, 1606.139
335.8896, 1610.080
336.3717, 1612.316
336.8538, 1611.836
337.3359, 1611.972
337.8180, 1613.583
338.3001, 1616.648
338.7823, 1620.909
339.2644, 1627.209
339.7465, 1633.039
340.2286, 1635.880
340.7107, 1635.453
341.1928, 1633.492
341.6750, 1629.377
342.1571, 1624.314
342.6392, 1624.140
343.1213, 1629.806
343.6034, 1635.384
344.0855, 1635.155
344.5677, 1629.497
345.0498, 1628.326
345.5319, 1633.936
346.0140, 1642.725
346.4961, 1648.363
346.9782, 1650.886
347.4604, 1651.384
347.9425, 1648.321
348.4246, 1643.382
348.9067, 1643.863
349.3888, 1651.025
349.8709, 1659.242
350.3531, 1660.259
350.8352, 1656.097
351.3173, 1654.275
351.7994, 1660.687
352.2815, 1670.549
352.7636, 1675.480
353.2458, 1675.464
353.7279, 1674.536
354.2100, 1675.492
354.6921, 1677.930
355.1742, 1681.294
355.6563, 1686.565
356.1385, 1691.474
356.6206, 1693.072
357.1027, 1692.037
357.5848, 1691.724
358.0669, 1695.359
358.5490, 1700.069
359.0312, 1703.122
359.5133, 1703.776
359.9954, 1703.299
360.4775, 1701.177
360.9596, 1698.482
361.4417, 1697.494
361.9239, 1700.589
362.4060, 1704.534
362.8881, 1707.270
363.3702, 1708.146
363.8523, 1710.210
364.3344, 1716.337
364.8166, 1723.522
365.2987, 1728.374
365.7808, 1727.952
366.2629, 1727.147
366.7450, 1726.916
367.2271, 1727.302
367.7093, 1728.533
368.1914, 1731.258
368.6735, 1734.418
369.1556, 1737.330
369.6377, 1738.203
370.1198, 1740.983
370.6020, 1747.734
371.0841, 1756.748
371.5662, 1761.817
372.0483, 1761.242
372.5304, 1758.670
373.0125, 1754.831
373.4947, 1747.642
373.9768, 1745.637
374.4589, 1751.237
374.9410, 1760.055
375.4231, 1764.716
375.9052, 1763.686
376.3874, 1763.008
376.8695, 1764.689
377.3516, 1768.714
377.8337, 1772.195
378.3158, 1775.309
378.7979, 1777.670
379.2801, 1778.155
379.7622, 1776.616
380.2443, 1777.141
380.7264, 1781.289
381.2085, 1787.383
381.6906, 1790.421
382.1728, 1790.304
382.6549, 1790.661
383.1370, 1794.540
383.6191, 1801.035
384.1012, 1806.482
384.5833, 1810.431
385.0655, 1813.585
385.5476, 1816.384
386.0297, 1819.043
386.5118, 1822.263
386.9939, 1827.034
387.4760, 1832.347
387.9582, 1836.654
388.4403, 1839.966
388.9224, 1843.163
389.4045, 1847.063
389.8866, 1851.268
390.3687, 1855.235
390.8509, 1858.691
391.3330, 1861.953
391.8151, 1865.502
392.2972, 1869.164
392.7793, 1872.249
393.2614, 1873.106
393.7436, 1874.073
394.2257, 1877.074
394.7078, 1883.315
395.1899, 1889.365
395.6720, 1893.861
396.1541, 1897.395
396.6363, 1900.930
397.1184, 1903.914
397.6005, 1907.640
398.0826, 1913.268
398.5647, 1921.305
399.0468, 1927.167
399.5290, 1930.413
400.0111, 1931.298
400.4932, 1929.932
400.9753, 1922.125
401.4574, 1917.822
401.9395, 1919.749
402.4217, 1926.263
402.9038, 1929.457
403.3859, 1927.753
403.8680, 1925.059
404.3501, 1923.181
404.8322, 1922.366
405.3144, 1921.731
405.7965, 1921.744
406.2786, 1921.388
406.7607, 1918.475
407.2428, 1912.353
407.7249, 1907.334
408.2071, 1905.886
408.6892, 1906.998
409.1713, 1903.736
409.6534, 1895.553
410.1355, 1885.962
410.6176, 1877.286
411.0998, 1869.657
411.5819, 1864.301
412.0640, 1861.774
412.5461, 1861.063
413.0282, 1861.671
413.5103, 1863.124
413.9925, 1862.692
414.4746, 1857.848
414.9567, 1850.389
415.4388, 1842.945
415.9209, 1835.621
416.4030, 1828.672
416.8852, 1822.589
417.3673, 1816.909
417.8494, 1810.862
418.3315, 1803.115
418.8136, 1795.742
419.2957, 1789.784
419.7779, 1785.296
420.2600, 1782.115
420.7421, 1781.002
421.2242, 1780.736
421.7063, 1780.694
422.1884, 1781.822
422.6706, 1781.195
423.1527, 1776.228
423.6348, 1769.242
424.1169, 1764.570
424.5990, 1764.876
425.0811, 1765.550
425.5633, 1765.111
426.0454, 1763.284
426.5275, 1761.994
427.0096, 1761.469
427.4917, 1761.231
427.9738, 1761.016
428.4560, 1761.432
428.9381, 1760.393
429.4202, 1756.824
429.9023, 1751.813
430.3844, 1749.131
430.8665, 1749.413
431.3487, 1750.278
431.8308, 1750.703
432.3129, 1750.697
432.7950, 1750.077
433.2771, 1748.589
433.7592, 1747.220
434.2414, 1747.959
434.7235, 1750.539
435.2056, 1751.420
435.6877, 1748.594
436.1698, 1744.029
436.6519, 1741.875
437.1341, 1742.067
437.6162, 1743.066
438.0983, 1744.849
438.5804, 1746.424
439.0625, 1745.388
439.5446, 1740.377
440.0268, 1736.041
440.5089, 1737.593
440.9910, 1742.852
441.4731, 1747.324
441.9552, 1749.891
442.4373, 1750.326
442.9195, 1747.216
443.4016, 1740.690
443.8837, 1735.773
444.3658, 1734.587
444.8479, 1735.778
445.3300, 1738.429
445.8122, 1746.072
446.2943, 1750.269
446.7764, 1746.641
447.2585, 1738.446
447.7406, 1734.047
448.2227, 1737.578
448.7049, 1741.444
449.1870, 1743.757
449.6691, 1744.468
450.1512, 1743.717
450.6333, 1740.407
451.1154, 1736.885
451.5976, 1735.466
452.0797, 1736.685
452.5618, 1738.485
453.0439, 1741.027
453.5260, 1743.740
454.0081, 1744.599
454.4903, 1743.303
454.9724, 1742.201
455.4545, 1742.700
455.9366, 1744.595
456.4187, 1746.477
456.9008, 1748.243
457.3830, 1750.165
457.8651, 1752.549
458.3472, 1755.307
458.8293, 1758.201
459.3114, 1761.951
459.7935, 1764.952
460.2757, 1764.323
460.7578, 1760.740
461.2399, 1757.702
461.7220, 1758.295
462.2041, 1759.947
462.6862, 1760.014
463.1684, 1757.730
463.6505, 1755.704
464.1326, 1756.093
464.6147, 1757.337
465.0968, 1757.410
465.5789, 1754.177
466.0611, 1751.313
466.5432, 1750.177
467.0253, 1750.652
467.5074, 1750.832
467.9895, 1749.289
468.4716, 1748.420
468.9538, 1749.588
469.4359, 1754.520
469.9180, 1757.568
470.4001, 1757.843
470.8822, 1756.836
471.3643, 1756.816
471.8465, 1758.088
472.3286, 1759.379
472.8107, 1760.367
473.2928, 1761.073
473.7749, 1761.600
474.2570, 1761.821
474.7392, 1762.467
475.2213, 1764.831
475.7034, 1768.450
476.1855, 1769.826
476.6676, 1768.200
477.1497, 1765.690
477.6319, 1765.141
478.1140, 1766.115
478.5961, 1767.164
479.0782, 1766.611
479.5603, 1766.464
480.0424, 1770.297
480.5246, 1777.510
481.0067, 1783.116
481.4888, 1781.229
481.9709, 1777.857
482.4530, 1778.904
482.9352, 1787.757
483.4173, 1795.378
483.8994, 1795.794
484.3815, 1793.252
484.8636, 1794.225
485.3457, 1803.023
485.8279, 1812.512
486.3100, 1821.024
486.7921, 1828.541
487.2742, 1835.882
487.7563, 1842.729
488.2384, 1849.867
488.7206, 1857.731
489.2027, 1866.582
489.6848, 1875.396
490.1669, 1883.948
490.6490, 1892.741
491.1311, 1902.489
491.6133, 1912.965
492.0954, 1925.493
492.5775, 1941.231
493.0596, 1959.130
493.5417, 1975.253
494.0238, 1989.482
494.5060, 2003.917
494.9881, 2019.826
495.4702, 2037.008
495.9523, 2055.653
496.4344, 2075.821
496.9165, 2096.628
497.3987, 2117.098
497.8808, 2137.650
498.3629, 2158.687
498.8450, 2181.375
499.3271, 2203.827
499.8092, 2224.772
500.2914, 2244.490
500.7735, 2262.746
501.2556, 2278.188
501.7377, 2293.600
502.2198, 2310.993
502.7019, 2332.376
503.1841, 2351.653
503.6662, 2367.307
504.1483, 2380.861
504.6304, 2393.927
505.1125, 2406.921
505.5946, 2418.495
506.0768, 2428.445
506.5589, 2436.832
507.0410, 2444.178
507.5231, 2450.392
508.0052, 2455.732
508.4873, 2460.948
508.9695, 2465.980
509.4516, 2467.250
509.9337, 2464.262
510.4158, 2459.398
510.8979, 2455.209
511.3800, 2451.444
511.8622, 2447.395
512.3443, 2443.540
512.8264, 2438.306
513.3085, 2428.704
513.7906, 2415.646
514.2728, 2402.383
514.7549, 2391.206
515.2370, 2380.354
515.7191, 2369.050
516.2012, 2357.296
516.6833, 2342.714
517.1655, 2320.156
517.6476, 2296.349
518.1297, 2277.097
518.6118, 2268.465
519.0939, 2258.404
519.5760, 2243.844
520.0582, 2226.725
520.5403, 2211.312
521.0224, 2198.948
521.5045, 2186.638
521.9866, 2173.532
522.4688, 2159.562
522.9509, 2145.699
523.4330, 2131.342
523.9151, 2118.206
524.3972, 2108.271
524.8793, 2101.654
525.3615, 2093.560
525.8436, 2083.252
526.3257, 2071.990
526.8078, 2062.085
527.2899, 2053.099
527.7720, 2043.136
528.2542, 2031.606
528.7363, 2018.711
529.2184, 2003.302
529.7005, 1986.157
530.1826, 1970.755
530.6647, 1960.327
531.1469, 1951.997
531.6290, 1943.271
532.1111, 1933.832
532.5932, 1924.246
533.0753, 1914.266
533.5574, 1904.472
534.0396, 1895.625
534.5217, 1888.189
535.0038, 1881.273
535.4859, 1875.436
535.9680, 1870.053
536.4501, 1862.776
536.9323, 1851.935
537.4144, 1842.068
537.8965, 1835.089
538.3786, 1831.080
538.8607, 1826.967
539.3428, 1822.720
539.8250, 1818.499
540.3071, 1814.816
540.7892, 1811.556
541.2713, 1806.852
541.7534, 1799.953
542.2355, 1792.893
542.7177, 1789.175
543.1998, 1787.782
543.6819, 1785.571
544.1640, 1780.370
544.6461, 1774.254
545.1282, 1768.920
545.6104, 1764.346
546.0925, 1760.187
546.5746, 1755.352
547.0567, 1751.534
547.5388, 1750.455
548.0209, 1753.731
548.5031, 1755.063
548.9852, 1751.943
549.4673, 1746.817
549.9494, 1742.191
550.4315, 1737.458
550.9136, 1734.276
551.3958, 1733.268
551.8779, 1733.785
552.3600, 1734.186
552.8421, 1734.765
553.3242, 1734.115
553.8063, 1730.713
554.2885, 1725.217
554.7706, 1723.485
555.2527, 1725.837
555.7348, 1728.636
556.2169, 1728.541
556.6990, 1726.456
557.1812, 1724.484
557.6633, 1722.787
558.1454, 1721.981
558.6275, 1724.176
559.1096, 1727.474
559.5917, 1728.561
560.0739, 1722.942
560.5560, 1717.775
561.0381, 1717.404
561.5202, 1720.785
562.0023, 1723.207
562.4844, 1722.615
562.9666, 1721.525
563.4487, 1720.808
563.9308, 1720.314
564.4129, 1721.100
564.8950, 1724.432
565.3771, 1727.630
565.8593, 1728.078
566.3414, 1724.763
566.8235, 1723.175
567.3056, 1724.352
567.7877, 1726.670
568.2698, 1726.967
568.7520, 1725.385
569.2341, 1724.150
569.7162, 1724.257
570.1983, 1725.170
570.6804, 1726.320
571.1625, 1727.594
571.6447, 1728.123
572.1268, 1726.276
572.6089, 1724.055
573.0910, 1723.812
573.5731, 1726.133
574.0552, 1727.865
574.5374, 1725.469
575.0195, 1722.857
575.5016, 1723.662
575.9837, 1734.409
576.4658, 1741.287
576.9479, 1741.147
577.4301, 1736.786
577.9122, 1733.582
578.3943, 1731.761
578.8764, 1730.428
579.3585, 1729.111
579.8406, 1727.988
580.3228, 1729.087
580.8049, 1732.878
581.2870, 1735.825
581.7691, 1734.796
582.2512, 1730.852
582.7333, 1728.077
583.2155, 1726.719
583.6976, 1726.633
584.1797, 1728.725
584.6617, 1731.777
585.1439, 1733.695
585.6260, 1733.474
586.1081, 1732.848
586.5902, 1732.730
587.0723, 1732.982
587.5544, 1733.320
588.0366, 1733.952
588.5187, 1734.335
589.0008, 1733.810
589.4829, 1732.474
589.9650, 1732.543
590.4471, 1734.964
590.9293, 1737.471
591.4114, 1738.920
591.8935, 1739.128
592.3756, 1739.452
592.8577, 1739.892
593.3398, 1740.412
593.8220, 1740.784
594.3041, 1741.117
594.7862, 1742.386
595.2683, 1745.063
595.7504, 1748.024
596.2325, 1749.495
596.7147, 1750.107
597.1968, 1751.430
597.6789, 1754.627
598.1610, 1758.445
598.6431, 1762.260
599.1252, 1766.002
599.6074, 1769.412
600.0895, 1772.579
600.5716, 1775.272
601.0537, 1777.458
601.5358, 1779.178
602.0179, 1779.792
602.5001, 1777.288
602.9822, 1775.677
603.4643, 1778.474
603.9464, 1787.338
604.4285, 1794.273
604.9106, 1798.879
605.3928, 1801.401
605.8749, 1801.033
606.3570, 1798.135
606.8391, 1797.725
607.3212, 1802.800
607.8033, 1809.247
608.2855, 1809.878
608.7676, 1806.163
609.2497, 1803.570
609.7318, 1805.542
610.2139, 1809.513
610.6960, 1814.608
611.1782, 1820.602
611.6603, 1824.074
612.1424, 1822.242
612.6245, 1818.704
613.1066, 1815.548
613.5887, 1812.662
614.0709, 1810.865
614.5530, 1810.697
615.0351, 1811.170
615.5172, 1811.374
615.9993, 1811.409
616.4814, 1810.591
616.9636, 1808.342
617.4457, 1805.926
617.9278, 1806.335
618.4099, 1809.249
618.8920, 1811.464
619.3741, 1811.875
619.8563, 1810.656
620.3384, 1806.698
620.8205, 1800.761
621.3026, 1796.716
621.7847, 1799.419
622.2668, 1802.957
622.7490, 1802.480
623.2311, 1797.187
623.7132, 1792.445
624.1953, 1790.100
624.6774, 1788.558
625.1595, 1786.688
625.6417, 1783.949
626.1238, 1782.040
626.6059, 1781.314
627.0880, 1781.125
627.5701, 1780.402
628.0522, 1778.992
628.5344, 1778.894
629.0165, 1781.095
629.4986, 1783.978
629.9807, 1784.099
630.4628, 1781.876
630.9449, 1779.629
631.4271, 1778.329
631.9092, 1777.643
632.3913, 1777.288
632.8734, 1777.222
633.3555, 1777.326
633.8376, 1777.904
634.3198, 1778.304
634.8019, 1778.091
635.2840, 1777.120
635.7661, 1776.006
636.2482, 1774.649
636.7303, 1773.308
637.2125, 1772.313
637.6946, 1772.217
638.1767, 1770.579
638.6588, 1766.557
639.1409, 1762.334
639.6230, 1761.630
640.1052, 1764.187
640.5873, 1765.932
641.0694, 1765.530
641.5515, 1764.370
642.0336, 1764.853
642.5157, 1766.352
642.9979, 1767.027
643.4800, 1765.004
643.9621, 1762.616
644.4442, 1761.396
644.9263, 1761.249
645.4084, 1761.499
645.8906, 1762.277
646.3727, 1763.113
646.8548, 1764.141
647.3369, 1765.656
647.8190, 1765.064
648.3011, 1761.245
648.7833, 1757.016
649.2654, 1754.659
649.7475, 1754.339
650.2296, 1753.284
650.7117, 1751.059
651.1938, 1749.151
651.6760, 1749.890
652.1581, 1752.526
652.6402, 1754.782
653.1223, 1756.144
653.6044, 1756.746
654.0865, 1756.403
654.5687, 1755.435
655.0508, 1754.472
655.5329, 1753.278
656.0150, 1752.598
656.4971, 1753.223
656.9792, 1754.775
657.4614, 1755.269
657.9435, 1754.207
658.4256, 1752.596
658.9077, 1749.961
659.3898, 1746.484
659.8719, 1748.112
660.3541, 1756.264
660.8362, 1762.849
661.3183, 1760.395
661.8004, 1751.430
662.2825, 1746.081
662.7646, 1745.037
663.2468, 1745.233
663.7289, 1743.478
664.2110, 1741.541
664.6931, 1742.199
665.1752, 1747.535
665.6573, 1751.615
666.1395, 1750.219
666.6216, 1746.791
667.1037, 1745.567
667.5858, 1750.205
668.0679, 1753.130
668.5500, 1752.936
669.0322, 1751.064
669.5143, 1750.802
669.9964, 1752.543
670.4785, 1753.855
670.9606, 1753.729
671.4427, 1752.842
671.9249, 1753.445
672.4070, 1755.295
672.8891, 1756.481
673.3712, 1754.157
673.8533, 1751.565
674.3354, 1753.067
674.8176, 1758.401
675.2997, 1763.717
