##NAMES=Meionite
##RRUFFID=R040169
##IDEAL CHEMISTRY=Ca_4_Al_6_Si_6_O_24_(CO_3_)
##LOCALITY=Black Hills, South Dakota, USA
##OWNER=RRUFF
##SOURCE=University of Arizona Mineral Museum
##DESCRIPTION=White massive
##STATUS=The identification of this mineral has been confirmed by X-ray diffraction and chemical analysis
##URL=rruff.info/R040169
##MEASURED CHEMISTRY=(Ca_0.73_Na_0.24_K_0.03_)_4_(Si_0.58_Al_0.41_)_12_O_24_((CO_3_)_0.90_Cl_0.10_)
134.7162, 2870.813
135.1983, 2937.082
135.6804, 3016.063
136.1626, 3109.857
136.6447, 3212.198
137.1268, 3311.793
137.6089, 3407.712
138.0910, 3501.531
138.5731, 3594.237
139.0553, 3689.831
139.5374, 3770.994
140.0195, 3836.180
140.5016, 3886.083
140.9837, 3918.523
141.4658, 3925.662
141.9480, 3928.170
142.4301, 3940.936
142.9122, 3971.595
143.3943, 3995.968
143.8764, 4008.897
144.3585, 4010.604
144.8407, 4017.498
145.3228, 4029.282
145.8049, 4046.468
146.2870, 4069.866
146.7691, 4104.141
147.2512, 4138.101
147.7334, 4169.086
148.2155, 4196.467
148.6976, 4225.022
149.1797, 4254.526
149.6618, 4285.359
150.1439, 4317.726
150.6261, 4349.233
151.1082, 4384.054
151.5903, 4423.298
152.0724, 4468.172
152.5545, 4514.575
153.0366, 4565.395
153.5188, 4617.227
154.0009, 4663.172
154.4830, 4704.847
154.9651, 4738.978
155.4472, 4763.996
155.9293, 4773.650
156.4115, 4783.077
156.8936, 4795.629
157.3757, 4810.406
157.8578, 4824.451
158.3399, 4841.378
158.8221, 4854.706
159.3042, 4860.382
159.7863, 4853.563
160.2684, 4842.724
160.7505, 4829.286
161.2326, 4813.449
161.7148, 4797.684
162.1969, 4789.530
162.6790, 4779.364
163.1611, 4758.080
163.6432, 4710.066
164.1253, 4660.055
164.6075, 4621.780
165.0896, 4595.758
165.5717, 4571.431
166.0538, 4545.577
166.5359, 4517.214
167.0180, 4484.966
167.5002, 4439.040
167.9823, 4394.480
168.4644, 4367.284
168.9465, 4361.723
169.4286, 4351.929
169.9107, 4313.299
170.3929, 4256.370
170.8750, 4202.302
171.3571, 4162.665
171.8392, 4131.644
172.3213, 4104.688
172.8034, 4083.002
173.2856, 4060.463
173.7677, 4029.898
174.2498, 3993.146
174.7319, 3957.105
175.2140, 3921.629
175.6961, 3890.385
176.1783, 3870.483
176.6604, 3866.557
177.1425, 3868.719
177.6246, 3869.566
178.1067, 3868.077
178.5888, 3857.524
179.0710, 3820.011
179.5531, 3769.984
180.0352, 3741.897
180.5173, 3752.020
180.9994, 3779.948
181.4815, 3790.727
181.9637, 3785.029
182.4458, 3780.873
182.9279, 3801.543
183.4100, 3838.808
183.8921, 3860.050
184.3742, 3841.380
184.8564, 3788.692
185.3385, 3823.741
185.8206, 3848.204
186.3027, 3862.651
186.7848, 3837.080
187.2669, 3863.183
187.7491, 3868.580
188.2312, 3873.126
188.7133, 3906.503
189.1954, 3886.752
189.6775, 3918.817
190.1596, 3927.372
190.6418, 3937.775
191.1239, 3949.858
191.6060, 3958.904
192.0881, 3960.656
192.5702, 3956.362
193.0524, 3957.546
193.5345, 3965.113
194.0166, 3975.760
194.4987, 3985.086
194.9808, 3993.122
195.4629, 3999.400
195.9451, 4003.358
196.4272, 4005.076
196.9093, 4005.108
197.3914, 4002.006
197.8735, 3999.518
198.3556, 4006.230
198.8378, 4023.492
199.3199, 4041.154
199.8020, 4055.118
200.2841, 4065.472
200.7662, 4068.013
201.2483, 4059.821
201.7305, 4046.124
202.2126, 4041.014
202.6947, 4046.863
203.1768, 4052.448
203.6589, 4048.018
204.1410, 4030.677
204.6232, 4025.802
205.1053, 4040.958
205.5874, 4067.694
206.0695, 4075.209
206.5516, 4056.830
207.0337, 4036.751
207.5159, 4032.782
207.9980, 4048.757
208.4801, 4062.793
208.9622, 4071.620
209.4443, 4076.486
209.9264, 4085.054
210.4086, 4101.156
210.8907, 4113.272
211.3728, 4109.289
211.8549, 4081.751
212.3370, 4064.153
212.8191, 4064.828
213.3013, 4080.875
213.7834, 4086.112
214.2655, 4073.978
214.7476, 4061.578
215.2297, 4065.963
215.7118, 4095.561
216.1940, 4118.266
216.6761, 4125.677
217.1582, 4118.822
217.6403, 4120.853
218.1224, 4136.373
218.6045, 4154.586
219.0867, 4164.619
219.5688, 4162.776
220.0509, 4161.417
220.5330, 4164.074
221.0151, 4170.971
221.4972, 4171.688
221.9794, 4161.020
222.4615, 4149.979
222.9436, 4152.843
223.4257, 4181.958
223.9078, 4198.768
224.3899, 4188.053
224.8721, 4145.730
225.3542, 4129.063
225.8363, 4148.683
226.3184, 4183.689
226.8005, 4211.052
227.2827, 4231.601
227.7648, 4242.141
228.2469, 4239.075
228.7290, 4219.877
229.2111, 4206.592
229.6932, 4199.421
230.1754, 4198.143
230.6575, 4204.117
231.1396, 4224.939
231.6217, 4239.398
232.1038, 4240.641
232.5859, 4226.202
233.0681, 4210.844
233.5502, 4190.272
234.0323, 4171.888
234.5144, 4167.711
234.9965, 4187.013
235.4786, 4204.914
235.9608, 4213.135
236.4429, 4208.755
236.9250, 4207.529
237.4071, 4208.227
237.8892, 4212.891
238.3713, 4226.504
238.8535, 4258.468
239.3356, 4283.368
239.8177, 4288.851
240.2998, 4264.243
240.7819, 4262.766
241.2640, 4295.346
241.7462, 4344.664
242.2283, 4380.991
242.7104, 4398.393
243.1925, 4412.505
243.6746, 4427.823
244.1567, 4444.114
244.6389, 4462.526
245.1210, 4482.136
245.6031, 4504.330
246.0852, 4532.406
246.5673, 4571.192
247.0494, 4607.561
247.5316, 4635.349
248.0137, 4649.578
248.4958, 4673.116
248.9779, 4711.649
249.4600, 4756.186
249.9421, 4788.089
250.4243, 4800.176
250.9064, 4812.960
251.3885, 4835.731
251.8706, 4874.909
252.3527, 4901.434
252.8348, 4907.196
253.3170, 4905.288
253.7991, 4922.198
254.2812, 4967.240
254.7633, 5012.977
255.2454, 5051.023
255.7275, 5082.544
256.2097, 5100.746
256.6918, 5104.705
257.1739, 5095.812
257.6560, 5073.663
258.1381, 5029.555
258.6202, 4990.163
259.1024, 4968.744
259.5845, 4973.776
260.0666, 4961.805
260.5487, 4928.101
261.0308, 4880.969
261.5129, 4833.367
261.9951, 4785.707
262.4772, 4737.484
262.9593, 4687.257
263.4414, 4631.898
263.9235, 4589.475
264.4056, 4566.634
264.8878, 4550.023
265.3699, 4512.934
265.8520, 4446.964
266.3341, 4383.633
266.8162, 4336.463
267.2983, 4309.407
267.7805, 4274.609
268.2626, 4228.362
268.7447, 4178.807
269.2268, 4140.459
269.7089, 4115.472
270.1910, 4094.097
270.6732, 4072.807
271.1553, 4051.651
271.6374, 4030.739
272.1195, 4009.382
272.6016, 3989.241
273.0837, 3974.008
273.5659, 3964.193
274.0480, 3956.364
274.5301, 3951.756
275.0122, 3950.829
275.4943, 3936.470
275.9764, 3903.231
276.4586, 3866.814
276.9407, 3852.100
277.4228, 3861.205
277.9049, 3874.947
278.3870, 3890.063
278.8691, 3905.937
279.3513, 3905.689
279.8334, 3885.488
280.3155, 3859.011
280.7976, 3843.580
281.2798, 3839.545
281.7619, 3841.340
282.2440, 3847.144
282.7261, 3857.061
283.2082, 3873.856
283.6903, 3899.292
284.1725, 3925.106
284.6546, 3941.005
285.1367, 3947.101
285.6188, 3949.466
286.1009, 3946.195
286.5830, 3940.519
287.0652, 3948.531
287.5473, 3971.729
288.0294, 3999.185
288.5115, 4018.750
288.9936, 4031.376
289.4757, 4044.155
289.9579, 4059.884
290.4400, 4077.432
290.9221, 4095.719
291.4042, 4115.120
291.8863, 4130.581
292.3684, 4131.622
292.8506, 4122.527
293.3327, 4122.728
293.8148, 4146.618
294.2969, 4178.813
294.7790, 4189.263
295.2611, 4177.909
295.7433, 4156.118
296.2254, 4127.302
296.7075, 4094.872
297.1896, 4069.592
297.6717, 4055.914
298.1538, 4049.071
298.6360, 4045.455
299.1181, 4044.406
299.6002, 4038.535
300.0823, 4019.115
300.5644, 3991.118
301.0465, 3963.159
301.5287, 3934.997
302.0108, 3910.940
302.4929, 3897.063
302.9750, 3892.426
303.4571, 3892.395
303.9392, 3900.929
304.4214, 3910.026
304.9035, 3907.775
305.3856, 3886.156
305.8677, 3860.915
306.3498, 3842.612
306.8319, 3831.529
307.3141, 3828.436
307.7962, 3848.061
308.2783, 3869.353
308.7604, 3868.545
309.2425, 3830.634
309.7246, 3792.583
310.2068, 3777.639
310.6889, 3780.919
311.1710, 3789.390
311.6531, 3801.322
312.1352, 3813.264
312.6173, 3823.329
313.0995, 3832.277
313.5816, 3835.898
314.0637, 3828.572
314.5458, 3814.751
315.0279, 3802.794
315.5100, 3794.925
315.9922, 3790.495
316.4743, 3788.925
316.9564, 3789.808
317.4385, 3794.971
317.9206, 3808.270
318.4027, 3825.474
318.8849, 3840.670
319.3670, 3857.925
319.8491, 3867.934
320.3312, 3861.650
320.8133, 3833.388
321.2954, 3820.087
321.7776, 3845.895
322.2597, 3883.526
322.7418, 3903.896
323.2239, 3890.330
323.7060, 3871.605
324.1881, 3848.536
324.6703, 3819.556
325.1524, 3808.347
325.6345, 3831.653
326.1166, 3865.513
326.5987, 3890.924
327.0808, 3905.467
327.5630, 3914.112
328.0451, 3912.439
328.5272, 3901.424
329.0093, 3903.411
329.4914, 3933.590
329.9735, 3962.944
330.4557, 3970.721
330.9378, 3935.326
331.4199, 3916.766
331.9020, 3927.741
332.3841, 3960.407
332.8662, 3974.416
333.3484, 3956.449
333.8305, 3939.820
334.3126, 3945.913
334.7947, 3986.750
335.2768, 4011.491
335.7589, 4010.463
336.2411, 3995.882
336.7232, 3999.841
337.2053, 4027.297
337.6874, 4058.781
338.1695, 4086.054
338.6516, 4108.539
339.1338, 4130.207
339.6159, 4151.645
340.0980, 4171.144
340.5801, 4185.129
341.0622, 4193.471
341.5443, 4198.728
342.0265, 4199.434
342.5086, 4196.716
342.9907, 4202.869
343.4728, 4219.447
343.9549, 4238.604
344.4370, 4249.557
344.9192, 4253.174
345.4013, 4258.177
345.8834, 4266.612
346.3655, 4278.812
346.8476, 4290.223
347.3297, 4293.558
347.8119, 4324.476
348.2940, 4351.762
348.7761, 4375.614
349.2582, 4385.751
349.7403, 4413.599
350.2225, 4434.354
350.7046, 4454.813
351.1867, 4485.155
351.6688, 4497.286
352.1509, 4520.871
352.6331, 4547.672
353.1152, 4575.261
353.5973, 4602.321
354.0794, 4628.536
354.5615, 4655.215
355.0436, 4681.158
355.5258, 4702.716
356.0079, 4714.953
356.4900, 4723.550
356.9721, 4733.718
357.4542, 4747.078
357.9363, 4759.233
358.4185, 4767.950
358.9006, 4773.769
359.3827, 4777.624
359.8648, 4781.156
360.3469, 4781.803
360.8290, 4757.109
361.3112, 4758.538
361.7933, 4756.339
362.2754, 4750.707
362.7575, 4731.359
363.2396, 4729.723
363.7217, 4720.988
364.2039, 4711.962
364.6860, 4712.819
365.1681, 4695.466
365.6502, 4703.875
366.1323, 4697.304
366.6144, 4688.121
367.0966, 4677.624
367.5787, 4660.757
368.0608, 4649.066
368.5429, 4646.171
369.0250, 4649.937
369.5071, 4649.257
369.9893, 4640.130
370.4714, 4631.229
370.9535, 4626.495
371.4356, 4626.123
371.9177, 4630.345
372.3998, 4643.188
372.8820, 4658.605
373.3641, 4660.809
373.8462, 4643.009
374.3283, 4629.694
374.8104, 4632.872
375.2925, 4654.501
375.7747, 4669.674
376.2568, 4677.420
376.7389, 4680.893
377.2210, 4682.029
377.7031, 4680.276
378.1852, 4684.587
378.6674, 4700.831
379.1495, 4725.164
379.6316, 4742.509
380.1137, 4752.649
380.5958, 4756.445
381.0779, 4747.954
381.5601, 4731.264
382.0422, 4727.677
382.5243, 4744.649
383.0064, 4773.365
383.4885, 4805.206
383.9706, 4838.827
384.4528, 4862.138
384.9349, 4857.349
385.4170, 4839.482
385.8991, 4835.793
386.3812, 4854.596
386.8633, 4873.803
387.3455, 4868.403
387.8276, 4847.439
388.3097, 4831.500
388.7918, 4834.191
389.2739, 4844.181
389.7560, 4853.374
390.2382, 4861.181
390.7203, 4867.730
391.2024, 4875.133
391.6845, 4880.618
392.1666, 4881.043
392.6487, 4862.872
393.1309, 4851.123
393.6130, 4865.885
394.0951, 4903.447
394.5772, 4920.014
395.0593, 4873.119
395.5414, 4821.541
396.0236, 4802.554
396.5057, 4862.630
396.9878, 4906.434
397.4699, 4919.337
397.9520, 4908.739
398.4341, 4897.577
398.9163, 4876.564
399.3984, 4864.784
399.8805, 4872.957
400.3626, 4915.172
400.8447, 4933.767
401.3268, 4914.362
401.8090, 4881.939
402.2911, 4873.982
402.7732, 4902.163
403.2553, 4924.272
403.7374, 4927.052
404.2195, 4911.804
404.7017, 4900.321
405.1838, 4890.510
405.6659, 4890.244
406.1480, 4913.746
406.6301, 4961.688
407.1122, 4993.308
407.5944, 4996.093
408.0765, 4983.771
408.5586, 4988.983
409.0407, 5011.469
409.5228, 5038.484
410.0049, 5066.201
410.4871, 5091.816
410.9692, 5105.576
411.4513, 5104.290
411.9334, 5100.145
412.4155, 5102.794
412.8976, 5113.399
413.3798, 5134.701
413.8619, 5178.644
414.3440, 5227.941
414.8261, 5264.292
415.3082, 5287.435
415.7903, 5307.825
416.2725, 5333.592
416.7546, 5360.144
417.2367, 5382.566
417.7188, 5391.555
418.2009, 5404.059
418.6830, 5432.081
419.1652, 5471.206
419.6473, 5504.144
420.1294, 5523.213
420.6115, 5536.279
421.0937, 5548.533
421.5758, 5564.130
422.0579, 5570.732
422.5400, 5558.040
423.0221, 5537.227
423.5042, 5526.455
423.9864, 5535.654
424.4685, 5544.544
424.9506, 5549.033
425.4327, 5548.862
425.9148, 5546.759
426.3969, 5542.447
426.8791, 5536.524
427.3612, 5529.622
427.8433, 5522.036
428.3254, 5511.882
428.8075, 5496.149
429.2896, 5478.775
429.7718, 5476.311
430.2539, 5491.918
430.7360, 5505.607
431.2181, 5497.273
431.7002, 5469.999
432.1823, 5474.494
432.6645, 5519.770
433.1466, 5575.255
433.6287, 5592.006
434.1108, 5578.406
434.5929, 5576.456
435.0750, 5605.723
435.5572, 5656.494
436.0393, 5716.145
436.5214, 5784.274
437.0035, 5852.613
437.4856, 5910.842
437.9677, 5965.758
438.4499, 6025.959
438.9320, 6092.114
439.4141, 6166.649
439.8962, 6256.970
440.3783, 6357.191
440.8604, 6454.826
441.3426, 6529.578
441.8247, 6610.020
442.3068, 6713.984
442.7889, 6847.220
443.2710, 6985.577
443.7531, 7126.368
444.2353, 7267.213
444.7174, 7407.940
445.1995, 7545.157
445.6816, 7683.800
446.1637, 7822.230
446.6458, 7960.235
447.1280, 8111.393
447.6101, 8289.630
448.0922, 8466.324
448.5743, 8622.912
449.0564, 8752.308
449.5385, 8886.491
450.0207, 9033.680
450.5028, 9178.886
450.9849, 9295.581
451.4670, 9383.242
451.9491, 9439.966
452.4312, 9464.312
452.9134, 9456.447
453.3955, 9413.357
453.8776, 9332.111
454.3597, 9238.242
454.8418, 9159.996
455.3239, 9091.521
455.8061, 9009.328
456.2882, 8899.143
456.7703, 8785.235
457.2524, 8703.471
457.7345, 8648.877
458.2166, 8599.398
458.6988, 8547.585
459.1809, 8491.757
459.6630, 8428.405
460.1451, 8355.019
460.6272, 8285.534
461.1093, 8240.968
461.5915, 8201.968
462.0736, 8145.270
462.5557, 8047.091
463.0378, 7945.629
463.5199, 7856.399
464.0020, 7778.167
464.4842, 7696.433
464.9663, 7609.054
465.4484, 7517.596
465.9305, 7422.164
466.4126, 7317.898
466.8947, 7215.864
467.3769, 7111.198
467.8590, 7011.241
468.3411, 6928.028
468.8232, 6869.768
469.3053, 6812.779
469.7874, 6750.143
470.2696, 6682.296
470.7517, 6617.791
471.2338, 6557.860
471.7159, 6498.024
472.1980, 6430.957
472.6801, 6356.917
473.1623, 6300.207
473.6444, 6268.404
474.1265, 6246.246
474.6086, 6205.467
475.0907, 6149.005
475.5728, 6095.853
476.0550, 6055.554
476.5371, 6025.005
477.0192, 6003.206
477.5013, 5990.162
477.9834, 5974.038
478.4655, 5937.331
478.9477, 5894.547
479.4298, 5866.055
479.9119, 5872.140
480.3940, 5875.394
480.8761, 5850.119
481.3582, 5805.807
481.8404, 5770.005
482.3225, 5763.063
482.8046, 5757.305
483.2867, 5738.034
483.7688, 5697.884
484.2509, 5665.555
484.7331, 5646.630
485.2152, 5635.108
485.6973, 5624.727
486.1794, 5610.596
486.6615, 5606.759
487.1436, 5620.295
487.6258, 5645.853
488.1079, 5658.773
488.5900, 5658.497
489.0721, 5646.698
489.5542, 5619.566
490.0363, 5576.789
490.5185, 5542.288
491.0006, 5516.242
491.4827, 5500.892
491.9648, 5507.422
492.4470, 5530.938
492.9291, 5543.850
493.4112, 5531.007
493.8933, 5507.241
494.3754, 5495.142
494.8575, 5493.241
495.3397, 5493.015
495.8218, 5487.228
496.3039, 5480.917
496.7860, 5480.636
497.2681, 5489.140
497.7502, 5496.483
498.2324, 5500.026
498.7145, 5498.536
499.1966, 5490.387
499.6787, 5463.571
500.1608, 5441.661
500.6429, 5431.958
501.1251, 5434.214
501.6072, 5441.750
502.0893, 5463.954
502.5714, 5482.676
503.0535, 5487.730
503.5356, 5467.685
504.0178, 5462.110
504.4999, 5476.862
504.9820, 5500.854
505.4641, 5518.961
505.9462, 5531.438
506.4283, 5535.492
506.9105, 5524.717
507.3926, 5506.104
507.8747, 5510.240
508.3568, 5538.159
508.8389, 5570.761
509.3210, 5593.933
509.8032, 5611.184
510.2853, 5635.138
510.7674, 5670.148
511.2495, 5699.925
511.7316, 5700.334
512.2137, 5683.532
512.6959, 5674.250
513.1780, 5681.610
513.6601, 5700.833
514.1422, 5732.039
514.6243, 5773.914
515.1064, 5818.022
515.5886, 5857.442
516.0707, 5900.817
516.5528, 5953.737
517.0349, 6022.603
517.5170, 6090.005
517.9991, 6151.406
518.4813, 6211.157
518.9634, 6274.346
519.4455, 6341.390
519.9276, 6411.247
520.4097, 6484.886
520.8918, 6560.704
521.3740, 6636.249
521.8561, 6710.709
522.3382, 6787.590
522.8203, 6869.629
523.3024, 6956.017
523.7845, 7043.957
524.2667, 7133.173
524.7488, 7226.618
525.2309, 7335.774
525.7130, 7456.035
526.1951, 7569.029
526.6772, 7668.594
527.1594, 7759.382
527.6415, 7844.925
528.1236, 7924.994
528.6057, 8000.669
529.0878, 8084.352
529.5699, 8155.237
530.0521, 8196.703
530.5342, 8205.621
531.0163, 8191.880
531.4984, 8157.868
531.9805, 8103.083
532.4626, 8027.016
532.9448, 7926.416
533.4269, 7806.936
533.9090, 7653.855
534.3911, 7480.688
534.8732, 7349.143
535.3553, 7278.532
535.8375, 7210.532
536.3196, 7118.540
536.8017, 6999.677
537.2838, 6892.399
537.7659, 6795.489
538.2480, 6710.915
538.7302, 6641.168
539.2123, 6585.227
539.6944, 6542.851
540.1765, 6519.972
540.6586, 6499.534
541.1407, 6450.335
541.6229, 6380.586
542.1050, 6319.091
542.5871, 6291.242
543.0692, 6271.992
543.5513, 6234.245
544.0334, 6177.200
544.5156, 6132.599
544.9977, 6124.881
545.4798, 6130.236
545.9619, 6130.331
546.4440, 6121.152
546.9261, 6107.429
547.4083, 6082.486
547.8904, 6054.787
548.3725, 6040.351
548.8546, 6047.052
549.3367, 6054.021
549.8188, 6056.809
550.3010, 6055.568
550.7831, 6051.284
551.2652, 6042.887
551.7473, 6034.991
552.2294, 6031.286
552.7115, 6031.376
553.1937, 6032.071
553.6758, 6033.506
554.1579, 6033.920
554.6400, 6025.933
555.1221, 6014.603
555.6042, 6015.455
556.0864, 6048.277
556.5685, 6081.210
557.0506, 6076.246
557.5327, 6043.129
558.0148, 6018.104
558.4969, 6020.531
558.9791, 6035.256
559.4612, 6055.736
559.9433, 6083.169
560.4254, 6105.768
560.9075, 6122.060
561.3896, 6132.002
561.8718, 6135.745
562.3539, 6128.701
562.8360, 6122.919
563.3181, 6117.830
563.8002, 6115.256
564.2823, 6121.180
564.7645, 6137.716
565.2466, 6153.095
565.7287, 6162.998
566.2108, 6167.904
566.6929, 6168.510
567.1750, 6164.608
567.6572, 6161.010
568.1393, 6155.417
568.6214, 6154.105
569.1035, 6174.595
569.5856, 6225.639
570.0677, 6274.417
570.5499, 6290.031
571.0320, 6286.583
571.5141, 6286.570
571.9962, 6309.073
572.4783, 6325.789
572.9604, 6318.858
573.4426, 6293.779
573.9247, 6279.284
574.4068, 6291.765
574.8889, 6305.047
575.3710, 6308.812
575.8531, 6300.928
576.3353, 6293.521
576.8174, 6283.090
577.2995, 6278.440
577.7816, 6291.201
578.2637, 6323.429
578.7458, 6350.834
579.2280, 6370.132
579.7101, 6382.707
580.1922, 6389.244
580.6743, 6390.505
581.1564, 6390.800
581.6385, 6387.995
582.1207, 6387.554
582.6028, 6402.099
583.0849, 6428.900
583.5670, 6447.635
584.0491, 6446.066
584.5313, 6431.746
585.0134, 6406.925
585.4955, 6365.327
585.9776, 6335.385
586.4597, 6332.063
586.9418, 6341.111
587.4240, 6346.440
587.9061, 6343.186
588.3882, 6342.556
588.8703, 6344.350
589.3524, 6349.911
589.8345, 6366.278
590.3167, 6398.218
590.7988, 6422.823
591.2809, 6430.483
591.7630, 6422.533
592.2451, 6395.706
592.7272, 6348.658
593.2094, 6315.667
593.6915, 6344.038
594.1736, 6402.953
594.6557, 6428.820
595.1378, 6403.424
595.6199, 6376.911
596.1021, 6392.558
596.5842, 6429.220
597.0663, 6456.846
597.5485, 6458.013
598.0306, 6455.979
598.5127, 6456.208
598.9948, 6458.795
599.4769, 6463.870
599.9590, 6476.028
600.4412, 6485.154
600.9233, 6487.372
601.4054, 6482.262
601.8875, 6476.308
602.3696, 6468.082
602.8517, 6462.646
603.3339, 6466.737
603.8160, 6479.380
604.2981, 6486.240
604.7802, 6484.284
605.2623, 6481.184
605.7444, 6486.566
606.2266, 6498.784
606.7087, 6513.283
607.1908, 6531.948
607.6729, 6548.809
608.1550, 6560.760
608.6371, 6567.345
609.1193, 6567.497
609.6014, 6552.633
610.0835, 6538.157
610.5656, 6531.161
611.0477, 6532.485
611.5298, 6538.882
612.0120, 6557.485
612.4941, 6573.748
612.9762, 6577.676
613.4583, 6566.917
613.9404, 6549.875
614.4225, 6521.385
614.9047, 6496.552
615.3868, 6503.133
615.8689, 6538.392
616.3510, 6564.191
616.8331, 6563.853
617.3152, 6555.617
617.7974, 6573.336
618.2795, 6609.398
618.7616, 6635.156
619.2437, 6624.857
619.7258, 6605.622
620.2079, 6595.773
620.6901, 6596.495
621.1722, 6603.476
621.6543, 6624.431
622.1364, 6644.754
622.6185, 6653.549
623.1006, 6641.000
623.5828, 6637.946
624.0649, 6647.569
624.5470, 6663.769
625.0291, 6681.292
625.5112, 6701.868
625.9933, 6713.466
626.4755, 6711.124
626.9576, 6702.285
627.4397, 6702.276
627.9218, 6710.236
628.4039, 6719.591
628.8860, 6725.838
629.3682, 6732.323
629.8503, 6746.398
630.3324, 6766.601
