##NAMES=Meionite
##RRUFFID=R040169
##IDEAL CHEMISTRY=Ca_4_Al_6_Si_6_O_24_(CO_3_)
##LOCALITY=Black Hills, South Dakota, USA
##OWNER=RRUFF
##SOURCE=University of Arizona Mineral Museum
##DESCRIPTION=White massive
##STATUS=The identification of this mineral has been confirmed by X-ray diffraction and chemical analysis
##URL=rruff.info/R040169
##MEASURED CHEMISTRY=(Ca_0.73_Na_0.24_K_0.03_)_4_(Si_0.58_Al_0.41_)_12_O_24_((CO_3_)_0.90_Cl_0.10_)
142.2325, 1263.029
142.7147, 1283.407
143.1968, 1320.069
143.6789, 1373.636
144.1610, 1428.178
144.6431, 1480.934
145.1252, 1536.558
145.6074, 1598.035
146.0895, 1665.167
146.5716, 1735.808
147.0537, 1809.014
147.5358, 1884.812
148.0179, 1959.343
148.5001, 2032.938
148.9822, 2104.988
149.4643, 2178.531
149.9464, 2253.452
150.4285, 2319.607
150.9106, 2368.021
151.3928, 2398.568
151.8749, 2424.668
152.3570, 2450.078
152.8391, 2469.417
153.3212, 2475.969
153.8033, 2468.958
154.2855, 2457.579
154.7676, 2449.043
155.2497, 2442.062
155.7318, 2431.224
156.2139, 2409.127
156.6960, 2385.977
157.1782, 2374.672
157.6603, 2377.012
158.1424, 2383.060
158.6245, 2386.120
159.1066, 2387.130
159.5887, 2388.172
160.0709, 2385.114
160.5530, 2384.092
161.0351, 2397.863
161.5172, 2431.406
161.9993, 2461.792
162.4814, 2467.142
162.9636, 2457.686
163.4457, 2451.182
163.9278, 2457.123
164.4099, 2468.798
164.8920, 2473.435
165.3741, 2468.887
165.8563, 2463.238
166.3384, 2465.950
166.8205, 2470.838
167.3026, 2466.203
167.7847, 2440.729
168.2668, 2404.785
168.7490, 2382.602
169.2311, 2380.643
169.7132, 2377.653
170.1953, 2360.367
170.6774, 2335.044
171.1595, 2311.265
171.6417, 2294.518
172.1238, 2281.650
172.6059, 2264.983
173.0880, 2244.163
173.5701, 2219.805
174.0522, 2186.468
174.5344, 2151.019
175.0165, 2124.818
175.4986, 2116.428
175.9807, 2118.812
176.4628, 2111.731
176.9449, 2089.656
177.4271, 2067.993
177.9092, 2053.706
178.3913, 2043.163
178.8734, 2031.208
179.3555, 2014.331
179.8376, 1995.160
180.3197, 1981.336
180.8019, 1974.425
181.2840, 1970.644
181.7661, 1970.044
182.2482, 1970.870
182.7303, 1970.772
183.2124, 1968.308
183.6946, 1964.689
184.1767, 1963.421
184.6588, 1965.371
185.1409, 1968.394
185.6230, 1970.744
186.1051, 1973.988
186.5873, 1980.907
187.0694, 1993.578
187.5515, 2008.422
188.0336, 2015.249
188.5157, 2007.054
188.9978, 2002.799
189.4800, 2007.352
189.9621, 2016.876
190.4442, 2028.489
190.9263, 2041.198
191.4084, 2053.277
191.8905, 2060.005
192.3727, 2057.406
192.8548, 2056.412
193.3369, 2059.881
193.8190, 2065.097
194.3011, 2070.127
194.7832, 2074.251
195.2654, 2076.537
195.7475, 2073.907
196.2296, 2059.989
196.7117, 2053.489
197.1938, 2061.038
197.6759, 2073.361
198.1581, 2082.889
198.6402, 2087.036
199.1223, 2087.604
199.6044, 2088.132
200.0865, 2090.359
200.5686, 2088.693
201.0508, 2084.009
201.5329, 2075.321
202.0150, 2058.912
202.4971, 2034.601
202.9792, 2010.117
203.4613, 1999.057
203.9435, 2009.633
204.4256, 2015.433
204.9077, 2011.961
205.3898, 2006.351
205.8719, 2003.796
206.3540, 2005.135
206.8362, 2007.171
207.3183, 2005.064
207.8004, 1996.253
208.2825, 1989.881
208.7646, 1987.615
209.2467, 1986.220
209.7289, 1984.491
210.2110, 1981.955
210.6931, 1978.155
211.1752, 1972.263
211.6573, 1963.554
212.1395, 1955.526
212.6216, 1946.057
213.1037, 1938.999
213.5858, 1936.333
214.0679, 1938.047
214.5500, 1943.312
215.0322, 1952.760
215.5143, 1968.222
215.9964, 1975.204
216.4785, 1964.118
216.9606, 1953.596
217.4427, 1950.376
217.9249, 1953.917
218.4070, 1960.656
218.8891, 1968.391
219.3712, 1977.259
219.8533, 1982.111
220.3354, 1978.077
220.8176, 1974.563
221.2997, 1977.772
221.7818, 1983.425
222.2639, 1981.690
222.7460, 1963.816
223.2281, 1932.303
223.7103, 1915.747
224.1924, 1929.658
224.6745, 1942.729
225.1566, 1947.660
225.6387, 1947.821
226.1208, 1948.865
226.6030, 1954.111
227.0851, 1962.486
227.5672, 1969.974
228.0493, 1982.283
228.5314, 1985.042
229.0135, 1965.315
229.4957, 1939.259
229.9778, 1927.148
230.4599, 1938.545
230.9420, 1962.766
231.4241, 1972.683
231.9062, 1956.667
232.3884, 1945.874
232.8705, 1947.545
233.3526, 1953.586
233.8347, 1957.077
234.3168, 1955.721
234.7989, 1951.824
235.2811, 1949.792
235.7632, 1952.051
236.2453, 1950.188
236.7274, 1937.038
237.2095, 1924.461
237.6916, 1921.494
238.1738, 1929.338
238.6559, 1941.213
239.1380, 1949.469
239.6201, 1954.024
240.1022, 1955.091
240.5843, 1944.824
241.0665, 1937.489
241.5486, 1943.502
242.0307, 1960.990
242.5128, 1977.823
242.9949, 1979.207
243.4770, 1962.766
243.9592, 1959.795
244.4413, 1983.233
244.9234, 2008.883
245.4055, 2030.593
245.8876, 2047.418
246.3697, 2058.775
246.8519, 2062.768
247.3340, 2060.487
247.8161, 2061.361
248.2982, 2065.093
248.7803, 2072.969
249.2624, 2088.949
249.7446, 2108.369
250.2267, 2123.420
250.7088, 2129.127
251.1909, 2128.765
251.6730, 2131.034
252.1551, 2134.312
252.6373, 2144.084
253.1194, 2167.836
253.6015, 2195.818
254.0836, 2218.105
254.5657, 2231.288
255.0478, 2236.880
255.5300, 2234.027
256.0121, 2218.240
256.4942, 2211.248
256.9763, 2237.227
257.4584, 2264.034
257.9406, 2264.560
258.4227, 2232.444
258.9048, 2191.878
259.3869, 2170.239
259.8690, 2168.664
260.3511, 2157.908
260.8333, 2121.747
261.3154, 2084.059
261.7975, 2065.310
262.2796, 2064.852
262.7617, 2061.562
263.2438, 2035.744
263.7260, 1992.047
264.2081, 1959.280
264.6902, 1947.038
265.1723, 1935.832
265.6544, 1909.288
266.1365, 1871.503
266.6187, 1836.305
267.1008, 1809.964
267.5829, 1790.631
268.0650, 1776.156
268.5471, 1768.623
269.0292, 1759.023
269.5114, 1737.880
269.9935, 1710.716
270.4756, 1686.529
270.9577, 1667.954
271.4398, 1653.043
271.9219, 1640.963
272.4041, 1631.811
272.8862, 1621.095
273.3683, 1605.411
273.8504, 1587.255
274.3325, 1571.102
274.8146, 1555.989
275.2968, 1545.002
275.7789, 1541.820
276.2610, 1544.980
276.7431, 1548.666
277.2252, 1551.212
277.7073, 1552.873
278.1895, 1555.286
278.6716, 1560.092
279.1537, 1559.002
279.6358, 1540.800
280.1179, 1516.579
280.6000, 1507.405
281.0822, 1519.224
281.5643, 1537.974
282.0464, 1547.122
282.5285, 1545.730
283.0106, 1546.184
283.4927, 1553.211
283.9749, 1560.523
284.4570, 1560.182
284.9391, 1552.380
285.4212, 1546.977
285.9033, 1552.743
286.3854, 1569.599
286.8676, 1582.980
287.3497, 1593.678
287.8318, 1600.553
288.3139, 1600.241
288.7960, 1595.385
289.2781, 1592.286
289.7603, 1594.177
290.2424, 1600.868
290.7245, 1611.846
291.2066, 1635.985
291.6887, 1653.240
292.1708, 1656.531
292.6530, 1652.738
293.1351, 1650.176
293.6172, 1651.779
294.0993, 1655.462
294.5814, 1657.955
295.0635, 1662.455
295.5457, 1658.770
296.0278, 1640.909
296.5099, 1619.883
296.9920, 1603.610
297.4741, 1592.745
297.9562, 1583.002
298.4384, 1569.457
298.9205, 1550.949
299.4026, 1536.685
299.8847, 1530.813
300.3668, 1524.913
300.8489, 1516.099
301.3311, 1504.943
301.8131, 1492.854
302.2953, 1480.280
302.7774, 1468.010
303.2595, 1460.509
303.7416, 1462.617
304.2237, 1462.422
304.7058, 1458.318
305.1880, 1450.590
305.6701, 1438.849
306.1522, 1422.843
306.6343, 1404.929
307.1164, 1387.989
307.5985, 1371.002
308.0807, 1359.102
308.5628, 1355.807
309.0449, 1356.307
309.5270, 1359.839
310.0091, 1365.662
310.4912, 1369.982
310.9734, 1369.635
311.4555, 1364.817
311.9376, 1356.812
312.4197, 1341.933
312.9018, 1329.505
313.3839, 1328.486
313.8661, 1334.439
314.3482, 1335.608
314.8303, 1322.220
315.3124, 1302.775
315.7945, 1292.119
316.2766, 1291.005
316.7588, 1294.530
317.2409, 1304.333
317.7230, 1315.753
318.2051, 1321.020
318.6872, 1318.013
319.1693, 1310.812
319.6515, 1298.971
320.1336, 1284.407
320.6157, 1276.831
321.0978, 1282.446
321.5799, 1291.937
322.0620, 1287.909
322.5442, 1267.491
323.0263, 1254.030
323.5084, 1259.362
323.9905, 1273.053
324.4726, 1282.734
324.9547, 1286.333
325.4369, 1284.966
325.9190, 1278.147
326.4011, 1265.116
326.8832, 1258.584
327.3653, 1262.540
327.8474, 1269.005
328.3296, 1274.928
328.8117, 1279.770
329.2938, 1282.647
329.7759, 1282.774
330.2580, 1281.043
330.7401, 1281.505
331.2223, 1287.158
331.7044, 1291.298
332.1865, 1291.695
332.6686, 1290.955
333.1507, 1292.396
333.6328, 1296.861
334.1150, 1301.877
334.5971, 1303.379
335.0792, 1298.890
335.5613, 1297.651
336.0434, 1302.929
336.5255, 1308.171
337.0077, 1309.635
337.4898, 1307.892
337.9719, 1305.736
338.4540, 1305.064
338.9361, 1305.913
339.4182, 1309.013
339.9004, 1317.768
340.3825, 1323.556
340.8646, 1321.439
341.3467, 1316.163
341.8288, 1313.466
342.3109, 1315.447
342.7931, 1320.891
343.2752, 1329.161
343.7573, 1340.992
344.2394, 1350.304
344.7215, 1352.187
345.2036, 1353.874
345.6858, 1362.532
346.1679, 1378.257
346.6500, 1392.441
347.1321, 1398.178
347.6142, 1398.252
348.0963, 1400.137
348.5785, 1404.505
349.0606, 1410.856
349.5427, 1418.606
350.0248, 1428.030
350.5069, 1440.405
350.9890, 1461.599
351.4712, 1481.422
351.9533, 1489.047
352.4354, 1486.828
352.9175, 1487.786
353.3996, 1499.264
353.8817, 1516.286
354.3639, 1524.732
354.8460, 1518.434
355.3281, 1518.184
355.8102, 1534.032
356.2923, 1555.891
356.7744, 1571.111
357.2566, 1577.266
357.7387, 1581.078
358.2208, 1590.604
358.7029, 1608.024
359.1850, 1618.698
359.6671, 1619.197
360.1493, 1617.442
360.6314, 1617.167
361.1135, 1617.418
361.5956, 1615.451
362.0777, 1609.560
362.5598, 1600.511
363.0420, 1590.884
363.5241, 1579.230
364.0062, 1569.445
364.4883, 1563.980
364.9704, 1559.117
365.4525, 1551.159
365.9347, 1539.603
366.4168, 1527.551
366.8989, 1518.407
367.3810, 1512.197
367.8631, 1507.564
368.3452, 1506.929
368.8274, 1504.807
369.3095, 1497.464
369.7916, 1486.603
370.2737, 1476.221
370.7558, 1467.168
371.2379, 1460.481
371.7201, 1460.072
372.2022, 1467.008
372.6843, 1469.730
373.1664, 1460.562
373.6485, 1445.946
374.1306, 1434.944
374.6128, 1427.222
375.0949, 1425.277
375.5770, 1435.192
376.0591, 1451.040
376.5412, 1461.547
377.0233, 1464.504
377.5055, 1461.114
377.9876, 1450.028
378.4697, 1430.139
378.9518, 1419.493
379.4339, 1426.759
379.9160, 1435.755
380.3982, 1433.661
380.8803, 1424.981
381.3624, 1425.333
381.8445, 1444.558
382.3266, 1473.658
382.8087, 1485.290
383.2909, 1456.088
383.7730, 1439.469
384.2551, 1447.584
384.7372, 1461.401
385.2193, 1465.451
385.7014, 1457.398
386.1836, 1444.589
386.6657, 1434.059
387.1478, 1425.885
387.6299, 1419.257
388.1120, 1413.145
388.5941, 1410.053
389.0763, 1411.758
389.5584, 1416.654
390.0405, 1423.106
390.5226, 1431.490
391.0047, 1438.099
391.4868, 1434.928
391.9690, 1420.511
392.4511, 1410.619
392.9332, 1412.270
393.4153, 1417.622
393.8974, 1419.709
394.3795, 1418.406
394.8617, 1415.136
395.3438, 1409.603
395.8259, 1402.894
396.3080, 1395.560
396.7901, 1387.423
397.2722, 1383.386
397.7544, 1389.055
398.2365, 1401.878
398.7186, 1408.000
399.2007, 1401.452
399.6828, 1395.007
400.1649, 1393.194
400.6471, 1394.817
401.1292, 1399.120
401.6113, 1405.905
402.0934, 1411.539
402.5755, 1409.790
403.0576, 1395.240
403.5398, 1390.289
404.0219, 1403.727
404.5040, 1417.175
404.9861, 1420.740
405.4682, 1416.316
405.9503, 1410.054
406.4325, 1405.351
406.9146, 1402.803
407.3967, 1404.865
407.8788, 1413.169
408.3609, 1422.879
408.8430, 1435.840
409.3252, 1447.957
409.8073, 1455.588
410.2894, 1458.321
410.7715, 1459.232
411.2536, 1457.451
411.7357, 1455.048
412.2179, 1464.928
412.7000, 1492.913
413.1821, 1521.090
413.6642, 1537.306
414.1463, 1544.827
414.6284, 1548.144
415.1106, 1543.911
415.5927, 1540.851
416.0748, 1544.879
416.5569, 1555.213
417.0390, 1570.732
417.5211, 1592.076
418.0033, 1614.532
418.4854, 1630.622
418.9675, 1637.666
419.4496, 1647.187
419.9317, 1664.399
420.4138, 1680.122
420.8960, 1687.244
421.3781, 1687.168
421.8602, 1685.153
422.3423, 1684.092
422.8244, 1684.872
423.3065, 1692.061
423.7887, 1717.177
424.2708, 1730.249
424.7529, 1723.110
425.2350, 1707.374
425.7171, 1689.039
426.1992, 1670.646
426.6814, 1657.081
427.1635, 1656.220
427.6456, 1666.526
428.1277, 1669.150
428.6098, 1661.095
429.0919, 1651.026
429.5741, 1639.817
430.0562, 1630.380
430.5383, 1628.249
431.0204, 1637.172
431.5025, 1648.326
431.9846, 1652.340
432.4668, 1652.160
432.9489, 1660.215
433.4310, 1681.866
433.9131, 1704.745
434.3952, 1710.311
434.8773, 1695.397
435.3595, 1699.925
435.8416, 1742.389
436.3237, 1790.139
436.8058, 1822.335
437.2879, 1843.283
437.7701, 1866.105
438.2522, 1897.147
438.7343, 1936.500
439.2164, 1984.964
439.6985, 2051.042
440.1806, 2110.918
440.6628, 2158.400
441.1449, 2205.502
441.6270, 2261.313
442.1091, 2324.543
442.5912, 2386.957
443.0733, 2439.204
443.5555, 2486.706
444.0376, 2550.862
444.5197, 2634.456
445.0018, 2727.125
445.4839, 2833.078
445.9660, 2943.050
446.4482, 3046.629
446.9303, 3140.780
447.4124, 3239.298
447.8945, 3357.549
448.3766, 3484.899
448.8587, 3598.353
449.3409, 3695.050
449.8230, 3782.600
450.3051, 3868.711
450.7872, 3951.550
451.2693, 4017.361
451.7514, 4066.811
452.2336, 4100.068
452.7157, 4113.867
453.1978, 4112.509
453.6799, 4103.872
454.1620, 4089.580
454.6441, 4060.535
455.1263, 4002.048
455.6084, 3907.565
456.0905, 3821.286
456.5726, 3748.255
457.0547, 3679.513
457.5368, 3606.890
458.0190, 3538.272
458.5011, 3488.541
458.9832, 3466.010
459.4653, 3454.292
459.9474, 3430.896
460.4295, 3395.797
460.9117, 3357.075
461.3938, 3316.950
461.8759, 3272.409
462.3580, 3220.116
462.8401, 3161.004
463.3222, 3098.375
463.8044, 3028.596
464.2865, 2958.868
464.7686, 2898.249
465.2507, 2844.135
465.7328, 2785.251
466.2149, 2716.138
466.6971, 2641.885
467.1792, 2573.411
467.6613, 2513.053
468.1434, 2453.767
468.6255, 2393.800
469.1076, 2336.288
469.5898, 2283.685
470.0719, 2235.578
470.5540, 2191.485
471.0361, 2151.335
471.5182, 2113.578
472.0003, 2071.571
472.4825, 2021.784
472.9646, 1978.159
473.4467, 1951.009
473.9288, 1925.972
474.4109, 1892.369
474.8930, 1850.705
475.3752, 1811.164
475.8573, 1776.648
476.3394, 1749.159
476.8215, 1735.192
477.3036, 1735.016
477.7857, 1733.707
478.2679, 1723.943
478.7500, 1708.261
479.2321, 1692.374
479.7142, 1676.509
480.1963, 1660.231
480.6784, 1644.135
481.1606, 1627.144
481.6427, 1607.285
482.1248, 1585.115
482.6069, 1563.780
483.0890, 1545.434
483.5711, 1529.915
484.0533, 1515.792
484.5354, 1501.653
485.0175, 1491.509
485.4996, 1489.984
485.9817, 1489.301
486.4638, 1482.872
486.9460, 1470.277
487.4281, 1456.313
487.9102, 1443.535
488.3923, 1432.308
488.8744, 1425.199
489.3565, 1423.503
489.8387, 1418.208
490.3208, 1401.856
490.8029, 1380.536
491.2850, 1366.814
491.7671, 1362.019
492.2492, 1360.636
492.7314, 1365.156
493.2135, 1369.750
493.6956, 1367.537
494.1777, 1358.125
494.6598, 1344.654
495.1419, 1328.529
495.6241, 1311.072
496.1062, 1300.700
496.5883, 1304.970
497.0704, 1305.945
497.5525, 1296.078
498.0346, 1286.312
498.5168, 1288.741
498.9989, 1302.733
499.4810, 1314.516
499.9631, 1311.013
500.4452, 1296.285
500.9273, 1286.608
501.4095, 1283.865
501.8916, 1277.660
502.3737, 1258.073
502.8558, 1235.678
503.3379, 1228.196
503.8200, 1239.767
504.3022, 1250.094
504.7843, 1247.847
505.2664, 1242.511
505.7485, 1247.514
506.2306, 1262.126
506.7127, 1273.321
507.1949, 1272.045
507.6770, 1260.981
508.1591, 1251.707
508.6412, 1241.873
509.1233, 1237.662
509.6054, 1244.547
510.0876, 1252.903
510.5697, 1253.774
511.0518, 1248.461
511.5339, 1246.713
512.0161, 1258.432
512.4982, 1276.881
512.9803, 1279.871
513.4624, 1263.094
513.9445, 1257.457
514.4266, 1278.608
514.9088, 1312.254
515.3909, 1340.643
515.8730, 1363.809
516.3551, 1382.652
516.8372, 1395.130
517.3193, 1405.184
517.8015, 1415.248
518.2836, 1426.084
518.7657, 1438.646
519.2478, 1452.898
519.7299, 1471.458
520.2120, 1501.374
520.6942, 1552.176
521.1763, 1596.416
521.6584, 1629.107
522.1405, 1660.616
522.6226, 1695.247
523.1047, 1733.486
523.5869, 1774.665
524.0690, 1819.254
524.5511, 1865.289
525.0332, 1907.426
525.5153, 1945.742
525.9974, 1993.449
526.4796, 2058.029
526.9617, 2125.961
527.4438, 2180.775
527.9259, 2224.416
528.4080, 2272.105
528.8901, 2340.367
529.3723, 2399.068
529.8544, 2427.081
530.3365, 2433.410
530.8186, 2436.624
531.3007, 2442.989
531.7828, 2444.166
532.2650, 2430.425
532.7471, 2403.280
533.2292, 2350.792
533.7113, 2248.364
534.1934, 2147.578
534.6755, 2060.567
535.1577, 1985.895
535.6398, 1921.387
536.1219, 1866.650
536.6040, 1817.392
537.0861, 1769.564
537.5682, 1724.067
538.0504, 1685.331
538.5325, 1654.861
539.0146, 1625.247
539.4967, 1591.994
539.9788, 1555.463
540.4609, 1518.317
540.9431, 1476.844
541.4252, 1439.391
541.9073, 1407.343
542.3894, 1380.265
542.8715, 1358.388
543.3536, 1341.175
543.8358, 1327.639
544.3179, 1318.349
544.8000, 1310.729
545.2821, 1291.160
545.7642, 1252.023
546.2463, 1221.959
546.7285, 1215.515
547.2106, 1215.738
547.6927, 1209.852
548.1748, 1197.830
548.6569, 1186.539
549.1390, 1182.378
549.6211, 1178.101
550.1032, 1162.708
550.5853, 1139.218
551.0674, 1121.489
551.5496, 1115.115
552.0317, 1115.952
552.5138, 1117.669
552.9959, 1120.930
553.4780, 1122.797
553.9601, 1125.100
554.4423, 1124.302
554.9244, 1116.632
555.4065, 1105.651
555.8886, 1096.601
556.3707, 1091.357
556.8528, 1088.681
557.3350, 1089.839
557.8171, 1093.528
558.2992, 1086.827
558.7813, 1064.430
559.2634, 1044.664
559.7455, 1039.598
560.2277, 1046.807
560.7098, 1056.761
561.1919, 1071.883
561.6740, 1085.396
562.1561, 1097.548
562.6382, 1105.602
563.1204, 1105.121
563.6025, 1096.912
564.0846, 1086.598
564.5667, 1077.891
565.0488, 1070.791
565.5309, 1065.095
566.0131, 1060.619
566.4952, 1058.018
566.9773, 1057.497
567.4594, 1058.929
567.9415, 1064.288
568.4236, 1072.169
568.9058, 1076.594
569.3879, 1074.683
569.8700, 1068.560
570.3521, 1056.578
570.8342, 1041.738
571.3163, 1035.335
571.7985, 1041.299
572.2806, 1051.805
572.7627, 1057.490
573.2448, 1057.719
573.7269, 1059.300
574.2090, 1067.168
574.6912, 1070.455
575.1733, 1062.982
575.6554, 1051.334
576.1375, 1041.911
576.6196, 1036.450
577.1017, 1034.646
577.5839, 1037.011
578.0660, 1042.794
578.5481, 1051.162
579.0302, 1062.976
579.5123, 1068.987
579.9944, 1062.408
580.4766, 1049.792
580.9587, 1044.121
581.4408, 1046.807
581.9229, 1048.793
582.4050, 1048.472
582.8871, 1047.437
583.3693, 1046.983
583.8514, 1046.631
584.3335, 1045.251
584.8156, 1042.331
585.2977, 1038.040
585.7798, 1030.327
586.2620, 1018.033
586.7441, 1018.113
587.2262, 1041.716
587.7083, 1060.669
588.1904, 1054.190
588.6725, 1033.823
589.1547, 1017.499
589.6368, 1007.928
590.1189, 1001.436
590.6010, 996.0150
591.0831, 992.7920
591.5652, 995.5270
592.0474, 1002.927
592.5295, 1006.655
593.0116, 1000.550
593.4937, 988.6894
593.9758, 984.8381
594.4579, 996.5485
594.9401, 998.3333
595.4222, 973.6978
595.9043, 951.8300
596.3864, 950.8081
596.8685, 964.2018
597.3506, 973.9741
597.8328, 971.0782
598.3149, 967.1835
598.7970, 975.7521
599.2791, 991.3171
599.7612, 999.1549
600.2433, 996.4385
600.7255, 990.2900
601.2076, 986.3624
601.6897, 984.4131
602.1718, 982.3926
602.6539, 975.7418
603.1360, 975.5672
603.6182, 990.1266
604.1003, 1005.494
604.5824, 1009.655
605.0645, 1004.256
605.5466, 1000.699
606.0287, 1008.482
606.5109, 1017.626
606.9930, 1008.825
607.4751, 985.1110
607.9572, 972.2303
608.4393, 978.4402
608.9214, 989.5827
609.4036, 992.4984
609.8857, 987.1057
610.3678, 977.4874
610.8499, 952.7581
611.3320, 937.9704
611.8141, 946.9253
612.2963, 963.5459
612.7784, 971.9594
613.2605, 970.4711
613.7426, 967.2007
614.2247, 970.0997
614.7068, 974.0501
615.1890, 962.3986
615.6711, 934.0275
616.1532, 916.1129
616.6353, 919.2598
617.1174, 930.7820
617.5995, 938.3682
618.0817, 941.9296
618.5638, 940.8290
619.0459, 930.8739
619.5280, 921.0755
620.0101, 914.1109
620.4922, 909.6543
620.9744, 907.8260
621.4565, 908.2089
621.9386, 908.7425
622.4207, 907.0634
622.9028, 904.2695
623.3849, 905.0219
623.8671, 909.8626
624.3492, 915.5345
624.8313, 923.3945
625.3134, 929.0170
625.7955, 924.4044
626.2776, 910.2586
626.7598, 901.5364
627.2419, 904.4831
627.7240, 908.7944
628.2061, 910.3673
628.6882, 909.6037
629.1703, 906.2552
629.6525, 900.8724
630.1346, 896.7120
630.6167, 897.4489
631.0988, 902.0867
631.5809, 904.5842
632.0630, 903.8862
632.5452, 905.5547
633.0273, 914.5071
633.5094, 923.3918
633.9915, 922.7947
634.4736, 913.2991
634.9557, 905.8038
635.4379, 901.0825
635.9200, 900.3735
636.4021, 910.3037
636.8842, 922.5228
637.3663, 921.0782
637.8484, 903.8892
