##NAMES=Melanotekite
##RRUFFID=R090032
##IDEAL CHEMISTRY=Pb^2+^_2_Fe^3+^_2_O_2_Si_2_O_7_
##LOCALITY=Kombat, Namibia
##OWNER=RRUFF
##SOURCE=William W. Pinch
##DESCRIPTION=Black, massive exhibiting greasy luster, associated with colorless to pale brown bladed yangite (R090031). Sample is from the John Innes collection.
##STATUS=The identification of this mineral has been confirmed only by single crystal X-ray diffraction.
##URL=rruff.info/R090032
92.37695, 637.4001
92.85907, 670.5502
93.34119, 666.9721
93.82330, 619.6794
94.30542, 561.9534
94.78754, 505.7995
95.26965, 452.7761
95.75177, 407.8009
96.23389, 374.1865
96.71600, 348.2581
97.19812, 326.8908
97.68024, 309.7896
98.16235, 296.1072
98.64447, 284.9540
99.12659, 276.4437
99.60870, 269.2645
100.0908, 264.3002
100.5729, 260.5995
101.0551, 257.3246
101.5372, 254.0441
102.0193, 250.6927
102.5014, 247.1568
102.9835, 243.3371
103.4656, 239.2887
103.9478, 234.6096
104.4299, 229.6485
104.9120, 225.0721
105.3941, 221.4236
105.8762, 218.7436
106.3583, 216.2803
106.8405, 213.9406
107.3226, 211.7599
107.8047, 209.6590
108.2868, 207.6596
108.7689, 205.9872
109.2510, 204.9764
109.7332, 204.6608
110.2153, 204.5214
110.6974, 204.5356
111.1795, 204.6753
111.6616, 204.9252
112.1437, 205.3162
112.6259, 205.7390
113.1080, 206.0533
113.5901, 206.2673
114.0722, 206.5156
114.5543, 207.0829
115.0364, 207.9309
115.5185, 208.2036
116.0007, 207.3201
116.4828, 206.0528
116.9649, 204.8198
117.4470, 203.6898
117.9291, 202.5633
118.4112, 201.3198
118.8934, 199.9869
119.3755, 198.4486
119.8576, 196.8605
120.3397, 195.0131
120.8218, 192.6757
121.3039, 189.7599
121.7861, 186.4327
122.2682, 183.1479
122.7503, 179.8818
123.2324, 176.7090
123.7145, 173.5390
124.1966, 170.4751
124.6788, 167.6953
125.1609, 165.2845
125.6430, 163.2191
126.1251, 161.2945
126.6072, 159.3999
127.0893, 157.6992
127.5715, 156.2914
128.0536, 155.1514
128.5357, 154.1538
129.0178, 153.1655
129.4999, 152.2607
129.9821, 151.6901
130.4642, 151.5291
130.9463, 151.6683
131.4284, 152.0503
131.9105, 152.7112
132.3926, 153.4420
132.8748, 153.8648
133.3569, 154.2290
133.8390, 155.0656
134.3211, 156.7557
134.8032, 159.1138
135.2853, 161.5166
135.7674, 163.8470
136.2496, 166.4100
136.7317, 169.1797
137.2138, 172.2365
137.6959, 175.7558
138.1780, 180.2189
138.6601, 185.8199
139.1423, 190.3043
139.6244, 193.9326
140.1065, 196.1671
140.5886, 196.6068
141.0707, 195.3186
141.5528, 192.6867
142.0350, 189.0116
142.5171, 183.6684
142.9992, 178.8468
143.4813, 174.4544
143.9634, 170.5388
144.4455, 167.0391
144.9277, 163.9812
145.4098, 161.4702
145.8919, 159.7094
146.3740, 159.0128
146.8561, 158.6017
147.3382, 158.5464
147.8204, 158.7305
148.3025, 159.0244
148.7846, 159.3894
149.2667, 159.8247
149.7488, 160.2946
150.2309, 160.6774
150.7131, 161.3817
151.1952, 162.7025
151.6773, 164.4975
152.1594, 166.3007
152.6415, 167.9533
153.1236, 169.5260
153.6058, 171.1235
154.0879, 172.7171
154.5700, 174.4012
155.0521, 176.2597
155.5342, 178.2897
156.0163, 180.3891
156.4985, 182.5644
156.9806, 184.7551
157.4627, 186.8970
157.9448, 188.9643
158.4269, 191.0199
158.9090, 193.2355
159.3912, 195.7851
159.8733, 198.0130
160.3554, 200.0468
160.8375, 201.6172
161.3196, 202.4648
161.8017, 202.4655
162.2839, 201.7015
162.7660, 200.4288
163.2481, 198.6641
163.7302, 196.2381
164.2123, 193.1384
164.6944, 189.4182
165.1766, 185.0909
165.6587, 180.1135
166.1408, 174.6028
166.6229, 169.1785
167.1050, 163.6223
167.5871, 158.3794
168.0693, 153.5975
168.5514, 149.1872
169.0335, 144.8886
169.5156, 140.4894
169.9977, 136.0334
170.4798, 132.5680
170.9620, 130.5015
171.4441, 128.7985
171.9262, 127.0381
172.4083, 125.2383
172.8904, 123.5696
173.3725, 122.1427
173.8547, 121.0015
174.3368, 120.0863
174.8189, 119.4659
175.3010, 119.0144
175.7831, 118.5440
176.2652, 118.0358
176.7474, 117.8552
177.2295, 118.4172
177.7116, 119.5325
178.1937, 120.7475
178.6758, 122.0410
179.1579, 123.3592
179.6401, 124.5998
180.1222, 125.6968
180.6043, 126.8997
181.0864, 128.4897
181.5685, 130.2733
182.0506, 131.9340
182.5328, 133.4101
183.0149, 134.6500
183.4970, 135.4914
183.9791, 135.8564
184.4612, 135.8756
184.9433, 135.8507
185.4255, 135.5800
185.9076, 134.7126
186.3897, 133.0103
186.8718, 130.4955
187.3539, 127.4595
187.8360, 123.3856
188.3182, 119.2743
188.8003, 115.4463
189.2824, 111.8111
189.7645, 108.1044
190.2466, 104.0711
190.7287, 99.65701
191.2109, 95.87687
191.6930, 92.93729
192.1751, 90.39439
192.6572, 88.18309
193.1393, 86.27759
193.6214, 84.65159
194.1036, 83.29908
194.5857, 82.22070
195.0678, 81.41124
195.5499, 81.00408
196.0320, 80.67454
196.5141, 80.28627
196.9963, 79.83358
197.4784, 79.35522
197.9605, 78.86008
198.4426, 78.32813
198.9247, 78.09416
199.4068, 78.34781
199.8890, 78.72252
200.3711, 78.97727
200.8532, 79.09543
201.3353, 79.20586
201.8174, 79.41776
202.2995, 79.74355
202.7817, 80.13858
203.2638, 80.70287
203.7459, 81.27844
204.2280, 81.69099
204.7101, 81.91723
205.1922, 82.11794
205.6744, 82.41271
206.1565, 82.80132
206.6386, 83.29819
207.1207, 83.96391
207.6028, 84.71909
208.0849, 85.46788
208.5671, 86.21428
209.0492, 86.92917
209.5313, 87.50108
210.0134, 88.01623
210.4955, 88.68352
210.9776, 89.70339
211.4598, 90.91533
211.9419, 91.96497
212.4240, 92.80196
212.9061, 93.55482
213.3882, 94.27780
213.8703, 94.98119
214.3525, 95.69224
214.8346, 96.49672
215.3167, 97.31820
215.7988, 97.84290
216.2809, 97.92396
216.7630, 97.91370
217.2451, 97.86514
217.7273, 97.85232
218.2094, 98.02087
218.6915, 98.53273
219.1736, 99.30026
219.6557, 99.77706
220.1378, 99.71790
220.6200, 99.64346
221.1021, 99.72587
221.5842, 99.90174
222.0663, 100.0344
222.5484, 99.99711
223.0305, 99.83659
223.5127, 100.0083
223.9948, 100.8622
224.4769, 101.7080
224.9590, 102.4042
225.4411, 102.9949
225.9232, 103.5581
226.4054, 104.1394
226.8875, 104.7436
227.3696, 105.4857
227.8517, 106.6114
228.3338, 107.6154
228.8159, 108.2519
229.2981, 108.6975
229.7802, 109.2550
230.2623, 110.1250
230.7444, 111.2876
231.2265, 112.5027
231.7086, 113.6968
232.1908, 115.0147
232.6729, 116.5633
233.1550, 118.2652
233.6371, 119.9558
234.1192, 121.5175
234.6013, 122.9972
235.0835, 124.7645
235.5656, 126.9265
236.0477, 129.2044
236.5298, 131.4640
237.0119, 133.7723
237.4940, 136.2986
237.9762, 139.1324
238.4583, 142.2597
238.9404, 145.6355
239.4225, 149.5174
239.9046, 153.2965
240.3867, 156.5973
240.8689, 159.6130
241.3510, 162.8114
241.8331, 166.4505
242.3152, 170.4081
242.7973, 174.3563
243.2794, 178.4343
243.7616, 182.2897
244.2437, 185.6761
244.7258, 188.6823
245.2079, 191.5579
245.6900, 194.3732
246.1721, 197.1429
246.6543, 199.9404
247.1364, 202.7972
247.6185, 205.5814
248.1006, 208.1004
248.5827, 210.4551
249.0648, 213.0876
249.5470, 216.3036
250.0291, 219.7013
250.5112, 222.6465
250.9933, 225.0884
251.4754, 227.5000
251.9576, 230.1512
252.4397, 232.9987
252.9218, 235.9467
253.4039, 239.0050
253.8860, 242.0952
254.3681, 245.1242
254.8503, 248.0976
255.3324, 251.0190
255.8145, 253.9420
256.2966, 256.8284
256.7787, 259.4742
257.2608, 261.7852
257.7430, 263.8967
258.2251, 265.8583
258.7072, 267.7031
259.1893, 269.6500
259.6714, 272.3125
260.1535, 275.3826
260.6357, 277.1156
261.1178, 277.0373
261.5999, 275.8591
262.0820, 274.6020
262.5641, 272.9163
263.0462, 269.7202
263.5284, 263.9449
264.0105, 255.9298
264.4926, 247.4441
264.9747, 238.1953
265.4568, 228.9404
265.9389, 219.8579
266.4211, 211.0295
266.9032, 202.6257
267.3853, 194.5403
267.8674, 186.9729
268.3495, 180.7741
268.8316, 176.3190
269.3138, 172.8256
269.7959, 169.8350
270.2780, 167.4676
270.7601, 165.9429
271.2422, 165.4436
271.7243, 165.7959
272.2065, 166.4644
272.6886, 167.5339
273.1707, 168.8073
273.6528, 170.2247
274.1349, 171.7791
274.6170, 173.4441
275.0992, 175.2134
275.5813, 177.1000
276.0634, 179.1434
276.5455, 181.4774
277.0276, 183.7292
277.5097, 185.4128
277.9919, 187.2003
278.4740, 189.8303
278.9561, 193.5726
279.4382, 197.8643
279.9203, 201.5982
280.4024, 204.1394
280.8846, 207.4813
281.3667, 212.0424
281.8488, 217.1806
282.3309, 222.4660
282.8130, 227.7748
283.2951, 233.1787
283.7773, 238.7649
284.2594, 244.4907
284.7415, 250.5344
285.2236, 256.9902
285.7057, 263.6496
286.1878, 270.5185
286.6700, 277.5065
287.1521, 284.4240
287.6342, 291.0671
288.1163, 297.3001
288.5984, 303.6167
289.0805, 309.6882
289.5627, 316.0898
290.0448, 323.2997
290.5269, 331.1639
291.0090, 339.0648
291.4911, 346.4498
291.9732, 353.2663
292.4554, 360.0457
292.9375, 366.6081
293.4196, 373.3308
293.9017, 380.4498
294.3838, 387.8358
294.8659, 395.2062
295.3481, 402.3445
295.8302, 409.2951
296.3123, 416.2692
296.7944, 423.3208
297.2765, 430.3624
297.7586, 437.3871
298.2408, 444.3807
298.7229, 451.3268
299.2050, 458.2074
299.6871, 464.9267
300.1692, 471.0719
300.6513, 476.6605
301.1335, 481.5051
301.6156, 485.7874
302.0977, 489.2118
302.5798, 491.4632
303.0619, 492.4080
303.5440, 492.1994
304.0262, 491.1513
304.5083, 489.3297
304.9904, 486.3813
305.4725, 482.5347
305.9546, 477.5516
306.4367, 470.9809
306.9189, 462.8294
307.4010, 453.7311
307.8831, 444.5453
308.3652, 435.3190
308.8473, 425.8672
309.3294, 416.1022
309.8116, 406.1651
310.2937, 395.9409
310.7758, 385.5536
311.2579, 375.4551
311.7400, 366.1463
312.2221, 357.5718
312.7043, 349.7455
313.1864, 342.2970
313.6685, 335.7800
314.1506, 330.5590
314.6327, 326.4512
315.1148, 322.9504
315.5970, 319.6605
316.0791, 316.6517
316.5612, 314.9338
317.0433, 315.2566
317.5254, 316.0331
318.0075, 316.7243
318.4897, 317.7183
318.9718, 319.6962
319.4539, 323.0270
319.9360, 327.3869
320.4181, 331.7878
320.9002, 335.9106
321.3824, 340.4634
321.8645, 345.4828
322.3466, 350.9210
322.8287, 356.7840
323.3108, 363.0268
323.7929, 369.6566
324.2751, 376.6332
324.7572, 384.1090
325.2393, 391.7162
325.7214, 399.6299
326.2035, 407.5746
326.6856, 415.4065
327.1678, 423.1014
327.6499, 430.7586
328.1320, 438.4946
328.6141, 446.2870
329.0962, 454.3644
329.5783, 463.3076
330.0605, 471.9581
330.5426, 479.7598
331.0247, 486.8535
331.5068, 493.6967
331.9889, 500.7201
332.4710, 507.8419
332.9532, 513.7021
333.4353, 516.9787
333.9174, 520.4084
334.3995, 525.4144
334.8816, 530.6600
335.3637, 534.1498
335.8459, 534.8383
336.3280, 533.4437
336.8101, 532.0881
337.2922, 531.3348
337.7743, 529.6990
338.2564, 527.0518
338.7386, 523.5724
339.2206, 519.5395
339.7028, 514.9754
340.1849, 509.5733
340.6670, 502.7902
341.1491, 494.2769
341.6312, 485.2212
342.1133, 476.0059
342.5955, 466.0743
343.0776, 455.0456
343.5597, 442.9575
344.0418, 430.1048
344.5239, 416.6783
345.0060, 402.6469
345.4882, 388.5922
345.9703, 375.1929
346.4524, 361.0438
346.9345, 345.0239
347.4166, 328.0373
347.8987, 311.6486
348.3809, 296.9170
348.8630, 283.4666
349.3451, 270.0219
349.8272, 255.8167
350.3093, 242.6960
350.7914, 231.0951
351.2736, 220.5306
351.7557, 210.6484
352.2378, 201.2858
352.7199, 192.4615
353.2020, 184.2704
353.6841, 176.7651
354.1663, 169.7630
354.6484, 163.2607
355.1305, 157.2138
355.6126, 151.6050
356.0947, 146.4558
356.5768, 141.8683
357.0590, 138.0272
357.5411, 134.9754
358.0232, 132.1035
358.5053, 129.4721
358.9874, 126.9865
359.4695, 124.5517
359.9517, 122.2330
360.4338, 120.1791
360.9159, 118.4983
361.3980, 117.1303
361.8801, 115.8471
362.3622, 114.5730
362.8444, 113.5806
363.3265, 112.9658
363.8086, 112.6511
364.2907, 112.6017
364.7728, 112.8237
365.2549, 113.2110
365.7371, 113.6510
366.2192, 114.1502
366.7013, 114.6536
367.1834, 115.1080
367.6655, 115.5998
368.1476, 116.1876
368.6298, 116.8758
369.1119, 117.6341
369.5940, 118.4218
370.0761, 119.2547
370.5582, 120.2123
371.0403, 121.3366
371.5225, 122.5271
372.0046, 123.8148
372.4867, 125.1162
372.9688, 126.2258
373.4509, 126.8081
373.9330, 127.3072
374.4152, 128.4711
374.8973, 130.3705
375.3794, 132.2979
375.8615, 133.8720
376.3436, 135.2667
376.8257, 136.7319
377.3079, 138.2649
377.7900, 139.9381
378.2721, 141.9991
378.7542, 144.3044
379.2363, 146.1765
379.7184, 147.3026
380.2006, 148.1459
380.6827, 149.4416
381.1648, 151.1899
381.6469, 152.4765
382.1290, 152.8967
382.6111, 152.7347
383.0933, 152.3863
383.5754, 151.8991
384.0575, 151.1592
384.5396, 150.1638
385.0217, 148.8122
385.5038, 146.7379
385.9860, 143.4357
386.4681, 139.8658
386.9502, 136.4973
387.4323, 133.3386
387.9144, 130.3225
388.3965, 127.4275
388.8787, 124.6672
389.3608, 122.0886
389.8429, 119.5928
390.3250, 117.3916
390.8071, 115.2765
391.2892, 113.5870
391.7714, 112.8636
392.2535, 113.2032
392.7356, 114.0394
393.2177, 114.6961
393.6998, 115.0579
394.1819, 115.9171
394.6641, 117.3806
395.1462, 119.1988
395.6283, 121.3843
396.1104, 123.8217
396.5925, 126.2580
397.0746, 128.5706
397.5568, 130.7100
398.0389, 132.4664
398.5210, 133.4676
399.0031, 134.5072
399.4852, 135.5851
399.9673, 136.7848
400.4495, 138.2554
400.9316, 140.0222
401.4137, 141.8978
401.8958, 143.5390
402.3779, 144.6448
402.8600, 146.3596
403.3422, 148.8352
403.8243, 151.7001
404.3064, 154.9146
404.7885, 158.3748
405.2706, 161.8698
405.7527, 165.1703
406.2349, 168.3642
406.7170, 172.0120
407.1991, 176.2011
407.6812, 180.7442
408.1633, 185.6684
408.6454, 190.8433
409.1276, 196.2803
409.6097, 201.9846
410.0918, 207.5107
410.5739, 212.2400
411.0560, 216.1009
411.5381, 219.4838
412.0203, 223.3492
412.5024, 225.8628
412.9845, 226.0549
413.4666, 223.9169
413.9487, 219.8100
414.4308, 213.5338
414.9130, 205.4402
415.3951, 196.7564
415.8772, 187.3389
416.3593, 177.6796
416.8414, 167.2650
417.3235, 156.9812
417.8057, 148.1050
418.2878, 140.9717
418.7699, 135.2576
419.2520, 130.7560
419.7341, 127.4306
420.2162, 124.9948
420.6984, 123.5759
421.1805, 122.7891
421.6626, 122.0833
422.1447, 121.4286
422.6268, 121.2365
423.1089, 121.7427
423.5911, 122.7543
424.0732, 124.0689
424.5553, 125.6608
425.0374, 127.4459
425.5195, 129.4156
426.0016, 131.5329
426.4838, 133.5325
426.9659, 135.2725
427.4480, 137.0463
427.9301, 139.0227
428.4122, 141.1247
428.8943, 143.1765
429.3765, 145.1186
429.8586, 146.9946
430.3407, 148.8986
430.8228, 150.9880
431.3049, 152.7248
431.7870, 153.8433
432.2692, 154.7982
432.7513, 155.9286
433.2334, 157.2290
433.7155, 158.4904
434.1976, 159.5241
434.6797, 160.3513
435.1619, 161.3183
435.6440, 162.3884
436.1261, 163.6549
436.6082, 165.2483
437.0903, 166.9963
437.5724, 168.7138
438.0546, 170.3300
438.5367, 171.9111
439.0188, 173.5777
439.5009, 175.3865
439.9830, 177.0888
440.4651, 178.8558
440.9473, 180.3652
441.4294, 181.4588
441.9115, 182.1579
442.3936, 182.5611
442.8757, 182.7561
443.3578, 182.6885
443.8400, 182.1212
444.3221, 180.9019
444.8042, 179.5527
445.2863, 177.9752
445.7684, 176.5032
446.2505, 175.5092
446.7327, 175.0824
447.2148, 174.9118
447.6969, 174.8431
448.1790, 174.8377
448.6611, 174.5984
449.1432, 173.8756
449.6254, 173.3202
450.1075, 173.6025
450.5896, 174.5166
451.0717, 175.5133
451.5538, 176.8233
452.0359, 177.8817
452.5181, 178.0998
453.0002, 177.5360
453.4823, 176.6181
453.9644, 175.5784
454.4465, 174.2489
454.9286, 172.1985
455.4108, 169.4389
455.8929, 166.2121
456.3750, 162.6394
456.8571, 158.5937
457.3392, 153.6954
457.8214, 147.9875
458.3035, 142.1870
458.7856, 136.9288
459.2677, 132.2122
459.7498, 127.2350
460.2319, 121.5616
460.7141, 116.1638
461.1962, 111.2471
461.6783, 106.7875
462.1604, 102.8168
462.6425, 99.33427
463.1246, 96.19637
463.6068, 93.13938
464.0889, 90.07570
464.5710, 87.38744
465.0531, 85.19114
465.5352, 83.24043
466.0173, 81.50036
466.4995, 79.90671
466.9816, 78.33370
467.4637, 76.67123
467.9458, 75.00159
468.4279, 73.60648
468.9100, 72.58408
469.3922, 71.57012
469.8743, 70.39833
470.3564, 69.21993
470.8385, 68.18175
471.3206, 67.30293
471.8027, 66.44180
472.2849, 65.51105
472.7670, 64.50878
473.2491, 63.41362
473.7312, 62.17369
474.2133, 60.98479
474.6954, 60.04120
475.1776, 59.25086
475.6597, 58.41938
476.1418, 57.51839
476.6239, 56.57167
477.1060, 55.52668
477.5881, 54.44709
478.0703, 53.51825
478.5524, 52.82804
479.0345, 52.24295
479.5166, 51.58385
479.9987, 50.83255
480.4808, 50.07702
480.9630, 49.22419
481.4451, 48.45246
481.9272, 47.93383
482.4093, 47.61637
482.8914, 47.30666
483.3735, 46.88015
483.8557, 46.39528
484.3378, 46.06328
484.8199, 46.08327
485.3020, 45.97325
485.7841, 45.58364
486.2662, 45.15430
486.7484, 44.87748
487.2305, 44.76601
487.7126, 44.70681
488.1947, 44.59942
488.6768, 44.44726
489.1589, 44.30157
489.6411, 44.11477
490.1232, 44.01501
490.6053, 44.14403
491.0874, 44.32230
491.5695, 44.31614
492.0516, 44.04967
492.5338, 43.74218
493.0159, 43.63082
493.4980, 43.69455
493.9801, 43.74575
494.4622, 43.74801
494.9443, 43.75337
495.4265, 43.78321
495.9086, 43.84643
496.3907, 43.98241
496.8728, 44.21257
497.3549, 44.50894
497.8370, 44.91188
498.3192, 45.37492
498.8013, 45.68178
499.2834, 45.70116
499.7655, 45.66747
500.2476, 45.99919
500.7297, 46.84298
501.2119, 47.52477
501.6940, 47.81909
502.1761, 48.09010
502.6582, 48.59631
503.1403, 49.31360
503.6224, 50.08798
504.1045, 50.82123
504.5866, 51.55175
505.0688, 52.41532
505.5509, 53.37593
506.0330, 54.55455
506.5151, 56.14692
506.9972, 57.80209
507.4793, 59.20864
507.9615, 60.38962
508.4436, 61.62980
508.9257, 63.14978
509.4078, 64.93996
509.8899, 66.89785
510.3720, 69.09611
510.8542, 71.31568
511.3363, 73.48630
511.8184, 75.63306
512.3005, 77.76477
512.7827, 79.88171
513.2648, 82.03918
513.7469, 84.27798
514.2290, 86.59398
514.7111, 89.04402
515.1932, 91.67589
515.6754, 94.25990
516.1575, 96.55336
516.6396, 98.64742
517.1217, 100.9490
517.6038, 103.6265
518.0859, 106.3242
518.5681, 108.8046
519.0502, 111.2183
519.5323, 113.8377
520.0144, 116.7487
520.4965, 119.7834
520.9786, 122.7448
521.4608, 125.6184
521.9429, 128.5329
522.4250, 131.5054
522.9071, 134.5287
523.3892, 137.6211
523.8713, 140.7482
524.3535, 143.8993
524.8356, 147.0472
525.3177, 150.1029
525.7998, 152.8446
526.2819, 155.2129
526.7640, 157.5616
527.2462, 160.3002
527.7283, 162.5635
528.2104, 163.8873
528.6925, 164.4335
529.1746, 164.6027
529.6567, 164.5581
530.1389, 164.2263
530.6210, 163.5612
531.1031, 162.5540
531.5852, 161.0042
532.0673, 158.7361
532.5494, 156.0891
533.0316, 153.3062
533.5137, 150.4125
533.9958, 147.8068
534.4779, 145.7836
534.9600, 143.9065
535.4421, 141.5998
535.9243, 139.0946
536.4064, 137.1859
536.8885, 136.2945
537.3706, 136.0426
537.8527, 135.6283
538.3348, 134.6918
538.8170, 134.3462
539.2991, 134.9182
539.7812, 135.7385
540.2633, 136.4058
540.7454, 136.9888
541.2275, 137.7675
541.7097, 138.9088
542.1918, 140.3660
542.6739, 142.0650
543.1560, 144.1157
543.6381, 146.0857
544.1202, 147.9374
544.6024, 149.6286
545.0845, 151.1341
545.5666, 152.4566
546.0487, 153.5771
546.5308, 154.6826
547.0129, 155.4890
547.4951, 155.6061
547.9772, 155.0351
548.4593, 153.6667
548.9414, 151.3354
549.4235, 148.3315
549.9056, 145.0894
550.3878, 141.5962
550.8699, 138.0921
551.3520, 134.4534
551.8341, 130.9769
552.3162, 127.9910
552.7983, 125.4117
553.2805, 122.8151
553.7626, 119.8971
554.2447, 116.9728
554.7268, 114.9518
555.2089, 114.1621
555.6910, 113.7561
556.1732, 113.8270
556.6553, 114.1143
557.1374, 114.3860
557.6195, 114.7208
558.1016, 115.4063
558.5837, 116.6718
559.0659, 118.3365
559.5480, 119.9496
560.0301, 121.4512
560.5122, 123.2228
560.9943, 125.4034
561.4764, 127.8718
561.9586, 130.5395
562.4407, 133.3877
562.9228, 136.2229
563.4049, 138.9406
563.8870, 141.6360
564.3691, 144.2850
564.8513, 146.9508
565.3334, 149.9743
565.8155, 153.5551
566.2976, 157.4341
566.7797, 161.1491
567.2618, 164.5929
567.7440, 168.0947
568.2261, 171.7205
568.7082, 175.3166
569.1903, 178.8053
569.6724, 182.1915
570.1545, 185.5823
570.6367, 189.0224
571.1188, 192.4302
571.6009, 195.6239
572.0830, 198.6706
572.5651, 201.3408
573.0472, 203.5413
573.5294, 205.3924
574.0115, 206.9790
574.4936, 208.2854
574.9757, 209.2585
575.4578, 209.8951
575.9399, 210.1657
576.4221, 210.1124
576.9042, 209.6944
577.3863, 208.5988
577.8684, 206.6448
578.3505, 204.2671
578.8326, 202.0261
579.3148, 199.9462
579.7969, 197.3050
580.2790, 193.8344
580.7611, 190.0687
581.2432, 186.2136
581.7253, 182.2534
582.2075, 178.0263
582.6896, 173.5220
583.1717, 168.9060
583.6538, 164.4161
584.1359, 160.0468
584.6180, 155.8549
585.1002, 151.7731
585.5823, 147.9172
586.0643, 144.5324
586.5464, 141.2991
587.0286, 137.7603
587.5107, 133.7498
587.9928, 129.6902
