##NAMES=Melanotekite
##RRUFFID=R090032
##IDEAL CHEMISTRY=Pb^2+^_2_Fe^3+^_2_O_2_Si_2_O_7_
##LOCALITY=Kombat, Namibia
##OWNER=RRUFF
##SOURCE=William W. Pinch
##DESCRIPTION=Black, massive exhibiting greasy luster, associated with colorless to pale brown bladed yangite (R090031). Sample is from the John Innes collection.
##STATUS=The identification of this mineral has been confirmed only by single crystal X-ray diffraction.
##URL=rruff.info/R090032
90.92609, 0.0000000E+00
91.40820, 2.968673
91.89032, 3.112823
92.37244, 3.044537
92.85455, 2.796212
93.33667, 2.561629
93.81879, 2.492436
94.30090, 2.549096
94.78302, 2.616616
95.26514, 2.687214
95.74725, 2.739867
96.22937, 2.691789
96.71149, 2.532308
97.19360, 2.397766
97.67572, 2.472853
98.15784, 2.751622
98.63995, 2.932866
99.12207, 2.897883
99.60419, 2.676543
100.0863, 2.531242
100.5684, 2.472168
101.0505, 2.468772
101.5327, 2.495090
102.0148, 2.567167
102.4969, 2.613820
102.9790, 2.604658
103.4611, 2.526867
103.9432, 2.460023
104.4253, 2.389370
104.9075, 2.338206
105.3896, 2.365543
105.8717, 2.554368
106.3538, 2.709203
106.8359, 2.746267
107.3180, 2.530688
107.8002, 2.431325
108.2823, 2.479997
108.7644, 2.650292
109.2465, 2.848920
109.7286, 3.178470
110.2107, 3.459351
110.6929, 3.619608
111.1750, 3.428077
111.6571, 3.368317
112.1392, 3.521467
112.6213, 3.864804
113.1034, 4.220303
113.5856, 4.580171
114.0677, 4.936862
114.5498, 5.281994
115.0319, 5.538579
115.5140, 5.857927
115.9961, 6.292029
116.4783, 6.840991
116.9604, 7.434719
117.4425, 7.993218
117.9246, 8.607636
118.4067, 9.371995
118.8888, 10.48644
119.3710, 11.64357
119.8531, 12.65439
120.3352, 13.48961
120.8173, 14.31664
121.2994, 15.33896
121.7815, 16.41117
122.2637, 17.28381
122.7458, 17.65534
123.2279, 17.85006
123.7100, 18.17558
124.1921, 18.67555
124.6742, 19.25911
125.1564, 19.84978
125.6385, 20.45636
126.1206, 21.10960
126.6027, 21.82177
127.0848, 22.58842
127.5669, 23.39972
128.0491, 24.25813
128.5312, 25.15258
129.0133, 26.05211
129.4954, 26.95576
129.9775, 27.92977
130.4596, 29.07681
130.9418, 30.34114
131.4239, 31.54222
131.9060, 32.62644
132.3881, 33.65041
132.8702, 34.56272
133.3523, 35.32754
133.8345, 36.48394
134.3166, 39.04039
134.7987, 42.99043
135.2808, 45.62387
135.7629, 45.98344
136.2450, 44.61142
136.7272, 44.21771
137.2093, 44.95668
137.6914, 46.18186
138.1735, 47.36338
138.6556, 48.55289
139.1377, 49.38312
139.6199, 49.74190
140.1020, 49.62803
140.5841, 49.25414
141.0662, 48.50487
141.5483, 47.65674
142.0304, 47.06930
142.5126, 46.83650
142.9947, 46.63860
143.4768, 46.24793
143.9589, 45.53136
144.4410, 44.91979
144.9231, 44.30052
145.4053, 43.84145
145.8874, 43.84608
146.3695, 44.75087
146.8516, 45.49546
147.3337, 45.69138
147.8158, 44.99794
148.2980, 44.66344
148.7801, 44.84566
149.2622, 45.34759
149.7443, 45.77037
150.2264, 46.04794
150.7085, 46.31530
151.1907, 46.60339
151.6728, 46.83920
152.1549, 47.21875
152.6370, 47.82740
153.1191, 48.58588
153.6012, 49.28481
154.0834, 49.87214
154.5655, 50.42143
155.0476, 50.97839
155.5297, 51.65717
156.0118, 52.17931
156.4939, 52.45538
156.9761, 52.53756
157.4582, 52.58673
157.9403, 52.56076
158.4224, 52.56221
158.9045, 52.65363
159.3866, 52.93751
159.8688, 53.20632
160.3509, 53.34070
160.8330, 53.38657
161.3151, 53.55872
161.7972, 54.17287
162.2793, 54.81980
162.7615, 55.18490
163.2436, 54.85421
163.7257, 54.53822
164.2078, 54.60928
164.6899, 55.00842
165.1720, 55.32146
165.6541, 55.13165
166.1363, 54.83915
166.6184, 54.83863
167.1005, 55.58445
167.5826, 56.40667
168.0647, 56.81377
168.5468, 56.84252
169.0290, 56.99166
169.5111, 57.73582
169.9932, 58.74532
170.4753, 59.58825
170.9574, 59.92863
171.4395, 60.13446
171.9217, 60.49233
172.4038, 61.00442
172.8859, 61.61489
173.3680, 62.29332
173.8501, 63.03754
174.3322, 63.85649
174.8144, 64.73202
175.2965, 65.70156
175.7786, 66.82977
176.2607, 68.13272
176.7428, 69.43395
177.2249, 70.42890
177.7071, 71.27731
178.1892, 72.39754
178.6713, 74.32474
179.1534, 76.54311
179.6355, 78.19358
180.1176, 79.24013
180.5998, 79.97120
181.0819, 80.64371
181.5640, 81.24940
182.0461, 81.78537
182.5282, 82.46292
183.0103, 83.04918
183.4925, 82.91052
183.9746, 81.95313
184.4567, 80.63518
184.9388, 79.64401
185.4209, 78.86529
185.9030, 77.66116
186.3852, 75.48853
186.8673, 72.61588
187.3494, 69.87631
187.8315, 67.31416
188.3136, 64.88958
188.7957, 62.43769
189.2779, 59.99070
189.7600, 57.68951
190.2421, 55.58584
190.7242, 53.69918
191.2063, 52.11380
191.6884, 50.86577
192.1706, 49.86022
192.6527, 48.97569
193.1348, 48.21791
193.6169, 47.43344
194.0990, 46.46059
194.5811, 45.32776
195.0633, 44.42577
195.5454, 43.80314
196.0275, 43.35112
196.5096, 42.87830
196.9917, 42.37011
197.4738, 41.97198
197.9560, 41.79988
198.4381, 41.85480
198.9202, 41.86872
199.4023, 41.81430
199.8844, 41.73916
200.3665, 41.74116
200.8487, 41.82906
201.3308, 41.94364
201.8129, 42.06999
202.2950, 42.21281
202.7771, 42.30083
203.2592, 42.30826
203.7414, 42.28619
204.2235, 42.34462
204.7056, 42.49058
205.1877, 42.68415
205.6698, 42.91311
206.1519, 43.18208
206.6341, 43.45679
207.1162, 43.74225
207.5983, 44.02302
208.0804, 44.26060
208.5625, 44.44576
209.0446, 44.60836
209.5268, 44.75146
210.0089, 44.86235
210.4910, 45.01240
210.9731, 45.19831
211.4552, 45.42947
211.9373, 45.73144
212.4195, 46.11963
212.9016, 46.53669
213.3837, 46.97965
213.8658, 47.49334
214.3479, 47.87248
214.8300, 48.10360
215.3121, 48.20726
215.7943, 48.21574
216.2764, 48.08612
216.7585, 47.94999
217.2406, 47.85553
217.7227, 47.79324
218.2048, 47.82100
218.6870, 48.01933
219.1691, 48.26637
219.6512, 48.25727
220.1333, 47.86765
220.6154, 47.44889
221.0975, 47.13271
221.5797, 46.92259
222.0618, 46.81638
222.5439, 46.83133
223.0260, 46.94299
223.5081, 47.11444
223.9902, 47.40299
224.4724, 47.65216
224.9545, 47.78357
225.4366, 47.75070
225.9187, 47.74121
226.4008, 47.74785
226.8829, 47.78213
227.3651, 47.87823
227.8472, 48.09078
228.3293, 48.27538
228.8114, 48.35986
229.2935, 48.28278
229.7757, 48.29362
230.2578, 48.41447
230.7399, 48.61073
231.2220, 48.81018
231.7041, 48.96125
232.1862, 49.19492
232.6684, 49.56568
233.1505, 50.10669
233.6326, 50.69498
234.1147, 51.43441
234.5968, 52.16615
235.0789, 52.53239
235.5611, 52.18030
236.0432, 52.03834
236.5253, 52.49623
237.0074, 53.79972
237.4895, 54.76868
237.9716, 55.25295
238.4538, 55.49528
238.9359, 55.87732
239.4180, 56.43968
239.9001, 57.08678
240.3822, 57.82664
240.8643, 58.70135
241.3465, 59.44187
241.8286, 60.02946
242.3107, 60.49613
242.7928, 60.87915
243.2749, 61.14516
243.7570, 61.38214
244.2392, 61.59591
244.7213, 61.77047
245.2034, 62.03511
245.6855, 62.45842
246.1676, 62.91726
246.6497, 63.23126
247.1319, 63.23951
247.6140, 63.40403
248.0961, 63.90261
248.5782, 64.79655
249.0603, 65.47335
249.5424, 65.89165
250.0246, 66.14062
250.5067, 66.28536
250.9888, 66.18003
251.4709, 66.26364
251.9530, 66.68344
252.4351, 67.46440
252.9173, 68.14271
253.3994, 68.71577
253.8815, 69.20010
254.3636, 69.60615
254.8457, 69.90743
255.3278, 70.17278
255.8100, 70.40057
256.2921, 70.59264
256.7742, 70.83228
257.2563, 71.20862
257.7384, 71.51240
258.2205, 71.53956
258.7026, 71.17825
259.1848, 70.82178
259.6669, 70.52364
260.1490, 70.28015
260.6311, 70.10249
261.1132, 70.07578
261.5953, 69.98018
262.0775, 69.64774
262.5596, 69.02386
263.0417, 68.31779
263.5238, 67.55022
264.0059, 66.71886
264.4880, 65.75136
264.9702, 64.58932
265.4523, 63.41405
265.9344, 62.32752
266.4165, 61.30713
266.8986, 60.43608
267.3807, 59.76699
267.8629, 59.22813
268.3450, 58.55357
268.8271, 57.66098
269.3092, 56.81932
269.7913, 56.13531
270.2734, 55.60246
270.7556, 55.30556
271.2377, 55.30369
271.7198, 55.49439
272.2019, 55.65687
272.6840, 55.79969
273.1661, 55.88987
273.6483, 55.84568
274.1304, 55.61806
274.6125, 55.71175
275.0946, 56.26999
275.5767, 56.96667
276.0588, 57.14368
276.5410, 56.68346
277.0231, 56.30613
277.5052, 56.37333
277.9873, 56.89283
278.4694, 57.23647
278.9515, 57.33904
279.4337, 57.40009
279.9158, 57.76335
280.3979, 58.46637
280.8800, 59.05169
281.3621, 59.25271
281.8442, 59.13599
282.3264, 59.36073
282.8085, 59.98723
283.2906, 60.75128
283.7727, 61.32657
284.2548, 61.71125
284.7369, 62.18480
285.2191, 62.86246
285.7012, 63.68634
286.1833, 64.40048
286.6654, 64.97604
287.1475, 65.63914
287.6296, 66.66566
288.1118, 68.02147
288.5939, 69.30887
289.0760, 70.39992
289.5581, 71.38995
290.0402, 72.55470
290.5223, 73.90275
291.0045, 75.30359
291.4866, 76.72093
291.9687, 78.13329
292.4508, 79.41105
292.9329, 80.47969
293.4150, 81.49158
293.8972, 82.80618
294.3793, 84.39881
294.8614, 85.98101
295.3435, 87.13173
295.8256, 88.10413
296.3077, 89.70971
296.7899, 92.18361
297.2720, 94.86507
297.7541, 96.81019
298.2362, 98.12781
298.7183, 99.34300
299.2004, 100.6664
299.6826, 102.0912
300.1647, 103.6853
300.6468, 105.4723
301.1289, 107.2432
301.6110, 108.7870
302.0931, 110.1462
302.5753, 111.4816
303.0574, 112.9879
303.5395, 114.4478
304.0216, 115.5116
304.5037, 116.1766
304.9858, 116.6898
305.4680, 117.2312
305.9501, 117.7701
306.4322, 118.2520
306.9143, 118.6590
307.3964, 119.0057
307.8785, 119.3754
308.3607, 119.7455
308.8428, 119.9151
309.3249, 119.6094
309.8070, 119.0789
310.2891, 118.6042
310.7712, 118.1800
311.2534, 117.9311
311.7355, 118.0970
312.2176, 118.5571
312.6997, 118.8604
313.1818, 118.5120
313.6639, 118.0450
314.1461, 117.9085
314.6282, 118.3155
315.1103, 118.7987
315.5924, 118.9980
316.0745, 119.1031
316.5566, 119.5164
317.0388, 120.6306
317.5209, 121.9290
318.0030, 123.0927
318.4851, 124.0079
318.9672, 125.1060
319.4493, 126.4788
319.9315, 128.1281
320.4136, 130.0789
320.8957, 132.6901
321.3778, 135.2695
321.8599, 137.5545
322.3420, 139.5045
322.8242, 141.4737
323.3063, 143.3414
323.7884, 145.3524
324.2705, 147.7205
324.7526, 150.7972
325.2347, 153.9206
325.7169, 156.8524
326.1990, 159.6407
326.6811, 162.6098
327.1632, 165.8611
327.6453, 169.2449
328.1274, 172.6768
328.6096, 176.0075
329.0917, 179.5985
329.5738, 183.7655
330.0559, 188.2024
330.5380, 191.9595
331.0201, 194.3946
331.5023, 196.8492
331.9844, 199.9050
332.4665, 203.8607
332.9486, 207.6380
333.4307, 211.2726
333.9128, 214.6912
334.3950, 217.6750
334.8771, 220.1304
335.3592, 222.3748
335.8413, 224.4922
336.3234, 226.5069
336.8055, 228.2742
337.2877, 229.8243
337.7698, 231.0586
338.2519, 231.9149
338.7340, 232.4261
339.2161, 232.4074
339.6982, 231.8265
340.1803, 230.6803
340.6624, 228.9446
341.1446, 226.5332
341.6267, 223.7502
342.1088, 220.8082
342.5909, 217.7445
343.0730, 214.1828
343.5551, 210.1012
344.0373, 205.4996
344.5194, 200.3758
345.0015, 194.6658
345.4836, 188.8466
345.9657, 183.2974
346.4478, 177.9133
346.9300, 172.0330
347.4121, 165.4489
347.8942, 158.7993
348.3763, 152.8262
348.8584, 147.4837
349.3405, 142.3394
349.8227, 137.2214
350.3048, 132.1655
350.7869, 127.2000
351.2690, 122.3415
351.7511, 117.6901
352.2332, 113.3215
352.7154, 109.2783
353.1975, 105.6774
353.6796, 102.7443
354.1617, 100.0711
354.6438, 97.13482
355.1259, 94.00787
355.6081, 91.09710
356.0902, 88.67571
356.5723, 86.57798
357.0544, 84.59306
357.5365, 82.68472
358.0186, 80.91768
358.5008, 79.39408
358.9829, 78.04955
359.4650, 76.74617
359.9471, 75.38174
360.4292, 74.06770
360.9113, 72.89249
361.3935, 71.89388
361.8756, 70.90478
362.3577, 69.69443
362.8398, 68.51759
363.3219, 67.66375
363.8040, 67.54945
364.2862, 67.44334
364.7683, 67.02632
365.2504, 66.31835
365.7325, 65.83410
366.2146, 65.75847
366.6967, 65.88010
367.1789, 66.06767
367.6610, 66.61954
368.1431, 66.86489
368.6252, 66.45869
369.1073, 65.67216
369.5894, 65.36855
370.0716, 65.84985
370.5537, 66.50090
371.0358, 67.12922
371.5179, 67.73606
372.0000, 68.32222
372.4821, 68.91678
372.9643, 69.46437
373.4464, 69.85191
373.9285, 69.91739
374.4106, 70.15739
374.8927, 70.69775
375.3748, 71.53519
375.8570, 72.52853
376.3391, 73.77678
376.8212, 74.98856
377.3033, 75.90303
377.7854, 76.47144
378.2675, 77.05234
378.7497, 77.67669
379.2318, 78.36277
379.7139, 79.27013
380.1960, 80.42496
380.6781, 81.41078
381.1602, 81.95216
381.6424, 82.09353
382.1245, 82.09177
382.6066, 81.94817
383.0887, 81.71301
383.5708, 81.51392
384.0529, 81.30582
384.5351, 80.85361
385.0172, 79.99452
385.4993, 78.87306
385.9814, 77.69320
386.4635, 76.46324
386.9456, 75.14526
387.4278, 73.63115
387.9099, 72.04436
388.3920, 70.55344
388.8741, 69.18697
389.3562, 67.97276
389.8383, 66.99834
390.3205, 66.18916
390.8026, 65.36379
391.2847, 64.33402
391.7668, 63.31134
392.2489, 62.45797
392.7310, 61.81946
393.2132, 61.23862
393.6953, 60.61951
394.1774, 60.02846
394.6595, 59.54205
395.1416, 59.18746
395.6237, 58.94490
396.1059, 58.80742
396.5880, 58.77533
397.0701, 58.85529
397.5522, 59.17606
398.0343, 59.52370
398.5164, 59.77119
398.9986, 59.81819
399.4807, 59.88175
399.9628, 59.96948
400.4449, 60.07845
400.9270, 60.19257
401.4091, 60.19198
401.8913, 60.35094
402.3734, 60.78112
402.8555, 61.52833
403.3376, 62.28719
403.8197, 63.04027
404.3018, 63.82485
404.7840, 64.67007
405.2661, 65.56429
405.7482, 66.57418
406.2303, 67.74724
406.7124, 69.03973
407.1945, 70.34009
407.6767, 71.66295
408.1588, 72.91603
408.6409, 73.99053
409.1230, 74.89852
409.6051, 75.90254
410.0872, 77.03772
410.5694, 78.25044
411.0515, 79.52972
411.5336, 80.84603
412.0157, 81.97592
412.4978, 82.79504
412.9799, 83.37005
413.4621, 83.89296
413.9442, 84.36448
414.4263, 84.56174
414.9084, 84.23013
415.3905, 83.52621
415.8727, 82.67138
416.3548, 81.63386
416.8369, 80.60864
417.3190, 79.66399
417.8011, 78.85088
418.2832, 78.29148
418.7654, 78.06583
419.2475, 78.10892
419.7296, 78.45032
420.2117, 79.14517
420.6938, 79.80161
421.1759, 79.96667
421.6581, 80.13009
422.1402, 80.81591
422.6223, 82.57761
423.1044, 84.41553
423.5865, 86.08821
424.0686, 87.60707
424.5508, 89.16762
425.0329, 90.85595
425.5150, 92.52048
425.9971, 94.09081
426.4792, 95.52605
426.9613, 96.95539
427.4435, 98.44614
427.9256, 99.88588
428.4077, 101.0811
428.8898, 101.9806
429.3719, 102.7868
429.8540, 103.5931
430.3362, 104.3806
430.8183, 104.8537
431.3004, 104.9198
431.7825, 104.9287
432.2646, 105.2361
432.7467, 105.8420
433.2289, 106.2070
433.7110, 106.1929
434.1931, 106.0082
434.6752, 106.0226
435.1573, 106.2228
435.6394, 106.4697
436.1216, 106.7776
436.6036, 107.0663
437.0858, 107.0910
437.5679, 106.8406
438.0500, 106.6018
438.5321, 106.7163
439.0142, 106.9975
439.4963, 107.1313
439.9785, 107.0113
440.4606, 106.7335
440.9427, 106.4132
441.4248, 106.0084
441.9069, 105.3936
442.3890, 104.4996
442.8712, 103.3844
443.3533, 102.0404
443.8354, 100.4247
444.3175, 98.79759
444.7996, 97.17114
445.2817, 95.62424
445.7639, 94.22547
446.2460, 93.07311
446.7281, 91.96916
447.2102, 90.98631
447.6923, 90.07155
448.1744, 88.89328
448.6566, 87.16147
449.1387, 85.46085
449.6208, 84.06313
450.1029, 83.06345
450.5850, 82.04099
451.0671, 80.95438
451.5493, 79.90034
452.0314, 79.08292
452.5135, 78.60876
452.9956, 77.93011
453.4777, 76.85041
453.9598, 75.47411
454.4420, 74.23215
454.9241, 73.14973
455.4062, 72.06867
455.8883, 70.78024
456.3704, 69.37429
456.8525, 68.36613
457.3347, 67.92004
457.8168, 67.52763
458.2989, 66.48365
458.7810, 64.96738
459.2631, 63.54183
459.7452, 62.45142
460.2274, 61.55688
460.7095, 60.77636
461.1916, 60.08324
461.6737, 59.35614
462.1558, 58.41765
462.6379, 57.45617
463.1201, 56.66339
463.6022, 56.14867
464.0843, 55.61094
464.5664, 54.83306
465.0485, 53.97070
465.5306, 53.27249
466.0128, 52.95309
466.4949, 52.64929
466.9770, 52.25716
467.4591, 51.77070
467.9412, 51.29173
468.4233, 50.84435
468.9055, 50.38237
469.3876, 49.85058
469.8697, 49.10196
470.3518, 48.63122
470.8339, 48.57540
471.3160, 48.70739
471.7982, 48.58949
472.2803, 48.16735
472.7624, 47.70755
473.2445, 47.27129
473.7266, 46.86954
474.2087, 46.64184
474.6909, 46.61736
475.1730, 46.52251
475.6551, 46.01646
476.1372, 45.21662
476.6193, 44.62572
477.1014, 44.34885
477.5836, 44.21766
478.0657, 44.01777
478.5478, 43.79381
479.0299, 43.67666
479.5120, 43.81565
479.9941, 44.02915
480.4763, 44.19279
480.9584, 44.29718
481.4405, 44.26881
481.9226, 43.86639
482.4047, 43.43203
482.8868, 43.26604
483.3690, 43.57658
483.8511, 43.85056
484.3332, 43.86860
484.8153, 43.77430
485.2974, 43.80227
485.7795, 44.06340
486.2617, 44.36866
486.7438, 44.70282
487.2259, 45.06536
487.7080, 45.35475
488.1901, 45.50595
488.6722, 45.67182
489.1544, 45.94970
489.6365, 46.35819
490.1186, 46.80479
490.6007, 47.30794
491.0828, 47.81841
491.5649, 48.26782
492.0471, 48.65076
492.5292, 49.00449
493.0113, 49.30292
493.4934, 49.59431
493.9755, 50.00197
494.4576, 50.52219
494.9398, 51.16452
495.4219, 51.93805
495.9040, 52.83774
496.3861, 53.85672
496.8682, 55.03275
497.3503, 56.18613
497.8325, 57.18070
498.3146, 58.06073
498.7967, 58.91573
499.2788, 59.56252
499.7609, 60.38722
500.2430, 61.72016
500.7252, 63.43628
501.2073, 65.01281
501.6894, 65.70433
502.1715, 66.67994
502.6536, 68.64009
503.1357, 72.15422
503.6179, 75.15353
504.1000, 77.23648
504.5821, 79.01313
505.0642, 81.04185
505.5463, 83.22732
506.0284, 85.88360
506.5106, 89.16056
506.9927, 92.88587
507.4748, 96.42371
507.9569, 99.67198
508.4390, 103.2198
508.9211, 107.4289
509.4033, 112.2345
509.8854, 117.0163
510.3675, 121.7263
510.8496, 126.8089
511.3317, 133.0162
511.8138, 139.9799
512.2960, 146.4826
512.7781, 152.1205
513.2602, 157.7528
513.7423, 164.3422
514.2244, 171.6555
514.7065, 179.1232
515.1887, 186.2746
515.6708, 193.6777
516.1529, 201.6420
516.6350, 210.2039
517.1171, 219.0993
517.5992, 228.4212
518.0814, 237.8264
518.5635, 247.0670
519.0456, 256.0356
519.5277, 264.9928
520.0098, 273.6231
520.4919, 282.3228
520.9741, 291.7438
521.4562, 302.2795
521.9383, 312.5865
522.4204, 322.5305
522.9025, 332.0169
523.3846, 340.4095
523.8668, 347.5577
524.3489, 354.0040
524.8310, 360.3410
525.3131, 366.4572
525.7952, 371.2758
526.2773, 374.8218
526.7595, 376.8488
527.2416, 376.9718
527.7237, 375.3424
528.2058, 372.3102
528.6879, 368.0165
529.1700, 362.3772
529.6522, 355.0677
530.1343, 346.3521
530.6164, 336.7505
531.0985, 326.1483
531.5806, 315.1281
532.0627, 304.0424
532.5449, 292.9515
533.0270, 281.9714
533.5091, 271.1913
533.9912, 260.5742
534.4733, 250.2479
534.9554, 239.9218
535.4376, 230.0638
535.9197, 220.7182
536.4018, 211.8692
536.8839, 203.7427
537.3660, 196.2357
537.8481, 189.5704
538.3303, 183.8873
538.8124, 179.0539
539.2945, 174.1420
539.7766, 169.0907
540.2587, 164.4830
540.7408, 160.7844
541.2230, 157.8494
541.7051, 155.3126
542.1872, 153.1635
542.6693, 151.3019
543.1514, 149.6417
543.6335, 148.1873
544.1157, 146.9004
544.5978, 145.7859
545.0799, 144.8176
545.5620, 144.1734
546.0441, 143.6807
546.5262, 142.9123
547.0084, 141.5482
547.4905, 140.0241
547.9726, 138.5145
548.4547, 137.0483
548.9368, 135.4085
549.4189, 133.7263
549.9011, 131.7361
550.3832, 129.2148
550.8653, 125.7487
551.3474, 122.7349
551.8295, 120.3787
552.3116, 118.2943
552.7938, 115.8947
553.2759, 113.1342
553.7580, 110.4933
554.2401, 108.0757
554.7222, 105.8787
555.2043, 103.9106
555.6865, 102.1812
556.1686, 100.6072
556.6507, 99.15784
557.1328, 97.83405
557.6149, 96.64915
558.0970, 95.60592
558.5792, 94.55994
559.0613, 93.31752
559.5434, 92.07799
560.0255, 91.05887
560.5076, 90.43645
560.9897, 89.83236
561.4719, 88.91580
561.9540, 87.97905
562.4361, 87.51932
562.9182, 88.12573
563.4003, 88.61035
563.8824, 88.67931
564.3646, 88.41148
564.8467, 88.38895
565.3288, 88.68616
565.8109, 89.07310
566.2930, 89.46491
566.7751, 89.86192
567.2573, 90.12737
567.7394, 90.22166
568.2215, 90.37190
568.7036, 90.89596
569.1857, 91.69039
569.6678, 92.38862
570.1500, 92.89676
570.6321, 93.31322
571.1142, 93.76590
571.5963, 94.20779
572.0784, 94.53114
572.5605, 94.57835
573.0427, 94.59388
573.5248, 94.80744
574.0069, 95.16494
574.4890, 95.30941
574.9711, 94.97581
575.4532, 94.52647
575.9354, 94.13020
576.4175, 93.80690
576.8996, 93.52164
577.3817, 93.44622
577.8638, 93.24471
578.3459, 92.54115
578.8281, 91.18502
579.3102, 89.97816
579.7923, 89.02573
580.2744, 88.23350
580.7565, 87.49832
581.2386, 86.81155
581.7208, 86.03550
582.2029, 85.12302
582.6850, 84.07508
583.1671, 82.82286
583.6492, 81.39230
584.1313, 79.94268
584.6134, 78.47842
585.0955, 77.08501
585.5776, 75.88494
586.0598, 74.90839
