##NAMES=Melanovanadite
##RRUFFID=R050555
##IDEAL CHEMISTRY=CaV^4+^_2_V^5+^_2_O_10_&#183;5H_2_O
##LOCALITY=Ragra mine, Cerro de Pasco Province, Pasco Department, Peru
##OWNER=RRUFF
##SOURCE=Dave Bunk Minerals
##DESCRIPTION=Radiating aggregates of black prismatic crystals
##STATUS=The identification of this mineral has been confirmed by X-ray diffraction and chemical analysis
##URL=rruff.info/R050555
##MEASURED CHEMISTRY=(Ca_0.87_[box]_0.13_)_Σ=1_(V^5+^_2.26_V^4+^_1.74_)_Σ=4_O_10_·5H_2_O
91.11523, 37.87882
91.59735, 38.97317
92.07947, 37.72161
92.56158, 34.96788
93.04370, 33.37721
93.52582, 35.64476
94.00793, 40.05840
94.49006, 42.85807
94.97218, 43.50983
95.45429, 42.80786
95.93641, 41.55426
96.41853, 39.77042
96.90064, 38.32937
97.38276, 38.01737
97.86488, 38.73960
98.34699, 39.48932
98.82911, 40.19840
99.31123, 40.78112
99.79334, 40.74532
100.2755, 39.87786
100.7576, 39.13268
101.2397, 39.57939
101.7218, 41.56372
102.2039, 43.08904
102.6861, 43.61175
103.1682, 43.14815
103.6503, 43.00361
104.1324, 43.39997
104.6145, 43.86915
105.0966, 43.77552
105.5788, 42.63523
106.0609, 41.76931
106.5430, 41.52985
107.0251, 42.03317
107.5072, 42.74627
107.9893, 43.70216
108.4715, 44.86533
108.9536, 46.16511
109.4357, 47.23814
109.9178, 48.78613
110.3999, 51.04576
110.8820, 54.03769
111.3642, 57.66822
111.8463, 62.04098
112.3284, 67.07638
112.8105, 72.56872
113.2926, 78.60579
113.7747, 85.10261
114.2569, 91.93665
114.7390, 98.29816
115.2211, 105.9580
115.7032, 115.3977
116.1853, 126.4920
116.6674, 138.5500
117.1496, 151.9926
117.6317, 166.1781
118.1138, 180.4528
118.5959, 191.9826
119.0780, 205.9275
119.5602, 225.6506
120.0423, 251.0817
120.5244, 277.2721
121.0065, 301.4107
121.4886, 324.6913
121.9707, 348.7931
122.4529, 375.5529
122.9350, 402.4640
123.4171, 427.4948
123.8992, 450.5395
124.3813, 471.9438
124.8634, 491.6164
125.3456, 509.8285
125.8277, 527.2686
126.3098, 543.4045
126.7919, 559.0778
127.2740, 574.9888
127.7561, 590.8844
128.2383, 608.2803
128.7204, 628.8755
129.2025, 652.5406
129.6846, 678.5950
130.1667, 707.4512
130.6488, 738.2115
131.1310, 769.6042
131.6131, 800.9997
132.0952, 833.7814
132.5773, 871.3281
133.0594, 913.8864
133.5415, 956.9333
134.0237, 997.7662
134.5058, 1036.678
134.9879, 1075.360
135.4700, 1114.802
135.9521, 1154.027
136.4343, 1191.157
136.9164, 1226.187
137.3985, 1259.601
137.8806, 1292.646
138.3627, 1325.945
138.8448, 1356.005
139.3270, 1382.375
139.8091, 1405.326
140.2912, 1425.819
140.7733, 1442.958
141.2554, 1459.549
141.7375, 1478.271
142.2197, 1499.875
142.7018, 1522.133
143.1839, 1544.569
143.6660, 1567.054
144.1481, 1590.148
144.6302, 1612.974
145.1124, 1636.992
145.5945, 1663.862
146.0766, 1696.316
146.5587, 1727.908
147.0408, 1756.582
147.5230, 1780.989
148.0051, 1806.771
148.4872, 1825.759
148.9693, 1835.320
149.4514, 1846.585
149.9335, 1862.229
150.4157, 1876.986
150.8978, 1889.172
151.3799, 1898.269
151.8620, 1906.714
152.3441, 1915.027
152.8262, 1922.804
153.3084, 1929.032
153.7905, 1933.592
154.2726, 1936.754
154.7547, 1938.764
155.2368, 1940.319
155.7189, 1939.518
156.2011, 1936.183
156.6832, 1930.358
157.1653, 1922.186
157.6474, 1909.798
158.1295, 1896.389
158.6116, 1883.699
159.0938, 1874.102
159.5759, 1862.261
160.0580, 1845.786
160.5401, 1825.733
161.0222, 1805.726
161.5044, 1787.657
161.9865, 1769.600
162.4686, 1750.223
162.9507, 1728.230
163.4328, 1705.945
163.9149, 1683.621
164.3971, 1661.276
164.8792, 1640.125
165.3613, 1621.004
165.8434, 1603.160
166.3255, 1585.826
166.8076, 1568.277
167.2898, 1551.833
167.7719, 1537.394
168.2540, 1524.815
168.7361, 1512.836
169.2182, 1500.236
169.7003, 1487.952
170.1825, 1477.107
170.6646, 1468.949
171.1467, 1461.799
171.6288, 1454.144
172.1109, 1446.060
172.5931, 1438.281
173.0752, 1431.755
173.5573, 1425.825
174.0394, 1419.408
174.5215, 1410.693
175.0036, 1401.978
175.4858, 1396.382
175.9679, 1393.931
176.4500, 1392.123
176.9321, 1388.605
177.4142, 1384.051
177.8963, 1380.068
178.3785, 1378.353
178.8606, 1377.250
179.3427, 1373.858
179.8248, 1367.940
180.3069, 1361.717
180.7890, 1358.057
181.2712, 1356.164
181.7533, 1353.519
182.2354, 1347.764
182.7175, 1340.586
183.1996, 1336.026
183.6818, 1334.408
184.1639, 1333.896
184.6460, 1332.752
185.1281, 1330.960
185.6102, 1328.342
186.0923, 1323.895
186.5745, 1318.461
187.0566, 1315.213
187.5387, 1314.618
188.0208, 1314.862
188.5029, 1313.653
188.9850, 1311.056
189.4672, 1307.695
189.9493, 1303.173
190.4314, 1297.933
190.9135, 1294.190
191.3956, 1292.317
191.8777, 1291.360
192.3599, 1289.705
192.8420, 1287.352
193.3241, 1285.293
193.8062, 1284.426
194.2883, 1284.561
194.7704, 1283.518
195.2526, 1280.785
195.7347, 1277.512
196.2168, 1275.900
196.6989, 1276.029
197.1810, 1276.516
197.6632, 1276.846
198.1453, 1277.007
198.6274, 1276.310
199.1095, 1274.438
199.5916, 1272.072
200.0737, 1270.559
200.5559, 1269.916
201.0380, 1270.000
201.5201, 1271.113
202.0022, 1273.415
202.4843, 1274.865
202.9664, 1275.196
203.4486, 1274.834
203.9307, 1274.514
204.4128, 1274.094
204.8949, 1274.367
205.3770, 1276.328
205.8591, 1280.458
206.3413, 1282.550
206.8234, 1281.629
207.3055, 1279.073
207.7876, 1278.408
208.2697, 1279.890
208.7519, 1282.417
209.2340, 1285.893
209.7161, 1290.816
210.1982, 1293.982
210.6803, 1294.835
211.1624, 1294.042
211.6446, 1293.383
212.1267, 1292.928
212.6088, 1292.487
213.0909, 1291.531
213.5730, 1289.295
214.0551, 1289.778
214.5373, 1294.033
215.0194, 1300.795
215.5015, 1306.613
215.9836, 1311.407
216.4657, 1315.506
216.9478, 1319.158
217.4300, 1322.390
217.9121, 1324.990
218.3942, 1326.616
218.8763, 1327.659
219.3584, 1329.150
219.8405, 1330.798
220.3227, 1333.332
220.8048, 1337.424
221.2869, 1344.125
221.7690, 1349.216
222.2511, 1351.609
222.7333, 1352.557
223.2154, 1355.883
223.6975, 1363.049
224.1796, 1370.224
224.6617, 1375.368
225.1438, 1377.319
225.6260, 1380.391
226.1081, 1384.832
226.5902, 1390.462
227.0723, 1396.686
227.5544, 1403.993
228.0365, 1411.280
228.5187, 1417.831
229.0008, 1422.649
229.4829, 1429.234
229.9650, 1438.521
230.4471, 1449.351
230.9292, 1458.682
231.4114, 1465.790
231.8935, 1472.593
232.3756, 1479.804
232.8577, 1487.637
233.3398, 1495.560
233.8220, 1503.626
234.3041, 1511.756
234.7862, 1519.450
235.2683, 1526.045
235.7504, 1533.218
236.2325, 1542.071
236.7147, 1553.762
237.1968, 1563.883
237.6789, 1572.158
238.1610, 1579.064
238.6431, 1585.626
239.1252, 1592.385
239.6074, 1598.194
240.0895, 1602.658
240.5716, 1605.662
241.0537, 1607.539
241.5358, 1607.831
242.0179, 1607.209
242.5001, 1606.961
242.9822, 1607.142
243.4643, 1607.527
243.9464, 1608.176
244.4285, 1609.451
244.9106, 1609.429
245.3928, 1606.983
245.8749, 1603.830
246.3570, 1603.323
246.8391, 1607.587
247.3212, 1610.750
247.8034, 1610.473
248.2855, 1605.564
248.7676, 1602.240
249.2497, 1600.860
249.7318, 1600.807
250.2139, 1601.415
250.6961, 1603.766
251.1782, 1604.859
251.6603, 1603.568
252.1424, 1599.418
252.6245, 1595.872
253.1066, 1593.368
253.5888, 1591.086
254.0709, 1587.756
254.5530, 1582.611
255.0351, 1577.996
255.5172, 1574.837
255.9993, 1573.344
256.4815, 1570.697
256.9636, 1566.326
257.4457, 1561.434
257.9278, 1557.372
258.4099, 1554.422
258.8921, 1551.634
259.3742, 1548.813
259.8563, 1545.984
260.3384, 1543.052
260.8205, 1540.135
261.3026, 1537.011
261.7848, 1533.133
262.2669, 1527.781
262.7490, 1523.814
263.2311, 1522.154
263.7132, 1522.636
264.1953, 1522.950
264.6775, 1523.383
265.1596, 1523.161
265.6417, 1521.274
266.1238, 1517.014
266.6059, 1513.580
267.0880, 1511.721
267.5702, 1511.192
268.0523, 1510.803
268.5344, 1511.270
269.0165, 1510.377
269.4986, 1505.609
269.9807, 1495.532
270.4629, 1487.850
270.9450, 1484.015
271.4271, 1483.167
271.9092, 1482.248
272.3913, 1481.406
272.8734, 1480.055
273.3556, 1477.565
273.8377, 1473.701
274.3198, 1470.351
274.8019, 1467.885
275.2840, 1465.851
275.7661, 1462.760
276.2483, 1458.310
276.7304, 1454.079
277.2125, 1451.531
277.6946, 1450.876
278.1768, 1448.527
278.6589, 1443.774
279.1410, 1437.914
279.6231, 1433.708
280.1052, 1431.339
280.5873, 1429.175
281.0695, 1426.522
281.5516, 1423.378
282.0337, 1419.854
282.5158, 1415.918
282.9979, 1411.686
283.4800, 1406.816
283.9622, 1401.203
284.4443, 1396.960
284.9264, 1395.687
285.4085, 1396.974
285.8906, 1397.161
286.3727, 1396.145
286.8549, 1394.327
287.3370, 1391.950
287.8191, 1389.042
288.3012, 1386.332
288.7833, 1384.325
289.2654, 1382.745
289.7476, 1380.383
290.2297, 1377.156
290.7118, 1373.870
291.1939, 1371.411
291.6760, 1369.705
292.1581, 1368.194
292.6403, 1367.183
293.1224, 1366.033
293.6045, 1362.787
294.0866, 1357.469
294.5687, 1351.939
295.0508, 1347.350
295.5330, 1343.773
296.0151, 1341.712
296.4972, 1341.861
296.9793, 1342.845
297.4614, 1342.097
297.9435, 1339.814
298.4257, 1337.679
298.9078, 1337.332
299.3899, 1337.995
299.8720, 1338.026
300.3541, 1337.098
300.8362, 1335.523
301.3184, 1333.246
301.8005, 1330.484
302.2826, 1328.224
302.7647, 1327.497
303.2469, 1327.483
303.7290, 1326.874
304.2111, 1325.385
304.6932, 1323.813
305.1753, 1323.156
305.6574, 1323.041
306.1396, 1322.625
306.6217, 1321.302
307.1038, 1319.543
307.5859, 1317.801
308.0680, 1316.091
308.5501, 1314.396
309.0323, 1312.514
309.5144, 1310.664
309.9965, 1309.198
310.4786, 1308.853
310.9607, 1308.515
311.4428, 1307.161
311.9250, 1304.829
312.4071, 1302.619
312.8892, 1301.406
313.3713, 1300.630
313.8534, 1299.689
314.3355, 1298.094
314.8177, 1296.569
315.2998, 1295.709
315.7819, 1295.351
316.2640, 1294.588
316.7461, 1292.397
317.2282, 1289.989
317.7104, 1288.338
318.1925, 1288.504
318.6746, 1288.172
319.1567, 1286.252
319.6388, 1283.186
320.1209, 1280.204
320.6031, 1277.570
321.0852, 1275.203
321.5673, 1273.009
322.0494, 1270.865
322.5315, 1269.177
323.0136, 1269.008
323.4958, 1269.205
323.9779, 1267.894
324.4600, 1263.441
324.9421, 1258.645
325.4242, 1254.208
325.9064, 1249.960
326.3885, 1246.952
326.8706, 1246.528
327.3527, 1246.890
327.8348, 1246.133
328.3170, 1241.923
328.7991, 1239.027
329.2812, 1238.943
329.7633, 1241.773
330.2454, 1242.806
330.7275, 1241.736
331.2097, 1239.064
331.6918, 1234.892
332.1739, 1226.924
332.6560, 1221.183
333.1381, 1219.219
333.6202, 1220.085
334.1024, 1219.307
334.5845, 1215.849
335.0666, 1212.281
335.5487, 1210.232
336.0308, 1210.899
336.5129, 1209.573
336.9951, 1205.402
337.4772, 1199.761
337.9593, 1195.365
338.4414, 1192.637
338.9235, 1190.020
339.4056, 1186.735
339.8878, 1182.729
340.3699, 1179.718
340.8520, 1178.181
341.3341, 1176.737
341.8162, 1172.615
342.2983, 1165.370
342.7805, 1160.676
343.2626, 1161.584
343.7447, 1166.568
344.2268, 1167.210
344.7089, 1162.987
345.1910, 1157.381
345.6732, 1153.331
346.1553, 1150.683
346.6374, 1148.960
347.1195, 1148.425
347.6016, 1148.281
348.0837, 1146.453
348.5659, 1143.063
349.0480, 1140.298
349.5301, 1140.707
350.0122, 1142.907
350.4944, 1143.172
350.9765, 1140.794
351.4586, 1137.383
351.9407, 1134.517
352.4228, 1132.210
352.9049, 1130.485
353.3871, 1129.874
353.8692, 1129.629
354.3513, 1128.750
354.8334, 1127.164
355.3155, 1125.291
355.7976, 1123.122
356.2798, 1120.906
356.7619, 1119.022
357.2440, 1117.276
357.7261, 1116.169
358.2082, 1116.370
358.6903, 1117.703
359.1725, 1119.042
359.6546, 1120.125
360.1367, 1120.747
360.6188, 1120.563
361.1009, 1118.470
361.5830, 1117.179
362.0652, 1119.437
362.5473, 1123.491
363.0294, 1125.014
363.5115, 1120.327
363.9936, 1114.471
364.4757, 1109.726
364.9579, 1106.115
365.4400, 1104.299
365.9221, 1106.568
366.4042, 1110.030
366.8863, 1111.020
367.3684, 1106.488
367.8506, 1102.053
368.3327, 1098.935
368.8148, 1097.264
369.2969, 1096.136
369.7790, 1095.878
370.2611, 1095.903
370.7433, 1095.824
371.2254, 1095.756
371.7075, 1095.378
372.1896, 1094.529
372.6717, 1093.318
373.1538, 1092.179
373.6360, 1090.850
374.1181, 1089.989
374.6002, 1090.080
375.0823, 1091.555
375.5645, 1092.369
376.0466, 1092.348
376.5287, 1091.849
377.0108, 1091.605
377.4929, 1091.841
377.9750, 1091.247
378.4572, 1088.794
378.9393, 1084.858
379.4214, 1083.397
379.9035, 1084.820
380.3856, 1087.094
380.8677, 1088.137
381.3499, 1088.060
381.8320, 1088.349
382.3141, 1089.542
382.7962, 1091.022
383.2783, 1091.335
383.7604, 1090.534
384.2426, 1089.744
384.7247, 1090.009
385.2068, 1090.791
385.6889, 1090.805
386.1710, 1089.805
386.6531, 1088.422
387.1353, 1086.824
387.6174, 1085.325
388.0995, 1084.711
388.5816, 1086.345
389.0637, 1088.472
389.5458, 1089.213
390.0280, 1088.577
390.5101, 1087.714
390.9922, 1087.280
391.4743, 1087.090
391.9564, 1086.948
392.4385, 1086.928
392.9207, 1086.787
393.4028, 1086.020
393.8849, 1084.957
394.3670, 1084.610
394.8491, 1085.961
395.3312, 1087.686
395.8134, 1089.188
396.2955, 1090.631
396.7776, 1091.140
397.2597, 1089.463
397.7418, 1087.055
398.2239, 1085.812
398.7061, 1086.561
399.1882, 1087.920
399.6703, 1090.042
400.1524, 1093.009
400.6346, 1094.768
401.1167, 1094.375
401.5988, 1093.583
402.0809, 1093.605
402.5630, 1095.097
403.0451, 1096.081
403.5273, 1096.214
404.0094, 1095.796
404.4915, 1095.612
404.9736, 1095.529
405.4557, 1095.970
405.9378, 1097.399
406.4200, 1099.976
406.9021, 1101.444
407.3842, 1101.492
407.8663, 1101.136
408.3484, 1101.996
408.8305, 1104.125
409.3127, 1105.161
409.7948, 1103.926
410.2769, 1101.497
410.7590, 1100.953
411.2411, 1102.321
411.7232, 1104.175
412.2054, 1105.576
412.6875, 1106.656
413.1696, 1107.593
413.6517, 1108.284
414.1338, 1109.297
414.6159, 1111.467
415.0981, 1114.495
415.5802, 1117.579
416.0623, 1120.609
416.5444, 1123.278
417.0265, 1124.961
417.5086, 1125.657
417.9908, 1126.407
418.4729, 1128.110
418.9550, 1130.092
419.4371, 1131.525
419.9192, 1130.683
420.4013, 1131.102
420.8835, 1135.793
421.3656, 1143.151
421.8477, 1148.433
422.3298, 1148.551
422.8119, 1147.591
423.2940, 1147.465
423.7762, 1148.768
424.2583, 1149.666
424.7404, 1149.682
425.2225, 1149.314
425.7047, 1149.124
426.1868, 1149.167
426.6689, 1149.352
427.1510, 1149.923
427.6331, 1150.775
428.1152, 1150.699
428.5974, 1149.444
429.0795, 1147.630
429.5616, 1145.632
430.0437, 1143.549
430.5258, 1140.713
431.0079, 1136.682
431.4901, 1132.412
431.9722, 1129.872
432.4543, 1129.249
432.9364, 1128.410
433.4185, 1126.115
433.9006, 1122.916
434.3828, 1121.964
434.8649, 1123.472
435.3470, 1124.648
435.8291, 1121.920
436.3112, 1116.657
436.7933, 1113.548
437.2755, 1114.138
437.7576, 1115.875
438.2397, 1115.771
438.7218, 1114.152
439.2039, 1112.070
439.6860, 1109.050
440.1682, 1106.432
440.6503, 1105.901
441.1324, 1107.591
441.6145, 1109.713
442.0966, 1111.921
442.5787, 1113.674
443.0609, 1114.386
443.5430, 1112.855
444.0251, 1111.285
444.5072, 1110.359
444.9893, 1109.979
445.4714, 1109.811
445.9536, 1109.638
446.4357, 1109.778
446.9178, 1110.596
447.3999, 1112.833
447.8820, 1113.801
448.3641, 1112.453
448.8463, 1110.443
449.3284, 1109.594
449.8105, 1110.800
450.2926, 1111.594
450.7747, 1111.413
451.2569, 1110.451
451.7390, 1109.833
452.2211, 1109.439
452.7032, 1109.625
453.1853, 1110.894
453.6674, 1113.343
454.1496, 1114.872
454.6317, 1115.235
455.1138, 1115.039
455.5959, 1114.858
456.0780, 1114.742
456.5602, 1115.482
457.0423, 1118.400
457.5244, 1121.694
458.0065, 1120.755
458.4886, 1116.011
458.9707, 1112.000
459.4529, 1113.305
459.9350, 1117.153
460.4171, 1119.157
460.8992, 1118.262
461.3813, 1117.019
461.8634, 1117.266
462.3456, 1118.530
462.8277, 1119.999
463.3098, 1121.428
463.7919, 1122.914
464.2740, 1124.579
464.7561, 1126.390
465.2383, 1128.018
465.7204, 1129.560
466.2025, 1130.726
466.6846, 1131.279
467.1667, 1130.710
467.6488, 1130.260
468.1310, 1128.617
468.6131, 1127.500
469.0952, 1130.082
469.5773, 1140.456
470.0594, 1147.884
470.5415, 1148.910
471.0237, 1143.804
471.5058, 1140.481
471.9879, 1139.256
472.4700, 1139.134
472.9521, 1139.487
473.4342, 1140.324
473.9164, 1141.692
474.3985, 1143.847
474.8806, 1146.050
475.3627, 1146.507
475.8448, 1145.468
476.3270, 1145.562
476.8091, 1148.998
477.2912, 1153.873
477.7733, 1156.417
478.2554, 1156.716
478.7375, 1156.073
479.2197, 1154.292
479.7018, 1152.572
480.1839, 1152.917
480.6660, 1156.510
481.1481, 1159.946
481.6302, 1160.987
482.1124, 1160.363
482.5945, 1159.309
483.0766, 1156.915
483.5587, 1155.433
484.0408, 1156.572
484.5229, 1160.236
485.0051, 1162.708
485.4872, 1162.180
485.9693, 1161.067
486.4514, 1160.790
486.9335, 1161.871
487.4156, 1162.876
487.8978, 1163.250
488.3799, 1163.852
488.8620, 1166.486
489.3441, 1172.663
489.8262, 1177.066
490.3083, 1177.849
490.7905, 1175.589
491.2726, 1174.563
491.7547, 1174.951
492.2368, 1175.669
492.7189, 1175.650
493.2010, 1175.109
493.6832, 1175.807
494.1653, 1178.166
494.6474, 1180.738
495.1295, 1181.380
495.6116, 1180.674
496.0938, 1180.500
496.5759, 1182.297
497.0580, 1184.378
497.5401, 1184.560
498.0222, 1183.216
498.5044, 1182.243
498.9865, 1183.530
499.4686, 1185.123
499.9507, 1185.153
500.4328, 1182.728
500.9149, 1181.202
501.3971, 1182.736
501.8792, 1185.379
502.3613, 1186.872
502.8434, 1185.274
503.3255, 1184.303
503.8076, 1185.004
504.2898, 1186.928
504.7719, 1188.054
505.2540, 1188.228
505.7361, 1187.781
506.2182, 1186.579
506.7003, 1184.346
507.1825, 1183.308
507.6646, 1183.794
508.1467, 1184.785
508.6288, 1185.414
509.1109, 1185.689
509.5930, 1184.974
510.0752, 1182.838
510.5573, 1180.137
511.0394, 1178.471
511.5215, 1177.742
512.0037, 1177.280
512.4858, 1176.621
512.9679, 1176.052
513.4500, 1175.997
513.9321, 1176.464
514.4142, 1177.214
514.8964, 1179.225
515.3785, 1180.912
515.8606, 1180.319
516.3427, 1175.307
516.8248, 1170.928
517.3069, 1169.799
517.7891, 1170.547
518.2712, 1170.630
518.7533, 1168.412
519.2354, 1166.565
519.7175, 1166.050
520.1996, 1166.831
520.6818, 1167.361
521.1639, 1167.701
521.6460, 1167.724
522.1281, 1167.323
522.6102, 1166.418
523.0923, 1165.335
523.5745, 1163.906
524.0566, 1162.576
524.5387, 1162.215
525.0208, 1162.818
525.5029, 1162.947
525.9850, 1161.921
526.4672, 1160.394
526.9493, 1160.073
527.4314, 1160.779
527.9135, 1160.996
528.3956, 1159.410
528.8777, 1156.920
529.3599, 1154.562
529.8420, 1152.369
530.3241, 1150.850
530.8062, 1150.834
531.2883, 1151.462
531.7704, 1151.785
532.2526, 1151.523
532.7347, 1150.974
533.2168, 1150.238
533.6989, 1149.292
534.1810, 1148.059
534.6631, 1146.279
535.1453, 1144.466
535.6274, 1142.536
536.1095, 1140.431
536.5916, 1139.686
537.0737, 1140.904
537.5558, 1142.541
538.0380, 1143.660
538.5201, 1144.271
539.0022, 1144.143
539.4843, 1143.000
539.9664, 1141.705
540.4485, 1142.000
540.9307, 1143.604
541.4128, 1144.162
541.8949, 1142.340
542.3770, 1139.555
542.8591, 1137.999
543.3412, 1137.537
543.8234, 1137.395
544.3055, 1137.522
544.7876, 1137.474
545.2697, 1136.806
545.7518, 1135.453
546.2339, 1133.719
546.7161, 1131.297
547.1982, 1128.824
547.6803, 1126.818
548.1624, 1125.912
548.6445, 1124.881
549.1266, 1123.729
549.6088, 1122.359
550.0909, 1120.578
550.5730, 1118.482
551.0551, 1115.844
551.5372, 1112.330
552.0193, 1108.120
552.5015, 1105.012
552.9836, 1103.029
553.4657, 1102.085
553.9478, 1102.798
554.4299, 1104.883
554.9120, 1105.067
555.3942, 1102.854
555.8763, 1100.344
556.3584, 1100.642
556.8405, 1102.526
557.3226, 1102.737
557.8047, 1099.356
558.2869, 1095.321
558.7690, 1093.503
559.2511, 1093.196
559.7332, 1092.645
560.2154, 1090.326
560.6975, 1088.207
561.1796, 1087.805
561.6617, 1089.245
562.1439, 1089.436
562.6260, 1086.159
563.1081, 1082.698
563.5902, 1080.935
564.0723, 1081.699
564.5544, 1082.479
565.0366, 1083.470
565.5187, 1084.284
566.0008, 1084.290
566.4829, 1083.332
566.9650, 1082.359
567.4471, 1081.575
567.9293, 1080.874
568.4114, 1080.136
568.8935, 1079.328
569.3756, 1078.122
569.8577, 1075.347
570.3398, 1072.374
570.8220, 1072.406
571.3041, 1075.340
571.7862, 1077.747
572.2683, 1076.504
572.7504, 1073.936
573.2325, 1072.457
573.7147, 1073.088
574.1968, 1073.433
574.6789, 1072.401
575.1610, 1070.671
575.6431, 1069.102
576.1252, 1067.940
576.6074, 1066.858
577.0895, 1065.900
577.5716, 1065.004
578.0537, 1063.739
578.5358, 1061.587
579.0179, 1060.313
579.5001, 1061.043
579.9822, 1063.587
580.4643, 1064.875
580.9464, 1064.880
581.4285, 1063.794
581.9106, 1060.727
582.3928, 1056.593
582.8749, 1054.724
583.3570, 1055.858
583.8391, 1057.716
584.3212, 1058.231
584.8033, 1057.902
585.2855, 1057.595
