##NAMES=Melanophlogite
##RRUFFID=R060863
##IDEAL CHEMISTRY=C_2_H_17_O_5_&#183;Si_46_O_92_
##LOCALITY=6 miles east of Mount Hamilton, Santa Clara County, California, USA
##OWNER=RRUFF
##SOURCE=Michael Scott
##DESCRIPTION=Colorless cubes
##STATUS=The identification of this mineral has been confirmed by single-crystal X-ray diffraction.
##URL=rruff.info/R060863
155.2712, 10737.98
155.7533, 10821.33
156.2354, 10925.25
156.7175, 11025.14
157.1996, 11110.13
157.6817, 11192.28
158.1639, 11283.23
158.6460, 11390.35
159.1281, 11501.96
159.6102, 11615.06
160.0923, 11729.54
160.5744, 11840.54
161.0566, 11943.22
161.5387, 12040.87
162.0208, 12138.42
162.5029, 12246.50
162.9850, 12347.58
163.4671, 12431.55
163.9493, 12493.86
164.4314, 12545.44
164.9135, 12585.01
165.3956, 12617.28
165.8777, 12652.14
166.3598, 12710.17
166.8420, 12764.84
167.3241, 12792.52
167.8062, 12777.58
168.2883, 12756.25
168.7704, 12755.13
169.2525, 12769.13
169.7346, 12779.11
170.2168, 12774.13
170.6989, 12759.35
171.1810, 12740.15
171.6631, 12716.45
172.1452, 12690.86
172.6273, 12668.43
173.1095, 12648.01
173.5916, 12619.65
174.0737, 12565.50
174.5558, 12499.69
175.0379, 12446.62
175.5201, 12418.79
176.0022, 12404.22
176.4843, 12393.85
176.9664, 12387.56
177.4485, 12373.11
177.9306, 12332.42
178.4128, 12274.58
178.8949, 12221.04
179.3770, 12180.75
179.8591, 12150.35
180.3412, 12128.61
180.8233, 12117.19
181.3055, 12099.57
181.7876, 12048.08
182.2697, 11971.41
182.7518, 11903.07
183.2339, 11864.94
183.7160, 11847.36
184.1982, 11827.48
184.6803, 11804.37
185.1624, 11777.84
185.6445, 11748.58
186.1266, 11716.33
186.6087, 11677.15
187.0908, 11616.70
187.5730, 11543.86
188.0551, 11500.97
188.5372, 11494.70
189.0193, 11512.75
189.5014, 11545.17
189.9835, 11592.21
190.4657, 11622.81
190.9478, 11604.85
191.4299, 11545.03
191.9120, 11502.12
192.3941, 11484.03
192.8762, 11486.43
193.3584, 11505.60
193.8405, 11543.33
194.3226, 11579.13
194.8047, 11590.85
195.2868, 11579.23
195.7689, 11584.60
196.2511, 11619.72
196.7332, 11674.64
197.2153, 11712.21
197.6974, 11730.40
198.1795, 11742.89
198.6616, 11760.38
199.1438, 11783.34
199.6259, 11808.04
200.1080, 11830.89
200.5901, 11854.68
201.0722, 11895.16
201.5543, 11953.47
202.0364, 12025.17
202.5186, 12112.62
203.0007, 12220.36
203.4828, 12312.13
203.9649, 12376.27
204.4470, 12414.06
204.9291, 12443.23
205.4113, 12457.52
205.8934, 12474.90
206.3755, 12518.45
206.8576, 12592.99
207.3397, 12672.80
207.8218, 12752.27
208.3040, 12831.58
208.7861, 12906.77
209.2682, 12976.40
209.7503, 13043.55
210.2324, 13114.03
210.7145, 13191.37
211.1967, 13260.73
211.6788, 13312.94
212.1609, 13343.72
212.6430, 13395.10
213.1251, 13474.13
213.6072, 13566.71
214.0894, 13650.48
214.5715, 13721.02
215.0536, 13793.89
215.5357, 13875.20
216.0178, 13968.19
216.4999, 14054.37
216.9820, 14127.52
217.4642, 14196.20
217.9463, 14279.75
218.4284, 14383.79
218.9105, 14487.77
219.3926, 14583.45
219.8747, 14667.76
220.3569, 14750.95
220.8390, 14840.31
221.3211, 14924.90
221.8032, 14978.96
222.2853, 14981.24
222.7674, 14990.66
223.2496, 15036.75
223.7317, 15139.71
224.2138, 15229.27
224.6959, 15299.22
225.1780, 15357.41
225.6601, 15431.64
226.1423, 15534.93
226.6244, 15633.07
227.1065, 15707.38
227.5886, 15749.46
228.0707, 15787.63
228.5528, 15822.17
229.0350, 15853.19
229.5171, 15880.91
229.9992, 15902.57
230.4813, 15924.83
230.9634, 15951.77
231.4455, 15987.85
231.9276, 16018.76
232.4098, 16039.74
232.8919, 16054.93
233.3740, 16082.96
233.8561, 16136.88
234.3382, 16186.44
234.8203, 16212.89
235.3025, 16200.86
235.7846, 16197.75
236.2667, 16209.90
236.7488, 16234.42
237.2309, 16254.09
237.7130, 16261.63
238.1952, 16273.70
238.6773, 16299.67
239.1594, 16338.70
239.6415, 16395.17
240.1236, 16482.25
240.6057, 16591.36
241.0879, 16666.21
241.5700, 16679.65
242.0521, 16691.48
242.5342, 16724.90
243.0163, 16660.34
243.4984, 16871.32
243.9806, 17052.73
244.4627, 17206.08
244.9448, 17247.49
245.4269, 17433.45
245.9090, 17561.48
246.3911, 17687.14
246.8732, 17833.63
247.3554, 17956.20
247.8375, 18057.91
248.3196, 18142.39
248.8017, 18243.58
249.2838, 18366.89
249.7659, 18498.65
250.2481, 18631.22
250.7302, 18766.32
251.2123, 18900.51
251.6944, 19036.91
252.1765, 19173.71
252.6586, 19299.29
253.1408, 19406.04
253.6229, 19513.83
254.1050, 19640.47
254.5871, 19795.04
255.0692, 19946.45
255.5513, 20092.40
256.0334, 20232.07
256.5156, 20367.22
256.9977, 20497.93
257.4798, 20624.56
257.9619, 20744.88
258.4440, 20852.49
258.9261, 20971.47
259.4083, 21109.10
259.8904, 21262.61
260.3725, 21405.75
260.8546, 21535.34
261.3367, 21660.28
261.8188, 21787.72
262.3010, 21921.30
262.7831, 22048.94
263.2652, 22172.37
263.7473, 22288.79
264.2294, 22389.16
264.7115, 22472.51
265.1937, 22539.47
265.6758, 22587.52
266.1579, 22611.97
266.6400, 22631.56
267.1221, 22643.52
267.6042, 22652.50
268.0864, 22687.55
268.5685, 22761.93
269.0506, 22836.55
269.5327, 22885.86
270.0148, 22910.55
270.4969, 22906.10
270.9791, 22861.46
271.4612, 22789.09
271.9433, 22752.00
272.4254, 22765.04
272.9075, 22774.77
273.3896, 22733.65
273.8718, 22631.27
274.3539, 22548.08
274.8360, 22495.81
275.3181, 22468.57
275.8002, 22443.55
276.2823, 22419.11
276.7645, 22401.45
277.2466, 22400.81
277.7287, 22420.45
278.2108, 22420.07
278.6929, 22388.63
279.1750, 22337.48
279.6572, 22295.55
280.1393, 22260.44
280.6214, 22245.21
281.1035, 22265.75
281.5856, 22322.46
282.0677, 22380.86
282.5499, 22448.67
283.0320, 22503.54
283.5141, 22473.54
283.9962, 22349.72
284.4783, 22224.42
284.9604, 22166.80
285.4425, 22172.38
285.9247, 22162.71
286.4068, 22128.23
286.8889, 22077.64
287.3710, 22020.54
287.8531, 21956.74
288.3352, 21906.83
288.8174, 21902.65
289.2995, 21932.07
289.7816, 21912.94
290.2637, 21827.11
290.7458, 21713.15
291.2279, 21641.77
291.7101, 21609.27
292.1922, 21562.43
292.6743, 21450.81
293.1564, 21296.88
293.6385, 21184.61
294.1206, 21129.99
294.6028, 21095.08
295.0849, 21034.43
295.5670, 20949.48
296.0491, 20846.33
296.5312, 20718.95
297.0133, 20578.01
297.4955, 20446.58
297.9776, 20328.95
298.4597, 20222.38
298.9418, 20130.44
299.4239, 20050.13
299.9060, 19971.77
300.3882, 19891.08
300.8703, 19808.84
301.3524, 19728.69
301.8345, 19650.74
302.3166, 19570.08
302.7987, 19484.77
303.2809, 19392.30
303.7630, 19285.15
304.2451, 19138.08
304.7272, 18984.12
305.2093, 18873.62
305.6914, 18809.23
306.1736, 18743.17
306.6557, 18622.77
307.1378, 18474.53
307.6199, 18344.04
308.1020, 18270.50
308.5841, 18208.79
309.0663, 18119.53
309.5484, 18001.54
310.0305, 17877.71
310.5126, 17754.70
310.9947, 17635.65
311.4768, 17526.20
311.9590, 17420.95
312.4411, 17331.56
312.9232, 17275.28
313.4053, 17249.02
313.8874, 17218.94
314.3695, 17164.68
314.8517, 17099.13
315.3337, 17034.52
315.8159, 16984.90
316.2980, 16927.07
316.7801, 16837.65
317.2622, 16725.10
317.7443, 16634.36
318.2264, 16605.48
318.7086, 16593.06
319.1907, 16565.58
319.6728, 16508.99
320.1549, 16446.00
320.6370, 16317.93
321.1191, 16172.21
321.6013, 16094.60
322.0834, 16178.88
322.5655, 16218.75
323.0476, 16216.59
323.5297, 16046.51
324.0118, 16093.26
324.4940, 16053.11
324.9761, 16118.28
325.4582, 16156.62
325.9403, 16168.37
326.4224, 16167.20
326.9045, 16155.84
327.3867, 16122.51
327.8688, 16102.40
328.3509, 16106.19
328.8330, 16121.52
329.3151, 16127.75
329.7972, 16110.42
330.2794, 16100.08
330.7615, 16105.31
331.2436, 16128.70
331.7257, 16159.82
332.2078, 16207.20
332.6899, 16257.50
333.1721, 16294.00
333.6542, 16314.72
334.1363, 16324.27
334.6184, 16318.04
335.1005, 16294.31
335.5826, 16294.31
336.0648, 16331.52
336.5469, 16375.44
337.0290, 16392.55
337.5111, 16370.81
337.9932, 16359.21
338.4753, 16370.76
338.9575, 16401.14
339.4396, 16417.89
339.9217, 16413.72
340.4038, 16414.15
340.8859, 16453.68
341.3680, 16539.64
341.8502, 16578.37
342.3323, 16538.10
342.8144, 16452.48
343.2965, 16426.48
343.7786, 16466.10
344.2607, 16515.95
344.7429, 16539.14
345.2250, 16538.38
345.7071, 16537.58
346.1892, 16539.52
346.6713, 16543.45
347.1534, 16546.03
347.6355, 16547.71
348.1176, 16555.01
348.5998, 16572.42
349.0819, 16597.78
349.5640, 16628.05
350.0461, 16664.69
350.5282, 16697.37
351.0103, 16704.23
351.4925, 16694.74
351.9746, 16700.26
352.4567, 16749.82
352.9388, 16817.33
353.4209, 16868.88
353.9030, 16903.41
354.3852, 16924.05
354.8673, 16913.48
355.3494, 16894.01
355.8315, 16902.75
356.3136, 16991.95
356.7957, 17089.37
357.2779, 17131.84
357.7600, 17123.60
358.2421, 17108.16
358.7242, 17108.09
359.2063, 17114.90
359.6884, 17119.43
360.1706, 17108.11
360.6527, 17106.93
361.1348, 17137.61
361.6169, 17191.31
362.0990, 17233.72
362.5811, 17245.76
363.0633, 17246.63
363.5454, 17249.47
364.0275, 17268.00
364.5096, 17266.89
364.9917, 17223.33
365.4738, 17154.94
365.9560, 17098.07
366.4381, 17066.84
366.9202, 17042.81
367.4023, 17021.60
367.8844, 17007.56
368.3665, 16984.29
368.8487, 16948.94
369.3308, 16904.92
369.8129, 16856.39
370.2950, 16800.40
370.7771, 16744.47
371.2592, 16694.88
371.7414, 16653.82
372.2235, 16585.94
372.7056, 16471.20
373.1877, 16349.18
373.6698, 16258.17
374.1519, 16212.05
374.6341, 16160.33
375.1162, 16095.95
375.5983, 16019.83
376.0804, 15938.79
376.5625, 15853.93
377.0446, 15762.57
377.5267, 15661.81
378.0089, 15549.61
378.4910, 15442.81
378.9731, 15345.25
379.4552, 15251.43
379.9373, 15146.43
380.4194, 15028.46
380.9016, 14927.03
381.3837, 14867.57
381.8658, 14841.28
382.3479, 14795.54
382.8300, 14726.25
383.3121, 14651.38
383.7943, 14594.82
384.2764, 14553.20
384.7585, 14511.39
385.2406, 14462.02
385.7227, 14408.46
386.2048, 14359.99
386.6870, 14315.99
387.1691, 14267.93
387.6512, 14190.01
388.1333, 14107.20
388.6154, 14001.19
389.0975, 14034.34
389.5797, 14037.88
390.0618, 14013.40
390.5439, 13876.98
391.0260, 13885.11
391.5081, 13835.31
391.9902, 13783.14
392.4724, 13811.61
392.9545, 13691.47
393.4366, 13718.67
393.9187, 13687.05
394.4008, 13682.36
394.8829, 13619.37
395.3651, 13574.38
395.8472, 13587.71
396.3293, 13448.89
396.8114, 13454.80
397.2935, 13460.46
397.7756, 13448.91
398.2578, 13429.62
398.7399, 13412.06
399.2220, 13401.62
399.7041, 13387.09
400.1862, 13371.94
400.6683, 13355.08
401.1505, 13311.93
401.6326, 13207.61
402.1147, 13113.64
402.5968, 13080.13
403.0789, 13145.54
403.5610, 13178.87
404.0432, 13162.02
404.5253, 13112.70
405.0074, 13078.71
405.4895, 13064.17
405.9716, 13052.80
406.4537, 13035.01
406.9359, 13009.74
407.4180, 12999.01
407.9001, 13008.13
408.3822, 13018.62
408.8643, 12998.91
409.3464, 12950.20
409.8285, 12913.03
410.3106, 12910.83
410.7928, 12927.47
411.2749, 12914.47
411.7570, 12871.27
412.2391, 12827.88
412.7212, 12813.60
413.2033, 12818.25
413.6855, 12816.39
414.1676, 12798.71
414.6497, 12778.14
415.1318, 12772.07
415.6139, 12776.37
416.0960, 12777.09
416.5782, 12761.30
417.0603, 12740.44
417.5424, 12726.63
418.0245, 12722.95
418.5066, 12718.22
418.9887, 12705.31
419.4709, 12687.55
419.9530, 12669.46
420.4351, 12649.24
420.9172, 12632.57
421.3993, 12623.54
421.8814, 12622.42
422.3636, 12621.57
422.8457, 12612.67
423.3278, 12607.85
423.8099, 12615.53
424.2920, 12654.95
424.7741, 12685.35
425.2563, 12696.90
425.7384, 12696.92
426.2205, 12710.36
426.7026, 12761.70
427.1847, 12795.24
427.6668, 12781.79
428.1490, 12699.95
428.6311, 12650.67
429.1132, 12641.27
429.5953, 12655.61
430.0774, 12673.72
430.5595, 12696.98
431.0417, 12716.25
431.5238, 12725.56
432.0059, 12728.25
432.4880, 12745.97
432.9701, 12780.73
433.4522, 12818.00
433.9344, 12849.13
434.4165, 12873.32
434.8986, 12885.93
435.3807, 12882.40
435.8628, 12874.99
436.3449, 12889.31
436.8271, 12919.73
437.3092, 12938.20
437.7913, 12917.20
438.2734, 12879.28
438.7555, 12852.42
439.2376, 12838.29
439.7197, 12837.39
440.2018, 12876.09
440.6840, 12922.00
441.1661, 12928.72
441.6482, 12823.96
442.1303, 12723.78
442.6124, 12702.64
443.0945, 12747.41
443.5767, 12776.94
444.0588, 12752.91
444.5409, 12710.43
445.0230, 12669.21
445.5051, 12623.12
445.9872, 12594.79
446.4694, 12600.20
446.9515, 12623.86
447.4336, 12637.13
447.9157, 12637.97
448.3978, 12630.22
448.8799, 12611.66
449.3621, 12580.25
449.8442, 12558.98
450.3263, 12552.73
450.8084, 12550.22
451.2905, 12538.53
451.7726, 12511.42
452.2548, 12501.31
452.7369, 12517.41
453.2190, 12550.16
453.7011, 12575.12
454.1832, 12592.16
454.6653, 12600.21
455.1475, 12596.83
455.6296, 12583.39
456.1117, 12563.38
456.5938, 12534.82
457.0759, 12512.34
457.5580, 12513.24
458.0402, 12534.75
458.5223, 12569.43
459.0044, 12634.53
459.4865, 12696.23
459.9686, 12706.10
460.4507, 12671.09
460.9329, 12637.10
461.4150, 12640.84
461.8971, 12656.47
462.3792, 12656.48
462.8613, 12622.24
463.3434, 12603.02
463.8256, 12637.43
464.3077, 12699.63
464.7898, 12746.36
465.2719, 12747.51
465.7540, 12747.15
466.2361, 12762.23
466.7183, 12795.46
467.2004, 12823.31
467.6825, 12839.59
468.1646, 12852.87
468.6467, 12868.33
469.1288, 12881.22
469.6110, 12905.00
470.0930, 12945.92
470.5752, 12996.24
471.0573, 13035.34
471.5394, 13061.00
472.0215, 13080.07
472.5036, 13094.77
472.9857, 13104.98
473.4679, 13107.91
473.9500, 13099.40
474.4321, 13099.01
474.9142, 13144.36
475.3963, 13225.88
475.8784, 13275.31
476.3606, 13261.78
476.8427, 13222.30
477.3248, 13219.60
477.8069, 13248.75
478.2890, 13281.58
478.7711, 13301.44
479.2533, 13314.86
479.7354, 13328.19
480.2175, 13341.50
480.6996, 13359.20
481.1817, 13390.49
481.6638, 13425.85
482.1460, 13452.26
482.6281, 13457.14
483.1102, 13458.60
483.5923, 13462.39
484.0744, 13467.88
484.5565, 13472.02
485.0387, 13473.40
485.5208, 13472.79
486.0029, 13471.55
486.4850, 13479.16
486.9671, 13466.72
487.4492, 13419.99
487.9314, 13361.29
488.4135, 13327.38
488.8956, 13330.67
489.3777, 13330.48
489.8598, 13312.74
490.3419, 13281.79
490.8241, 13275.78
491.3062, 13302.31
491.7883, 13323.56
492.2704, 13302.42
492.7525, 13245.14
493.2346, 13200.67
493.7168, 13175.97
494.1989, 13164.68
494.6810, 13165.01
495.1631, 13173.15
495.6452, 13175.64
496.1273, 13155.14
496.6095, 13131.01
497.0916, 13132.38
497.5737, 13157.21
498.0558, 13175.47
498.5379, 13162.24
499.0201, 13136.70
499.5022, 13116.34
499.9843, 13104.82
500.4664, 13099.44
500.9485, 13107.97
501.4306, 13121.42
501.9127, 13122.25
502.3948, 13079.46
502.8770, 13051.35
503.3591, 13060.68
503.8412, 13110.17
504.3233, 13151.83
504.8054, 13192.09
505.2875, 13216.25
505.7697, 13207.15
506.2518, 13146.23
506.7339, 13115.92
507.2160, 13130.63
507.6981, 13170.41
508.1802, 13198.19
508.6624, 13213.96
509.1445, 13218.07
509.6266, 13206.50
510.1087, 13183.84
510.5908, 13162.92
511.0729, 13143.76
511.5551, 13132.00
512.0372, 13143.08
512.5193, 13163.42
513.0014, 13162.90
513.4835, 13122.60
513.9656, 13089.40
514.4478, 13108.48
514.9299, 13162.39
515.4120, 13214.83
515.8941, 13258.88
516.3762, 13289.99
516.8583, 13300.08
517.3405, 13288.30
517.8226, 13280.61
518.3047, 13286.64
518.7868, 13295.97
519.2689, 13301.21
519.7510, 13289.68
520.2332, 13292.87
520.7153, 13318.08
521.1974, 13355.01
521.6795, 13384.73
522.1616, 13408.49
522.6437, 13421.45
523.1259, 13418.00
523.6080, 13400.92
524.0901, 13395.37
524.5722, 13402.83
525.0543, 13414.28
525.5364, 13423.86
526.0186, 13431.53
526.5007, 13435.59
526.9828, 13433.73
527.4649, 13434.37
527.9470, 13457.06
528.4291, 13490.77
528.9113, 13508.78
529.3934, 13473.48
529.8755, 13436.34
530.3576, 13442.45
530.8397, 13487.95
531.3218, 13534.54
531.8040, 13577.77
532.2861, 13607.24
532.7682, 13612.33
533.2503, 13576.97
533.7324, 13549.70
534.2145, 13540.04
534.6967, 13541.46
535.1788, 13544.63
535.6609, 13547.82
536.1430, 13556.12
536.6251, 13570.66
537.1072, 13591.36
537.5894, 13617.37
538.0715, 13650.71
538.5536, 13682.94
539.0357, 13709.46
539.5178, 13730.11
539.9999, 13743.43
540.4821, 13747.86
540.9642, 13749.63
541.4463, 13751.73
541.9284, 13756.40
542.4105, 13771.20
542.8926, 13798.57
543.3748, 13836.55
543.8569, 13895.76
544.3390, 13966.34
544.8211, 14015.57
545.3032, 13992.09
545.7853, 13966.70
546.2675, 13999.06
546.7495, 14106.35
547.2316, 14187.05
547.7137, 14200.99
548.1959, 14182.53
548.6780, 14161.25
549.1601, 14129.93
549.6422, 14108.73
550.1243, 14093.50
550.6064, 14090.41
551.0886, 14120.29
551.5707, 14199.75
552.0528, 14269.67
552.5349, 14307.53
553.0170, 14315.77
553.4991, 14315.51
553.9813, 14306.15
554.4634, 14291.91
554.9455, 14269.55
555.4276, 14244.24
555.9097, 14237.20
556.3918, 14255.26
556.8740, 14280.28
557.3561, 14292.08
557.8382, 14296.41
558.3203, 14305.17
558.8024, 14335.55
559.2845, 14362.01
559.7667, 14362.35
560.2488, 14341.24
560.7309, 14329.90
561.2130, 14345.58
561.6951, 14368.26
562.1772, 14387.46
562.6594, 14400.08
563.1415, 14414.09
563.6236, 14427.63
564.1057, 14443.33
564.5878, 14465.65
565.0699, 14498.52
565.5521, 14524.45
566.0342, 14539.28
566.5163, 14546.13
566.9984, 14552.67
567.4805, 14558.69
567.9626, 14567.77
568.4448, 14590.18
568.9269, 14616.46
569.4090, 14611.96
569.8911, 14576.19
570.3732, 14549.04
570.8553, 14574.10
571.3375, 14625.15
571.8196, 14665.24
572.3017, 14684.46
572.7838, 14697.70
573.2659, 14714.49
573.7480, 14730.45
574.2302, 14738.87
574.7123, 14707.00
575.1944, 14699.11
575.6765, 14756.07
576.1586, 14868.37
576.6407, 14926.21
577.1229, 14892.20
577.6050, 14855.01
578.0871, 14858.49
578.5692, 14910.54
579.0513, 14959.01
579.5334, 15002.04
580.0156, 15046.72
580.4977, 15106.78
580.9798, 15179.50
581.4619, 15235.84
581.9440, 15262.40
582.4261, 15281.82
582.9083, 15324.96
583.3904, 15388.54
583.8725, 15463.07
584.3546, 15547.30
584.8367, 15636.85
585.3188, 15735.66
585.8010, 15841.85
586.2831, 15932.51
586.7652, 15972.54
587.2473, 16010.71
587.7294, 16081.61
588.2115, 16208.47
588.6937, 16330.39
589.1758, 16441.13
589.6579, 16547.69
590.1400, 16659.25
590.6221, 16779.53
591.1042, 16896.15
591.5864, 17006.89
592.0685, 17111.48
592.5506, 17213.02
593.0327, 17312.80
593.5148, 17387.05
593.9969, 17413.10
594.4791, 17405.02
594.9612, 17402.87
595.4433, 17407.08
595.9254, 17399.59
596.4075, 17355.24
596.8896, 17295.14
597.3718, 17246.56
597.8539, 17218.59
598.3360, 17192.96
598.8181, 17154.85
599.3002, 17115.31
599.7823, 17090.37
600.2645, 17128.34
600.7466, 17128.74
601.2287, 17052.75
601.7108, 16919.49
602.1929, 16818.96
602.6750, 16763.17
603.1572, 16718.49
603.6393, 16674.97
604.1214, 16632.79
604.6035, 16570.65
605.0856, 16485.40
605.5677, 16394.57
606.0499, 16313.69
606.5320, 16239.96
607.0141, 16160.20
607.4962, 16068.56
607.9783, 15983.53
608.4604, 15928.10
608.9425, 15892.79
609.4246, 15861.50
609.9067, 15836.47
610.3889, 15804.83
610.8710, 15757.46
611.3531, 15697.12
611.8352, 15637.16
612.3173, 15574.70
612.7994, 15517.97
613.2816, 15465.18
613.7637, 15413.40
614.2458, 15397.68
614.7279, 15438.52
615.2100, 15481.00
615.6921, 15471.77
616.1743, 15407.78
616.6564, 15368.50
617.1385, 15364.46
617.6206, 15379.78
618.1027, 15408.27
618.5848, 15440.26
619.0670, 15440.22
619.5491, 15365.08
620.0312, 15285.42
620.5133, 15276.06
620.9954, 15320.92
621.4775, 15365.29
621.9597, 15390.46
622.4418, 15402.50
622.9239, 15400.98
623.4060, 15384.50
623.8881, 15371.45
624.3702, 15363.92
624.8524, 15360.11
625.3345, 15360.29
625.8166, 15368.85
626.2987, 15366.53
626.7808, 15347.02
627.2629, 15327.27
627.7451, 15334.23
628.2272, 15366.78
628.7093, 15394.53
629.1914, 15410.26
629.6735, 15417.72
630.1556, 15428.51
630.6378, 15437.55
631.1199, 15426.69
631.6020, 15353.62
632.0841, 15282.11
632.5662, 15271.47
633.0483, 15317.92
633.5305, 15357.42
634.0126, 15351.22
634.4947, 15342.34
634.9768, 15358.81
635.4589, 15419.55
635.9410, 15452.27
636.4232, 15444.12
636.9053, 15421.71
637.3874, 15410.01
637.8695, 15410.89
638.3516, 15410.22
638.8337, 15405.13
639.3159, 15399.35
639.7980, 15402.05
640.2801, 15411.14
640.7622, 15413.90
641.2443, 15395.90
641.7264, 15377.76
642.2086, 15391.99
642.6907, 15430.50
643.1728, 15459.87
643.6549, 15461.55
644.1370, 15451.26
644.6191, 15432.88
645.1013, 15405.00
645.5834, 15392.25
646.0655, 15394.76
646.5476, 15416.65
647.0297, 15466.79
647.5118, 15572.57
647.9940, 15626.09
648.4761, 15609.63
648.9582, 15568.66
649.4403, 15564.28
649.9224, 15594.38
650.4045, 15617.22
650.8867, 15618.33
651.3688, 15616.75
651.8509, 15653.79
652.3330, 15714.19
652.8151, 15751.25
