##NAMES=Mellite
##RRUFFID=R070574
##IDEAL CHEMISTRY=Al_2_C_6_(COO)_6_&#183;16H_2_O
##LOCALITY=Tuscany, Italy
##OWNER=RRUFF
##SOURCE=James Shigley
##DESCRIPTION=Pale yellow prismatic crystal fragment
##STATUS=The identification of this mineral has been confirmed by X-ray diffraction and chemical analysis
##URL=rruff.info/R070574
##MEASURED CHEMISTRY=(Al_1.95_Fe^3+^_0.05_)_Σ=2_C_6_(COO)_6_·16H_2_O; CO_2_ and H_2_O from stoichiometry
143.2668, 6042.025
143.7490, 6236.792
144.2311, 6412.038
144.7132, 6613.584
145.1953, 6869.684
145.6774, 7184.763
146.1595, 7541.240
146.6417, 7918.929
147.1238, 8323.065
147.6059, 8731.948
148.0880, 9147.513
148.5701, 9564.478
149.0523, 9988.951
149.5344, 10420.38
150.0165, 10833.60
150.4986, 11187.40
150.9807, 11485.50
151.4628, 11704.12
151.9450, 11811.13
152.4271, 11869.07
152.9092, 11877.81
153.3913, 11838.58
153.8734, 11766.80
154.3555, 11653.24
154.8377, 11444.05
155.3198, 11279.18
155.8019, 11178.47
156.2840, 11114.11
156.7661, 11056.20
157.2482, 10992.65
157.7304, 10936.93
158.2125, 10924.45
158.6946, 10982.75
159.1767, 11054.17
159.6588, 11134.49
160.1409, 11225.25
160.6231, 11332.91
161.1052, 11460.76
161.5873, 11600.71
162.0694, 11727.25
162.5515, 11854.05
163.0336, 11948.94
163.5158, 12012.53
163.9979, 12041.49
164.4800, 12029.38
164.9621, 11971.38
165.4442, 11874.11
165.9263, 11766.00
166.4085, 11637.57
166.8906, 11507.45
167.3727, 11365.39
167.8548, 11224.68
168.3369, 11105.71
168.8190, 11019.54
169.3012, 10963.98
169.7833, 10931.33
170.2654, 10910.03
170.7475, 10921.10
171.2296, 10965.01
171.7117, 11044.79
172.1939, 11169.50
172.6760, 11347.60
173.1581, 11572.95
173.6402, 11793.73
174.1223, 11986.63
174.6044, 12202.05
175.0866, 12452.64
175.5687, 12735.69
176.0508, 13048.36
176.5329, 13397.56
177.0150, 13773.21
177.4971, 14088.28
177.9793, 14408.59
178.4614, 14615.67
178.9435, 14658.26
179.4256, 14557.69
179.9077, 14363.98
180.3898, 14107.01
180.8720, 13785.93
181.3541, 13366.49
181.8362, 12808.23
182.3183, 12221.03
182.8004, 11610.54
183.2825, 10997.13
183.7647, 10419.09
184.2468, 9899.944
184.7289, 9440.338
185.2110, 9023.194
185.6931, 8630.340
186.1752, 8283.410
186.6574, 7996.119
187.1395, 7760.323
187.6216, 7556.655
188.1037, 7371.265
188.5858, 7205.387
189.0679, 7077.310
189.5501, 6998.798
190.0322, 6937.363
190.5143, 6878.020
190.9964, 6824.752
191.4785, 6791.191
191.9606, 6788.959
192.4428, 6815.875
192.9249, 6835.298
193.4070, 6830.473
193.8891, 6836.069
194.3712, 6881.352
194.8533, 6950.758
195.3355, 7000.328
195.8176, 6998.277
196.2997, 6949.031
196.7818, 6915.759
197.2639, 6915.579
197.7460, 6910.293
198.2282, 6879.210
198.7103, 6830.377
199.1924, 6786.294
199.6745, 6762.293
200.1566, 6756.161
200.6387, 6740.293
201.1209, 6714.390
201.6030, 6681.877
202.0851, 6632.889
202.5672, 6577.319
203.0493, 6541.743
203.5314, 6546.766
204.0136, 6584.899
204.4957, 6586.365
204.9778, 6527.950
205.4599, 6466.188
205.9420, 6424.670
206.4241, 6393.647
206.9063, 6352.493
207.3884, 6289.815
207.8705, 6206.050
208.3526, 6098.410
208.8347, 5946.485
209.3168, 5797.705
209.7990, 5664.676
210.2811, 5543.636
210.7632, 5423.855
211.2453, 5298.690
211.7274, 5171.343
212.2095, 5056.951
212.6917, 4964.774
213.1738, 4873.281
213.6559, 4776.431
214.1380, 4677.848
214.6201, 4581.138
215.1022, 4487.899
215.5844, 4400.506
216.0665, 4331.698
216.5486, 4297.809
217.0307, 4262.414
217.5128, 4216.475
217.9949, 4166.423
218.4771, 4120.230
218.9592, 4081.254
219.4413, 4051.030
219.9234, 4034.928
220.4055, 4052.993
220.8876, 4062.305
221.3698, 4047.180
221.8519, 4025.551
222.3340, 4022.118
222.8161, 4047.611
223.2982, 4088.828
223.7803, 4112.023
224.2625, 4091.937
224.7446, 4084.583
225.2267, 4094.943
225.7088, 4117.229
226.1909, 4147.137
226.6730, 4182.775
227.1552, 4222.602
227.6373, 4263.431
228.1194, 4305.685
228.6015, 4348.801
229.0836, 4390.226
229.5658, 4433.962
230.0479, 4484.909
230.5300, 4544.091
231.0121, 4606.792
231.4942, 4664.270
231.9763, 4709.602
232.4585, 4763.618
232.9406, 4831.874
233.4227, 4903.919
233.9048, 4970.062
234.3869, 5029.646
234.8690, 5091.747
235.3512, 5169.275
235.8333, 5267.663
236.3154, 5369.407
236.7975, 5477.439
237.2796, 5586.842
237.7617, 5694.475
238.2439, 5800.311
238.7260, 5907.984
239.2081, 6023.901
239.6902, 6152.303
240.1723, 6272.255
240.6544, 6373.494
241.1366, 6474.688
241.6187, 6594.673
242.1008, 6727.052
242.5829, 6844.218
243.0650, 6926.477
243.5471, 6975.199
244.0293, 6971.631
244.5114, 6880.263
244.9935, 6765.133
245.4756, 6642.030
245.9577, 6514.358
246.4398, 6385.709
246.9220, 6258.822
247.4041, 6133.315
247.8862, 6003.944
248.3683, 5870.889
248.8504, 5733.207
249.3325, 5584.697
249.8147, 5431.877
250.2968, 5285.594
250.7789, 5149.749
251.2610, 5025.914
251.7431, 4918.602
252.2252, 4826.946
252.7074, 4754.501
253.1895, 4705.646
253.6716, 4673.385
254.1537, 4648.625
254.6358, 4631.482
255.1179, 4616.039
255.6001, 4586.936
256.0822, 4536.457
256.5643, 4497.060
257.0464, 4490.937
257.5285, 4502.071
258.0107, 4515.026
258.4928, 4529.169
258.9749, 4538.059
259.4570, 4532.771
259.9391, 4512.448
260.4212, 4487.453
260.9034, 4459.761
261.3855, 4430.308
261.8676, 4398.983
262.3497, 4362.843
262.8318, 4332.086
263.3139, 4318.481
263.7961, 4319.645
264.2782, 4316.739
264.7603, 4300.558
265.2424, 4280.249
265.7245, 4271.066
266.2066, 4276.534
266.6888, 4278.950
267.1709, 4263.334
267.6530, 4238.100
268.1351, 4227.674
268.6172, 4243.609
269.0993, 4264.887
269.5815, 4253.932
270.0636, 4206.559
270.5457, 4174.852
271.0278, 4194.740
271.5099, 4229.681
271.9920, 4223.390
272.4742, 4162.551
272.9563, 4091.893
273.4384, 4063.250
273.9205, 4085.601
274.4026, 4098.513
274.8847, 4097.563
275.3669, 4087.086
275.8490, 4067.658
276.3311, 4040.519
276.8132, 4011.725
277.2953, 3985.064
277.7774, 3960.478
278.2596, 3945.110
278.7417, 3948.088
279.2238, 3950.462
279.7059, 3938.351
280.1880, 3916.685
280.6701, 3903.813
281.1523, 3914.787
281.6344, 3945.327
282.1165, 3947.099
282.5986, 3879.365
283.0807, 3829.978
283.5628, 3839.368
284.0450, 3875.703
284.5271, 3885.914
285.0092, 3842.042
285.4913, 3764.603
285.9734, 3720.266
286.4555, 3739.623
286.9377, 3750.962
287.4198, 3745.076
287.9019, 3730.379
288.3840, 3715.540
288.8661, 3703.255
289.3482, 3689.238
289.8304, 3665.173
290.3125, 3626.203
290.7946, 3589.957
291.2767, 3550.442
291.7588, 3519.192
292.2409, 3509.149
292.7231, 3519.241
293.2052, 3530.774
293.6873, 3522.650
294.1694, 3492.902
294.6515, 3467.719
295.1336, 3443.134
295.6158, 3429.449
296.0979, 3436.990
296.5800, 3461.032
297.0621, 3484.500
297.5442, 3493.674
298.0263, 3492.672
298.5085, 3499.167
298.9906, 3516.416
299.4727, 3534.959
299.9548, 3547.586
300.4369, 3557.627
300.9190, 3571.195
301.4012, 3587.000
301.8833, 3609.889
302.3654, 3651.493
302.8475, 3713.820
303.3296, 3771.621
303.8117, 3807.404
304.2939, 3831.254
304.7760, 3863.079
305.2581, 3904.564
305.7402, 3953.688
306.2223, 4016.606
306.7044, 4087.818
307.1866, 4145.816
307.6687, 4179.510
308.1508, 4198.625
308.6329, 4219.734
309.1150, 4236.599
309.5971, 4269.516
310.0793, 4339.573
310.5614, 4423.619
311.0435, 4489.244
311.5256, 4528.212
312.0077, 4553.317
312.4898, 4579.538
312.9720, 4605.845
313.4541, 4637.721
313.9362, 4673.669
314.4183, 4716.242
314.9004, 4768.970
315.3825, 4830.864
315.8647, 4896.977
316.3468, 4963.769
316.8289, 5031.567
317.3110, 5094.519
317.7931, 5145.724
318.2752, 5200.063
318.7574, 5258.563
319.2395, 5323.670
319.7216, 5399.684
320.2037, 5488.859
320.6858, 5589.383
321.1679, 5693.402
321.6501, 5802.634
322.1322, 5912.410
322.6143, 6023.507
323.0964, 6133.607
323.5785, 6244.148
324.0606, 6355.213
324.5428, 6458.223
325.0249, 6544.129
325.5070, 6615.392
325.9891, 6657.891
326.4712, 6668.197
326.9533, 6646.667
327.4355, 6587.706
327.9176, 6492.637
328.3997, 6378.848
328.8818, 6251.348
329.3639, 6114.134
329.8460, 5980.227
330.3282, 5845.067
330.8103, 5725.164
331.2924, 5636.840
331.7745, 5573.796
332.2566, 5519.186
332.7387, 5463.121
333.2209, 5415.695
333.7030, 5393.252
334.1851, 5395.890
334.6672, 5405.442
335.1493, 5416.076
335.6314, 5424.047
336.1136, 5418.661
336.5957, 5403.994
337.0778, 5372.156
337.5599, 5312.860
338.0420, 5234.234
338.5241, 5153.683
339.0063, 5077.817
339.4884, 5001.959
339.9705, 4916.944
340.4526, 4817.862
340.9347, 4717.205
341.4168, 4602.588
341.8990, 4494.004
342.3811, 4410.726
342.8632, 4354.292
343.3453, 4310.180
343.8274, 4262.311
344.3095, 4208.846
344.7917, 4162.280
345.2738, 4117.752
345.7559, 4084.531
346.2380, 4071.264
346.7201, 4072.035
347.2022, 4074.229
347.6844, 4069.457
348.1665, 4060.144
348.6486, 4055.448
349.1307, 4052.139
349.6128, 4060.204
350.0949, 4093.749
350.5771, 4133.206
351.0592, 4154.226
351.5413, 4146.787
352.0234, 4138.113
352.5055, 4165.667
352.9876, 4230.297
353.4698, 4287.870
353.9519, 4333.488
354.4340, 4362.126
354.9161, 4363.079
355.3982, 4336.639
355.8803, 4321.496
356.3625, 4346.509
356.8446, 4392.063
357.3267, 4423.592
357.8088, 4436.214
358.2909, 4440.659
358.7730, 4445.138
359.2552, 4448.956
359.7373, 4447.056
360.2194, 4430.028
360.7015, 4415.499
361.1836, 4417.501
361.6657, 4431.343
362.1479, 4444.351
362.6300, 4451.508
363.1121, 4450.169
363.5942, 4431.460
364.0763, 4377.641
364.5584, 4328.803
365.0406, 4292.309
365.5227, 4258.962
366.0048, 4220.466
366.4869, 4174.473
366.9690, 4123.258
367.4511, 4067.276
367.9333, 4002.183
368.4154, 3949.913
368.8975, 3924.712
369.3796, 3899.366
369.8617, 3862.329
370.3438, 3815.952
370.8260, 3768.138
371.3081, 3720.315
371.7902, 3676.428
372.2723, 3651.522
372.7544, 3651.812
373.2365, 3655.583
373.7187, 3657.237
374.2008, 3656.241
374.6829, 3651.045
375.1650, 3640.244
375.6471, 3628.523
376.1292, 3621.514
376.6114, 3617.834
377.0935, 3608.355
377.5756, 3587.360
378.0577, 3565.661
378.5398, 3558.927
379.0219, 3566.897
379.5041, 3576.832
379.9862, 3590.042
380.4683, 3601.363
380.9504, 3603.203
381.4325, 3596.076
381.9146, 3590.583
382.3968, 3595.828
382.8789, 3611.097
383.3610, 3618.353
383.8431, 3608.401
384.3252, 3602.349
384.8073, 3610.573
385.2895, 3624.970
385.7716, 3633.469
386.2537, 3631.143
386.7358, 3622.478
387.2179, 3615.645
387.7000, 3609.979
388.1822, 3607.882
388.6643, 3616.628
389.1464, 3623.003
389.6285, 3617.834
390.1106, 3601.891
390.5927, 3561.655
391.0749, 3572.349
391.5570, 3572.245
392.0391, 3561.922
392.5212, 3510.771
393.0033, 3512.342
393.4854, 3492.783
393.9676, 3472.357
394.4497, 3481.346
394.9318, 3436.135
395.4139, 3444.658
395.8960, 3431.732
396.3781, 3428.622
396.8603, 3404.252
397.3424, 3386.450
397.8245, 3357.267
398.3066, 3342.419
398.7887, 3350.675
399.2708, 3344.993
399.7530, 3304.654
400.2351, 3257.411
400.7172, 3230.724
401.1993, 3225.267
401.6814, 3223.501
402.1635, 3210.762
402.6457, 3187.207
403.1278, 3165.396
403.6099, 3144.878
404.0920, 3126.727
404.5741, 3112.852
405.0562, 3100.970
405.5384, 3087.376
406.0205, 3070.609
406.5026, 3054.055
406.9847, 3044.688
407.4668, 3044.986
407.9489, 3040.537
408.4311, 3025.530
408.9132, 3008.560
409.3953, 2994.321
409.8774, 2982.857
410.3595, 2972.882
410.8416, 2963.472
411.3238, 2955.102
411.8059, 2948.820
412.2880, 2944.777
412.7701, 2942.070
413.2522, 2942.421
413.7343, 2943.095
414.2165, 2936.052
414.6986, 2914.444
415.1807, 2894.279
415.6628, 2883.230
416.1449, 2878.024
416.6270, 2871.538
417.1092, 2861.587
417.5913, 2855.647
418.0734, 2866.685
418.5555, 2907.917
419.0376, 2921.767
419.5197, 2880.323
420.0019, 2841.658
420.4840, 2840.770
420.9661, 2867.029
421.4482, 2888.608
421.9303, 2884.153
422.4124, 2862.808
422.8946, 2856.710
423.3767, 2875.498
423.8588, 2886.970
424.3409, 2875.157
424.8230, 2857.589
425.3051, 2849.207
425.7873, 2852.614
426.2694, 2856.941
426.7515, 2851.600
427.2336, 2840.427
427.7157, 2836.715
428.1978, 2843.747
428.6800, 2852.227
429.1621, 2855.434
429.6442, 2853.572
430.1263, 2848.868
430.6084, 2833.155
431.0905, 2822.633
431.5727, 2829.354
432.0548, 2848.145
432.5369, 2868.871
433.0190, 2887.681
433.5011, 2901.869
433.9832, 2905.014
434.4654, 2886.697
434.9475, 2877.057
435.4296, 2884.543
435.9117, 2892.596
436.3938, 2888.631
436.8759, 2874.945
437.3581, 2863.720
437.8402, 2865.313
438.3223, 2876.129
438.8044, 2880.301
439.2865, 2875.920
439.7686, 2869.061
440.2508, 2857.090
440.7329, 2846.051
441.2150, 2843.279
441.6971, 2851.239
442.1792, 2861.459
442.6613, 2868.416
443.1435, 2872.983
443.6256, 2878.481
444.1077, 2886.236
444.5898, 2890.547
445.0719, 2883.622
445.5540, 2864.717
446.0362, 2856.243
446.5183, 2867.390
447.0004, 2879.550
447.4825, 2885.083
447.9646, 2884.890
448.4467, 2881.436
448.9289, 2875.827
449.4110, 2868.142
449.8931, 2857.857
450.3752, 2841.215
450.8573, 2830.736
451.3394, 2831.598
451.8216, 2834.254
452.3037, 2833.772
452.7858, 2830.389
453.2679, 2826.993
453.7500, 2825.987
454.2321, 2826.031
454.7143, 2823.302
455.1964, 2817.178
455.6785, 2811.577
456.1606, 2806.677
456.6428, 2804.363
457.1249, 2808.502
457.6070, 2822.817
458.0891, 2832.458
458.5712, 2826.150
459.0533, 2813.675
459.5355, 2809.284
460.0176, 2814.917
460.4997, 2823.211
460.9818, 2828.601
461.4639, 2831.120
461.9460, 2825.570
462.4282, 2796.458
462.9103, 2777.625
463.3924, 2785.059
463.8745, 2804.015
464.3566, 2816.364
464.8387, 2815.881
465.3209, 2808.985
465.8030, 2804.411
466.2851, 2802.509
466.7672, 2797.023
467.2493, 2782.050
467.7314, 2770.580
468.2136, 2772.545
468.6957, 2784.239
469.1778, 2795.530
469.6599, 2808.483
470.1420, 2814.874
470.6241, 2797.371
471.1063, 2763.396
471.5884, 2749.246
472.0705, 2772.243
472.5526, 2810.489
473.0347, 2826.955
473.5168, 2811.860
473.9990, 2796.125
474.4811, 2776.346
474.9632, 2759.001
475.4453, 2749.140
475.9274, 2745.629
476.4095, 2744.392
476.8917, 2743.065
477.3738, 2741.565
477.8559, 2739.647
478.3380, 2737.541
478.8201, 2734.459
479.3022, 2728.598
479.7844, 2722.781
480.2665, 2719.265
480.7486, 2718.184
481.2307, 2717.375
481.7128, 2717.854
482.1949, 2716.988
482.6771, 2707.836
483.1592, 2689.719
483.6413, 2673.231
484.1234, 2663.806
484.6055, 2661.263
485.0876, 2665.214
485.5698, 2681.835
486.0519, 2695.444
486.5340, 2704.160
487.0161, 2707.917
487.4982, 2704.804
487.9803, 2695.598
488.4625, 2685.333
488.9446, 2679.021
489.4267, 2676.518
489.9088, 2673.645
490.3909, 2670.533
490.8730, 2666.769
491.3552, 2661.705
491.8373, 2656.240
492.3194, 2650.109
492.8015, 2642.394
493.2836, 2639.709
493.7657, 2654.841
494.2479, 2679.459
494.7300, 2686.045
495.2121, 2668.005
495.6942, 2646.693
496.1763, 2639.258
496.6584, 2645.637
497.1406, 2653.390
497.6227, 2664.772
498.1048, 2674.892
498.5869, 2681.214
499.0690, 2685.636
499.5511, 2692.407
500.0333, 2702.320
500.5154, 2709.528
500.9975, 2704.510
501.4796, 2684.806
501.9617, 2671.639
502.4438, 2667.211
502.9260, 2666.850
503.4081, 2672.172
503.8902, 2679.014
504.3723, 2679.916
504.8544, 2671.158
505.3365, 2658.999
505.8187, 2642.812
506.3008, 2627.045
506.7829, 2631.929
507.2650, 2665.731
507.7471, 2702.425
508.2292, 2713.251
508.7114, 2694.297
509.1935, 2682.282
509.6756, 2676.950
510.1577, 2678.294
510.6398, 2692.894
511.1219, 2712.267
511.6041, 2722.894
512.0862, 2719.703
512.5683, 2710.044
513.0504, 2703.750
513.5325, 2700.809
514.0146, 2701.977
514.4968, 2710.843
514.9789, 2719.225
515.4610, 2720.301
515.9431, 2717.499
516.4252, 2718.896
516.9073, 2729.102
517.3895, 2741.100
517.8716, 2750.322
518.3537, 2756.924
518.8358, 2759.454
519.3179, 2756.862
519.8000, 2757.428
520.2822, 2773.496
520.7643, 2810.746
521.2464, 2829.949
521.7285, 2820.889
522.2106, 2807.857
522.6927, 2793.024
523.1749, 2781.798
523.6570, 2783.370
524.1391, 2801.476
524.6212, 2823.993
525.1033, 2833.037
525.5854, 2829.026
526.0676, 2831.020
526.5497, 2842.902
527.0318, 2857.636
527.5139, 2872.516
527.9960, 2886.252
528.4781, 2893.889
528.9603, 2885.292
529.4424, 2880.467
529.9245, 2895.355
530.4066, 2919.781
530.8887, 2935.885
531.3708, 2938.843
531.8530, 2935.539
532.3351, 2933.635
532.8172, 2933.205
533.2993, 2933.188
533.7814, 2931.740
534.2635, 2932.960
534.7457, 2939.250
535.2278, 2948.222
535.7099, 2957.087
536.1920, 2965.103
536.6741, 2972.274
537.1563, 2980.743
537.6384, 2988.517
538.1205, 2988.364
538.6026, 2979.015
539.0847, 2963.407
539.5668, 2939.208
540.0490, 2909.646
540.5311, 2899.229
541.0132, 2932.521
541.4953, 2952.045
541.9774, 2933.039
542.4595, 2900.208
542.9417, 2879.595
543.4238, 2875.671
543.9059, 2876.708
544.3880, 2872.249
544.8701, 2862.830
545.3522, 2853.839
545.8344, 2848.185
546.3165, 2835.819
546.7986, 2805.900
547.2807, 2770.644
547.7628, 2742.380
548.2449, 2721.667
548.7271, 2710.491
549.2092, 2718.931
549.6913, 2732.317
550.1734, 2731.469
550.6555, 2716.360
551.1376, 2698.076
551.6198, 2682.856
552.1019, 2670.979
552.5840, 2663.342
553.0661, 2661.266
553.5482, 2661.415
554.0303, 2671.613
554.5125, 2677.071
554.9946, 2665.257
555.4767, 2638.985
555.9588, 2611.985
556.4409, 2589.122
556.9230, 2572.743
557.4052, 2569.957
557.8873, 2579.697
558.3694, 2586.697
558.8515, 2585.738
559.3336, 2580.058
559.8157, 2573.790
560.2979, 2566.762
560.7800, 2559.512
561.2621, 2546.601
561.7442, 2538.842
562.2263, 2546.604
562.7084, 2562.273
563.1906, 2572.438
563.6727, 2571.415
564.1548, 2563.654
564.6369, 2553.033
565.1190, 2539.279
565.6011, 2534.273
566.0833, 2543.963
566.5654, 2553.640
567.0475, 2550.440
567.5296, 2540.024
568.0117, 2535.392
568.4938, 2541.592
568.9760, 2548.893
569.4581, 2556.532
569.9402, 2560.924
570.4223, 2553.223
570.9044, 2533.783
571.3865, 2517.377
571.8687, 2518.859
572.3508, 2535.984
572.8329, 2544.167
573.3150, 2537.402
573.7971, 2532.428
574.2792, 2535.211
574.7614, 2539.984
575.2435, 2540.490
575.7256, 2536.397
576.2077, 2535.844
576.6898, 2550.560
577.1719, 2567.268
577.6541, 2564.735
578.1362, 2545.243
578.6183, 2528.086
579.1004, 2522.351
579.5825, 2524.094
580.0646, 2524.887
580.5468, 2519.380
581.0289, 2525.544
581.5110, 2564.423
581.9931, 2592.591
582.4752, 2579.632
582.9573, 2541.917
583.4395, 2513.924
583.9216, 2511.940
584.4037, 2519.361
584.8858, 2515.973
585.3679, 2504.337
585.8500, 2497.532
586.3322, 2498.491
586.8143, 2501.577
587.2964, 2502.414
587.7785, 2501.145
588.2606, 2499.886
588.7427, 2497.347
589.2249, 2496.471
589.7070, 2500.313
590.1891, 2504.644
590.6712, 2505.226
591.1533, 2501.579
591.6354, 2495.998
592.1176, 2489.359
592.5997, 2482.636
593.0818, 2479.782
593.5639, 2481.473
594.0460, 2482.165
594.5281, 2478.903
595.0103, 2474.718
595.4924, 2475.115
595.9745, 2480.945
596.4566, 2483.199
596.9387, 2474.201
597.4208, 2467.243
597.9030, 2474.372
598.3851, 2489.330
598.8672, 2498.202
599.3493, 2495.208
599.8314, 2488.045
600.3135, 2490.151
600.7957, 2502.447
601.2778, 2503.751
601.7599, 2486.943
602.2420, 2470.654
602.7241, 2466.266
603.2062, 2469.636
603.6884, 2473.693
604.1705, 2478.165
604.6526, 2482.426
605.1347, 2485.868
605.6168, 2489.147
606.0989, 2493.019
606.5811, 2497.498
607.0632, 2502.729
607.5453, 2509.242
608.0274, 2515.416
608.5095, 2515.297
608.9916, 2506.121
609.4738, 2500.116
609.9559, 2505.092
610.4380, 2507.777
610.9201, 2494.753
611.4022, 2470.300
611.8843, 2453.587
612.3665, 2455.170
612.8486, 2461.196
613.3307, 2462.845
613.8128, 2462.389
614.2949, 2465.422
614.7770, 2472.908
615.2592, 2478.224
615.7413, 2473.257
616.2234, 2458.723
616.7055, 2453.769
617.1876, 2465.476
617.6697, 2473.847
618.1519, 2467.737
618.6340, 2459.649
619.1161, 2464.346
619.5982, 2482.624
620.0803, 2491.932
620.5624, 2472.847
621.0446, 2447.114
621.5267, 2437.046
622.0088, 2439.859
622.4909, 2444.124
622.9730, 2445.271
623.4551, 2444.912
623.9373, 2445.024
624.4194, 2444.952
624.9015, 2449.132
625.3836, 2462.816
625.8657, 2473.792
626.3478, 2477.171
626.8300, 2475.729
627.3121, 2472.659
627.7942, 2468.160
628.2763, 2464.467
628.7584, 2463.820
629.2405, 2464.179
629.7227, 2459.412
630.2048, 2451.521
630.6869, 2454.832
631.1690, 2478.924
631.6511, 2511.741
632.1332, 2523.364
632.6154, 2504.361
633.0975, 2490.498
633.5796, 2485.984
634.0617, 2483.713
634.5438, 2481.229
635.0259, 2478.463
635.5081, 2473.912
635.9902, 2462.355
636.4723, 2460.798
636.9544, 2495.872
637.4365, 2542.191
637.9186, 2553.103
638.4008, 2526.734
638.8829, 2502.113
