##NAMES=Mellite
##RRUFFID=R070574
##IDEAL CHEMISTRY=Al_2_C_6_(COO)_6_&#183;16H_2_O
##LOCALITY=Tuscany, Italy
##OWNER=RRUFF
##SOURCE=James Shigley
##DESCRIPTION=Pale yellow prismatic crystal fragment
##STATUS=The identification of this mineral has been confirmed by X-ray diffraction and chemical analysis
##URL=rruff.info/R070574
##MEASURED CHEMISTRY=(Al_1.95_Fe^3+^_0.05_)_Σ=2_C_6_(COO)_6_·16H_2_O; CO_2_ and H_2_O from stoichiometry
139.9030, 19458.08
140.3851, 19477.88
140.8673, 19542.50
141.3494, 19653.06
141.8315, 19824.75
142.3136, 20073.92
142.7957, 20327.05
143.2778, 20547.96
143.7600, 20715.51
144.2421, 20916.85
144.7242, 21140.47
145.2063, 21399.05
145.6884, 21693.52
146.1705, 21909.39
146.6527, 22171.11
147.1348, 22427.64
147.6169, 22665.20
148.0990, 22926.38
148.5811, 23225.61
149.0633, 23565.99
149.5454, 23896.06
150.0275, 24252.87
150.5096, 24584.73
150.9917, 24833.28
151.4738, 24918.75
151.9560, 25007.44
152.4381, 25154.04
152.9202, 25455.16
153.4023, 25635.81
153.8844, 25634.58
154.3665, 25511.96
154.8487, 25427.64
155.3308, 25425.71
155.8129, 25436.23
156.2950, 25426.10
156.7771, 25384.26
157.2592, 25331.66
157.7414, 25254.40
158.2235, 25154.22
158.7056, 25094.95
159.1877, 25092.87
159.6698, 25133.02
160.1519, 25201.46
160.6341, 25303.09
161.1162, 25424.60
161.5983, 25565.67
162.0804, 25734.97
162.5625, 25892.18
163.0446, 26021.65
163.5268, 26131.33
164.0089, 26236.11
164.4910, 26394.77
164.9731, 26517.10
165.4552, 26547.94
165.9373, 26448.11
166.4195, 26292.13
166.9016, 26101.01
167.3837, 25877.32
167.8658, 25633.33
168.3479, 25371.55
168.8300, 25093.57
169.3122, 24798.44
169.7943, 24463.54
170.2764, 24133.73
170.7585, 23829.71
171.2406, 23550.31
171.7227, 23315.15
172.2049, 23140.85
172.6870, 23018.99
173.1691, 22934.57
173.6512, 22873.48
174.1333, 22849.89
174.6154, 22887.98
175.0976, 23010.75
175.5797, 23142.37
176.0618, 23195.89
176.5439, 23193.75
177.0260, 23222.16
177.5081, 23362.80
177.9903, 23564.28
178.4724, 23747.69
178.9545, 23895.14
179.4366, 24016.44
179.9187, 24130.38
180.4008, 24235.94
180.8830, 24301.87
181.3651, 24311.33
181.8472, 24260.57
182.3293, 24139.51
182.8114, 23931.56
183.2935, 23653.87
183.7757, 23329.06
184.2578, 22956.46
184.7399, 22557.01
185.2220, 22146.31
185.7041, 21726.41
186.1862, 21328.21
186.6684, 20959.31
187.1505, 20625.34
187.6326, 20340.29
188.1147, 20116.97
188.5968, 19929.31
189.0790, 19735.52
189.5611, 19534.62
190.0432, 19354.05
190.5253, 19210.16
191.0074, 19102.56
191.4895, 19031.80
191.9717, 19005.68
192.4538, 19012.44
192.9359, 19017.60
193.4180, 19019.75
193.9001, 19029.99
194.3822, 19066.73
194.8644, 19128.64
195.3465, 19185.84
195.8286, 19224.93
196.3107, 19248.93
196.7928, 19283.93
197.2749, 19332.81
197.7571, 19385.72
198.2392, 19423.13
198.7213, 19442.91
199.2034, 19467.87
199.6855, 19519.14
200.1676, 19597.08
200.6498, 19638.87
201.1319, 19627.64
201.6140, 19589.27
202.0961, 19594.12
202.5782, 19650.98
203.0603, 19709.28
203.5425, 19729.60
204.0246, 19706.20
204.5067, 19694.74
204.9888, 19710.58
205.4709, 19745.47
205.9530, 19752.65
206.4352, 19727.10
206.9173, 19685.88
207.3994, 19649.54
207.8815, 19623.97
208.3636, 19574.93
208.8457, 19492.87
209.3279, 19377.97
209.8100, 19241.03
210.2921, 19073.61
210.7742, 18896.17
211.2563, 18741.73
211.7384, 18619.11
212.2206, 18489.71
212.7027, 18334.09
213.1848, 18143.38
213.6669, 17971.20
214.1490, 17817.62
214.6311, 17682.72
215.1133, 17566.21
215.5954, 17469.59
216.0775, 17386.06
216.5596, 17312.76
217.0417, 17251.71
217.5238, 17195.70
218.0060, 17145.74
218.4881, 17099.39
218.9702, 17044.84
219.4523, 16968.34
219.9344, 16902.87
220.4165, 16878.10
220.8987, 16909.17
221.3808, 16939.30
221.8629, 16959.38
222.3450, 16969.63
222.8271, 16978.87
223.3092, 16989.88
223.7914, 16997.21
224.2735, 16992.43
224.7556, 16966.24
225.2377, 16949.10
225.7198, 16950.23
226.2020, 16972.72
226.6841, 16997.13
227.1662, 17022.62
227.6483, 17050.89
228.1304, 17083.94
228.6125, 17123.33
229.0947, 17165.18
229.5768, 17206.33
230.0589, 17238.97
230.5410, 17291.64
231.0231, 17370.68
231.5052, 17466.70
231.9874, 17559.43
232.4695, 17643.12
232.9516, 17730.06
233.4337, 17828.45
233.9158, 17952.62
234.3979, 18055.37
234.8801, 18125.88
235.3622, 18171.06
235.8443, 18232.08
236.3264, 18309.60
236.8085, 18403.20
237.2906, 18514.89
237.7728, 18654.48
238.2549, 18792.23
238.7370, 18927.39
239.2191, 19058.25
239.7012, 19170.06
240.1833, 19252.63
240.6655, 19325.92
241.1476, 19406.73
241.6297, 19493.09
242.1118, 19591.82
242.5939, 19717.03
243.0760, 19879.25
243.5582, 19980.34
244.0403, 19999.01
244.5224, 19975.21
245.0045, 19960.62
245.4866, 19966.90
245.9688, 19963.98
246.4509, 19944.73
246.9330, 19910.02
247.4151, 19854.55
247.8972, 19770.79
248.3793, 19670.61
248.8615, 19577.44
249.3436, 19501.23
249.8257, 19415.70
250.3078, 19307.54
250.7899, 19160.71
251.2720, 19029.71
251.7542, 18922.57
252.2363, 18830.15
252.7184, 18725.31
253.2005, 18593.93
253.6826, 18472.74
254.1647, 18380.95
254.6469, 18324.49
255.1290, 18284.35
255.6111, 18267.12
256.0932, 18266.26
256.5753, 18249.91
257.0574, 18204.15
257.5396, 18162.28
258.0217, 18146.83
258.5038, 18166.17
258.9859, 18193.88
259.4680, 18234.44
259.9501, 18284.59
260.4323, 18301.97
260.9144, 18267.25
261.3965, 18226.96
261.8786, 18224.63
262.3607, 18278.56
262.8428, 18327.16
263.3250, 18362.24
263.8071, 18383.94
264.2892, 18383.42
264.7713, 18352.67
265.2534, 18310.00
265.7355, 18274.10
266.2177, 18243.82
266.6998, 18220.70
267.1819, 18201.71
267.6640, 18185.63
268.1461, 18195.38
268.6282, 18245.22
269.1104, 18301.76
269.5925, 18316.83
270.0746, 18276.37
270.5567, 18234.09
271.0388, 18206.56
271.5209, 18194.70
272.0031, 18193.90
272.4852, 18212.25
272.9673, 18233.07
273.4494, 18225.99
273.9315, 18184.53
274.4136, 18139.48
274.8958, 18099.68
275.3779, 18063.84
275.8600, 18047.62
276.3421, 18055.18
276.8242, 18077.90
277.3063, 18101.08
277.7885, 18126.32
278.2706, 18144.71
278.7527, 18151.79
279.2348, 18146.89
279.7169, 18130.13
280.1990, 18095.93
280.6812, 18054.54
281.1633, 18032.03
281.6454, 18030.71
282.1275, 18032.62
282.6096, 18025.71
283.0917, 18009.43
283.5739, 17997.85
284.0560, 17995.36
284.5381, 17996.12
285.0202, 17985.91
285.5023, 17964.76
285.9844, 17935.65
286.4666, 17895.98
286.9487, 17846.96
287.4308, 17808.70
287.9129, 17787.57
288.3950, 17777.93
288.8771, 17765.36
289.3593, 17749.84
289.8414, 17735.28
290.3235, 17736.17
290.8056, 17747.71
291.2877, 17722.02
291.7699, 17628.35
292.2520, 17506.50
292.7341, 17456.72
293.2162, 17481.22
293.6983, 17528.67
294.1805, 17564.88
294.6626, 17588.74
295.1447, 17592.69
295.6268, 17565.81
296.1089, 17522.93
296.5910, 17490.13
297.0732, 17467.23
297.5553, 17460.15
298.0374, 17481.50
298.5195, 17524.74
299.0016, 17568.83
299.4837, 17612.49
299.9659, 17649.59
300.4480, 17664.62
300.9301, 17657.25
301.4122, 17648.35
301.8943, 17653.40
302.3764, 17671.17
302.8586, 17698.95
303.3407, 17737.61
303.8228, 17784.94
304.3049, 17842.36
304.7870, 17910.64
305.2691, 17974.26
305.7513, 18012.88
306.2334, 18038.09
306.7155, 18073.56
307.1976, 18128.59
307.6797, 18198.59
308.1618, 18283.06
308.6440, 18383.24
309.1261, 18477.27
309.6082, 18541.68
310.0903, 18589.36
310.5724, 18640.33
311.0545, 18703.62
311.5367, 18773.22
312.0188, 18847.87
312.5009, 18928.85
312.9830, 18999.35
313.4651, 19039.07
313.9472, 19063.80
314.4294, 19095.91
314.9115, 19164.65
315.3936, 19230.31
315.8757, 19258.27
316.3578, 19242.77
316.8399, 19243.50
317.3221, 19301.20
317.8042, 19390.46
318.2863, 19479.29
318.7684, 19545.64
319.2505, 19616.85
319.7326, 19708.51
320.2148, 19822.80
320.6969, 19939.76
321.1790, 20044.09
321.6611, 20149.03
322.1432, 20271.93
322.6253, 20427.09
323.1075, 20591.03
323.5896, 20760.73
324.0717, 20937.85
324.5538, 21096.32
325.0359, 21206.94
325.5180, 21302.79
326.0002, 21424.28
326.4823, 21644.66
326.9644, 21830.88
327.4465, 21939.89
327.9286, 21955.97
328.4107, 21958.04
328.8929, 21966.89
329.3750, 21962.26
329.8571, 21919.23
330.3392, 21814.16
330.8213, 21694.18
331.3034, 21566.09
331.7856, 21426.57
332.2677, 21289.38
332.7498, 21148.89
333.2319, 21013.15
333.7140, 20892.60
334.1961, 20787.53
334.6783, 20695.77
335.1604, 20616.89
335.6425, 20549.34
336.1246, 20499.05
336.6067, 20474.78
337.0888, 20459.75
337.5710, 20431.10
338.0531, 20377.94
338.5352, 20334.32
339.0173, 20313.72
339.4994, 20318.99
339.9815, 20308.71
340.4637, 20288.46
340.9458, 20244.59
341.4279, 20149.95
341.9100, 19989.52
342.3921, 19841.22
342.8742, 19731.25
343.3564, 19658.28
343.8385, 19566.71
344.3206, 19449.19
344.8027, 19338.73
345.2848, 19283.86
345.7669, 19286.29
346.2491, 19289.93
346.7312, 19271.84
347.2133, 19239.80
347.6954, 19237.39
348.1775, 19269.44
348.6596, 19304.75
349.1418, 19305.62
349.6239, 19276.70
350.1060, 19251.26
350.5881, 19227.60
351.0702, 19218.07
351.5523, 19265.04
352.0345, 19371.65
352.5166, 19482.07
352.9987, 19547.16
353.4808, 19576.12
353.9629, 19591.76
354.4450, 19591.31
354.9272, 19588.28
355.4093, 19607.25
355.8914, 19647.56
356.3735, 19681.65
356.8556, 19675.10
357.3377, 19651.64
357.8199, 19648.59
358.3020, 19701.43
358.7841, 19762.19
359.2662, 19786.13
359.7483, 19777.36
360.2304, 19772.52
360.7126, 19812.14
361.1947, 19860.04
361.6768, 19878.48
362.1589, 19817.78
362.6410, 19761.52
363.1231, 19762.64
363.6053, 19811.75
364.0874, 19845.31
364.5695, 19820.18
365.0516, 19778.20
365.5337, 19750.50
366.0158, 19768.12
366.4980, 19773.29
366.9801, 19734.34
367.4622, 19662.95
367.9443, 19619.11
368.4264, 19660.67
368.9085, 19701.37
369.3907, 19694.90
369.8728, 19582.94
370.3549, 19487.29
370.8370, 19422.77
371.3191, 19382.88
371.8012, 19342.85
372.2834, 19300.58
372.7655, 19262.46
373.2476, 19233.79
373.7297, 19232.83
374.2119, 19209.58
374.6940, 19144.80
375.1761, 19062.94
375.6582, 19031.15
376.1403, 19079.64
376.6224, 19127.54
377.1046, 19133.63
377.5867, 19077.52
378.0688, 19058.29
378.5509, 19089.61
379.0330, 19144.40
379.5151, 19161.89
379.9973, 19129.08
380.4794, 19112.76
380.9615, 19148.37
381.4436, 19235.91
381.9257, 19318.01
382.4078, 19398.61
382.8900, 19461.84
383.3721, 19475.22
383.8542, 19440.27
384.3363, 19395.98
384.8184, 19417.84
385.3005, 19430.72
385.7827, 19435.12
386.2648, 19405.58
386.7469, 19419.86
387.2290, 19416.58
387.7111, 19412.58
388.1932, 19433.02
388.6754, 19408.42
389.1575, 19428.47
389.6396, 19430.71
390.1217, 19441.09
390.6038, 19433.81
391.0859, 19431.99
391.5681, 19447.84
392.0502, 19453.91
392.5323, 19444.60
393.0144, 19455.50
393.4965, 19430.29
393.9786, 19436.77
394.4608, 19456.93
394.9429, 19437.74
395.4250, 19443.15
395.9071, 19447.10
396.3892, 19432.63
396.8713, 19431.75
397.3535, 19462.67
397.8356, 19518.59
398.3177, 19568.05
398.7998, 19608.17
399.2819, 19634.69
399.7640, 19644.38
400.2462, 19614.97
400.7283, 19596.44
401.2104, 19602.04
401.6925, 19623.11
402.1746, 19631.40
402.6567, 19619.41
403.1389, 19602.37
403.6210, 19586.86
404.1031, 19578.11
404.5852, 19559.96
405.0673, 19524.99
405.5494, 19485.24
406.0316, 19465.93
406.5137, 19475.17
406.9958, 19487.31
407.4779, 19493.18
407.9600, 19492.00
408.4421, 19492.68
408.9243, 19495.92
409.4064, 19499.37
409.8885, 19502.39
410.3706, 19505.52
410.8527, 19497.04
411.3348, 19461.84
411.8170, 19410.45
412.2991, 19394.11
412.7812, 19415.30
413.2633, 19452.72
413.7454, 19490.23
414.2275, 19527.07
414.7097, 19560.12
415.1918, 19592.89
415.6739, 19618.26
416.1560, 19617.51
416.6381, 19593.47
417.1202, 19574.58
417.6024, 19581.25
418.0845, 19606.34
418.5666, 19641.67
419.0487, 19694.59
419.5308, 19742.90
420.0129, 19767.23
420.4951, 19771.89
420.9772, 19772.52
421.4593, 19774.28
421.9414, 19775.94
422.4235, 19776.98
422.9056, 19778.48
423.3878, 19776.14
423.8699, 19761.68
424.3520, 19742.76
424.8341, 19734.37
425.3162, 19749.02
425.7983, 19766.68
426.2805, 19779.00
426.7626, 19780.65
427.2447, 19792.52
427.7268, 19830.79
428.2089, 19873.40
428.6910, 19893.01
429.1732, 19863.80
429.6553, 19851.31
430.1374, 19877.85
430.6195, 19945.87
431.1016, 19983.74
431.5837, 19981.92
432.0659, 19964.59
432.5480, 19951.82
433.0301, 19943.37
433.5122, 19941.22
433.9943, 19946.38
434.4764, 19957.91
434.9586, 19970.63
435.4407, 19983.38
435.9228, 20006.01
436.4049, 20055.19
436.8870, 20124.00
437.3691, 20171.47
437.8513, 20185.29
438.3334, 20188.91
438.8155, 20220.98
439.2976, 20276.43
439.7797, 20326.56
440.2618, 20353.39
440.7440, 20365.72
441.2261, 20375.03
441.7082, 20382.18
442.1903, 20386.96
442.6724, 20385.20
443.1545, 20381.44
443.6367, 20383.68
444.1188, 20399.61
444.6009, 20419.23
445.0830, 20435.01
445.5651, 20446.43
446.0472, 20465.14
446.5294, 20514.75
447.0115, 20564.38
447.4936, 20585.87
447.9757, 20544.29
448.4578, 20505.98
448.9399, 20480.55
449.4221, 20467.88
449.9042, 20465.43
450.3863, 20478.13
450.8684, 20496.42
451.3505, 20517.68
451.8326, 20554.39
452.3148, 20567.47
452.7969, 20543.12
453.2790, 20501.45
453.7611, 20492.00
454.2432, 20524.14
454.7253, 20562.14
455.2075, 20594.11
455.6896, 20620.76
456.1717, 20631.30
456.6538, 20621.69
457.1360, 20608.32
457.6181, 20612.64
458.1002, 20633.45
458.5823, 20658.35
459.0644, 20684.49
459.5465, 20711.01
460.0287, 20736.86
460.5108, 20761.56
460.9929, 20786.21
461.4750, 20814.53
461.9571, 20842.58
462.4392, 20862.22
462.9214, 20865.98
463.4035, 20868.73
463.8856, 20882.05
464.3677, 20904.23
464.8498, 20929.55
465.3319, 20965.48
465.8141, 20996.63
466.2962, 21012.00
466.7783, 21007.00
467.2604, 20993.87
467.7425, 20961.40
468.2246, 20925.87
468.7068, 20912.70
469.1889, 20945.08
469.6710, 20981.28
470.1531, 21013.56
470.6352, 21042.53
471.1173, 21064.72
471.5995, 21087.85
472.0816, 21098.34
472.5637, 21077.68
473.0458, 21001.79
473.5279, 20961.76
474.0100, 20979.44
474.4922, 21040.77
474.9743, 21093.71
475.4564, 21138.83
475.9385, 21172.63
476.4206, 21191.07
476.9027, 21194.63
477.3849, 21189.57
477.8670, 21174.19
478.3491, 21154.81
478.8312, 21132.26
479.3133, 21110.33
479.7954, 21108.35
480.2776, 21163.73
480.7597, 21232.17
481.2418, 21244.33
481.7239, 21197.28
482.2060, 21146.38
482.6881, 21128.04
483.1703, 21131.46
483.6524, 21142.79
484.1345, 21177.96
484.6166, 21200.29
485.0987, 21170.59
485.5808, 21105.43
486.0630, 21083.78
486.5451, 21175.70
487.0272, 21283.38
487.5093, 21355.56
487.9914, 21371.14
488.4735, 21375.74
488.9557, 21362.30
489.4378, 21341.37
489.9199, 21331.89
490.4020, 21343.26
490.8841, 21349.84
491.3662, 21341.36
491.8484, 21317.41
492.3305, 21304.54
492.8126, 21303.52
493.2947, 21312.54
493.7768, 21335.94
494.2589, 21374.49
494.7411, 21399.48
495.2232, 21401.85
495.7053, 21391.90
496.1874, 21390.97
496.6695, 21398.61
497.1516, 21407.15
497.6338, 21409.76
498.1159, 21410.44
498.5980, 21414.91
499.0801, 21422.89
499.5622, 21438.32
500.0443, 21478.03
500.5265, 21525.50
501.0086, 21552.70
501.4907, 21520.97
501.9728, 21487.26
502.4549, 21480.34
502.9370, 21500.92
503.4192, 21534.22
503.9013, 21598.04
504.3834, 21658.79
504.8655, 21693.28
505.3476, 21673.40
505.8297, 21657.28
506.3119, 21649.68
506.7940, 21647.89
507.2761, 21642.07
507.7582, 21623.29
508.2403, 21617.62
508.7224, 21642.94
509.2046, 21706.32
509.6867, 21740.30
510.1688, 21739.22
510.6509, 21723.63
511.1330, 21717.40
511.6151, 21720.43
512.0973, 21723.49
512.5794, 21717.52
513.0615, 21714.14
513.5436, 21743.10
514.0258, 21801.85
514.5079, 21864.17
514.9900, 21918.69
515.4721, 21961.15
515.9542, 21986.44
516.4363, 21992.61
516.9185, 21982.74
517.4006, 21938.05
517.8827, 21881.07
518.3648, 21852.63
518.8469, 21897.79
519.3290, 21949.48
519.8112, 21983.58
520.2933, 21999.41
520.7754, 21998.26
521.2575, 21951.59
521.7396, 21908.26
522.2217, 21904.82
522.7039, 21980.96
523.1860, 22033.74
523.6681, 22048.25
524.1502, 22037.88
524.6323, 22039.59
525.1144, 22052.98
525.5966, 22077.52
526.0787, 22125.10
526.5608, 22193.65
527.0429, 22206.15
527.5250, 22150.38
528.0071, 22085.99
528.4893, 22089.15
528.9714, 22144.64
529.4535, 22192.63
529.9356, 22211.61
530.4177, 22217.05
530.8998, 22233.26
531.3820, 22256.18
531.8641, 22265.12
532.3462, 22224.41
532.8283, 22178.72
533.3104, 22172.32
533.7925, 22226.59
534.2747, 22273.67
534.7568, 22272.26
535.2389, 22252.26
535.7210, 22254.36
536.2031, 22322.46
536.6852, 22374.37
537.1674, 22384.98
537.6495, 22356.40
538.1316, 22335.71
538.6137, 22314.75
539.0958, 22311.00
539.5779, 22342.86
540.0601, 22423.13
540.5422, 22475.25
541.0243, 22491.16
541.5064, 22481.21
541.9885, 22457.67
542.4706, 22420.80
542.9528, 22386.98
543.4349, 22364.55
543.9170, 22350.00
544.3991, 22332.23
544.8812, 22311.97
545.3633, 22299.85
545.8455, 22313.60
546.3276, 22338.56
546.8097, 22352.04
547.2918, 22337.76
547.7739, 22332.28
548.2560, 22370.80
548.7382, 22432.93
549.2203, 22474.09
549.7024, 22456.91
550.1845, 22435.81
550.6666, 22432.17
551.1487, 22449.15
551.6309, 22465.15
552.1130, 22479.94
552.5951, 22491.33
553.0772, 22497.98
553.5593, 22500.51
554.0414, 22494.38
554.5236, 22476.38
555.0057, 22451.56
555.4878, 22433.21
555.9699, 22422.53
556.4520, 22409.98
556.9341, 22389.21
557.4163, 22363.36
557.8984, 22342.59
558.3805, 22327.64
558.8626, 22316.99
559.3447, 22311.45
559.8268, 22309.13
560.3090, 22306.55
560.7911, 22303.40
561.2732, 22299.45
561.7553, 22297.83
562.2374, 22295.93
562.7195, 22286.00
563.2017, 22241.98
563.6838, 22208.97
564.1659, 22208.85
564.6480, 22248.46
565.1301, 22300.70
565.6122, 22396.29
566.0944, 22481.31
566.5765, 22498.71
567.0586, 22404.57
567.5407, 22352.37
568.0228, 22375.70
568.5049, 22445.31
568.9871, 22471.48
569.4692, 22447.93
569.9513, 22425.89
570.4334, 22432.13
570.9155, 22461.59
571.3976, 22502.68
571.8798, 22555.87
572.3619, 22603.43
572.8440, 22625.41
573.3261, 22630.04
573.8082, 22631.13
574.2903, 22631.28
574.7725, 22631.85
575.2546, 22641.31
575.7367, 22653.47
576.2188, 22650.30
576.7009, 22597.84
577.1830, 22553.93
577.6652, 22550.70
578.1473, 22605.17
578.6294, 22638.76
579.1115, 22643.40
579.5936, 22633.36
580.0757, 22621.13
580.5579, 22610.30
581.0400, 22582.31
581.5221, 22519.24
582.0042, 22450.21
582.4863, 22462.39
582.9684, 22558.20
583.4506, 22655.63
583.9327, 22713.11
584.4148, 22741.08
584.8969, 22768.55
585.3790, 22795.88
585.8611, 22817.78
586.3433, 22829.04
586.8254, 22832.64
587.3075, 22830.96
587.7896, 22814.22
588.2717, 22809.41
588.7538, 22839.88
589.2360, 22891.36
589.7181, 22933.70
590.2002, 22967.50
590.6823, 22982.26
591.1644, 22967.89
591.6465, 22923.05
592.1287, 22883.63
592.6108, 22845.19
593.0929, 22819.02
593.5750, 22814.92
594.0571, 22835.48
594.5392, 22870.64
595.0214, 22930.38
595.5035, 22985.89
595.9856, 22974.09
596.4677, 22904.08
596.9498, 22848.71
597.4319, 22848.76
597.9141, 22877.15
598.3962, 22899.23
598.8783, 22914.37
599.3604, 22918.72
599.8425, 22887.95
600.3246, 22856.60
600.8068, 22859.87
601.2889, 22920.54
601.7710, 22969.83
602.2531, 22973.88
602.7352, 22959.14
603.2173, 22963.03
603.6995, 23003.84
604.1816, 23042.31
604.6637, 23077.50
605.1458, 23106.63
605.6279, 23106.73
606.1100, 23068.41
606.5922, 23032.17
607.0743, 23035.59
607.5564, 23071.92
608.0385, 23043.94
608.5206, 22937.79
609.0027, 22838.58
609.4849, 22861.96
609.9670, 22963.23
610.4491, 23041.06
610.9312, 23060.96
611.4133, 23055.52
611.8954, 23039.39
612.3776, 23017.93
612.8597, 23004.93
613.3418, 23014.35
613.8239, 23026.70
614.3060, 23031.53
614.7881, 23025.63
615.2703, 23028.55
615.7524, 23044.25
616.2345, 23064.87
616.7166, 23085.90
617.1987, 23107.92
617.6808, 23122.99
618.1630, 23123.49
618.6451, 23126.20
619.1272, 23178.65
619.6093, 23278.04
620.0914, 23339.23
620.5735, 23306.15
621.0557, 23227.69
621.5378, 23179.02
622.0199, 23160.52
622.5020, 23171.53
622.9841, 23254.35
623.4662, 23341.87
623.9484, 23361.92
624.4305, 23280.53
624.9126, 23219.13
625.3947, 23227.63
625.8768, 23274.01
626.3589, 23322.14
626.8411, 23388.10
627.3232, 23427.90
627.8053, 23428.79
628.2874, 23401.73
628.7695, 23380.37
629.2516, 23363.38
629.7338, 23359.33
630.2159, 23376.71
630.6980, 23412.43
631.1801, 23448.27
631.6622, 23485.25
632.1443, 23512.93
632.6265, 23520.22
633.1086, 23512.10
633.5907, 23494.91
634.0728, 23465.65
634.5549, 23438.31
635.0370, 23408.89
635.5192, 23389.32
