##NAMES=Mendipite
##RRUFFID=R050669
##IDEAL CHEMISTRY=Pb^2+^_3_O_2_Cl_2_
##LOCALITY=Mendip Hills, Higher Pits, Somerset, England
##OWNER=RRUFF
##SOURCE=University of Arizona Mineral Museum
##DESCRIPTION=Colorless coarsely fibrous aggregate
##STATUS=The identification of this mineral has been confirmed by X-ray diffraction and chemical analysis
##URL=rruff.info/R050669
##MEASURED CHEMISTRY=Pb_3.00_O_2_Cl_2.00_
92.02539, 1041.060
92.50751, 1052.827
92.98962, 1065.934
93.47174, 1065.740
93.95386, 1060.109
94.43597, 1047.591
94.91809, 1027.884
95.40021, 1004.215
95.88232, 983.2256
96.36444, 964.6669
96.84656, 949.2248
97.32867, 937.1229
97.81078, 928.3231
98.29290, 922.9748
98.77502, 921.0667
99.25713, 921.7838
99.73925, 920.3197
100.2214, 917.1950
100.7035, 912.5696
101.1856, 906.9683
101.6677, 900.1381
102.1498, 890.9648
102.6320, 878.0138
103.1141, 859.7195
103.5962, 840.1949
104.0783, 817.6629
104.5604, 794.3846
105.0425, 772.4647
105.5247, 752.0607
106.0068, 734.2521
106.4889, 720.8681
106.9710, 711.1779
107.4531, 705.2137
107.9352, 702.6300
108.4173, 703.5545
108.8995, 708.9612
109.3816, 720.6569
109.8637, 736.4319
110.3458, 754.3665
110.8279, 774.9968
111.3100, 795.3963
111.7922, 812.6910
112.2743, 827.1911
112.7564, 836.9698
113.2385, 839.2621
113.7206, 838.1780
114.2027, 836.3792
114.6849, 834.7482
115.1670, 834.0930
115.6491, 837.1217
116.1312, 842.2567
116.6133, 854.0792
117.0954, 874.1326
117.5776, 901.0097
118.0597, 932.9875
118.5418, 969.2827
119.0239, 1010.036
119.5060, 1050.790
119.9881, 1094.076
120.4703, 1135.158
120.9524, 1172.287
121.4345, 1205.349
121.9166, 1235.200
122.3987, 1262.358
122.8808, 1286.278
123.3630, 1307.604
123.8451, 1322.682
124.3272, 1337.052
124.8093, 1355.362
125.2914, 1378.297
125.7735, 1405.654
126.2557, 1437.178
126.7378, 1472.270
127.2199, 1513.243
127.7020, 1562.568
128.1841, 1618.660
128.6662, 1675.857
129.1483, 1734.104
129.6305, 1792.699
130.1126, 1851.884
130.5947, 1911.594
131.0768, 1970.233
131.5589, 2026.442
132.0410, 2080.053
132.5232, 2132.493
133.0053, 2181.511
133.4874, 2231.414
133.9695, 2282.297
134.4516, 2335.040
134.9337, 2392.941
135.4159, 2461.669
135.8980, 2545.362
136.3801, 2634.355
136.8622, 2733.614
137.3443, 2834.264
137.8264, 2937.145
138.3086, 3041.496
138.7907, 3133.442
139.2728, 3171.884
139.7549, 3157.568
140.2370, 3083.739
140.7191, 2929.970
141.2013, 2719.143
141.6834, 2476.391
142.1655, 2210.405
142.6476, 1930.914
143.1297, 1685.836
143.6118, 1471.906
144.0939, 1286.357
144.5761, 1131.007
145.0582, 1004.664
145.5403, 900.9519
146.0224, 820.0923
146.5045, 761.0193
146.9866, 711.3160
147.4688, 673.4247
147.9509, 642.7062
148.4330, 615.7590
148.9151, 592.8331
149.3972, 571.9241
149.8793, 552.2304
150.3615, 533.5663
150.8436, 515.8470
151.3257, 499.1714
151.8078, 483.4073
152.2899, 468.5527
152.7720, 454.6781
153.2542, 441.4664
153.7363, 428.7147
154.2184, 416.3656
154.7005, 404.1606
155.1826, 391.9049
155.6647, 379.6610
156.1469, 368.3364
156.6290, 358.6064
157.1111, 349.3081
157.5932, 340.1026
158.0753, 331.0659
158.5574, 322.5310
159.0396, 314.8148
159.5217, 308.0166
160.0038, 301.1558
160.4859, 293.6514
160.9680, 286.5870
161.4501, 280.5196
161.9323, 275.4064
162.4144, 270.8632
162.8965, 266.6096
163.3786, 262.7771
163.8607, 258.4315
164.3428, 253.0281
164.8250, 247.5459
165.3071, 242.7680
165.7892, 238.7927
166.2713, 235.1521
166.7534, 231.3341
167.2355, 227.3260
167.7177, 223.2556
168.1998, 218.8643
168.6819, 214.4924
169.1640, 210.6077
169.6461, 207.3354
170.1282, 204.4594
170.6104, 201.9289
171.0925, 199.7066
171.5746, 197.2862
172.0567, 194.2681
172.5388, 190.8835
173.0209, 187.8720
173.5031, 185.6186
173.9852, 183.4172
174.4673, 180.4250
174.9494, 176.7468
175.4315, 173.3291
175.9136, 171.2009
176.3958, 170.2939
176.8779, 168.6371
177.3600, 165.1715
177.8421, 161.5068
178.3242, 158.5466
178.8063, 156.3183
179.2885, 154.4138
179.7706, 152.4582
180.2527, 150.4648
180.7348, 148.3387
181.2169, 145.9253
181.6990, 143.4871
182.1812, 141.1254
182.6633, 138.8679
183.1454, 136.7559
183.6275, 134.8372
184.1096, 133.1116
184.5917, 131.6185
185.0738, 130.6003
185.5560, 129.6073
186.0381, 128.2764
186.5202, 126.5369
187.0023, 124.6399
187.4844, 123.0312
187.9665, 122.0058
188.4487, 120.8040
188.9308, 119.2004
189.4129, 117.5469
189.8950, 116.2504
190.3771, 115.4444
190.8592, 114.8105
191.3414, 113.7104
191.8235, 111.8311
192.3056, 110.0830
192.7877, 108.4292
193.2698, 107.0017
193.7519, 106.1074
194.2341, 105.9414
194.7162, 106.0283
195.1983, 105.2673
195.6804, 103.4333
196.1625, 101.7917
196.6446, 100.8290
197.1268, 100.3327
197.6089, 99.80343
198.0910, 99.03657
198.5731, 98.23722
199.0552, 97.78621
199.5373, 97.75978
200.0195, 97.61926
200.5016, 97.07253
200.9837, 96.15842
201.4658, 95.03542
201.9479, 93.49601
202.4300, 92.02585
202.9122, 91.20027
203.3943, 91.07902
203.8764, 91.08426
204.3585, 90.76138
204.8406, 90.11223
205.3227, 89.46532
205.8048, 88.88845
206.2870, 88.35246
206.7691, 87.88249
207.2512, 87.47828
207.7333, 87.01469
208.2154, 86.26463
208.6975, 85.12871
209.1797, 84.30075
209.6618, 84.17332
210.1439, 84.20789
210.6260, 84.18681
211.1081, 84.05158
211.5902, 83.78014
212.0724, 83.23622
212.5545, 82.17144
213.0366, 81.62310
213.5187, 82.27677
214.0008, 82.98882
214.4829, 82.95678
214.9651, 82.07255
215.4472, 80.90657
215.9293, 80.31115
216.4114, 80.62936
216.8935, 80.83727
217.3756, 80.91675
217.8578, 80.91529
218.3399, 80.90200
218.8220, 80.87637
219.3041, 80.73916
219.7862, 80.30826
220.2683, 79.25562
220.7505, 78.56275
221.2326, 78.39626
221.7147, 78.43885
222.1968, 78.48383
222.6789, 78.46989
223.1610, 78.40689
223.6432, 78.29331
224.1253, 77.99658
224.6074, 77.96256
225.0895, 78.57011
225.5716, 79.22893
226.0537, 79.29362
226.5358, 78.63242
227.0180, 77.77109
227.5001, 77.43773
227.9822, 77.77966
228.4643, 78.25731
228.9464, 79.04186
229.4285, 79.85555
229.9107, 80.37139
230.3928, 80.51232
230.8749, 80.47967
231.3570, 80.52756
231.8391, 80.67488
232.3212, 80.70991
232.8034, 80.40775
233.2855, 80.04927
233.7676, 80.04127
234.2497, 80.49427
234.7318, 81.07117
235.2139, 81.31001
235.6961, 81.26363
236.1782, 81.48000
236.6603, 82.25967
237.1424, 83.33532
237.6245, 84.38001
238.1066, 85.42123
238.5888, 86.21450
239.0709, 86.27615
239.5530, 85.83975
240.0351, 85.65310
240.5172, 86.15959
240.9993, 87.04220
241.4815, 87.67310
241.9636, 87.93548
242.4457, 88.15910
242.9278, 88.51549
243.4099, 89.00575
243.8920, 89.67282
244.3742, 90.60562
244.8563, 91.71521
245.3384, 92.77034
245.8205, 93.68330
246.3026, 94.74600
246.7847, 96.29489
247.2668, 98.06339
247.7490, 99.58300
248.2311, 100.4106
248.7132, 100.9622
249.1953, 102.3734
249.6774, 105.0611
250.1595, 107.7814
250.6417, 109.9481
251.1238, 111.8415
251.6059, 113.8086
252.0880, 116.0207
252.5701, 118.3846
253.0522, 120.6872
253.5344, 122.8487
254.0165, 125.0879
254.4986, 127.3510
254.9807, 129.7516
255.4628, 132.5096
255.9449, 135.7598
256.4271, 139.2263
256.9092, 142.2715
257.3913, 144.6753
257.8734, 147.0329
258.3555, 149.3112
258.8376, 151.6797
259.3198, 154.3242
259.8019, 157.3100
260.2840, 160.5498
260.7661, 163.8780
261.2482, 167.3496
261.7303, 170.8070
262.2125, 174.3906
262.6946, 177.8961
263.1767, 181.0390
263.6588, 183.7712
264.1409, 186.3953
264.6230, 189.5068
265.1052, 193.4456
265.5873, 197.2271
266.0694, 200.6449
266.5515, 204.0082
267.0336, 207.6783
267.5157, 211.6640
267.9979, 215.5238
268.4800, 218.5570
268.9621, 220.3462
269.4442, 222.1384
269.9263, 224.4051
270.4084, 226.3415
270.8906, 227.4372
271.3727, 227.6200
271.8548, 227.1366
272.3369, 226.3204
272.8190, 225.3824
273.3011, 223.3058
273.7833, 219.6779
274.2654, 215.5134
274.7475, 211.4663
275.2296, 207.5016
275.7117, 203.1214
276.1938, 197.7795
276.6760, 191.2841
277.1581, 184.9236
277.6402, 178.7630
278.1223, 172.6271
278.6044, 166.2738
279.0865, 159.8027
279.5686, 153.5500
280.0508, 147.7502
280.5329, 142.4093
281.0150, 137.6991
281.4971, 133.8776
281.9792, 130.2654
282.4613, 126.4777
282.9435, 122.6847
283.4256, 119.3453
283.9077, 116.7932
284.3898, 114.9286
284.8719, 113.0186
285.3540, 110.5206
285.8362, 108.5682
286.3183, 107.6572
286.8004, 107.4801
287.2825, 107.5005
287.7646, 107.4527
288.2467, 107.3856
288.7289, 107.4783
289.2110, 107.7740
289.6931, 108.1589
290.1752, 108.6585
290.6573, 109.2269
291.1394, 109.7851
291.6216, 110.3001
292.1037, 110.8264
292.5858, 111.5337
293.0679, 112.8663
293.5500, 113.5098
294.0321, 113.2208
294.5143, 112.2283
294.9964, 110.6837
295.4785, 108.6248
295.9606, 106.2652
296.4427, 103.8921
296.9248, 101.5363
297.4070, 99.03554
297.8891, 96.19820
298.3712, 93.32347
298.8533, 90.65450
299.3354, 88.24178
299.8175, 85.99629
300.2997, 83.81277
300.7818, 81.68475
301.2639, 79.88172
301.7460, 78.50600
302.2281, 77.37759
302.7102, 76.40271
303.1924, 75.56656
303.6745, 74.83537
304.1566, 74.18461
304.6387, 73.62131
305.1208, 73.13285
305.6029, 72.62598
306.0851, 72.26865
306.5672, 72.08785
307.0493, 72.11452
307.5314, 72.46593
308.0135, 73.25804
308.4956, 74.38916
308.9778, 75.39818
309.4599, 76.31422
309.9420, 77.10487
310.4241, 77.53477
310.9062, 77.84733
311.3883, 78.57640
311.8705, 79.99108
312.3526, 81.76256
312.8347, 83.10811
313.3168, 83.78493
313.7989, 84.68969
314.2810, 86.02514
314.7632, 87.67532
315.2453, 89.53386
315.7274, 91.57272
316.2095, 93.73017
316.6916, 95.95564
317.1737, 98.28289
317.6559, 100.5535
318.1380, 102.6093
318.6201, 104.6903
319.1022, 107.0019
319.5843, 109.5821
320.0664, 112.3618
320.5485, 115.3112
321.0306, 118.4361
321.5128, 121.5829
321.9949, 124.8664
322.4770, 128.0894
322.9591, 131.0914
323.4412, 133.8951
323.9233, 136.7150
324.4055, 139.6995
324.8876, 142.8132
325.3697, 145.6495
325.8518, 148.0469
326.3339, 150.3991
326.8160, 152.8946
327.2982, 155.4559
327.7803, 157.9958
328.2624, 160.5242
328.7445, 162.8877
329.2266, 164.6567
329.7087, 165.8952
330.1909, 166.5580
330.6730, 166.2971
331.1551, 165.5664
331.6372, 164.9340
332.1193, 164.5651
332.6014, 164.3148
333.0836, 163.9794
333.5657, 163.5299
334.0478, 163.0699
334.5299, 162.6549
335.0120, 162.1996
335.4941, 161.6835
335.9763, 161.0857
336.4584, 160.2934
336.9405, 159.2061
337.4226, 157.7953
337.9047, 156.1835
338.3868, 154.7092
338.8690, 152.7382
339.3511, 149.7045
339.8332, 145.8450
340.3153, 141.9500
340.7974, 138.5547
341.2795, 135.5152
341.7617, 131.9141
342.2438, 127.1045
342.7259, 122.5932
343.2080, 118.9326
343.6901, 115.7216
344.1722, 112.3006
344.6544, 108.3998
345.1365, 104.3884
345.6186, 101.0555
346.1007, 98.94498
346.5828, 96.74236
347.0649, 94.37361
347.5471, 91.96716
348.0292, 89.56380
348.5113, 87.21529
348.9934, 85.02718
349.4755, 83.14750
349.9576, 81.56943
350.4398, 80.37936
350.9219, 79.96517
351.4040, 79.52442
351.8861, 78.59702
352.3682, 77.26276
352.8503, 75.83750
353.3325, 74.53007
353.8146, 73.35744
354.2967, 72.58513
354.7788, 72.70650
355.2609, 72.66380
355.7430, 72.01025
356.2252, 71.11785
356.7073, 70.56205
357.1894, 70.62222
357.6715, 71.03642
358.1536, 71.13709
358.6357, 70.61587
359.1179, 70.23919
359.5999, 70.18580
360.0821, 70.18147
360.5642, 69.93928
361.0463, 69.43517
361.5284, 68.93883
362.0105, 68.79792
362.4926, 69.10313
362.9748, 69.42386
363.4569, 70.00848
363.9390, 70.37983
364.4211, 70.28898
364.9032, 69.79759
365.3853, 69.09445
365.8675, 68.28612
366.3496, 67.39588
366.8317, 66.65703
367.3138, 66.25305
367.7959, 65.77029
368.2780, 65.08416
368.7602, 64.28690
369.2423, 63.47912
369.7244, 62.70550
370.2065, 61.97334
370.6886, 61.34549
371.1707, 60.98132
371.6529, 60.30452
372.1350, 58.99493
372.6171, 57.53990
373.0992, 56.17134
373.5813, 54.95989
374.0634, 53.92312
374.5456, 53.22304
375.0277, 52.89497
375.5098, 52.13863
375.9919, 50.41686
376.4740, 48.83180
376.9561, 48.00415
377.4383, 47.69690
377.9204, 47.34844
378.4025, 46.60351
378.8846, 45.61272
379.3667, 44.81113
379.8488, 44.28333
380.3310, 43.72618
380.8131, 42.75787
381.2952, 41.81056
381.7773, 41.45575
382.2594, 41.94926
382.7415, 42.53420
383.2237, 42.27654
383.7058, 41.18237
384.1879, 40.26671
384.6700, 39.82497
385.1521, 39.59874
385.6342, 39.35309
386.1164, 39.08863
386.5985, 38.83391
387.0806, 38.65266
387.5627, 38.49031
388.0448, 38.15002
388.5269, 37.52822
389.0091, 37.03104
389.4912, 37.13054
389.9733, 37.57942
390.4554, 37.83481
390.9375, 37.68374
391.4196, 37.39552
391.9018, 37.17773
392.3839, 37.02880
392.8660, 36.92577
393.3481, 36.80512
393.8302, 36.78537
394.3123, 37.14676
394.7945, 38.06187
395.2766, 38.77121
395.7587, 38.81559
396.2408, 38.49994
396.7229, 38.33636
397.2050, 38.44250
397.6872, 38.64525
398.1693, 38.71862
398.6514, 38.64102
399.1335, 38.83326
399.6156, 39.49632
400.0977, 40.28984
400.5798, 41.09401
401.0620, 41.84395
401.5441, 42.33651
402.0262, 42.41051
402.5083, 42.15572
402.9904, 42.01908
403.4725, 41.96957
403.9547, 42.05446
404.4368, 42.27173
404.9189, 42.63295
405.4010, 43.25926
405.8831, 44.16473
406.3652, 45.02956
406.8474, 45.32315
407.3295, 44.63744
407.8116, 44.58656
408.2937, 45.61451
408.7758, 46.80106
409.2579, 47.62968
409.7401, 48.14467
410.2222, 48.66896
410.7043, 49.44988
411.1864, 50.45563
411.6685, 51.42478
412.1506, 52.18665
412.6328, 53.13059
413.1149, 54.41357
413.5970, 55.85902
414.0791, 57.29459
414.5612, 58.65767
415.0433, 59.96504
415.5255, 61.24168
416.0076, 62.49923
416.4897, 63.70585
416.9718, 64.68295
417.4539, 65.75618
417.9360, 67.10139
418.4182, 68.69543
418.9003, 70.38718
419.3824, 72.10983
419.8645, 73.84366
420.3466, 75.50617
420.8287, 76.97674
421.3109, 78.61588
421.7930, 80.69851
422.2751, 82.95031
422.7572, 85.08241
423.2393, 87.02528
423.7214, 88.78166
424.2036, 90.14758
424.6857, 91.15415
425.1678, 92.73890
425.6499, 95.45257
426.1320, 98.37969
426.6141, 100.6992
427.0963, 102.4631
427.5784, 104.0773
428.0605, 105.6048
428.5426, 107.1322
429.0247, 108.8226
429.5068, 110.7078
429.9890, 112.5667
430.4711, 114.3718
430.9532, 115.9909
431.4353, 117.1212
431.9174, 117.5821
432.3995, 117.8226
432.8817, 118.2527
433.3638, 118.6052
433.8459, 118.2659
434.3280, 117.0179
434.8101, 115.2051
435.2922, 113.2154
435.7744, 110.9527
436.2565, 108.9462
436.7386, 107.8358
437.2207, 106.4887
437.7028, 103.9741
438.1849, 100.4408
438.6671, 96.68065
439.1492, 93.21914
439.6313, 89.98164
440.1134, 86.61427
440.5955, 82.63159
441.0776, 79.11694
441.5598, 76.66520
442.0418, 74.50747
442.5240, 71.73024
443.0061, 68.17406
443.4882, 64.54890
443.9703, 61.85010
444.4524, 60.29897
444.9345, 58.60489
445.4167, 56.64298
445.8988, 54.66369
446.3809, 52.64043
446.8630, 50.68988
447.3451, 48.99157
447.8272, 47.68084
448.3094, 46.65126
448.7915, 45.65009
449.2736, 44.68139
449.7557, 43.73098
450.2378, 42.65456
450.7199, 41.68491
451.2021, 41.09642
451.6842, 40.88687
452.1663, 40.62476
452.6484, 39.80289
453.1305, 38.60310
453.6126, 37.90542
454.0948, 37.92295
454.5769, 38.06804
455.0590, 37.90801
455.5411, 37.60564
456.0232, 37.44698
456.5053, 37.50969
456.9875, 37.71373
457.4696, 38.10604
457.9517, 38.61787
458.4338, 38.90089
458.9159, 38.76748
459.3980, 38.49927
459.8802, 38.53003
460.3623, 38.86751
460.8444, 39.25866
461.3265, 39.66377
461.8086, 40.09989
462.2907, 40.62138
462.7729, 41.20734
463.2550, 41.74069
463.7371, 42.14764
464.2192, 42.43460
464.7013, 42.64771
465.1834, 42.45121
465.6656, 42.61035
466.1477, 43.36619
466.6298, 44.46790
467.1119, 45.76200
467.5940, 47.16360
468.0761, 48.44086
468.5583, 49.27797
469.0404, 49.58666
469.5225, 50.06932
470.0046, 50.98432
470.4867, 51.80723
470.9688, 52.45868
471.4510, 52.89072
471.9331, 52.99932
472.4152, 52.71288
472.8973, 52.23002
473.3794, 52.00301
473.8615, 52.18391
474.3437, 51.97420
474.8258, 51.05752
475.3079, 49.81887
475.7900, 48.46738
476.2721, 47.01428
476.7542, 45.37919
477.2364, 43.36556
477.7185, 41.17540
478.2006, 39.24047
478.6827, 37.58614
479.1648, 36.09886
479.6469, 34.79487
480.1291, 33.59586
480.6112, 32.33543
481.0933, 30.93146
481.5754, 29.68358
482.0575, 28.88515
482.5396, 28.31431
483.0217, 27.51499
483.5038, 26.38709
483.9860, 25.23302
484.4681, 24.30628
484.9502, 23.62589
485.4323, 23.15034
485.9144, 23.03716
486.3965, 22.94815
486.8787, 22.76970
487.3608, 22.50804
487.8429, 22.16896
488.3250, 21.75413
488.8071, 21.31563
489.2892, 20.94030
489.7714, 20.59235
490.2535, 20.40078
490.7356, 20.63079
491.2177, 20.74566
491.6998, 20.31238
492.1819, 19.53305
492.6641, 18.94409
493.1462, 18.91141
493.6283, 19.24026
494.1104, 19.37778
494.5925, 19.30601
495.0746, 19.09034
495.5568, 18.53439
496.0389, 17.98778
496.5210, 17.74545
497.0031, 17.80721
497.4852, 17.87507
497.9673, 17.71272
498.4495, 17.40025
498.9316, 17.14475
499.4137, 16.94760
499.8958, 16.83480
500.3779, 16.85383
500.8600, 16.96019
501.3422, 17.06838
501.8243, 17.21034
502.3064, 17.27507
502.7885, 17.14671
503.2706, 16.91950
503.7527, 16.79736
504.2349, 16.82701
504.7170, 16.80324
505.1991, 16.48580
505.6812, 15.84791
506.1633, 15.46156
506.6454, 15.45713
507.1276, 15.52816
507.6097, 15.61655
508.0918, 15.69201
508.5739, 15.70806
509.0560, 15.64969
509.5381, 15.56306
510.0203, 15.52268
510.5024, 15.54277
510.9845, 15.56039
511.4666, 15.62967
511.9487, 15.64236
512.4308, 15.52441
512.9130, 15.32136
513.3951, 15.11365
513.8772, 14.93083
514.3593, 14.79607
514.8414, 14.76598
515.3235, 14.85398
515.8057, 14.94642
516.2878, 15.04104
516.7699, 15.10748
517.2520, 15.10474
517.7341, 15.04400
518.2162, 15.00497
518.6984, 15.06432
519.1805, 15.13876
519.6626, 15.08771
520.1447, 14.92233
520.6268, 14.82664
521.1089, 14.91568
521.5911, 15.09472
522.0732, 15.13812
522.5553, 15.00977
523.0374, 14.88394
523.5195, 14.77741
524.0016, 14.69377
524.4838, 14.66157
524.9659, 14.66487
525.4480, 14.63047
525.9301, 14.49958
526.4122, 14.29674
526.8943, 14.14778
527.3765, 14.13016
527.8586, 14.05638
528.3407, 13.77538
528.8228, 13.52753
529.3049, 13.55310
529.7870, 13.84631
530.2692, 14.17939
530.7513, 14.36193
531.2334, 14.41315
531.7155, 14.45755
532.1976, 14.53002
532.6797, 14.51300
533.1619, 14.20974
533.6440, 13.86367
534.1261, 13.74977
534.6082, 13.93349
535.0903, 14.14723
535.5724, 14.22787
536.0546, 14.21264
536.5367, 14.15207
537.0188, 14.04450
537.5009, 14.00699
537.9830, 14.17479
538.4651, 14.48585
538.9473, 14.59505
539.4294, 14.32075
539.9115, 14.09307
540.3936, 14.10989
540.8757, 14.20160
541.3578, 14.11510
541.8400, 13.82320
542.3221, 13.55917
542.8042, 13.59145
543.2863, 13.92845
543.7684, 14.03487
544.2505, 13.51106
544.7326, 13.24006
545.2147, 13.64874
545.6968, 14.26216
546.1790, 14.51192
546.6611, 14.27071
547.1432, 13.93584
547.6253, 13.97576
548.1074, 14.34911
548.5895, 14.57253
549.0717, 14.59852
549.5538, 14.53588
550.0359, 14.34340
550.5180, 14.13020
551.0001, 14.09277
551.4822, 14.34984
551.9644, 14.57172
552.4465, 14.48819
552.9286, 14.23499
553.4107, 14.09773
553.8928, 14.13315
554.3749, 14.22135
554.8571, 14.26807
555.3392, 14.27253
555.8213, 14.22095
556.3034, 14.05995
556.7855, 13.91664
557.2676, 13.80563
557.7498, 13.73788
558.2319, 13.72217
558.7140, 13.76199
559.1961, 13.87054
559.6782, 14.10433
560.1603, 14.46663
560.6425, 14.56905
561.1246, 14.16101
561.6067, 13.85823
562.0888, 13.95638
562.5709, 14.19559
563.0530, 14.26235
563.5352, 14.07701
564.0173, 13.86427
564.4994, 13.83959
564.9815, 13.94263
565.4636, 13.97915
565.9457, 13.92891
566.4279, 13.81199
566.9100, 13.56202
567.3921, 13.27187
567.8742, 13.24466
568.3563, 13.60705
568.8384, 14.01738
569.3206, 14.46805
569.8027, 14.84912
570.2848, 14.98617
570.7669, 14.87759
571.2490, 14.70587
571.7311, 14.62218
572.2133, 14.62184
572.6954, 14.65944
573.1775, 14.80778
573.6596, 14.89216
574.1417, 14.82718
574.6238, 14.73462
575.1060, 14.72802
575.5881, 14.81479
576.0702, 14.91231
576.5523, 14.92259
577.0344, 14.89103
577.5165, 15.01753
577.9987, 15.34993
578.4808, 15.62908
578.9629, 15.72263
579.4450, 15.71367
579.9271, 15.70591
580.4092, 15.69256
580.8914, 15.74078
581.3735, 15.99009
581.8556, 16.24238
582.3377, 16.23113
582.8198, 15.98366
583.3019, 15.73456
583.7841, 15.60483
584.2662, 15.59999
584.7483, 15.74149
585.2304, 16.20529
585.7125, 16.52624
586.1946, 16.69647
586.6768, 16.74248
587.1589, 16.55968
587.6410, 16.26604
588.1231, 16.17330
