##NAMES=Meneghinite
##RRUFFID=R050444
##IDEAL CHEMISTRY=Pb^2+^_13_Cu^1+^Sb^3+^_7_S^2-^_24_
##LOCALITY=Bottino, Tucsany, Italy
##OWNER=RRUFF
##SOURCE=Peter Megaw
##DESCRIPTION=Lead-gray metallic slender prismatic and striated crystal
##STATUS=The identification of this mineral is confirmed by single-crystal X-ray diffraction and chemical analysis.
##URL=rruff.info/R050444
##MEASURED CHEMISTRY=(Pb_12.75_Sb_0.25_)_Σ=13.00_(Cu_0.73_Sb_0.13_Fe_0.01_)_Σ=0.87_Sb_7.00_S_24.00_
91.00781, 5.490186
91.48993, 5.300265
91.97205, 5.224492
92.45416, 5.237608
92.93628, 5.364633
93.41840, 5.720222
93.90051, 6.428756
94.38263, 7.186657
94.86475, 7.340817
95.34686, 6.898822
95.82898, 6.586952
96.31110, 7.284930
96.79321, 8.859552
97.27533, 9.785185
97.75745, 9.396664
98.23956, 8.133330
98.72168, 7.932887
99.20380, 8.978109
99.68591, 10.51686
100.1680, 11.80198
100.6501, 12.79697
101.1323, 13.65563
101.6144, 14.35593
102.0965, 14.87022
102.5786, 15.55288
103.0607, 16.40369
103.5428, 17.42719
104.0250, 18.67620
104.5071, 20.23661
104.9892, 21.85790
105.4713, 23.35846
105.9534, 24.32508
106.4355, 26.11370
106.9177, 29.41994
107.3998, 33.57795
107.8819, 36.57905
108.3640, 37.32695
108.8461, 37.76311
109.3282, 38.79476
109.8104, 40.86613
110.2925, 42.99452
110.7746, 45.05970
111.2567, 47.08738
111.7388, 49.37556
112.2209, 52.15123
112.7031, 55.06546
113.1852, 57.90970
113.6673, 60.92607
114.1494, 63.57274
114.6315, 65.28020
115.1136, 65.99928
115.5958, 67.65907
116.0779, 71.81908
116.5600, 76.95670
117.0421, 81.34612
117.5242, 83.63242
118.0063, 85.63656
118.4885, 88.41695
118.9706, 92.18851
119.4527, 96.06330
119.9348, 99.77559
120.4169, 103.2340
120.8990, 106.3268
121.3812, 108.6091
121.8633, 110.6563
122.3454, 113.1580
122.8275, 116.5757
123.3096, 119.5974
123.7917, 120.5479
124.2739, 119.9383
124.7560, 119.6451
125.2381, 121.1871
125.7202, 123.8036
126.2023, 126.1493
126.6844, 127.8067
127.1666, 129.2600
127.6487, 131.1899
128.1308, 133.5865
128.6129, 136.1154
129.0950, 138.5797
129.5771, 140.9858
130.0593, 143.3751
130.5414, 145.7810
131.0235, 148.1481
131.5056, 150.1587
131.9877, 151.2384
132.4698, 151.4797
132.9520, 151.6175
133.4341, 151.6711
133.9162, 152.0513
134.3983, 152.9827
134.8804, 154.3887
135.3625, 155.7600
135.8447, 157.1148
136.3268, 158.4205
136.8089, 159.5956
137.2910, 160.6026
137.7731, 161.7416
138.2552, 163.3808
138.7374, 165.6959
139.2195, 166.9753
139.7016, 167.0793
140.1837, 166.3278
140.6658, 165.2089
141.1479, 163.3692
141.6301, 161.9268
142.1122, 161.5096
142.5943, 162.6418
143.0764, 163.3114
143.5585, 163.2855
144.0406, 162.7844
144.5228, 162.5667
145.0049, 162.6049
145.4870, 162.9503
145.9691, 163.7162
146.4512, 165.7721
146.9333, 166.8235
147.4155, 166.2484
147.8976, 164.2827
148.3797, 163.1974
148.8618, 163.6134
149.3439, 164.4458
149.8260, 164.9956
150.3082, 165.3730
150.7903, 165.3538
151.2724, 164.7893
151.7545, 163.6649
152.2366, 162.6205
152.7188, 161.2458
153.2009, 160.1582
153.6830, 159.8707
154.1651, 161.4657
154.6472, 162.8413
155.1293, 163.3365
155.6115, 162.7949
156.0936, 162.5832
156.5757, 163.3754
157.0578, 164.4639
157.5399, 165.0642
158.0220, 164.5101
158.5042, 163.8687
158.9863, 163.5179
159.4684, 163.5132
159.9505, 163.6759
160.4326, 164.0688
160.9147, 164.5803
161.3969, 165.0430
161.8790, 165.4806
162.3611, 165.7994
162.8432, 165.9085
163.3253, 165.7189
163.8074, 165.5570
164.2896, 165.4953
164.7717, 165.5613
165.2538, 165.8127
165.7359, 166.3989
166.2180, 167.1026
166.7001, 167.7918
167.1823, 168.4890
167.6644, 169.0386
168.1465, 169.2151
168.6286, 169.1376
169.1107, 169.1429
169.5928, 169.7454
170.0750, 170.3882
170.5571, 170.4369
171.0392, 169.4698
171.5213, 168.3457
172.0034, 167.6443
172.4855, 167.3573
172.9677, 167.4562
173.4498, 168.1930
173.9319, 169.2370
174.4140, 170.1146
174.8961, 170.6614
175.3782, 171.0419
175.8604, 171.4672
176.3425, 171.9237
176.8246, 172.2828
177.3067, 172.3427
177.7888, 172.2435
178.2709, 172.2920
178.7531, 172.7565
179.2352, 173.2756
179.7173, 173.1032
180.1994, 172.2721
180.6815, 171.6358
181.1636, 172.3550
181.6458, 173.9529
182.1279, 174.9567
182.6100, 174.5181
183.0921, 173.3540
183.5742, 172.8706
184.0563, 173.0868
184.5385, 173.7411
185.0206, 174.8192
185.5027, 176.2131
185.9848, 177.3539
186.4669, 178.0334
186.9490, 178.3193
187.4312, 178.3262
187.9133, 178.0077
188.3954, 177.7118
188.8775, 177.8565
189.3596, 178.4098
189.8417, 179.0997
190.3239, 179.9245
190.8060, 180.8283
191.2881, 181.4448
191.7702, 181.7236
192.2523, 181.8959
192.7344, 182.2031
193.2166, 182.6461
193.6987, 183.2753
194.1808, 184.4447
194.6629, 186.0295
195.1450, 186.3605
195.6271, 185.1052
196.1093, 183.4468
196.5914, 183.2670
197.0735, 184.6826
197.5556, 186.1038
198.0377, 186.7368
198.5198, 186.5785
199.0020, 186.8941
199.4841, 187.8554
199.9662, 188.9840
200.4483, 189.4899
200.9304, 189.3003
201.4125, 188.9288
201.8947, 188.4604
202.3768, 187.8490
202.8589, 187.7843
203.3410, 188.4280
203.8231, 189.4141
204.3052, 190.1173
204.7874, 190.5590
205.2695, 190.6646
205.7516, 190.3340
206.2337, 189.5060
206.7158, 188.6404
207.1979, 187.6839
207.6801, 186.7448
208.1622, 186.1134
208.6443, 185.8952
209.1264, 185.6472
209.6085, 185.0574
210.0906, 183.9360
210.5728, 183.4041
211.0549, 183.7063
211.5370, 184.4450
212.0191, 184.7436
212.5012, 184.5721
212.9833, 184.0499
213.4655, 183.1040
213.9476, 181.4799
214.4297, 180.4002
214.9118, 180.0712
215.3939, 180.2076
215.8760, 180.1092
216.3581, 179.7470
216.8403, 179.2104
217.3224, 178.4739
217.8045, 177.3541
218.2866, 176.6305
218.7687, 176.5791
219.2508, 176.8322
219.7330, 176.3056
220.2151, 174.5384
220.6972, 172.8353
221.1793, 171.8613
221.6614, 171.8518
222.1435, 171.9196
222.6257, 172.1051
223.1078, 172.3386
223.5899, 172.4641
224.0720, 172.5928
224.5541, 172.4357
225.0362, 171.7223
225.5184, 169.9112
226.0005, 168.9500
226.4826, 169.1797
226.9647, 170.1987
227.4468, 170.9355
227.9289, 171.4477
228.4111, 171.5886
228.8932, 171.1813
229.3753, 169.7457
229.8574, 168.9468
230.3395, 169.0964
230.8216, 169.8357
231.3038, 170.1490
231.7859, 169.7301
232.2680, 169.3296
232.7501, 169.2722
233.2322, 169.6122
233.7143, 170.1941
234.1965, 171.2041
234.6786, 172.4184
235.1607, 173.2230
235.6428, 173.5015
236.1249, 173.5339
236.6070, 173.4323
237.0892, 173.1863
237.5713, 172.7988
238.0534, 172.1180
238.5355, 171.3328
239.0176, 170.9718
239.4997, 171.3405
239.9819, 171.6868
240.4640, 171.6154
240.9461, 170.6963
241.4282, 170.4276
241.9103, 171.2063
242.3924, 172.5111
242.8746, 173.0588
243.3567, 172.4728
243.8388, 171.7054
244.3209, 171.1021
244.8030, 170.6602
245.2851, 170.4265
245.7673, 170.5090
246.2494, 170.7582
246.7315, 170.8415
247.2136, 170.6640
247.6957, 170.4749
248.1778, 170.4001
248.6600, 170.5530
249.1421, 170.4580
249.6242, 169.9780
250.1063, 169.3220
250.5884, 168.9161
251.0705, 168.9201
251.5527, 168.8982
252.0348, 168.6856
252.5169, 168.2265
252.9990, 167.7542
253.4811, 167.2081
253.9632, 166.6810
254.4454, 166.3479
254.9275, 166.2503
255.4096, 166.2628
255.8917, 166.3928
256.3738, 166.7115
256.8560, 166.8064
257.3381, 166.6226
257.8202, 166.2633
258.3023, 165.8949
258.7844, 165.5898
259.2665, 165.1225
259.7487, 164.3466
260.2308, 163.1812
260.7129, 162.3247
261.1950, 161.9060
261.6771, 161.6569
262.1592, 161.2149
262.6414, 160.5268
263.1235, 159.7846
263.6056, 159.0222
264.0877, 158.2244
264.5698, 157.5459
265.0519, 157.0267
265.5341, 156.5749
266.0162, 156.0999
266.4983, 155.6349
266.9804, 155.0568
267.4625, 154.3367
267.9446, 153.4812
268.4268, 152.3968
268.9089, 150.9418
269.3910, 149.5454
269.8731, 148.7699
270.3552, 148.8548
270.8373, 148.5948
271.3195, 147.6234
271.8016, 146.0212
272.2837, 144.5832
272.7658, 143.2695
273.2479, 142.1705
273.7300, 141.4668
274.2122, 141.2684
274.6943, 140.7770
275.1764, 139.7375
275.6585, 138.2849
276.1406, 137.1572
276.6227, 136.4294
277.1049, 135.7823
277.5870, 134.9417
278.0691, 133.8877
278.5512, 132.8941
279.0333, 132.0478
279.5154, 131.2700
279.9976, 130.2614
280.4797, 128.9768
280.9618, 127.6782
281.4439, 126.4806
281.9260, 125.3885
282.4081, 124.4622
282.8903, 123.6765
283.3724, 123.0947
283.8545, 123.1724
284.3366, 124.0227
284.8187, 124.3272
285.3008, 122.6641
285.7830, 119.2678
286.2651, 117.1979
286.7472, 116.9515
287.2293, 117.6717
287.7114, 117.8646
288.1935, 117.5339
288.6757, 117.1425
289.1578, 117.0835
289.6399, 117.2321
290.1220, 116.8493
290.6041, 115.7700
291.0862, 114.5562
291.5684, 114.2149
292.0505, 114.6305
292.5326, 114.7355
293.0147, 113.7327
293.4968, 112.0101
293.9789, 110.6819
294.4611, 109.8040
294.9432, 109.2321
295.4253, 108.8227
295.9074, 108.5859
296.3895, 108.5683
296.8716, 108.8691
297.3538, 109.3842
297.8359, 110.0281
298.3180, 110.8239
298.8001, 111.3722
299.2822, 110.9933
299.7643, 110.0475
300.2465, 109.5005
300.7286, 110.0631
301.2107, 110.9609
301.6928, 111.0264
302.1749, 110.3096
302.6570, 109.5805
303.1392, 109.5818
303.6213, 109.9697
304.1034, 110.1180
304.5855, 109.5934
305.0676, 109.0618
305.5497, 109.3290
306.0319, 110.2578
306.5140, 111.1494
306.9961, 111.5402
307.4782, 111.6286
307.9603, 111.6125
308.4424, 111.4263
308.9246, 111.3512
309.4067, 111.7864
309.8888, 112.5400
310.3709, 113.0731
310.8530, 112.7663
311.3351, 112.2868
311.8173, 112.2500
312.2994, 112.8806
312.7815, 113.5597
313.2636, 114.0845
313.7457, 114.3887
314.2278, 114.3484
314.7100, 113.4928
315.1921, 112.5799
315.6742, 112.0811
316.1563, 112.0898
316.6384, 112.2337
317.1205, 112.3792
317.6027, 112.5631
318.0848, 112.8314
318.5669, 113.4148
319.0490, 113.8921
319.5311, 114.0242
320.0132, 113.7858
320.4954, 113.6208
320.9775, 113.8262
321.4596, 114.0754
321.9417, 114.0876
322.4238, 113.3624
322.9059, 112.8538
323.3881, 112.9111
323.8702, 113.4810
324.3523, 113.8888
324.8344, 113.9538
325.3165, 113.8860
325.7986, 113.8113
326.2808, 113.7826
326.7629, 113.6986
327.2450, 113.5062
327.7271, 113.2421
328.2092, 113.0506
328.6913, 113.0776
329.1735, 113.0502
329.6556, 112.8593
330.1377, 112.4520
330.6198, 111.9735
331.1019, 111.3403
331.5840, 110.6605
332.0662, 110.1400
332.5483, 109.9157
333.0304, 109.6458
333.5125, 109.2026
333.9946, 108.5262
334.4767, 108.0037
334.9589, 107.8503
335.4410, 107.6472
335.9231, 106.7278
336.4052, 104.6593
336.8873, 103.0599
337.3694, 102.5004
337.8516, 102.9032
338.3336, 102.8255
338.8158, 102.1417
339.2979, 101.2464
339.7800, 100.4476
340.2621, 99.75282
340.7442, 99.16158
341.2263, 98.70066
341.7085, 98.34065
342.1906, 98.06248
342.6727, 97.89647
343.1548, 97.60890
343.6369, 97.00002
344.1190, 96.09032
344.6012, 95.05663
345.0833, 93.80776
345.5654, 92.66729
346.0475, 92.37068
346.5296, 92.86571
347.0117, 93.33109
347.4939, 93.21207
347.9760, 92.70558
348.4581, 92.50510
348.9402, 92.69846
349.4223, 92.87490
349.9044, 92.56001
350.3866, 91.83696
350.8687, 90.98881
351.3508, 89.92448
351.8329, 88.88860
352.3150, 88.27370
352.7971, 88.07275
353.2793, 88.08652
353.7614, 88.39725
354.2435, 88.76915
354.7256, 88.79195
355.2077, 88.11839
355.6898, 87.34370
356.1720, 87.02868
356.6541, 87.08109
357.1362, 87.10296
357.6183, 86.94314
358.1004, 86.60815
358.5826, 86.02831
359.0647, 85.01594
359.5468, 84.21033
360.0289, 84.03374
360.5110, 84.30070
360.9931, 84.65971
361.4753, 85.33877
361.9574, 85.78069
362.4395, 85.57405
362.9216, 84.56126
363.4037, 83.69569
363.8858, 83.25613
364.3680, 83.10860
364.8501, 83.11217
365.3322, 83.43331
365.8143, 83.70479
366.2964, 83.81020
366.7785, 83.75340
367.2607, 83.73569
367.7428, 83.87536
368.2249, 83.99588
368.7070, 83.98766
369.1891, 83.69026
369.6712, 83.48052
370.1534, 83.44957
370.6355, 83.51466
371.1176, 83.39474
371.5997, 82.82991
372.0818, 82.41234
372.5639, 82.42538
373.0461, 83.06922
373.5282, 83.46227
374.0103, 83.47453
374.4924, 83.36223
374.9745, 83.57733
375.4566, 84.29551
375.9388, 84.78651
376.4209, 84.77664
376.9030, 84.30064
377.3851, 83.93220
377.8672, 83.68608
378.3493, 83.49162
378.8315, 83.24101
379.3136, 82.92928
379.7957, 82.84685
380.2778, 83.15223
380.7599, 83.61518
381.2420, 83.59971
381.7242, 83.10650
382.2063, 82.63403
382.6884, 82.59761
383.1705, 82.85955
383.6526, 82.93033
384.1347, 82.73562
384.6169, 82.45274
385.0990, 82.23457
385.5811, 82.09855
386.0632, 82.11665
386.5453, 82.44334
387.0274, 82.88776
387.5096, 83.22128
387.9917, 83.43903
388.4738, 83.53879
388.9559, 83.48677
389.4380, 83.32387
389.9201, 83.08918
390.4023, 82.66394
390.8844, 82.32762
391.3665, 82.28004
391.8486, 82.48174
392.3307, 82.79008
392.8128, 83.45921
393.2950, 83.99693
393.7771, 83.98209
394.2592, 83.06342
394.7413, 82.35664
395.2234, 82.40100
395.7055, 82.84647
396.1877, 83.15242
396.6698, 83.13735
397.1519, 83.02429
397.6340, 82.85155
398.1161, 82.61111
398.5982, 82.41406
399.0804, 82.32847
399.5625, 82.25409
400.0446, 82.11983
400.5267, 81.90773
401.0088, 81.65273
401.4909, 81.22707
401.9731, 80.75029
402.4552, 80.74521
402.9373, 81.41299
403.4194, 82.22598
403.9015, 83.00946
404.3836, 83.86514
404.8658, 84.27589
405.3479, 84.19257
405.8300, 83.72298
406.3121, 82.79404
406.7942, 81.25317
407.2763, 80.34750
407.7585, 80.73720
408.2406, 82.12605
408.7227, 82.82162
409.2048, 82.77218
409.6869, 82.44846
410.1690, 82.19685
410.6512, 82.01250
411.1333, 81.86681
411.6154, 81.76525
412.0975, 81.68104
412.5796, 81.60519
413.0617, 81.52295
413.5439, 81.36018
414.0260, 80.79722
414.5081, 80.23276
414.9902, 80.38948
415.4723, 81.38789
415.9544, 82.35560
416.4366, 82.60772
416.9187, 82.36349
417.4008, 81.95263
417.8829, 81.04689
418.3650, 80.39648
418.8471, 80.72618
419.3293, 81.83983
419.8114, 82.58421
420.2935, 82.27429
420.7756, 81.54143
421.2577, 80.76373
421.7398, 79.79141
422.2220, 79.16911
422.7041, 79.30861
423.1862, 79.82700
423.6683, 80.03448
424.1504, 79.38397
424.6325, 78.87852
425.1147, 78.80400
425.5968, 79.19962
426.0789, 79.67273
426.5610, 80.38511
427.0431, 81.02911
427.5252, 81.33561
428.0074, 81.19074
428.4895, 80.94886
428.9716, 80.54842
429.4537, 80.11051
429.9358, 80.08932
430.4179, 80.60143
430.9001, 81.11407
431.3822, 81.34276
431.8643, 81.28323
432.3464, 81.24053
432.8285, 81.23372
433.3106, 81.18485
433.7928, 80.97865
434.2749, 80.62890
434.7570, 80.22792
435.2391, 79.68507
435.7212, 79.20284
436.2033, 79.32056
436.6855, 79.97809
437.1676, 80.57656
437.6497, 80.60695
438.1318, 80.32880
438.6139, 80.16100
439.0960, 80.21347
439.5782, 80.22158
440.0603, 79.82912
440.5424, 79.24699
441.0245, 78.87502
441.5066, 79.01991
441.9887, 79.30684
442.4709, 79.56703
442.9530, 79.78935
443.4351, 79.92244
443.9172, 79.81033
444.3993, 79.67982
444.8814, 79.70448
445.3636, 80.16696
445.8457, 80.44240
446.3278, 80.39497
446.8099, 80.10024
447.2920, 79.73830
447.7741, 79.07028
448.2563, 78.60974
448.7384, 78.55919
449.2205, 78.97649
449.7026, 79.34997
450.1847, 79.72869
450.6668, 79.99987
451.1490, 80.04021
451.6311, 79.80457
452.1132, 79.47687
452.5953, 78.96593
453.0774, 78.46492
453.5595, 78.65141
454.0417, 79.62292
454.5238, 80.37093
455.0059, 80.10872
455.4880, 79.07889
455.9701, 78.50822
456.4522, 78.44087
456.9344, 78.80037
457.4165, 79.92715
457.8986, 81.45821
458.3807, 82.31771
458.8628, 81.92311
459.3449, 80.98958
459.8271, 80.07768
460.3092, 79.25820
460.7913, 78.81084
461.2734, 79.49194
461.7555, 80.25908
462.2376, 80.02101
462.7198, 78.34203
463.2019, 77.03055
463.6840, 77.37893
464.1661, 78.42525
464.6482, 79.00555
465.1303, 78.21111
465.6125, 77.54863
466.0946, 77.48265
466.5767, 77.95580
467.0588, 78.38116
467.5409, 78.75173
468.0230, 79.03450
468.5052, 79.18288
468.9873, 79.04505
469.4694, 79.19663
469.9515, 79.91037
470.4336, 80.67903
470.9157, 80.70009
471.3979, 79.72331
471.8800, 78.85394
472.3621, 78.36951
472.8442, 78.21638
473.3263, 78.13198
473.8084, 78.11617
474.2906, 78.16858
474.7727, 78.34016
475.2548, 78.59399
475.7369, 78.78217
476.2190, 78.91255
476.7011, 78.88087
477.1833, 78.31437
477.6654, 77.45707
478.1475, 76.98362
478.6296, 77.51161
479.1117, 78.32411
479.5938, 78.71696
480.0760, 78.73150
480.5581, 78.63642
481.0402, 78.50133
481.5223, 78.37337
482.0044, 78.25927
482.4865, 78.08667
482.9687, 78.13368
483.4508, 78.82657
483.9329, 79.71111
484.4150, 80.13189
484.8971, 79.56947
485.3792, 78.96333
485.8614, 78.46861
486.3435, 78.08684
486.8256, 77.86279
487.3077, 77.86631
487.7898, 77.94752
488.2719, 78.01445
488.7541, 78.01135
489.2362, 78.24014
489.7183, 78.91786
490.2004, 79.54167
490.6825, 79.12410
491.1646, 77.51232
491.6468, 76.42967
492.1289, 76.56791
492.6110, 77.48799
493.0931, 77.93885
493.5752, 77.92493
494.0573, 77.74870
494.5395, 77.57494
495.0216, 77.40495
495.5037, 77.20069
495.9858, 76.93596
496.4679, 76.78453
496.9500, 77.08954
497.4322, 77.58925
497.9143, 77.84373
498.3964, 77.37182
498.8785, 76.88448
499.3606, 76.90895
499.8427, 77.31429
500.3249, 77.48446
500.8070, 76.73412
501.2891, 76.06392
501.7712, 76.09407
502.2533, 77.25719
502.7354, 78.05464
503.2176, 78.22109
503.6997, 78.04364
504.1818, 77.78511
504.6639, 77.36073
505.1460, 77.01118
505.6281, 76.78268
506.1103, 76.65006
506.5924, 76.49580
507.0745, 76.26984
507.5566, 76.19522
508.0387, 76.56520
508.5208, 77.33200
509.0030, 77.38078
509.4851, 76.59312
509.9672, 75.75417
510.4493, 75.82907
510.9314, 76.57042
511.4135, 77.13359
511.8957, 77.25991
512.3778, 77.19820
512.8599, 77.27092
513.3420, 77.40054
513.8242, 77.35809
514.3063, 76.72073
514.7884, 76.08013
515.2705, 75.99289
515.7526, 76.49895
516.2347, 76.90527
516.7169, 76.83559
517.1990, 76.61589
517.6811, 76.50227
518.1632, 76.87283
518.6453, 76.89015
519.1274, 76.17923
519.6096, 75.11149
520.0917, 74.35505
520.5738, 73.90722
521.0559, 73.79494
521.5380, 74.19380
522.0201, 75.04753
522.5023, 75.23737
522.9844, 74.50539
523.4665, 73.84630
523.9486, 74.21085
524.4307, 75.52495
524.9128, 76.08867
525.3950, 75.62811
525.8771, 74.88350
526.3592, 74.87148
526.8413, 75.41930
527.3234, 75.89360
527.8055, 75.96790
528.2877, 75.94104
528.7698, 76.23575
529.2519, 76.76106
529.7340, 77.14263
530.2161, 77.12095
530.6982, 76.90686
531.1804, 76.52741
531.6625, 75.89641
532.1446, 75.70940
532.6267, 76.82472
533.1088, 78.18427
533.5909, 78.79582
534.0731, 77.89048
534.5552, 77.02370
535.0373, 76.18419
535.5194, 75.47801
536.0015, 75.19192
536.4836, 75.58781
536.9658, 75.86281
537.4479, 75.62414
537.9300, 74.91386
538.4121, 74.77592
538.8942, 75.31948
539.3763, 75.97954
539.8585, 76.27815
540.3406, 76.26917
540.8227, 76.28867
541.3048, 76.40997
541.7869, 76.45370
542.2690, 76.11829
542.7512, 75.52625
543.2333, 74.98524
543.7154, 74.66719
544.1975, 74.41530
544.6796, 73.98299
545.1617, 73.46084
545.6439, 73.26699
546.1260, 73.97860
546.6081, 74.77950
547.0902, 75.20285
547.5723, 75.14553
548.0544, 74.91389
548.5366, 74.12572
549.0187, 73.42512
549.5008, 73.41759
549.9829, 74.73991
550.4650, 75.57109
550.9471, 75.55941
551.4293, 75.07856
551.9114, 75.08436
552.3935, 75.72153
552.8756, 76.13818
553.3577, 75.90483
553.8398, 75.18901
554.3220, 74.74754
554.8041, 74.58351
555.2862, 74.57796
555.7683, 74.71129
556.2504, 74.92015
556.7325, 75.10468
557.2147, 75.26778
557.6968, 75.31532
558.1789, 75.06849
558.6610, 74.67816
559.1431, 74.36971
559.6252, 74.09367
560.1074, 74.04599
560.5895, 74.58610
561.0716, 75.46912
561.5537, 75.86990
562.0358, 75.14725
562.5179, 74.37796
563.0001, 73.89561
563.4822, 73.70407
563.9643, 73.80890
564.4464, 74.45723
564.9285, 75.05491
565.4106, 75.09100
565.8928, 74.45181
566.3749, 74.01806
566.8570, 73.89458
567.3391, 73.90308
567.8212, 73.67229
568.3033, 73.26582
568.7855, 73.20482
569.2676, 73.92338
569.7497, 74.81960
570.2318, 74.99309
570.7139, 74.54153
571.1960, 73.90760
571.6782, 72.98367
572.1603, 72.23479
572.6424, 72.17516
573.1245, 72.89069
573.6066, 73.53059
574.0887, 73.71992
574.5709, 73.73671
575.0530, 73.80638
575.5351, 74.17437
576.0172, 74.27090
576.4993, 73.88338
576.9814, 73.31380
577.4636, 73.08678
577.9457, 73.37048
578.4278, 73.53931
578.9099, 73.38558
579.3920, 73.02440
579.8741, 72.90844
580.3563, 73.05251
580.8384, 73.25182
581.3205, 73.42329
581.8026, 73.55452
582.2847, 73.56784
582.7668, 73.45852
583.2490, 73.37608
583.7311, 73.42290
584.2132, 73.57922
584.6953, 73.86246
585.1774, 74.39369
585.6595, 74.76689
