##NAMES=Meneghinite
##RRUFFID=R050444
##IDEAL CHEMISTRY=Pb^2+^_13_Cu^1+^Sb^3+^_7_S^2-^_24_
##LOCALITY=Bottino, Tucsany, Italy
##OWNER=RRUFF
##SOURCE=Peter Megaw
##DESCRIPTION=Lead-gray metallic slender prismatic and striated crystal
##STATUS=The identification of this mineral is confirmed by single-crystal X-ray diffraction and chemical analysis.
##URL=rruff.info/R050444
##MEASURED CHEMISTRY=(Pb_12.75_Sb_0.25_)_Σ=13.00_(Cu_0.73_Sb_0.13_Fe_0.01_)_Σ=0.87_Sb_7.00_S_24.00_
93.78320, 109.9944
94.26532, 109.6706
94.74744, 110.0401
95.22955, 110.8325
95.71167, 112.0334
96.19379, 113.0748
96.67590, 114.3039
97.15802, 115.1232
97.64014, 115.2731
98.12225, 114.9982
98.60437, 114.7810
99.08649, 114.9305
99.56860, 115.0564
100.0507, 114.5098
100.5328, 112.9698
101.0150, 111.3708
101.4971, 110.4497
101.9792, 110.2243
102.4613, 110.0621
102.9434, 109.6843
103.4255, 109.2599
103.9077, 108.8490
104.3898, 108.4161
104.8719, 108.1350
105.3540, 108.4389
105.8361, 109.8251
106.3182, 110.9311
106.8004, 111.4747
107.2825, 111.6105
107.7646, 111.4346
108.2467, 110.9471
108.7288, 110.2055
109.2109, 110.0678
109.6931, 111.2669
110.1752, 112.3193
110.6573, 112.6664
111.1394, 112.4897
111.6215, 112.3634
112.1036, 112.8101
112.5858, 113.9411
113.0679, 114.8564
113.5500, 115.4036
114.0321, 115.8585
114.5142, 116.4697
114.9964, 117.2757
115.4785, 118.0280
115.9606, 118.4317
116.4427, 118.5112
116.9248, 118.3651
117.4069, 117.5883
117.8891, 116.6254
118.3712, 116.5069
118.8533, 117.8154
119.3354, 119.4344
119.8175, 120.2363
120.2996, 120.2939
120.7818, 120.2976
121.2639, 120.7977
121.7460, 121.8150
122.2281, 122.7385
122.7102, 123.4595
123.1923, 124.0462
123.6745, 124.4540
124.1566, 124.6937
124.6387, 124.9074
125.1208, 125.3461
125.6029, 126.2452
126.0850, 126.8530
126.5672, 126.7861
127.0493, 126.6336
127.5314, 126.9193
128.0135, 127.8459
128.4956, 129.1715
128.9777, 130.2378
129.4599, 130.8974
129.9420, 131.4205
130.4241, 131.7704
130.9062, 132.0054
131.3883, 132.1705
131.8705, 132.2650
132.3526, 132.3461
132.8347, 132.7370
133.3168, 133.5783
133.7989, 134.5094
134.2810, 135.5578
134.7632, 136.6501
135.2453, 137.3868
135.7274, 137.2959
136.2095, 136.6655
136.6916, 136.5632
137.1737, 137.4481
137.6559, 138.6367
138.1380, 139.4398
138.6201, 139.8048
139.1022, 140.0316
139.5843, 140.0892
140.0664, 140.1624
140.5486, 140.5918
141.0307, 141.8401
141.5128, 143.5014
141.9949, 144.3121
142.4770, 143.8322
142.9591, 143.0822
143.4413, 142.4823
143.9234, 141.9752
144.4055, 141.4259
144.8876, 140.6936
145.3697, 139.7769
145.8518, 139.1067
146.3340, 138.8861
146.8161, 138.7557
147.2982, 138.6082
147.7803, 138.4552
148.2624, 138.4007
148.7445, 138.6258
149.2267, 139.3897
149.7088, 139.2545
150.1909, 137.5797
150.6730, 135.7304
151.1551, 134.4417
151.6372, 133.8174
152.1194, 133.5381
152.6015, 133.2415
153.0836, 132.9855
153.5657, 132.4854
154.0478, 131.5276
154.5299, 130.4267
155.0121, 129.4629
155.4942, 128.7029
155.9763, 128.1291
156.4584, 127.7760
156.9405, 127.6450
157.4227, 127.5606
157.9048, 127.4350
158.3869, 127.3249
158.8690, 127.4117
159.3511, 127.8903
159.8332, 128.3330
160.3154, 128.0912
160.7975, 127.1367
161.2796, 126.3789
161.7617, 126.5642
162.2438, 127.6121
162.7259, 128.4471
163.2081, 128.7464
163.6902, 128.7875
164.1723, 128.7284
164.6544, 128.5875
165.1365, 128.4524
165.6186, 128.4429
166.1008, 128.6048
166.5829, 128.6876
167.0650, 128.5948
167.5471, 128.4492
168.0292, 128.2715
168.5113, 128.0800
168.9935, 127.9664
169.4756, 128.1214
169.9577, 128.7949
170.4398, 129.2571
170.9219, 129.2300
171.4040, 129.1230
171.8862, 129.3112
172.3683, 129.9264
172.8504, 130.7777
173.3325, 131.4170
173.8146, 131.5770
174.2967, 131.8176
174.7789, 132.2174
175.2610, 132.6847
175.7431, 133.0811
176.2252, 133.3410
176.7073, 133.5466
177.1894, 133.9793
177.6716, 134.7182
178.1537, 135.5530
178.6358, 136.4798
179.1179, 137.4772
179.6000, 138.5470
180.0821, 139.7231
180.5643, 140.9168
181.0464, 141.8506
181.5285, 142.3832
182.0106, 142.9256
182.4927, 143.6065
182.9749, 144.4378
183.4570, 145.5002
183.9391, 146.9410
184.4212, 148.5837
184.9033, 149.9929
185.3854, 151.0038
185.8676, 152.0431
186.3497, 153.5884
186.8318, 155.6603
187.3139, 157.5029
187.7960, 158.3505
188.2781, 158.9892
188.7603, 160.3917
189.2424, 163.0023
189.7245, 165.8535
190.2066, 167.5899
190.6887, 167.9009
191.1708, 168.2214
191.6530, 168.9481
192.1351, 169.9623
192.6172, 171.1969
193.0993, 172.6233
193.5814, 174.2567
194.0635, 176.2062
194.5457, 178.8454
195.0278, 181.0181
195.5099, 182.3961
195.9920, 183.3175
196.4741, 184.0411
196.9562, 184.6696
197.4384, 185.2731
197.9205, 186.0695
198.4026, 187.2147
198.8847, 188.3548
199.3668, 189.5820
199.8489, 190.7342
200.3311, 191.6158
200.8132, 192.1248
201.2953, 192.3359
201.7774, 192.5401
202.2595, 192.7215
202.7416, 192.9148
203.2238, 193.2390
203.7059, 193.5538
204.1880, 193.6523
204.6701, 193.4147
205.1522, 192.9112
205.6344, 192.4499
206.1165, 192.2669
206.5986, 191.8509
207.0807, 191.0483
207.5628, 189.9385
208.0449, 188.6844
208.5271, 187.3871
209.0092, 185.9826
209.4913, 184.2152
209.9734, 181.9468
210.4555, 179.5773
210.9376, 177.3495
211.4198, 175.1529
211.9019, 172.5747
212.3840, 169.2616
212.8661, 165.6019
213.3482, 162.6978
213.8303, 160.9987
214.3125, 159.2923
214.7946, 156.8357
215.2767, 153.7500
215.7588, 150.7674
216.2409, 148.2728
216.7230, 146.0190
217.2052, 143.4275
217.6873, 140.2779
218.1694, 137.2847
218.6515, 135.1115
219.1336, 133.7199
219.6157, 132.3117
220.0979, 130.4230
220.5800, 128.4793
221.0621, 126.9869
221.5442, 126.0781
222.0263, 125.3007
222.5084, 124.1571
222.9906, 122.5935
223.4727, 121.1993
223.9548, 120.2409
224.4369, 119.4910
224.9190, 118.7495
225.4011, 117.9655
225.8833, 117.3775
226.3654, 117.4380
226.8475, 118.3751
227.3296, 118.8510
227.8117, 118.0607
228.2938, 117.0530
228.7760, 116.4457
229.2581, 116.3676
229.7402, 116.5778
230.2223, 116.7787
230.7044, 116.9631
231.1866, 117.1634
231.6687, 117.4788
232.1508, 117.7447
232.6329, 117.7167
233.1150, 117.4087
233.5971, 117.1985
234.0793, 117.7449
234.5614, 119.6400
235.0435, 120.8031
235.5256, 120.6867
236.0077, 120.3125
236.4898, 120.2881
236.9720, 120.7235
237.4541, 121.3494
237.9362, 121.8111
238.4183, 122.0593
238.9004, 122.2388
239.3825, 122.1937
239.8647, 122.2039
240.3468, 122.4840
240.8289, 123.0431
241.3110, 123.7071
241.7931, 124.2810
242.2752, 124.7743
242.7574, 125.1018
243.2395, 124.9553
243.7216, 124.8940
244.2037, 125.3802
244.6858, 126.4111
245.1679, 127.5542
245.6501, 128.3288
246.1322, 128.6270
246.6143, 128.9304
247.0964, 129.3442
247.5785, 129.6867
248.0606, 129.7586
248.5428, 129.5821
249.0249, 129.4231
249.5070, 129.5441
249.9891, 129.9992
250.4712, 130.4426
250.9533, 130.8394
251.4355, 131.2537
251.9176, 131.8109
252.3997, 132.4833
252.8818, 133.0242
253.3639, 133.1941
253.8460, 132.9765
254.3282, 132.8447
254.8103, 132.8202
255.2924, 132.8609
255.7745, 132.9296
256.2566, 133.0296
256.7387, 133.2169
257.2209, 133.5876
257.7030, 134.0860
258.1851, 134.3811
258.6672, 134.3887
259.1493, 134.2601
259.6314, 134.0079
260.1136, 133.6581
260.5957, 133.4418
261.0778, 133.5663
261.5599, 133.9094
262.0420, 134.0781
262.5241, 134.0831
263.0063, 133.8965
263.4884, 133.3508
263.9705, 132.5015
264.4526, 131.8634
264.9347, 131.8307
265.4168, 132.0635
265.8990, 131.9259
266.3811, 131.3474
266.8632, 130.5326
267.3453, 129.5836
267.8275, 128.5094
268.3096, 127.3598
268.7917, 126.1859
269.2738, 124.9055
269.7559, 123.3959
270.2380, 121.6018
270.7202, 119.8739
271.2023, 118.5470
271.6844, 117.5536
272.1665, 116.3949
272.6486, 114.8649
273.1307, 113.2131
273.6129, 111.7126
274.0950, 110.3535
274.5771, 108.9648
275.0592, 107.3605
275.5413, 105.5904
276.0234, 103.9961
276.5056, 102.7702
276.9877, 101.5311
277.4698, 99.89675
277.9519, 97.95520
278.4340, 96.13702
278.9161, 94.82396
279.3983, 93.88266
279.8804, 92.66808
280.3625, 91.03216
280.8446, 89.29031
281.3267, 87.57304
281.8088, 85.91154
282.2910, 84.37473
282.7731, 83.10838
283.2552, 81.99648
283.7373, 80.60110
284.2194, 78.68948
284.7015, 76.93896
285.1837, 75.60892
285.6658, 74.61636
286.1479, 73.90677
286.6300, 73.62547
287.1121, 73.45078
287.5942, 72.50330
288.0764, 70.27821
288.5585, 68.48300
289.0406, 67.93407
289.5227, 68.01472
290.0048, 68.13561
290.4869, 68.08897
290.9691, 68.00072
291.4512, 68.14104
291.9333, 68.64431
292.4154, 68.94389
292.8975, 68.58846
293.3796, 68.15300
293.8618, 68.12283
294.3439, 68.62064
294.8260, 69.30009
295.3081, 69.72323
295.7902, 69.84644
296.2723, 69.91794
296.7545, 69.64287
297.2366, 69.56883
297.7187, 70.06086
298.2008, 71.13089
298.6829, 72.50263
299.1650, 73.90623
299.6472, 75.33671
300.1293, 76.87744
300.6114, 78.81457
301.0935, 80.59570
301.5756, 81.91287
302.0577, 82.83173
302.5399, 83.63999
303.0220, 84.50874
303.5041, 85.44044
303.9862, 86.54018
304.4683, 87.79167
304.9504, 89.26759
305.4326, 91.14589
305.9147, 93.24134
306.3968, 95.24249
306.8789, 96.98570
307.3610, 98.47785
307.8431, 99.65489
308.3253, 100.1217
308.8074, 100.9133
309.2895, 102.5885
309.7716, 104.6089
310.2537, 106.3325
310.7358, 107.4865
311.2180, 108.2073
311.7001, 108.7560
312.1822, 109.0629
312.6643, 109.3529
313.1464, 109.6166
313.6285, 109.9136
314.1107, 110.3213
314.5928, 110.8551
315.0749, 111.4172
315.5570, 111.8498
316.0392, 112.1037
316.5213, 112.4062
317.0034, 112.7737
317.4855, 113.2025
317.9676, 113.7116
318.4497, 114.2927
318.9319, 114.9001
319.4140, 115.4092
319.8961, 115.7701
320.3782, 116.5190
320.8603, 117.9609
321.3424, 119.5376
321.8246, 120.9899
322.3067, 122.3974
322.7888, 124.0257
323.2709, 126.1401
323.7530, 128.6483
324.2351, 130.7941
324.7173, 132.4517
325.1994, 133.8904
325.6815, 135.2356
326.1636, 136.4415
326.6457, 137.3789
327.1278, 137.9055
327.6100, 138.3185
328.0921, 139.4835
328.5742, 142.0305
329.0563, 143.9493
329.5384, 144.5578
330.0205, 144.5425
330.5027, 144.3745
330.9848, 144.1935
331.4669, 144.0768
331.9490, 144.2073
332.4311, 144.7023
332.9132, 144.9289
333.3954, 144.7590
333.8775, 144.3085
334.3596, 143.5928
334.8417, 142.6274
335.3238, 141.4606
335.8059, 140.1018
336.2881, 138.5466
336.7702, 137.0027
337.2523, 135.8744
337.7344, 134.2590
338.2165, 131.6061
338.6986, 128.1780
339.1808, 124.5684
339.6629, 121.1138
340.1450, 117.7620
340.6271, 114.3201
341.1092, 110.8732
341.5913, 107.1642
342.0735, 102.9721
342.5556, 98.53853
343.0377, 94.08229
343.5198, 89.63027
344.0019, 85.34383
344.4840, 81.58199
344.9662, 78.43172
345.4483, 75.31222
345.9304, 71.99236
346.4125, 68.66573
346.8946, 65.44052
347.3767, 62.31503
347.8589, 59.40278
348.3410, 56.88320
348.8231, 54.73779
349.3052, 52.60374
349.7873, 50.25866
350.2694, 48.12118
350.7516, 46.58452
351.2337, 45.52239
351.7158, 44.42641
352.1979, 42.90348
352.6800, 41.09882
353.1621, 39.48855
353.6443, 38.08039
354.1264, 36.87457
354.6085, 35.87421
355.0906, 35.05927
355.5727, 34.46592
356.0548, 34.24894
356.5370, 34.08591
357.0191, 33.46323
357.5012, 32.33395
357.9833, 31.31073
358.4654, 30.69792
358.9475, 30.30317
359.4297, 29.91689
359.9118, 29.52862
360.3939, 29.10923
360.8760, 28.60830
361.3581, 28.04816
361.8402, 27.50924
362.3224, 26.94922
362.8045, 26.52395
363.2866, 26.48930
363.7687, 26.79746
364.2508, 26.97619
364.7329, 26.82963
365.2151, 26.43999
365.6972, 25.84252
366.1793, 24.97613
366.6614, 24.28422
367.1436, 24.22391
367.6257, 24.61666
368.1078, 24.90527
368.5899, 25.03634
369.0720, 25.02648
369.5541, 24.79160
370.0363, 24.37655
370.5184, 24.10419
371.0005, 24.19000
371.4826, 24.45345
371.9647, 24.48438
372.4468, 24.23387
372.9290, 23.91256
373.4111, 23.46694
373.8932, 23.02900
374.3753, 22.93742
374.8574, 23.32844
375.3395, 23.76691
375.8217, 23.59996
376.3038, 22.71969
376.7859, 22.23502
377.2680, 22.62589
377.7501, 23.19778
378.2322, 23.33399
378.7144, 23.02512
379.1965, 22.65038
379.6786, 22.49032
380.1607, 22.52147
380.6428, 22.45039
381.1249, 22.14490
381.6071, 21.89854
382.0892, 21.88715
382.5713, 21.99910
383.0534, 22.00124
383.5355, 21.78525
384.0176, 21.46880
384.4998, 21.30756
384.9819, 21.45341
385.4640, 21.51166
385.9461, 21.38339
386.4282, 21.22080
386.9103, 21.16929
387.3925, 21.24110
387.8746, 21.33879
388.3567, 21.36374
388.8388, 21.31432
389.3209, 21.19716
389.8030, 20.82449
390.2852, 20.58384
390.7673, 20.80005
391.2494, 21.24985
391.7315, 21.45016
392.2136, 21.09638
392.6957, 20.37062
393.1779, 19.97902
393.6600, 20.11431
394.1421, 20.34436
394.6242, 20.85642
395.1063, 21.31165
395.5884, 21.27745
396.0706, 20.70160
396.5527, 20.05857
397.0348, 20.06517
397.5169, 20.99001
397.9990, 21.49036
398.4811, 21.24872
398.9633, 20.85248
399.4454, 20.38565
399.9275, 19.94588
400.4096, 19.70569
400.8917, 19.83524
401.3738, 20.23188
401.8560, 20.46098
402.3381, 20.50281
402.8202, 20.40117
403.3023, 20.02595
403.7844, 19.60049
404.2665, 19.35048
404.7487, 19.34394
405.2308, 19.49771
405.7129, 19.78800
406.1950, 20.23420
406.6771, 20.49421
407.1592, 20.49420
407.6414, 20.28337
408.1235, 19.75831
408.6056, 19.00742
409.0877, 18.47691
409.5698, 18.56033
410.0519, 19.02610
410.5341, 19.34604
411.0162, 19.49575
411.4983, 19.54082
411.9804, 19.46686
412.4625, 19.32305
412.9446, 19.18644
413.4268, 19.06500
413.9089, 18.95988
414.3910, 18.91314
414.8731, 18.89850
415.3553, 18.74381
415.8374, 18.29617
416.3195, 17.85122
416.8016, 17.94572
417.2837, 18.60616
417.7658, 19.11082
418.2480, 19.24475
418.7301, 19.13678
419.2122, 18.79066
419.6943, 18.23693
420.1764, 17.92991
420.6585, 18.33360
421.1407, 19.35457
421.6228, 19.87563
422.1049, 19.73802
422.5870, 19.34058
423.0691, 18.55736
423.5512, 17.66919
424.0334, 17.25821
424.5155, 17.57861
424.9976, 18.19444
425.4797, 18.27029
425.9618, 17.32210
426.4439, 16.80099
426.9261, 16.97951
427.4082, 17.35470
427.8903, 17.60805
428.3724, 17.71257
428.8545, 17.78885
429.3366, 17.94214
429.8188, 18.16644
430.3009, 18.30764
430.7830, 18.22328
431.2651, 18.21338
431.7472, 18.37763
432.2293, 18.62197
432.7115, 18.87432
433.1936, 19.10166
433.6757, 19.21786
434.1578, 19.01323
434.6399, 18.33024
435.1220, 17.88667
435.6042, 18.07819
436.0863, 18.23229
436.5684, 17.88694
437.0505, 17.18797
437.5326, 16.67576
438.0147, 16.79974
438.4969, 17.37216
438.9790, 17.72422
439.4611, 17.78779
439.9432, 17.80077
440.4253, 17.93553
440.9074, 18.03836
441.3896, 17.88239
441.8717, 17.37128
442.3538, 16.88485
442.8359, 16.82086
443.3180, 17.10688
443.8001, 17.31129
444.2823, 17.33497
444.7644, 17.29111
445.2465, 17.30080
445.7286, 17.34571
446.2107, 17.32924
446.6928, 17.09552
447.1750, 16.87542
447.6571, 17.01216
448.1392, 17.45708
448.6213, 17.71205
449.1034, 17.45267
449.5855, 16.88237
450.0677, 16.57582
450.5498, 16.61430
451.0319, 16.68458
451.5140, 16.70011
451.9961, 16.70906
452.4782, 16.80600
452.9604, 16.99763
453.4425, 17.13759
453.9246, 17.04553
454.4067, 16.67727
454.8888, 16.55857
455.3709, 16.94085
455.8531, 17.25426
456.3352, 17.27930
456.8173, 17.09756
457.2994, 16.79592
457.7815, 16.41245
458.2636, 16.10382
458.7458, 16.25610
459.2279, 17.26939
459.7100, 17.90259
460.1921, 18.01641
460.6742, 17.88328
461.1563, 17.48151
461.6385, 16.94069
462.1206, 16.62063
462.6027, 16.92267
463.0848, 17.64978
463.5669, 17.68006
464.0491, 16.53102
464.5312, 15.66926
465.0133, 15.94102
465.4954, 16.54949
465.9775, 16.61414
466.4597, 15.89719
466.9418, 15.14932
467.4239, 15.17594
467.9060, 15.85032
468.3881, 16.30497
468.8702, 16.36313
469.3524, 16.28639
469.8345, 16.21002
470.3166, 16.16330
470.7987, 16.26120
471.2808, 16.82176
471.7629, 17.31367
472.2451, 17.07694
472.7272, 16.27268
473.2093, 15.76182
473.6914, 15.97042
474.1735, 16.53701
474.6556, 16.75017
475.1378, 16.50654
475.6199, 16.32566
476.1020, 16.39744
476.5841, 16.48692
477.0662, 16.33585
477.5483, 15.96339
478.0305, 15.60602
478.5126, 15.43873
478.9947, 15.44998
479.4768, 15.54524
479.9589, 15.92760
480.4410, 16.14493
480.9232, 16.01871
481.4053, 15.76201
481.8874, 15.58946
482.3695, 15.55393
482.8516, 15.57144
483.3337, 15.52092
483.8159, 15.37711
484.2980, 15.38994
484.7801, 15.80603
485.2622, 16.09727
485.7443, 15.99604
486.2264, 15.67337
486.7086, 15.40926
487.1907, 15.32629
487.6728, 15.32420
488.1549, 15.20476
488.6370, 14.94831
489.1191, 14.93544
489.6013, 15.44403
490.0834, 16.00542
490.5655, 16.24583
491.0476, 16.18309
491.5297, 15.93080
492.0118, 15.30674
492.4940, 14.64531
492.9761, 14.40783
493.4582, 14.58766
493.9403, 14.90007
494.4224, 15.27889
494.9045, 15.62719
495.3867, 15.65763
495.8688, 15.23295
496.3509, 14.89718
496.8330, 14.79584
497.3151, 14.83307
497.7972, 14.96179
498.2794, 15.14876
498.7615, 15.26923
499.2436, 15.18679
499.7257, 14.92466
500.2078, 14.90988
500.6899, 15.57759
501.1721, 15.96459
501.6542, 15.71046
502.1363, 15.20106
502.6184, 14.81243
503.1005, 14.65992
503.5826, 14.68852
504.0648, 14.89825
504.5469, 15.33011
505.0290, 15.52598
505.5111, 15.35146
505.9932, 15.09446
506.4753, 14.79862
506.9575, 14.51921
507.4396, 14.34396
507.9217, 14.31605
508.4038, 14.36456
508.8859, 14.45589
509.3680, 14.58037
509.8502, 14.52652
510.3323, 14.11752
510.8144, 13.72737
511.2965, 13.84391
511.7786, 14.35877
512.2607, 14.66993
512.7429, 14.36219
513.2250, 14.00264
513.7071, 14.24402
514.1892, 14.91392
514.6713, 15.20350
515.1534, 14.69335
515.6356, 13.79219
516.1177, 13.29759
516.5998, 13.34341
517.0819, 13.52460
517.5640, 14.09668
518.0461, 14.58387
518.5283, 14.59363
519.0104, 14.20905
519.4925, 13.77085
519.9746, 13.49921
520.4567, 13.35435
520.9388, 13.17659
521.4210, 12.85941
521.9031, 12.71712
522.3852, 12.96189
522.8673, 13.23741
523.3494, 13.22598
523.8315, 12.95892
524.3137, 12.76744
524.7958, 13.01499
525.2779, 13.52445
525.7600, 13.61383
526.2421, 13.15959
526.7242, 12.75168
527.2064, 12.71234
527.6885, 12.82870
528.1706, 12.78099
528.6527, 12.48681
529.1348, 12.37351
529.6169, 12.88716
530.0991, 13.64160
530.5812, 13.95413
531.0633, 13.74717
531.5454, 13.45186
532.0275, 13.37180
532.5096, 13.47628
532.9918, 13.55450
533.4739, 13.63816
533.9560, 13.66050
534.4381, 13.58265
534.9202, 13.45011
535.4023, 13.27471
535.8845, 13.07947
536.3666, 12.95938
536.8487, 13.04781
537.3308, 13.34379
537.8129, 13.36330
538.2951, 12.74848
538.7772, 12.32607
539.2593, 12.37312
539.7415, 12.64942
540.2236, 12.95069
540.7057, 13.21523
541.1878, 13.36919
541.6699, 13.25246
542.1520, 12.92102
542.6342, 12.81725
543.1163, 13.10219
543.5984, 13.29350
544.0805, 12.95332
544.5626, 12.32752
545.0447, 11.85854
545.5269, 11.60810
546.0090, 11.51520
546.4911, 11.66849
546.9732, 11.92666
547.4553, 11.96439
547.9374, 11.71044
548.4196, 11.46236
548.9017, 11.51454
549.3838, 11.87418
549.8659, 12.20651
550.3480, 12.60736
550.8301, 12.87548
551.3123, 12.88775
551.7944, 12.76597
552.2765, 12.66910
552.7586, 12.63490
553.2407, 12.56559
553.7228, 12.28904
554.2050, 11.77804
554.6871, 11.57912
555.1692, 11.92272
555.6513, 12.26008
556.1334, 12.41655
556.6155, 12.44297
557.0977, 12.38825
557.5798, 12.25579
558.0619, 12.11538
558.5440, 12.05984
559.0261, 12.05279
559.5082, 11.91506
559.9904, 11.57721
560.4725, 11.32808
560.9546, 11.52453
561.4367, 12.01131
561.9188, 12.02286
562.4009, 10.94724
562.8831, 10.15693
563.3652, 10.39406
563.8473, 11.12371
564.3294, 11.65707
564.8115, 11.83239
565.2936, 11.78533
565.7758, 11.62181
566.2579, 11.34049
566.7400, 11.18631
567.2221, 11.37021
567.7042, 11.42636
568.1863, 11.09766
568.6685, 10.70461
569.1506, 10.63504
569.6327, 10.94437
570.1148, 11.27693
570.5969, 11.23198
571.0790, 10.88339
571.5612, 10.69853
572.0433, 10.70731
572.5254, 10.81754
573.0075, 11.14393
573.4896, 11.47000
573.9717, 11.41267
574.4539, 10.80222
574.9360, 10.31578
575.4181, 10.36696
575.9002, 10.68957
576.3823, 10.97395
576.8644, 11.16745
577.3466, 11.20288
577.8287, 11.00943
578.3108, 10.63702
578.7929, 10.33130
579.2750, 10.08533
579.7571, 9.920367
580.2393, 9.900337
580.7214, 9.916625
581.2035, 9.882267
581.6856, 9.797091
582.1677, 9.706046
582.6498, 9.624019
583.1320, 9.581577
583.6141, 9.717853
584.0962, 10.10643
584.5783, 10.42483
585.0604, 10.60448
585.5425, 10.65835
586.0247, 10.63253
586.5068, 10.51701
586.9889, 10.19283
587.4710, 9.244162
587.9531, 8.299063
588.4352, 8.226454
