##NAMES=Meneghinite
##RRUFFID=R070093
##IDEAL CHEMISTRY=Pb^2+^_13_Cu^1+^Sb^3+^_7_S^2-^_24_
##LOCALITY=Kalkar Quarry, Santa Cruz, Santa Cruz County, California, USA
##OWNER=RRUFF
##SOURCE=James Shigley
##DESCRIPTION=Elongated silver-gray metallic crystals embedded in quartz and associated with calcite
##STATUS=The identification of this mineral has been confirmed by X-ray diffraction and chemical analysis
##URL=rruff.info/R070093
##MEASURED CHEMISTRY=(Pb_12.20_Sn_0.80_)_Σ=13_Cu_1.00_(Sb_6.97_As_0.03_)_Σ=7_S_24.00_
147.7700, 655.2188
148.2522, 653.7120
148.7343, 651.7686
149.2164, 653.1293
149.6985, 659.4933
150.1806, 675.4100
150.6627, 688.3777
151.1449, 698.1454
151.6270, 704.8168
152.1091, 708.6389
152.5912, 706.7855
153.0733, 704.1868
153.5554, 702.9397
154.0376, 699.9302
154.5197, 702.1841
155.0018, 714.9117
155.4839, 735.5405
155.9660, 750.6168
156.4481, 756.7195
156.9303, 756.8050
157.4124, 753.0362
157.8945, 736.8090
158.3766, 725.4962
158.8587, 728.6438
159.3408, 745.3711
159.8230, 755.4550
160.3051, 743.6984
160.7872, 724.7933
161.2693, 713.3871
161.7514, 720.2806
162.2335, 730.8248
162.7157, 737.8656
163.1978, 740.5803
163.6799, 744.5464
164.1620, 755.9629
164.6441, 769.8532
165.1262, 778.7097
165.6084, 775.0022
166.0905, 768.1050
166.5726, 764.3634
167.0547, 764.8084
167.5368, 766.9569
168.0189, 769.4267
168.5011, 772.4099
168.9832, 776.2986
169.4653, 782.5170
169.9474, 789.1760
170.4295, 794.8399
170.9116, 800.0070
171.3938, 802.4314
171.8759, 796.5139
172.3580, 784.9979
172.8401, 777.5414
173.3222, 786.0458
173.8043, 800.9372
174.2865, 807.7204
174.7686, 798.4830
175.2507, 786.1930
175.7328, 786.8934
176.2149, 799.2103
176.6970, 812.6226
177.1792, 819.5596
177.6613, 821.7114
178.1434, 822.3239
178.6255, 820.7369
179.1076, 819.2573
179.5897, 823.0279
180.0719, 832.0272
180.5540, 839.8345
181.0361, 838.0723
181.5182, 829.8248
182.0003, 825.1980
182.4824, 830.3336
182.9646, 840.8228
183.4467, 845.8293
183.9288, 844.8475
184.4109, 843.3309
184.8930, 848.3786
185.3751, 858.9116
185.8573, 868.2511
186.3394, 872.8182
186.8215, 873.8797
187.3036, 875.3383
187.7857, 876.8005
188.2678, 880.2195
188.7500, 891.5891
189.2321, 910.4867
189.7142, 923.5597
190.1963, 920.7177
190.6784, 904.6423
191.1605, 895.2364
191.6427, 893.7703
192.1248, 897.7100
192.6069, 904.8505
193.0890, 915.4724
193.5711, 923.7089
194.0532, 923.8707
194.5354, 916.5087
195.0175, 915.8099
195.4996, 924.6310
195.9817, 937.9965
196.4638, 944.9164
196.9459, 944.6686
197.4281, 942.6610
197.9102, 940.0715
198.3923, 936.5229
198.8744, 941.7672
199.3565, 960.7426
199.8386, 986.3796
200.3208, 996.8513
200.8029, 989.5654
201.2850, 976.8730
201.7671, 965.5273
202.2492, 954.8820
202.7313, 950.7112
203.2135, 955.2070
203.6956, 966.5184
204.1777, 977.3661
204.6598, 988.4395
205.1419, 997.2452
205.6240, 1001.320
206.1062, 999.8834
206.5883, 997.2814
207.0704, 993.8337
207.5525, 989.7166
208.0346, 986.1461
208.5167, 982.8856
208.9989, 980.6255
209.4810, 980.9252
209.9631, 985.5018
210.4452, 986.4794
210.9273, 980.9205
211.4094, 969.2175
211.8916, 962.1602
212.3737, 962.0960
212.8558, 963.2418
213.3379, 958.6250
213.8200, 945.0765
214.3021, 934.8518
214.7843, 931.9055
215.2664, 936.5382
215.7485, 938.2056
216.2306, 935.7159
216.7127, 931.6270
217.1948, 929.1753
217.6770, 929.7734
218.1591, 928.6981
218.6412, 923.6566
219.1233, 913.7958
219.6054, 908.9688
220.0875, 912.1053
220.5697, 917.5936
221.0518, 917.4492
221.5339, 908.4200
222.0160, 900.2031
222.4981, 895.3306
222.9802, 893.9341
223.4624, 895.5622
223.9445, 903.2936
224.4266, 911.7616
224.9087, 911.5192
225.3908, 895.9700
225.8729, 883.7786
226.3551, 882.2108
226.8372, 895.3505
227.3193, 901.9510
227.8014, 899.6826
228.2835, 892.3013
228.7657, 885.8025
229.2478, 879.1194
229.7299, 874.9354
230.2120, 873.9254
230.6941, 875.6977
231.1762, 882.6169
231.6584, 899.1086
232.1405, 918.6605
232.6226, 927.8151
233.1047, 921.5479
233.5868, 912.6456
234.0689, 905.3370
234.5511, 899.0547
235.0332, 895.9869
235.5153, 897.1054
235.9974, 901.0589
236.4795, 904.9076
236.9616, 908.0454
237.4438, 912.0167
237.9259, 917.8936
238.4080, 927.7568
238.8901, 934.2148
239.3722, 937.2687
239.8543, 936.8581
240.3365, 931.8320
240.8186, 916.4521
241.3007, 904.8021
241.7828, 903.7625
242.2649, 919.7853
242.7470, 931.1872
243.2292, 937.3509
243.7113, 939.0566
244.1934, 937.6555
244.6755, 930.0770
245.1576, 923.8950
245.6397, 923.1309
246.1219, 932.3546
246.6040, 936.3262
247.0861, 933.0674
247.5682, 925.0302
248.0503, 918.0952
248.5324, 909.9874
249.0146, 906.5386
249.4967, 911.9355
249.9788, 934.0426
250.4609, 946.9849
250.9430, 950.1216
251.4251, 944.2179
251.9073, 929.2414
252.3894, 896.3005
252.8715, 868.3739
253.3536, 857.0238
253.8357, 869.5474
254.3178, 881.1427
254.8000, 892.5342
255.2821, 902.5318
255.7642, 907.6201
256.2463, 907.1268
256.7284, 902.9581
257.2105, 894.9551
257.6927, 879.6801
258.1748, 870.0727
258.6569, 868.3477
259.1390, 871.5349
259.6211, 871.4935
260.1032, 866.9404
260.5854, 861.6249
261.0675, 857.3037
261.5496, 854.4578
262.0317, 851.0287
262.5138, 846.7057
262.9959, 841.9314
263.4781, 837.4750
263.9602, 832.8654
264.4423, 829.6935
264.9244, 830.2749
265.4065, 837.7012
265.8886, 836.3306
266.3708, 822.1545
266.8529, 801.4937
267.3350, 790.2309
267.8171, 791.3544
268.2992, 793.8004
268.7813, 792.5167
269.2635, 786.9933
269.7456, 779.8068
270.2277, 770.4766
270.7098, 760.0756
271.1919, 751.8199
271.6740, 746.8523
272.1562, 740.2147
272.6383, 727.7510
273.1204, 707.7152
273.6025, 695.1646
274.0846, 691.9706
274.5667, 694.4294
275.0489, 696.3804
275.5310, 698.3748
276.0131, 697.2941
276.4952, 691.0643
276.9773, 679.3778
277.4594, 666.3698
277.9416, 651.1636
278.4237, 636.0963
278.9058, 624.9161
279.3879, 617.8281
279.8700, 613.0437
280.3521, 610.7003
280.8343, 610.7626
281.3164, 609.1315
281.7985, 605.4430
282.2806, 600.7079
282.7627, 596.5515
283.2448, 592.9833
283.7270, 589.3685
284.2091, 586.8631
284.6912, 584.9578
285.1733, 576.3299
285.6554, 559.3251
286.1375, 540.8177
286.6197, 531.4525
287.1018, 530.8167
287.5839, 530.7050
288.0660, 527.9362
288.5481, 522.8527
289.0302, 516.2106
289.5124, 507.4710
289.9945, 499.9384
290.4766, 499.3380
290.9587, 504.6735
291.4408, 508.7420
291.9229, 506.9443
292.4051, 501.7531
292.8872, 501.5838
293.3693, 507.0953
293.8514, 512.2390
294.3335, 508.6402
294.8156, 498.5312
295.2978, 490.9535
295.7799, 491.1193
296.2620, 495.4652
296.7441, 497.5020
297.2262, 497.2122
297.7083, 494.5795
298.1905, 486.4312
298.6726, 475.6653
299.1547, 469.9541
299.6368, 474.4796
300.1189, 483.9997
300.6010, 492.6469
301.0832, 500.3492
301.5653, 504.0559
302.0474, 497.3644
302.5295, 485.4634
303.0116, 477.6042
303.4937, 477.6944
303.9759, 482.2133
304.4580, 488.8311
304.9401, 497.2646
305.4222, 504.8611
305.9043, 510.2099
306.3864, 513.5372
306.8686, 515.1396
307.3507, 514.2990
307.8328, 512.8283
308.3149, 511.1798
308.7970, 509.7991
309.2791, 510.5770
309.7613, 516.9515
310.2434, 524.9917
310.7255, 530.7313
311.2076, 532.3040
311.6897, 533.0454
312.1718, 535.2899
312.6540, 538.3790
313.1361, 540.3719
313.6182, 539.7525
314.1003, 538.0631
314.5824, 536.2957
315.0645, 534.3427
315.5467, 532.9814
316.0288, 531.6248
316.5109, 531.0896
316.9930, 533.0856
317.4751, 541.9373
317.9572, 550.7914
318.4394, 555.9745
318.9215, 556.6759
319.4036, 554.9225
319.8857, 548.0920
320.3678, 539.7387
320.8499, 535.2938
321.3321, 540.4418
321.8142, 546.0679
322.2963, 548.2198
322.7784, 545.4924
323.2605, 544.2338
323.7426, 546.2902
324.2248, 549.9974
324.7069, 553.4049
325.1890, 557.0027
325.6711, 559.5927
326.1532, 561.0441
326.6353, 561.4114
327.1175, 560.1167
327.5996, 554.9370
328.0817, 549.2139
328.5638, 545.8364
329.0459, 544.1196
329.5280, 545.6434
330.0102, 552.4277
330.4923, 564.3147
330.9744, 572.3172
331.4565, 575.4838
331.9386, 575.7689
332.4207, 574.5866
332.9029, 572.3023
333.3850, 567.5852
333.8671, 558.2310
334.3492, 546.0052
334.8313, 540.4803
335.3134, 545.2297
335.7956, 550.6151
336.2777, 550.5540
336.7598, 543.5306
337.2419, 536.1962
337.7240, 528.4459
338.2061, 520.8746
338.6883, 516.2978
339.1704, 515.9625
339.6525, 513.8997
340.1346, 505.9726
340.6167, 491.7704
341.0988, 479.1046
341.5810, 468.5283
342.0631, 459.2761
342.5452, 450.1840
343.0273, 441.0670
343.5094, 433.4179
343.9915, 429.0804
344.4737, 427.3518
344.9558, 422.5647
345.4379, 414.3949
345.9200, 404.5217
346.4021, 393.1271
346.8842, 380.9448
347.3664, 372.9312
347.8485, 373.8189
348.3306, 379.3277
348.8127, 379.0521
349.2948, 372.8625
349.7769, 364.8499
350.2591, 357.4149
350.7412, 351.0371
351.2233, 347.3745
351.7054, 348.5164
352.1876, 351.1255
352.6697, 351.6704
353.1518, 350.1428
353.6339, 346.4096
354.1160, 337.3499
354.5981, 327.0414
355.0803, 321.4311
355.5624, 324.4134
356.0445, 327.9563
356.5266, 323.9675
357.0087, 314.9468
357.4908, 308.5822
357.9730, 312.8312
358.4551, 319.0436
358.9372, 319.4642
359.4193, 310.2125
359.9014, 303.0701
360.3835, 306.9656
360.8657, 316.3198
361.3478, 321.5579
361.8299, 316.3963
362.3120, 300.1616
362.7941, 310.2138
363.2762, 315.5545
363.7584, 316.4368
364.2405, 299.5074
364.7226, 305.5782
365.2047, 302.4316
365.6868, 298.9070
366.1689, 308.2149
366.6511, 293.8762
367.1332, 302.9806
367.6153, 302.7270
368.0974, 306.7563
368.5795, 301.5114
369.0616, 299.1309
369.5438, 306.0276
370.0259, 307.7876
370.5080, 301.4750
370.9901, 305.7766
371.4722, 291.1140
371.9543, 293.0927
372.4365, 302.2513
372.9186, 296.4050
373.4007, 300.8762
373.8828, 301.4179
374.3649, 284.1020
374.8470, 296.4592
375.3292, 297.5920
375.8113, 293.1309
376.2934, 288.9911
376.7755, 287.9762
377.2576, 290.1912
377.7397, 291.9295
378.2219, 293.4578
378.7040, 293.7523
379.1861, 289.5531
379.6682, 280.8697
380.1503, 276.7325
380.6324, 282.2396
381.1146, 293.9485
381.5967, 301.4587
382.0788, 304.6848
382.5609, 304.1418
383.0430, 297.6480
383.5251, 287.3987
384.0073, 280.3662
384.4894, 279.1536
384.9715, 280.7686
385.4536, 281.4739
385.9357, 281.3698
386.4178, 281.0143
386.9000, 281.4763
387.3821, 281.6435
387.8642, 279.1959
388.3463, 272.5220
388.8284, 267.4485
389.3105, 270.7348
389.7927, 278.9663
390.2748, 285.0723
390.7569, 284.1189
391.2390, 281.1610
391.7211, 279.1552
392.2032, 278.3299
392.6854, 278.5415
393.1675, 281.0497
393.6496, 284.0579
394.1317, 285.6537
394.6138, 282.7501
395.0959, 280.9239
395.5781, 283.3168
396.0602, 289.4044
396.5423, 292.4454
397.0244, 289.4769
397.5065, 284.3251
397.9886, 279.2561
398.4708, 272.9806
398.9529, 268.5396
399.4350, 265.8919
399.9171, 265.0928
400.3992, 266.7073
400.8813, 274.7528
401.3635, 279.9220
401.8456, 277.2010
402.3277, 262.7568
402.8098, 256.5972
403.2919, 262.6371
403.7740, 272.8638
404.2562, 275.2890
404.7383, 267.1870
405.2204, 261.2725
405.7025, 261.7480
406.1846, 267.6645
406.6667, 271.6683
407.1489, 273.5777
407.6310, 274.3422
408.1131, 275.2096
408.5952, 276.0234
409.0773, 274.0892
409.5594, 267.4800
410.0416, 259.8595
410.5237, 259.8446
411.0058, 266.5631
411.4879, 270.8015
411.9700, 261.7677
412.4521, 247.0133
412.9343, 243.5413
413.4164, 254.5536
413.8985, 268.7418
414.3806, 276.1264
414.8627, 278.3617
415.3448, 278.7691
415.8270, 278.0158
416.3091, 276.6013
416.7912, 275.4920
417.2733, 274.6106
417.7554, 271.7822
418.2375, 262.4664
418.7197, 252.1844
419.2018, 246.0152
419.6839, 247.7236
420.1660, 251.1106
420.6481, 255.6039
421.1302, 260.4882
421.6124, 263.0852
422.0945, 261.3799
422.5766, 258.4501
423.0587, 255.1619
423.5408, 249.5106
424.0229, 248.1288
424.5051, 256.8636
424.9872, 268.0182
425.4693, 270.4048
425.9514, 255.8851
426.4335, 244.7368
426.9156, 242.3334
427.3978, 248.7500
427.8799, 254.3790
428.3620, 259.3717
428.8441, 263.2633
429.3262, 265.7649
429.8083, 266.9142
430.2905, 266.1941
430.7726, 263.0677
431.2547, 258.4292
431.7368, 254.5146
432.2189, 251.3807
432.7010, 248.3741
433.1832, 243.4188
433.6653, 237.7519
434.1474, 239.8320
434.6295, 251.5024
435.1116, 263.0415
435.5938, 259.7626
436.0759, 246.2728
436.5580, 237.2867
437.0401, 241.3364
437.5222, 251.1367
438.0043, 260.2239
438.4865, 268.1434
438.9686, 270.7905
439.4507, 258.4371
439.9328, 242.3705
440.4149, 235.7632
440.8970, 246.7456
441.3792, 257.7349
441.8613, 258.2029
442.3434, 252.0405
442.8255, 247.5493
443.3076, 248.5878
443.7897, 251.1380
444.2719, 253.9075
444.7540, 257.0495
445.2361, 258.9072
445.7182, 258.9168
446.2003, 257.6487
446.6824, 255.5740
447.1646, 250.6102
447.6467, 247.6481
448.1288, 248.2595
448.6109, 251.6706
449.0930, 253.3271
449.5751, 253.1588
450.0573, 251.3210
450.5394, 246.7968
451.0215, 237.8431
451.5036, 234.7163
451.9857, 239.4337
452.4678, 247.2396
452.9500, 251.0490
453.4321, 250.7341
453.9142, 247.8426
454.3963, 241.0045
454.8784, 232.2912
455.3605, 229.2596
455.8427, 232.0640
456.3248, 236.9535
456.8069, 241.5577
457.2890, 245.7158
457.7711, 249.3730
458.2532, 253.3741
458.7354, 255.2006
459.2175, 249.4575
459.6996, 238.9441
460.1817, 231.5453
460.6638, 236.1724
461.1459, 242.5644
461.6281, 241.1127
462.1102, 229.9944
462.5923, 221.9075
463.0744, 225.4756
463.5565, 233.9220
464.0386, 240.4380
464.5208, 242.4847
465.0029, 243.2348
465.4850, 242.2894
465.9671, 240.2057
466.4492, 240.1013
466.9313, 245.6044
467.4135, 250.0278
467.8956, 250.1926
468.3777, 243.2741
468.8598, 239.8476
469.3419, 242.1529
469.8240, 246.0336
470.3062, 245.0576
470.7883, 237.2345
471.2704, 231.2322
471.7525, 229.3065
472.2346, 231.0515
472.7167, 235.0780
473.1989, 241.8126
473.6810, 247.6891
474.1631, 248.9073
474.6452, 246.5106
475.1273, 246.4286
475.6094, 250.2665
476.0916, 254.0282
476.5737, 251.7282
477.0558, 244.7756
477.5379, 237.6678
478.0200, 230.6904
478.5021, 225.7450
478.9843, 226.6087
479.4664, 233.0251
479.9485, 237.7682
480.4306, 234.1490
480.9127, 227.7639
481.3948, 223.9314
481.8770, 224.9649
482.3591, 227.2891
482.8412, 231.5660
483.3233, 236.2951
483.8054, 238.0022
484.2875, 231.8159
484.7697, 226.3830
485.2518, 225.2457
485.7339, 229.4477
486.2160, 231.6148
486.6981, 230.5357
487.1802, 228.5034
487.6624, 227.1440
488.1445, 225.8115
488.6266, 227.3037
489.1087, 233.3008
489.5908, 241.5828
490.0729, 245.6913
490.5551, 245.1727
491.0372, 243.2850
491.5193, 241.0398
492.0014, 238.6641
492.4835, 237.6991
492.9656, 238.3050
493.4478, 239.4543
493.9299, 240.8683
494.4120, 242.0188
494.8941, 241.4393
495.3762, 238.2062
495.8583, 233.6258
496.3405, 227.1353
496.8226, 219.9853
497.3047, 216.9022
497.7868, 225.9843
498.2689, 236.3720
498.7510, 238.5922
499.2332, 229.5670
499.7153, 223.1245
500.1974, 226.5736
500.6795, 234.1804
501.1616, 239.8199
501.6437, 243.6663
502.1259, 244.0978
502.6080, 239.6101
503.0901, 231.1660
503.5722, 222.4975
504.0543, 210.8407
504.5364, 202.8527
505.0186, 201.9699
505.5007, 209.6421
505.9828, 217.7993
506.4649, 227.5043
506.9470, 235.7344
507.4291, 237.6895
507.9113, 233.2022
508.3934, 229.5160
508.8755, 229.1661
509.3576, 230.1549
509.8397, 227.1737
510.3218, 220.6606
510.8040, 215.2333
511.2861, 214.4688
511.7682, 216.5621
512.2503, 219.5073
512.7324, 223.4633
513.2145, 225.4020
513.6967, 220.1730
514.1788, 212.2948
514.6609, 208.1026
515.1430, 214.1734
515.6251, 219.9650
516.1072, 220.7397
516.5894, 217.4790
517.0715, 214.3030
517.5536, 208.5086
518.0357, 206.0044
518.5178, 211.2812
518.9999, 229.8397
519.4821, 238.6668
519.9642, 232.3382
520.4463, 220.7533
520.9284, 214.1965
521.4105, 213.9479
521.8926, 214.9116
522.3748, 216.6715
522.8569, 218.8236
523.3390, 220.2251
523.8211, 220.8765
524.3032, 220.7711
524.7853, 218.8311
525.2675, 216.0125
525.7496, 216.6286
526.2317, 221.1677
526.7138, 225.6328
527.1959, 225.2612
527.6780, 222.1189
528.1602, 220.3171
528.6423, 223.0690
529.1244, 224.7957
529.6065, 219.3906
530.0886, 209.4171
530.5707, 201.8934
531.0529, 201.9322
531.5350, 203.4766
532.0171, 202.9445
532.4992, 199.3557
532.9813, 198.4513
533.4634, 204.9207
533.9456, 211.9598
534.4277, 214.0113
534.9098, 204.9612
535.3919, 202.3341
535.8740, 211.0684
536.3561, 225.1306
536.8383, 228.7720
537.3204, 219.4424
537.8025, 210.1162
538.2846, 205.3297
538.7667, 204.8893
539.2488, 210.0248
539.7310, 221.6403
540.2131, 229.7582
540.6952, 220.9710
541.1773, 202.0852
541.6594, 191.1175
542.1415, 192.4589
542.6237, 199.0435
543.1058, 207.7036
543.5879, 216.2266
544.0700, 220.2760
544.5521, 213.3542
545.0342, 205.4444
545.5164, 201.9910
545.9985, 202.9289
546.4806, 205.1479
546.9627, 212.1608
547.4448, 216.9461
547.9269, 214.8246
548.4091, 198.5991
548.8912, 189.3221
549.3733, 189.6292
549.8554, 195.1282
550.3375, 200.4567
550.8196, 205.9470
551.3018, 210.2563
551.7839, 212.9273
552.2660, 214.2426
552.7481, 215.1879
553.2302, 215.7876
553.7123, 215.6578
554.1945, 214.0958
554.6766, 211.6145
555.1587, 209.8557
555.6408, 208.9845
556.1229, 208.1839
556.6050, 206.1970
557.0872, 203.9237
557.5693, 202.9375
558.0514, 205.0232
558.5335, 206.5851
559.0156, 203.7332
559.4977, 198.6948
559.9799, 196.6993
560.4620, 201.2193
560.9441, 207.3677
561.4262, 215.0472
561.9083, 224.9908
562.3904, 227.9579
562.8726, 218.2379
563.3547, 207.2033
563.8368, 202.3609
564.3189, 205.5015
564.8010, 209.5804
565.2831, 215.7185
565.7653, 220.6393
566.2474, 216.8843
566.7295, 204.2638
567.2116, 195.2289
567.6937, 194.9863
568.1758, 199.9734
568.6580, 203.4850
569.1401, 205.5362
569.6222, 206.5036
570.1043, 205.5719
570.5864, 204.2008
571.0685, 204.8472
571.5507, 208.3171
572.0328, 209.5842
572.5149, 201.6477
572.9970, 192.0161
573.4791, 188.3569
573.9612, 198.6104
574.4434, 208.0823
574.9255, 215.4339
575.4076, 220.1130
575.8897, 220.4152
576.3718, 213.2069
576.8539, 206.5119
577.3361, 203.3869
577.8182, 203.7201
578.3003, 201.1611
578.7824, 195.2617
579.2645, 188.2548
579.7466, 179.1755
580.2288, 169.4020
580.7109, 170.9976
581.1930, 187.6822
581.6751, 206.3290
582.1572, 210.1188
582.6393, 203.5021
583.1215, 196.9495
583.6036, 193.1140
584.0857, 192.1062
584.5678, 196.4534
585.0499, 204.3701
585.5320, 209.2003
586.0142, 205.9871
586.4963, 200.9518
586.9784, 196.2833
587.4605, 191.4668
587.9426, 190.8834
588.4247, 199.1355
588.9069, 207.7746
589.3890, 209.6979
589.8711, 201.2669
590.3532, 197.1781
590.8353, 200.0933
591.3174, 205.6511
591.7996, 205.0854
592.2817, 198.3514
592.7638, 192.6846
593.2459, 191.0906
593.7280, 192.0006
594.2101, 192.9098
594.6923, 193.6233
595.1744, 192.6716
595.6565, 185.6598
596.1386, 178.3530
596.6207, 177.6078
597.1028, 184.9160
597.5850, 192.8435
598.0671, 200.0907
598.5492, 205.1148
599.0314, 206.3835
599.5135, 199.0826
599.9956, 193.6818
600.4777, 191.6049
600.9598, 191.8562
601.4420, 192.8926
601.9241, 195.8277
602.4062, 196.8663
602.8883, 194.4541
603.3704, 189.1989
603.8525, 184.0790
604.3347, 178.9281
604.8168, 175.3039
605.2989, 174.5931
605.7810, 176.2210
606.2631, 179.2903
606.7452, 183.9839
607.2274, 187.2235
607.7095, 183.7537
608.1916, 177.8443
608.6737, 175.4407
609.1558, 178.4675
609.6379, 177.2531
610.1201, 189.1926
610.6022, 196.6970
611.0843, 200.0054
611.5664, 186.5499
612.0485, 194.7415
612.5306, 194.2576
613.0128, 203.3657
613.4949, 205.7401
613.9770, 200.8960
614.4591, 195.0734
614.9412, 191.7836
615.4233, 191.0502
615.9055, 190.1186
616.3876, 188.9078
616.8697, 187.7430
617.3518, 187.6101
617.8339, 187.8192
618.3160, 185.6286
618.7982, 178.5022
619.2803, 173.3004
619.7624, 179.4654
620.2445, 192.0213
620.7266, 201.1451
621.2087, 199.9677
621.6909, 197.2812
622.1730, 196.5679
622.6551, 197.6387
623.1372, 198.0702
623.6193, 197.6980
624.1014, 196.5140
624.5836, 194.0921
625.0657, 189.9280
625.5478, 188.1132
626.0299, 189.5490
626.5120, 191.2157
626.9941, 189.8094
627.4763, 185.5928
627.9584, 182.2236
628.4405, 180.1151
628.9226, 179.2658
629.4047, 180.5804
629.8868, 183.1794
630.3690, 184.8811
630.8511, 182.8216
631.3332, 181.4357
631.8153, 186.0356
632.2974, 194.4199
632.7795, 198.8052
633.2617, 192.3638
633.7438, 185.1781
634.2259, 180.7797
634.7080, 179.2885
635.1901, 181.8980
635.6722, 192.8532
636.1544, 202.3436
636.6365, 202.5313
637.1186, 191.6040
637.6007, 184.9448
638.0828, 183.8214
638.5649, 185.0764
639.0471, 184.9156
639.5292, 183.6721
640.0113, 182.6424
640.4934, 181.6860
640.9755, 181.9557
641.4576, 187.8943
