##NAMES=Merwinite
##RRUFFID=R070195
##IDEAL CHEMISTRY=Ca_3_Mg(SiO_4_)_2_
##LOCALITY=Commercial Quarry, Riverside County, California, USA
##OWNER=RRUFF
##SOURCE=California Institute of Technology
##DESCRIPTION=Light gray massive
##STATUS=The identification of this mineral has been confirmed by X-ray diffraction and chemical analysis
##URL=rruff.info/R070195
##MEASURED CHEMISTRY=Ca_3.00_(Mg_0.98_Fe^2+^_0.02_)_Î£=1_(Si_1.00_O_4_)_2_
111.1302, 139.5112
111.6123, 145.8234
112.0944, 149.2171
112.5765, 155.2903
113.0587, 166.7979
113.5408, 180.9261
114.0229, 194.5431
114.5050, 204.3237
114.9871, 215.2478
115.4692, 229.9821
115.9514, 249.9609
116.4335, 269.7697
116.9156, 285.6821
117.3977, 299.8822
117.8798, 316.7652
118.3619, 339.0758
118.8441, 364.5371
119.3262, 391.3429
119.8083, 417.4517
120.2904, 447.3098
120.7725, 483.2990
121.2546, 525.3854
121.7368, 573.4014
122.2189, 629.4866
122.7010, 690.7881
123.1831, 754.2194
123.6652, 817.2480
124.1473, 882.7969
124.6295, 954.7391
125.1116, 1033.116
125.5937, 1114.605
126.0758, 1197.670
126.5579, 1282.088
127.0400, 1365.466
127.5222, 1444.677
128.0043, 1522.954
128.4864, 1606.796
128.9685, 1696.292
129.4506, 1792.404
129.9327, 1894.262
130.4149, 2002.435
130.8970, 2119.389
131.3791, 2243.141
131.8612, 2375.181
132.3433, 2522.236
132.8254, 2683.486
133.3076, 2859.632
133.7897, 3055.535
134.2718, 3274.597
134.7539, 3497.025
135.2360, 3709.007
135.7181, 3911.341
136.2003, 4109.143
136.6824, 4306.612
137.1645, 4500.199
137.6466, 4663.870
138.1287, 4797.025
138.6108, 4898.414
139.0930, 4960.265
139.5751, 4974.582
140.0572, 4977.004
140.5393, 4978.242
141.0214, 4980.130
141.5035, 4958.338
141.9857, 4904.333
142.4678, 4833.358
142.9499, 4768.653
143.4320, 4710.220
143.9141, 4658.210
144.3962, 4611.189
144.8784, 4565.761
145.3605, 4534.573
145.8426, 4516.233
146.3247, 4512.383
146.8068, 4528.102
147.2889, 4568.679
147.7711, 4623.773
148.2532, 4688.625
148.7353, 4761.861
149.2174, 4847.761
149.6995, 4954.509
150.1816, 5079.005
150.6638, 5192.018
151.1459, 5304.336
151.6280, 5398.321
152.1101, 5463.642
152.5922, 5500.386
153.0743, 5507.843
153.5565, 5486.518
154.0386, 5436.458
154.5207, 5354.138
155.0028, 5232.817
155.4849, 5081.140
155.9670, 4905.510
156.4492, 4687.030
156.9313, 4463.867
157.4134, 4242.343
157.8955, 4022.988
158.3776, 3813.308
158.8597, 3611.250
159.3419, 3420.116
159.8240, 3247.254
160.3061, 3098.823
160.7882, 2964.313
161.2703, 2839.406
161.7524, 2722.172
162.2346, 2614.601
162.7167, 2517.805
163.1988, 2430.774
163.6809, 2352.875
164.1630, 2290.076
164.6451, 2231.852
165.1273, 2169.442
165.6094, 2095.909
166.0915, 2026.986
166.5736, 1971.319
167.0557, 1928.215
167.5379, 1893.025
168.0200, 1868.590
168.5021, 1849.185
168.9842, 1829.121
169.4663, 1806.929
169.9484, 1783.424
170.4306, 1757.098
170.9127, 1728.846
171.3948, 1704.018
171.8769, 1689.060
172.3590, 1679.708
172.8411, 1669.740
173.3233, 1658.141
173.8054, 1644.266
174.2875, 1626.740
174.7696, 1605.439
175.2517, 1583.105
175.7338, 1559.826
176.2160, 1537.096
176.6981, 1518.393
177.1802, 1508.767
177.6623, 1503.144
178.1444, 1491.969
178.6265, 1474.018
179.1087, 1458.322
179.5908, 1458.054
180.0729, 1469.516
180.5550, 1479.378
181.0371, 1478.837
181.5192, 1471.913
182.0014, 1466.472
182.4835, 1462.162
182.9656, 1462.287
183.4477, 1472.813
183.9298, 1492.883
184.4119, 1515.742
184.8941, 1539.525
185.3762, 1563.387
185.8583, 1582.306
186.3404, 1593.948
186.8225, 1604.033
187.3046, 1624.150
187.7868, 1654.012
188.2689, 1685.477
188.7510, 1717.812
189.2331, 1748.798
189.7152, 1762.425
190.1973, 1751.767
190.6795, 1726.249
191.1616, 1707.792
191.6437, 1697.172
192.1258, 1686.977
192.6079, 1670.200
193.0900, 1647.185
193.5722, 1625.734
194.0543, 1607.367
194.5364, 1591.665
195.0185, 1577.553
195.5006, 1564.849
195.9827, 1554.542
196.4649, 1546.471
196.9470, 1540.304
197.4291, 1541.670
197.9112, 1555.292
198.3933, 1578.515
198.8754, 1591.125
199.3576, 1589.993
199.8397, 1587.052
200.3218, 1596.096
200.8039, 1618.125
201.2860, 1644.403
201.7681, 1673.843
202.2503, 1706.264
202.7324, 1735.923
203.2145, 1762.793
203.6966, 1786.950
204.1787, 1807.197
204.6608, 1821.860
205.1430, 1839.339
205.6251, 1864.614
206.1072, 1898.868
206.5893, 1925.359
207.0714, 1943.686
207.5535, 1954.745
208.0357, 1959.060
208.5178, 1955.188
208.9999, 1948.929
209.4820, 1942.880
209.9641, 1937.865
210.4462, 1928.449
210.9284, 1914.406
211.4105, 1896.059
211.8926, 1872.908
212.3747, 1841.470
212.8568, 1813.166
213.3389, 1794.670
213.8211, 1791.013
214.3032, 1778.066
214.7853, 1750.051
215.2674, 1715.310
215.7495, 1696.992
216.2316, 1702.146
216.7138, 1709.436
217.1959, 1708.304
217.6780, 1695.778
218.1601, 1683.214
218.6422, 1668.901
219.1243, 1655.383
219.6065, 1651.017
220.0886, 1657.013
220.5707, 1670.309
221.0528, 1690.543
221.5349, 1722.845
222.0170, 1749.134
222.4992, 1766.592
222.9813, 1777.329
223.4634, 1791.272
223.9455, 1812.080
224.4276, 1830.993
224.9097, 1842.738
225.3919, 1846.887
225.8740, 1845.451
226.3561, 1839.032
226.8382, 1827.316
227.3203, 1808.026
227.8024, 1781.415
228.2846, 1747.175
228.7667, 1703.046
229.2488, 1643.685
229.7309, 1587.575
230.2130, 1536.163
230.6951, 1489.796
231.1773, 1449.809
231.6594, 1418.215
232.1415, 1391.041
232.6236, 1365.096
233.1057, 1338.004
233.5878, 1317.119
234.0700, 1304.791
234.5521, 1300.392
235.0342, 1295.896
235.5163, 1292.390
235.9984, 1287.625
236.4805, 1278.669
236.9627, 1259.773
237.4448, 1248.538
237.9269, 1249.940
238.4090, 1263.445
238.8911, 1272.972
239.3732, 1274.802
239.8554, 1276.583
240.3375, 1285.658
240.8196, 1308.089
241.3017, 1326.105
241.7838, 1335.549
242.2659, 1336.420
242.7481, 1341.262
243.2302, 1350.649
243.7123, 1363.424
244.1944, 1378.904
244.6765, 1398.782
245.1586, 1418.262
245.6408, 1435.795
246.1229, 1451.422
246.6050, 1470.602
247.0871, 1496.623
247.5692, 1522.777
248.0513, 1541.631
248.5335, 1546.518
249.0156, 1557.557
249.4977, 1581.535
249.9798, 1619.101
250.4619, 1645.706
250.9440, 1657.133
251.4262, 1662.457
251.9083, 1669.842
252.3904, 1678.453
252.8725, 1691.103
253.3546, 1709.285
253.8367, 1733.195
254.3189, 1755.473
254.8010, 1773.778
255.2831, 1792.808
255.7652, 1818.602
256.2473, 1856.215
256.7295, 1888.346
257.2116, 1908.368
257.6937, 1915.987
258.1758, 1934.066
258.6579, 1968.852
259.1400, 2006.497
259.6222, 2031.887
260.1043, 2038.392
260.5864, 2048.988
261.0685, 2070.732
261.5506, 2103.169
262.0327, 2128.694
262.5149, 2144.092
262.9970, 2156.758
263.4791, 2173.829
263.9612, 2196.157
264.4433, 2221.104
264.9254, 2249.925
265.4076, 2282.032
265.8897, 2308.184
266.3718, 2325.385
266.8539, 2341.927
267.3360, 2368.172
267.8181, 2407.568
268.3003, 2443.848
268.7824, 2474.230
269.2645, 2498.578
269.7466, 2515.219
270.2287, 2524.933
270.7108, 2525.419
271.1930, 2511.926
271.6751, 2481.366
272.1572, 2451.371
272.6393, 2427.310
273.1214, 2407.655
273.6035, 2379.418
274.0857, 2339.489
274.5678, 2298.744
275.0499, 2269.925
275.5320, 2255.963
276.0141, 2234.210
276.4962, 2196.769
276.9784, 2146.875
277.4605, 2106.009
277.9426, 2075.350
278.4247, 2048.906
278.9068, 2022.354
279.3889, 1995.747
279.8711, 1968.211
280.3532, 1939.620
280.8353, 1909.945
281.3174, 1879.289
281.7995, 1848.169
282.2816, 1814.917
282.7638, 1776.157
283.2459, 1732.038
283.7280, 1692.554
284.2101, 1661.912
284.6922, 1636.267
285.1743, 1601.743
285.6565, 1557.635
286.1386, 1514.011
286.6207, 1480.959
287.1028, 1457.328
287.5849, 1431.015
288.0670, 1397.850
288.5492, 1362.576
289.0313, 1336.830
289.5134, 1320.938
289.9955, 1309.591
290.4776, 1301.846
290.9597, 1296.265
291.4419, 1285.037
291.9240, 1264.823
292.4061, 1240.813
292.8882, 1221.146
293.3703, 1205.969
293.8524, 1195.951
294.3346, 1194.201
294.8167, 1198.179
295.2988, 1200.783
295.7809, 1201.341
296.2630, 1199.118
296.7451, 1191.025
297.2273, 1177.986
297.7094, 1166.248
298.1915, 1160.291
298.6736, 1158.371
299.1557, 1156.787
299.6378, 1154.525
300.1200, 1153.554
300.6021, 1157.783
301.0842, 1165.898
301.5663, 1172.644
302.0484, 1174.125
302.5305, 1172.582
303.0127, 1170.790
303.4948, 1168.768
303.9769, 1167.692
304.4590, 1171.354
304.9411, 1177.270
305.4232, 1178.714
305.9054, 1163.676
306.3875, 1146.394
306.8696, 1143.486
307.3517, 1158.648
307.8338, 1178.172
308.3159, 1195.393
308.7981, 1209.281
309.2802, 1217.847
309.7623, 1214.495
310.2444, 1209.120
310.7265, 1209.043
311.2086, 1215.174
311.6908, 1224.562
312.1729, 1237.796
312.6550, 1252.786
313.1371, 1266.373
313.6192, 1273.325
314.1013, 1281.469
314.5835, 1294.986
315.0656, 1314.195
315.5477, 1337.026
316.0298, 1366.582
316.5119, 1397.886
316.9940, 1425.583
317.4762, 1439.212
317.9583, 1456.633
318.4404, 1486.195
318.9225, 1527.985
319.4046, 1570.019
319.8867, 1607.116
320.3689, 1643.770
320.8510, 1683.712
321.3331, 1728.947
321.8152, 1776.306
322.2973, 1825.560
322.7794, 1876.668
323.2616, 1929.325
323.7437, 1985.544
324.2258, 2042.012
324.7079, 2096.669
325.1900, 2145.602
325.6721, 2196.981
326.1543, 2258.576
326.6364, 2326.065
327.1185, 2377.796
327.6006, 2410.493
328.0827, 2429.991
328.5648, 2438.845
329.0470, 2436.326
329.5291, 2424.110
330.0112, 2403.422
330.4933, 2373.091
330.9754, 2329.349
331.4576, 2266.575
331.9397, 2197.278
332.4218, 2125.060
332.9039, 2047.734
333.3860, 1972.389
333.8681, 1900.370
334.3503, 1830.887
334.8324, 1762.279
335.3145, 1691.750
335.7966, 1629.725
336.2787, 1580.784
336.7608, 1546.663
337.2430, 1516.169
337.7251, 1490.097
338.2072, 1467.453
338.6893, 1446.864
339.1714, 1428.110
339.6535, 1413.443
340.1357, 1404.738
340.6178, 1401.461
341.0999, 1396.949
341.5820, 1390.503
342.0641, 1384.873
342.5462, 1384.777
343.0284, 1390.193
343.5105, 1390.637
343.9926, 1381.119
344.4747, 1365.461
344.9568, 1358.467
345.4389, 1360.954
345.9211, 1361.265
346.4032, 1346.735
346.8853, 1320.371
347.3674, 1296.569
347.8495, 1278.180
348.3316, 1264.083
348.8138, 1255.175
349.2959, 1250.708
349.7780, 1243.899
350.2601, 1226.457
350.7422, 1203.761
351.2243, 1187.201
351.7065, 1179.973
352.1886, 1175.169
352.6707, 1165.310
353.1528, 1151.405
353.6349, 1137.047
354.1170, 1121.332
354.5992, 1107.275
355.0813, 1099.511
355.5634, 1099.675
356.0455, 1099.426
356.5276, 1090.221
357.0097, 1076.646
357.4919, 1066.825
357.9740, 1065.702
358.4561, 1068.087
358.9382, 1071.318
359.4203, 1075.270
359.9024, 1078.855
360.3846, 1081.336
360.8667, 1083.270
361.3488, 1085.252
361.8309, 1087.186
362.3130, 1089.438
362.7951, 1090.688
363.2773, 1091.395
363.7594, 1096.577
364.2415, 1112.492
364.7236, 1130.214
365.2057, 1143.970
365.6878, 1146.823
366.1700, 1152.463
366.6521, 1163.202
367.1342, 1178.112
367.6163, 1193.461
368.0984, 1209.782
368.5805, 1225.763
369.0627, 1240.998
369.5448, 1255.669
370.0269, 1268.850
370.5090, 1278.799
370.9911, 1287.758
371.4732, 1300.354
371.9554, 1319.152
372.4375, 1337.045
372.9196, 1351.079
373.4017, 1360.322
373.8838, 1372.258
374.3659, 1386.811
374.8481, 1404.413
375.3302, 1426.141
375.8123, 1453.309
376.2944, 1479.534
376.7765, 1501.854
377.2586, 1521.780
377.7408, 1550.013
378.2229, 1588.328
378.7050, 1628.987
379.1871, 1663.898
379.6692, 1693.311
380.1513, 1729.456
380.6335, 1775.099
381.1156, 1827.781
381.5977, 1881.023
382.0798, 1934.945
382.5619, 1992.235
383.0440, 2058.105
383.5262, 2129.138
384.0083, 2195.965
384.4904, 2257.292
384.9725, 2317.217
385.4546, 2380.015
385.9367, 2445.554
386.4189, 2513.136
386.9010, 2588.680
387.3831, 2663.740
387.8652, 2729.368
388.3473, 2784.794
388.8294, 2832.024
389.3116, 2874.841
389.7937, 2908.688
390.2758, 2927.422
390.7579, 2930.183
391.2400, 2915.463
391.7221, 2877.194
392.2043, 2817.687
392.6864, 2753.882
393.1685, 2689.610
393.6506, 2626.540
394.1327, 2565.367
394.6148, 2508.322
395.0970, 2450.496
395.5791, 2386.647
396.0612, 2320.277
396.5433, 2263.475
397.0254, 2215.412
397.5075, 2179.751
397.9897, 2159.254
398.4718, 2162.142
398.9539, 2162.148
399.4360, 2159.620
399.9181, 2153.942
400.4002, 2142.849
400.8824, 2112.883
401.3645, 2097.859
401.8466, 2110.609
402.3287, 2152.609
402.8108, 2183.458
403.2929, 2198.127
403.7751, 2208.723
404.2572, 2224.318
404.7393, 2243.915
405.2214, 2274.032
405.7035, 2318.560
406.1856, 2372.838
406.6678, 2417.157
407.1499, 2449.473
407.6320, 2487.258
408.1141, 2541.783
408.5962, 2612.523
409.0783, 2691.431
409.5605, 2777.644
410.0426, 2871.396
410.5247, 2974.655
411.0068, 3085.709
411.4889, 3200.172
411.9710, 3312.610
412.4532, 3427.486
412.9353, 3557.421
413.4174, 3702.451
413.8995, 3852.125
414.3816, 3999.737
414.8637, 4146.317
415.3459, 4296.161
415.8280, 4451.036
416.3101, 4609.081
416.7922, 4776.990
417.2743, 4948.930
417.7564, 5112.998
418.2386, 5267.382
418.7207, 5407.016
419.2028, 5527.252
419.6849, 5632.420
420.1670, 5709.547
420.6491, 5753.056
421.1313, 5766.372
421.6134, 5756.450
422.0955, 5750.220
422.5776, 5697.732
423.0597, 5575.616
423.5418, 5373.658
424.0240, 5153.468
424.5061, 4906.158
424.9882, 4649.666
425.4703, 4397.763
425.9524, 4141.785
426.4345, 3905.126
426.9167, 3697.018
427.3988, 3511.042
427.8809, 3318.192
428.3630, 3110.054
428.8451, 2911.619
429.3272, 2741.961
429.8094, 2602.581
430.2915, 2476.559
430.7736, 2364.655
431.2557, 2263.601
431.7378, 2169.836
432.2199, 2083.304
432.7021, 2005.763
433.1842, 1940.261
433.6663, 1884.705
434.1484, 1828.699
434.6305, 1772.260
435.1126, 1718.205
435.5948, 1667.956
436.0769, 1622.702
436.5590, 1585.827
437.0411, 1560.343
437.5232, 1541.395
438.0053, 1526.843
438.4875, 1515.230
438.9696, 1500.680
439.4517, 1472.188
439.9338, 1443.222
440.4159, 1428.990
440.8980, 1436.312
441.3802, 1440.638
441.8623, 1423.349
442.3444, 1396.784
442.8265, 1378.547
443.3086, 1386.652
443.7907, 1392.189
444.2729, 1380.239
444.7550, 1350.224
445.2371, 1330.525
445.7192, 1337.741
446.2013, 1348.391
446.6834, 1346.658
447.1656, 1314.017
447.6477, 1295.819
448.1298, 1302.276
448.6119, 1323.019
449.0940, 1328.991
449.5761, 1314.141
450.0583, 1296.303
450.5404, 1282.467
451.0225, 1273.085
451.5046, 1261.955
451.9867, 1248.472
452.4688, 1234.763
452.9510, 1224.752
453.4331, 1218.777
453.9152, 1208.228
454.3973, 1189.357
454.8794, 1165.721
455.3615, 1146.965
455.8437, 1132.817
456.3258, 1119.984
456.8079, 1105.632
457.2900, 1090.928
457.7721, 1077.874
458.2542, 1067.141
458.7364, 1056.987
459.2185, 1046.448
459.7006, 1035.276
460.1827, 1023.224
460.6648, 1007.167
461.1469, 992.3063
461.6291, 983.6579
462.1112, 980.8952
462.5933, 976.5535
463.0754, 963.3719
463.5575, 949.3927
464.0396, 941.2786
464.5218, 946.9691
465.0039, 949.8365
465.4860, 944.4073
465.9681, 933.8174
466.4502, 926.2284
466.9323, 922.3682
467.4145, 921.3347
467.8966, 924.4977
468.3787, 933.9635
468.8608, 935.7619
469.3429, 926.7639
469.8250, 913.6154
470.3072, 902.0310
470.7893, 891.1801
471.2714, 885.6548
471.7535, 887.9944
472.2356, 895.3272
472.7177, 897.6453
473.1999, 894.5118
473.6820, 890.5792
474.1641, 887.9778
474.6462, 886.8132
475.1284, 888.0163
475.6105, 891.9656
476.0926, 896.6046
476.5747, 901.3932
477.0568, 905.1059
477.5389, 904.3271
478.0211, 892.5904
478.5032, 879.7433
478.9853, 877.6533
479.4674, 884.6530
479.9495, 890.0498
480.4316, 885.0231
480.9138, 877.4336
481.3959, 873.9917
481.8780, 877.9483
482.3601, 881.0206
482.8422, 877.9116
483.3243, 872.7014
483.8065, 871.7323
484.2886, 883.0168
484.7707, 891.7171
485.2528, 890.8272
485.7349, 880.2559
486.2170, 879.6993
486.6992, 897.7966
487.1813, 916.7344
487.6634, 924.6089
488.1455, 917.4600
488.6276, 910.4191
489.1097, 903.7441
489.5919, 898.2070
490.0740, 895.3585
490.5561, 895.1730
491.0382, 897.7783
491.5203, 904.7538
492.0024, 914.7182
492.4846, 920.8975
492.9667, 923.1493
493.4488, 923.9840
493.9309, 923.8901
494.4130, 924.1357
494.8951, 928.5454
495.3773, 940.1842
495.8594, 951.6203
496.3415, 951.5319
496.8236, 944.9851
497.3057, 944.8274
497.7878, 964.6642
498.2700, 987.3843
498.7521, 1001.505
499.2342, 1005.655
499.7163, 1009.127
500.1984, 1012.599
500.6805, 1018.114
501.1627, 1027.391
501.6448, 1042.707
502.1269, 1059.300
502.6090, 1076.791
503.0911, 1095.318
503.5732, 1115.433
504.0554, 1136.703
504.5375, 1160.387
505.0196, 1188.849
505.5017, 1223.195
505.9838, 1245.995
506.4659, 1251.856
506.9481, 1258.464
507.4302, 1289.846
507.9123, 1346.274
508.3944, 1384.618
508.8765, 1392.305
509.3586, 1385.977
509.8408, 1396.047
510.3229, 1420.704
510.8050, 1447.050
511.2871, 1464.017
511.7692, 1479.767
512.2513, 1510.479
512.7335, 1557.396
513.2156, 1598.617
513.6977, 1615.441
514.1798, 1619.048
514.6619, 1622.456
515.1440, 1632.875
515.6262, 1639.202
516.1083, 1635.363
516.5904, 1623.993
517.0725, 1611.807
517.5546, 1593.905
518.0367, 1581.185
518.5189, 1579.039
519.0010, 1588.897
519.4831, 1598.666
519.9652, 1604.542
520.4473, 1614.009
520.9294, 1633.844
521.4116, 1665.660
521.8937, 1701.977
522.3758, 1742.771
522.8579, 1786.834
523.3400, 1832.187
523.8221, 1878.767
524.3043, 1924.259
524.7864, 1967.534
525.2685, 2008.937
525.7506, 2054.818
526.2327, 2105.777
526.7148, 2146.414
527.1970, 2160.168
527.6791, 2155.700
528.1612, 2147.422
528.6433, 2137.978
529.1254, 2126.900
529.6075, 2110.283
530.0897, 2091.909
530.5718, 2080.052
531.0539, 2080.077
531.5360, 2085.220
532.0181, 2089.922
532.5002, 2093.453
532.9824, 2110.480
533.4645, 2150.807
533.9466, 2200.002
534.4287, 2249.297
534.9108, 2302.336
535.3929, 2349.052
535.8751, 2385.699
536.3572, 2418.573
536.8393, 2461.817
537.3214, 2520.512
537.8035, 2568.601
538.2856, 2599.633
538.7678, 2613.645
539.2499, 2609.393
539.7320, 2586.505
540.2141, 2554.103
540.6962, 2513.782
541.1783, 2469.856
541.6605, 2431.021
542.1426, 2398.395
542.6247, 2372.448
543.1068, 2359.874
543.5889, 2353.314
544.0710, 2340.225
544.5532, 2314.467
545.0353, 2282.012
545.5174, 2246.573
545.9995, 2207.197
546.4816, 2160.344
546.9637, 2103.511
547.4459, 2040.154
547.9280, 1969.234
548.4101, 1884.182
548.8922, 1811.032
549.3743, 1754.518
549.8564, 1705.949
550.3386, 1654.958
550.8207, 1597.396
551.3028, 1551.204
551.7849, 1520.990
552.2670, 1503.072
552.7491, 1488.809
553.2313, 1478.201
553.7134, 1471.253
554.1955, 1467.861
554.6776, 1468.138
555.1597, 1473.695
555.6418, 1484.598
556.1240, 1495.998
556.6061, 1500.485
557.0882, 1503.934
557.5703, 1515.000
558.0524, 1537.664
558.5345, 1564.641
559.0167, 1590.513
559.4988, 1617.821
559.9809, 1650.696
560.4630, 1691.159
560.9451, 1736.846
561.4272, 1789.268
561.9094, 1848.112
562.3915, 1903.558
562.8736, 1945.870
563.3557, 1995.581
563.8378, 2065.190
564.3199, 2160.860
564.8021, 2256.577
565.2842, 2351.525
565.7663, 2446.175
566.2484, 2534.124
566.7305, 2616.489
567.2126, 2717.341
567.6948, 2847.733
568.1769, 2995.567
568.6590, 3137.094
569.1411, 3274.195
569.6232, 3409.803
570.1053, 3547.861
570.5875, 3686.092
571.0696, 3822.862
571.5517, 3957.497
572.0338, 4090.984
572.5159, 4231.860
572.9980, 4366.596
573.4802, 4481.497
573.9623, 4577.220
574.4444, 4648.569
574.9265, 4692.042
575.4086, 4709.696
575.8907, 4705.268
576.3729, 4687.461
576.8550, 4632.657
577.3371, 4530.033
577.8192, 4383.480
578.3013, 4224.387
578.7834, 4055.581
579.2656, 3871.787
579.7477, 3663.632
580.2298, 3433.953
580.7119, 3209.615
581.1940, 2990.771
581.6761, 2786.842
582.1583, 2610.784
582.6404, 2457.253
583.1225, 2314.854
583.6046, 2178.533
584.0867, 2053.744
584.5688, 1946.622
585.0510, 1854.473
585.5331, 1769.764
586.0152, 1688.794
586.4973, 1615.416
586.9794, 1550.298
587.4615, 1493.098
587.9437, 1449.343
588.4258, 1430.567
588.9079, 1414.216
589.3900, 1384.646
589.8721, 1334.869
590.3542, 1292.772
590.8364, 1260.280
591.3185, 1234.923
591.8006, 1215.756
592.2827, 1202.541
592.7648, 1186.775
593.2469, 1164.397
593.7291, 1139.289
594.2112, 1117.681
594.6933, 1099.736
595.1754, 1086.871
595.6575, 1085.326
596.1396, 1086.190
596.6218, 1078.970
597.1039, 1062.335
597.5860, 1049.159
598.0681, 1051.503
598.5502, 1056.776
599.0323, 1054.801
599.5145, 1039.899
599.9966, 1023.099
600.4787, 1001.148
600.9608, 979.1860
601.4429, 966.2488
601.9250, 965.4508
602.4072, 966.0900
602.8893, 965.6421
603.3714, 964.6997
603.8535, 967.2348
604.3356, 973.7576
604.8177, 977.0771
605.2999, 968.6525
605.7820, 953.7540
606.2641, 948.8126
606.7462, 954.8119
