##NAMES=Merwinite
##RRUFFID=R070195
##IDEAL CHEMISTRY=Ca_3_Mg(SiO_4_)_2_
##LOCALITY=Commercial Quarry, Riverside County, California, USA
##OWNER=RRUFF
##SOURCE=California Institute of Technology
##DESCRIPTION=Light gray massive
##STATUS=The identification of this mineral has been confirmed by X-ray diffraction and chemical analysis
##URL=rruff.info/R070195
##MEASURED CHEMISTRY=Ca_3.00_(Mg_0.98_Fe^2+^_0.02_)_Î£=1_(Si_1.00_O_4_)_2_
181.5740, 39279.54
182.0561, 39356.65
182.5383, 39389.06
183.0204, 39425.94
183.5025, 39490.31
183.9846, 39575.64
184.4667, 39664.17
184.9488, 39755.84
185.4310, 39850.29
185.9131, 39947.60
186.3952, 40046.48
186.8773, 40146.44
187.3594, 40247.62
187.8415, 40348.61
188.3237, 40446.04
188.8058, 40528.28
189.2879, 40627.46
189.7700, 40770.90
190.2521, 40922.78
190.7342, 41046.85
191.2164, 41125.42
191.6985, 41171.75
192.1806, 41210.86
192.6627, 41209.91
193.1448, 41265.76
193.6269, 41429.75
194.1091, 41631.63
194.5912, 41806.48
195.0733, 41928.53
195.5554, 42014.59
196.0375, 42098.98
196.5196, 42185.30
197.0018, 42263.55
197.4839, 42328.71
197.9660, 42388.96
198.4481, 42450.46
198.9302, 42515.59
199.4123, 42582.99
199.8945, 42650.08
200.3766, 42715.75
200.8587, 42783.80
201.3408, 42867.50
201.8229, 42945.85
202.3050, 42994.93
202.7872, 43010.59
203.2693, 43016.94
203.7514, 43053.77
204.2335, 43134.32
204.7156, 43216.88
205.1977, 43314.93
205.6799, 43403.79
206.1620, 43459.20
206.6441, 43479.78
207.1262, 43491.20
207.6083, 43533.58
208.0904, 43631.14
208.5726, 43696.03
209.0547, 43712.66
209.5368, 43712.88
210.0189, 43708.33
210.5010, 43703.71
210.9831, 43703.20
211.4653, 43710.47
211.9474, 43723.34
212.4295, 43752.95
212.9116, 43808.95
213.3937, 43871.86
213.8758, 43929.43
214.3580, 43983.42
214.8401, 44046.08
215.3222, 44132.52
215.8043, 44248.05
216.2864, 44350.59
216.7685, 44448.87
217.2507, 44526.92
217.7328, 44559.30
218.2149, 44562.44
218.6970, 44579.51
219.1791, 44648.93
219.6612, 44772.25
220.1434, 44891.34
220.6255, 45014.73
221.1076, 45124.94
221.5897, 45216.93
222.0718, 45291.74
222.5539, 45349.53
223.0361, 45386.04
223.5182, 45405.62
224.0003, 45452.90
224.4824, 45588.71
224.9645, 45685.19
225.4466, 45696.39
225.9288, 45655.83
226.4109, 45609.42
226.8930, 45580.89
227.3751, 45572.64
227.8572, 45597.30
228.3393, 45694.30
228.8215, 45771.91
229.3036, 45813.96
229.7857, 45829.88
230.2678, 45820.55
230.7499, 45784.60
231.2320, 45746.57
231.7142, 45776.89
232.1963, 45955.65
232.6784, 46062.04
233.1605, 46020.37
233.6426, 45931.60
234.1247, 45871.33
234.6069, 45866.61
235.0890, 45915.64
235.5711, 46031.99
236.0532, 46278.18
236.5353, 46440.85
237.0174, 46429.73
237.4996, 46391.51
237.9817, 46438.34
238.4638, 46584.73
238.9459, 46746.84
239.4280, 46808.44
239.9101, 46729.00
240.3923, 46699.89
240.8744, 46753.54
241.3565, 46837.61
241.8386, 46948.39
242.3207, 47074.16
242.8028, 47182.50
243.2850, 47231.35
243.7671, 47213.06
244.2492, 47229.06
244.7313, 47320.83
245.2134, 47409.62
245.6955, 47465.49
246.1777, 47494.08
246.6598, 47514.36
247.1419, 47537.30
247.6240, 47563.52
248.1061, 47598.23
248.5882, 47655.07
249.0704, 47701.87
249.5525, 47721.58
250.0346, 47726.05
250.5167, 47733.18
250.9988, 47750.61
251.4809, 47779.13
251.9631, 47820.92
252.4452, 47876.79
252.9273, 47946.00
253.4094, 48038.72
253.8915, 48138.54
254.3736, 48226.75
254.8558, 48295.24
255.3379, 48354.87
255.8200, 48424.41
256.3021, 48507.33
256.7842, 48586.25
257.2664, 48665.84
257.7485, 48733.55
258.2306, 48767.32
258.7127, 48760.79
259.1948, 48764.16
259.6769, 48847.09
260.1591, 49014.67
260.6412, 49144.01
261.1233, 49180.52
261.6054, 49199.36
262.0875, 49259.04
262.5696, 49359.34
263.0518, 49458.20
263.5339, 49514.58
264.0160, 49539.25
264.4981, 49604.25
264.9802, 49759.29
265.4623, 49887.86
265.9445, 49875.27
266.4266, 49762.45
266.9087, 49685.44
267.3908, 49730.58
267.8729, 49850.84
268.3550, 49954.09
268.8372, 50041.20
269.3193, 50100.98
269.8014, 50110.82
270.2835, 50088.54
270.7656, 50059.30
271.2477, 50014.74
271.7299, 49977.95
272.2120, 49981.85
272.6941, 50027.64
273.1762, 50072.42
273.6583, 50084.96
274.1404, 50088.79
274.6226, 50132.36
275.1047, 50246.96
275.5868, 50348.58
276.0689, 50367.96
276.5510, 50323.04
277.0331, 50283.64
277.5153, 50266.53
277.9974, 50277.65
278.4795, 50334.11
278.9616, 50445.47
279.4437, 50546.53
279.9258, 50612.61
280.4080, 50653.29
280.8901, 50678.88
281.3722, 50689.06
281.8543, 50700.99
282.3364, 50737.59
282.8185, 50800.60
283.3007, 50863.21
283.7828, 50943.76
284.2649, 51009.11
284.7470, 51012.17
285.2291, 50955.36
285.7112, 50906.84
286.1934, 50925.68
286.6755, 51011.44
287.1576, 51076.34
287.6397, 51107.28
288.1218, 51132.24
288.6039, 51163.70
289.0861, 51200.20
289.5682, 51238.19
290.0503, 51277.72
290.5324, 51314.02
291.0145, 51325.23
291.4966, 51283.43
291.9788, 51252.84
292.4609, 51251.82
292.9430, 51264.07
293.4251, 51262.95
293.9072, 51239.76
294.3893, 51218.48
294.8715, 51244.12
295.3536, 51359.54
295.8357, 51441.64
296.3178, 51479.64
296.7999, 51494.59
297.2820, 51490.62
297.7642, 51474.32
298.2463, 51462.57
298.7284, 51472.07
299.2105, 51503.79
299.6926, 51552.01
300.1747, 51643.36
300.6569, 51724.18
301.1390, 51762.54
301.6211, 51776.14
302.1032, 51805.50
302.5853, 51880.32
303.0674, 51989.16
303.5495, 52071.67
304.0316, 52102.92
304.5138, 52143.96
304.9959, 52215.21
305.4780, 52298.17
305.9601, 52375.39
306.4422, 52440.68
306.9243, 52492.97
307.4065, 52525.38
307.8886, 52528.96
308.3707, 52545.67
308.8528, 52584.28
309.3349, 52637.95
309.8170, 52709.07
310.2992, 52795.92
310.7813, 52883.29
311.2634, 52967.20
311.7455, 53045.37
312.2276, 53085.92
312.7097, 53063.42
313.1919, 53035.37
313.6740, 53035.57
314.1561, 53058.39
314.6382, 53090.53
315.1203, 53139.94
315.6024, 53188.89
316.0846, 53194.73
316.5667, 53147.13
317.0488, 53117.60
317.5309, 53157.27
318.0130, 53236.36
318.4951, 53303.48
318.9773, 53340.72
319.4594, 53385.80
319.9415, 53472.71
320.4236, 53593.18
320.9057, 53717.00
321.3878, 53843.66
321.8700, 53952.59
322.3521, 53998.77
322.8342, 53970.84
323.3163, 53964.57
323.7984, 54014.67
324.2805, 54098.24
324.7627, 54187.12
325.2448, 54276.88
325.7269, 54375.82
326.2090, 54500.40
326.6911, 54654.48
327.1732, 54757.57
327.6554, 54755.31
328.1375, 54754.37
328.6196, 54825.46
329.1017, 54950.42
329.5838, 55066.57
330.0659, 55137.08
330.5481, 55171.84
331.0302, 55213.45
331.5123, 55311.44
331.9944, 55354.64
332.4765, 55283.38
332.9586, 55173.71
333.4408, 55101.54
333.9229, 55091.53
334.4050, 55127.75
334.8871, 55197.97
335.3692, 55344.11
335.8513, 55405.96
336.3335, 55308.33
336.8156, 55203.33
337.2977, 55161.74
337.7798, 55183.25
338.2619, 55238.81
338.7440, 55315.55
339.2262, 55407.30
339.7083, 55455.90
340.1904, 55431.60
340.6725, 55405.81
341.1546, 55395.00
341.6367, 55396.56
342.1189, 55408.32
342.6010, 55430.54
343.0831, 55457.63
343.5652, 55475.89
344.0473, 55480.89
344.5294, 55511.00
345.0116, 55606.45
345.4937, 55705.60
345.9758, 55750.31
346.4579, 55739.69
346.9400, 55737.03
347.4221, 55799.73
347.9043, 55900.56
348.3864, 55953.67
348.8685, 55932.53
349.3506, 55921.18
349.8327, 56019.39
350.3148, 56184.95
350.7970, 56289.08
351.2791, 56258.73
351.7612, 56199.21
352.2433, 56198.92
352.7254, 56247.89
353.2076, 56233.04
353.6897, 56285.94
354.1718, 56322.31
354.6539, 56343.04
355.1360, 56301.29
355.6181, 56340.22
356.1003, 56346.82
356.5824, 56352.10
357.0645, 56402.39
357.5466, 56369.73
358.0287, 56419.31
358.5108, 56436.06
358.9930, 56480.49
359.4751, 56509.11
359.9572, 56523.06
360.4393, 56537.42
360.9214, 56566.18
361.4035, 56600.40
361.8857, 56617.22
362.3678, 56600.98
362.8499, 56565.11
363.3320, 56560.57
363.8141, 56616.56
364.2962, 56657.43
364.7784, 56656.51
365.2605, 56649.45
365.7426, 56674.41
366.2247, 56735.92
366.7068, 56795.93
367.1889, 56802.88
367.6711, 56752.21
368.1532, 56725.16
368.6353, 56728.26
369.1174, 56753.51
369.5995, 56794.47
370.0816, 56852.16
370.5638, 56931.64
371.0459, 57054.57
371.5280, 57184.94
372.0101, 57250.32
372.4922, 57242.92
372.9743, 57245.15
373.4565, 57299.08
373.9386, 57378.07
374.4207, 57435.70
374.9028, 57459.79
375.3849, 57501.39
375.8670, 57619.25
376.3492, 57767.57
376.8313, 57842.73
377.3134, 57817.05
377.7955, 57770.05
378.2776, 57787.46
378.7597, 57878.02
379.2419, 57932.76
379.7240, 57915.38
380.2061, 57893.30
380.6882, 57910.14
381.1703, 57956.05
381.6524, 57995.99
382.1346, 58009.60
382.6167, 58009.24
383.0988, 58032.96
383.5809, 58094.84
384.0630, 58164.79
384.5451, 58264.29
385.0273, 58356.97
385.5094, 58410.50
385.9915, 58421.72
386.4736, 58412.34
386.9557, 58401.30
387.4378, 58387.95
387.9200, 58385.41
388.4021, 58379.20
388.8842, 58403.65
389.3663, 58497.98
389.8484, 58622.35
390.3305, 58714.98
390.8127, 58749.26
391.2948, 58744.07
391.7769, 58707.89
392.2590, 58630.80
392.7411, 58624.46
393.2232, 58779.14
393.7054, 58962.21
394.1875, 59035.07
394.6696, 58997.76
395.1517, 58972.11
395.6338, 59037.54
396.1159, 59145.80
396.5981, 59218.59
397.0802, 59248.32
397.5623, 59254.34
398.0444, 59235.96
398.5265, 59204.83
399.0086, 59216.20
399.4908, 59312.88
399.9729, 59402.93
400.4550, 59457.32
400.9371, 59480.16
401.4192, 59463.80
401.9013, 59405.25
402.3835, 59351.83
402.8656, 59379.30
403.3477, 59531.89
403.8298, 59630.28
404.3119, 59662.90
404.7940, 59661.28
405.2762, 59610.00
405.7583, 59537.61
406.2404, 59507.26
406.7225, 59563.82
407.2046, 59680.48
407.6867, 59760.93
408.1689, 59788.43
408.6510, 59813.15
409.1331, 59834.85
409.6152, 59864.45
410.0973, 59911.35
410.5794, 59976.79
411.0616, 60054.49
411.5437, 60141.80
412.0258, 60237.64
412.5079, 60334.98
412.9900, 60434.75
413.4721, 60531.77
413.9543, 60612.57
414.4364, 60688.68
414.9185, 60783.17
415.4006, 60910.18
415.8827, 61045.40
416.3648, 61172.54
416.8470, 61293.68
417.3291, 61419.96
417.8112, 61559.36
418.2933, 61687.51
418.7754, 61760.87
419.2575, 61752.24
419.7397, 61781.87
420.2218, 61903.79
420.7039, 62023.71
421.1860, 62073.73
421.6681, 62063.68
422.1502, 62040.18
422.6324, 62032.03
423.1145, 62036.79
423.5966, 62047.45
424.0787, 62108.77
424.5608, 62101.77
425.0429, 61963.34
425.5251, 61792.66
426.0072, 61666.14
426.4893, 61595.93
426.9714, 61552.20
427.4535, 61519.53
427.9356, 61494.54
428.4178, 61429.89
428.8999, 61286.02
429.3820, 61179.52
429.8641, 61210.45
430.3462, 61304.91
430.8283, 61351.42
431.3105, 61307.82
431.7926, 61245.96
432.2747, 61221.33
432.7568, 61227.18
433.2389, 61243.25
433.7210, 61268.13
434.2032, 61288.75
434.6853, 61284.43
435.1674, 61251.18
435.6495, 61238.18
436.1316, 61245.22
436.6137, 61275.84
437.0959, 61352.59
437.5780, 61454.98
438.0601, 61530.50
438.5422, 61550.24
439.0243, 61539.67
439.5064, 61564.41
439.9886, 61652.75
440.4707, 61726.56
440.9528, 61788.33
441.4349, 61834.36
441.9170, 61859.02
442.3991, 61865.00
442.8813, 61860.50
443.3634, 61845.12
443.8455, 61826.59
444.3276, 61835.57
444.8097, 61876.29
445.2918, 61933.16
445.7740, 62040.69
446.2561, 62140.46
446.7382, 62161.96
447.2203, 62087.17
447.7024, 62008.40
448.1845, 61984.04
448.6667, 61995.25
449.1488, 62002.32
449.6309, 61999.41
450.1130, 62003.61
450.5951, 62035.54
451.0772, 62089.22
451.5594, 62108.20
452.0415, 62034.07
452.5236, 61995.58
453.0057, 62076.03
453.4878, 62202.74
453.9699, 62268.21
454.4521, 62243.51
454.9342, 62185.48
455.4163, 62166.98
455.8984, 62195.39
456.3805, 62221.54
456.8626, 62227.23
457.3448, 62249.69
457.8269, 62314.72
458.3090, 62400.76
458.7911, 62472.97
459.2732, 62515.98
459.7553, 62544.11
460.2375, 62574.54
460.7196, 62607.06
461.2017, 62653.00
461.6838, 62738.14
462.1659, 62804.05
462.6480, 62768.20
463.1302, 62655.55
463.6123, 62602.86
464.0944, 62687.45
464.5765, 62815.64
465.0586, 62912.30
465.5407, 62981.05
466.0229, 63048.50
466.5050, 63129.78
466.9871, 63202.32
467.4692, 63217.03
467.9513, 63119.68
468.4334, 63079.91
468.9156, 63137.93
469.3977, 63217.32
469.8798, 63277.12
470.3619, 63316.45
470.8440, 63346.47
471.3261, 63372.76
471.8083, 63399.29
472.2904, 63441.27
472.7725, 63507.87
473.2546, 63564.11
473.7367, 63604.13
474.2188, 63629.38
474.7010, 63627.79
475.1831, 63604.47
475.6652, 63598.82
476.1473, 63655.65
476.6294, 63735.66
477.1115, 63763.10
477.5937, 63735.75
478.0758, 63717.18
478.5579, 63740.03
479.0400, 63790.90
479.5221, 63838.70
480.0042, 63881.59
480.4864, 63925.73
480.9685, 63976.84
481.4506, 64026.62
481.9327, 64062.68
482.4148, 64087.86
482.8969, 64120.95
483.3791, 64178.86
483.8612, 64253.65
484.3433, 64300.70
484.8254, 64297.58
485.3075, 64303.13
485.7896, 64317.49
486.2718, 64348.27
486.7539, 64402.85
487.2360, 64481.37
487.7181, 64575.89
488.2002, 64693.29
488.6823, 64821.45
489.1645, 64930.16
489.6466, 65023.37
490.1287, 65068.35
490.6108, 65016.63
491.0929, 64921.40
491.5750, 64895.10
492.0572, 64957.85
492.5393, 65029.31
493.0214, 65082.75
493.5035, 65130.41
493.9856, 65189.04
494.4677, 65258.15
494.9499, 65325.47
495.4320, 65385.18
495.9141, 65432.49
496.3962, 65435.99
496.8783, 65345.88
497.3604, 65281.15
497.8426, 65251.70
498.3247, 65251.77
498.8068, 65292.84
499.2889, 65366.23
499.7710, 65427.13
500.2531, 65429.94
500.7353, 65391.07
501.2174, 65374.37
501.6995, 65385.40
502.1816, 65394.11
502.6637, 65375.56
503.1458, 65354.83
503.6280, 65374.54
504.1101, 65446.38
504.5922, 65511.68
505.0743, 65535.77
505.5564, 65548.95
506.0385, 65591.16
506.5207, 65661.43
507.0028, 65726.20
507.4849, 65762.45
507.9670, 65776.80
508.4491, 65797.85
508.9312, 65828.50
509.4134, 65862.33
509.8955, 65902.96
510.3776, 65943.40
510.8597, 65975.42
511.3418, 66001.11
511.8239, 66031.43
512.3061, 66075.14
512.7882, 66128.51
513.2703, 66191.27
513.7524, 66271.02
514.2346, 66308.46
514.7167, 66256.95
515.1988, 66174.59
515.6809, 66136.70
516.1630, 66145.51
516.6451, 66164.91
517.1273, 66204.23
517.6094, 66234.51
518.0915, 66207.79
518.5736, 66142.10
519.0557, 66119.30
519.5378, 66188.32
520.0200, 66301.28
520.5021, 66339.91
520.9842, 66240.04
521.4663, 66188.34
521.9484, 66236.99
522.4305, 66279.39
522.9127, 66227.20
523.3948, 66121.27
523.8769, 66079.73
524.3590, 66184.58
524.8411, 66339.39
525.3232, 66365.79
525.8054, 66264.95
526.2875, 66226.57
526.7696, 66317.09
527.2517, 66448.63
527.7338, 66528.55
528.2159, 66563.67
528.6981, 66605.59
529.1802, 66689.14
529.6623, 66754.07
530.1444, 66738.87
530.6265, 66684.30
531.1086, 66672.00
531.5908, 66729.35
532.0729, 66820.91
532.5550, 66903.61
533.0371, 66982.48
533.5192, 67021.83
534.0013, 66979.67
534.4835, 66945.23
534.9656, 66945.65
535.4477, 66969.62
535.9298, 66998.80
536.4119, 67027.02
536.8940, 67070.07
537.3762, 67175.72
537.8583, 67309.20
538.3404, 67329.16
538.8225, 67201.11
539.3046, 67101.92
539.7867, 67179.02
540.2689, 67387.54
540.7510, 67500.70
541.2331, 67478.80
541.7152, 67429.38
542.1973, 67338.38
542.6794, 67252.59
543.1616, 67233.34
543.6437, 67273.40
544.1258, 67302.59
544.6079, 67261.84
545.0900, 67168.20
545.5721, 67088.40
546.0543, 67005.91
546.5364, 66983.95
547.0185, 67119.31
547.5006, 67261.34
547.9827, 67279.05
548.4648, 67178.56
548.9469, 67086.05
549.4290, 67064.64
549.9111, 67073.02
550.3932, 67065.77
550.8754, 67047.57
551.3575, 67040.31
551.8396, 67051.22
552.3217, 67086.26
552.8038, 67162.86
553.2859, 67315.74
553.7681, 67390.95
554.2502, 67305.09
554.7323, 67242.51
555.2144, 67309.95
555.6965, 67439.36
556.1786, 67513.87
556.6608, 67489.65
557.1429, 67437.59
557.6250, 67433.56
558.1071, 67475.80
558.5892, 67562.52
559.0714, 67715.19
559.5535, 67843.27
560.0356, 67873.84
560.5177, 67834.31
560.9998, 67818.80
561.4819, 67834.55
561.9641, 67862.81
562.4462, 67900.41
562.9283, 67946.08
563.4104, 67995.88
563.8925, 68051.48
564.3746, 68124.99
564.8568, 68230.33
565.3389, 68353.13
565.8210, 68442.53
566.3031, 68507.30
566.7852, 68516.05
567.2673, 68368.53
567.7495, 68240.09
568.2316, 68262.21
568.7137, 68410.83
569.1958, 68553.59
569.6779, 68640.33
570.1600, 68692.56
570.6422, 68702.99
571.1243, 68694.34
571.6064, 68762.47
572.0885, 68944.00
572.5706, 69133.98
573.0527, 69196.39
573.5349, 69111.04
574.0170, 69091.68
574.4991, 69226.73
574.9812, 69318.63
575.4633, 69258.23
575.9454, 69160.46
576.4276, 69174.64
576.9097, 69324.88
577.3918, 69478.00
577.8739, 69514.60
578.3560, 69457.61
578.8381, 69363.23
579.3203, 69222.65
579.8024, 69139.39
580.2845, 69196.26
580.7666, 69307.09
581.2487, 69288.52
581.7308, 69101.88
582.2130, 68973.49
582.6951, 68989.15
583.1772, 69023.35
583.6593, 68979.24
584.1414, 68888.98
584.6235, 68839.40
585.1057, 68870.88
585.5878, 68934.25
586.0699, 68948.17
586.5520, 68907.04
587.0341, 68881.99
587.5162, 68880.89
587.9984, 68888.45
588.4805, 68908.97
588.9626, 68928.95
589.4447, 68920.47
589.9268, 68864.03
590.4089, 68821.02
590.8911, 68846.44
591.3732, 68888.06
591.8553, 68862.73
592.3374, 68777.08
592.8195, 68712.98
593.3016, 68725.49
593.7838, 68796.28
594.2659, 68874.98
594.7480, 68981.41
595.2301, 69047.64
595.7122, 69023.33
596.1943, 68997.52
596.6765, 69020.38
597.1586, 69077.02
597.6407, 69124.88
598.1228, 69146.34
598.6049, 69157.71
599.0870, 69181.63
599.5692, 69206.38
600.0513, 69183.52
600.5334, 69103.34
601.0155, 69054.23
601.4976, 69117.70
601.9797, 69278.57
602.4619, 69413.52
602.9440, 69537.58
603.4261, 69611.41
603.9082, 69603.41
604.3903, 69567.70
604.8724, 69530.95
605.3546, 69502.66
605.8367, 69496.38
606.3188, 69525.61
606.8009, 69573.07
607.2830, 69619.09
607.7651, 69662.27
608.2473, 69688.99
608.7294, 69693.62
609.2115, 69690.97
609.6936, 69699.08
610.1757, 69717.90
610.6578, 69710.09
611.1400, 69614.60
611.6221, 69572.03
612.1042, 69674.03
612.5863, 69807.34
613.0684, 69846.37
613.5505, 69787.41
614.0327, 69726.45
614.5148, 69743.68
614.9969, 69803.73
615.4790, 69808.62
615.9611, 69754.52
616.4432, 69736.16
616.9254, 69794.30
617.4075, 69873.31
617.8896, 69907.04
618.3717, 69894.43
618.8538, 69903.16
619.3359, 69963.59
619.8181, 70013.61
620.3002, 70022.06
620.7823, 70010.13
621.2644, 69995.83
621.7465, 69987.97
622.2286, 70004.27
622.7108, 70072.14
623.1929, 70172.10
623.6750, 70223.45
624.1571, 70219.20
624.6392, 70201.87
625.1213, 70157.04
625.6035, 70135.52
626.0856, 70229.23
626.5677, 70430.28
627.0498, 70563.84
627.5319, 70544.28
628.0140, 70518.12
628.4962, 70586.29
628.9783, 70683.16
629.4604, 70693.84
629.9425, 70601.63
630.4246, 70502.83
630.9067, 70495.37
631.3889, 70561.89
631.8710, 70605.94
632.3531, 70624.70
632.8352, 70631.84
633.3173, 70625.39
633.7994, 70614.70
634.2816, 70604.11
634.7637, 70594.27
635.2458, 70607.24
635.7279, 70669.06
636.2100, 70731.95
636.6921, 70775.16
637.1743, 70799.60
637.6564, 70806.13
638.1385, 70795.98
638.6206, 70771.50
639.1027, 70723.52
639.5848, 70665.22
640.0670, 70692.27
640.5491, 70837.40
641.0312, 70950.93
641.5133, 70974.58
641.9954, 70963.37
642.4775, 70971.03
642.9597, 70996.37
643.4418, 71026.13
643.9239, 71069.19
644.4060, 71103.64
644.8881, 71105.02
645.3702, 71094.95
645.8524, 71111.42
646.3345, 71159.29
646.8166, 71206.07
647.2987, 71218.32
647.7808, 71205.99
648.2629, 71219.75
648.7451, 71268.57
649.2272, 71306.63
649.7093, 71315.23
650.1914, 71316.63
650.6735, 71334.03
651.1556, 71364.74
651.6378, 71389.83
652.1199, 71389.05
652.6020, 71401.48
653.0841, 71447.32
653.5662, 71516.52
654.0483, 71614.90
654.5305, 71730.42
655.0126, 71805.59
655.4947, 71784.99
655.9768, 71700.77
656.4589, 71662.24
656.9410, 71678.10
657.4232, 71684.41
657.9053, 71657.24
658.3874, 71632.21
658.8695, 71637.55
659.3516, 71671.57
659.8337, 71731.09
660.3159, 71879.27
660.7980, 71974.31
661.2801, 71930.27
661.7622, 71833.45
662.2443, 71773.51
662.7264, 71755.46
663.2086, 71727.27
663.6907, 71644.52
664.1728, 71559.57
664.6549, 71607.16
665.1370, 71792.70
665.6191, 71930.30
666.1013, 71981.75
666.5834, 72005.07
667.0655, 72034.98
667.5476, 72071.80
668.0297, 72117.02
668.5118, 72190.76
668.9940, 72240.09
669.4761, 72232.23
669.9582, 72214.77
670.4403, 72231.03
670.9224, 72271.01
671.4045, 72294.62
671.8867, 72280.13
672.3688, 72256.30
672.8509, 72266.45
673.3330, 72305.62
673.8151, 72332.66
674.2972, 72338.20
674.7794, 72367.59
675.2615, 72458.03
675.7436, 72582.83
676.2257, 72672.59
676.7078, 72720.69
677.1899, 72747.80
