##NAMES=Mesolite
##RRUFFID=R050013
##IDEAL CHEMISTRY=Na_2_Ca_2_(Si_9_Al_6_)O_30_&#183;8H_2_O
##LOCALITY=Poona, Maharashtra, India
##OWNER=RRUFF
##SOURCE=University of Arizona Mineral Museum
##DESCRIPTION=Clear to white elongated prismatic single crystal
##STATUS=The identification of this mineral has been confirmed by X-ray diffraction and chemical analysis
##URL=rruff.info/R050013
##MEASURED CHEMISTRY=Na_2.00_Ca_2.00_(Si_9.00_Al_6.00_)O_30_Â·8H_2_O
217.523, 6299.710
218.006, 6297.846
218.488, 6303.441
218.970, 6310.700
219.452, 6319.896
219.934, 6328.895
220.416, 6343.455
220.898, 6352.617
221.380, 6345.912
221.863, 6328.029
222.345, 6314.654
222.827, 6322.759
223.309, 6353.587
223.791, 6371.601
224.273, 6361.118
224.755, 6351.892
225.237, 6354.640
225.719, 6366.852
226.202, 6381.079
226.684, 6392.642
227.166, 6401.576
227.648, 6407.090
228.130, 6404.058
228.612, 6403.700
229.094, 6414.012
229.577, 6429.062
230.059, 6437.933
230.541, 6432.620
231.023, 6416.518
231.505, 6430.997
231.987, 6420.997
232.469, 6440.997
232.951, 6420.997
233.433, 6440.997
233.915, 6460.997
234.398, 6440.997
234.880, 6420.997
235.362, 6432.217
235.844, 6405.623
236.326, 6392.922
236.808, 6389.554
237.290, 6387.593
237.772, 6375.851
238.255, 6347.714
238.737, 6317.558
239.219, 6314.059
239.701, 6347.191
240.183, 6375.058
240.665, 6383.876
241.147, 6384.013
241.629, 6381.405
242.111, 6377.126
242.594, 6374.953
243.076, 6382.625
243.558, 6402.827
244.040, 6414.621
244.522, 6407.066
245.004, 6392.782
245.486, 6379.444
245.968, 6368.111
246.451, 6356.957
246.933, 6340.298
247.415, 6318.375
247.897, 6311.329
248.379, 6335.872
248.861, 6363.289
249.343, 6371.406
249.825, 6360.692
250.307, 6345.630
250.790, 6331.799
251.272, 6320.494
251.754, 6320.604
252.236, 6341.404
252.718, 6360.812
253.200, 6359.515
253.682, 6341.993
254.164, 6325.472
254.646, 6321.987
255.129, 6324.709
255.611, 6315.300
256.093, 6287.274
256.575, 6263.364
257.057, 6266.279
257.539, 6286.327
258.021, 6303.212
258.503, 6315.042
258.986, 6318.787
259.468, 6307.209
259.950, 6278.851
260.432, 6248.893
260.914, 6221.103
261.396, 6199.714
261.878, 6193.816
262.360, 6216.271
262.842, 6242.919
263.325, 6252.751
263.807, 6247.665
264.289, 6243.890
264.771, 6250.318
265.253, 6262.190
265.735, 6266.947
266.217, 6258.760
266.699, 6253.922
267.181, 6262.907
267.664, 6281.651
268.146, 6299.267
268.628, 6311.754
269.110, 6321.288
269.592, 6333.194
270.074, 6350.969
270.556, 6360.532
271.039, 6348.176
271.521, 6328.711
272.003, 6325.701
272.485, 6345.735
272.967, 6372.346
273.449, 6382.891
273.931, 6370.299
274.413, 6367.937
274.895, 6386.176
275.378, 6409.599
275.860, 6425.562
276.342, 6432.714
276.824, 6436.151
277.306, 6440.424
277.788, 6445.700
278.270, 6450.109
278.752, 6463.945
279.234, 6467.777
279.717, 6440.020
280.199, 6391.820
280.681, 6357.000
281.163, 6360.833
281.645, 6398.853
282.127, 6422.860
282.609, 6424.216
283.091, 6422.475
283.573, 6420.518
284.056, 6418.466
284.538, 6416.102
285.020, 6413.387
285.502, 6410.126
285.984, 6405.118
286.466, 6389.160
286.948, 6385.747
287.431, 6407.987
287.913, 6435.939
288.395, 6449.914
288.877, 6445.090
289.359, 6434.434
289.841, 6438.165
290.323, 6463.025
290.805, 6483.621
291.287, 6490.662
291.770, 6500.428
292.252, 6525.766
292.734, 6564.609
293.216, 6602.081
293.698, 6622.958
294.180, 6626.594
294.662, 6634.808
295.144, 6656.067
295.626, 6672.037
296.109, 6675.375
296.591, 6668.166
297.073, 6655.202
297.555, 6638.715
298.037, 6618.792
298.519, 6594.785
299.001, 6565.167
299.483, 6535.319
299.966, 6505.060
300.448, 6476.800
300.930, 6454.928
301.412, 6442.925
301.894, 6432.894
302.376, 6413.988
302.858, 6385.682
303.340, 6359.121
303.822, 6336.940
304.305, 6319.414
304.787, 6308.712
305.269, 6306.854
305.751, 6300.521
306.233, 6277.968
306.715, 6243.819
307.197, 6211.277
307.679, 6180.605
308.161, 6157.165
308.644, 6152.145
309.126, 6163.811
309.608, 6170.026
310.090, 6158.107
310.572, 6141.081
311.054, 6135.944
311.536, 6144.329
312.018, 6154.480
312.500, 6156.380
312.983, 6150.608
313.465, 6150.876
313.947, 6161.185
314.429, 6173.591
314.911, 6184.180
315.393, 6193.376
315.875, 6204.362
316.358, 6220.152
316.840, 6236.770
317.322, 6239.030
317.804, 6205.943
318.286, 6185.621
318.768, 6193.715
319.250, 6214.021
319.732, 6228.478
320.214, 6231.273
320.697, 6227.007
321.179, 6221.884
321.661, 6210.848
322.143, 6211.329
322.625, 6237.415
323.107, 6261.773
323.589, 6267.270
324.071, 6254.223
324.553, 6233.088
325.036, 6211.965
325.518, 6190.899
326.000, 6173.442
326.482, 6162.207
326.964, 6152.375
327.446, 6138.017
327.928, 6125.195
328.410, 6125.820
328.892, 6149.326
329.375, 6182.572
329.857, 6192.431
330.339, 6171.586
330.821, 6147.433
331.303, 6121.883
331.785, 6099.504
332.267, 6085.410
332.749, 6080.806
333.232, 6079.887
333.714, 6071.896
334.196, 6058.493
334.678, 6067.654
335.160, 6119.735
335.642, 6175.132
336.124, 6199.209
336.606, 6195.053
337.089, 6181.736
337.571, 6158.753
338.053, 6134.510
338.535, 6123.142
339.017, 6126.144
339.499, 6136.268
339.981, 6153.611
340.463, 6174.218
340.945, 6181.924
341.427, 6162.597
341.910, 6142.889
342.392, 6143.522
342.874, 6156.924
343.356, 6159.213
343.838, 6137.907
344.320, 6104.820
344.802, 6087.632
345.284, 6096.498
345.767, 6102.588
346.249, 6103.623
346.731, 6100.213
347.213, 6089.672
347.695, 6072.862
348.177, 6058.739
348.659, 6058.243
349.141, 6074.795
349.624, 6087.536
350.106, 6096.645
350.588, 6102.583
351.070, 6102.121
351.552, 6098.736
352.034, 6100.478
352.516, 6113.734
352.998, 6133.588
353.480, 6139.372
353.963, 6121.900
354.445, 6105.639
354.927, 6092.748
355.409, 6084.389
355.891, 6081.358
356.373, 6083.884
356.855, 6092.034
357.337, 6111.651
357.819, 6143.962
358.302, 6157.524
358.784, 6135.391
359.266, 6106.430
359.748, 6087.257
360.230, 6078.187
360.712, 6079.774
361.194, 6105.807
361.676, 6138.565
362.159, 6140.746
362.641, 6107.352
363.123, 6073.213
363.605, 6058.485
364.087, 6059.710
364.569, 6064.615
365.051, 6075.466
365.533, 6086.337
366.016, 6092.591
366.498, 6096.313
366.980, 6104.579
367.462, 6121.174
367.944, 6137.993
368.426, 6141.906
368.908, 6132.947
369.390, 6109.440
369.872, 6046.786
370.354, 5987.125
370.837, 5967.189
371.319, 5986.301
371.801, 6016.932
372.283, 6037.150
372.765, 6047.001
373.247, 6048.693
373.729, 6029.103
374.211, 6015.754
374.694, 6022.346
375.176, 6035.951
375.658, 6038.732
376.140, 6023.047
376.622, 5996.372
377.104, 5970.206
377.586, 5941.948
378.068, 5923.361
378.551, 5916.852
379.033, 5920.573
379.515, 5941.039
379.997, 5974.908
380.479, 6002.634
380.961, 6008.062
381.443, 5996.273
381.925, 5983.041
382.407, 5966.518
382.890, 5955.106
383.372, 5959.437
383.854, 5971.901
384.336, 5978.492
384.818, 5975.759
385.300, 5967.888
385.782, 5953.111
386.264, 5934.744
386.746, 5926.789
387.229, 5936.885
387.711, 5952.835
388.193, 5952.573
388.675, 5929.396
389.157, 5913.774
389.639, 5913.121
390.121, 5918.578
390.603, 5924.171
391.086, 5928.749
391.568, 5932.252
392.050, 5934.901
392.532, 5936.598
393.014, 5934.785
393.496, 5927.147
393.978, 5918.642
394.460, 5910.248
394.943, 5901.436
395.425, 5890.059
395.907, 5875.476
396.389, 5862.343
396.871, 5858.664
397.353, 5866.379
397.835, 5874.860
398.317, 5889.263
398.799, 5898.425
399.281, 5890.484
399.764, 5870.375
400.246, 5857.486
400.728, 5871.100
401.210, 5897.415
401.692, 5905.540
402.174, 5893.524
402.656, 5874.359
403.138, 5844.423
403.621, 5816.313
404.103, 5814.699
404.585, 5852.581
405.067, 5891.384
405.549, 5909.209
406.031, 5914.629
406.513, 5925.859
406.995, 5947.866
407.478, 5967.758
407.960, 5968.068
408.442, 5941.885
408.924, 5935.147
409.406, 5959.142
409.888, 5990.269
410.370, 6025.760
410.852, 6058.563
411.334, 6073.414
411.817, 6060.235
412.299, 6030.986
412.781, 6022.295
413.263, 6049.216
413.745, 6069.244
414.227, 6078.079
414.709, 6079.821
415.191, 6075.705
415.673, 6066.758
416.156, 6055.959
416.638, 6042.924
417.120, 6029.148
417.602, 6027.065
418.084, 6043.332
418.566, 6057.271
419.048, 6053.583
419.530, 6041.015
420.013, 6033.626
420.495, 6040.020
420.977, 6042.747
421.459, 6017.658
421.941, 5975.754
422.423, 5958.542
422.905, 5982.548
423.387, 6020.688
423.870, 6036.259
424.352, 6023.841
424.834, 6016.462
425.316, 6017.104
425.798, 6022.319
426.280, 6036.687
426.762, 6054.544
427.244, 6057.741
427.726, 6032.580
428.208, 5990.189
428.691, 5974.973
429.173, 6019.277
429.655, 6040.988
430.137, 6012.780
430.619, 5974.570
431.101, 5958.777
431.583, 5969.177
432.065, 5986.103
432.548, 5992.594
433.030, 5989.203
433.512, 5981.422
433.994, 5965.212
434.476, 5952.391
434.958, 5949.416
435.440, 5953.721
435.922, 5963.566
436.405, 5984.175
436.887, 5999.764
437.369, 5989.268
437.851, 5962.384
438.333, 5953.646
438.815, 5974.962
439.297, 6007.052
439.779, 6027.236
440.261, 6033.935
440.744, 6035.798
441.226, 6027.247
441.708, 6019.266
442.190, 6016.602
442.672, 6020.004
443.154, 6031.952
443.636, 6054.716
444.118, 6081.617
444.600, 6093.073
445.083, 6076.568
445.565, 6068.031
446.047, 6072.173
446.529, 6082.180
447.011, 6099.596
447.493, 6120.614
447.975, 6131.750
448.457, 6118.632
448.940, 6087.679
449.422, 6061.723
449.904, 6041.201
450.386, 6023.935
450.868, 6011.749
451.350, 6001.124
451.832, 5987.946
452.314, 5973.900
452.797, 5951.354
453.279, 5902.735
453.761, 5846.564
454.243, 5821.300
454.725, 5834.070
455.207, 5850.269
455.689, 5834.442
456.171, 5784.347
456.653, 5758.522
457.135, 5781.151
457.618, 5796.638
458.100, 5784.305
458.582, 5755.333
459.064, 5723.330
459.546, 5693.714
460.028, 5670.041
460.510, 5660.536
460.992, 5670.313
461.474, 5668.666
461.957, 5641.219
462.439, 5616.478
462.921, 5611.075
463.403, 5618.552
463.885, 5623.045
464.367, 5617.031
464.849, 5606.174
465.332, 5598.395
465.814, 5593.083
466.296, 5582.196
466.778, 5559.932
467.260, 5536.153
467.742, 5527.279
468.224, 5535.109
468.706, 5539.663
469.188, 5534.641
469.671, 5528.057
470.153, 5526.437
470.635, 5528.790
471.117, 5530.273
471.599, 5528.008
472.081, 5522.930
472.563, 5517.966
473.045, 5513.282
473.527, 5508.372
474.010, 5503.721
474.492, 5498.445
474.974, 5490.176
475.456, 5480.029
475.938, 5473.210
476.420, 5474.580
476.902, 5481.846
477.384, 5489.936
477.866, 5500.219
478.349, 5504.102
478.831, 5495.383
479.313, 5479.038
479.795, 5461.800
480.277, 5440.953
480.759, 5429.708
481.241, 5446.273
481.723, 5468.817
482.206, 5464.709
482.688, 5433.176
483.170, 5403.476
483.652, 5398.885
484.134, 5416.200
484.616, 5426.696
485.098, 5419.278
485.580, 5418.595
486.062, 5433.828
486.545, 5452.919
487.027, 5465.502
487.509, 5469.314
487.991, 5467.171
488.473, 5460.620
488.955, 5450.040
489.437, 5438.521
489.919, 5425.068
490.402, 5413.025
490.884, 5400.808
491.366, 5392.242
491.848, 5395.112
492.330, 5415.075
492.812, 5433.576
493.294, 5442.893
493.776, 5443.019
494.259, 5427.832
494.741, 5396.973
495.223, 5373.134
495.705, 5379.187
496.187, 5414.067
496.669, 5430.813
497.151, 5406.352
497.633, 5392.860
498.115, 5414.158
498.598, 5444.965
499.080, 5453.210
499.562, 5432.879
500.044, 5409.970
500.526, 5418.677
501.008, 5457.346
501.490, 5474.975
501.972, 5460.478
502.454, 5446.134
502.937, 5453.095
503.419, 5469.742
503.901, 5479.257
504.383, 5476.648
504.865, 5471.775
505.347, 5470.176
505.829, 5470.506
506.311, 5467.559
506.793, 5460.529
507.276, 5461.730
507.758, 5485.592
508.240, 5531.675
508.722, 5556.746
509.204, 5542.897
509.686, 5531.200
510.168, 5533.270
510.651, 5539.910
511.133, 5537.443
511.615, 5524.192
512.097, 5515.288
512.579, 5532.380
513.061, 5572.662
513.543, 5594.769
514.025, 5586.599
514.507, 5588.082
514.990, 5636.124
515.472, 5702.386
515.954, 5741.330
516.436, 5737.652
516.918, 5733.879
517.400, 5749.293
517.882, 5779.184
518.364, 5820.167
518.846, 5870.662
519.329, 5919.781
519.811, 5957.537
520.293, 5985.576
520.775, 6024.285
521.257, 6066.202
521.739, 6129.591
522.221, 6232.536
522.703, 6347.924
523.185, 6449.645
523.668, 6534.861
524.150, 6621.673
524.632, 6729.274
525.114, 6851.620
525.596, 6955.397
526.078, 7031.783
526.560, 7131.869
527.042, 7292.265
527.524, 7485.012
528.007, 7657.988
528.489, 7808.986
528.971, 7945.341
529.453, 8064.282
529.935, 8172.295
530.417, 8273.199
530.899, 8367.990
531.381, 8460.284
531.864, 8555.427
532.346, 8644.428
532.828, 8694.312
533.310, 8695.275
533.792, 8674.384
534.274, 8642.212
534.756, 8585.114
535.238, 8492.469
535.721, 8365.795
536.203, 8212.764
536.685, 8023.809
537.167, 7820.651
537.649, 7639.604
538.131, 7478.590
538.613, 7321.730
539.095, 7164.232
539.578, 7007.335
540.060, 6852.362
540.542, 6695.329
541.024, 6556.181
541.506, 6443.397
541.988, 6342.267
542.470, 6246.246
542.952, 6154.538
543.434, 6065.606
543.917, 5978.669
544.399, 5897.036
544.881, 5825.998
545.363, 5765.364
545.845, 5714.935
546.327, 5676.983
546.809, 5646.681
547.291, 5627.657
547.773, 5613.071
548.256, 5586.693
548.738, 5537.225
549.220, 5487.160
549.702, 5452.047
550.184, 5427.157
550.666, 5403.049
551.148, 5377.733
551.630, 5355.482
552.112, 5340.698
552.595, 5333.282
553.077, 5328.180
553.559, 5336.913
554.041, 5333.666
554.523, 5305.670
555.005, 5269.323
555.487, 5239.614
555.969, 5219.423
556.451, 5202.951
556.934, 5185.500
557.416, 5168.010
557.898, 5152.249
558.380, 5137.674
558.862, 5130.886
559.344, 5139.947
559.826, 5154.641
560.308, 5152.059
560.791, 5127.030
561.273, 5105.544
561.755, 5093.751
562.237, 5085.013
562.719, 5075.600
563.201, 5064.891
563.683, 5051.969
564.165, 5035.863
564.648, 5020.103
565.130, 5013.180
565.612, 5017.197
566.094, 5018.680
566.576, 5014.700
567.058, 5009.466
567.540, 5006.465
568.022, 5004.447
568.505, 5000.012
568.987, 4992.945
569.469, 4982.312
569.951, 4959.601
570.433, 4934.557
570.915, 4930.953
571.397, 4953.397
571.879, 4977.578
572.361, 4978.237
572.844, 4956.021
573.326, 4944.476
573.808, 4961.997
574.290, 4965.214
574.772, 4928.263
575.254, 4886.199
575.736, 4877.432
576.218, 4904.017
576.700, 4926.266
577.183, 4910.298
577.665, 4873.163
578.147, 4844.237
578.629, 4824.152
579.111, 4817.288
579.593, 4829.455
580.075, 4848.934
580.557, 4854.627
581.039, 4839.897
581.522, 4828.248
582.004, 4819.297
582.486, 4813.776
582.968, 4815.907
583.450, 4820.967
583.932, 4820.215
584.414, 4809.914
584.896, 4795.739
585.378, 4783.445
585.861, 4773.337
586.343, 4771.404
586.825, 4782.511
587.307, 4790.041
587.789, 4776.084
588.271, 4751.327
588.753, 4748.833
589.235, 4787.843
589.718, 4816.623
590.200, 4812.504
590.682, 4795.027
591.164, 4782.283
591.646, 4776.232
592.128, 4771.038
592.610, 4762.340
593.092, 4752.063
593.575, 4745.298
594.057, 4740.755
594.539, 4745.399
595.021, 4774.446
595.503, 4798.371
595.985, 4790.638
596.467, 4757.757
596.949, 4729.214
597.432, 4708.392
597.914, 4699.581
598.396, 4714.643
598.878, 4741.769
599.360, 4759.613
599.842, 4762.492
600.324, 4752.383
600.806, 4727.896
601.288, 4690.290
601.771, 4674.850
602.253, 4697.007
602.735, 4716.737
603.217, 4726.634
603.699, 4729.323
604.181, 4726.375
604.663, 4718.128
605.145, 4705.604
605.627, 4682.593
606.110, 4660.092
606.592, 4653.135
607.074, 4659.270
607.556, 4668.296
608.038, 4677.167
608.520, 4680.693
609.002, 4669.586
609.484, 4638.884
609.966, 4617.933
610.449, 4606.538
610.931, 4605.493
611.413, 4625.439
611.895, 4651.181
612.377, 4662.348
612.859, 4653.892
613.341, 4642.368
613.823, 4642.944
614.305, 4648.738
614.788, 4642.821
615.270, 4625.157
615.752, 4615.342
616.234, 4625.185
616.716, 4644.659
617.198, 4652.391
617.680, 4642.847
618.162, 4634.273
618.645, 4624.287
619.127, 4617.762
619.609, 4618.647
620.091, 4624.199
620.573, 4630.940
621.055, 4638.156
621.537, 4640.982
622.019, 4630.216
622.502, 4610.787
622.984, 4599.406
623.466, 4597.944
623.948, 4601.901
624.430, 4611.231
624.912, 4621.831
625.394, 4620.721
625.876, 4594.720
626.359, 4578.501
626.841, 4578.958
627.323, 4583.179
627.805, 4584.939
628.287, 4583.852
628.769, 4580.663
629.251, 4575.388
629.733, 4569.767
630.215, 4565.276
630.698, 4562.228
631.180, 4563.671
631.662, 4571.135
632.144, 4575.263
632.626, 4566.683
633.108, 4550.075
633.590, 4546.297
634.072, 4570.583
634.554, 4585.083
635.037, 4579.800
635.519, 4570.208
636.001, 4567.628
636.483, 4570.467
636.965, 4571.121
637.447, 4565.283
637.929, 4556.649
638.411, 4551.197
638.893, 4548.076
639.376, 4540.349
639.858, 4525.845
640.340, 4511.983
640.822, 4504.069
641.304, 4501.658
641.786, 4502.322
642.268, 4515.347
642.750, 4518.327
643.232, 4498.247
643.715, 4476.236
644.197, 4469.908
644.679, 4476.132
645.161, 4480.802
645.643, 4476.293
646.125, 4466.570
646.607, 4455.063
647.089, 4442.675
647.572, 4436.371
648.054, 4438.371
648.536, 4440.944
649.018, 4438.690
649.500, 4431.769
649.982, 4421.010
650.464, 4396.873
650.946, 4382.320
651.429, 4384.536
651.911, 4392.436
652.393, 4401.814
652.875, 4409.793
653.357, 4410.629
653.839, 4399.358
654.321, 4384.872
654.803, 4382.044
655.286, 4386.990
655.768, 4377.705
656.250, 4348.288
656.732, 4326.788
657.214, 4337.995
657.696, 4374.840
658.178, 4397.564
658.660, 4397.650
659.142, 4395.044
659.625, 4384.397
660.107, 4376.521
660.589, 4380.810
661.071, 4393.838
661.553, 4406.046
662.035, 4414.849
662.517, 4416.911
662.999, 4405.457
663.481, 4384.571
663.964, 4363.635
664.446, 4344.279
664.928, 4332.580
665.410, 4333.433
665.892, 4345.185
666.374, 4363.264
666.856, 4408.878
667.338, 4421.391
667.820, 4362.823
668.303, 4306.960
668.785, 4298.569
669.267, 4322.427
669.749, 4340.761
670.231, 4340.820
670.713, 4332.715
671.195, 4321.089
671.677, 4307.837
672.159, 4295.164
672.642, 4283.801
673.124, 4277.715
673.606, 4280.096
674.088, 4286.856
674.570, 4287.420
675.052, 4280.758
675.534, 4270.778
676.016, 4251.535
676.499, 4236.323
676.981, 4233.223
677.463, 4237.742
677.945, 4241.550
678.427, 4241.921
678.909, 4245.603
679.391, 4262.519
679.873, 4280.113
680.356, 4279.621
680.838, 4265.640
681.320, 4260.545
681.802, 4275.968
682.284, 4297.450
682.766, 4297.455
683.248, 4273.032
683.730, 4260.524
684.213, 4264.938
684.695, 4272.667
685.177, 4282.361
685.659, 4288.667
686.141, 4281.271
686.623, 4256.063
687.105, 4234.178
687.587, 4220.745
688.069, 4211.628
688.552, 4203.699
689.034, 4198.056
689.516, 4199.032
689.998, 4207.611
690.480, 4215.499
690.962, 4212.309
691.444, 4200.060
691.926, 4187.707
692.408, 4174.806
692.891, 4165.798
693.373, 4161.993
693.855, 4163.680
694.337, 4173.123
694.819, 4193.467
695.301, 4204.345
695.783, 4201.125
696.265, 4194.391
696.747, 4185.459
697.230, 4176.005
697.712, 4167.195
698.194, 4159.448
698.676, 4153.540
699.158, 4149.875
699.640, 4148.436
700.122, 4150.762
700.604, 4155.685
701.086, 4156.123
701.569, 4149.671
702.051, 4147.120
702.533, 4161.715
703.015, 4191.267
703.497, 4202.696
703.979, 4180.455
704.461, 4167.850
704.943, 4183.007
705.426, 4200.043
705.908, 4194.901
706.390, 4175.084
706.872, 4172.918
707.354, 4210.850
707.836, 4250.539
708.318, 4270.412
708.800, 4275.717
709.282, 4268.666
709.765, 4253.157
710.247, 4241.740
710.729, 4242.929
711.211, 4252.702
711.693, 4263.061
712.175, 4274.309
712.657, 4281.782
713.140, 4283.208
713.622, 4285.039
714.104, 4295.334
714.586, 4307.778
715.068, 4304.318
715.550, 4276.064
716.032, 4253.566
716.514, 4243.229
716.996, 4238.121
717.479, 4238.309
717.961, 4239.359
718.443, 4233.727
718.925, 4218.825
719.407, 4200.620
719.889, 4181.220
720.371, 4163.572
720.853, 4158.731
721.335, 4165.563
721.818, 4163.624
722.300, 4143.477
722.782, 4116.925
723.264, 4100.787
723.746, 4096.070
724.228, 4093.185
724.710, 4100.679
725.192, 4097.411
725.674, 4071.287
726.157, 4038.365
726.639, 4008.863
727.121, 3984.966
727.603, 3973.421
728.085, 3989.672
728.567, 4005.778
729.049, 3996.255
729.531, 3976.618
730.013, 3973.743
730.496, 3989.866
730.978, 4006.252
731.460, 4008.905
731.942, 4001.480
732.424, 3991.693
732.906, 3979.294
733.388, 3971.223
733.870, 3972.712
734.353, 3965.403
734.835, 3926.393
735.317, 3969.729
735.799, 3951.852
736.281, 3903.776
736.763, 3937.397
737.245, 3930.156
737.727, 3921.651
738.209, 3942.526
738.692, 3976.002
739.174, 3987.750
739.656, 3966.245
740.138, 3939.642
