##NAMES=Mesolite
##RRUFFID=R040140
##IDEAL CHEMISTRY=Na_2_Ca_2_(Si_9_Al_6_)O_30_&#183;8H_2_O
##LOCALITY=Challis, Idaho, USA
##OWNER=RRUFF
##SOURCE=University of Arizona Mineral Museum
##DESCRIPTION=White fibrous mass, associated with barrierite
##STATUS=The identification of this mineral has been confirmed by X-ray diffraction and chemical analysis
##URL=rruff.info/R040140
##MEASURED CHEMISTRY=Na_1.88_Ca_1.96_(Si_9.19_Al_5.82_)O_30_Â·8H_2_O
150.1439, 1374.006
150.6261, 1401.337
151.1082, 1430.901
151.5903, 1461.001
152.0724, 1494.101
152.5545, 1521.848
153.0366, 1536.697
153.5188, 1545.884
154.0009, 1563.558
154.4830, 1606.906
154.9651, 1648.053
155.4472, 1674.699
155.9293, 1677.272
156.4115, 1677.023
156.8936, 1677.958
157.3757, 1679.294
157.8578, 1678.363
158.3399, 1672.546
158.8221, 1665.281
159.3042, 1658.786
159.7863, 1658.783
160.2684, 1654.549
160.7505, 1637.912
161.2326, 1610.915
161.7148, 1590.554
162.1969, 1586.889
162.6790, 1592.158
163.1611, 1598.859
163.6432, 1606.032
164.1253, 1612.826
164.6075, 1619.115
165.0896, 1624.906
165.5717, 1629.254
166.0538, 1629.809
166.5359, 1628.904
167.0180, 1629.864
167.5002, 1635.548
167.9823, 1642.691
168.4644, 1650.484
168.9465, 1659.669
169.4286, 1663.927
169.9107, 1654.846
170.3929, 1637.274
170.8750, 1621.184
171.3571, 1614.534
171.8392, 1610.882
172.3213, 1603.022
172.8034, 1589.370
173.2856, 1574.037
173.7677, 1559.908
174.2498, 1546.989
174.7319, 1535.545
175.2140, 1528.446
175.6961, 1522.293
176.1783, 1510.969
176.6604, 1491.176
177.1425, 1470.087
177.6246, 1457.486
178.1067, 1452.410
178.5888, 1447.752
179.0710, 1438.969
179.5531, 1426.943
180.0352, 1413.303
180.5173, 1397.320
180.9994, 1381.197
181.4815, 1369.906
181.9637, 1363.198
182.4458, 1356.409
182.9279, 1343.061
183.4100, 1325.564
183.8921, 1312.877
184.3742, 1308.843
184.8564, 1310.668
185.3385, 1313.470
185.8206, 1317.531
186.3027, 1319.435
186.7848, 1315.972
187.2669, 1307.304
187.7491, 1294.603
188.2312, 1276.050
188.7133, 1253.761
189.1954, 1236.194
189.6775, 1224.415
190.1596, 1213.066
190.6418, 1194.314
191.1239, 1168.421
191.6060, 1143.166
192.0881, 1119.865
192.5702, 1099.039
193.0524, 1086.363
193.5345, 1083.222
194.0166, 1084.665
194.4987, 1083.065
194.9808, 1078.143
195.4629, 1074.380
195.9451, 1075.880
196.4272, 1082.462
196.9093, 1082.436
197.3914, 1074.035
197.8735, 1061.226
198.3556, 1051.051
198.8378, 1043.718
199.3199, 1037.858
199.8020, 1033.300
200.2841, 1030.221
200.7662, 1026.678
201.2483, 1023.102
201.7305, 1018.507
202.2126, 1009.363
202.6947, 994.2415
203.1768, 979.9011
203.6589, 971.2754
204.1410, 969.5167
204.6232, 965.4897
205.1053, 957.2044
205.5874, 946.6563
206.0695, 941.3113
206.5516, 943.0634
207.0337, 945.0458
207.5159, 942.6042
207.9980, 935.2524
208.4801, 925.5958
208.9622, 912.2362
209.4443, 896.8454
209.9264, 887.8079
210.4086, 886.1274
210.8907, 888.8065
211.3728, 895.0792
211.8549, 907.5648
212.3370, 914.6004
212.8191, 913.1354
213.3013, 904.2900
213.7834, 897.0838
214.2655, 891.3208
214.7476, 887.5057
215.2297, 886.8541
215.7118, 891.2945
216.1940, 893.3674
216.6761, 890.8323
217.1582, 883.9894
217.6403, 879.9694
218.1224, 879.9347
218.6045, 881.2254
219.0867, 881.3125
219.5688, 879.7378
220.0509, 877.7191
220.5330, 873.5142
221.0151, 866.7982
221.4972, 871.8334
221.9794, 895.6466
222.4615, 923.4059
222.9436, 939.1027
223.4257, 937.9178
223.9078, 934.3889
224.3899, 930.7498
224.8721, 926.6619
225.3542, 926.3710
225.8363, 930.9268
226.3184, 938.2704
226.8005, 946.7137
227.2827, 958.4871
227.7648, 966.8424
228.2469, 968.8452
228.7290, 963.1771
229.2111, 961.6611
229.6932, 966.7025
230.1754, 973.9621
230.6575, 978.0406
231.1396, 978.7847
231.6217, 976.3502
232.1038, 968.9117
232.5859, 953.9769
233.0681, 948.2922
233.5502, 957.4008
234.0323, 971.7663
234.5144, 977.0911
234.9965, 967.7325
235.4786, 958.7468
235.9608, 954.5618
236.4429, 955.9855
236.9250, 958.6661
237.4071, 962.9133
237.8892, 968.2130
238.3713, 974.3735
238.8535, 984.3458
239.3356, 990.1475
239.8177, 987.8655
240.2998, 974.0485
240.7819, 965.5656
241.2640, 964.2053
241.7462, 966.9982
242.2283, 968.8350
242.7104, 968.9331
243.1925, 969.4250
243.6746, 972.0248
244.1567, 979.3659
244.6389, 979.4252
245.1210, 969.9344
245.6031, 954.5669
246.0852, 939.1832
246.5673, 921.9430
247.0494, 907.8505
247.5316, 899.2141
248.0137, 897.8263
248.4958, 895.7426
248.9779, 892.1827
249.4600, 888.3797
249.9421, 887.0202
250.4243, 889.8434
250.9064, 891.9581
251.3885, 891.0233
251.8706, 885.2139
252.3527, 882.7925
252.8348, 885.7180
253.3170, 890.8146
253.7991, 891.4433
254.2812, 884.5614
254.7633, 879.0293
255.2454, 878.4410
255.7275, 884.1078
256.2097, 890.1288
256.6918, 897.2974
257.1739, 904.2104
257.6560, 908.2008
258.1381, 908.4934
258.6202, 907.4406
259.1024, 905.5748
259.5845, 902.4525
260.0666, 900.3503
260.5487, 899.0789
261.0308, 898.9828
261.5129, 900.8831
261.9951, 905.3575
262.4772, 910.4283
262.9593, 915.7036
263.4414, 921.7322
263.9235, 925.5661
264.4056, 927.1598
264.8878, 926.6266
265.3699, 923.1907
265.8520, 914.8486
266.3341, 909.2562
266.8162, 910.1096
267.2983, 918.5640
267.7805, 926.0898
268.2626, 932.5863
268.7447, 938.1885
269.2268, 943.4612
269.7089, 948.8971
270.1910, 952.1909
270.6732, 951.3623
271.1553, 945.6537
271.6374, 943.8727
272.1195, 947.4134
272.6016, 952.8383
273.0837, 953.0558
273.5659, 946.2657
274.0480, 943.4963
274.5301, 951.5818
275.0122, 971.1119
275.4943, 982.3113
275.9764, 983.0127
276.4586, 979.4592
276.9407, 981.0147
277.4228, 988.1635
277.9049, 995.9987
278.3870, 1003.525
278.8691, 1010.610
279.3513, 1013.259
279.8334, 1010.155
280.3155, 1005.997
280.7976, 1007.686
281.2798, 1015.450
281.7619, 1023.414
282.2440, 1029.022
282.7261, 1032.734
283.2082, 1037.693
283.6903, 1043.679
284.1725, 1051.717
284.6546, 1065.130
285.1367, 1083.495
285.6188, 1098.458
286.1009, 1104.482
286.5830, 1104.449
287.0652, 1112.404
287.5473, 1129.523
288.0294, 1147.180
288.5115, 1153.475
288.9936, 1150.053
289.4757, 1150.193
289.9579, 1158.852
290.4400, 1174.112
290.9221, 1192.834
291.4042, 1215.432
291.8863, 1236.339
292.3684, 1250.750
292.8506, 1258.857
293.3327, 1261.520
293.8148, 1256.245
294.2969, 1247.318
294.7790, 1244.178
295.2611, 1246.825
295.7433, 1248.683
296.2254, 1244.121
296.7075, 1234.167
297.1896, 1221.990
297.6717, 1208.109
298.1538, 1192.550
298.6360, 1173.897
299.1181, 1152.421
299.6002, 1133.353
300.0823, 1121.570
300.5644, 1114.753
301.0465, 1108.466
301.5287, 1101.662
302.0108, 1094.778
302.4929, 1089.328
302.9750, 1084.781
303.4571, 1078.416
303.9392, 1064.752
304.4214, 1049.207
304.9035, 1039.472
305.3856, 1040.518
305.8677, 1043.128
306.3498, 1039.743
306.8319, 1031.316
307.3141, 1021.055
307.7962, 1008.691
308.2783, 996.5450
308.7604, 986.2268
309.2425, 977.1204
309.7246, 972.4808
310.2068, 978.2917
310.6889, 990.6957
311.1710, 999.7355
311.6531, 998.3464
312.1352, 993.1460
312.6173, 988.1503
313.0995, 982.9649
313.5816, 981.2318
314.0637, 987.6713
314.5458, 998.5819
315.0279, 1007.037
315.5100, 1008.197
315.9922, 1007.850
316.4743, 1009.598
316.9564, 1014.882
317.4385, 1017.989
317.9206, 1013.950
318.4027, 1007.304
318.8849, 1004.394
319.3670, 1010.801
319.8491, 1017.820
320.3312, 1022.458
320.8133, 1024.335
321.2954, 1024.792
321.7776, 1021.261
322.2597, 1017.525
322.7418, 1017.619
323.2239, 1024.851
323.7060, 1033.239
324.1881, 1043.280
324.6703, 1055.555
325.1524, 1061.704
325.6345, 1054.758
326.1166, 1044.775
326.5987, 1039.835
327.0808, 1046.956
327.5630, 1050.866
328.0451, 1047.484
328.5272, 1037.371
329.0093, 1032.866
329.4914, 1036.904
329.9735, 1043.949
330.4557, 1050.975
330.9378, 1061.230
331.4199, 1065.434
331.9020, 1059.774
332.3841, 1047.013
332.8662, 1040.888
333.3484, 1043.993
333.8305, 1049.894
334.3126, 1056.002
334.7947, 1063.813
335.2768, 1066.711
335.7589, 1062.840
336.2411, 1054.714
336.7232, 1048.706
337.2053, 1045.684
337.6874, 1042.365
338.1695, 1034.656
338.6516, 1020.818
339.1338, 1020.710
339.6159, 1039.631
340.0980, 1064.479
340.5801, 1071.149
341.0622, 1057.826
341.5443, 1043.490
342.0265, 1034.808
342.5086, 1031.603
342.9907, 1032.036
343.4728, 1036.474
343.9549, 1043.103
344.4370, 1050.735
344.9192, 1059.086
345.4013, 1065.604
345.8834, 1067.610
346.3655, 1067.543
346.8476, 1072.760
347.3297, 1083.411
347.8119, 1094.285
348.2940, 1101.427
348.7761, 1104.930
349.2582, 1104.331
349.7403, 1095.965
350.2225, 1087.088
350.7046, 1090.775
351.1867, 1105.412
351.6688, 1118.289
352.1509, 1117.091
352.6331, 1109.114
353.1152, 1106.057
353.5973, 1113.352
354.0794, 1120.817
354.5615, 1118.020
355.0436, 1107.625
355.5258, 1097.744
356.0079, 1091.863
356.4900, 1088.985
356.9721, 1089.289
357.4542, 1094.352
357.9363, 1097.353
358.4185, 1092.444
358.9006, 1083.098
359.3827, 1075.321
359.8648, 1070.316
360.3469, 1068.386
360.8290, 1071.301
361.3112, 1080.249
361.7933, 1086.226
362.2754, 1084.477
362.7575, 1079.051
363.2396, 1074.331
363.7217, 1069.822
364.2039, 1067.655
364.6860, 1069.781
365.1681, 1076.256
365.6502, 1080.463
366.1323, 1080.119
366.6144, 1078.238
367.0966, 1076.894
367.5787, 1078.181
368.0608, 1077.484
368.5429, 1072.674
369.0250, 1065.054
369.5071, 1061.527
369.9893, 1064.723
370.4714, 1068.943
370.9535, 1071.653
371.4356, 1072.974
371.9177, 1072.255
372.3998, 1068.399
372.8820, 1063.038
373.3641, 1060.025
373.8462, 1060.203
374.3283, 1060.542
374.8104, 1059.712
375.2925, 1057.543
375.7747, 1056.232
376.2568, 1056.027
376.7389, 1056.164
377.2210, 1055.673
377.7031, 1054.535
378.1852, 1053.026
378.6674, 1051.059
379.1495, 1048.796
379.6316, 1046.523
380.1137, 1044.146
380.5958, 1042.769
381.0779, 1044.368
381.5601, 1048.233
382.0422, 1050.827
382.5243, 1051.545
383.0064, 1050.447
383.4885, 1045.609
383.9706, 1037.815
384.4528, 1033.163
384.9349, 1040.583
385.4170, 1052.621
385.8991, 1055.631
386.3812, 1045.132
386.8633, 1033.579
387.3455, 1033.497
387.8276, 1041.290
388.3097, 1048.758
388.7918, 1052.260
389.2739, 1053.400
389.7560, 1052.969
390.2382, 1050.903
390.7203, 1048.825
391.2024, 1045.874
391.6845, 1043.978
392.1666, 1045.351
392.6487, 1057.105
393.1309, 1066.302
393.6130, 1065.028
394.0951, 1054.423
394.5772, 1048.196
395.0593, 1052.622
395.5414, 1060.754
396.0236, 1068.228
396.5057, 1075.151
396.9878, 1080.583
397.4699, 1082.957
397.9520, 1083.548
398.4341, 1086.357
398.9163, 1093.447
399.3984, 1100.595
399.8805, 1105.773
400.3626, 1106.949
400.8447, 1112.373
401.3268, 1123.720
401.8090, 1138.075
402.2911, 1151.666
402.7732, 1164.094
403.2553, 1176.600
403.7374, 1190.460
404.2195, 1205.342
404.7017, 1214.033
405.1838, 1214.509
405.6659, 1214.332
406.1480, 1219.683
406.6301, 1230.574
407.1122, 1247.097
407.5944, 1272.355
408.0765, 1300.132
408.5586, 1311.715
409.0407, 1307.510
409.5228, 1306.097
410.0049, 1323.820
410.4871, 1353.854
410.9692, 1376.707
411.4513, 1389.452
411.9334, 1399.084
412.4155, 1414.248
412.8976, 1433.188
413.3798, 1450.229
413.8619, 1462.422
414.3440, 1471.960
414.8261, 1481.446
415.3082, 1490.962
415.7903, 1498.843
416.2725, 1504.250
416.7546, 1507.408
417.2367, 1508.417
417.7188, 1501.338
418.2009, 1498.669
418.6830, 1509.846
419.1652, 1531.225
419.6473, 1548.995
420.1294, 1555.135
420.6115, 1559.105
421.0937, 1566.997
421.5758, 1584.233
422.0579, 1594.999
422.5400, 1594.051
423.0221, 1586.122
423.5042, 1578.822
423.9864, 1568.723
424.4685, 1563.589
424.9506, 1567.899
425.4327, 1582.983
425.9148, 1588.782
426.3969, 1579.282
426.8791, 1567.352
427.3612, 1564.874
427.8433, 1575.385
428.3254, 1584.659
428.8075, 1592.096
429.2896, 1596.395
429.7718, 1590.266
430.2539, 1571.066
430.7360, 1555.298
431.2181, 1555.670
431.7002, 1570.820
432.1823, 1579.867
432.6645, 1580.490
433.1466, 1579.334
433.6287, 1584.515
434.1108, 1595.579
434.5929, 1610.799
435.0750, 1634.366
435.5572, 1659.407
436.0393, 1669.798
436.5214, 1666.382
437.0035, 1667.055
437.4856, 1691.647
437.9677, 1727.261
438.4499, 1755.716
438.9320, 1770.397
439.4141, 1780.263
439.8962, 1787.015
440.3783, 1793.426
440.8604, 1806.850
441.3426, 1843.516
441.8247, 1878.104
442.3068, 1893.042
442.7889, 1881.278
443.2710, 1874.782
443.7531, 1891.500
444.2353, 1914.130
444.7174, 1923.825
445.1995, 1904.298
445.6816, 1886.447
446.1637, 1877.630
446.6458, 1876.644
447.1280, 1869.092
447.6101, 1850.014
448.0922, 1829.769
448.5743, 1815.198
449.0564, 1811.307
449.5385, 1798.893
450.0207, 1775.353
450.5028, 1745.107
450.9849, 1716.179
451.4670, 1689.103
451.9491, 1661.900
452.4312, 1632.854
452.9134, 1602.729
453.3955, 1576.795
453.8776, 1555.407
454.3597, 1536.219
454.8418, 1518.809
455.3239, 1502.221
455.8061, 1482.824
456.2882, 1458.261
456.7703, 1432.526
457.2524, 1411.374
457.7345, 1394.099
458.2166, 1377.323
458.6988, 1356.993
459.1809, 1337.316
459.6630, 1324.346
460.1451, 1319.462
460.6272, 1314.518
461.1093, 1303.961
461.5915, 1290.494
462.0736, 1277.672
462.5557, 1267.254
463.0378, 1257.094
463.5199, 1246.837
464.0020, 1236.427
464.4842, 1225.165
464.9663, 1206.151
465.4484, 1191.380
465.9305, 1187.990
466.4126, 1207.922
466.8947, 1218.458
467.3769, 1215.895
467.8590, 1205.583
468.3411, 1195.647
468.8232, 1185.305
469.3053, 1176.967
469.7874, 1170.955
470.2696, 1167.317
470.7517, 1167.392
471.2338, 1171.824
471.7159, 1177.952
472.1980, 1183.790
472.6801, 1189.362
473.1623, 1195.060
473.6444, 1201.754
474.1265, 1207.105
474.6086, 1205.911
475.0907, 1199.034
475.5728, 1192.068
476.0550, 1186.675
476.5371, 1183.515
477.0192, 1184.240
477.5013, 1188.921
477.9834, 1195.077
478.4655, 1200.928
478.9477, 1207.092
479.4298, 1214.468
479.9119, 1225.722
480.3940, 1235.339
480.8761, 1239.230
481.3582, 1239.014
481.8404, 1239.269
482.3225, 1238.850
482.8046, 1241.417
483.2867, 1249.946
483.7688, 1267.600
484.2509, 1281.067
484.7331, 1284.396
485.2152, 1285.501
485.6973, 1292.560
486.1794, 1313.691
486.6615, 1326.456
487.1436, 1324.468
487.6258, 1311.624
488.1079, 1306.895
488.5900, 1312.573
489.0721, 1320.151
489.5542, 1325.868
490.0363, 1329.772
490.5185, 1329.002
491.0006, 1321.823
491.4827, 1315.547
491.9648, 1322.240
492.4470, 1339.480
492.9291, 1353.998
493.4112, 1360.467
493.8933, 1362.183
494.3754, 1363.537
494.8575, 1364.428
495.3397, 1364.145
495.8218, 1359.178
496.3039, 1354.263
496.7860, 1355.948
497.2681, 1367.444
497.7502, 1376.627
498.2324, 1374.053
498.7145, 1366.177
499.1966, 1361.723
499.6787, 1366.764
500.1608, 1372.115
500.6429, 1373.881
501.1251, 1372.438
501.6072, 1374.649
502.0893, 1382.059
502.5714, 1392.288
503.0535, 1404.605
503.5356, 1420.403
504.0178, 1434.837
504.4999, 1447.453
504.9820, 1458.988
505.4641, 1470.151
505.9462, 1480.323
506.4283, 1493.459
506.9105, 1512.482
507.3926, 1534.837
507.8747, 1548.219
508.3568, 1552.099
508.8389, 1557.742
509.3210, 1575.267
509.8032, 1601.162
510.2853, 1624.421
510.7674, 1642.045
511.2495, 1664.002
511.7316, 1704.798
512.2137, 1757.443
512.6959, 1807.007
513.1780, 1845.096
513.6601, 1880.358
514.1422, 1915.433
514.6243, 1951.324
515.1064, 1994.155
515.5886, 2044.369
516.0707, 2103.886
516.5528, 2174.488
517.0349, 2263.379
517.5170, 2349.932
517.9991, 2424.791
518.4813, 2498.595
518.9634, 2584.404
519.4455, 2684.413
519.9276, 2793.055
520.4097, 2912.737
520.8918, 3039.772
521.3740, 3163.386
521.8561, 3282.397
522.3382, 3401.898
522.8203, 3522.309
523.3024, 3643.377
523.7845, 3782.185
524.2667, 3944.557
524.7488, 4109.291
525.2309, 4257.189
525.7130, 4390.478
526.1951, 4512.949
526.6772, 4618.246
527.1594, 4722.821
527.6415, 4852.629
528.1236, 5000.164
528.6057, 5135.660
529.0878, 5245.354
529.5699, 5332.918
530.0521, 5398.326
530.5342, 5440.857
531.0163, 5467.845
531.4984, 5490.788
531.9805, 5495.806
532.4626, 5468.428
532.9448, 5403.294
533.4269, 5308.870
533.9090, 5185.356
534.3911, 5033.188
534.8732, 4856.138
535.3553, 4638.535
535.8375, 4421.085
536.3196, 4226.044
536.8017, 4052.342
537.2838, 3868.453
537.7659, 3668.659
538.2480, 3471.806
538.7302, 3296.332
539.2123, 3140.001
539.6944, 2999.391
540.1765, 2876.192
540.6586, 2763.655
541.1407, 2647.534
541.6229, 2530.778
542.1050, 2422.140
542.5871, 2323.262
543.0692, 2236.438
543.5513, 2168.422
544.0334, 2119.928
544.5156, 2073.687
544.9977, 2026.001
545.4798, 1974.745
545.9619, 1917.658
546.4440, 1837.686
546.9261, 1776.600
547.4083, 1750.567
547.8904, 1744.975
548.3725, 1734.295
548.8546, 1717.819
549.3367, 1697.134
549.8188, 1671.149
550.3010, 1640.540
550.7831, 1613.079
551.2652, 1588.913
551.7473, 1567.324
552.2294, 1547.172
552.7115, 1528.747
553.1937, 1517.292
553.6758, 1514.431
554.1579, 1513.505
554.6400, 1508.102
555.1221, 1498.081
555.6042, 1482.768
556.0864, 1455.568
556.5685, 1429.194
557.0506, 1418.214
557.5327, 1419.217
558.0148, 1419.768
558.4969, 1417.045
558.9791, 1409.522
559.4612, 1392.517
559.9433, 1361.395
560.4254, 1343.107
560.9075, 1357.572
561.3896, 1378.562
561.8718, 1382.500
562.3539, 1354.034
562.8360, 1334.885
563.3181, 1331.453
563.8002, 1337.723
564.2823, 1340.341
564.7645, 1339.693
565.2466, 1333.284
565.7287, 1317.524
566.2108, 1295.026
566.6929, 1277.847
567.1750, 1266.083
567.6572, 1260.684
568.1393, 1268.984
568.6214, 1283.294
569.1035, 1285.985
569.5856, 1271.505
570.0677, 1256.928
570.5499, 1258.619
571.0320, 1269.025
571.5141, 1276.178
571.9962, 1274.434
572.4783, 1269.874
572.9604, 1263.089
573.4426, 1254.927
573.9247, 1249.305
574.4068, 1246.773
574.8889, 1247.210
575.3710, 1252.894
575.8531, 1267.145
576.3353, 1267.470
576.8174, 1246.638
577.2995, 1222.596
577.7816, 1213.538
578.2637, 1221.086
578.7458, 1226.934
579.2280, 1228.277
579.7101, 1227.098
580.1922, 1226.511
580.6743, 1226.446
581.1564, 1226.511
581.6385, 1227.050
582.1207, 1227.337
582.6028, 1225.483
583.0849, 1221.937
583.5670, 1220.066
584.0491, 1226.197
584.5313, 1232.027
585.0134, 1229.635
585.4955, 1214.041
585.9776, 1202.761
586.4597, 1204.258
586.9418, 1210.724
587.4240, 1213.265
587.9061, 1208.736
588.3882, 1204.681
588.8703, 1201.420
589.3524, 1199.277
589.8345, 1199.728
590.3167, 1203.618
590.7988, 1206.886
591.2809, 1207.808
591.7630, 1206.643
592.2451, 1204.308
592.7272, 1200.766
593.2094, 1196.946
593.6915, 1190.749
594.1736, 1185.406
594.6557, 1189.392
595.1378, 1206.729
595.6199, 1221.630
596.1021, 1218.117
596.5842, 1205.749
597.0663, 1198.132
597.5485, 1204.342
598.0306, 1211.334
598.5127, 1216.555
598.9948, 1219.556
599.4769, 1218.561
599.9590, 1208.299
600.4412, 1200.445
600.9233, 1200.346
601.4054, 1208.895
601.8875, 1209.775
602.3696, 1199.833
602.8517, 1189.953
603.3339, 1191.925
603.8160, 1204.486
604.2981, 1209.767
604.7802, 1204.332
605.2623, 1196.268
605.7444, 1195.180
606.2266, 1199.824
606.7087, 1207.077
607.1908, 1220.053
607.6729, 1230.855
608.1550, 1232.293
608.6371, 1226.249
609.1193, 1218.889
609.6014, 1209.289
610.0835, 1201.889
610.5656, 1199.266
611.0477, 1202.004
611.5298, 1206.329
612.0120, 1215.031
612.4941, 1222.300
612.9762, 1223.349
613.4583, 1215.379
613.9404, 1212.099
614.4225, 1216.116
614.9047, 1221.304
615.3868, 1217.289
615.8689, 1204.873
616.3510, 1195.223
616.8331, 1192.343
617.3152, 1192.916
617.7974, 1190.305
618.2795, 1186.245
618.7616, 1187.247
619.2437, 1205.121
619.7258, 1223.281
620.2079, 1227.776
620.6901, 1217.950
621.1722, 1208.383
621.6543, 1200.899
622.1364, 1197.574
622.6185, 1201.084
623.1006, 1219.057
623.5828, 1226.378
624.0649, 1216.624
624.5470, 1202.108
625.0291, 1198.916
625.5112, 1209.974
625.9933, 1216.748
626.4755, 1215.788
626.9576, 1208.865
627.4397, 1195.349
627.9218, 1176.875
628.4039, 1165.931
628.8860, 1173.532
629.3682, 1189.688
629.8503, 1203.375
630.3324, 1214.223
630.8145, 1219.579
631.2966, 1212.484
631.7787, 1203.056
632.2609, 1198.907
632.7430, 1202.595
633.2251, 1205.279
633.7072, 1201.550
634.1893, 1198.457
634.6714, 1202.897
635.1536, 1222.857
635.6357, 1231.887
636.1178, 1224.368
636.5999, 1208.909
637.0820, 1201.079
637.5641, 1201.182
638.0463, 1202.914
638.5284, 1205.360
639.0105, 1207.200
639.4926, 1205.197
639.9747, 1199.859
640.4568, 1194.253
640.9390, 1188.123
641.4211, 1183.894
641.9032, 1184.555
642.3853, 1190.291
642.8674, 1196.515
643.3495, 1202.735
643.8317, 1207.897
644.3138, 1211.469
644.7959, 1214.194
645.2780, 1213.166
645.7601, 1205.026
