##NAMES=Mesolite
##RRUFFID=R050013
##IDEAL CHEMISTRY=Na_2_Ca_2_(Si_9_Al_6_)O_30_&#183;8H_2_O
##LOCALITY=Poona, Maharashtra, India
##OWNER=RRUFF
##SOURCE=University of Arizona Mineral Museum
##DESCRIPTION=Clear to white elongated prismatic single crystal
##STATUS=The identification of this mineral has been confirmed by X-ray diffraction and chemical analysis
##URL=rruff.info/R050013
##MEASURED CHEMISTRY=Na_2.00_Ca_2.00_(Si_9.00_Al_6.00_)O_30_Â·8H_2_O
148.6976, 4911.841
149.1797, 4945.120
149.6618, 4984.318
150.1439, 5034.875
150.6261, 5101.265
151.1082, 5174.422
151.5903, 5253.759
152.0724, 5345.881
152.5545, 5428.676
153.0366, 5494.738
153.5188, 5550.192
154.0009, 5606.834
154.4830, 5678.657
154.9651, 5743.428
155.4472, 5791.210
155.9293, 5809.325
156.4115, 5827.119
156.8936, 5856.760
157.3757, 5892.289
157.8578, 5913.668
158.3399, 5903.793
158.8221, 5884.400
159.3042, 5869.573
159.7863, 5865.192
160.2684, 5863.389
160.7505, 5862.798
161.2326, 5863.166
161.7148, 5862.559
162.1969, 5854.049
162.6790, 5846.512
163.1611, 5848.563
163.6432, 5870.536
164.1253, 5896.794
164.6075, 5916.942
165.0896, 5930.532
165.5717, 5950.670
166.0538, 5994.447
166.5359, 6047.710
167.0180, 6090.348
167.5002, 6107.077
167.9823, 6114.809
168.4644, 6126.847
168.9465, 6145.061
169.4286, 6161.319
169.9107, 6167.455
170.3929, 6167.106
170.8750, 6168.097
171.3571, 6181.782
171.8392, 6195.632
172.3213, 6193.184
172.8034, 6168.113
173.2856, 6140.917
173.7677, 6132.020
174.2498, 6137.461
174.7319, 6143.749
175.2140, 6145.054
175.6961, 6141.546
176.1783, 6131.928
176.6604, 6112.804
177.1425, 6093.410
177.6246, 6087.651
178.1067, 6093.667
178.5888, 6098.995
179.0710, 6090.428
179.5531, 6074.517
180.0352, 6067.114
180.5173, 6077.148
180.9994, 6092.215
181.4815, 6088.166
181.9637, 6065.602
182.4458, 6044.498
182.9279, 6048.758
183.4100, 6070.544
183.8921, 6079.522
184.3742, 6059.840
184.8564, 6024.956
185.3385, 6006.724
185.8206, 6005.704
186.3027, 6012.645
186.7848, 6024.540
187.2669, 6039.388
187.7491, 6042.522
188.2312, 6025.413
188.7133, 5992.584
189.1954, 5958.276
189.6775, 5921.904
190.1596, 5887.678
190.6418, 5864.002
191.1239, 5850.565
191.6060, 5831.039
192.0881, 5792.495
192.5702, 5738.441
193.0524, 5698.511
193.5345, 5672.411
194.0166, 5661.244
194.4987, 5676.035
194.9808, 5719.143
195.4629, 5752.653
195.9451, 5751.025
196.4272, 5715.199
196.9093, 5697.758
197.3914, 5705.207
197.8735, 5723.405
198.3556, 5723.592
198.8378, 5702.832
199.3199, 5682.796
199.8020, 5677.865
200.2841, 5689.582
200.7662, 5693.549
201.2483, 5686.928
201.7305, 5673.127
202.2126, 5660.242
202.6947, 5648.578
203.1768, 5636.692
203.6589, 5622.612
204.1410, 5605.568
204.6232, 5593.442
205.1053, 5589.284
205.5874, 5589.471
206.0695, 5581.604
206.5516, 5564.167
207.0337, 5542.654
207.5159, 5517.499
207.9980, 5485.790
208.4801, 5466.724
208.9622, 5464.398
209.4443, 5476.496
209.9264, 5494.497
210.4086, 5523.901
210.8907, 5548.208
211.3728, 5549.844
211.8549, 5517.941
212.3370, 5502.064
212.8191, 5516.912
213.3013, 5556.663
213.7834, 5570.457
214.2655, 5547.372
214.7476, 5515.813
215.2297, 5500.468
215.7118, 5505.762
216.1940, 5514.934
216.6761, 5526.240
217.1582, 5539.545
217.6403, 5551.206
218.1224, 5562.322
218.6045, 5570.163
219.0867, 5570.088
219.5688, 5555.589
220.0509, 5548.838
220.5330, 5556.342
221.0151, 5578.543
221.4972, 5598.235
221.9794, 5615.933
222.4615, 5630.751
222.9436, 5641.190
223.4257, 5644.139
223.9078, 5649.302
224.3899, 5659.493
224.8721, 5675.379
225.3542, 5688.571
225.8363, 5695.510
226.3184, 5703.220
226.8005, 5710.213
227.2827, 5731.951
227.7648, 5747.144
228.2469, 5756.142
228.7290, 5740.398
229.2111, 5756.605
229.6932, 5760.007
230.1754, 5762.885
230.6575, 5783.588
231.1396, 5771.443
231.6217, 5791.864
232.1038, 5799.285
232.5859, 5812.655
233.0681, 5813.144
233.5502, 5817.610
234.0323, 5834.964
234.5144, 5845.182
234.9965, 5844.187
235.4786, 5857.935
235.9608, 5845.341
236.4429, 5855.863
236.9250, 5876.359
237.4071, 5876.011
237.8892, 5875.665
238.3713, 5878.800
238.8535, 5880.555
239.3356, 5880.300
239.8177, 5862.430
240.2998, 5879.036
240.7819, 5889.097
241.2640, 5892.965
241.7462, 5872.090
242.2283, 5883.166
242.7104, 5881.437
243.1925, 5879.183
243.6746, 5894.754
244.1567, 5877.479
244.6389, 5892.768
245.1210, 5895.058
245.6031, 5903.297
246.0852, 5898.653
246.5673, 5897.989
247.0494, 5904.454
247.5316, 5898.109
248.0137, 5873.869
248.4958, 5858.803
248.9779, 5854.426
249.4600, 5858.496
249.9421, 5869.247
250.4243, 5895.839
250.9064, 5912.703
251.3885, 5905.629
251.8706, 5860.165
252.3527, 5840.473
252.8348, 5856.029
253.3170, 5891.373
253.7991, 5917.890
254.2812, 5933.132
254.7633, 5943.714
255.2454, 5951.595
255.7275, 5956.206
256.2097, 5959.676
256.6918, 5960.802
257.1739, 5961.576
257.6560, 5966.603
258.1381, 5979.157
258.6202, 5989.194
259.1024, 5992.032
259.5845, 5985.187
260.0666, 5981.384
260.5487, 5981.274
261.0308, 5983.732
261.5129, 5986.088
261.9951, 5986.560
262.4772, 5991.239
262.9593, 6005.011
263.4414, 6032.257
263.9235, 6046.234
264.4056, 6039.719
264.8878, 6026.838
265.3699, 6035.076
265.8520, 6072.814
266.3341, 6107.962
266.8162, 6127.731
267.2983, 6129.674
267.7805, 6130.252
268.2626, 6128.335
268.7447, 6126.315
269.2268, 6128.906
269.7089, 6137.371
270.1910, 6145.837
270.6732, 6150.646
271.1553, 6150.691
271.6374, 6158.204
272.1195, 6174.154
272.6016, 6196.188
273.0837, 6223.694
273.5659, 6260.012
274.0480, 6285.426
274.5301, 6287.931
275.0122, 6266.384
275.4943, 6254.170
275.9764, 6252.079
276.4586, 6257.836
276.9407, 6270.354
277.4228, 6290.425
277.9049, 6309.035
278.3870, 6322.530
278.8691, 6331.053
279.3513, 6336.474
279.8334, 6337.033
280.3155, 6339.015
280.7976, 6354.285
281.2798, 6383.499
281.7619, 6407.719
282.2440, 6418.450
282.7261, 6417.315
283.2082, 6414.297
283.6903, 6407.668
284.1725, 6405.522
284.6546, 6420.199
285.1367, 6451.035
285.6188, 6484.070
286.1009, 6515.901
286.5830, 6546.072
287.0652, 6571.415
287.5473, 6590.939
288.0294, 6610.164
288.5115, 6639.262
288.9936, 6676.211
289.4757, 6702.879
289.9579, 6707.085
290.4400, 6698.314
290.9221, 6703.220
291.4042, 6722.387
291.8863, 6747.950
292.3684, 6779.266
292.8506, 6812.526
293.3327, 6830.955
293.8148, 6820.462
294.2969, 6797.099
294.7790, 6795.560
295.2611, 6815.902
295.7433, 6836.107
296.2254, 6840.322
296.7075, 6829.583
297.1896, 6805.768
297.6717, 6759.857
298.1538, 6709.000
298.6360, 6681.859
299.1181, 6676.685
299.6002, 6675.691
300.0823, 6667.634
300.5644, 6653.719
301.0465, 6635.750
301.5287, 6612.227
302.0108, 6587.347
302.4929, 6563.808
302.9750, 6542.156
303.4571, 6526.850
303.9392, 6524.328
304.4214, 6528.758
304.9035, 6532.533
305.3856, 6534.324
305.8677, 6534.107
306.3498, 6531.102
306.8319, 6525.833
307.3141, 6520.062
307.7962, 6511.566
308.2783, 6504.662
308.7604, 6504.465
309.2425, 6514.864
309.7246, 6525.848
310.2068, 6530.190
310.6889, 6530.036
311.1710, 6531.024
311.6531, 6532.621
312.1352, 6538.383
312.6173, 6554.679
313.0995, 6589.792
313.5816, 6613.498
314.0637, 6599.556
314.5458, 6565.113
315.0279, 6542.385
315.5100, 6554.538
315.9922, 6573.497
316.4743, 6583.650
316.9564, 6580.617
317.4385, 6579.479
317.9206, 6586.620
318.4027, 6598.307
318.8849, 6609.330
319.3670, 6619.406
319.8491, 6627.596
320.3312, 6630.396
320.8133, 6624.936
321.2954, 6630.605
321.7776, 6663.293
322.2597, 6704.300
322.7418, 6733.692
323.2239, 6746.082
323.7060, 6749.123
324.1881, 6740.613
324.6703, 6719.205
325.1524, 6703.676
325.6345, 6689.495
326.1166, 6684.960
326.5987, 6696.942
327.0808, 6754.662
327.5630, 6794.366
328.0451, 6801.417
328.5272, 6777.670
329.0093, 6763.752
329.4914, 6767.239
329.9735, 6773.962
330.4557, 6774.004
330.9378, 6757.960
331.4199, 6751.896
331.9020, 6760.623
332.3841, 6781.315
332.8662, 6800.593
333.3484, 6818.549
333.8305, 6834.666
334.3126, 6850.429
334.7947, 6869.823
335.2768, 6874.934
335.7589, 6859.626
336.2411, 6832.432
336.7232, 6815.297
337.2053, 6811.744
337.6874, 6808.326
338.1695, 6795.766
338.6516, 6771.713
339.1338, 6760.312
339.6159, 6763.315
340.0980, 6777.104
340.5801, 6798.440
341.0622, 6828.722
341.5443, 6855.995
342.0265, 6876.738
342.5086, 6890.792
342.9907, 6895.760
343.4728, 6889.414
343.9549, 6882.557
344.4370, 6893.580
344.9192, 6919.859
345.4013, 6936.190
345.8834, 6928.208
346.3655, 6905.277
346.8476, 6891.781
347.3297, 6887.914
347.8119, 6888.497
348.2940, 6884.708
348.7761, 6881.029
349.2582, 6892.689
349.7403, 6935.644
350.2225, 6984.204
350.7046, 6994.960
351.1867, 6972.708
351.6688, 6953.709
352.1509, 6973.436
352.6331, 7010.705
353.1152, 7033.206
353.5973, 7030.405
354.0794, 7017.517
354.5615, 7007.010
355.0436, 6997.352
355.5258, 6983.871
356.0079, 6951.923
356.4900, 6921.729
356.9721, 6914.326
357.4542, 6939.691
357.9363, 6964.968
358.4185, 6969.865
358.9006, 6962.405
359.3827, 6956.471
359.8648, 6952.421
360.3469, 6955.297
360.8290, 6973.146
361.3112, 7010.330
361.7933, 7034.978
362.2754, 7027.620
362.7575, 7006.250
363.2396, 6990.362
363.7217, 6976.389
364.2039, 6976.473
364.6860, 7000.467
365.1681, 7048.736
365.6502, 7088.932
366.1323, 7124.258
366.6144, 7146.608
367.0966, 7150.138
367.5787, 7113.520
368.0608, 7083.955
368.5429, 7062.795
369.0250, 7050.468
369.5071, 7050.249
369.9893, 7071.831
370.4714, 7094.197
370.9535, 7105.962
371.4356, 7097.549
371.9177, 7100.939
372.3998, 7122.260
372.8820, 7152.751
373.3641, 7172.339
373.8462, 7177.904
374.3283, 7180.707
374.8104, 7187.060
375.2925, 7198.369
375.7747, 7194.444
376.2568, 7169.973
376.7389, 7140.729
377.2210, 7130.079
377.7031, 7139.385
378.1852, 7147.413
378.6674, 7145.797
379.1495, 7137.799
379.6316, 7137.467
380.1137, 7145.142
380.5958, 7157.413
381.0779, 7179.037
381.5601, 7205.445
382.0422, 7209.724
382.5243, 7175.461
383.0064, 7129.899
383.4885, 7121.892
383.9706, 7147.224
384.4528, 7175.302
384.9349, 7189.229
385.4170, 7191.439
385.8991, 7185.001
386.3812, 7168.542
386.8633, 7149.253
387.3455, 7126.548
387.8276, 7105.773
388.3097, 7098.972
388.7918, 7125.884
389.2739, 7160.648
389.7560, 7183.883
390.2382, 7193.862
390.7203, 7195.108
391.2024, 7179.077
391.6845, 7159.384
392.1666, 7151.578
392.6487, 7177.239
393.1309, 7200.481
393.6130, 7201.321
394.0951, 7182.287
394.5772, 7174.518
395.0593, 7194.138
395.5414, 7222.318
396.0236, 7247.143
396.5057, 7264.844
396.9878, 7281.750
397.4699, 7297.358
397.9520, 7312.359
398.4341, 7329.124
398.9163, 7358.441
399.3984, 7378.167
399.8805, 7376.500
400.3626, 7339.106
400.8447, 7324.141
401.3268, 7342.895
401.8090, 7375.761
402.2911, 7394.028
402.7732, 7390.018
403.2553, 7391.272
403.7374, 7407.242
404.2195, 7436.811
404.7017, 7459.587
405.1838, 7474.735
405.6659, 7485.475
406.1480, 7488.021
406.6301, 7481.886
407.1122, 7500.027
407.5944, 7555.618
408.0765, 7631.592
408.5586, 7689.542
409.0407, 7729.873
409.5228, 7757.165
410.0049, 7762.163
410.4871, 7755.906
410.9692, 7773.462
411.4513, 7822.793
411.9334, 7878.410
412.4155, 7917.220
412.8976, 7940.123
413.3798, 7948.874
413.8619, 7929.321
414.3440, 7905.128
414.8261, 7901.800
415.3082, 7919.915
415.7903, 7944.816
416.2725, 7977.149
416.7546, 8007.230
417.2367, 8024.178
417.7188, 8009.011
418.2009, 7996.671
418.6830, 8002.663
419.1652, 8024.552
419.6473, 8053.222
420.1294, 8105.200
420.6115, 8148.923
421.0937, 8163.835
421.5758, 8125.745
422.0579, 8104.646
422.5400, 8119.880
423.0221, 8155.272
423.5042, 8184.833
423.9864, 8208.832
424.4685, 8225.325
424.9506, 8232.691
425.4327, 8230.208
425.9148, 8227.136
426.3969, 8226.794
426.8791, 8222.105
427.3612, 8204.406
427.8433, 8166.581
428.3254, 8137.913
428.8075, 8121.905
429.2896, 8118.197
429.7718, 8131.823
430.2539, 8168.024
430.7360, 8194.281
431.2181, 8179.597
431.7002, 8128.447
432.1823, 8109.828
432.6645, 8131.865
433.1466, 8170.809
433.6287, 8195.932
434.1108, 8209.453
434.5929, 8222.364
435.0750, 8238.087
435.5572, 8256.345
436.0393, 8274.473
436.5214, 8292.821
437.0035, 8318.944
437.4856, 8365.746
437.9677, 8421.676
438.4499, 8470.858
438.9320, 8509.844
439.4141, 8540.157
439.8962, 8559.829
440.3783, 8571.261
440.8604, 8581.220
441.3426, 8587.585
441.8247, 8597.030
442.3068, 8614.160
442.7889, 8640.836
443.2710, 8668.618
443.7531, 8704.807
444.2353, 8737.157
444.7174, 8752.746
445.1995, 8734.691
445.6816, 8715.924
446.1637, 8703.123
446.6458, 8695.474
447.1280, 8682.073
447.6101, 8657.336
448.0922, 8632.930
448.5743, 8617.382
449.0564, 8619.339
449.5385, 8605.410
450.0207, 8569.485
450.5028, 8522.240
450.9849, 8485.077
451.4670, 8460.984
451.9491, 8433.160
452.4312, 8390.625
452.9134, 8337.084
453.3955, 8304.294
453.8776, 8295.159
454.3597, 8286.765
454.8418, 8252.745
455.3239, 8199.185
455.8061, 8152.218
456.2882, 8116.442
456.7703, 8091.009
457.2524, 8080.693
457.7345, 8081.624
458.2166, 8077.702
458.6988, 8052.656
459.1809, 8021.144
459.6630, 7999.883
460.1451, 7991.357
460.6272, 7985.719
461.1093, 7978.906
461.5915, 7970.714
462.0736, 7961.009
462.5557, 7942.515
463.0378, 7929.565
463.5199, 7933.397
464.0020, 7950.845
464.4842, 7958.218
464.9663, 7938.001
465.4484, 7915.708
465.9305, 7905.701
466.4126, 7923.512
466.8947, 7926.312
467.3769, 7900.949
467.8590, 7866.358
468.3411, 7854.796
468.8232, 7878.528
469.3053, 7901.561
469.7874, 7916.724
470.2696, 7923.814
470.7517, 7914.312
471.2338, 7881.468
471.7159, 7852.832
472.1980, 7858.941
472.6801, 7898.781
473.1623, 7923.793
473.6444, 7922.796
474.1265, 7912.944
474.6086, 7926.410
475.0907, 7959.701
475.5728, 7990.206
476.0550, 8007.926
476.5371, 8014.587
477.0192, 8006.860
477.5013, 7984.328
477.9834, 7969.062
478.4655, 7980.938
478.9477, 8009.507
479.4298, 8041.395
479.9119, 8077.953
480.3940, 8110.637
480.8761, 8135.984
481.3582, 8153.971
481.8404, 8164.084
482.3225, 8151.875
482.8046, 8143.516
483.2867, 8153.933
483.7688, 8192.546
484.2509, 8221.521
484.7331, 8235.604
485.2152, 8239.553
485.6973, 8236.927
486.1794, 8220.658
486.6615, 8209.593
487.1436, 8204.820
487.6258, 8207.109
488.1079, 8222.775
488.5900, 8257.016
489.0721, 8290.027
489.5542, 8312.150
490.0363, 8323.512
490.5185, 8323.042
491.0006, 8307.868
491.4827, 8290.351
491.9648, 8286.671
492.4470, 8295.152
492.9291, 8307.953
493.4112, 8328.549
493.8933, 8346.449
494.3754, 8336.426
494.8575, 8303.601
495.3397, 8280.774
495.8218, 8297.629
496.3039, 8331.706
496.7860, 8360.677
497.2681, 8383.219
497.7502, 8394.287
498.2324, 8381.747
498.7145, 8358.938
499.1966, 8343.755
499.6787, 8344.428
500.1608, 8350.688
500.6429, 8359.743
501.1251, 8371.600
501.6072, 8387.797
502.0893, 8416.370
502.5714, 8442.486
503.0535, 8458.502
503.5356, 8458.393
504.0178, 8462.479
504.4999, 8471.508
504.9820, 8484.056
505.4641, 8499.243
505.9462, 8518.073
506.4283, 8533.486
506.9105, 8540.253
507.3926, 8542.668
507.8747, 8557.997
508.3568, 8586.642
508.8389, 8622.732
509.3210, 8665.791
509.8032, 8713.391
510.2853, 8761.075
510.7674, 8809.821
511.2495, 8852.039
511.7316, 8871.193
512.2137, 8878.595
512.6959, 8896.867
513.1780, 8929.277
513.6601, 8980.984
514.1422, 9063.903
514.6243, 9173.649
515.1064, 9280.745
515.5886, 9366.852
516.0707, 9451.917
516.5528, 9546.566
517.0349, 9652.560
517.5170, 9768.955
517.9991, 9898.595
518.4813, 10036.72
518.9634, 10176.20
519.4455, 10309.47
519.9276, 10457.88
520.4097, 10632.72
520.8918, 10826.23
521.3740, 11003.72
521.8561, 11157.97
522.3382, 11320.16
522.8203, 11513.74
523.3024, 11735.58
523.7845, 11964.01
524.2667, 12202.84
524.7488, 12434.22
525.2309, 12636.16
525.7130, 12817.50
526.1951, 13004.90
526.6772, 13214.41
527.1594, 13431.14
527.6415, 13642.36
528.1236, 13845.19
528.6057, 14032.09
529.0878, 14206.73
529.5699, 14356.36
530.0521, 14467.80
530.5342, 14537.98
531.0163, 14581.79
531.4984, 14599.96
531.9805, 14596.46
532.4626, 14575.77
532.9448, 14599.31
533.4269, 14529.92
533.9090, 14322.58
534.3911, 14008.01
534.8732, 13713.89
535.3553, 13448.40
535.8375, 13181.14
536.3196, 12899.84
536.8017, 12599.70
537.2838, 12310.80
537.7659, 12030.09
538.2480, 11761.71
538.7302, 11505.09
539.2123, 11260.33
539.6944, 11047.22
540.1765, 10878.06
540.6586, 10727.33
541.1407, 10541.96
541.6229, 10336.97
542.1050, 10163.29
542.5871, 10070.95
543.0692, 10007.05
543.5513, 9925.566
544.0334, 9824.828
544.5156, 9727.563
544.9977, 9644.324
545.4798, 9569.002
545.9619, 9497.421
546.4440, 9423.221
546.9261, 9360.940
547.4083, 9320.898
547.8904, 9292.279
548.3725, 9256.333
548.8546, 9209.325
549.3367, 9159.705
549.8188, 9102.215
550.3010, 9040.188
550.7831, 9020.448
551.2652, 9055.695
551.7473, 9090.893
552.2294, 9085.590
552.7115, 9043.039
553.1937, 8987.991
553.6758, 8916.577
554.1579, 8856.919
554.6400, 8862.594
555.1221, 8910.291
555.6042, 8932.245
556.0864, 8885.734
556.5685, 8822.100
557.0506, 8785.548
557.5327, 8772.656
558.0148, 8771.640
558.4969, 8799.410
558.9791, 8820.196
559.4612, 8802.508
559.9433, 8730.458
560.4254, 8687.062
560.9075, 8718.982
561.3896, 8768.350
561.8718, 8783.592
562.3539, 8738.191
562.8360, 8702.998
563.3181, 8682.021
563.8002, 8675.172
564.2823, 8687.599
564.7645, 8725.639
565.2466, 8753.839
565.7287, 8755.727
566.2108, 8736.026
566.6929, 8715.280
567.1750, 8693.501
567.6572, 8674.149
568.1393, 8658.562
568.6214, 8648.061
569.1035, 8647.024
569.5856, 8657.565
570.0677, 8671.558
570.5499, 8687.303
571.0320, 8701.107
571.5141, 8707.285
571.9962, 8701.006
572.4783, 8689.460
572.9604, 8669.604
573.4426, 8644.823
573.9247, 8631.553
574.4068, 8643.872
574.8889, 8658.005
575.3710, 8664.874
575.8531, 8662.932
576.3353, 8662.034
576.8174, 8664.372
577.2995, 8664.519
577.7816, 8652.299
578.2637, 8624.977
578.7458, 8618.678
579.2280, 8644.749
579.7101, 8682.819
580.1922, 8691.941
580.6743, 8677.763
581.1564, 8672.164
581.6385, 8708.156
582.1207, 8751.338
582.6028, 8748.900
583.0849, 8706.370
583.5670, 8666.934
584.0491, 8654.644
584.5313, 8656.556
585.0134, 8664.627
585.4955, 8680.507
585.9776, 8692.909
586.4597, 8697.633
586.9418, 8697.868
587.4240, 8697.241
587.9061, 8698.101
588.3882, 8693.955
588.8703, 8677.628
589.3524, 8657.606
589.8345, 8663.413
590.3167, 8703.412
590.7988, 8737.330
591.2809, 8747.848
591.7630, 8737.700
592.2451, 8710.450
592.7272, 8664.786
593.2094, 8634.118
593.6915, 8665.522
594.1736, 8727.795
594.6557, 8759.333
595.1378, 8745.106
595.6199, 8719.239
596.1021, 8697.465
596.5842, 8682.633
597.0663, 8678.804
597.5485, 8700.021
598.0306, 8719.108
598.5127, 8723.195
598.9948, 8716.840
599.4769, 8720.581
599.9590, 8748.548
600.4412, 8770.968
600.9233, 8774.148
601.4054, 8755.804
601.8875, 8759.195
602.3696, 8795.037
602.8517, 8826.181
603.3339, 8809.767
603.8160, 8750.913
604.2981, 8721.459
604.7802, 8733.553
605.2623, 8762.549
605.7444, 8780.034
606.2266, 8789.219
606.7087, 8797.773
607.1908, 8806.785
607.6729, 8818.361
608.1550, 8841.697
608.6371, 8870.361
609.1193, 8884.264
609.6014, 8854.450
610.0835, 8825.741
610.5656, 8823.494
611.0477, 8853.914
611.5298, 8873.505
612.0120, 8875.396
612.4941, 8871.399
612.9762, 8868.991
613.4583, 8868.952
613.9404, 8867.051
614.4225, 8861.604
614.9047, 8856.980
615.3868, 8857.012
615.8689, 8862.168
616.3510, 8881.131
616.8331, 8926.440
617.3152, 8973.668
617.7974, 8982.313
618.2795, 8959.088
618.7616, 8930.889
619.2437, 8899.851
619.7258, 8878.955
620.2079, 8884.790
620.6901, 8917.706
621.1722, 8941.950
621.6543, 8933.120
622.1364, 8920.011
622.6185, 8923.883
623.1006, 8965.646
623.5828, 8978.565
624.0649, 8944.299
624.5470, 8898.008
625.0291, 8883.841
625.5112, 8908.036
625.9933, 8932.337
626.4755, 8952.526
626.9576, 8965.258
627.4397, 8956.986
627.9218, 8930.887
628.4039, 8911.206
628.8860, 8914.049
629.3682, 8928.021
629.8503, 8941.257
630.3324, 8953.033
630.8145, 8958.235
631.2966, 8944.261
631.7787, 8929.283
632.2609, 8927.210
632.7430, 8943.023
633.2251, 8959.081
633.7072, 8974.876
634.1893, 8987.616
634.6714, 8993.908
635.1536, 8986.069
635.6357, 8990.633
636.1178, 9016.594
636.5999, 9048.288
637.0820, 9052.371
637.5641, 9027.429
638.0463, 9009.468
638.5284, 9013.733
639.0105, 9028.883
639.4926, 9032.528
639.9747, 9026.145
640.4568, 9018.277
640.9390, 9013.996
641.4211, 9010.632
641.9032, 9004.083
642.3853, 8994.103
642.8674, 8989.042
643.3495, 8988.649
643.8317, 8996.785
