##NAMES=Mesolite
##RRUFFID=R040139
##IDEAL CHEMISTRY=Na_2_Ca_2_(Si_9_Al_6_)O_30_&#183;8H_2_O
##LOCALITY=Lake Superior beach,  41 miles north of Tofte, Minnesota, USA
##OWNER=RRUFF
##SOURCE=University of Arizona Mineral Museum
##DESCRIPTION=Aggregate of white radiating thin acicular crystals.
##STATUS=The identification of this mineral has been confirmed by X-ray diffraction and chemical analysis
##URL=rruff.info/R040139
##MEASURED CHEMISTRY=Na_1.95_Ca_1.89_(Si_9.21_Al_5.82_)O_30_Â·8H_2_O
142.7147, 832.1857
143.1968, 872.9633
143.6789, 924.5748
144.1610, 975.0289
144.6431, 1026.133
145.1252, 1074.578
145.6074, 1119.050
146.0895, 1159.323
146.5716, 1194.752
147.0537, 1223.912
147.5358, 1246.485
148.0179, 1270.287
148.5001, 1297.812
148.9822, 1324.696
149.4643, 1347.328
149.9464, 1365.788
150.4285, 1383.318
150.9106, 1403.047
151.3928, 1424.489
151.8749, 1443.447
152.3570, 1459.538
152.8391, 1473.111
153.3212, 1484.230
153.8033, 1492.831
154.2855, 1500.021
154.7676, 1506.745
155.2497, 1512.771
155.7318, 1517.020
156.2139, 1521.610
156.6960, 1523.199
157.1782, 1516.673
157.6603, 1500.953
158.1424, 1482.879
158.6245, 1465.160
159.1066, 1448.927
159.5887, 1437.959
160.0709, 1438.919
160.5530, 1443.609
161.0351, 1437.227
161.5172, 1415.387
161.9993, 1397.915
162.4814, 1404.645
162.9636, 1425.748
163.4457, 1444.505
163.9278, 1453.555
164.4099, 1457.138
164.8920, 1462.224
165.3741, 1468.546
165.8563, 1477.188
166.3384, 1491.713
166.8205, 1508.720
167.3026, 1522.225
167.7847, 1528.467
168.2668, 1530.147
168.7490, 1533.783
169.2311, 1541.458
169.7132, 1546.193
170.1953, 1545.188
170.6774, 1539.110
171.1595, 1527.843
171.6417, 1507.696
172.1238, 1483.824
172.6059, 1470.545
173.0880, 1473.783
173.5701, 1475.840
174.0522, 1468.552
174.5344, 1455.284
175.0165, 1440.137
175.4986, 1423.096
175.9807, 1406.602
176.4628, 1399.124
176.9449, 1409.152
177.4271, 1412.153
177.9092, 1393.109
178.3913, 1363.809
178.8734, 1340.271
179.3555, 1330.808
179.8376, 1331.405
180.3197, 1330.201
180.8019, 1326.289
181.2840, 1322.072
181.7661, 1319.655
182.2482, 1317.079
182.7303, 1311.458
183.2124, 1300.729
183.6946, 1287.136
184.1767, 1277.711
184.6588, 1276.821
185.1409, 1272.416
185.6230, 1259.262
186.1051, 1242.230
186.5873, 1227.422
187.0694, 1218.214
187.5515, 1211.294
188.0336, 1197.377
188.5157, 1173.548
188.9978, 1147.250
189.4800, 1117.265
189.9621, 1087.443
190.4442, 1061.438
190.9263, 1041.132
191.4084, 1025.279
191.8905, 1010.991
192.3727, 998.1735
192.8548, 987.2788
193.3369, 977.4188
193.8190, 969.5060
194.3011, 965.3102
194.7832, 965.6080
195.2654, 967.6573
195.7475, 965.1757
196.2296, 954.5686
196.7117, 946.0676
197.1938, 942.4605
197.6759, 940.3546
198.1581, 937.4085
198.6402, 932.7453
199.1223, 926.0260
199.6044, 915.7972
200.0865, 897.7427
200.5686, 885.0668
201.0508, 882.1035
201.5329, 881.8990
202.0150, 879.8522
202.4971, 874.4875
202.9792, 866.4528
203.4613, 856.2671
203.9435, 842.0310
204.4256, 830.0448
204.9077, 823.3035
205.3898, 816.6708
205.8719, 805.5047
206.3540, 789.4105
206.8362, 772.7825
207.3183, 762.3923
207.8004, 762.6448
208.2825, 758.0032
208.7646, 743.3666
209.2467, 728.2799
209.7289, 717.1357
210.2110, 711.0733
210.6931, 709.7361
211.1752, 713.4805
211.6573, 723.9309
212.1395, 733.4915
212.6216, 744.7599
213.1037, 753.0295
213.5858, 754.8389
214.0679, 750.8776
214.5500, 744.7073
215.0322, 739.5816
215.5143, 735.5842
215.9964, 732.2183
216.4785, 728.3943
216.9606, 726.1741
217.4427, 726.3204
217.9249, 728.7975
218.4070, 733.3642
218.8891, 740.1990
219.3712, 749.4008
219.8533, 757.2626
220.3354, 761.6568
220.8176, 766.7409
221.2997, 773.5776
221.7818, 781.9872
222.2639, 791.4385
222.7460, 801.5384
223.2281, 812.3530
223.7103, 823.7048
224.1924, 836.9182
224.6745, 849.2480
225.1566, 862.0853
225.6387, 873.3571
226.1208, 879.9790
226.6030, 879.9585
227.0851, 874.3691
227.5672, 867.5552
228.0493, 857.9253
228.5314, 849.1627
229.0135, 841.8799
229.4957, 835.7605
229.9778, 830.6908
230.4599, 826.6657
230.9420, 823.0745
231.4241, 818.8582
231.9062, 816.9680
232.3884, 808.7153
232.8705, 785.2711
233.3526, 760.1959
233.8347, 745.6144
234.3168, 745.4771
234.7989, 753.8403
235.2811, 761.3500
235.7632, 769.0685
236.2453, 773.1907
236.7274, 771.0374
237.2095, 767.3555
237.6916, 765.2631
238.1738, 765.3473
238.6559, 766.1179
239.1380, 765.0076
239.6201, 760.4039
240.1022, 760.0407
240.5843, 769.6719
241.0665, 779.1061
241.5486, 783.1475
242.0307, 781.8990
242.5128, 778.9667
242.9949, 778.5901
243.4770, 781.3844
243.9592, 779.1418
244.4413, 766.4136
244.9234, 753.4542
245.4055, 745.2989
245.8876, 740.2039
246.3697, 733.0852
246.8519, 719.2770
247.3340, 699.7453
247.8161, 683.9081
248.2982, 672.3560
248.7803, 664.1664
249.2624, 659.9014
249.7446, 658.1923
250.2267, 656.6706
250.7088, 653.4896
251.1909, 650.2858
251.6730, 652.5444
252.1551, 663.8936
252.6373, 673.3511
253.1194, 675.4271
253.6015, 674.7988
254.0836, 676.8674
254.5657, 684.0348
255.0478, 692.8065
255.5300, 697.9926
256.0121, 699.4019
256.4942, 697.8068
256.9763, 689.2402
257.4584, 680.1113
257.9406, 675.6889
258.4227, 677.2067
258.9048, 680.1072
259.3869, 679.8199
259.8690, 676.2373
260.3511, 671.6384
260.8333, 664.2697
261.3154, 657.9848
261.7975, 655.5184
262.2796, 656.8873
262.7617, 660.1030
263.2438, 665.2959
263.7260, 671.7322
264.2081, 674.6849
264.6902, 671.8462
265.1723, 668.2023
265.6544, 666.7883
266.1365, 667.4294
266.6187, 669.8032
267.1008, 675.6576
267.5829, 682.8017
268.0650, 685.6459
268.5471, 682.4618
269.0292, 680.1995
269.5114, 686.4729
269.9935, 696.7380
270.4756, 702.9796
270.9577, 699.6492
271.4398, 694.3107
271.9219, 696.3754
272.4041, 706.0804
272.8862, 715.3857
273.3683, 720.5868
273.8504, 722.6127
274.3325, 723.5763
274.8146, 723.0651
275.2968, 722.4067
275.7789, 722.5272
276.2610, 723.2620
276.7431, 723.6101
277.2252, 722.4520
277.7073, 721.8704
278.1895, 725.5203
278.6716, 733.7843
279.1537, 743.0560
279.6358, 753.2401
280.1179, 763.3211
280.6000, 771.0620
281.0822, 775.7396
281.5643, 779.5701
282.0464, 784.5465
282.5285, 790.4553
283.0106, 799.9140
283.4927, 818.3408
283.9749, 837.2048
284.4570, 847.1613
284.9391, 848.1245
285.4212, 849.0974
285.9033, 857.6088
286.3854, 873.6087
286.8676, 887.5139
287.3497, 897.9377
287.8318, 907.8394
288.3139, 918.6062
288.7960, 930.0446
289.2781, 940.9968
289.7603, 950.5209
290.2424, 959.5795
290.7245, 972.1838
291.2066, 991.4159
291.6887, 1010.130
292.1708, 1030.415
292.6530, 1048.489
293.1351, 1058.718
293.6172, 1059.232
294.0993, 1054.243
294.5814, 1051.389
295.0635, 1054.693
295.5457, 1052.078
296.0278, 1042.735
296.5099, 1028.622
296.9920, 1009.069
297.4741, 985.1887
297.9562, 961.3994
298.4384, 942.3264
298.9205, 928.7114
299.4026, 914.5146
299.8847, 897.2726
300.3668, 881.9192
300.8489, 871.5272
301.3310, 864.3138
301.8131, 856.4478
302.2953, 845.2927
302.7774, 831.5539
303.2595, 818.8004
303.7416, 807.2397
304.2237, 796.4930
304.7058, 788.1703
305.1880, 779.8104
305.6701, 768.1241
306.1522, 751.7836
306.6343, 733.9902
307.1164, 719.5307
307.5985, 708.4169
308.0807, 700.8495
308.5628, 701.9292
309.0449, 703.1194
309.5270, 698.2085
310.0091, 687.0917
310.4912, 676.0270
310.9734, 671.4780
311.4555, 672.6690
311.9376, 670.3849
312.4197, 659.7106
312.9018, 651.9548
313.3839, 656.5084
313.8661, 669.3120
314.3482, 679.7277
314.8303, 680.8276
315.3124, 677.5580
315.7945, 680.0004
316.2766, 689.6790
316.7588, 696.0034
317.2409, 690.4086
317.7230, 678.6247
318.2051, 669.9102
318.6872, 665.2869
319.1693, 664.0367
319.6515, 667.2539
320.1336, 673.9487
320.6157, 680.0610
321.0978, 684.7971
321.5799, 687.3823
322.0620, 685.4671
322.5442, 678.1658
323.0263, 672.8657
323.5084, 672.1846
323.9905, 674.4204
324.4726, 678.4289
324.9547, 684.0016
325.4369, 688.2698
325.9190, 688.1083
326.4011, 682.9649
326.8832, 679.0535
327.3653, 674.5385
327.8474, 672.8235
328.3296, 677.9696
328.8117, 687.8493
329.2938, 696.4423
329.7759, 700.3552
330.2580, 700.1185
330.7401, 697.9854
331.2223, 690.0692
331.7044, 685.0714
332.1865, 686.0356
332.6686, 689.3661
333.1507, 691.9763
333.6328, 692.6959
334.1150, 690.8566
334.5971, 684.4244
335.0792, 668.9669
335.5613, 661.3152
336.0434, 667.9767
336.5255, 675.7195
337.0077, 677.9982
337.4898, 675.1691
337.9719, 670.8503
338.4540, 667.6174
338.9361, 665.4179
339.4182, 663.8547
339.9004, 663.5598
340.3825, 662.9835
340.8646, 661.1619
341.3467, 659.0063
341.8288, 657.5766
342.3109, 657.2234
342.7931, 657.9091
343.2752, 659.3847
343.7573, 661.5147
344.2394, 665.5923
344.7215, 674.2485
345.2036, 683.1408
345.6858, 688.1541
346.1679, 689.2327
346.6500, 690.9449
347.1321, 697.7431
347.6142, 707.3500
348.0963, 713.3740
348.5785, 714.7574
349.0606, 713.8707
349.5427, 710.6321
350.0248, 706.3557
350.5069, 705.2893
350.9890, 710.6263
351.4712, 717.5054
351.9533, 722.1620
352.4354, 724.8845
352.9175, 727.4971
353.3996, 731.2332
353.8817, 734.9540
354.3639, 735.7172
354.8460, 734.7766
355.3281, 729.3898
355.8102, 713.9864
356.2923, 696.0346
356.7744, 684.7895
357.2566, 682.0642
357.7387, 683.6036
358.2208, 684.9266
358.7029, 686.0316
359.1850, 686.9023
359.6671, 688.2446
360.1493, 688.7097
360.6314, 685.8339
361.1135, 681.6724
361.5956, 680.8862
362.0777, 686.5243
362.5598, 696.5245
363.0420, 703.4482
363.5241, 706.4859
364.0062, 707.4055
364.4883, 707.0278
364.9704, 704.5631
365.4525, 697.4412
365.9347, 685.9080
366.4168, 675.6993
366.8989, 674.8098
367.3810, 683.9960
367.8631, 689.6024
368.3452, 688.6870
368.8274, 686.9225
369.3095, 687.3731
369.7916, 689.2856
370.2737, 690.8104
370.7558, 691.4549
371.2379, 690.9160
371.7201, 688.0953
372.2022, 682.7024
372.6843, 677.8381
373.1664, 674.6251
373.6485, 672.9041
374.1306, 672.5026
374.6128, 673.8908
375.0949, 674.8965
375.5770, 675.3661
376.0591, 674.4951
376.5412, 669.8729
377.0233, 660.6300
377.5055, 650.5168
377.9876, 643.0605
378.4697, 638.5922
378.9518, 635.6400
379.4339, 634.8078
379.9160, 634.9502
380.3982, 636.6063
380.8803, 638.7903
381.3624, 639.4679
381.8445, 637.7408
382.3266, 633.0901
382.8087, 623.6335
383.2909, 599.4043
383.7730, 583.7938
384.2551, 582.1212
384.7372, 585.9863
385.2193, 590.0998
385.7014, 592.7707
386.1836, 593.0151
386.6657, 588.1616
387.1478, 577.5005
387.6299, 576.1478
388.1120, 595.6342
388.5941, 611.2409
389.0763, 612.9316
389.5584, 606.0935
390.0405, 598.8395
390.5226, 593.9979
391.0047, 591.9480
391.4868, 594.8110
391.9690, 603.4407
392.4511, 608.4961
392.9332, 604.7612
393.4153, 598.9031
393.8974, 596.8888
394.3795, 598.8065
394.8617, 602.7802
395.3438, 608.1379
395.8259, 614.8679
396.3080, 624.1205
396.7901, 636.2224
397.2722, 646.3152
397.7544, 650.2412
398.2365, 649.1453
398.7186, 650.0716
399.2007, 651.0224
399.6828, 656.0945
400.1649, 670.1168
400.6471, 688.5499
401.1292, 703.5220
401.6113, 712.5039
402.0934, 719.1941
402.5755, 729.3794
403.0576, 745.1294
403.5398, 757.8840
404.0219, 766.4191
404.5040, 773.6670
404.9861, 778.7584
405.4682, 783.8159
405.9503, 793.7856
406.4325, 812.5223
406.9146, 836.8148
407.3967, 854.2805
407.8788, 859.7758
408.3609, 869.0176
408.8430, 888.0067
409.3252, 909.7087
409.8073, 929.5743
410.2894, 946.6533
410.7715, 960.9235
411.2536, 970.6378
411.7357, 977.0046
412.2179, 986.4542
412.7000, 1000.703
413.1821, 1014.816
413.6642, 1026.102
414.1463, 1034.756
414.6284, 1040.140
415.1106, 1039.845
415.5927, 1039.106
416.0748, 1040.928
416.5569, 1045.328
417.0390, 1053.027
417.5211, 1064.811
418.0033, 1077.887
418.4854, 1087.617
418.9675, 1091.861
419.4496, 1100.296
419.9317, 1117.346
420.4138, 1135.259
420.8960, 1148.516
421.3781, 1157.893
421.8602, 1167.788
422.3423, 1181.483
422.8244, 1197.086
423.3065, 1206.205
423.7887, 1204.028
424.2708, 1202.645
424.7529, 1205.739
425.2350, 1208.463
425.7171, 1205.375
426.1992, 1196.501
426.6814, 1188.204
427.1635, 1188.500
427.6456, 1196.258
428.1277, 1197.694
428.6098, 1191.227
429.0919, 1181.353
429.5741, 1164.517
430.0562, 1147.318
430.5383, 1141.316
431.0204, 1153.415
431.5025, 1168.117
431.9846, 1170.313
432.4668, 1164.058
432.9489, 1163.985
433.4310, 1174.180
433.9131, 1190.448
434.3952, 1209.854
434.8773, 1233.024
435.3595, 1250.361
435.8416, 1255.372
436.3237, 1259.711
436.8058, 1273.032
437.2879, 1291.653
437.7701, 1303.889
438.2522, 1303.057
438.7343, 1296.860
439.2164, 1305.639
439.6985, 1342.586
440.1806, 1371.103
440.6628, 1384.951
441.1449, 1395.957
441.6270, 1411.968
442.1091, 1432.579
442.5912, 1452.928
443.0733, 1469.966
443.5555, 1483.552
444.0376, 1493.500
444.5197, 1500.585
445.0018, 1501.829
445.4839, 1492.501
445.9660, 1478.391
446.4482, 1464.533
446.9303, 1451.599
447.4124, 1438.848
447.8945, 1428.431
448.3766, 1417.348
448.8587, 1398.074
449.3409, 1369.055
449.8230, 1338.583
450.3051, 1313.225
450.7872, 1292.255
451.2693, 1268.338
451.7514, 1241.616
452.2336, 1212.098
452.7157, 1177.881
453.1978, 1141.612
453.6799, 1106.123
454.1620, 1072.519
454.6441, 1042.566
455.1263, 1019.377
455.6084, 1004.760
456.0905, 986.7989
456.5726, 961.1025
457.0547, 936.6243
457.5368, 917.3398
458.0190, 900.7750
458.5011, 882.1981
458.9832, 859.0537
459.4653, 835.8377
459.9474, 819.5993
460.4295, 810.5096
460.9117, 801.0814
461.3938, 790.9004
461.8759, 778.5526
462.3580, 759.7086
462.8401, 736.3490
463.3222, 719.5774
463.8044, 718.2625
464.2865, 720.1057
464.7686, 713.7302
465.2507, 700.7845
465.7328, 688.1899
466.2149, 678.6786
466.6971, 672.0912
467.1792, 668.5452
467.6613, 670.8484
468.1434, 670.2058
468.6255, 664.7968
469.1076, 658.0887
469.5898, 652.2755
470.0719, 647.0961
470.5540, 640.6567
471.0361, 631.1710
471.5182, 621.1148
472.0003, 618.1270
472.4825, 624.5929
472.9646, 631.6959
473.4467, 639.7732
473.9288, 646.2676
474.4109, 648.5864
474.8930, 647.0356
475.3752, 645.3582
475.8573, 646.0745
476.3394, 647.8762
476.8215, 647.7338
477.3036, 645.5570
477.7857, 645.9242
478.2679, 652.2318
478.7500, 661.6154
479.2321, 666.9543
479.7142, 666.7925
480.1963, 666.9103
480.6784, 668.2760
481.1606, 670.4710
481.6427, 673.5234
482.1248, 677.1639
482.6069, 680.1616
483.0890, 681.2366
483.5711, 681.3199
484.0533, 685.9789
484.5354, 699.5293
485.0175, 710.6013
485.4996, 715.2086
485.9817, 718.6733
486.4638, 725.5352
486.9460, 736.0700
487.4281, 746.8371
487.9102, 754.8823
488.3923, 761.1161
488.8744, 768.7311
489.3565, 778.2006
489.8387, 786.4136
490.3208, 791.9510
490.8029, 794.9984
491.2850, 796.0649
491.7671, 794.2763
492.2492, 793.0743
492.7314, 792.9324
493.2135, 794.3673
493.6956, 799.2629
494.1777, 807.0529
494.6598, 813.6678
495.1419, 815.9542
495.6241, 814.4247
496.1062, 812.3763
496.5883, 808.5459
497.0704, 806.0398
497.5525, 803.3289
498.0346, 803.2139
498.5168, 810.4334
498.9989, 823.9951
499.4810, 835.6141
499.9631, 838.0253
500.4452, 833.0572
500.9273, 825.9139
501.4095, 814.7838
501.8916, 809.4045
502.3737, 817.1379
502.8558, 831.4624
503.3379, 841.2203
503.8200, 844.5798
504.3022, 850.2158
504.7843, 863.1728
505.2664, 879.0598
505.7485, 893.8766
506.2306, 906.8261
506.7127, 915.3232
507.1949, 916.2419
507.6770, 913.4166
508.1591, 923.8105
508.6412, 960.8252
509.1233, 991.8918
509.6054, 1010.323
510.0876, 1026.295
510.5697, 1045.780
511.0518, 1069.817
511.5339, 1097.931
512.0161, 1131.281
512.4982, 1167.451
512.9803, 1198.278
513.4624, 1221.592
513.9445, 1251.783
514.4266, 1295.494
514.9088, 1347.405
515.3909, 1400.100
515.8730, 1453.458
516.3551, 1509.686
516.8372, 1565.534
517.3193, 1627.501
517.8015, 1706.277
518.2836, 1798.107
518.7657, 1888.048
519.2478, 1967.107
519.7299, 2042.731
520.2120, 2132.486
520.6942, 2240.717
521.1763, 2356.227
521.6584, 2483.074
522.1405, 2612.156
522.6226, 2737.146
523.1047, 2860.805
523.5869, 2988.052
524.0690, 3121.507
524.5511, 3261.461
525.0332, 3405.979
525.5153, 3555.136
525.9974, 3722.893
526.4796, 3921.316
526.9617, 4125.480
527.4438, 4307.694
527.9259, 4470.755
528.4080, 4629.188
528.8901, 4786.182
529.3723, 4938.161
529.8544, 5092.132
530.3365, 5238.234
530.8186, 5359.112
531.3007, 5449.085
531.7828, 5506.744
532.2650, 5531.521
532.7471, 5524.944
533.2292, 5476.168
533.7113, 5375.153
534.1934, 5239.375
534.6755, 5063.574
535.1577, 4861.187
535.6398, 4646.679
536.1219, 4422.613
536.6040, 4193.343
537.0861, 3962.382
537.5682, 3729.853
538.0504, 3492.590
538.5325, 3248.962
539.0146, 3020.043
539.4967, 2824.823
539.9788, 2658.450
540.4609, 2499.074
540.9431, 2341.707
541.4252, 2195.157
541.9073, 2059.712
542.3894, 1936.909
542.8715, 1831.549
543.3536, 1741.179
543.8358, 1653.846
544.3179, 1557.603
544.8000, 1458.802
545.2821, 1388.357
545.7642, 1357.573
546.2463, 1324.318
546.7285, 1273.985
547.2106, 1220.540
547.6926, 1172.873
548.1747, 1131.628
548.6569, 1096.248
549.1390, 1068.618
549.6211, 1045.616
550.1032, 1027.755
550.5853, 1012.543
551.0674, 987.8323
551.5496, 946.8063
552.0317, 903.0845
552.5138, 879.5150
552.9959, 884.1336
553.4780, 881.7098
553.9601, 868.5460
554.4423, 853.3627
554.9244, 838.4184
555.4065, 824.1423
555.8886, 810.6458
556.3707, 797.9006
556.8528, 786.2237
557.3350, 777.3328
557.8171, 770.5007
558.2992, 758.9378
558.7813, 740.4268
559.2634, 722.2634
559.7455, 709.6212
560.2277, 701.0034
560.7098, 691.1837
561.1919, 678.4142
561.6740, 667.3780
562.1561, 659.5479
562.6382, 654.1740
563.1204, 651.7286
563.6025, 651.3328
564.0846, 649.7811
564.5667, 644.7551
565.0488, 636.6280
565.5309, 626.3073
566.0131, 611.9969
566.4952, 600.0361
566.9773, 589.9090
567.4594, 583.9261
567.9415, 586.8610
568.4236, 596.3257
568.9058, 601.6548
569.3879, 595.1638
569.8700, 585.4656
570.3521, 580.8472
570.8342, 580.3312
571.3163, 581.0237
571.7985, 582.1685
572.2806, 583.2123
572.7627, 584.1270
573.2448, 585.5737
573.7269, 580.4229
574.2090, 561.7602
574.6912, 545.0219
575.1733, 532.6022
575.6554, 524.8675
576.1375, 523.9515
576.6196, 529.5220
577.1017, 534.5169
577.5839, 530.4779
578.0660, 520.7604
578.5481, 518.1307
579.0302, 523.8712
579.5123, 526.4593
579.9944, 518.5809
580.4766, 506.3185
580.9587, 502.0671
581.4408, 507.5426
581.9229, 511.9069
582.4050, 514.0962
582.8871, 514.3595
583.3693, 511.4840
583.8514, 506.9831
584.3335, 501.9618
584.8156, 487.6344
585.2977, 498.2803
585.7798, 504.1074
586.2620, 505.3745
586.7441, 488.4246
587.2262, 494.9983
587.7083, 492.1447
588.1904, 488.9046
588.6725, 498.7892
589.1547, 484.4888
589.6368, 494.1653
590.1189, 494.2706
590.6010, 498.7564
591.0831, 493.7567
591.5652, 491.6869
592.0474, 499.1053
592.5295, 501.2701
593.0116, 495.1785
593.4937, 499.9427
593.9758, 485.3110
594.4579, 487.6995
594.9401, 497.4313
595.4222, 489.4100
595.9043, 488.7056
596.3864, 488.9896
596.8685, 489.4956
597.3506, 487.1924
597.8328, 469.0138
598.3149, 481.3542
598.7970, 488.8759
599.2791, 491.8378
599.7612, 476.5826
600.2433, 484.8508
600.7255, 483.6924
601.2076, 482.1468
601.6897, 493.7261
602.1718, 481.1205
602.6539, 492.4915
603.1360, 494.2916
603.6182, 500.4725
604.1003, 493.5625
604.5824, 492.6314
605.0645, 490.7780
605.5466, 488.0849
606.0287, 484.3784
606.5109, 480.1418
606.9930, 475.1187
607.4751, 469.7324
607.9572, 468.1491
608.4393, 472.2876
608.9214, 476.8855
609.4036, 476.0939
609.8857, 469.8858
610.3678, 467.2616
610.8499, 473.1921
611.3320, 476.0793
611.8141, 469.4961
612.2963, 460.9427
612.7784, 458.9399
613.2605, 463.6280
613.7426, 468.0722
614.2247, 466.3145
614.7068, 461.2033
615.1890, 460.4977
615.6711, 464.4793
616.1532, 466.5200
616.6353, 464.6273
617.1174, 460.2556
617.5995, 454.1792
618.0817, 446.3416
618.5638, 440.5032
619.0459, 435.1897
619.5280, 433.7633
620.0101, 441.9489
620.4922, 452.5690
620.9744, 456.0362
621.4565, 451.0717
621.9386, 444.0564
622.4207, 440.0351
622.9028, 438.8403
623.3849, 441.1345
623.8671, 448.1625
624.3492, 450.9893
624.8313, 444.4296
625.3134, 435.3647
625.7955, 432.5895
626.2776, 435.6787
626.7598, 437.5270
627.2419, 435.8202
627.7240, 434.1118
628.2061, 434.4910
628.6882, 435.8801
629.1703, 436.9158
629.6525, 437.1460
630.1346, 436.3326
630.6167, 433.8602
631.0988, 430.2007
631.5809, 428.1544
632.0630, 428.1681
632.5452, 427.9281
633.0273, 425.8375
633.5094, 424.0888
633.9915, 426.4112
634.4736, 432.4670
634.9557, 434.7439
635.4379, 429.0073
635.9200, 422.0011
636.4021, 416.5420
636.8842, 412.6503
