##NAMES=Meta-autunite
##RRUFFID=R060476
##IDEAL CHEMISTRY=Ca(U^6+^O_2_)_2_(PO_4_)_2_&#183;6H_2_O
##LOCALITY=San Pedro mine, Malacheta, Minas Gerais, Brazil
##OWNER=RRUFF
##SOURCE=Michael Scott
##DESCRIPTION=Book of yellowish-green thin tabular crystals
##STATUS=The identification of this mineral has been confirmed by X-ray diffraction and chemical analysis
##URL=rruff.info/R060476
##MEASURED CHEMISTRY=(Ca_0.87_Sr_0.05_Ba_0.04_)_∑=0.96_(UO_2_)_1.95_(PO_4_)_2.08_·4.10H_2_O
153.7104, 7830.194
154.1925, 8127.986
154.6746, 8447.248
155.1567, 8784.705
155.6389, 9141.334
156.1210, 9529.018
156.6031, 9938.181
157.0852, 10349.12
157.5673, 10767.03
158.0495, 11177.63
158.5316, 11577.62
159.0137, 11957.81
159.4958, 12335.24
159.9779, 12723.55
160.4600, 13116.53
160.9422, 13493.98
161.4243, 13846.15
161.9064, 14182.19
162.3885, 14506.41
162.8706, 14819.49
163.3527, 15126.67
163.8349, 15438.29
164.3170, 15750.91
164.7991, 16048.07
165.2812, 16310.49
165.7633, 16558.92
166.2454, 16811.88
166.7276, 17073.03
167.2097, 17341.98
167.6918, 17623.88
168.1739, 17915.62
168.6560, 18212.34
169.1381, 18510.00
169.6203, 18709.68
170.1024, 18970.34
170.5845, 19072.29
171.0666, 19187.17
171.5487, 19327.48
172.0309, 19491.32
172.5130, 19661.14
172.9951, 19833.01
173.4772, 20001.81
173.9593, 20159.86
174.4414, 20290.17
174.9236, 20414.98
175.4057, 20560.12
175.8878, 20726.95
176.3699, 20890.54
176.8520, 21035.20
177.3341, 21162.65
177.8163, 21277.08
178.2984, 21377.99
178.7805, 21466.60
179.2626, 21544.56
179.7447, 21610.55
180.2268, 21665.54
180.7090, 21699.73
181.1911, 21720.61
181.6732, 21751.20
182.1553, 21812.88
182.6374, 21890.02
183.1195, 21944.83
183.6017, 21974.46
184.0838, 21997.71
184.5659, 22036.08
185.0480, 22087.52
185.5301, 22144.13
186.0123, 22203.60
186.4944, 22265.07
186.9765, 22322.54
187.4586, 22374.68
187.9407, 22427.96
188.4228, 22494.82
188.9050, 22573.39
189.3871, 22649.64
189.8692, 22715.49
190.3513, 22771.93
190.8334, 22824.70
191.3155, 22872.65
191.7977, 22920.12
192.2798, 22979.19
192.7619, 23050.04
193.2440, 23110.36
193.7261, 23148.66
194.2082, 23166.08
194.6904, 23171.58
195.1725, 23161.70
195.6546, 23148.41
196.1367, 23154.20
196.6188, 23179.79
197.1009, 23213.68
197.5831, 23253.85
198.0652, 23300.50
198.5473, 23337.13
199.0294, 23361.17
199.5115, 23376.67
199.9937, 23390.18
200.4758, 23400.55
200.9579, 23413.17
201.4400, 23432.54
201.9221, 23459.29
202.4042, 23479.86
202.8864, 23490.60
203.3685, 23497.20
203.8506, 23514.30
204.3327, 23543.60
204.8148, 23575.14
205.2969, 23604.57
205.7791, 23632.18
206.2612, 23654.43
206.7433, 23668.67
207.2254, 23679.23
207.7075, 23699.81
208.1896, 23735.66
208.6718, 23766.56
209.1539, 23778.41
209.6360, 23765.49
210.1181, 23763.63
210.6002, 23778.08
211.0823, 23803.37
211.5645, 23824.25
212.0466, 23840.71
212.5287, 23854.47
213.0108, 23867.36
213.4929, 23881.17
213.9750, 23887.32
214.4572, 23878.83
214.9393, 23865.18
215.4214, 23876.87
215.9035, 23923.86
216.3856, 23975.69
216.8678, 24014.51
217.3499, 24036.22
217.8320, 24058.15
218.3141, 24079.23
218.7962, 24100.48
219.2783, 24127.15
219.7605, 24163.19
220.2426, 24195.50
220.7247, 24214.67
221.2068, 24212.82
221.6889, 24220.07
222.1710, 24242.02
222.6532, 24272.95
223.1353, 24293.32
223.6174, 24298.22
224.0995, 24301.95
224.5816, 24312.98
225.0637, 24337.86
225.5459, 24353.87
226.0280, 24355.72
226.5101, 24349.61
226.9922, 24354.51
227.4743, 24375.12
227.9564, 24399.38
228.4386, 24422.87
228.9207, 24447.94
229.4028, 24464.44
229.8849, 24468.62
230.3670, 24464.71
230.8492, 24464.96
231.3313, 24470.58
231.8134, 24478.36
232.2955, 24487.21
232.7776, 24497.50
233.2597, 24508.61
233.7419, 24521.43
234.2240, 24535.49
234.7061, 24548.21
235.1882, 24557.10
235.6703, 24569.37
236.1524, 24588.71
236.6346, 24617.82
237.1167, 24648.79
237.5988, 24683.80
238.0809, 24720.05
238.5630, 24751.11
239.0451, 24773.93
239.5273, 24795.22
240.0094, 24816.76
240.4915, 24836.38
240.9736, 24861.14
241.4557, 24895.05
241.9378, 24931.68
242.4200, 24956.58
242.9021, 24960.11
243.3842, 24966.64
243.8663, 24986.34
244.3484, 25024.79
244.8306, 25059.49
245.3127, 25089.68
245.7948, 25116.29
246.2769, 25141.14
246.7590, 25165.35
247.2411, 25185.76
247.7233, 25200.36
248.2054, 25206.92
248.6875, 25216.95
249.1696, 25230.86
249.6517, 25248.28
250.1338, 25269.31
250.6160, 25297.95
251.0981, 25323.37
251.5802, 25340.09
252.0623, 25344.89
252.5444, 25359.20
253.0265, 25386.70
253.5087, 25420.84
253.9908, 25452.60
254.4729, 25483.82
254.9550, 25509.63
255.4371, 25527.05
255.9192, 25534.40
256.4014, 25546.17
256.8835, 25562.38
257.3656, 25583.01
257.8477, 25608.52
258.3298, 25639.07
258.8120, 25674.40
259.2941, 25717.18
259.7762, 25768.50
260.2583, 25808.11
260.7404, 25830.32
261.2225, 25847.56
261.7047, 25874.68
262.1868, 25916.35
262.6689, 25954.26
263.1510, 25983.06
263.6331, 26002.67
264.1152, 26026.90
264.5974, 26056.71
265.0795, 26089.30
265.5616, 26122.45
266.0437, 26158.66
266.5258, 26189.29
267.0079, 26210.71
267.4901, 26225.05
267.9722, 26249.07
268.4543, 26289.59
268.9364, 26328.26
269.4185, 26347.71
269.9006, 26342.62
270.3828, 26342.42
270.8649, 26349.71
271.3470, 26365.32
271.8291, 26395.44
272.3112, 26444.03
272.7933, 26496.02
273.2755, 26540.73
273.7576, 26577.41
274.2397, 26607.81
274.7218, 26629.22
275.2039, 26645.04
275.6860, 26666.59
276.1682, 26695.20
276.6503, 26725.38
277.1324, 26756.22
277.6145, 26788.54
278.0966, 26813.16
278.5787, 26829.28
279.0609, 26839.28
279.5430, 26844.44
280.0251, 26843.33
280.5072, 26851.29
280.9893, 26882.79
281.4715, 26937.71
281.9536, 26979.79
282.4357, 27004.06
282.9178, 27021.55
283.3999, 27050.05
283.8820, 27089.37
284.3642, 27134.27
284.8463, 27182.16
285.3284, 27232.73
285.8105, 27286.10
286.2926, 27342.11
286.7747, 27399.37
287.2569, 27458.51
287.7390, 27518.86
288.2211, 27572.43
288.7032, 27614.32
289.1853, 27646.34
289.6674, 27676.46
290.1496, 27704.62
290.6317, 27733.64
291.1138, 27769.61
291.5959, 27811.39
292.0780, 27847.82
292.5602, 27874.37
293.0423, 27894.38
293.5244, 27913.54
294.0065, 27931.74
294.4886, 27955.18
294.9707, 27994.44
295.4529, 28045.14
295.9350, 28090.25
296.4171, 28124.35
296.8992, 28152.01
297.3813, 28177.97
297.8634, 28202.62
298.3456, 28232.02
298.8277, 28275.64
299.3098, 28326.90
299.7919, 28369.71
300.2740, 28396.42
300.7561, 28420.71
301.2383, 28462.10
301.7204, 28517.64
302.2025, 28571.16
302.6846, 28606.90
303.1667, 28636.13
303.6488, 28679.44
304.1310, 28744.01
304.6131, 28808.90
305.0952, 28848.27
305.5773, 28869.93
306.0594, 28894.90
306.5415, 28936.68
307.0237, 28986.23
307.5058, 29036.33
307.9879, 29086.55
308.4700, 29132.59
308.9521, 29165.94
309.4343, 29193.39
309.9164, 29227.69
310.3985, 29285.21
310.8806, 29344.43
311.3627, 29385.26
311.8448, 29406.95
312.3270, 29431.74
312.8091, 29472.44
313.2912, 29524.00
313.7733, 29580.49
314.2554, 29649.58
314.7375, 29714.72
315.2197, 29764.45
315.7018, 29800.85
316.1839, 29837.81
316.6660, 29880.19
317.1481, 29926.83
317.6302, 29976.84
318.1124, 30039.89
318.5945, 30094.24
319.0766, 30125.96
319.5587, 30141.64
320.0408, 30164.80
320.5229, 30203.19
321.0051, 30250.65
321.4872, 30305.11
321.9693, 30371.12
322.4514, 30433.64
322.9335, 30491.95
323.4156, 30544.58
323.8978, 30588.74
324.3799, 30610.93
324.8620, 30635.96
325.3441, 30672.26
325.8262, 30720.61
326.3083, 30778.46
326.7905, 30861.70
327.2726, 30949.46
327.7547, 31014.98
328.2368, 31026.33
328.7189, 31048.42
329.2010, 31099.29
329.6832, 31182.33
330.1653, 31251.40
330.6474, 31303.69
331.1295, 31344.01
331.6116, 31374.91
332.0938, 31378.36
332.5759, 31401.57
333.0580, 31456.17
333.5401, 31537.96
334.0222, 31612.68
334.5043, 31681.79
334.9865, 31742.48
335.4686, 31791.61
335.9507, 31822.21
336.4328, 31860.48
336.9149, 31910.45
337.3970, 31968.22
337.8792, 32021.55
338.3613, 32070.12
338.8434, 32117.63
339.3255, 32165.91
339.8076, 32215.28
340.2898, 32267.06
340.7719, 32323.17
341.2540, 32380.21
341.7361, 32433.43
342.2182, 32481.49
342.7003, 32531.91
343.1825, 32585.89
343.6646, 32644.14
344.1467, 32709.40
344.6288, 32783.45
345.1109, 32857.80
345.5930, 32921.73
346.0752, 32975.93
346.5573, 33038.32
347.0394, 33117.20
347.5215, 33203.14
348.0036, 33275.54
348.4857, 33334.16
348.9679, 33392.38
349.4500, 33463.00
349.9321, 33541.77
350.4142, 33615.87
350.8963, 33682.84
351.3784, 33746.89
351.8606, 33811.68
352.3427, 33876.90
352.8248, 33942.84
353.3069, 34007.54
353.7890, 34073.20
354.2711, 34144.76
354.7533, 34222.92
355.2354, 34302.73
355.7175, 34383.41
356.1996, 34461.75
356.6817, 34532.05
357.1638, 34580.21
357.6460, 34627.74
358.1281, 34693.09
358.6102, 34775.01
359.0923, 34860.02
359.5744, 34945.14
360.0565, 35026.77
360.5387, 35101.18
361.0208, 35163.67
361.5029, 35223.79
361.9850, 35279.33
362.4671, 35334.42
362.9492, 35401.10
363.4314, 35499.16
363.9135, 35598.77
364.3956, 35680.98
364.8777, 35732.08
365.3598, 35793.92
365.8419, 35884.88
366.3241, 35989.96
366.8062, 36086.10
367.2883, 36157.20
367.7704, 36231.32
368.2526, 36321.09
368.7347, 36433.11
369.2168, 36523.62
369.6989, 36569.13
370.1810, 36607.32
370.6631, 36669.74
371.1453, 36767.54
371.6274, 36873.62
372.1095, 36990.43
372.5916, 37115.63
373.0737, 37230.57
373.5558, 37338.52
374.0380, 37432.61
374.5201, 37504.25
375.0022, 37537.74
375.4843, 37600.01
375.9664, 37701.29
376.4485, 37825.19
376.9307, 37944.18
377.4128, 38057.57
377.8949, 38164.02
378.3770, 38257.80
378.8591, 38339.59
379.3412, 38436.34
379.8234, 38550.34
380.3055, 38668.09
380.7876, 38772.95
381.2697, 38866.34
381.7518, 38955.38
382.2339, 39040.17
382.7161, 39123.44
383.1982, 39213.57
383.6803, 39309.77
384.1624, 39408.22
384.6445, 39507.50
385.1266, 39606.08
385.6088, 39698.45
386.0909, 39781.30
386.5730, 39865.20
387.0551, 39960.10
387.5372, 40064.45
388.0193, 40175.86
388.5015, 40297.64
388.9836, 40422.09
389.4657, 40544.55
389.9478, 40664.95
390.4299, 40772.03
390.9120, 40837.46
391.3942, 40891.57
391.8763, 40971.09
392.3584, 41112.52
392.8405, 41259.66
393.3226, 41386.91
393.8047, 41496.41
394.2869, 41597.58
394.7690, 41673.09
395.2511, 41755.95
395.7332, 41870.96
396.2154, 42045.48
396.6975, 42202.83
397.1796, 42317.80
397.6617, 42408.59
398.1438, 42505.55
398.6259, 42610.25
399.1081, 42724.53
399.5902, 42855.71
400.0723, 43009.33
400.5544, 43138.20
401.0365, 43212.99
401.5186, 43284.19
402.0008, 43395.71
402.4829, 43584.96
402.9650, 43741.92
403.4471, 43841.59
403.9292, 43899.95
404.4113, 43984.58
404.8935, 44106.45
405.3756, 44230.34
405.8577, 44338.28
406.3398, 44427.69
406.8219, 44515.09
407.3040, 44599.99
407.7862, 44686.11
408.2683, 44783.31
408.7504, 44892.64
409.2325, 44996.99
409.7146, 45087.59
410.1967, 45170.04
410.6789, 45266.73
411.1610, 45378.30
411.6431, 45502.07
412.1252, 45644.93
412.6073, 45798.29
413.0894, 45933.86
413.5716, 46038.11
414.0537, 46134.06
414.5358, 46245.43
415.0179, 46369.39
415.5000, 46501.45
415.9821, 46640.89
416.4643, 46783.14
416.9464, 46924.48
417.4285, 47063.41
417.9106, 47196.90
418.3927, 47319.66
418.8748, 47436.36
419.3570, 47550.64
419.8391, 47662.68
420.3212, 47774.61
420.8033, 47890.37
421.2854, 48008.60
421.7675, 48124.46
422.2497, 48243.45
422.7318, 48355.82
423.2139, 48453.33
423.6960, 48523.64
424.1781, 48606.18
424.6602, 48714.90
425.1424, 48836.42
425.6245, 48949.48
426.1066, 49040.96
426.5887, 49138.63
427.0709, 49246.29
427.5530, 49363.69
428.0351, 49491.61
428.5172, 49638.08
428.9993, 49784.91
429.4814, 49918.39
429.9636, 50034.49
430.4457, 50152.21
430.9278, 50276.85
431.4099, 50399.71
431.8920, 50494.43
432.3741, 50556.65
432.8563, 50630.25
433.3384, 50737.34
433.8205, 50874.66
434.3026, 51022.47
434.7847, 51183.85
435.2668, 51336.89
435.7490, 51453.07
436.2311, 51541.55
436.7132, 51629.95
437.1953, 51723.51
437.6774, 51823.54
438.1595, 51940.37
438.6417, 52069.12
439.1238, 52189.39
439.6059, 52280.80
440.0880, 52362.01
440.5701, 52453.20
441.0522, 52558.17
441.5344, 52666.26
442.0165, 52777.17
442.4986, 52885.59
442.9807, 52984.32
443.4628, 53063.77
443.9449, 53140.05
444.4271, 53221.49
444.9092, 53305.95
445.3913, 53382.41
445.8734, 53420.43
446.3555, 53468.61
446.8376, 53554.43
447.3198, 53709.79
447.8019, 53842.62
448.2840, 53933.86
448.7661, 54007.58
449.2482, 54097.98
449.7303, 54219.74
450.2125, 54332.23
450.6946, 54426.57
451.1767, 54504.28
451.6588, 54577.23
452.1409, 54641.38
452.6230, 54712.23
453.1052, 54807.34
453.5873, 54931.18
454.0694, 55026.59
454.5515, 55080.77
455.0337, 55121.66
455.5158, 55194.47
455.9979, 55298.05
456.4800, 55409.21
456.9621, 55526.04
457.4442, 55642.13
457.9264, 55738.88
458.4085, 55816.87
458.8906, 55898.07
459.3727, 56011.04
459.8548, 56136.32
460.3369, 56235.94
460.8191, 56291.15
461.3012, 56348.91
461.7833, 56455.33
462.2654, 56592.70
462.7475, 56723.23
463.2296, 56827.68
463.7118, 56924.77
464.1939, 57019.48
464.6760, 57112.52
465.1581, 57218.79
465.6402, 57360.02
466.1223, 57503.53
466.6045, 57624.26
467.0866, 57685.79
467.5687, 57762.79
468.0508, 57869.92
468.5329, 57993.72
469.0150, 58106.86
469.4972, 58204.71
469.9793, 58296.53
470.4614, 58381.99
470.9435, 58460.64
471.4256, 58550.50
471.9077, 58658.22
472.3899, 58765.98
472.8720, 58857.31
473.3541, 58932.73
473.8362, 59003.20
474.3183, 59068.35
474.8004, 59133.70
475.2826, 59210.32
475.7647, 59297.61
476.2468, 59388.79
476.7289, 59480.38
477.2110, 59573.13
477.6931, 59673.27
478.1753, 59780.81
478.6574, 59874.64
479.1395, 59920.92
479.6216, 59946.76
480.1037, 59993.69
480.5858, 60080.99
481.0680, 60176.52
481.5501, 60269.06
482.0322, 60354.31
482.5143, 60421.80
482.9964, 60442.30
483.4786, 60467.18
483.9607, 60528.48
484.4428, 60631.25
484.9249, 60720.90
485.4070, 60776.68
485.8892, 60822.12
486.3713, 60873.15
486.8534, 60918.86
487.3355, 60986.86
487.8176, 61089.85
488.2997, 61210.93
488.7819, 61315.55
489.2640, 61396.64
489.7461, 61476.71
490.2282, 61563.43
490.7103, 61656.27
491.1924, 61738.17
491.6746, 61806.07
492.1567, 61874.96
492.6388, 61959.47
493.1209, 62058.13
493.6030, 62152.60
494.0851, 62243.43
494.5673, 62323.45
495.0494, 62372.91
495.5315, 62399.99
496.0136, 62432.70
496.4957, 62492.25
496.9778, 62560.07
497.4600, 62620.11
497.9421, 62672.05
498.4242, 62714.70
498.9063, 62746.29
499.3884, 62769.74
499.8705, 62786.55
500.3527, 62792.94
500.8348, 62802.85
501.3169, 62822.13
501.7990, 62847.66
502.2811, 62875.41
502.7632, 62920.71
503.2454, 62951.42
503.7275, 62955.71
504.2096, 62936.55
504.6917, 62921.74
505.1738, 62909.58
505.6559, 62905.70
506.1381, 62916.43
506.6202, 62948.71
507.1023, 62967.93
507.5844, 62967.52
508.0665, 62967.36
508.5486, 62996.86
509.0308, 63056.78
509.5129, 63118.24
509.9950, 63175.29
510.4771, 63226.29
510.9592, 63268.10
511.4413, 63299.88
511.9235, 63324.92
512.4056, 63349.19
512.8877, 63364.98
513.3698, 63351.51
513.8519, 63303.99
514.3340, 63270.27
514.8162, 63312.80
515.2983, 63379.26
515.7804, 63406.02
516.2625, 63346.95
516.7446, 63281.27
517.2267, 63234.53
517.7089, 63206.16
518.1910, 63194.37
518.6731, 63226.59
519.1552, 63251.26
519.6373, 63245.91
520.1194, 63207.07
520.6016, 63178.39
521.0837, 63165.25
521.5658, 63155.49
522.0479, 63139.23
522.5300, 63112.48
523.0121, 63093.46
523.4943, 63088.20
523.9764, 63083.84
524.4585, 63052.92
524.9406, 62995.26
525.4227, 62941.44
525.9048, 62902.70
526.3870, 62875.73
526.8691, 62863.11
527.3513, 62862.41
527.8334, 62836.84
528.3155, 62734.88
528.7976, 62600.51
529.2797, 62498.83
529.7618, 62440.51
530.2440, 62394.41
530.7261, 62349.73
531.2082, 62300.56
531.6903, 62240.28
532.1724, 62138.19
532.6545, 62053.47
533.1367, 62019.29
533.6188, 62019.93
534.1009, 61997.85
534.5830, 61928.77
535.0651, 61851.10
535.5472, 61775.63
536.0294, 61700.99
536.5115, 61637.36
536.9936, 61592.24
537.4757, 61548.36
537.9578, 61488.96
538.4399, 61409.66
538.9221, 61341.43
539.4042, 61289.63
539.8863, 61244.95
540.3684, 61189.02
540.8505, 61122.84
541.3326, 61059.56
541.8148, 61009.33
542.2969, 60962.49
542.7790, 60896.42
543.2611, 60814.13
543.7432, 60736.96
544.2253, 60694.24
544.7075, 60656.26
545.1896, 60585.07
545.6717, 60467.67
546.1538, 60362.70
546.6359, 60308.17
547.1180, 60277.06
547.6002, 60241.29
548.0823, 60191.20
548.5644, 60139.39
549.0465, 60087.93
549.5286, 60035.80
550.0107, 59981.64
550.4929, 59933.36
550.9750, 59869.60
551.4571, 59778.20
551.9392, 59658.26
552.4213, 59550.00
552.9034, 59452.10
553.3856, 59367.00
553.8677, 59308.81
554.3498, 59273.08
554.8319, 59200.60
555.3140, 59079.00
555.7961, 58943.46
556.2783, 58839.22
556.7604, 58759.31
557.2425, 58685.80
557.7246, 58617.75
558.2067, 58548.04
558.6888, 58470.80
559.1710, 58387.20
559.6531, 58300.57
560.1352, 58209.86
560.6173, 58120.26
561.0994, 58037.34
561.5815, 57962.14
562.0637, 57884.84
562.5458, 57792.81
563.0279, 57704.99
563.5100, 57635.16
563.9921, 57605.21
564.4742, 57551.34
564.9564, 57460.73
565.4385, 57353.32
565.9206, 57262.95
566.4027, 57191.93
566.8848, 57127.15
567.3669, 57069.55
567.8491, 57013.06
568.3312, 56937.53
568.8133, 56843.93
569.2954, 56749.09
569.7775, 56673.49
570.2596, 56602.27
570.7418, 56507.42
571.2239, 56386.18
571.7060, 56258.96
572.1881, 56124.21
572.6702, 55999.91
573.1523, 55910.04
573.6345, 55895.04
574.1166, 55854.46
574.5987, 55728.27
575.0808, 55557.76
575.5629, 55408.94
576.0450, 55317.79
576.5272, 55224.47
577.0093, 55121.07
577.4914, 55008.18
577.9735, 54881.59
578.4556, 54729.62
578.9377, 54591.23
579.4199, 54490.70
579.9020, 54430.68
580.3841, 54355.16
580.8662, 54263.82
581.3483, 54163.88
581.8304, 54061.79
582.3126, 53958.07
582.7947, 53852.91
583.2768, 53745.32
583.7589, 53639.27
584.2410, 53529.19
584.7231, 53423.93
585.2053, 53341.30
585.6874, 53303.23
586.1696, 53274.61
586.6517, 53256.02
587.1338, 53235.52
587.6159, 53164.99
588.0980, 52968.32
588.5801, 52773.56
589.0623, 52642.86
589.5444, 52589.46
590.0265, 52510.93
590.5086, 52402.70
590.9907, 52276.04
591.4728, 52132.84
591.9550, 51969.16
592.4371, 51831.70
592.9192, 51732.01
593.4013, 51647.02
593.8834, 51547.89
594.3655, 51435.90
594.8477, 51312.62
595.3298, 51174.08
595.8119, 51033.63
596.2940, 50909.15
596.7761, 50799.00
597.2582, 50693.57
597.7404, 50582.89
598.2225, 50477.93
598.7046, 50391.27
599.1867, 50322.76
599.6688, 50242.79
600.1509, 50133.01
600.6331, 50013.25
601.1152, 49896.13
601.5973, 49780.94
602.0794, 49668.29
602.5615, 49563.13
603.0436, 49456.65
603.5258, 49339.35
604.0079, 49209.88
604.4900, 49083.12
604.9721, 48966.81
605.4542, 48850.74
605.9363, 48706.61
606.4185, 48540.20
606.9006, 48386.18
607.3827, 48268.81
607.8648, 48171.45
608.3469, 48079.21
608.8290, 47989.62
609.3112, 47893.58
609.7933, 47783.21
610.2754, 47664.42
610.7575, 47534.23
611.2396, 47391.28
611.7217, 47261.30
612.2039, 47166.51
612.6860, 47078.52
613.1681, 46973.38
613.6502, 46832.18
614.1323, 46706.84
614.6144, 46607.53
615.0966, 46516.44
615.5787, 46402.26
616.0608, 46261.46
616.5429, 46124.85
617.0250, 46000.73
617.5071, 45884.89
617.9893, 45775.59
618.4714, 45670.93
618.9535, 45558.05
619.4356, 45420.93
619.9177, 45275.23
620.3998, 45137.29
620.8820, 45007.78
621.3641, 44888.82
621.8462, 44789.18
622.3283, 44693.14
622.8104, 44588.68
623.2925, 44470.11
623.7747, 44355.73
624.2568, 44252.67
624.7389, 44151.55
625.2210, 44044.85
625.7031, 43930.01
626.1852, 43813.87
626.6674, 43699.62
627.1495, 43582.21
627.6316, 43447.34
628.1137, 43293.54
628.5958, 43160.99
629.0779, 43069.16
629.5601, 42996.88
630.0422, 42907.20
630.5243, 42801.94
631.0064, 42684.18
631.4885, 42539.88
631.9706, 42395.63
632.4528, 42283.71
632.9349, 42202.53
633.4170, 42111.10
633.8991, 41974.61
634.3812, 41835.87
634.8633, 41720.91
635.3455, 41642.95
635.8276, 41559.21
636.3097, 41464.88
636.7918, 41367.52
637.2739, 41273.08
637.7560, 41183.09
638.2382, 41090.13
638.7203, 40992.70
639.2024, 40893.38
639.6845, 40790.45
640.1666, 40684.95
640.6487, 40594.52
641.1309, 40529.40
641.6130, 40471.36
642.0951, 40403.82
642.5772, 40324.01
643.0594, 40227.61
643.5415, 40093.44
644.0236, 39957.68
644.5057, 39847.57
644.9879, 39759.53
645.4700, 39657.00
645.9521, 39515.16
646.4342, 39372.20
646.9163, 39247.93
647.3984, 39147.45
647.8806, 39028.80
648.3627, 38883.71
