##NAMES=Metazeunerite
##RRUFFID=R070314
##IDEAL CHEMISTRY=Cu^2+^(U^6+^O_2_)_2_(As^5+^O_4_)_2_&#183;8H_2_O
##LOCALITY=Mylar mine, Majuba Hill, Antelope District, Pershing County, Nevada, USA
##OWNER=RRUFF
##SOURCE=James Shigley
##DESCRIPTION=Green tabular crystals in quartz
##STATUS=The identification of this mineral has been confirmed by single-crystal X-ray diffraction.
##URL=rruff.info/R070314
173.0880, 5732.861
173.5701, 5760.719
174.0522, 5785.968
174.5344, 5806.215
175.0165, 5815.200
175.4986, 5802.796
175.9807, 5781.551
176.4628, 5789.031
176.9449, 5842.103
177.4271, 5893.706
177.9092, 5928.962
178.3913, 5951.305
178.8734, 5963.551
179.3555, 5964.175
179.8376, 5958.457
180.3197, 5961.927
180.8019, 5976.713
181.2840, 5997.976
181.7661, 6026.831
182.2482, 6059.234
182.7303, 6090.880
183.2124, 6120.652
183.6946, 6146.863
184.1767, 6164.182
184.6588, 6168.948
185.1409, 6170.271
185.6230, 6171.893
186.1051, 6171.712
186.5873, 6165.727
187.0694, 6150.802
187.5515, 6132.640
188.0336, 6127.126
188.5157, 6142.756
188.9978, 6157.038
189.4800, 6166.211
189.9621, 6171.276
190.4442, 6174.289
190.9263, 6176.440
191.4084, 6174.808
191.8905, 6158.990
192.3727, 6108.220
192.8548, 6081.699
193.3369, 6101.751
193.8190, 6140.478
194.3011, 6172.828
194.7832, 6188.935
195.2654, 6193.143
195.7475, 6194.395
196.2296, 6192.816
196.7117, 6187.533
197.1938, 6166.672
197.6759, 6148.838
198.1581, 6154.801
198.6402, 6190.857
199.1223, 6239.077
199.6044, 6266.213
200.0865, 6264.501
200.5686, 6255.301
201.0508, 6231.569
201.5329, 6208.034
202.0150, 6197.075
202.4971, 6201.747
202.9792, 6215.066
203.4613, 6228.490
203.9435, 6250.620
204.4256, 6251.824
204.9077, 6207.229
205.3898, 6160.867
205.8719, 6146.564
206.3540, 6169.098
206.8362, 6204.625
207.3183, 6218.565
207.8004, 6195.983
208.2825, 6189.949
208.7646, 6217.627
209.2467, 6246.863
209.7289, 6260.177
210.2110, 6255.053
210.6931, 6238.590
211.1752, 6215.070
211.6573, 6176.858
212.1395, 6161.131
212.6216, 6189.740
213.1037, 6220.567
213.5858, 6232.134
214.0679, 6225.211
214.5500, 6214.168
215.0322, 6213.352
215.5143, 6224.676
215.9964, 6233.623
216.4785, 6234.312
216.9606, 6238.124
217.4427, 6252.341
217.9249, 6274.105
218.4070, 6294.784
218.8891, 6306.748
219.3712, 6309.695
219.8533, 6314.783
220.3354, 6328.376
220.8176, 6337.883
221.2997, 6335.359
221.7818, 6326.070
222.2639, 6321.378
222.7460, 6330.545
223.2281, 6351.525
223.7103, 6361.485
224.1924, 6350.057
224.6745, 6337.974
225.1566, 6330.959
225.6387, 6325.738
226.1208, 6315.181
226.6030, 6293.901
227.0851, 6267.276
227.5672, 6259.405
228.0493, 6296.049
228.5314, 6316.562
229.0135, 6296.287
229.4957, 6260.734
229.9778, 6240.736
230.4599, 6250.594
230.9420, 6277.478
231.4241, 6289.183
231.9062, 6274.352
232.3884, 6263.175
232.8705, 6256.971
233.3526, 6256.808
233.8347, 6268.597
234.3168, 6293.383
234.7989, 6317.494
235.2811, 6312.181
235.7632, 6253.305
236.2453, 6223.188
236.7274, 6248.786
237.2095, 6287.424
237.6916, 6312.849
238.1738, 6319.341
238.6559, 6315.920
239.1380, 6313.857
239.6201, 6315.124
240.1022, 6310.167
240.5843, 6286.270
241.0665, 6266.213
241.5486, 6262.752
242.0307, 6275.108
242.5128, 6293.176
242.9949, 6310.404
243.4770, 6327.756
243.9592, 6332.274
244.4413, 6304.820
244.9234, 6282.306
245.4055, 6281.946
245.8876, 6298.356
246.3697, 6315.814
246.8519, 6323.453
247.3340, 6322.196
247.8161, 6320.051
248.2982, 6317.336
248.7803, 6313.092
249.2624, 6302.425
249.7446, 6290.843
250.2267, 6289.368
250.7088, 6308.673
251.1909, 6336.654
251.6730, 6333.804
252.1551, 6277.734
252.6373, 6236.618
253.1194, 6239.988
253.6015, 6264.575
254.0836, 6288.033
254.5657, 6303.455
255.0478, 6310.562
255.5300, 6305.897
256.0121, 6285.002
256.4942, 6269.383
256.9763, 6265.974
257.4584, 6269.917
257.9406, 6282.454
258.4227, 6304.376
258.9048, 6321.589
259.3869, 6314.931
259.8690, 6283.043
260.3511, 6258.203
260.8333, 6245.571
261.3154, 6243.412
261.7975, 6254.358
262.2796, 6277.152
262.7617, 6297.432
263.2438, 6301.951
263.7260, 6293.865
264.2081, 6292.312
264.6902, 6303.193
265.1723, 6314.754
265.6544, 6319.863
266.1365, 6319.065
266.6187, 6313.437
267.1008, 6298.428
267.5829, 6279.837
268.0650, 6272.190
268.5471, 6279.685
269.0292, 6285.513
269.5114, 6273.619
269.9935, 6252.467
270.4756, 6236.167
270.9577, 6230.434
271.4398, 6229.319
271.9219, 6227.616
272.4041, 6225.385
272.8862, 6219.240
273.3683, 6201.418
273.8504, 6181.813
274.3325, 6179.928
274.8146, 6206.738
275.2968, 6232.984
275.7789, 6236.451
276.2610, 6222.033
276.7431, 6210.609
277.2252, 6211.587
277.7073, 6215.865
278.1895, 6206.388
278.6716, 6179.945
279.1537, 6157.804
279.6358, 6146.980
280.1179, 6145.618
280.6000, 6153.969
281.0822, 6173.817
281.5643, 6192.696
282.0464, 6193.301
282.5285, 6173.779
283.0106, 6159.776
283.4927, 6155.545
283.9749, 6157.153
284.4570, 6162.173
284.9391, 6170.064
285.4212, 6179.849
285.9033, 6192.631
286.3854, 6207.700
286.8676, 6210.422
287.3497, 6190.454
287.8318, 6169.388
288.3139, 6157.492
288.7960, 6152.959
289.2781, 6150.173
289.7603, 6146.232
290.2424, 6141.320
290.7245, 6136.261
291.2066, 6130.869
291.6887, 6125.569
292.1708, 6118.710
292.6530, 6112.587
293.1351, 6110.718
293.6172, 6114.265
294.0993, 6120.605
294.5814, 6126.001
295.0635, 6138.362
295.5457, 6132.902
296.0278, 6090.211
296.5099, 6045.096
296.9920, 6024.461
297.4741, 6029.509
297.9562, 6042.331
298.4384, 6044.319
298.9205, 6033.380
299.4026, 6026.099
299.8847, 6011.253
300.3668, 6011.000
300.8489, 6050.558
301.3311, 6110.757
301.8131, 6150.218
302.2953, 6138.532
302.7774, 6087.694
303.2595, 6059.252
303.7416, 6064.859
304.2237, 6077.633
304.7058, 6099.206
305.1880, 6121.079
305.6701, 6132.834
306.1522, 6130.348
306.6343, 6122.047
307.1164, 6123.394
307.5985, 6138.939
308.0807, 6147.089
308.5628, 6126.799
309.0449, 6110.132
309.5270, 6122.582
310.0091, 6164.041
310.4912, 6205.802
310.9734, 6221.067
311.4555, 6212.339
311.9376, 6206.524
312.4197, 6205.959
312.9018, 6207.887
313.3839, 6209.234
313.8661, 6211.242
314.3482, 6217.134
314.8303, 6223.729
315.3124, 6237.110
315.7945, 6277.029
316.2766, 6350.840
316.7588, 6407.342
317.2409, 6406.292
317.7230, 6373.409
318.2051, 6351.122
318.6872, 6347.291
319.1693, 6349.619
319.6515, 6348.931
320.1336, 6346.589
320.6157, 6350.773
321.0978, 6368.580
321.5799, 6387.170
322.0620, 6383.198
322.5442, 6353.945
323.0263, 6326.600
323.5084, 6311.938
323.9905, 6302.036
324.4726, 6285.660
324.9547, 6260.887
325.4369, 6235.062
325.9190, 6214.690
326.4011, 6200.383
326.8832, 6189.267
327.3653, 6185.812
327.8474, 6181.288
328.3296, 6165.528
328.8117, 6143.771
329.2938, 6133.779
329.7759, 6147.960
330.2580, 6178.359
330.7401, 6188.410
331.2223, 6165.580
331.7044, 6137.712
332.1865, 6102.117
332.6686, 6065.291
333.1507, 6033.223
333.6328, 6008.020
334.1150, 5989.043
334.5971, 5975.517
335.0792, 5968.451
335.5613, 5964.627
336.0434, 5964.928
336.5255, 5967.255
337.0077, 5972.991
337.4898, 5980.244
337.9719, 5983.617
338.4540, 5976.685
338.9361, 5961.703
339.4182, 5959.916
339.9004, 5981.398
340.3825, 6001.625
340.8646, 6017.857
341.3467, 6027.385
341.8288, 6024.857
342.3109, 6006.728
342.7931, 5983.410
343.2752, 5970.764
343.7573, 5970.183
344.2394, 5970.118
344.7215, 5964.229
345.2036, 5961.163
345.6858, 5972.845
346.1679, 5998.988
346.6500, 6016.314
347.1321, 5998.555
347.6142, 5960.929
348.0963, 5949.580
348.5785, 5976.441
349.0606, 6006.327
349.5427, 6005.984
350.0248, 5985.749
350.5069, 5976.276
350.9890, 5993.534
351.4712, 6015.042
351.9533, 6021.887
352.4354, 6016.258
352.9175, 6010.048
353.3996, 6008.878
353.8817, 6010.534
354.3639, 6008.844
354.8460, 6001.545
355.3281, 5996.369
355.8102, 5996.402
356.2923, 5998.841
356.7744, 6000.647
357.2566, 6001.124
357.7387, 6000.661
358.2208, 5999.128
358.7029, 5995.402
359.1850, 5997.507
359.6671, 6013.646
360.1493, 6026.626
360.6314, 6026.443
361.1135, 6017.134
361.5956, 6007.583
362.0777, 6002.664
362.5598, 6002.478
363.0420, 6007.839
363.5241, 6024.137
364.0062, 6037.380
364.4883, 6048.418
364.9704, 6054.616
365.4525, 6051.889
365.9347, 6040.153
366.4168, 6025.910
366.8989, 6015.678
367.3810, 6009.414
367.8631, 6006.263
368.3452, 6002.843
368.8274, 6007.327
369.3095, 6028.497
369.7916, 6060.104
370.2737, 6087.192
370.7558, 6101.843
371.2379, 6108.783
371.7201, 6116.723
372.2022, 6126.408
372.6843, 6129.025
373.1664, 6112.494
373.6485, 6092.030
374.1306, 6091.981
374.6128, 6118.735
375.0949, 6145.448
375.5770, 6162.212
376.0591, 6168.350
376.5412, 6157.361
377.0233, 6125.655
377.5055, 6094.694
377.9876, 6088.915
378.4697, 6111.721
378.9518, 6123.533
379.4339, 6115.003
379.9160, 6103.360
380.3982, 6094.392
380.8803, 6090.462
381.3624, 6098.879
381.8445, 6125.413
382.3266, 6160.524
382.8087, 6175.275
383.2909, 6144.852
383.7730, 6125.642
384.2551, 6127.074
384.7372, 6134.700
385.2193, 6137.147
385.7014, 6132.473
386.1836, 6125.153
386.6657, 6119.011
387.1478, 6113.894
387.6299, 6113.309
388.1120, 6118.430
388.5941, 6127.262
389.0763, 6142.693
389.5584, 6160.411
390.0405, 6173.369
390.5226, 6178.037
391.0047, 6178.640
391.4868, 6181.613
391.9690, 6187.117
392.4511, 6193.444
392.9332, 6200.973
393.4153, 6208.400
393.8974, 6214.968
394.3795, 6220.654
394.8617, 6224.275
395.3438, 6225.761
395.8259, 6224.656
396.3080, 6217.287
396.7901, 6202.706
397.2722, 6194.382
397.7544, 6206.950
398.2365, 6233.816
398.7186, 6240.829
399.2007, 6208.236
399.6828, 6178.344
400.1649, 6168.100
400.6471, 6171.174
401.1292, 6178.455
401.6113, 6187.023
402.0934, 6195.314
402.5755, 6201.364
403.0576, 6205.781
403.5398, 6205.410
404.0219, 6196.846
404.5040, 6187.349
404.9861, 6178.175
405.4682, 6171.151
405.9503, 6171.251
406.4325, 6183.372
406.9146, 6200.953
407.3967, 6198.404
407.8788, 6161.909
408.3609, 6133.672
408.8430, 6125.214
409.3252, 6125.090
409.8073, 6124.857
410.2894, 6123.155
410.7715, 6123.474
411.2536, 6131.447
411.7357, 6144.841
412.2179, 6151.434
412.7000, 6148.827
413.1821, 6143.225
413.6642, 6135.248
414.1463, 6127.547
414.6284, 6126.927
415.1106, 6142.683
415.5927, 6155.998
416.0748, 6147.854
416.5569, 6125.389
417.0390, 6111.363
417.5211, 6114.255
418.0033, 6125.693
418.4854, 6133.180
418.9675, 6134.231
419.4496, 6140.095
419.9317, 6158.516
420.4138, 6175.757
420.8960, 6183.457
421.3781, 6181.748
421.8602, 6172.042
422.3423, 6153.657
422.8244, 6131.395
423.3065, 6126.942
423.7887, 6158.714
424.2708, 6179.696
424.7529, 6176.009
425.2350, 6166.684
425.7171, 6168.890
426.1992, 6184.080
426.6814, 6199.158
427.1635, 6196.309
427.6456, 6178.342
428.1277, 6182.396
428.6098, 6222.411
429.0919, 6257.617
429.5741, 6262.387
430.0562, 6250.474
430.5383, 6241.253
431.0204, 6239.888
431.5025, 6240.745
431.9846, 6233.822
432.4668, 6224.325
432.9489, 6236.305
433.4310, 6282.035
433.9131, 6329.578
434.3952, 6337.249
434.8773, 6299.900
435.3595, 6275.318
435.8416, 6267.364
436.3237, 6272.272
436.8058, 6296.648
437.2879, 6332.070
437.7701, 6358.069
438.2522, 6363.562
438.7343, 6357.142
439.2164, 6361.060
439.6985, 6385.635
440.1806, 6402.099
440.6628, 6403.733
441.1449, 6403.289
441.6270, 6408.640
442.1091, 6419.786
442.5912, 6433.086
443.0733, 6447.706
443.5555, 6461.557
444.0376, 6464.182
444.5197, 6449.518
445.0018, 6440.646
445.4839, 6450.958
445.9660, 6469.236
446.4482, 6484.897
446.9303, 6496.162
447.4124, 6508.307
447.8945, 6529.092
448.3766, 6552.166
448.8587, 6560.616
449.3409, 6551.065
449.8230, 6544.198
450.3051, 6559.640
450.7872, 6593.821
451.2693, 6610.299
451.7514, 6595.130
452.2336, 6579.967
452.7157, 6570.456
453.1978, 6568.867
453.6799, 6580.483
454.1620, 6606.064
454.6441, 6637.492
455.1263, 6665.513
455.6084, 6691.152
456.0905, 6707.405
456.5726, 6704.605
457.0547, 6701.795
457.5368, 6699.508
458.0190, 6702.258
458.5011, 6719.595
458.9832, 6758.245
459.4653, 6799.830
459.9474, 6814.554
460.4295, 6801.869
460.9117, 6795.760
461.3938, 6802.766
461.8759, 6818.258
462.3580, 6842.513
462.8401, 6873.104
463.3222, 6896.671
463.8044, 6907.816
464.2865, 6911.947
464.7686, 6908.558
465.2507, 6901.059
465.7328, 6903.891
466.2149, 6924.997
466.6971, 6953.641
467.1792, 6968.061
467.6613, 6956.430
468.1434, 6955.495
468.6255, 6990.334
469.1076, 7014.065
469.5898, 6981.831
470.0719, 6911.385
470.5540, 6860.233
471.0361, 6868.482
471.5182, 6909.498
472.0003, 6900.377
472.4825, 6818.364
472.9646, 6748.440
473.4467, 6716.107
473.9288, 6696.781
474.4109, 6679.669
474.8930, 6662.685
475.3752, 6640.674
475.8573, 6605.242
476.3394, 6565.108
476.8215, 6536.298
477.3036, 6519.321
477.7857, 6501.546
478.2679, 6472.675
478.7500, 6442.384
479.2321, 6438.434
479.7142, 6478.319
480.1963, 6497.276
480.6784, 6469.688
481.1606, 6424.872
481.6427, 6385.082
482.1248, 6354.099
482.6069, 6330.532
483.0890, 6313.711
483.5711, 6302.747
484.0533, 6292.471
484.5354, 6283.579
485.0175, 6274.194
485.4996, 6261.441
485.9817, 6249.940
486.4638, 6243.790
486.9460, 6243.163
487.4281, 6244.917
487.9102, 6247.234
488.3923, 6250.011
488.8744, 6254.970
489.3565, 6263.833
489.8387, 6263.854
490.3208, 6239.975
490.8029, 6207.731
491.2850, 6201.055
491.7671, 6231.062
492.2492, 6254.013
492.7314, 6255.801
493.2135, 6242.413
493.6956, 6214.769
494.1777, 6176.164
494.6598, 6139.460
495.1419, 6113.446
495.6241, 6098.511
496.1062, 6097.422
496.5883, 6131.571
497.0704, 6149.219
497.5525, 6135.026
498.0346, 6110.297
498.5168, 6090.409
498.9989, 6078.216
499.4810, 6070.668
499.9631, 6067.289
500.4452, 6066.458
500.9273, 6059.349
501.4095, 6042.064
501.8916, 6035.792
502.3737, 6058.826
502.8558, 6093.064
503.3379, 6108.856
503.8200, 6101.454
504.3022, 6093.338
504.7843, 6092.387
505.2664, 6095.418
505.7485, 6102.556
506.2306, 6111.774
506.7127, 6111.739
507.1949, 6092.942
507.6770, 6061.580
508.1591, 6045.037
508.6412, 6054.642
509.1233, 6063.137
509.6054, 6073.057
510.0876, 6078.370
510.5697, 6070.792
511.0518, 6053.029
511.5339, 6037.819
512.0161, 6034.133
512.4982, 6039.664
512.9803, 6051.087
513.4624, 6070.615
513.9445, 6081.485
514.4266, 6072.349
514.9088, 6056.300
515.3909, 6051.877
515.8730, 6060.247
516.3551, 6064.654
516.8372, 6060.891
517.3193, 6050.367
517.8015, 6026.825
518.2836, 5995.997
518.7657, 5979.379
519.2478, 5989.493
519.7299, 6015.928
520.2120, 6034.597
520.6942, 6046.633
521.1763, 6048.095
521.6584, 6029.930
522.1405, 6011.001
522.6226, 5997.625
523.1047, 5991.938
523.5869, 5998.279
524.0690, 6022.730
524.5511, 6051.784
525.0332, 6062.833
525.5153, 6055.968
525.9974, 6044.099
526.4796, 6025.763
526.9617, 6010.697
527.4438, 6016.684
527.9259, 6040.162
528.4080, 6045.876
528.8901, 6012.445
529.3723, 5976.191
529.8544, 5953.115
530.3365, 5943.721
530.8186, 5951.083
531.3007, 5975.751
531.7828, 6006.666
532.2650, 6030.412
532.7471, 6048.538
533.2292, 6049.936
533.7113, 6016.969
534.1934, 5987.029
534.6755, 5967.844
535.1577, 5959.743
535.6398, 5966.507
536.1219, 5991.091
536.6040, 6012.761
537.0861, 6005.357
537.5682, 5979.267
538.0504, 5970.435
538.5325, 5984.969
539.0146, 6002.192
539.4967, 6008.515
539.9788, 6005.347
540.4609, 6000.170
540.9431, 5993.353
541.4252, 5984.235
541.9073, 5965.900
542.3894, 5949.571
542.8715, 5948.733
543.3536, 5962.439
543.8358, 5977.688
544.3179, 5984.290
544.8000, 5983.923
545.2821, 5983.942
545.7642, 5984.996
546.2463, 5984.601
546.7285, 5978.592
547.2106, 5973.619
547.6927, 5976.986
548.1748, 5987.869
548.6569, 5995.140
549.1390, 5992.991
549.6211, 5985.456
550.1032, 5973.208
550.5853, 5958.543
551.0674, 5951.880
551.5496, 5958.155
552.0317, 5970.059
552.5138, 5976.160
552.9959, 5975.980
553.4780, 5971.285
553.9601, 5961.360
554.4423, 5948.367
554.9244, 5921.605
555.4065, 5895.907
555.8886, 5898.953
556.3707, 5941.739
556.8528, 5991.042
557.3350, 6003.795
557.8171, 5984.716
558.2992, 5972.254
558.7813, 5970.745
559.2634, 5973.111
559.7455, 5974.253
560.2277, 5976.044
560.7098, 5984.543
561.1919, 6009.289
561.6740, 6024.155
562.1561, 6016.368
562.6382, 5997.474
563.1204, 5975.127
563.6025, 5953.036
564.0846, 5938.322
564.5667, 5936.589
565.0488, 5945.307
565.5309, 5954.344
566.0131, 5962.519
566.4952, 5974.000
566.9773, 5995.191
567.4594, 6015.363
567.9415, 6027.593
568.4236, 6032.563
568.9058, 6035.010
569.3879, 6036.743
569.8700, 6036.996
570.3521, 6033.525
570.8342, 6027.749
571.3163, 6026.802
571.7985, 6033.746
572.2806, 6036.331
572.7627, 6016.357
573.2448, 5968.628
573.7269, 5947.454
574.2090, 5974.184
574.6912, 6000.318
575.1733, 6016.945
575.6554, 6025.064
576.1375, 6024.891
576.6196, 6017.143
577.1017, 6006.961
577.5839, 5996.985
578.0660, 5988.316
578.5481, 5986.844
579.0302, 5993.960
579.5123, 5995.386
579.9944, 5978.953
580.4766, 5958.043
580.9587, 5964.375
581.4408, 6009.370
581.9229, 6029.976
582.4050, 5993.238
582.8871, 5951.443
583.3693, 5935.497
583.8514, 5942.719
584.3335, 5964.780
584.8156, 5998.062
585.2977, 6031.172
585.7798, 6045.989
586.2620, 6041.498
586.7441, 6027.847
587.2262, 5995.019
587.7083, 5970.258
588.1904, 5978.858
588.6725, 6003.053
589.1547, 6013.250
589.6368, 6000.835
590.1189, 5986.900
590.6010, 5978.972
591.0831, 5976.640
591.5652, 5981.426
592.0474, 5992.095
592.5295, 6003.608
593.0116, 6013.227
593.4937, 6019.469
593.9758, 6016.068
594.4579, 5994.093
594.9401, 5983.781
595.4222, 6000.501
595.9043, 6017.833
596.3864, 6021.073
596.8685, 6014.435
597.3506, 6010.546
597.8328, 6016.605
598.3149, 6021.852
598.7970, 6011.534
599.2791, 5993.230
599.7612, 5988.545
600.2433, 6001.667
600.7255, 6017.728
601.2076, 6024.634
601.6897, 6023.223
602.1718, 6020.103
602.6539, 6000.858
603.1360, 6000.458
603.6182, 6049.287
604.1003, 6095.720
604.5824, 6093.517
605.0645, 6050.107
605.5466, 6010.214
606.0287, 6000.006
606.5109, 6006.284
606.9930, 6014.098
607.4751, 6022.202
607.9572, 6017.539
608.4393, 5993.164
608.9214, 5969.829
609.4036, 5969.483
609.8857, 5992.290
610.3678, 6011.464
610.8499, 6026.020
611.3320, 6038.507
611.8141, 6051.709
612.2963, 6061.770
612.7784, 6061.868
613.2605, 6053.356
613.7426, 6047.400
614.2247, 6056.401
614.7068, 6070.646
615.1890, 6059.723
615.6711, 6021.782
616.1532, 6003.090
616.6353, 6025.104
617.1174, 6056.509
617.5995, 6061.338
618.0817, 6038.919
618.5638, 6019.804
619.0459, 5997.017
619.5280, 5987.093
620.0101, 6010.231
620.4922, 6043.011
620.9744, 6054.564
621.4565, 6040.469
621.9386, 6020.158
622.4207, 6009.938
622.9028, 6007.960
623.3849, 6007.917
623.8671, 6010.239
624.3492, 6011.728
624.8313, 6010.049
625.3134, 6008.699
625.7955, 6013.739
626.2776, 6024.723
626.7598, 6030.617
627.2419, 6028.846
627.7240, 6022.784
628.2061, 6006.375
628.6882, 5989.869
629.1703, 5991.862
629.6525, 6014.337
630.1346, 6038.302
630.6167, 6045.466
631.0988, 6038.048
631.5809, 6025.363
632.0630, 6002.365
632.5452, 5995.545
633.0273, 6030.356
633.5094, 6067.819
633.9915, 6053.998
634.4736, 5992.548
634.9557, 5958.743
635.4379, 5991.446
635.9200, 6030.412
636.4021, 6043.591
636.8842, 6040.243
637.3663, 6034.248
637.8484, 6029.911
638.3306, 6026.988
638.8127, 6023.927
639.2948, 6022.305
639.7769, 6035.648
640.2590, 6072.291
640.7411, 6094.084
641.2233, 6084.916
641.7054, 6061.065
642.1875, 6031.739
642.6696, 5998.675
643.1517, 5987.361
643.6339, 6023.544
644.1160, 6060.853
644.5981, 6073.457
645.0802, 6070.887
645.5623, 6066.790
646.0444, 6064.795
646.5266, 6062.575
647.0087, 6056.934
647.4908, 6049.871
647.9729, 6052.824
648.4550, 6069.603
648.9371, 6080.686
649.4193, 6077.462
649.9014, 6070.768
650.3835, 6071.115
650.8656, 6077.571
651.3477, 6083.830
651.8298, 6096.533
652.3120, 6100.121
652.7941, 6072.850
653.2762, 6039.150
653.7583, 6038.021
654.2404, 6070.731
654.7225, 6101.370
655.2047, 6099.513
655.6868, 6075.413
656.1689, 6061.156
656.6510, 6056.689
657.1331, 6063.781
657.6152, 6089.426
658.0974, 6117.188
658.5795, 6134.012
659.0616, 6140.705
659.5437, 6139.074
660.0258, 6124.888
660.5079, 6107.907
660.9901, 6083.759
661.4722, 6063.347
661.9543, 6065.842
662.4364, 6085.838
662.9185, 6092.381
663.4006, 6060.629
663.8828, 6015.261
664.3649, 6016.865
664.8470, 6067.482
665.3291, 6095.628
665.8112, 6083.179
666.2933, 6064.106
666.7755, 6064.650
667.2576, 6079.390
667.7397, 6083.505
668.2218, 6063.380
668.7039, 6054.773
669.1860, 6079.986
669.6682, 6106.565
