##NAMES=Metauranocircite-I
##RRUFFID=R050575
##IDEAL CHEMISTRY=Ba(U^6+^O_2_)_2_(PO_4_)_2_&#183;8H_2_O
##LOCALITY=Voightland, Saxony, Germany
##OWNER=RRUFF
##SOURCE=University of Arizona Mineral Museum
##DESCRIPTION=Yellow platy crystals with minor intergrown quartz
##STATUS=The identification of this mineral is confirmed by single-crystal X-ray diffraction and chemical analysis.
##URL=rruff.info/R050575
##MEASURED CHEMISTRY=(Ba_0.98_Ca_0.02_)_Σ=1_(U_1.00_O_2_)_2_(P_1.00_O_4_)_2_·6.13H_2_O
92.96582, 384.3387
93.44794, 388.8304
93.93005, 390.3710
94.41217, 380.8098
94.89429, 371.2084
95.37640, 364.9000
95.85852, 360.3686
96.34064, 354.9071
96.82275, 347.5341
97.30487, 338.1077
97.78699, 326.7876
98.26910, 311.3875
98.75122, 296.8631
99.23334, 286.7774
99.71545, 280.7885
100.1976, 274.3535
100.6797, 265.3714
101.1618, 254.9000
101.6439, 244.2708
102.1260, 232.6945
102.6081, 221.2817
103.0903, 212.6252
103.5724, 207.3682
104.0545, 203.6337
104.5366, 200.7465
105.0187, 198.3533
105.5008, 195.7502
105.9830, 192.1194
106.4651, 187.3011
106.9472, 183.7815
107.4293, 183.3371
107.9114, 182.6423
108.3935, 180.2977
108.8757, 176.3560
109.3578, 171.8559
109.8399, 168.0544
110.3220, 165.1194
110.8041, 162.6345
111.2862, 160.8159
111.7684, 159.2391
112.2505, 157.5842
112.7326, 155.7404
113.2147, 153.8318
113.6968, 152.1320
114.1789, 150.7388
114.6611, 149.3594
115.1432, 147.7281
115.6253, 146.0773
116.1074, 144.9485
116.5895, 144.7729
117.0716, 145.0803
117.5538, 144.7456
118.0359, 143.5208
118.5180, 142.1205
119.0001, 140.9741
119.4822, 140.0828
119.9643, 139.4208
120.4465, 139.1081
120.9286, 138.9888
121.4107, 138.9301
121.8928, 138.9379
122.3749, 138.9451
122.8570, 138.8385
123.3392, 138.6509
123.8213, 138.2557
124.3034, 137.5368
124.7855, 136.6445
125.2676, 135.7570
125.7497, 134.9753
126.2319, 134.2975
126.7140, 133.7213
127.1961, 133.4553
127.6782, 133.0997
128.1603, 132.3922
128.6424, 131.4818
129.1246, 130.7678
129.6067, 130.6853
130.0888, 131.4908
130.5709, 131.5426
131.0530, 130.4798
131.5351, 129.1313
132.0173, 127.8643
132.4994, 126.7641
132.9815, 125.8450
133.4636, 125.1488
133.9457, 124.7540
134.4278, 124.3399
134.9100, 123.7694
135.3921, 123.2145
135.8742, 122.9130
136.3563, 122.9579
136.8384, 123.1590
137.3205, 123.2217
137.8027, 123.1373
138.2848, 123.0897
138.7669, 123.2315
139.2490, 123.4965
139.7311, 123.6183
140.2132, 123.4791
140.6954, 123.1891
141.1775, 122.8556
141.6596, 122.4739
142.1417, 122.1228
142.6238, 121.8887
143.1059, 121.7856
143.5881, 121.7033
144.0702, 121.6315
144.5523, 121.5612
145.0344, 121.4806
145.5165, 121.3861
145.9986, 121.2953
146.4807, 121.2437
146.9629, 121.2584
147.4450, 121.2643
147.9271, 121.1796
148.4092, 121.1082
148.8913, 121.1869
149.3734, 121.4869
149.8556, 121.9215
150.3377, 122.1443
150.8198, 121.7925
151.3019, 121.5996
151.7840, 121.6861
152.2661, 121.9830
152.7483, 122.4118
153.2304, 122.9499
153.7125, 123.5726
154.1946, 123.8542
154.6767, 123.5038
155.1588, 123.1900
155.6410, 123.2090
156.1231, 123.5058
156.6052, 123.8355
157.0873, 124.0229
157.5694, 124.0676
158.0515, 124.1249
158.5337, 124.2027
159.0158, 124.2871
159.4979, 124.3162
159.9800, 124.2808
160.4621, 124.3634
160.9442, 124.8037
161.4264, 125.4984
161.9085, 126.1435
162.3906, 126.7362
162.8727, 127.2201
163.3548, 127.4561
163.8369, 127.3338
164.3191, 127.2118
164.8012, 127.3930
165.2833, 127.7643
165.7654, 128.0833
166.2475, 128.1794
166.7296, 128.0964
167.2118, 128.0885
167.6939, 128.2112
168.1760, 128.3514
168.6581, 128.4172
169.1402, 128.4471
169.6223, 128.5458
170.1045, 128.8253
170.5866, 129.3064
171.0687, 129.7352
171.5508, 130.1516
172.0329, 130.4768
172.5150, 130.6124
172.9972, 130.6011
173.4793, 130.5896
173.9614, 130.7294
174.4435, 131.0358
174.9256, 131.4583
175.4077, 132.1933
175.8899, 132.8737
176.3720, 133.2225
176.8541, 133.2398
177.3362, 133.1753
177.8183, 133.3577
178.3004, 133.9234
178.7826, 134.4483
179.2647, 134.9928
179.7468, 135.4676
180.2289, 135.7601
180.7110, 135.8472
181.1931, 135.8695
181.6752, 136.0557
182.1574, 136.4912
182.6395, 136.8377
183.1216, 136.9393
183.6037, 136.9698
184.0858, 137.1763
184.5679, 137.6500
185.0501, 138.2459
185.5322, 138.7326
186.0143, 139.1062
186.4964, 139.4766
186.9785, 139.9799
187.4606, 140.5117
187.9428, 140.7778
188.4249, 140.5904
188.9070, 140.2547
189.3891, 140.1629
189.8712, 140.3231
190.3533, 140.5280
190.8355, 140.6949
191.3176, 140.8163
191.7997, 140.7921
192.2818, 140.3114
192.7639, 139.9499
193.2460, 140.2227
193.7282, 141.1678
194.2103, 142.3265
194.6924, 143.4852
195.1745, 144.7230
195.6566, 145.2750
196.1387, 144.2875
196.6209, 142.9782
197.1030, 141.9503
197.5851, 141.3098
198.0672, 140.8774
198.5493, 140.4131
199.0314, 139.8512
199.5136, 139.4822
199.9957, 139.4548
200.4778, 139.5333
200.9599, 139.6387
201.4420, 139.7303
201.9241, 139.7244
202.4063, 139.4619
202.8884, 138.7532
203.3705, 138.1455
203.8526, 137.8706
204.3347, 137.5627
204.8168, 136.9299
205.2990, 135.8935
205.7811, 134.5891
206.2632, 133.2463
206.7453, 131.6077
207.2274, 130.3436
207.7095, 129.6964
208.1917, 129.2692
208.6738, 128.7242
209.1559, 127.9421
209.6380, 126.9938
210.1201, 126.0162
210.6022, 124.9293
211.0844, 123.9343
211.5665, 123.0011
212.0486, 122.1788
212.5307, 121.5982
213.0128, 121.3170
213.4949, 121.1341
213.9771, 120.5857
214.4592, 119.4228
214.9413, 118.4832
215.4234, 118.0013
215.9055, 117.8178
216.3876, 117.7294
216.8698, 117.7021
217.3519, 117.6430
217.8340, 117.3145
218.3161, 116.6529
218.7982, 116.0737
219.2803, 115.7853
219.7625, 115.6779
220.2446, 115.4809
220.7267, 115.0669
221.2088, 114.6132
221.6909, 114.4347
222.1730, 114.5767
222.6552, 114.6006
223.1373, 114.1045
223.6194, 113.2737
224.1015, 112.7948
224.5836, 112.9718
225.0657, 113.4163
225.5479, 113.6815
226.0300, 113.7655
226.5121, 113.7986
226.9942, 113.8994
227.4763, 114.0421
227.9584, 114.0437
228.4406, 113.8274
228.9227, 113.4819
229.4048, 113.0277
229.8869, 112.4803
230.3690, 112.0201
230.8511, 111.8435
231.3333, 111.9432
231.8154, 111.9709
232.2975, 111.8617
232.7796, 111.6805
233.2617, 111.4006
233.7438, 111.0530
234.2260, 110.7902
234.7081, 110.7719
235.1902, 111.0130
235.6723, 111.2709
236.1544, 111.5982
236.6365, 111.8822
237.1187, 112.0851
237.6008, 112.1996
238.0829, 112.2207
238.5650, 112.0962
239.0471, 111.7875
239.5292, 111.6187
240.0114, 111.8548
240.4935, 112.0092
240.9756, 111.8115
241.4577, 111.3299
241.9398, 110.8497
242.4219, 110.6460
242.9041, 110.7596
243.3862, 110.8547
243.8683, 110.8402
244.3504, 110.8916
244.8325, 111.1127
245.3146, 111.4696
245.7968, 111.8647
246.2789, 112.2294
246.7610, 112.5853
247.2431, 112.7202
247.7252, 112.4229
248.2073, 112.1251
248.6895, 111.9980
249.1716, 112.0134
249.6537, 112.0503
250.1358, 112.0027
250.6179, 111.8601
251.1000, 111.7928
251.5822, 111.7108
252.0643, 111.7746
252.5464, 112.1831
253.0285, 112.8071
253.5106, 113.3264
253.9927, 113.4982
254.4748, 113.3229
254.9570, 113.1021
255.4391, 112.7290
255.9212, 112.4248
256.4033, 112.2727
256.8854, 112.2537
257.3676, 112.3339
257.8497, 112.5167
258.3318, 112.7790
258.8139, 112.8177
259.2960, 112.3237
259.7781, 111.9898
260.2603, 112.1931
260.7424, 112.7464
261.2245, 113.2050
261.7066, 113.3113
262.1887, 113.1223
262.6708, 112.9217
263.1530, 112.5727
263.6351, 112.3619
264.1172, 112.4962
264.5993, 112.8345
265.0814, 113.0712
265.5635, 113.0515
266.0457, 112.8419
266.5278, 112.6359
267.0099, 112.2839
267.4920, 112.1476
267.9741, 112.5430
268.4562, 113.2229
268.9384, 113.6681
269.4204, 113.6411
269.9026, 113.3345
270.3847, 113.1494
270.8668, 113.0901
271.3489, 113.0882
271.8310, 113.2067
272.3131, 113.3594
272.7953, 113.3194
273.2774, 112.9473
273.7595, 112.5470
274.2416, 112.7351
274.7237, 113.5841
275.2058, 114.2241
275.6880, 114.2935
276.1701, 114.0053
276.6522, 113.6710
277.1343, 113.3113
277.6164, 113.0691
278.0985, 113.2569
278.5807, 113.8274
279.0628, 114.2582
279.5449, 114.3161
280.0270, 114.1714
280.5091, 114.0948
280.9912, 114.1415
281.4734, 114.1837
281.9555, 114.0052
282.4376, 113.6782
282.9197, 113.5531
283.4018, 113.8465
283.8839, 114.3346
284.3661, 114.7843
284.8482, 115.2050
285.3303, 115.4278
285.8124, 115.1457
286.2945, 114.5546
286.7766, 114.1343
287.2588, 114.0872
287.7409, 114.2018
288.2230, 114.2665
288.7051, 114.2821
289.1872, 114.2344
289.6693, 114.0395
290.1515, 113.7949
290.6336, 113.6872
291.1157, 113.8149
291.5978, 113.9989
292.0799, 114.0826
292.5620, 114.0664
293.0442, 113.9773
293.5263, 113.7956
294.0084, 113.5601
294.4905, 113.3178
294.9726, 113.0574
295.4547, 112.8302
295.9369, 112.7255
296.4190, 112.7283
296.9011, 112.6311
297.3832, 112.3003
297.8653, 111.9020
298.3474, 111.6039
298.8296, 111.4103
299.3117, 111.3189
299.7938, 111.4071
300.2759, 111.6276
300.7580, 111.7107
301.2401, 111.5264
301.7223, 111.2871
302.2044, 111.2024
302.6865, 111.2553
303.1686, 111.3075
303.6507, 111.3337
304.1328, 111.3057
304.6150, 111.0942
305.0971, 110.5800
305.5792, 110.0933
306.0613, 109.9179
306.5434, 109.9665
307.0255, 110.0223
307.5077, 109.9852
307.9898, 109.8944
308.4719, 109.8315
308.9540, 109.8052
309.4361, 109.7821
309.9182, 109.7614
310.4004, 109.7276
310.8825, 109.6452
311.3646, 109.4623
311.8467, 109.2660
312.3288, 109.1878
312.8109, 109.2423
313.2931, 109.3207
313.7752, 109.4065
314.2573, 109.4738
314.7394, 109.4879
315.2215, 109.4347
315.7036, 109.3480
316.1858, 109.2316
316.6679, 109.0861
317.1500, 109.0159
317.6321, 109.0917
318.1142, 109.2326
318.5963, 109.3913
319.0785, 109.5742
319.5606, 109.6535
320.0427, 109.4753
320.5248, 109.0856
321.0069, 108.7360
321.4890, 108.3743
321.9712, 108.2194
322.4533, 108.5807
322.9354, 109.3684
323.4175, 109.9877
323.8996, 110.0306
324.3817, 109.6821
324.8639, 109.4391
325.3460, 109.3722
325.8281, 109.3275
326.3102, 109.1567
326.7923, 108.9215
327.2744, 108.7606
327.7566, 108.7590
328.2387, 108.8404
328.7208, 108.8905
329.2029, 108.9018
329.6850, 108.9254
330.1671, 109.0054
330.6493, 109.1115
331.1314, 109.2013
331.6135, 109.2671
332.0956, 109.3148
332.5777, 109.3646
333.0598, 109.4143
333.5420, 109.4039
334.0241, 109.3047
334.5062, 109.1308
334.9883, 108.8831
335.4704, 108.5348
335.9525, 108.2532
336.4347, 108.1389
336.9168, 108.1788
337.3989, 108.3732
337.8810, 108.8419
338.3631, 109.2567
338.8452, 109.1725
339.3274, 108.6449
339.8094, 108.2417
340.2916, 108.2894
340.7737, 108.5788
341.2558, 108.7439
341.7379, 108.7313
342.2200, 108.6696
342.7021, 108.6530
343.1843, 108.6707
343.6664, 108.6923
344.1485, 108.7504
344.6306, 108.7847
345.1127, 108.6983
345.5948, 108.4948
346.0770, 108.3342
346.5591, 108.2801
347.0412, 108.3532
347.5233, 108.5741
348.0054, 109.0832
348.4875, 109.5158
348.9697, 109.6526
349.4518, 109.5355
349.9339, 109.2523
350.4160, 108.7431
350.8981, 108.2315
351.3802, 108.1645
351.8624, 108.6167
352.3445, 108.9782
352.8266, 108.9403
353.3087, 108.7312
353.7908, 108.7145
354.2729, 108.9727
354.7551, 109.3311
355.2372, 109.6558
355.7193, 109.9470
356.2014, 110.0427
356.6835, 109.7561
357.1656, 109.3914
357.6478, 109.2211
358.1299, 109.2399
358.6120, 109.2192
359.0941, 108.9404
359.5762, 108.4906
360.0583, 108.4238
360.5405, 109.0682
361.0226, 109.7004
361.5047, 110.0307
361.9868, 110.1285
362.4689, 110.1591
362.9510, 110.1951
363.4332, 110.1969
363.9153, 110.0496
364.3974, 109.5971
364.8795, 109.3050
365.3616, 109.3235
365.8438, 109.4876
366.3259, 109.5871
366.8080, 109.5833
367.2901, 109.6576
367.7722, 110.0756
368.2543, 111.0045
368.7365, 111.5196
369.2186, 111.3344
369.7007, 111.0178
370.1828, 110.8878
370.6649, 110.9320
371.1470, 110.9908
371.6292, 110.9522
372.1113, 110.8220
372.5934, 110.6627
373.0755, 110.2591
373.5576, 110.0772
374.0397, 110.4160
374.5219, 110.9846
375.0040, 111.3443
375.4861, 111.3092
375.9682, 111.0821
376.4503, 111.1208
376.9324, 111.7762
377.4146, 112.1357
377.8967, 111.8017
378.3788, 111.4709
378.8609, 111.7617
379.3430, 112.6864
379.8251, 113.7050
380.3073, 114.1945
380.7894, 114.0389
381.2715, 114.1751
381.7536, 114.9308
382.2357, 115.6526
382.7178, 116.1255
383.2000, 116.3984
383.6821, 116.5930
384.1642, 116.7685
384.6463, 116.9487
385.1284, 117.2401
385.6105, 117.7499
386.0927, 118.1941
386.5748, 118.5955
387.0569, 118.8811
387.5390, 118.9093
388.0211, 118.6515
388.5032, 118.3577
388.9854, 118.4093
389.4675, 118.8853
389.9496, 119.2660
390.4317, 119.3835
390.9138, 119.4839
391.3959, 119.6523
391.8781, 119.9057
392.3602, 120.2664
392.8423, 120.8369
393.3244, 121.5426
393.8065, 122.0155
394.2886, 122.2119
394.7708, 122.2459
395.2529, 122.1228
395.7350, 121.8994
396.2171, 121.6310
396.6992, 121.2989
397.1813, 121.0039
397.6635, 120.8457
398.1456, 120.8226
398.6277, 121.0065
399.1098, 121.6801
399.5919, 122.3400
400.0740, 122.3991
400.5562, 121.8173
401.0383, 121.1994
401.5204, 120.9193
402.0025, 120.8544
402.4846, 120.7034
402.9667, 120.4275
403.4489, 120.0611
403.9310, 119.6035
404.4131, 119.0737
404.8952, 118.5327
405.3773, 117.9730
405.8594, 117.4189
406.3416, 116.8883
406.8237, 116.3832
407.3058, 115.9095
407.7879, 115.4499
408.2700, 115.0509
408.7521, 114.8329
409.2343, 114.8355
409.7164, 114.9002
410.1985, 115.1205
410.6806, 115.3271
411.1627, 115.1728
411.6448, 114.5715
412.1269, 113.9569
412.6090, 113.8646
413.0912, 114.4289
413.5733, 114.8727
414.0554, 115.2405
414.5375, 115.4556
415.0196, 115.4080
415.5017, 115.1585
415.9839, 114.8716
416.4660, 114.6393
416.9481, 114.4697
417.4302, 114.4056
417.9123, 114.5498
418.3944, 114.6767
418.8766, 114.8733
419.3587, 114.9907
419.8408, 114.7506
420.3229, 114.1343
420.8050, 113.5532
421.2871, 113.6297
421.7693, 114.6566
422.2514, 115.2551
422.7335, 115.0745
423.2156, 114.8349
423.6977, 114.8247
424.1798, 114.9976
424.6620, 115.1898
425.1441, 115.3074
425.6262, 115.3486
426.1083, 115.2872
426.5904, 115.0282
427.0725, 114.8519
427.5547, 114.9053
428.0368, 115.0122
428.5189, 114.9929
429.0010, 114.8108
429.4831, 114.6187
429.9652, 114.5782
430.4474, 114.6896
430.9295, 114.8698
431.4116, 115.2066
431.8937, 115.4827
432.3758, 115.4710
432.8579, 115.2884
433.3401, 115.2689
433.8222, 115.6855
434.3043, 116.2700
434.7864, 116.6285
435.2685, 116.7614
435.7506, 116.6689
436.2328, 116.1953
436.7149, 115.5851
437.1970, 115.2420
437.6791, 115.2324
438.1612, 115.2855
438.6433, 115.2830
439.1255, 115.2382
439.6076, 115.1756
440.0897, 115.0986
440.5718, 115.0126
441.0539, 114.9016
441.5360, 114.7697
442.0182, 114.7383
442.5003, 114.8535
442.9824, 115.0361
443.4645, 115.2650
443.9466, 115.5229
444.4287, 115.7791
444.9109, 116.0309
445.3930, 116.2397
445.8751, 116.2999
446.3572, 116.1161
446.8393, 115.9221
447.3214, 115.7289
447.8036, 115.5287
448.2857, 115.3157
448.7678, 115.0885
449.2499, 114.8396
449.7320, 114.5515
450.2141, 114.2179
450.6963, 113.9806
451.1784, 113.8722
451.6605, 113.8277
452.1426, 113.8388
452.6247, 113.9041
453.1068, 114.0347
453.5890, 114.2356
454.0711, 114.4733
454.5532, 114.7159
455.0353, 115.0188
455.5174, 115.1336
455.9995, 114.8811
456.4817, 114.5449
456.9638, 114.1703
457.4459, 113.8157
457.9280, 113.6461
458.4101, 113.8817
458.8922, 114.3631
459.3744, 114.6082
459.8565, 114.6098
460.3386, 114.3913
460.8207, 113.6795
461.3028, 112.8704
461.7849, 112.4829
462.2671, 112.6773
462.7492, 112.9659
463.2313, 113.0267
463.7134, 112.9038
464.1955, 112.6997
464.6776, 112.3977
465.1598, 112.1448
465.6419, 112.1443
466.1240, 112.3666
466.6061, 112.4901
467.0882, 112.3783
467.5703, 112.2421
468.0525, 112.2067
468.5346, 112.2701
469.0167, 112.4324
469.4988, 112.7172
469.9809, 113.0349
470.4630, 113.1866
470.9452, 113.2454
471.4273, 112.9816
471.9094, 111.9350
472.3915, 110.8775
472.8736, 110.4910
473.3557, 110.7666
473.8379, 111.2430
474.3200, 111.5665
474.8021, 111.7330
475.2842, 111.6515
475.7663, 110.8854
476.2484, 110.4161
476.7306, 110.6494
477.2127, 111.1282
477.6948, 111.3525
478.1769, 111.1797
478.6590, 110.8607
479.1411, 110.7425
479.6233, 110.8571
480.1054, 110.7871
480.5875, 110.2593
481.0696, 109.8531
481.5517, 109.9675
482.0338, 110.3961
482.5159, 110.6993
482.9980, 110.6753
483.4802, 110.4621
483.9623, 110.2148
484.4444, 109.9334
484.9265, 109.6808
485.4086, 109.4602
485.8907, 109.2986
486.3729, 109.2373
486.8550, 109.2783
487.3371, 109.3289
487.8192, 109.4423
488.3013, 109.5028
488.7834, 109.3266
489.2656, 108.9187
489.7477, 108.4767
490.2298, 108.0764
490.7119, 107.7614
491.1940, 107.7836
491.6761, 108.5877
492.1583, 109.0758
492.6404, 108.8101
493.1225, 108.2467
493.6046, 107.8637
494.0867, 107.7662
494.5688, 107.8152
495.0510, 107.8810
495.5331, 107.9701
496.0152, 107.9815
496.4973, 107.7457
496.9794, 107.6195
497.4615, 107.8223
497.9437, 108.1376
498.4258, 108.2567
498.9079, 108.0633
499.3900, 107.7423
499.8721, 107.5445
500.3542, 107.4733
500.8364, 107.5184
501.3185, 107.8654
501.8006, 108.1185
502.2827, 108.0093
502.7648, 107.6362
503.2469, 107.2552
503.7291, 106.9450
504.2112, 106.7194
504.6933, 106.6152
505.1754, 106.6300
505.6575, 106.7134
506.1396, 106.9303
506.6218, 107.1083
507.1039, 106.9203
507.5860, 106.3298
508.0681, 105.9124
508.5502, 106.0231
509.0323, 106.2459
509.5145, 106.0773
509.9966, 105.5608
510.4787, 105.1674
510.9608, 105.2091
511.4429, 105.5771
511.9250, 105.8329
512.4072, 105.8716
512.8893, 105.9347
513.3714, 106.1982
513.8535, 106.3853
514.3356, 106.0922
514.8177, 105.3872
515.2999, 104.8448
515.7820, 105.0571
516.2641, 105.9443
516.7462, 106.4339
517.2283, 106.2766
517.7104, 106.0702
518.1926, 105.9962
518.6747, 105.9323
519.1568, 105.6742
519.6389, 105.1850
520.1210, 104.8200
520.6031, 105.0768
521.0853, 105.8287
521.5674, 106.2059
522.0495, 106.0169
522.5316, 105.7490
523.0137, 105.7189
523.4958, 105.8463
523.9780, 106.0041
524.4601, 106.2597
524.9422, 106.4047
525.4243, 106.1428
525.9064, 105.6799
526.3885, 105.5696
526.8707, 105.9804
527.3528, 106.4703
527.8349, 106.5203
528.3170, 106.0604
528.7991, 105.7647
529.2813, 105.7035
529.7634, 105.7164
530.2455, 105.7451
530.7276, 105.8011
531.2097, 105.9264
531.6918, 106.1350
532.1740, 106.3680
532.6561, 106.5332
533.1382, 106.6217
533.6203, 106.6692
534.1024, 106.6255
534.5845, 106.5887
535.0667, 106.5675
535.5488, 106.5839
536.0309, 106.6995
536.5130, 106.9817
536.9951, 107.2585
537.4772, 107.1771
537.9594, 106.7240
538.4415, 106.5630
538.9236, 107.0246
539.4057, 107.5687
539.8878, 107.6434
540.3699, 107.3317
540.8521, 107.0851
541.3342, 106.9775
541.8163, 107.0272
542.2984, 107.3939
542.7805, 107.9640
543.2626, 108.2924
543.7448, 108.1739
544.2269, 107.8197
544.7090, 107.5708
545.1911, 107.4090
545.6732, 107.4364
546.1553, 107.8669
546.6375, 108.2846
547.1196, 108.4233
547.6017, 108.3588
548.0838, 108.2969
548.5659, 108.3473
549.0480, 108.4765
549.5302, 108.6213
550.0123, 108.8059
550.4944, 108.9312
550.9765, 108.9286
551.4586, 108.9114
551.9407, 108.9388
552.4229, 108.9996
552.9050, 109.0600
553.3871, 109.1534
553.8692, 109.1806
554.3513, 108.8893
554.8334, 108.2899
555.3156, 107.9125
555.7977, 108.0041
556.2798, 108.2804
556.7619, 108.4013
557.2440, 108.3812
557.7261, 108.2024
558.2083, 107.6403
558.6904, 107.1030
559.1725, 107.0056
559.6546, 107.2121
560.1367, 107.2514
560.6188, 106.8905
561.1010, 106.3411
561.5831, 106.0535
562.0652, 106.2093
562.5473, 106.2176
563.0294, 105.9664
563.5115, 105.6989
563.9937, 105.5428
564.4758, 105.4659
564.9579, 105.3561
565.4400, 105.1393
565.9221, 104.9287
566.4042, 104.9988
566.8864, 105.4069
567.3685, 105.5963
567.8506, 105.2692
568.3327, 104.9350
568.8148, 105.1168
569.2969, 105.6464
569.7791, 105.8858
570.2612, 105.3777
570.7433, 104.7180
571.2254, 104.4224
571.7075, 104.4260
572.1896, 104.5230
572.6718, 104.6594
573.1539, 104.7957
573.6360, 104.8887
574.1181, 104.9458
574.6002, 104.9022
575.0823, 104.6333
575.5645, 104.4029
576.0466, 104.3875
576.5287, 104.4708
577.0108, 104.4480
577.4929, 104.2421
577.9750, 103.9540
578.4572, 103.7397
578.9393, 103.6190
579.4214, 103.4298
579.9035, 102.9716
580.3856, 102.7130
580.8677, 103.0094
581.3499, 103.5787
581.8320, 103.9603
582.3141, 103.9867
582.7962, 103.9146
583.2783, 104.0428
583.7604, 104.2604
584.2426, 104.1372
584.7247, 103.5468
585.2068, 102.9683
585.6889, 102.8027
586.1710, 103.0194
586.6531, 103.2544
587.1352, 103.5360
