##NAMES=Metauranocircite-I
##RRUFFID=R050575
##IDEAL CHEMISTRY=Ba(U^6+^O_2_)_2_(PO_4_)_2_&#183;8H_2_O
##LOCALITY=Voightland, Saxony, Germany
##OWNER=RRUFF
##SOURCE=University of Arizona Mineral Museum
##DESCRIPTION=Yellow platy crystals with minor intergrown quartz
##STATUS=The identification of this mineral is confirmed by single-crystal X-ray diffraction and chemical analysis.
##URL=rruff.info/R050575
##MEASURED CHEMISTRY=(Ba_0.98_Ca_0.02_)_Σ=1_(U_1.00_O_2_)_2_(P_1.00_O_4_)_2_·6.13H_2_O
93.77539, 1075.686
94.25751, 1034.469
94.73962, 1053.809
95.22174, 1124.386
95.70386, 1212.721
96.18597, 1309.601
96.66809, 1414.685
97.15021, 1526.180
97.63232, 1643.545
98.11444, 1772.310
98.59656, 1916.927
99.07867, 2077.912
99.56079, 2256.644
100.0429, 2453.567
100.5250, 2667.775
101.0071, 2895.453
101.4893, 3131.643
101.9714, 3384.300
102.4535, 3664.894
102.9356, 3976.611
103.4177, 4312.993
103.8998, 4669.598
104.3820, 5056.981
104.8641, 5445.999
105.3462, 5844.674
105.8283, 6246.184
106.3104, 6633.634
106.7925, 6993.755
107.2747, 7350.607
107.7568, 7717.572
108.2389, 8126.685
108.7210, 8505.955
109.2031, 8836.521
109.6852, 9117.787
110.1674, 9416.407
110.6495, 9727.383
111.1316, 10060.79
111.6137, 10425.21
112.0958, 10810.72
112.5779, 11241.69
113.0601, 11731.58
113.5422, 12294.21
114.0243, 12869.80
114.5064, 13443.31
114.9885, 14024.82
115.4706, 14635.17
115.9528, 15315.30
116.4349, 15993.98
116.9170, 16630.67
117.3991, 17222.32
117.8812, 17800.84
118.3633, 18390.91
118.8455, 18976.30
119.3276, 19522.84
119.8097, 20019.56
120.2918, 20478.55
120.7739, 20904.72
121.2560, 21302.60
121.7382, 21668.63
122.2203, 21990.39
122.7024, 22275.46
123.1845, 22549.07
123.6666, 22829.28
124.1487, 23103.93
124.6309, 23361.03
125.1130, 23576.75
125.5951, 23788.96
126.0772, 24034.40
126.5593, 24311.27
127.0414, 24603.16
127.5236, 24900.92
128.0057, 25203.04
128.4878, 25513.23
128.9699, 25815.40
129.4520, 26131.36
129.9341, 26506.29
130.4162, 26942.02
130.8984, 27394.58
131.3805, 27818.46
131.8626, 28219.16
132.3447, 28627.84
132.8268, 29064.00
133.3089, 29519.05
133.7911, 29889.54
134.2732, 30085.36
134.7553, 30163.80
135.2374, 30261.56
135.7195, 30379.82
136.2016, 30475.88
136.6838, 30523.74
137.1659, 30524.61
137.6480, 30537.94
138.1301, 30571.24
138.6122, 30605.93
139.0943, 30607.34
139.5765, 30571.03
140.0586, 30522.17
140.5407, 30468.92
141.0228, 30408.05
141.5049, 30356.02
141.9870, 30312.71
142.4692, 30276.95
142.9513, 30246.65
143.4334, 30220.51
143.9155, 30200.07
144.3976, 30187.68
144.8797, 30190.76
145.3619, 30181.12
145.8440, 30150.40
146.3261, 30103.70
146.8082, 30071.03
147.2903, 30055.41
147.7724, 30049.41
148.2546, 30048.66
148.7367, 30054.86
149.2188, 30064.29
149.7009, 30080.45
150.1830, 30102.82
150.6651, 30115.57
151.1473, 30114.27
151.6294, 30106.89
152.1115, 30099.11
152.5936, 30085.40
153.0757, 30077.50
153.5578, 30082.79
154.0400, 30102.57
154.5221, 30106.40
155.0042, 30077.94
155.4863, 30038.76
155.9684, 30007.50
156.4505, 29990.17
156.9327, 29975.21
157.4148, 29959.65
157.8969, 29943.08
158.3790, 29926.05
158.8611, 29916.94
159.3432, 29904.43
159.8254, 29876.11
160.3075, 29811.61
160.7896, 29746.38
161.2717, 29692.22
161.7538, 29650.22
162.2359, 29622.03
162.7181, 29625.18
163.2002, 29639.95
163.6823, 29638.71
164.1644, 29588.77
164.6465, 29537.50
165.1286, 29511.96
165.6108, 29519.17
166.0929, 29535.34
166.5750, 29555.49
167.0571, 29575.57
167.5392, 29588.46
168.0213, 29585.75
168.5035, 29576.73
168.9856, 29567.94
169.4677, 29560.06
169.9498, 29551.57
170.4319, 29542.99
170.9140, 29532.93
171.3962, 29518.41
171.8783, 29491.63
172.3604, 29462.45
172.8425, 29440.97
173.3246, 29429.85
173.8067, 29425.38
174.2889, 29431.51
174.7710, 29443.99
175.2531, 29448.21
175.7352, 29429.75
176.2173, 29399.66
176.6994, 29372.46
177.1816, 29350.87
177.6637, 29333.28
178.1458, 29315.81
178.6279, 29299.45
179.1100, 29290.34
179.5921, 29302.41
180.0743, 29323.29
180.5564, 29328.16
181.0385, 29308.34
181.5206, 29274.89
182.0027, 29236.36
182.4848, 29194.10
182.9670, 29162.53
183.4491, 29157.78
183.9312, 29172.21
184.4133, 29185.40
184.8954, 29194.57
185.3775, 29198.32
185.8597, 29193.34
186.3418, 29179.73
186.8239, 29161.39
187.3060, 29140.36
187.7881, 29116.94
188.2702, 29093.30
188.7523, 29070.15
189.2345, 29047.09
189.7166, 29024.07
190.1987, 29001.44
190.6808, 28975.74
191.1629, 28935.80
191.6451, 28885.67
192.1272, 28857.28
192.6093, 28865.22
193.0914, 28897.97
193.5735, 28920.08
194.0556, 28931.50
194.5378, 28936.86
195.0199, 28937.46
195.5020, 28933.63
195.9841, 28934.95
196.4662, 28946.41
196.9483, 28963.96
197.4305, 28968.97
197.9126, 28958.35
198.3947, 28945.07
198.8768, 28940.54
199.3589, 28943.94
199.8410, 28956.12
200.3232, 28983.53
200.8053, 29019.95
201.2874, 29024.73
201.7695, 28988.82
202.2516, 28947.29
202.7337, 28941.81
203.2159, 28978.28
203.6980, 29004.07
204.1801, 29002.97
204.6622, 28978.69
205.1443, 28966.94
205.6264, 28973.77
206.1086, 28980.36
206.5907, 28963.61
207.0728, 28918.94
207.5549, 28878.07
208.0370, 28850.55
208.5191, 28835.38
209.0013, 28812.52
209.4834, 28778.18
209.9655, 28743.37
210.4476, 28718.86
210.9297, 28704.99
211.4118, 28702.22
211.8940, 28716.57
212.3761, 28747.37
212.8582, 28756.86
213.3403, 28739.12
213.8224, 28710.10
214.3045, 28685.86
214.7867, 28665.80
215.2688, 28652.19
215.7509, 28645.33
216.2330, 28645.17
216.7151, 28651.08
217.1972, 28662.18
217.6794, 28679.89
218.1615, 28708.19
218.6436, 28754.47
219.1257, 28791.18
219.6078, 28810.89
220.0899, 28813.53
220.5721, 28807.25
221.0542, 28786.70
221.5363, 28763.29
222.0184, 28750.08
222.5005, 28752.21
222.9826, 28751.98
223.4648, 28743.97
223.9469, 28727.93
224.4290, 28720.16
224.9111, 28721.92
225.3932, 28730.80
225.8753, 28746.50
226.3575, 28775.71
226.8396, 28797.33
227.3217, 28804.57
227.8038, 28797.42
228.2859, 28795.89
228.7680, 28802.36
229.2502, 28812.04
229.7323, 28820.04
230.2144, 28824.54
230.6965, 28832.08
231.1786, 28847.46
231.6607, 28870.72
232.1429, 28877.36
232.6250, 28855.70
233.1071, 28830.54
233.5892, 28826.08
234.0713, 28855.04
234.5534, 28878.88
235.0356, 28888.51
235.5177, 28884.43
235.9998, 28886.83
236.4819, 28895.45
236.9640, 28910.39
237.4461, 28933.46
237.9283, 28972.83
238.4104, 29003.18
238.8925, 29018.38
239.3746, 29019.02
239.8567, 29019.32
240.3388, 29015.47
240.8210, 29015.34
241.3031, 29025.54
241.7852, 29049.91
242.2673, 29076.88
242.7494, 29108.36
243.2315, 29143.04
243.7137, 29164.22
244.1958, 29166.58
244.6779, 29162.43
245.1600, 29159.85
245.6421, 29157.82
246.1242, 29159.98
246.6064, 29168.79
247.0885, 29182.92
247.5706, 29191.73
248.0527, 29188.74
248.5348, 29189.42
249.0169, 29206.93
249.4990, 29257.96
249.9812, 29288.19
250.4633, 29285.11
250.9454, 29257.15
251.4275, 29243.64
251.9096, 29246.85
252.3917, 29261.68
252.8739, 29287.05
253.3560, 29329.91
253.8381, 29366.57
254.3202, 29395.14
254.8023, 29416.43
255.2844, 29431.32
255.7666, 29431.99
256.2487, 29438.48
256.7308, 29464.73
257.2129, 29525.34
257.6950, 29563.88
258.1772, 29569.96
258.6593, 29555.36
259.1414, 29550.56
259.6235, 29554.06
260.1056, 29570.11
260.5877, 29606.53
261.0699, 29677.85
261.5520, 29720.52
262.0341, 29723.99
262.5162, 29704.92
262.9983, 29699.68
263.4804, 29715.24
263.9626, 29729.62
264.4447, 29732.15
264.9268, 29718.49
265.4089, 29712.94
265.8910, 29714.90
266.3731, 29725.93
266.8553, 29752.94
267.3374, 29804.84
267.8195, 29848.35
268.3016, 29867.07
268.7837, 29857.33
269.2658, 29859.38
269.7480, 29873.30
270.2301, 29899.10
270.7122, 29942.45
271.1943, 30011.89
271.6764, 30065.96
272.1585, 30085.62
272.6407, 30070.66
273.1228, 30061.38
273.6049, 30055.25
274.0870, 30058.27
274.5691, 30081.62
275.0512, 30129.61
275.5334, 30172.88
276.0155, 30201.14
276.4976, 30216.17
276.9797, 30241.87
277.4618, 30283.24
277.9439, 30321.87
278.4261, 30336.86
278.9081, 30326.22
279.3903, 30314.86
279.8724, 30307.41
280.3545, 30304.52
280.8366, 30307.47
281.3187, 30316.69
281.8008, 30332.04
282.2830, 30357.08
282.7651, 30392.30
283.2472, 30421.05
283.7293, 30440.21
284.2114, 30451.32
284.6935, 30456.92
285.1757, 30456.43
285.6578, 30455.21
286.1399, 30452.21
286.6220, 30448.43
287.1041, 30462.80
287.5862, 30502.50
288.0684, 30553.90
288.5505, 30586.25
289.0326, 30599.44
289.5147, 30613.02
289.9968, 30638.75
290.4789, 30675.33
290.9611, 30718.23
291.4432, 30771.12
291.9253, 30819.93
292.4074, 30835.77
292.8895, 30821.88
293.3716, 30810.00
293.8538, 30817.08
294.3359, 30839.19
294.8180, 30868.13
295.3001, 30905.83
295.7822, 30938.18
296.2643, 30942.40
296.7465, 30924.00
297.2286, 30907.76
297.7107, 30900.12
298.1928, 30903.16
298.6749, 30927.17
299.1570, 30973.64
299.6392, 31019.97
300.1213, 31037.35
300.6034, 31036.16
301.0855, 31042.70
301.5676, 31078.23
302.0497, 31119.58
302.5319, 31124.97
303.0140, 31096.77
303.4961, 31072.82
303.9782, 31089.51
304.4603, 31129.59
304.9424, 31163.66
305.4246, 31180.54
305.9067, 31190.47
306.3888, 31197.61
306.8709, 31204.15
307.3530, 31221.88
307.8351, 31276.29
308.3173, 31339.32
308.7994, 31374.42
309.2815, 31364.47
309.7636, 31345.91
310.2457, 31343.66
310.7278, 31355.38
311.2100, 31374.71
311.6921, 31404.03
312.1742, 31436.85
312.6563, 31466.74
313.1384, 31492.52
313.6205, 31518.83
314.1027, 31556.45
314.5848, 31596.26
315.0669, 31622.55
315.5490, 31607.39
316.0311, 31592.98
316.5132, 31607.31
316.9954, 31654.82
317.4775, 31706.27
317.9596, 31750.94
318.4417, 31791.31
318.9238, 31830.73
319.4059, 31867.08
319.8881, 31904.09
320.3702, 31947.20
320.8523, 31995.47
321.3344, 32029.57
321.8165, 32035.07
322.2986, 32028.42
322.7808, 32022.11
323.2629, 32009.22
323.7450, 32007.19
324.2271, 32026.04
324.7092, 32061.63
325.1913, 32092.38
325.6735, 32114.49
326.1556, 32132.44
326.6377, 32148.73
327.1198, 32165.49
327.6019, 32179.20
328.0840, 32181.30
328.5662, 32180.51
329.0483, 32198.77
329.5304, 32263.79
330.0125, 32321.44
330.4946, 32350.97
330.9767, 32335.54
331.4589, 32338.46
331.9410, 32368.01
332.4231, 32411.75
332.9052, 32453.62
333.3873, 32499.14
333.8694, 32533.60
334.3516, 32548.71
334.8337, 32542.13
335.3158, 32545.92
335.7979, 32559.18
336.2800, 32582.95
336.7621, 32620.32
337.2443, 32678.61
337.7264, 32731.51
338.2085, 32777.17
338.6906, 32814.40
339.1727, 32835.67
339.6548, 32835.72
340.1370, 32833.12
340.6191, 32840.89
341.1012, 32860.28
341.5833, 32882.91
342.0654, 32910.60
342.5475, 32938.55
343.0297, 32951.05
343.5118, 32945.18
343.9939, 32945.85
344.4760, 32971.00
344.9581, 33017.98
345.4402, 33057.39
345.9224, 33088.02
346.4045, 33110.49
346.8866, 33120.04
347.3687, 33118.07
347.8508, 33122.23
348.3329, 33141.39
348.8151, 33171.39
349.2972, 33204.01
349.7793, 33239.66
350.2614, 33269.23
350.7435, 33276.73
351.2256, 33270.18
351.7078, 33273.48
352.1899, 33298.14
352.6720, 33330.54
353.1541, 33351.63
353.6362, 33363.15
354.1183, 33374.14
354.6005, 33392.62
355.0826, 33413.80
355.5647, 33429.09
356.0468, 33432.92
356.5289, 33441.30
357.0110, 33469.73
357.4932, 33513.36
357.9753, 33561.10
358.4574, 33618.79
358.9395, 33671.04
359.4216, 33702.18
359.9037, 33709.40
360.3859, 33711.98
360.8680, 33717.82
361.3501, 33726.11
361.8322, 33735.80
362.3143, 33741.34
362.7964, 33752.64
363.2786, 33775.64
363.7607, 33809.49
364.2428, 33845.32
364.7249, 33888.02
365.2070, 33926.55
365.6891, 33953.11
366.1713, 33959.46
366.6534, 33962.47
367.1355, 33962.16
367.6176, 33960.48
368.0997, 33962.79
368.5818, 33972.60
369.0640, 33984.67
369.5461, 33997.30
370.0282, 34010.30
370.5103, 34026.11
370.9924, 34048.90
371.4745, 34073.57
371.9567, 34092.29
372.4388, 34093.51
372.9209, 34106.27
373.4030, 34140.94
373.8851, 34198.29
374.3672, 34244.61
374.8494, 34275.46
375.3315, 34301.04
375.8136, 34329.49
376.2957, 34362.67
376.7778, 34390.20
377.2599, 34407.39
377.7421, 34418.36
378.2242, 34438.43
378.7063, 34468.91
379.1884, 34499.93
379.6705, 34520.99
380.1526, 34531.97
380.6348, 34565.16
381.1169, 34628.77
381.5990, 34696.69
382.0811, 34729.35
382.5632, 34728.50
383.0453, 34722.68
383.5275, 34722.28
384.0096, 34726.23
384.4917, 34729.54
384.9738, 34732.55
385.4559, 34740.51
385.9380, 34766.45
386.4202, 34801.68
386.9023, 34823.10
387.3844, 34822.34
387.8665, 34810.11
388.3486, 34791.27
388.8307, 34769.55
389.3129, 34760.23
389.7950, 34780.07
390.2771, 34813.09
390.7592, 34840.75
391.2413, 34858.69
391.7234, 34879.06
392.2056, 34911.35
392.6877, 34950.74
393.1698, 34990.38
393.6519, 35040.67
394.1340, 35079.38
394.6161, 35087.62
395.0983, 35066.25
395.5804, 35049.50
396.0625, 35044.71
396.5446, 35052.45
397.0267, 35073.32
397.5089, 35118.15
397.9910, 35163.41
398.4731, 35210.11
398.9552, 35254.89
399.4373, 35287.73
399.9194, 35293.40
400.4016, 35299.50
400.8837, 35316.50
401.3658, 35349.25
401.8479, 35378.71
402.3300, 35412.29
402.8121, 35437.90
403.2942, 35437.05
403.7763, 35384.90
404.2585, 35354.66
404.7406, 35367.50
405.2227, 35418.81
405.7048, 35459.43
406.1869, 35487.17
406.6690, 35508.92
407.1512, 35526.96
407.6333, 35540.01
408.1154, 35562.54
408.5975, 35599.93
409.0796, 35641.80
409.5617, 35667.63
410.0439, 35676.89
410.5260, 35684.34
411.0081, 35695.96
411.4902, 35710.83
411.9723, 35725.38
412.4544, 35738.88
412.9366, 35755.46
413.4187, 35782.51
413.9008, 35816.40
414.3829, 35847.21
414.8650, 35875.07
415.3471, 35895.17
415.8293, 35896.00
416.3114, 35881.34
416.7935, 35868.80
417.2756, 35873.36
417.7577, 35884.25
418.2398, 35888.82
418.7220, 35883.59
419.2041, 35882.61
419.6862, 35906.50
420.1683, 35938.95
420.6504, 35954.06
421.1325, 35918.25
421.6147, 35886.50
422.0968, 35885.52
422.5789, 35915.09
423.0610, 35948.25
423.5431, 35982.80
424.0252, 36015.31
424.5074, 36043.64
424.9895, 36050.48
425.4716, 36073.46
425.9537, 36131.92
426.4358, 36206.42
426.9179, 36253.49
427.4001, 36248.26
427.8822, 36245.70
428.3643, 36265.61
428.8464, 36313.45
429.3285, 36340.90
429.8106, 36335.16
430.2928, 36325.89
430.7749, 36344.10
431.2570, 36395.66
431.7391, 36453.12
432.2212, 36519.75
432.7033, 36584.99
433.1855, 36608.84
433.6676, 36587.22
434.1497, 36560.13
434.6318, 36550.05
435.1139, 36555.14
435.5960, 36565.18
436.0782, 36580.32
436.5603, 36597.90
437.0424, 36611.61
437.5245, 36624.23
438.0066, 36646.40
438.4887, 36694.27
438.9709, 36744.13
439.4530, 36752.16
439.9351, 36725.75
440.4172, 36715.10
440.8993, 36783.16
441.3814, 36870.27
441.8636, 36906.61
442.3457, 36862.96
442.8278, 36818.79
443.3099, 36816.24
443.7920, 36844.17
444.2741, 36884.39
444.7563, 36957.79
445.2384, 37016.62
445.7205, 37032.47
446.2026, 37004.60
446.6847, 36988.48
447.1668, 37008.22
447.6490, 37034.30
448.1311, 37048.14
448.6132, 37027.04
449.0953, 37022.22
449.5774, 37040.00
450.0595, 37072.72
450.5417, 37104.39
451.0238, 37133.64
451.5059, 37163.81
451.9880, 37195.93
452.4701, 37230.34
452.9522, 37266.12
453.4344, 37305.10
453.9165, 37342.12
454.3986, 37370.10
454.8807, 37388.32
455.3628, 37416.70
455.8449, 37465.43
456.3271, 37515.77
456.8092, 37522.07
457.2913, 37487.63
457.7734, 37456.73
458.2555, 37450.18
458.7376, 37464.57
459.2198, 37498.43
459.7019, 37552.75
460.1840, 37606.23
460.6661, 37642.57
461.1482, 37665.48
461.6303, 37679.26
462.1125, 37679.81
462.5946, 37679.83
463.0767, 37685.45
463.5588, 37697.69
464.0409, 37719.14
464.5230, 37757.99
465.0052, 37800.54
465.4873, 37836.63
465.9694, 37862.43
466.4515, 37895.50
466.9336, 37949.81
467.4157, 38007.70
467.8979, 38052.51
468.3800, 38065.96
468.8621, 38084.88
469.3442, 38115.77
469.8263, 38154.88
470.3084, 38187.80
470.7906, 38210.14
471.2727, 38233.60
471.7548, 38265.68
472.2369, 38310.32
472.7190, 38339.80
473.2011, 38348.80
473.6833, 38355.15
474.1654, 38384.41
474.6475, 38438.16
475.1296, 38480.43
475.6117, 38500.34
476.0938, 38506.29
476.5760, 38514.27
477.0581, 38524.24
477.5402, 38541.02
478.0223, 38570.45
478.5044, 38607.39
478.9865, 38644.18
479.4687, 38680.47
479.9508, 38711.21
480.4329, 38723.62
480.9150, 38729.65
481.3971, 38747.96
481.8792, 38800.76
482.3614, 38851.11
482.8435, 38870.86
483.3256, 38869.43
483.8077, 38874.79
484.2898, 38908.98
484.7719, 38944.16
485.2541, 38963.28
485.7362, 38957.90
486.2183, 38965.71
486.7004, 39001.55
487.1825, 39047.23
487.6646, 39085.42
488.1468, 39103.01
488.6289, 39132.32
489.1110, 39184.79
489.5931, 39249.91
490.0752, 39288.64
490.5573, 39285.48
491.0395, 39294.58
491.5216, 39349.87
492.0037, 39453.61
492.4858, 39518.70
492.9679, 39539.75
493.4500, 39547.98
493.9322, 39582.82
494.4143, 39638.15
494.8964, 39667.91
495.3785, 39650.27
495.8606, 39623.93
496.3427, 39650.80
496.8249, 39720.58
497.3070, 39796.10
497.7891, 39864.08
498.2712, 39921.95
498.7533, 39964.75
499.2354, 39992.44
499.7176, 40011.11
500.1997, 40010.21
500.6818, 40009.34
501.1639, 40028.00
501.6460, 40089.13
502.1281, 40144.45
502.6103, 40178.57
503.0924, 40198.60
503.5745, 40218.38
504.0566, 40235.34
504.5387, 40257.61
505.0208, 40288.62
505.5030, 40328.85
505.9851, 40368.59
506.4672, 40407.80
506.9493, 40446.41
507.4314, 40488.19
507.9135, 40539.63
508.3957, 40558.87
508.8778, 40529.70
509.3599, 40488.65
509.8420, 40504.94
510.3241, 40577.02
510.8062, 40646.85
511.2884, 40688.79
511.7705, 40715.09
512.2526, 40757.94
512.7347, 40815.76
513.2168, 40868.41
513.6989, 40893.01
514.1810, 40906.61
514.6631, 40935.09
515.1453, 40985.31
515.6274, 41036.07
516.1095, 41074.55
516.5916, 41104.99
517.0737, 41132.95
517.5558, 41156.52
518.0380, 41181.95
518.5201, 41211.75
519.0022, 41245.39
519.4843, 41280.40
519.9664, 41320.29
520.4485, 41357.44
520.9307, 41387.53
521.4128, 41408.09
521.8949, 41431.74
522.3770, 41458.37
522.8591, 41487.93
523.3412, 41520.81
523.8234, 41556.67
524.3055, 41594.14
524.7876, 41632.51
525.2697, 41673.13
525.7518, 41719.16
526.2339, 41770.85
526.7161, 41823.87
527.1982, 41882.14
527.6803, 41939.50
528.1624, 41978.98
528.6445, 42001.21
529.1266, 42015.22
529.6088, 42022.31
530.0909, 42027.84
530.5730, 42039.38
531.0551, 42059.55
531.5372, 42082.54
532.0193, 42102.84
532.5015, 42124.05
532.9836, 42151.49
533.4657, 42194.60
533.9478, 42236.12
534.4299, 42275.13
534.9120, 42309.76
535.3942, 42327.76
535.8763, 42297.20
536.3584, 42280.04
536.8405, 42309.66
537.3226, 42407.79
537.8047, 42465.49
538.2869, 42467.34
538.7690, 42450.59
539.2511, 42458.18
539.7332, 42492.87
540.2153, 42526.68
540.6974, 42557.12
541.1796, 42580.37
541.6617, 42579.64
542.1438, 42558.27
542.6259, 42550.30
543.1080, 42586.16
543.5901, 42641.67
544.0723, 42672.33
544.5544, 42678.99
545.0365, 42692.74
545.5186, 42746.54
546.0007, 42812.96
546.4828, 42865.50
546.9650, 42900.61
547.4471, 42916.60
547.9292, 42884.38
548.4113, 42840.96
548.8934, 42837.40
549.3755, 42939.96
549.8577, 43020.43
550.3398, 43041.15
550.8219, 43015.27
551.3040, 43011.16
551.7861, 43036.71
552.2682, 43071.12
552.7504, 43109.41
553.2325, 43153.25
553.7146, 43174.69
554.1967, 43166.58
554.6788, 43157.16
555.1609, 43181.05
555.6431, 43233.00
556.1252, 43278.02
556.6073, 43312.04
557.0894, 43332.16
557.5715, 43323.30
558.0536, 43295.97
558.5358, 43280.38
559.0179, 43293.09
559.5000, 43322.63
559.9821, 43366.79
560.4642, 43422.45
560.9464, 43469.87
561.4285, 43493.04
561.9106, 43509.55
562.3927, 43530.67
562.8748, 43561.13
563.3569, 43583.48
563.8391, 43582.39
564.3212, 43578.59
564.8033, 43593.64
565.2854, 43652.78
565.7675, 43676.11
566.2496, 43638.82
566.7318, 43571.40
567.2139, 43559.10
567.6960, 43611.61
568.1781, 43652.37
568.6602, 43647.11
569.1423, 43607.95
569.6245, 43571.65
570.1066, 43538.45
570.5887, 43519.98
571.0708, 43538.32
571.5529, 43572.53
572.0350, 43584.36
572.5172, 43565.18
572.9993, 43546.84
573.4814, 43557.18
573.9635, 43579.30
574.4456, 43592.51
574.9277, 43577.34
575.4099, 43565.95
575.8920, 43573.74
576.3741, 43591.88
576.8562, 43596.25
577.3383, 43572.86
577.8204, 43549.70
578.3026, 43533.39
578.7847, 43524.35
579.2668, 43520.43
579.7489, 43527.14
580.2310, 43527.13
580.7131, 43499.83
581.1953, 43446.20
581.6774, 43424.98
582.1595, 43444.39
582.6416, 43474.58
583.1237, 43487.23
583.6058, 43481.77
584.0880, 43452.26
584.5701, 43381.93
585.0522, 43312.37
585.5343, 43292.45
586.0164, 43305.82
586.4985, 43313.26
586.9807, 43293.95
587.4628, 43267.32
587.9449, 43239.73
