##NAMES=Metatorbernite
##RRUFFID=R070509
##IDEAL CHEMISTRY=Cu^2+^(U^6+^O_2_)_2_(PO_4_)_2_&#183;8H_2_O
##LOCALITY=Musonoi mine, Kolwezi, Katanga, Congo
##OWNER=RRUFF
##SOURCE=James Shigley
##DESCRIPTION=Dark green platy crystals
##STATUS=The identification of this mineral has been confirmed by single-crystal X-ray diffraction.
##URL=rruff.info/R070509
141.6489, 925.0989
142.1310, 928.9962
142.6131, 936.7786
143.0952, 952.6234
143.5774, 980.9445
144.0595, 1004.849
144.5416, 1011.086
145.0237, 1012.575
145.5058, 1023.642
145.9879, 1052.015
146.4701, 1089.923
146.9522, 1119.771
147.4343, 1138.837
147.9164, 1154.801
148.3985, 1168.149
148.8806, 1180.977
149.3627, 1197.008
149.8449, 1219.946
150.3270, 1245.008
150.8091, 1255.163
151.2912, 1236.026
151.7733, 1223.390
152.2554, 1229.301
152.7376, 1246.056
153.2197, 1264.477
153.7018, 1280.710
154.1839, 1293.490
154.6660, 1296.253
155.1481, 1278.766
155.6303, 1263.516
156.1124, 1254.932
156.5945, 1252.062
157.0766, 1253.772
157.5587, 1260.255
158.0408, 1270.369
158.5230, 1275.080
159.0051, 1261.920
159.4872, 1256.690
159.9693, 1270.701
160.4514, 1290.317
160.9335, 1301.049
161.4157, 1294.532
161.8978, 1273.093
162.3799, 1265.303
162.8620, 1284.524
163.3441, 1303.854
163.8262, 1315.651
164.3084, 1323.736
164.7905, 1336.382
165.2726, 1360.134
165.7547, 1394.151
166.2368, 1420.636
166.7189, 1432.143
167.2011, 1444.687
167.6832, 1461.580
168.1653, 1482.688
168.6474, 1505.571
169.1295, 1527.364
169.6116, 1548.177
170.0938, 1587.576
170.5759, 1654.429
171.0580, 1728.147
171.5401, 1803.370
172.0222, 1880.457
172.5043, 1961.480
172.9865, 2047.521
173.4686, 2138.526
173.9507, 2244.896
174.4328, 2375.433
174.9149, 2510.095
175.3970, 2639.164
175.8792, 2766.604
176.3613, 2903.544
176.8434, 3060.939
177.3255, 3238.638
177.8076, 3400.182
178.2897, 3529.719
178.7719, 3663.979
179.2540, 3814.546
179.7361, 3981.450
180.2182, 4162.340
180.7003, 4358.491
181.1824, 4570.690
181.6646, 4755.110
182.1467, 4888.286
182.6288, 5024.411
183.1109, 5177.576
183.5930, 5350.012
184.0751, 5544.742
184.5573, 5764.882
185.0394, 6009.114
185.5215, 6261.288
186.0036, 6518.306
186.4857, 6785.137
186.9678, 7058.375
187.4500, 7343.407
187.9321, 7652.796
188.4142, 7998.770
188.8963, 8379.516
189.3784, 8758.919
189.8605, 9144.518
190.3427, 9519.445
190.8248, 9887.846
191.3069, 10241.84
191.7890, 10570.81
192.2711, 10870.25
192.7532, 11136.39
193.2353, 11330.84
193.7175, 11536.78
194.1996, 11608.03
194.6817, 11497.98
195.1638, 11210.71
195.6459, 10746.78
196.1280, 10091.68
196.6102, 9269.176
197.0923, 8450.775
197.5744, 7582.577
198.0565, 6775.470
198.5386, 6056.902
199.0207, 5423.945
199.5029, 4875.097
199.9850, 4405.828
200.4671, 4014.770
200.9492, 3687.161
201.4313, 3441.003
201.9134, 3221.887
202.3956, 3012.651
202.8777, 2818.646
203.3598, 2651.035
203.8419, 2517.781
204.3240, 2413.806
204.8061, 2320.286
205.2883, 2232.876
205.7704, 2157.262
206.2525, 2097.852
206.7346, 2051.201
207.2167, 2011.561
207.6988, 1976.836
208.1810, 1946.459
208.6631, 1919.857
209.1452, 1895.053
209.6273, 1875.542
210.1094, 1865.693
210.5915, 1860.944
211.0737, 1853.723
211.5558, 1840.669
212.0379, 1824.403
212.5200, 1811.416
213.0021, 1798.849
213.4842, 1793.411
213.9664, 1801.860
214.4485, 1816.428
214.9306, 1825.589
215.4127, 1824.788
215.8948, 1820.109
216.3769, 1823.917
216.8590, 1840.251
217.3412, 1857.804
217.8233, 1879.848
218.3054, 1900.873
218.7875, 1913.811
219.2696, 1916.575
219.7517, 1913.483
220.2339, 1911.677
220.7160, 1914.194
221.1981, 1911.459
221.6802, 1901.076
222.1623, 1886.403
222.6444, 1871.870
223.1266, 1858.222
223.6087, 1841.113
224.0908, 1814.600
224.5729, 1775.277
225.0550, 1732.983
225.5371, 1686.714
226.0193, 1638.271
226.5014, 1586.334
226.9835, 1531.786
227.4656, 1479.727
227.9477, 1436.510
228.4298, 1405.195
228.9120, 1370.624
229.3941, 1329.779
229.8762, 1288.223
230.3583, 1247.971
230.8404, 1209.887
231.3225, 1175.791
231.8047, 1148.070
232.2868, 1127.927
232.7689, 1104.493
233.2510, 1071.808
233.7331, 1041.812
234.2152, 1020.334
234.6974, 1006.648
235.1795, 997.6919
235.6616, 991.7422
236.1437, 988.8988
236.6258, 980.9523
237.1079, 959.6110
237.5900, 942.4170
238.0722, 937.6147
238.5543, 941.5527
239.0364, 946.0148
239.5185, 945.8250
240.0006, 941.5157
240.4827, 937.2809
240.9649, 931.2784
241.4470, 927.4695
241.9291, 927.4744
242.4112, 929.9723
242.8933, 932.4148
243.3754, 933.3097
243.8576, 934.3552
244.3397, 941.7471
244.8218, 964.8332
245.3039, 982.8986
245.7860, 992.6135
246.2681, 997.3666
246.7503, 1000.690
247.2324, 1004.015
247.7145, 1006.747
248.1966, 1007.328
248.6787, 1002.918
249.1608, 1001.152
249.6430, 1003.764
250.1251, 1007.974
250.6072, 1012.720
251.0893, 1017.309
251.5714, 1019.832
252.0535, 1016.802
252.5357, 1005.097
253.0178, 995.4423
253.4999, 993.7349
253.9820, 989.5094
254.4641, 974.3670
254.9462, 948.8987
255.4284, 921.7764
255.9105, 903.0841
256.3926, 894.9606
256.8747, 883.1404
257.3568, 862.4518
257.8389, 842.5024
258.3210, 825.9294
258.8032, 813.1564
259.2853, 804.1405
259.7674, 799.5813
260.2495, 799.2634
260.7316, 798.3976
261.2137, 794.5016
261.6959, 793.2518
262.1780, 796.9941
262.6601, 804.5835
263.1422, 814.1951
263.6243, 825.7157
264.1064, 837.8907
264.5886, 845.8574
265.0707, 846.7252
265.5528, 848.8376
266.0349, 854.8170
266.5170, 863.5785
266.9991, 874.3806
267.4813, 887.4373
267.9634, 901.1711
268.4455, 911.8101
268.9276, 917.5826
269.4097, 927.4342
269.8918, 948.2662
270.3740, 972.8400
270.8561, 995.5911
271.3382, 1015.199
271.8203, 1034.163
272.3024, 1055.143
272.7845, 1078.120
273.2667, 1101.158
273.7488, 1123.160
274.2309, 1145.569
274.7130, 1169.287
275.1951, 1194.382
275.6772, 1220.825
276.1594, 1251.603
276.6415, 1284.211
277.1236, 1307.881
277.6057, 1316.735
278.0878, 1324.300
278.5699, 1345.933
279.0521, 1379.090
279.5342, 1408.454
280.0163, 1423.120
280.4984, 1432.608
280.9805, 1455.930
281.4626, 1497.516
281.9448, 1532.539
282.4269, 1534.301
282.9090, 1510.698
283.3911, 1499.956
283.8732, 1520.830
284.3553, 1545.660
284.8375, 1550.588
285.3196, 1536.951
285.8017, 1520.217
286.2838, 1508.214
286.7659, 1500.590
287.2480, 1494.721
287.7302, 1494.834
288.2123, 1491.898
288.6944, 1482.784
289.1765, 1467.905
289.6586, 1447.204
290.1407, 1419.855
290.6229, 1389.029
291.1050, 1362.326
291.5871, 1343.311
292.0692, 1321.369
292.5513, 1290.562
293.0334, 1258.166
293.5155, 1233.248
293.9977, 1217.883
294.4798, 1205.521
294.9619, 1187.001
295.4440, 1157.466
295.9261, 1135.983
296.4082, 1128.059
296.8904, 1123.110
297.3725, 1115.471
297.8546, 1104.517
298.3367, 1091.364
298.8188, 1076.347
299.3009, 1058.893
299.7831, 1048.364
300.2652, 1051.674
300.7473, 1054.339
301.2294, 1052.237
301.7115, 1046.463
302.1936, 1039.619
302.6758, 1033.325
303.1579, 1026.935
303.6400, 1017.975
304.1221, 1006.711
304.6042, 992.1670
305.0863, 969.5706
305.5685, 946.3407
306.0506, 932.1494
306.5327, 930.1318
307.0148, 929.7706
307.4969, 911.3698
307.9790, 866.7111
308.4612, 835.3641
308.9433, 838.2952
309.4254, 844.9008
309.9075, 838.1301
310.3896, 817.0871
310.8717, 792.1256
311.3539, 771.6650
311.8360, 755.2985
312.3181, 738.1516
312.8002, 719.2920
313.2823, 700.5781
313.7644, 682.9621
314.2466, 666.2894
314.7287, 650.2086
315.2108, 634.5040
315.6929, 619.2427
316.1750, 603.4850
316.6571, 586.4092
317.1393, 573.5124
317.6214, 572.1336
318.1035, 575.6504
318.5856, 571.8661
319.0677, 555.3798
319.5498, 537.3289
320.0320, 525.5759
320.5141, 519.3198
320.9962, 515.6898
321.4783, 514.8890
321.9604, 514.4752
322.4425, 508.9370
322.9247, 496.2536
323.4068, 487.0613
323.8889, 487.6340
324.3710, 492.2084
324.8531, 493.0060
325.3352, 488.4339
325.8174, 481.3820
326.2995, 474.7050
326.7816, 468.5169
327.2637, 462.2315
327.7458, 453.7909
328.2279, 447.0281
328.7101, 444.5669
329.1922, 445.9358
329.6743, 448.7696
330.1564, 451.3184
330.6385, 454.0002
331.1206, 460.2484
331.6028, 478.2890
332.0849, 490.2873
332.5670, 489.2669
333.0491, 482.0970
333.5312, 477.3344
334.0133, 478.3283
334.4955, 482.1570
334.9776, 482.8207
335.4597, 476.8474
335.9418, 475.5409
336.4239, 482.2990
336.9060, 491.0349
337.3882, 499.0078
337.8703, 505.4425
338.3524, 509.8517
338.8345, 510.2433
339.3166, 506.6643
339.7987, 508.6737
340.2808, 521.8300
340.7629, 533.3091
341.2451, 536.0524
341.7272, 533.4794
342.2093, 532.2537
342.6914, 536.2018
343.1735, 542.3846
343.6556, 543.9012
344.1378, 539.0916
344.6199, 539.8854
345.1020, 557.3916
345.5841, 579.8638
346.0662, 593.3378
346.5483, 596.0251
347.0305, 591.9775
347.5126, 583.2324
347.9947, 569.8493
348.4768, 551.1850
348.9589, 525.8415
349.4410, 498.1832
349.9232, 470.9124
350.4053, 443.5333
350.8874, 425.4533
351.3695, 426.2062
351.8516, 431.7910
352.3337, 428.9693
352.8159, 417.5196
353.2980, 404.9704
353.7801, 396.5066
354.2622, 391.8310
354.7443, 387.9141
355.2264, 384.4583
355.7086, 381.9079
356.1907, 382.2227
356.6728, 383.0471
357.1549, 380.1750
357.6370, 371.9476
358.1191, 361.5189
358.6013, 355.1523
359.0834, 355.2318
359.5655, 355.2231
360.0476, 354.8620
360.5297, 354.6236
361.0118, 354.6954
361.4940, 355.1602
361.9761, 356.0497
362.4582, 357.0423
362.9403, 358.2195
363.4224, 362.2809
363.9045, 371.7948
364.3867, 380.8348
364.8688, 388.8497
365.3509, 394.7395
365.8330, 396.3244
366.3151, 391.6123
366.7972, 384.8417
367.2794, 382.6853
367.7615, 385.5598
368.2436, 388.8887
368.7257, 393.2843
369.2078, 395.8633
369.6899, 392.2988
370.1721, 381.8900
370.6542, 374.2495
371.1363, 376.9349
371.6184, 385.5523
372.1005, 391.4637
372.5826, 393.5018
373.0648, 392.7543
373.5469, 388.3984
374.0290, 381.1104
374.5111, 378.7482
374.9932, 383.7404
375.4753, 391.7824
375.9575, 403.1100
376.4396, 415.7070
376.9217, 424.2714
377.4038, 425.9746
377.8859, 422.8407
378.3680, 419.9669
378.8502, 412.5399
379.3323, 412.3542
379.8144, 427.4753
380.2965, 444.8963
380.7786, 451.8938
381.2607, 447.8359
381.7429, 442.5203
382.2250, 446.1877
382.7071, 459.4300
383.1892, 473.6742
383.6713, 490.9027
384.1534, 507.1149
384.6355, 519.7012
385.1176, 530.7717
385.5998, 543.9013
386.0819, 561.0401
386.5640, 580.2076
387.0461, 597.0909
387.5282, 610.6595
388.0103, 627.1985
388.4925, 648.1729
388.9746, 673.1270
389.4567, 702.8813
389.9388, 737.4594
390.4209, 772.3248
390.9030, 802.4476
391.3852, 831.3524
391.8673, 868.1738
392.3494, 914.7309
392.8315, 963.7285
393.3136, 1007.029
393.7957, 1047.507
394.2779, 1099.416
394.7600, 1172.330
395.2421, 1248.546
395.7242, 1316.662
396.2063, 1380.886
396.6884, 1453.811
397.1706, 1541.505
397.6527, 1632.961
398.1348, 1706.376
398.6169, 1753.325
399.0990, 1796.331
399.5811, 1841.413
400.0633, 1878.297
400.5454, 1892.751
401.0275, 1889.775
401.5096, 1890.345
401.9917, 1912.021
402.4738, 1952.657
402.9560, 1992.430
403.4381, 2027.420
403.9202, 2067.008
404.4023, 2121.942
404.8844, 2178.268
405.3665, 2223.261
405.8487, 2253.324
406.3308, 2266.023
406.8129, 2261.711
407.2950, 2240.214
407.7771, 2187.551
408.2592, 2094.519
408.7414, 1977.999
409.2235, 1845.161
409.7056, 1700.195
410.1877, 1560.598
410.6698, 1428.040
411.1519, 1307.256
411.6341, 1202.916
412.1162, 1114.833
412.5983, 1041.042
413.0804, 982.8686
413.5625, 936.2103
414.0446, 889.2756
414.5268, 835.0762
415.0089, 792.1249
415.4910, 768.9307
415.9731, 755.5500
416.4552, 741.5431
416.9373, 725.0093
417.4195, 710.3723
417.9016, 702.9922
418.3837, 703.8130
418.8658, 698.4428
419.3479, 676.1660
419.8300, 659.2916
420.3122, 656.6961
420.7943, 661.9411
421.2764, 664.6082
421.7585, 659.9553
422.2406, 655.2877
422.7227, 665.2080
423.2049, 692.9656
423.6870, 712.8278
424.1691, 714.9563
424.6512, 713.2763
425.1333, 717.4214
425.6154, 726.8854
426.0976, 737.1744
426.5797, 742.4023
427.0618, 748.9032
427.5439, 769.7713
428.0260, 805.3398
428.5081, 836.8237
428.9902, 853.2369
429.4724, 859.3012
429.9545, 868.7388
430.4366, 880.7628
430.9187, 896.9402
431.4008, 918.3619
431.8829, 943.8929
432.3651, 973.8357
432.8472, 1007.650
433.3293, 1040.864
433.8114, 1068.698
434.2935, 1090.685
434.7756, 1115.576
435.2578, 1145.545
435.7399, 1175.883
436.2220, 1206.770
436.7041, 1236.882
437.1862, 1265.970
437.6683, 1293.964
438.1505, 1316.877
438.6326, 1326.177
439.1147, 1320.054
439.5968, 1317.162
440.0789, 1327.188
440.5610, 1332.662
441.0432, 1320.565
441.5253, 1293.972
442.0074, 1265.276
442.4895, 1242.086
442.9716, 1218.240
443.4537, 1183.668
443.9359, 1139.396
444.4180, 1097.254
444.9001, 1062.766
445.3822, 1033.734
445.8643, 1005.860
446.3464, 981.1585
446.8286, 952.4488
447.3107, 912.8871
447.7928, 872.6351
448.2749, 841.5881
448.7570, 819.9779
449.2391, 802.5583
449.7213, 785.3209
450.2034, 768.2385
450.6855, 749.5306
451.1676, 721.9176
451.6497, 703.1124
452.1318, 702.1707
452.6140, 707.3772
453.0961, 707.3733
453.5782, 699.4287
454.0603, 688.6168
454.5424, 678.5269
455.0245, 669.4456
455.5067, 665.4688
455.9888, 668.7573
456.4709, 673.3772
456.9530, 677.9206
457.4351, 680.7989
457.9172, 677.4816
458.3994, 660.7212
458.8815, 645.8602
459.3636, 645.7639
459.8457, 655.7509
460.3278, 664.0627
460.8099, 666.9965
461.2921, 667.9579
461.7742, 672.1801
462.2563, 682.2830
462.7384, 683.5722
463.2205, 669.7082
463.7026, 653.9767
464.1848, 642.4035
464.6669, 633.9029
465.1490, 625.4595
465.6311, 615.6777
466.1132, 604.5961
466.5953, 591.5157
467.0775, 574.8883
467.5596, 561.8209
468.0417, 556.1677
468.5238, 551.9229
469.0059, 545.6561
469.4880, 537.7075
469.9702, 530.3102
470.4523, 525.5341
470.9344, 521.4926
471.4165, 515.0805
471.8986, 506.3563
472.3807, 496.8015
472.8629, 486.8125
473.3449, 476.6599
473.8271, 466.3478
474.3092, 453.9386
474.7913, 447.0707
475.2734, 453.7244
475.7555, 461.8222
476.2376, 459.3973
476.7198, 447.2689
477.2019, 434.3750
477.6840, 426.9685
478.1661, 424.2000
478.6482, 421.7644
479.1303, 418.9913
479.6125, 417.7589
480.0946, 418.8924
480.5767, 421.0564
481.0588, 424.7021
481.5409, 429.1077
482.0230, 430.3073
482.5052, 421.9585
482.9873, 407.8177
483.4694, 401.3035
483.9515, 404.1537
484.4336, 407.6696
484.9157, 408.0351
485.3979, 405.7224
485.8800, 401.5677
486.3621, 393.1626
486.8442, 388.5480
487.3263, 394.6620
487.8084, 404.4137
488.2906, 408.7737
488.7727, 406.5667
489.2548, 401.8103
489.7369, 397.5891
490.2190, 393.9514
490.7011, 391.6870
491.1833, 394.6903
491.6654, 394.2107
492.1475, 383.8926
492.6296, 372.5081
493.1117, 369.7457
493.5938, 377.0589
494.0760, 386.8821
494.5581, 392.4283
495.0402, 394.0611
495.5223, 393.6249
496.0044, 390.0548
496.4865, 387.5739
496.9687, 390.6695
497.4508, 395.8636
497.9329, 396.1324
498.4150, 387.5964
498.8971, 381.1957
499.3792, 385.0702
499.8614, 393.4295
500.3435, 396.8478
500.8256, 393.8801
501.3077, 389.8887
501.7898, 389.5543
502.2719, 392.8042
502.7541, 396.8965
503.2362, 403.6421
503.7183, 409.0463
504.2004, 411.5609
504.6825, 412.9292
505.1646, 415.2945
505.6468, 418.9902
506.1289, 422.0335
506.6110, 421.2343
507.0931, 417.4543
507.5752, 418.2821
508.0573, 426.3623
508.5395, 432.0697
509.0216, 426.6776
509.5037, 416.5385
509.9858, 413.8987
510.4679, 423.8007
510.9500, 431.6722
511.4322, 429.1378
511.9143, 421.2251
512.3964, 414.1667
512.8785, 409.2138
513.3606, 406.4769
513.8427, 406.2573
514.3248, 408.3696
514.8069, 410.6962
515.2891, 415.5955
515.7712, 417.5704
516.2533, 412.9771
516.7354, 407.0729
517.2175, 405.2059
517.6996, 407.9301
518.1818, 411.0402
518.6639, 409.9989
519.1460, 406.1895
519.6281, 405.3115
520.1102, 407.8090
520.5923, 411.7021
521.0745, 418.5297
521.5566, 424.7145
522.0387, 422.6712
522.5208, 408.1073
523.0029, 398.0446
523.4850, 401.9740
523.9672, 410.6953
524.4493, 413.4896
524.9314, 410.5508
525.4135, 410.0931
525.8956, 418.4167
526.3777, 432.8687
526.8599, 442.0563
527.3420, 443.3704
527.8241, 443.8763
528.3062, 441.7875
528.7883, 441.2447
529.2704, 447.3530
529.7526, 458.6830
530.2347, 466.9758
530.7168, 464.8972
531.1989, 457.6991
531.6810, 455.0472
532.1631, 456.9095
532.6453, 460.3436
533.1274, 465.1722
533.6095, 469.6528
534.0916, 469.2437
534.5737, 461.2380
535.0558, 461.5278
535.5380, 482.9653
536.0201, 503.1963
536.5022, 503.9352
536.9843, 491.5925
537.4664, 483.7972
537.9485, 489.3319
538.4307, 501.7924
538.9128, 508.5490
539.3949, 508.4187
539.8770, 507.6675
540.3591, 504.9870
540.8412, 503.7715
541.3234, 508.8777
541.8055, 516.6962
542.2876, 517.7798
542.7697, 504.5760
543.2518, 490.5044
543.7339, 490.7821
544.2161, 499.7478
544.6982, 499.9225
545.1803, 486.5162
545.6624, 470.1416
546.1445, 461.8835
546.6266, 462.1765
547.1088, 463.2858
547.5909, 467.2064
548.0730, 469.4784
548.5551, 466.2800
549.0372, 462.1951
549.5193, 462.7524
550.0015, 469.1136
550.4836, 477.6932
550.9657, 486.8572
551.4478, 495.6953
551.9299, 497.6779
552.4120, 490.8478
552.8942, 483.7893
553.3763, 478.5249
553.8584, 476.9986
554.3405, 483.5837
554.8226, 502.7664
555.3047, 516.0250
555.7869, 515.1028
556.2690, 507.2892
556.7511, 496.4166
557.2332, 484.8716
557.7153, 479.2307
558.1974, 484.4988
558.6796, 495.1426
559.1617, 493.3130
559.6438, 471.0763
560.1259, 456.2407
560.6080, 458.7528
561.0901, 463.2915
561.5723, 463.3646
562.0544, 458.6944
562.5365, 449.9236
563.0186, 434.7968
563.5007, 418.7461
563.9828, 407.5480
564.4650, 400.5110
564.9471, 395.6504
565.4292, 392.8164
565.9113, 389.3258
566.3934, 381.3026
566.8755, 367.7826
567.3577, 360.7187
567.8398, 367.3248
568.3219, 370.9351
568.8040, 362.8542
569.2861, 351.3557
569.7682, 347.0698
570.2504, 352.0810
570.7325, 358.9057
571.2146, 359.9134
571.6967, 356.3310
572.1788, 354.5440
572.6609, 355.1374
573.1431, 354.8623
573.6252, 351.4268
574.1073, 346.6833
574.5894, 344.0206
575.0715, 343.4973
575.5536, 344.4984
576.0358, 349.8533
576.5179, 354.3120
577.0000, 350.6987
577.4821, 342.2266
577.9642, 339.7199
578.4464, 349.2927
578.9285, 363.9186
579.4106, 368.4732
579.8927, 360.6107
580.3748, 353.5378
580.8569, 348.2545
581.3391, 343.9867
581.8212, 338.5846
582.3033, 333.9236
582.7854, 334.5614
583.2675, 343.4222
583.7496, 354.4221
584.2318, 365.4795
584.7139, 375.2272
585.1959, 380.9320
585.6780, 382.1858
586.1602, 380.0754
586.6423, 374.7575
587.1244, 367.1053
587.6065, 364.0711
588.0886, 368.7314
588.5707, 373.3188
589.0529, 378.3493
589.5350, 381.8504
590.0171, 380.7798
590.4992, 376.2072
590.9813, 373.7112
591.4634, 377.6120
591.9456, 384.4808
592.4277, 391.0666
592.9098, 396.8236
593.3919, 396.9748
593.8740, 388.7884
594.3561, 379.5172
594.8383, 378.4661
595.3204, 387.0020
595.8025, 393.6072
596.2846, 398.1904
596.7667, 401.2710
597.2488, 401.7740
597.7310, 401.4890
598.2131, 402.7795
598.6952, 406.0641
599.1773, 409.3659
599.6594, 410.1142
600.1415, 409.3571
600.6237, 411.5837
601.1058, 417.2819
601.5879, 421.8597
602.0700, 422.8267
602.5521, 421.9954
603.0342, 422.6616
603.5164, 425.2135
603.9985, 427.4040
604.4806, 426.7123
604.9627, 427.7784
605.4448, 435.5484
605.9269, 446.6698
606.4091, 454.5425
606.8912, 456.4302
607.3733, 455.8916
607.8554, 457.6724
608.3375, 461.7036
608.8196, 466.3577
609.3018, 473.2388
609.7839, 476.2483
610.2660, 467.6669
610.7481, 454.5602
611.2302, 452.1685
611.7123, 465.6073
612.1945, 476.5706
612.6766, 477.7949
613.1587, 475.6048
613.6408, 474.3441
614.1229, 474.7931
614.6050, 477.5251
615.0872, 483.0089
615.5693, 489.7003
616.0514, 494.7972
616.5335, 498.2772
617.0156, 500.0673
617.4977, 499.5841
617.9799, 498.1923
618.4620, 495.2247
618.9441, 492.1899
619.4262, 492.5770
619.9083, 498.7959
620.3904, 504.5247
620.8726, 508.0118
621.3547, 508.7224
621.8368, 503.4079
622.3189, 493.6815
622.8010, 488.3887
623.2831, 494.2084
623.7653, 505.7086
624.2474, 505.5406
624.7295, 487.2301
625.2116, 480.0416
625.6937, 496.8816
626.1758, 514.8137
626.6580, 519.1440
627.1401, 513.7597
627.6222, 509.1715
628.1043, 508.6070
628.5864, 508.1004
629.0685, 505.6030
629.5507, 501.5262
630.0328, 495.8211
630.5149, 488.8359
630.9970, 482.4466
631.4791, 478.0063
631.9612, 475.3503
632.4434, 473.8701
632.9255, 473.4404
633.4076, 474.6367
633.8897, 481.4289
634.3718, 486.1004
634.8539, 482.0974
635.3361, 471.9291
635.8182, 464.0219
636.3003, 462.9889
636.7824, 461.6275
637.2645, 451.5752
637.7466, 439.1091
638.2288, 436.2906
638.7109, 444.2914
639.1930, 454.1031
639.6751, 458.9060
