##NAMES=Metauranocircite II
##RRUFFID=R070721
##IDEAL CHEMISTRY=Ba(UO_2_)_2_(PO_4_)_2_&#183;6H_2_O
##LOCALITY=Streuberg Quarry, Bergen, Falkenstein, Voigtland, Saxony, Germany
##OWNER=RRUFF
##SOURCE=James Shigley
##DESCRIPTION=Yellow platy crystals
##STATUS=The identification of this mineral has been confirmed by single-crystal X-ray diffraction.
##URL=rruff.info/R070721
93.77539, 834.3651
94.25751, 803.0493
94.73962, 818.0631
95.22174, 872.1049
95.70386, 938.9559
96.18597, 1012.339
96.66809, 1091.100
97.15021, 1170.274
97.63232, 1248.834
98.11444, 1334.019
98.59656, 1433.456
99.07867, 1547.535
99.56079, 1675.181
100.0429, 1814.599
100.5250, 1965.047
101.0071, 2131.021
101.4893, 2310.926
101.9714, 2506.759
102.4535, 2717.866
102.9356, 2945.425
103.4177, 3189.234
103.8998, 3447.614
104.3820, 3726.583
104.8641, 4011.686
105.3462, 4309.033
105.8283, 4613.672
106.3104, 4914.985
106.7925, 5209.182
107.2747, 5501.330
107.7568, 5791.321
108.2389, 6090.681
108.7210, 6376.308
109.2031, 6640.508
109.6852, 6883.976
110.1674, 7136.636
110.6495, 7390.730
111.1316, 7659.891
111.6137, 7955.792
112.0958, 8281.550
112.5779, 8634.999
113.0601, 9014.880
113.5422, 9423.174
114.0243, 9865.688
114.5064, 10356.94
114.9885, 10877.25
115.4706, 11409.18
115.9528, 11963.00
116.4349, 12513.96
116.9170, 13041.57
117.3991, 13545.00
117.8812, 14048.33
118.3633, 14579.08
118.8455, 15116.18
119.3276, 15616.16
119.8097, 16056.65
120.2918, 16463.43
120.7739, 16851.60
121.2560, 17228.45
121.7382, 17585.53
122.2203, 17917.96
122.7024, 18226.41
123.1845, 18513.00
123.6666, 18770.10
124.1487, 19007.83
124.6309, 19241.25
125.1130, 19465.15
125.5951, 19689.88
126.0772, 19925.26
126.5593, 20170.67
127.0414, 20420.69
127.5236, 20661.30
128.0057, 20902.19
128.4878, 21171.86
128.9699, 21489.49
129.4520, 21833.35
129.9341, 22158.33
130.4162, 22463.08
130.8984, 22779.81
131.3805, 23149.11
131.8626, 23563.04
132.3447, 23981.78
132.8268, 24393.14
133.3089, 24797.60
133.7911, 25135.81
134.2732, 25332.29
134.7553, 25432.95
135.2374, 25548.39
135.7195, 25679.65
136.2016, 25796.95
136.6838, 25885.03
137.1659, 25944.41
137.6480, 26003.85
138.1301, 26068.50
138.6122, 26126.96
139.0943, 26156.52
139.5765, 26152.46
140.0586, 26141.41
140.5407, 26136.21
141.0228, 26138.75
141.5049, 26136.91
141.9870, 26132.32
142.4692, 26121.82
142.9513, 26094.87
143.4334, 26043.72
143.9155, 25989.73
144.3976, 25941.23
144.8797, 25892.81
145.3619, 25862.27
145.8440, 25855.58
146.3261, 25867.98
146.8082, 25877.12
147.2903, 25881.24
147.7724, 25883.83
148.2546, 25886.82
148.7367, 25887.45
149.2188, 25892.67
149.7009, 25901.35
150.1830, 25913.89
150.6651, 25938.29
151.1473, 25993.90
151.6294, 26049.82
152.1115, 26083.63
152.5936, 26090.41
153.0757, 26081.85
153.5578, 26045.46
154.0400, 25978.39
154.5221, 25944.12
155.0042, 25970.47
155.4863, 26018.42
155.9684, 26053.88
156.4505, 26074.94
156.9327, 26080.56
157.4148, 26062.86
157.8969, 26017.61
158.3790, 25983.72
158.8611, 25984.66
159.3432, 25994.97
159.8254, 25986.54
160.3075, 25929.91
160.7896, 25873.32
161.2717, 25837.54
161.7538, 25828.23
162.2359, 25819.83
162.7181, 25801.65
163.2002, 25780.37
163.6823, 25765.04
164.1644, 25768.73
164.6465, 25772.56
165.1286, 25763.32
165.6108, 25734.94
166.0929, 25711.48
166.5750, 25706.63
167.0571, 25713.94
167.5392, 25721.99
168.0213, 25731.52
168.5035, 25735.50
168.9856, 25724.63
169.4677, 25690.56
169.9498, 25661.46
170.4319, 25657.88
170.9140, 25673.46
171.3962, 25693.79
171.8783, 25724.79
172.3604, 25750.79
172.8425, 25753.54
173.3246, 25724.03
173.8067, 25685.44
174.2889, 25655.56
174.7710, 25633.16
175.2531, 25614.12
175.7352, 25593.36
176.2173, 25575.64
176.6994, 25568.82
177.1816, 25577.98
177.6637, 25592.02
178.1458, 25596.88
178.6279, 25594.62
179.1100, 25595.45
179.5921, 25611.30
180.0743, 25634.35
180.5564, 25648.65
181.0385, 25648.21
181.5206, 25641.10
182.0027, 25642.68
182.4848, 25650.98
182.9670, 25649.93
183.4491, 25616.07
183.9312, 25561.95
184.4133, 25525.09
184.8954, 25518.92
185.3775, 25527.91
185.8597, 25525.68
186.3418, 25512.33
186.8239, 25493.83
187.3060, 25470.89
187.7881, 25445.57
188.2702, 25429.00
188.7523, 25428.87
189.2345, 25435.65
189.7166, 25423.39
190.1987, 25391.25
190.6808, 25358.46
191.1629, 25345.49
191.6451, 25350.03
192.1272, 25349.30
192.6093, 25333.44
193.0914, 25311.07
193.5735, 25313.17
194.0556, 25343.29
194.5378, 25375.08
195.0199, 25377.82
195.5020, 25353.10
195.9841, 25338.75
196.4662, 25348.48
196.9483, 25374.97
197.4305, 25384.22
197.9126, 25371.68
198.3947, 25358.72
198.8768, 25367.97
199.3589, 25399.53
199.8410, 25435.61
200.3232, 25475.88
200.8053, 25516.79
201.2874, 25538.20
201.7695, 25536.85
202.2516, 25524.34
202.7337, 25509.51
203.2159, 25491.66
203.6980, 25480.27
204.1801, 25480.55
204.6622, 25491.07
205.1443, 25495.59
205.6264, 25494.42
206.1086, 25487.98
206.5907, 25475.36
207.0728, 25455.68
207.5549, 25436.56
208.0370, 25419.65
208.5191, 25405.03
209.0013, 25392.51
209.4834, 25382.15
209.9655, 25373.91
210.4476, 25369.21
210.9297, 25370.42
211.4118, 25366.60
211.8940, 25353.42
212.3761, 25331.40
212.8582, 25314.30
213.3403, 25300.77
213.8224, 25294.87
214.3045, 25303.30
214.7867, 25331.61
215.2688, 25357.94
215.7509, 25376.89
216.2330, 25388.30
216.7151, 25400.06
217.1972, 25408.57
217.6794, 25421.77
218.1615, 25452.12
218.6436, 25512.32
219.1257, 25555.17
219.6078, 25563.98
220.0899, 25538.43
220.5721, 25524.47
221.0542, 25524.85
221.5363, 25532.94
222.0184, 25543.40
222.5005, 25559.77
222.9826, 25569.81
223.4648, 25566.68
223.9469, 25550.06
224.4290, 25551.62
224.9111, 25581.71
225.3932, 25618.40
225.8753, 25639.24
226.3575, 25635.96
226.8396, 25634.79
227.3217, 25641.68
227.8038, 25656.91
228.2859, 25670.10
228.7680, 25680.17
229.2502, 25689.65
229.7323, 25701.25
230.2144, 25717.60
230.6965, 25731.14
231.1786, 25739.50
231.6607, 25742.76
232.1429, 25748.72
232.6250, 25757.65
233.1071, 25769.08
233.5892, 25782.65
234.0713, 25799.07
234.5534, 25815.99
235.0356, 25831.21
235.5177, 25844.83
235.9998, 25869.08
236.4819, 25917.98
236.9640, 25961.95
237.4461, 25970.08
237.9283, 25906.99
238.4104, 25879.45
238.8925, 25918.75
239.3746, 26020.22
239.8567, 26081.11
240.3388, 26081.68
240.8210, 26065.18
241.3031, 26064.12
241.7852, 26082.48
242.2673, 26108.36
242.7494, 26143.73
243.2315, 26187.32
243.7137, 26223.66
244.1958, 26255.57
244.6779, 26277.37
245.1600, 26282.51
245.6421, 26257.89
246.1242, 26244.21
246.6064, 26248.34
247.0885, 26267.97
247.5706, 26287.75
248.0527, 26309.55
248.5348, 26329.28
249.0169, 26343.46
249.4990, 26348.80
249.9812, 26357.14
250.4633, 26370.58
250.9454, 26388.16
251.4275, 26404.47
251.9096, 26417.57
252.3917, 26432.32
252.8739, 26451.86
253.3560, 26479.07
253.8381, 26503.15
254.3202, 26517.86
254.8023, 26529.36
255.2844, 26562.36
255.7666, 26628.34
256.2487, 26695.96
256.7308, 26749.33
257.2129, 26788.41
257.6950, 26811.77
258.1772, 26811.73
258.6593, 26798.25
259.1414, 26799.10
259.6235, 26820.03
260.1056, 26844.73
260.5877, 26866.52
261.0699, 26884.43
261.5520, 26900.99
262.0341, 26913.13
262.5162, 26925.89
262.9983, 26954.42
263.4804, 27010.94
263.9626, 27055.80
264.4447, 27065.64
264.9268, 27025.89
265.4089, 27020.97
265.8910, 27065.42
266.3731, 27131.20
266.8553, 27169.32
267.3374, 27171.18
267.8195, 27169.08
268.3016, 27173.92
268.7837, 27186.48
269.2658, 27199.61
269.7480, 27209.81
270.2301, 27225.59
270.7122, 27263.40
271.1943, 27330.94
271.6764, 27390.99
272.1585, 27428.82
272.6407, 27444.25
273.1228, 27457.68
273.6049, 27465.57
274.0870, 27476.58
274.5691, 27503.67
275.0512, 27549.99
275.5334, 27593.43
276.0155, 27626.14
276.4976, 27649.47
276.9797, 27682.94
277.4618, 27731.89
277.9439, 27776.52
278.4261, 27790.66
278.9081, 27770.35
279.3903, 27763.38
279.8724, 27786.76
280.3545, 27831.94
280.8366, 27857.44
281.3187, 27860.55
281.8008, 27858.02
282.2830, 27860.92
282.7651, 27869.33
283.2472, 27890.93
283.7293, 27933.47
284.2114, 27985.83
284.6935, 28007.67
285.1757, 27995.27
285.6578, 27987.54
286.1399, 28019.94
286.6220, 28088.66
287.1041, 28142.69
287.5862, 28171.12
288.0684, 28187.81
288.5505, 28224.07
289.0326, 28279.95
289.5147, 28332.58
289.9968, 28364.00
290.4789, 28378.20
290.9611, 28398.49
291.4432, 28428.13
291.9253, 28461.11
292.4074, 28489.09
292.8895, 28512.28
293.3716, 28530.60
293.8538, 28539.54
294.3359, 28543.45
294.8180, 28558.43
295.3001, 28586.93
295.7822, 28617.65
296.2643, 28635.35
296.7465, 28642.67
297.2286, 28651.51
297.7107, 28668.33
298.1928, 28690.47
298.6749, 28713.17
299.1570, 28736.86
299.6392, 28758.64
300.1213, 28768.95
300.6034, 28774.39
301.0855, 28792.25
301.5676, 28843.34
302.0497, 28901.50
302.5319, 28919.83
303.0140, 28901.02
303.4961, 28886.50
303.9782, 28912.70
304.4603, 28964.70
304.9424, 29018.61
305.4246, 29070.57
305.9067, 29117.03
306.3888, 29150.93
306.8709, 29173.85
307.3530, 29194.89
307.8351, 29223.24
308.3173, 29251.35
308.7994, 29267.39
309.2815, 29261.12
309.7636, 29259.14
310.2457, 29289.70
310.7278, 29342.76
311.2100, 29390.29
311.6921, 29415.54
312.1742, 29430.56
312.6563, 29442.23
313.1384, 29448.96
313.6205, 29464.34
314.1027, 29508.18
314.5848, 29565.36
315.0669, 29609.68
315.5490, 29614.19
316.0311, 29614.90
316.5132, 29634.97
316.9954, 29678.04
317.4775, 29721.14
317.9596, 29748.34
318.4417, 29771.55
318.9238, 29804.59
319.4059, 29857.70
319.8881, 29914.91
320.3702, 29975.25
320.8523, 30037.68
321.3344, 30083.14
321.8165, 30090.51
322.2986, 30086.68
322.7808, 30092.18
323.2629, 30113.17
323.7450, 30141.67
324.2271, 30188.12
324.7092, 30245.66
325.1913, 30280.51
325.6735, 30262.42
326.1556, 30239.74
326.6377, 30237.41
327.1198, 30274.71
327.6019, 30308.58
328.0840, 30332.91
328.5662, 30352.42
329.0483, 30379.44
329.5304, 30427.91
330.0125, 30470.65
330.4946, 30495.22
330.9767, 30486.77
331.4589, 30501.84
331.9410, 30559.51
332.4231, 30631.59
332.9052, 30678.31
333.3873, 30683.54
333.8694, 30687.44
334.3516, 30696.60
334.8337, 30710.25
335.3158, 30736.79
335.7979, 30781.34
336.2800, 30831.79
336.7621, 30876.09
337.2443, 30911.98
337.7264, 30948.77
338.2085, 30991.64
338.6906, 31037.24
339.1727, 31064.41
339.6548, 31065.86
340.1370, 31067.02
340.6191, 31087.26
341.1012, 31129.09
341.5833, 31171.49
342.0654, 31214.96
342.5475, 31255.29
343.0297, 31278.39
343.5118, 31281.57
343.9939, 31287.22
344.4760, 31310.76
344.9581, 31350.04
345.4402, 31378.84
345.9224, 31393.71
346.4045, 31405.29
346.8866, 31429.13
347.3687, 31464.30
347.8508, 31498.92
348.3329, 31527.54
348.8151, 31552.32
349.2972, 31579.46
349.7793, 31609.00
350.2614, 31639.68
350.7435, 31667.76
351.2256, 31695.45
351.7078, 31731.15
352.1899, 31784.35
352.6720, 31838.21
353.1541, 31864.60
353.6362, 31867.97
354.1183, 31873.41
354.6005, 31909.36
355.0826, 31954.45
355.5647, 31973.03
356.0468, 31946.87
356.5289, 31925.44
357.0110, 31958.76
357.4932, 32029.96
357.9753, 32099.77
358.4574, 32156.41
358.9395, 32198.69
359.4216, 32219.34
359.9037, 32215.57
360.3859, 32214.49
360.8680, 32232.77
361.3501, 32262.06
361.8322, 32292.15
362.3143, 32322.33
362.7964, 32349.77
363.2786, 32374.43
363.7607, 32395.85
364.2428, 32410.56
364.7249, 32406.21
365.2070, 32401.28
365.6891, 32408.69
366.1713, 32442.52
366.6534, 32474.23
367.1355, 32499.62
367.6176, 32519.36
368.0997, 32534.78
368.5818, 32541.62
369.0640, 32548.56
369.5461, 32557.50
370.0282, 32563.60
370.5103, 32586.01
370.9924, 32646.98
371.4745, 32715.51
371.9567, 32747.84
372.4388, 32704.77
372.9209, 32683.79
373.4030, 32713.38
373.8851, 32795.14
374.3672, 32856.34
374.8494, 32888.49
375.3315, 32911.63
375.8136, 32941.82
376.2957, 32981.85
376.7778, 33017.53
377.2599, 33043.98
377.7421, 33065.14
378.2242, 33093.77
378.7063, 33129.13
379.1884, 33171.66
379.6705, 33227.46
380.1526, 33297.09
380.6348, 33347.02
381.1169, 33375.66
381.5990, 33385.78
382.0811, 33372.07
382.5632, 33336.91
383.0453, 33313.23
383.5275, 33321.73
384.0096, 33351.01
384.4917, 33365.98
384.9738, 33366.72
385.4559, 33367.37
385.9380, 33381.18
386.4202, 33405.15
386.9023, 33433.36
387.3844, 33471.92
387.8665, 33503.36
388.3486, 33491.81
388.8307, 33449.24
389.3129, 33423.88
389.7950, 33455.29
390.2771, 33513.71
390.7592, 33569.73
391.2413, 33620.48
391.7234, 33661.48
392.2056, 33682.96
392.6877, 33692.91
393.1698, 33704.24
393.6519, 33712.72
394.1340, 33731.61
394.6161, 33780.26
395.0983, 33857.16
395.5804, 33910.19
396.0625, 33897.58
396.5446, 33866.94
397.0267, 33854.06
397.5089, 33876.81
397.9910, 33905.00
398.4731, 33935.41
398.9552, 33967.64
399.4373, 34000.48
399.9194, 34040.17
400.4016, 34074.71
400.8837, 34097.24
401.3658, 34100.13
401.8479, 34115.28
402.3300, 34157.70
402.8121, 34202.96
403.2942, 34218.80
403.7763, 34182.32
404.2585, 34161.25
404.7406, 34176.37
405.2227, 34222.83
405.7048, 34244.82
406.1869, 34232.19
406.6690, 34217.93
407.1512, 34229.14
407.6333, 34270.16
408.1154, 34300.09
408.5975, 34313.13
409.0796, 34316.26
409.5617, 34322.18
410.0439, 34330.71
410.5260, 34341.27
411.0081, 34349.29
411.4902, 34357.75
411.9723, 34382.66
412.4544, 34425.02
412.9366, 34473.98
413.4187, 34527.45
413.9008, 34580.33
414.3829, 34615.62
414.8650, 34618.27
415.3471, 34613.54
415.8293, 34645.01
416.3114, 34703.04
416.7935, 34740.83
417.2756, 34707.41
417.7577, 34650.10
418.2398, 34621.26
418.7220, 34633.93
419.2041, 34652.33
419.6862, 34656.12
420.1683, 34652.14
420.6504, 34650.54
421.1325, 34649.35
421.6147, 34657.22
422.0968, 34684.18
422.5789, 34729.49
423.0610, 34765.78
423.5431, 34774.61
424.0252, 34779.20
424.5074, 34794.93
424.9895, 34833.39
425.4716, 34869.20
425.9537, 34897.47
426.4358, 34921.55
426.9179, 34949.39
427.4001, 34981.18
427.8822, 35015.72
428.3643, 35055.12
428.8464, 35101.80
429.3285, 35132.63
429.8106, 35139.23
430.2928, 35141.00
430.7749, 35159.70
431.2570, 35201.20
431.7391, 35235.50
432.2212, 35258.23
432.7033, 35270.29
433.1855, 35270.75
433.6676, 35258.13
434.1497, 35247.65
434.6318, 35249.18
435.1139, 35261.27
435.5960, 35274.14
436.0782, 35286.78
436.5603, 35303.80
437.0424, 35338.01
437.5245, 35382.80
438.0066, 35414.88
438.4887, 35420.93
438.9709, 35413.54
439.4530, 35402.63
439.9351, 35390.30
440.4172, 35390.50
440.8993, 35426.07
441.3814, 35472.70
441.8636, 35502.81
442.3457, 35506.41
442.8278, 35508.90
443.3099, 35521.15
443.7920, 35542.63
444.2741, 35572.66
444.7563, 35636.13
445.2384, 35684.49
445.7205, 35687.76
446.2026, 35645.19
446.6847, 35618.00
447.1668, 35625.54
447.6490, 35647.37
448.1311, 35670.96
448.6132, 35704.40
449.0953, 35726.97
449.5774, 35730.54
450.0595, 35724.86
450.5417, 35730.89
451.0238, 35751.87
451.5059, 35778.99
451.9880, 35812.66
452.4701, 35853.93
452.9522, 35880.70
453.4344, 35888.48
453.9165, 35893.07
454.3986, 35911.52
454.8807, 35944.78
455.3628, 35970.41
455.8449, 35983.91
456.3271, 35989.59
456.8092, 35994.06
457.2913, 35997.63
457.7734, 36004.64
458.2555, 36020.25
458.7376, 36040.51
459.2198, 36056.29
459.7019, 36067.10
460.1840, 36078.83
460.6661, 36098.38
461.1482, 36122.41
461.6303, 36144.60
462.1125, 36159.63
462.5946, 36177.59
463.0767, 36207.25
463.5588, 36246.20
464.0409, 36286.61
464.5230, 36337.98
465.0052, 36379.11
465.4873, 36388.65
465.9694, 36355.54
466.4515, 36342.37
466.9336, 36378.91
467.4157, 36435.00
467.8979, 36482.23
468.3800, 36510.07
468.8621, 36536.84
469.3442, 36566.16
469.8263, 36595.73
470.3084, 36616.31
470.7906, 36620.57
471.2727, 36627.56
471.7548, 36646.79
472.2369, 36681.31
472.7190, 36713.00
473.2011, 36743.85
473.6833, 36770.27
474.1654, 36785.96
474.6475, 36790.46
475.1296, 36796.69
475.6117, 36807.23
476.0938, 36820.99
476.5760, 36831.43
477.0581, 36839.23
477.5402, 36858.10
478.0223, 36909.57
478.5044, 36974.44
478.9865, 37011.72
479.4687, 37016.50
479.9508, 37016.25
480.4329, 37036.13
480.9150, 37066.62
481.3971, 37093.58
481.8792, 37113.53
482.3614, 37128.52
482.8435, 37136.84
483.3256, 37141.29
483.8077, 37149.48
484.2898, 37168.90
484.7719, 37189.88
485.2541, 37207.09
485.7362, 37218.36
486.2183, 37232.93
486.7004, 37252.85
487.1825, 37275.77
487.6646, 37299.71
488.1468, 37325.81
488.6289, 37348.43
489.1110, 37358.93
489.5931, 37365.79
490.0752, 37405.02
490.5573, 37493.71
491.0395, 37572.23
491.5216, 37608.99
492.0037, 37602.99
492.4858, 37613.30
492.9679, 37641.47
493.4500, 37680.14
493.9322, 37728.47
494.4143, 37783.46
494.8964, 37819.45
495.3785, 37822.45
495.8606, 37819.45
496.3427, 37858.61
496.8249, 37929.21
497.3070, 37992.29
497.7891, 38024.01
498.2712, 38037.30
498.7533, 38037.87
499.2354, 38025.97
499.7176, 38025.15
500.1997, 38054.32
500.6818, 38098.88
501.1639, 38146.43
501.6460, 38207.36
502.1281, 38253.02
502.6103, 38261.20
503.0924, 38250.21
503.5745, 38258.45
504.0566, 38316.91
504.5387, 38369.25
505.0208, 38399.00
505.5030, 38405.12
505.9851, 38416.91
506.4672, 38436.46
506.9493, 38458.95
507.4314, 38480.85
507.9135, 38501.79
508.3957, 38524.14
508.8778, 38548.85
509.3599, 38573.02
509.8420, 38587.04
510.3241, 38591.01
510.8062, 38607.90
511.2884, 38652.70
511.7705, 38713.04
512.2526, 38758.80
512.7347, 38790.98
513.2168, 38818.62
513.6989, 38842.33
514.1810, 38867.87
514.6631, 38907.40
515.1453, 38967.02
515.6274, 39019.98
516.1095, 39039.91
516.5916, 39045.23
517.0737, 39060.47
517.5558, 39108.37
518.0380, 39152.98
518.5201, 39174.04
519.0022, 39178.36
519.4843, 39199.05
519.9664, 39267.46
520.4485, 39329.75
520.9307, 39360.37
521.4128, 39347.18
521.8949, 39352.84
522.3770, 39384.24
522.8591, 39426.54
523.3412, 39465.04
523.8234, 39496.51
524.3055, 39536.70
524.7876, 39591.65
525.2697, 39652.50
525.7518, 39695.16
526.2339, 39720.04
526.7161, 39747.23
527.1982, 39793.49
527.6803, 39848.51
528.1624, 39878.04
528.6445, 39883.29
529.1266, 39898.69
529.6088, 39970.87
530.0909, 40063.80
530.5730, 40124.35
531.0551, 40135.71
531.5372, 40132.43
532.0193, 40122.75
532.5015, 40115.30
532.9836, 40123.65
533.4657, 40173.97
533.9478, 40218.07
534.4299, 40228.96
534.9120, 40211.92
535.3942, 40222.34
535.8763, 40292.04
536.3584, 40363.84
536.8405, 40415.15
537.3226, 40444.37
537.8047, 40457.82
538.2869, 40446.79
538.7690, 40432.90
539.2511, 40443.97
539.7332, 40483.06
540.2153, 40516.95
540.6974, 40538.27
541.1796, 40552.89
541.6617, 40573.46
542.1438, 40599.26
542.6259, 40623.80
543.1080, 40634.34
543.5901, 40644.75
544.0723, 40685.04
544.5544, 40753.27
545.0365, 40816.45
545.5186, 40841.41
546.0007, 40853.18
546.4828, 40882.22
546.9650, 40949.35
547.4471, 40994.87
547.9292, 40964.72
548.4113, 40907.04
548.8934, 40888.30
549.3755, 40959.84
549.8577, 41028.75
550.3398, 41073.29
550.8219, 41099.20
551.3040, 41136.28
551.7861, 41192.17
552.2682, 41247.73
552.7504, 41295.46
553.2325, 41335.16
553.7146, 41366.48
554.1967, 41387.70
554.6788, 41405.07
555.1609, 41424.25
555.6431, 41444.96
556.1252, 41467.18
556.6073, 41490.80
557.0894, 41516.80
557.5715, 41552.51
558.0536, 41592.82
558.5358, 41622.40
559.0179, 41619.62
559.5000, 41613.70
559.9821, 41628.52
560.4642, 41662.60
560.9464, 41704.68
561.4285, 41766.02
561.9106, 41821.31
562.3927, 41849.14
562.8748, 41832.65
563.3569, 41832.89
563.8391, 41871.05
564.3212, 41920.16
564.8033, 41958.02
565.2854, 41986.41
565.7675, 41997.32
566.2496, 41981.11
566.7318, 41952.74
567.2139, 41953.48
567.6960, 41988.07
568.1781, 42021.63
568.6602, 42041.57
569.1423, 42050.52
569.6245, 42054.71
570.1066, 42054.64
570.5887, 42052.31
571.0708, 42042.32
571.5529, 42033.27
572.0350, 42041.11
572.5172, 42069.63
572.9993, 42102.58
573.4814, 42136.22
573.9635, 42164.02
574.4456, 42177.45
574.9277, 42149.60
575.4099, 42133.27
575.8920, 42155.70
576.3741, 42200.85
576.8562, 42224.64
577.3383, 42212.05
577.8204, 42191.09
578.3026, 42163.45
578.7847, 42130.19
579.2668, 42117.95
579.7489, 42134.61
580.2310, 42154.55
580.7131, 42155.79
581.1953, 42138.91
581.6774, 42145.20
582.1595, 42181.52
582.6416, 42220.68
583.1237, 42225.32
583.6058, 42205.43
584.0880, 42190.34
584.5701, 42191.01
585.0522, 42194.29
585.5343, 42190.09
586.0164, 42178.07
586.4985, 42158.06
586.9807, 42108.27
587.4628, 42069.55
587.9449, 42068.80
588.4270, 42105.23
588.9091, 42140.87
589.3912, 42199.70
589.8734, 42229.64
590.3555, 42196.55
590.8376, 42066.84
