##NAMES=Metatorbernite
##RRUFFID=R140872
##IDEAL CHEMISTRY=Cu^2+^(U^6+^O_2_)_2_(PO_4_)_2_&#183;8H_2_O
##LOCALITY=Roland mine, Wölsendorf East District, Wölsendorf Fluorite mining District, Schwandorf, Upper Palatinate, Bavaria, Germany
##OWNER=RRUFF
##SOURCE=Stefan Schorn
##DESCRIPTION=Green platy crystals, associated with fluorite, quartz, chrysocolla, and chalcopyrite.
##STATUS=The identification of this mineral has been confirmed by single-crystal X-ray diffraction.
##URL=rruff.info/R140872
124.9777, 257.2838
125.4598, 256.4726
125.9420, 255.5572
126.4241, 254.7017
126.9062, 253.8736
127.3883, 253.0132
127.8704, 252.0901
128.3525, 251.1466
128.8347, 250.2789
129.3168, 249.4754
129.7989, 248.6210
130.2810, 247.4933
130.7631, 246.1964
131.2452, 245.1119
131.7274, 244.3472
132.2095, 243.8565
132.6916, 243.5800
133.1737, 243.5446
133.6558, 243.5449
134.1379, 243.3805
134.6201, 243.0549
135.1022, 242.6736
135.5843, 242.2471
136.0664, 241.7861
136.5485, 241.3987
137.0306, 241.1095
137.5128, 240.8308
137.9949, 240.3779
138.4770, 239.6727
138.9591, 239.1794
139.4412, 239.1700
139.9233, 239.7093
140.4055, 239.7561
140.8876, 239.1090
141.3697, 238.1642
141.8518, 237.5823
142.3339, 237.4860
142.8160, 237.4734
143.2982, 237.4331
143.7803, 237.4138
144.2624, 237.1826
144.7445, 236.5667
145.2266, 235.7950
145.7087, 235.4661
146.1909, 236.0738
146.6730, 236.4944
147.1551, 236.2343
147.6372, 234.5987
148.1193, 233.4744
148.6014, 233.1268
149.0836, 233.3300
149.5657, 233.2852
150.0478, 232.8487
150.5299, 232.2838
151.0120, 231.6985
151.4941, 230.8387
151.9763, 230.2589
152.4584, 230.1609
152.9405, 230.4245
153.4226, 230.4444
153.9047, 229.7858
154.3868, 229.1219
154.8690, 228.8186
155.3511, 229.6921
155.8332, 230.1014
156.3153, 229.5193
156.7974, 228.0797
157.2795, 226.8788
157.7617, 226.2371
158.2438, 225.8772
158.7259, 225.5993
159.2080, 225.6108
159.6901, 225.4633
160.1722, 224.9020
160.6544, 223.9542
161.1365, 223.1558
161.6186, 222.5972
162.1007, 222.3181
162.5828, 222.3422
163.0649, 223.0683
163.5471, 223.7755
164.0292, 224.1491
164.5113, 224.1750
164.9934, 223.9929
165.4755, 223.4067
165.9576, 222.7140
166.4398, 222.2901
166.9219, 222.4716
167.4040, 222.8244
167.8861, 223.0959
168.3682, 223.2752
168.8503, 223.3687
169.3325, 223.3571
169.8146, 223.2665
170.2967, 223.1401
170.7788, 222.8913
171.2609, 222.6761
171.7430, 222.5847
172.2252, 222.6064
172.7073, 222.8992
173.1894, 223.7950
173.6715, 225.0801
174.1536, 226.2417
174.6357, 226.8966
175.1179, 227.3699
175.6000, 228.0672
176.0821, 229.0353
176.5642, 230.1085
177.0463, 231.1860
177.5284, 232.2525
178.0106, 233.2435
178.4927, 234.0750
178.9748, 234.8259
179.4569, 235.5972
179.9390, 236.3996
180.4211, 237.2533
180.9033, 238.1574
181.3854, 239.1345
181.8675, 240.2552
182.3496, 241.7645
182.8317, 243.4391
183.3138, 244.7424
183.7960, 245.4999
184.2781, 246.1743
184.7602, 247.3519
185.2423, 249.0224
185.7244, 251.0047
186.2065, 253.4759
186.6887, 256.2375
187.1708, 258.4703
187.6529, 259.8941
188.1350, 261.1494
188.6171, 263.4299
189.0992, 266.7288
189.5814, 270.0760
190.0635, 272.9554
190.5456, 275.4092
191.0277, 277.4859
191.5098, 279.2461
191.9919, 280.5829
192.4741, 281.1745
192.9562, 281.0067
193.4383, 280.4226
193.9204, 279.7546
194.4025, 278.9685
194.8846, 277.5044
195.3668, 275.3258
195.8489, 272.3999
196.3310, 268.4198
196.8131, 263.2692
197.2952, 257.9644
197.7773, 252.9685
198.2595, 248.2985
198.7416, 244.2410
199.2237, 240.9057
199.7058, 238.1900
200.1879, 235.9213
200.6700, 234.1166
201.1522, 232.5982
201.6343, 231.2193
202.1164, 229.9624
202.5985, 229.0426
203.0806, 228.5249
203.5627, 228.3471
204.0449, 228.3734
204.5270, 228.6554
205.0091, 228.9668
205.4912, 229.1220
205.9733, 229.0765
206.4554, 229.1321
206.9376, 229.3181
207.4197, 229.6304
207.9018, 230.0623
208.3839, 230.6172
208.8660, 231.2903
209.3481, 232.0861
209.8303, 233.0288
210.3124, 234.0047
210.7945, 234.9710
211.2766, 235.9671
211.7587, 237.2475
212.2408, 238.9686
212.7230, 240.6550
213.2051, 241.9958
213.6872, 242.9122
214.1693, 243.7075
214.6514, 244.2439
215.1335, 244.6791
215.6157, 245.7800
216.0978, 247.7719
216.5799, 250.0171
217.0620, 252.1757
217.5441, 254.3190
218.0262, 256.1596
218.5084, 257.6352
218.9905, 258.8020
219.4726, 259.9023
219.9547, 261.0615
220.4368, 261.9797
220.9189, 262.4054
221.4011, 262.1344
221.8832, 261.9629
222.3653, 262.1264
222.8474, 262.4496
223.3295, 262.1292
223.8116, 261.1005
224.2938, 259.5553
224.7759, 257.5484
225.2580, 254.9302
225.7401, 252.2291
226.2222, 249.3786
226.7043, 246.4682
227.1865, 243.7445
227.6686, 241.2739
228.1507, 238.9659
228.6328, 236.8294
229.1149, 234.9886
229.5970, 233.0188
230.0792, 230.7848
230.5613, 228.4066
231.0434, 226.4709
231.5255, 225.2793
232.0076, 224.1296
232.4897, 222.6132
232.9719, 220.4083
233.4540, 218.5867
233.9361, 217.2718
234.4182, 216.3583
234.9003, 215.4509
235.3824, 214.5019
235.8646, 213.6268
236.3467, 212.8874
236.8288, 212.3266
237.3109, 211.7938
237.7930, 211.2476
238.2751, 210.7258
238.7573, 210.3937
239.2394, 210.4272
239.7215, 210.3862
240.2036, 210.0231
240.6857, 209.0468
241.1678, 208.4122
241.6500, 208.2492
242.1321, 208.3904
242.6142, 208.3905
243.0963, 208.0833
243.5784, 207.8825
244.0605, 208.0220
244.5427, 208.7809
245.0248, 209.1567
245.5069, 209.0311
245.9890, 208.5718
246.4711, 208.1194
246.9532, 207.5811
247.4354, 207.2002
247.9175, 207.0551
248.3996, 207.1208
248.8817, 207.5589
249.3638, 208.6804
249.8459, 210.0040
250.3281, 210.5853
250.8102, 210.0337
251.2923, 209.4290
251.7744, 209.1928
252.2565, 209.5078
252.7386, 209.4182
253.2208, 208.7713
253.7029, 207.8328
254.1850, 207.0039
254.6671, 206.3378
255.1492, 205.6650
255.6313, 204.9014
256.1135, 204.0044
256.5956, 203.3039
257.0777, 202.8490
257.5598, 202.5435
258.0419, 202.2474
258.5240, 201.8961
259.0062, 201.7112
259.4883, 201.8585
259.9704, 202.3837
260.4525, 202.4467
260.9346, 201.8321
261.4167, 201.0240
261.8989, 200.5939
262.3810, 200.6731
262.8631, 200.7972
263.3452, 200.8477
263.8273, 200.8296
264.3094, 200.9643
264.7916, 201.3225
265.2737, 201.7327
265.7558, 202.0403
266.2379, 202.2347
266.7200, 202.3632
267.2021, 202.4416
267.6843, 202.4653
268.1664, 202.3258
268.6485, 201.8755
269.1306, 201.5638
269.6127, 201.9011
270.0948, 203.0992
270.5770, 203.9420
271.0591, 204.0795
271.5412, 203.7073
272.0233, 203.8595
272.5054, 204.7115
272.9875, 205.5947
273.4697, 205.9147
273.9518, 205.5338
274.4339, 205.5659
274.9160, 206.3106
275.3981, 207.4516
275.8802, 207.9236
276.3624, 207.5345
276.8445, 207.2114
277.3266, 207.6980
277.8087, 209.0784
278.2908, 209.9822
278.7729, 210.1727
279.2551, 209.9797
279.7372, 210.1755
280.2193, 210.8217
280.7014, 211.4677
281.1835, 211.9218
281.6656, 212.1839
282.1478, 212.1096
282.6299, 211.5266
283.1120, 210.9413
283.5941, 211.3852
284.0762, 212.9161
284.5583, 214.3604
285.0405, 215.2001
285.5226, 215.4765
286.0047, 215.5094
286.4868, 215.2513
286.9689, 214.9138
287.4510, 214.8587
287.9332, 215.0641
288.4153, 215.0942
288.8974, 214.7605
289.3795, 214.1147
289.8616, 213.2463
290.3438, 212.1083
290.8259, 211.0707
291.3080, 210.6843
291.7901, 210.8364
292.2722, 210.8262
292.7543, 210.3896
293.2365, 209.6613
293.7186, 208.9676
294.2007, 208.3166
294.6828, 207.5686
295.1649, 206.3941
295.6470, 204.9902
296.1292, 204.0009
296.6113, 203.7574
297.0934, 203.8460
297.5755, 203.6202
298.0576, 203.0998
298.5397, 202.5114
299.0219, 201.9642
299.5040, 201.4694
299.9861, 201.0407
300.4682, 200.6493
300.9503, 200.3940
301.4324, 200.6422
301.9146, 201.2253
302.3967, 201.4397
302.8788, 200.3697
303.3609, 198.8066
303.8430, 197.9981
304.3251, 198.2585
304.8073, 198.7244
305.2894, 198.5309
305.7715, 197.9120
306.2536, 197.4341
306.7357, 197.6836
307.2178, 198.0648
307.7000, 197.8544
308.1821, 196.9310
308.6642, 196.0406
309.1463, 195.7969
309.6284, 195.9343
310.1105, 196.0388
310.5927, 195.9191
311.0748, 195.7141
311.5569, 195.5604
312.0390, 195.4576
312.5211, 195.2081
313.0032, 194.5432
313.4854, 193.7327
313.9675, 193.0722
314.4496, 192.8049
314.9317, 192.5859
315.4138, 192.2414
315.8959, 191.7952
316.3781, 191.3750
316.8602, 191.0910
317.3423, 190.8300
317.8244, 190.5008
318.3065, 189.9714
318.7886, 189.5336
319.2708, 189.4117
319.7529, 189.4742
320.2350, 189.3511
320.7171, 188.6464
321.1992, 187.9431
321.6813, 187.5577
322.1635, 187.6936
322.6456, 187.7657
323.1277, 187.5775
323.6098, 187.2666
324.0919, 187.0630
324.5740, 187.0915
325.0562, 187.1519
325.5383, 187.2174
326.0204, 187.3264
326.5025, 187.2758
326.9846, 186.8454
327.4667, 186.3373
327.9489, 186.0695
328.4310, 186.3948
328.9131, 186.5725
329.3952, 186.4268
329.8773, 185.9484
330.3594, 185.6091
330.8416, 185.5333
331.3237, 185.4962
331.8058, 185.3292
332.2879, 184.8863
332.7700, 184.5558
333.2521, 184.3592
333.7343, 184.2939
334.2164, 184.3784
334.6985, 184.7343
335.1806, 185.0451
335.6627, 185.1060
336.1448, 184.7823
336.6270, 184.6313
337.1091, 184.7372
337.5912, 184.9709
338.0733, 185.0772
338.5554, 185.0440
339.0375, 184.9213
339.5197, 184.6900
340.0018, 184.3410
340.4839, 184.1054
340.9660, 184.0017
341.4481, 183.9800
341.9302, 183.9980
342.4124, 184.0593
342.8945, 184.0832
343.3766, 183.9399
343.8587, 183.7418
344.3408, 184.1013
344.8229, 185.0820
345.3051, 186.1746
345.7872, 186.9982
346.2693, 187.5517
346.7514, 187.8415
347.2335, 187.8633
347.7156, 187.6258
348.1978, 187.0549
348.6799, 186.1744
349.1620, 185.2640
349.6441, 184.5017
350.1262, 183.8515
350.6083, 183.1936
351.0905, 182.4711
351.5726, 181.8773
352.0547, 181.6701
352.5368, 181.7810
353.0189, 182.0037
353.5010, 182.2829
353.9832, 182.5925
354.4653, 182.9280
354.9474, 183.2948
355.4295, 183.5930
355.9116, 183.6651
356.3937, 183.6344
356.8759, 183.6816
357.3580, 183.6099
357.8401, 183.8557
358.3222, 184.9953
358.8043, 186.8720
359.2864, 188.4839
359.7686, 189.2388
360.2507, 189.5366
360.7328, 189.7093
361.2149, 189.8689
361.6970, 189.8545
362.1791, 189.3428
362.6613, 188.5987
363.1434, 188.2338
363.6255, 188.8826
364.1076, 189.5987
364.5897, 189.9857
365.0718, 189.9969
365.5540, 189.6536
366.0361, 188.7174
366.5182, 187.5094
367.0003, 186.4155
367.4824, 185.3361
367.9645, 184.5248
368.4467, 184.1000
368.9288, 184.0866
369.4109, 184.1012
369.8930, 184.1288
370.3751, 184.2019
370.8572, 184.3536
371.3394, 184.6891
371.8215, 184.9194
372.3036, 184.9417
372.7857, 184.8460
373.2678, 184.9675
373.7499, 185.4018
374.2321, 185.8812
374.7142, 186.2905
375.1963, 186.6335
375.6784, 186.8702
376.1605, 186.9324
376.6426, 186.9702
377.1248, 187.2751
377.6069, 187.9189
378.0890, 188.4025
378.5711, 188.4885
379.0532, 188.2497
379.5353, 188.2299
380.0175, 188.4596
380.4996, 188.7583
380.9817, 188.8741
381.4638, 188.8537
381.9459, 189.1195
382.4280, 189.8117
382.9102, 190.7575
383.3923, 191.6237
383.8744, 192.4257
384.3565, 193.2587
384.8386, 194.1873
385.3207, 195.1863
385.8029, 196.1466
386.2850, 197.0447
386.7671, 198.0210
387.2492, 199.1832
387.7313, 200.5397
388.2134, 202.0903
388.6956, 203.8524
389.1777, 205.7746
389.6598, 207.7888
390.1419, 209.8982
390.6240, 212.2498
391.1061, 215.1361
391.5883, 218.2541
392.0704, 221.2559
392.5525, 223.6172
393.0346, 226.4381
393.5167, 230.5210
393.9988, 235.5259
394.4810, 240.5338
394.9631, 244.9545
395.4452, 249.5119
395.9273, 254.6131
396.4094, 260.4551
396.8915, 266.3606
397.3737, 272.1622
397.8558, 277.9738
398.3379, 283.9351
398.8200, 291.0606
399.3021, 297.2599
399.7842, 302.2464
400.2664, 306.0161
400.7485, 308.4399
401.2306, 308.4752
401.7127, 308.1446
402.1948, 308.6562
402.6769, 310.0191
403.1591, 312.2413
403.6412, 315.5515
404.1233, 319.6107
404.6054, 323.9358
405.0875, 328.9219
405.5696, 332.9088
406.0518, 335.4316
406.5339, 336.5142
407.0160, 335.4328
407.4981, 332.2346
407.9802, 326.8120
408.4623, 318.4823
408.9445, 307.2536
409.4266, 295.4971
409.9087, 283.4869
410.3908, 271.6473
410.8729, 260.9892
411.3550, 251.4750
411.8372, 243.1682
412.3193, 236.2237
412.8014, 230.4258
413.2835, 225.2033
413.7656, 220.4286
414.2477, 216.2684
414.7299, 213.1135
415.2120, 210.7402
415.6941, 208.7019
416.1762, 206.8129
416.6583, 205.1114
417.1404, 203.6478
417.6226, 202.4039
418.1047, 201.3068
418.5868, 200.1570
419.0689, 199.1917
419.5510, 198.6479
420.0331, 198.9520
420.5153, 199.2052
420.9974, 199.0161
421.4795, 198.5174
421.9616, 198.0495
422.4437, 197.5716
422.9258, 197.2520
423.4080, 197.2102
423.8901, 197.5558
424.3722, 197.8166
424.8543, 197.8528
425.3364, 197.8446
425.8185, 197.9563
426.3007, 198.0938
426.7828, 198.5062
427.2649, 199.3472
427.7470, 200.5276
428.2291, 201.4693
428.7112, 202.0336
429.1934, 202.5848
429.6755, 203.3499
430.1576, 204.3718
430.6397, 205.3452
431.1218, 206.2250
431.6039, 207.1047
432.0861, 208.1199
432.5682, 209.2690
433.0503, 210.6124
433.5324, 212.3088
434.0145, 214.2008
434.4966, 215.6382
434.9788, 216.6066
435.4609, 217.6091
435.9430, 219.2514
436.4251, 221.2841
436.9072, 222.9968
437.3893, 224.2538
437.8715, 225.2172
438.3536, 226.0219
438.8357, 226.6759
439.3178, 227.2016
439.7999, 227.8222
440.2820, 228.1827
440.7642, 227.9363
441.2463, 227.0587
441.7284, 225.7999
442.2105, 224.1102
442.6926, 222.1795
443.1747, 220.1837
443.6569, 218.0301
444.1390, 215.9740
444.6211, 214.1514
445.1032, 212.4941
445.5853, 210.8636
446.0674, 209.2773
446.5496, 207.6644
447.0317, 205.9857
447.5138, 204.1944
447.9959, 202.4794
448.4780, 200.7468
448.9601, 199.1535
449.4423, 197.8486
449.9244, 196.9857
450.4065, 196.1061
450.8886, 195.0245
451.3707, 193.8879
451.8528, 193.3742
452.3350, 193.6728
452.8171, 194.0091
453.2992, 193.9863
453.7813, 193.5970
454.2634, 192.9384
454.7455, 191.8861
455.2277, 190.9405
455.7098, 190.9115
456.1919, 191.6604
456.6740, 192.2475
457.1561, 192.3055
457.6382, 192.0633
458.1204, 191.8302
458.6025, 191.6180
459.0846, 191.5212
459.5667, 191.6350
460.0488, 191.8921
460.5309, 192.2813
461.0131, 192.8726
461.4952, 193.2586
461.9773, 192.9226
462.4594, 192.2476
462.9415, 191.7890
463.4236, 192.0762
463.9058, 192.3286
464.3879, 192.1773
464.8700, 191.6518
465.3521, 191.1001
465.8342, 190.4165
466.3163, 189.8626
466.7985, 189.6146
467.2806, 190.0023
467.7627, 190.1055
468.2448, 189.7071
468.7269, 189.1021
469.2090, 188.7013
469.6912, 188.5785
470.1733, 188.5342
470.6554, 188.6207
471.1375, 188.7876
471.6196, 188.4576
472.1017, 187.4435
472.5839, 186.4541
473.0660, 186.0118
473.5481, 186.1253
474.0302, 186.2010
474.5123, 186.2275
474.9944, 186.1192
475.4766, 185.6956
475.9587, 184.9963
476.4408, 184.2512
476.9229, 183.4527
477.4050, 182.7359
477.8871, 182.4665
478.3693, 182.5892
478.8514, 182.5864
479.3335, 181.9528
479.8156, 181.0459
480.2977, 180.3067
480.7798, 179.8559
481.2620, 179.4297
481.7441, 178.8302
482.2262, 178.1658
482.7083, 177.5974
483.1904, 177.2487
483.6725, 176.9292
484.1547, 176.4878
484.6368, 175.9508
485.1189, 175.6838
485.6010, 176.1980
486.0831, 176.6286
486.5652, 176.4862
487.0474, 175.2422
487.5295, 174.5841
488.0116, 174.8301
488.4937, 175.4332
488.9758, 175.6174
489.4579, 175.2610
489.9401, 174.8428
490.4222, 174.4239
490.9043, 174.0383
491.3864, 173.8699
491.8685, 173.9490
492.3506, 174.0358
492.8328, 173.9539
493.3149, 173.7379
493.7970, 173.5310
494.2791, 173.3389
494.7612, 173.1859
495.2433, 173.1219
495.7255, 173.1194
496.2076, 173.1049
496.6897, 173.0433
497.1718, 172.9698
497.6539, 172.8456
498.1360, 172.7178
498.6182, 172.7667
499.1003, 173.3869
499.5824, 174.0136
500.0645, 174.2089
500.5466, 173.8445
501.0287, 173.4268
501.5109, 172.9472
501.9930, 172.5517
502.4751, 172.3929
502.9572, 172.6315
503.4393, 172.9436
503.9214, 173.3992
504.4036, 173.9065
504.8857, 174.1355
505.3678, 173.9348
505.8499, 173.7179
506.3320, 173.6214
506.8141, 173.6421
507.2963, 173.9156
507.7784, 174.5637
508.2605, 175.1497
508.7426, 175.1517
509.2247, 174.6098
509.7068, 174.1138
510.1890, 173.7339
510.6711, 173.5187
511.1532, 173.6728
511.6353, 174.1174
512.1174, 174.4736
512.5995, 174.4877
513.0817, 174.3383
513.5638, 174.2088
514.0459, 174.1063
514.5280, 174.0529
515.0101, 174.1188
515.4922, 174.2128
515.9744, 174.2564
516.4565, 174.2538
516.9386, 174.1638
517.4207, 173.8579
517.9028, 173.4808
518.3849, 173.2686
518.8671, 173.3204
519.3492, 173.4797
519.8313, 173.7598
520.3134, 174.1446
520.7955, 174.4374
521.2776, 174.6191
521.7598, 174.7337
522.2419, 174.7778
522.7240, 174.7186
523.2061, 174.7744
523.6882, 174.9839
524.1703, 175.2324
524.6525, 175.4386
525.1346, 175.5928
525.6167, 175.4473
526.0988, 174.7566
526.5809, 173.9439
527.0630, 173.8114
527.5452, 174.2889
528.0273, 174.9536
528.5094, 175.8708
528.9915, 176.6752
529.4736, 176.8413
529.9557, 176.3097
530.4379, 175.7860
530.9200, 175.5295
531.4021, 175.5615
531.8842, 175.9407
532.3663, 177.2427
532.8484, 178.0768
533.3306, 177.6733
533.8127, 176.5916
534.2948, 176.0258
534.7769, 176.5379
535.2590, 177.0281
535.7411, 177.2305
536.2233, 177.1568
536.7054, 177.2154
537.1875, 177.5295
537.6696, 177.7435
538.1517, 177.5001
538.6339, 176.7358
539.1160, 176.4839
539.5981, 176.9062
540.0802, 177.5526
540.5623, 177.8842
541.0444, 177.9272
541.5266, 177.8164
542.0087, 177.4657
542.4908, 177.1291
542.9729, 177.3731
543.4550, 178.0166
543.9371, 178.3485
544.4193, 177.5650
544.9014, 176.5657
545.3835, 176.1391
545.8656, 176.3759
546.3477, 176.6569
546.8298, 176.6422
547.3120, 176.6134
547.7941, 176.8074
548.2762, 177.5956
548.7583, 178.1470
549.2404, 178.2794
549.7225, 178.1751
550.2047, 178.1616
550.6868, 178.4048
551.1689, 178.3943
551.6510, 177.8672
552.1331, 176.9557
552.6152, 176.6167
553.0974, 176.9552
553.5795, 177.3562
554.0616, 177.3812
554.5437, 177.1049
555.0258, 176.9716
555.5079, 177.0264
555.9901, 177.0870
556.4722, 176.9292
556.9543, 176.6401
557.4364, 176.3912
557.9185, 176.2090
558.4006, 176.1188
558.8828, 176.2310
559.3649, 176.4463
559.8470, 176.5386
560.3291, 176.1814
560.8112, 175.8875
561.2933, 175.9202
561.7755, 176.2897
562.2576, 176.6368
562.7397, 177.1099
563.2218, 177.3734
563.7039, 177.2037
564.1860, 176.2859
564.6682, 175.7863
565.1503, 175.8756
565.6324, 176.1686
566.1145, 176.1277
566.5966, 175.7046
567.0787, 175.4494
567.5609, 175.5408
568.0430, 175.7982
568.5251, 175.8308
569.0072, 175.6604
569.4893, 175.4446
569.9714, 175.0765
570.4536, 174.8024
570.9357, 175.1846
571.4178, 176.1699
571.8999, 176.8790
572.3820, 176.3241
572.8641, 175.4672
573.3463, 175.2208
573.8284, 176.0051
574.3105, 176.6838
574.7926, 176.8564
575.2747, 176.7558
575.7568, 176.6738
576.2390, 176.6717
576.7211, 176.6304
577.2032, 176.4836
577.6853, 176.2920
578.1674, 176.2901
578.6495, 176.5464
579.1317, 176.7901
579.6138, 176.8566
580.0959, 176.7915
580.5780, 177.0664
581.0601, 177.7251
581.5422, 178.2772
582.0244, 178.1813
582.5065, 177.6733
582.9886, 177.3301
583.4707, 177.2286
583.9528, 177.2703
584.4349, 177.4373
584.9171, 177.6715
585.3992, 177.8864
585.8813, 178.0363
586.3634, 178.1766
586.8455, 178.3482
587.3276, 178.5271
587.8098, 178.6423
588.2919, 178.5045
588.7740, 178.4818
589.2561, 178.7530
589.7382, 179.3263
590.2203, 179.6459
590.7025, 179.6183
591.1846, 179.4987
591.6667, 179.4783
592.1488, 179.5761
592.6309, 179.4323
593.1130, 178.9614
593.5952, 178.5251
594.0773, 178.6587
594.5594, 179.2265
595.0415, 179.7024
595.5236, 179.9677
596.0057, 180.0732
596.4879, 179.9140
596.9700, 179.6345
597.4521, 179.5751
597.9342, 180.0923
598.4163, 180.6984
598.8984, 181.1197
599.3806, 181.3706
599.8627, 181.6462
600.3448, 182.1716
600.8269, 182.5699
601.3090, 182.5951
601.7911, 182.0514
602.2733, 181.9384
602.7554, 182.4595
603.2375, 183.1233
603.7196, 183.4158
604.2017, 183.2865
604.6838, 183.3746
605.1660, 183.8211
605.6481, 184.3644
606.1302, 184.4779
606.6123, 184.2751
607.0944, 184.2982
607.5765, 184.9537
608.0587, 185.7269
608.5408, 186.0598
609.0229, 186.0068
609.5050, 185.7769
609.9871, 185.2260
610.4692, 184.7315
610.9514, 184.4945
611.4335, 184.5279
611.9156, 184.8006
612.3977, 185.6033
612.8798, 186.4161
613.3619, 186.9371
613.8441, 187.1219
614.3262, 187.0786
614.8083, 186.6207
615.2904, 186.1886
615.7725, 186.5058
616.2546, 187.6413
616.7368, 188.3035
617.2189, 188.1209
617.7010, 187.5769
618.1831, 187.5743
618.6652, 187.9918
619.1473, 188.3439
