##NAMES=Metatorbernite
##RRUFFID=R070509
##IDEAL CHEMISTRY=Cu^2+^(U^6+^O_2_)_2_(PO_4_)_2_&#183;8H_2_O
##LOCALITY=Musonoi mine, Kolwezi, Katanga, Congo
##OWNER=RRUFF
##SOURCE=James Shigley
##DESCRIPTION=Dark green platy crystals
##STATUS=The identification of this mineral has been confirmed by single-crystal X-ray diffraction.
##URL=rruff.info/R070509
140.0309, 748.8057
140.5130, 771.9669
140.9951, 784.7610
141.4772, 794.5085
141.9594, 817.9152
142.4415, 861.7151
142.9236, 905.8206
143.4057, 940.6167
143.8878, 960.1581
144.3699, 986.1215
144.8521, 1025.040
145.3342, 1071.995
145.8163, 1100.597
146.2984, 1101.566
146.7805, 1094.375
147.2626, 1091.880
147.7448, 1101.132
148.2269, 1104.158
148.7090, 1094.270
149.1911, 1070.459
149.6732, 1060.289
150.1554, 1077.402
150.6375, 1101.276
151.1196, 1112.467
151.6017, 1097.653
152.0838, 1083.420
152.5659, 1072.512
153.0481, 1063.038
153.5302, 1063.925
154.0123, 1087.110
154.4944, 1118.342
154.9765, 1138.008
155.4586, 1126.895
155.9408, 1118.014
156.4229, 1124.530
156.9050, 1154.194
157.3871, 1170.901
157.8692, 1166.988
158.3513, 1151.226
158.8335, 1141.982
159.3156, 1148.073
159.7977, 1158.677
160.2798, 1168.365
160.7619, 1179.854
161.2440, 1185.831
161.7262, 1179.429
162.2083, 1164.027
162.6904, 1154.212
163.1725, 1158.057
163.6546, 1168.362
164.1367, 1179.401
164.6189, 1194.162
165.1010, 1205.442
165.5831, 1207.251
166.0652, 1200.046
166.5473, 1194.949
167.0294, 1196.050
167.5116, 1202.964
167.9937, 1215.352
168.4758, 1239.906
168.9579, 1265.149
169.4400, 1280.338
169.9221, 1283.523
170.4043, 1290.621
170.8864, 1316.138
171.3685, 1352.968
171.8506, 1388.539
172.3327, 1413.651
172.8148, 1435.742
173.2970, 1461.301
173.7791, 1490.653
174.2612, 1524.985
174.7433, 1567.612
175.2254, 1616.231
175.7076, 1664.793
176.1897, 1701.543
176.6718, 1738.060
177.1539, 1794.881
177.6360, 1884.600
178.1181, 1979.244
178.6003, 2037.887
179.0824, 2067.696
179.5645, 2110.246
180.0466, 2207.214
180.5287, 2338.780
181.0108, 2458.637
181.4930, 2547.681
181.9751, 2629.350
182.4572, 2736.079
182.9393, 2868.574
183.4214, 3022.624
183.9035, 3201.352
184.3857, 3399.481
184.8678, 3603.460
185.3499, 3801.863
185.8320, 4004.468
186.3141, 4228.404
186.7962, 4476.009
187.2784, 4740.627
187.7605, 5025.929
188.2426, 5326.555
188.7247, 5619.057
189.2068, 5895.030
189.6889, 6152.882
190.1711, 6394.025
190.6532, 6617.440
191.1353, 6820.305
191.6174, 7009.518
192.0995, 7181.454
192.5816, 7294.720
193.0638, 7339.178
193.5459, 7312.276
194.0280, 7189.344
194.5101, 6967.150
194.9922, 6653.180
195.4743, 6231.658
195.9565, 5703.428
196.4386, 5158.545
196.9207, 4631.368
197.4028, 4122.811
197.8849, 3685.558
198.3671, 3323.089
198.8492, 3027.100
199.3313, 2779.269
199.8134, 2580.718
200.2955, 2419.123
200.7776, 2290.668
201.2598, 2196.606
201.7419, 2113.469
202.2240, 2038.833
202.7061, 1972.374
203.1882, 1910.470
203.6703, 1851.005
204.1525, 1802.335
204.6346, 1773.856
205.1167, 1769.011
205.5988, 1759.783
206.0809, 1737.233
206.5630, 1706.327
207.0452, 1699.167
207.5273, 1723.774
208.0094, 1753.808
208.4915, 1764.948
208.9736, 1752.521
209.4557, 1741.844
209.9379, 1737.317
210.4200, 1738.837
210.9021, 1744.677
211.3842, 1754.240
211.8663, 1769.204
212.3484, 1792.589
212.8306, 1826.899
213.3127, 1860.962
213.7948, 1892.602
214.2769, 1921.862
214.7590, 1947.279
215.2411, 1965.415
215.7233, 1983.798
216.2054, 2013.324
216.6875, 2059.372
217.1696, 2101.703
217.6517, 2133.413
218.1338, 2152.876
218.6160, 2175.303
219.0981, 2203.222
219.5802, 2231.994
220.0623, 2254.622
220.5444, 2270.958
221.0265, 2281.432
221.5087, 2286.578
221.9908, 2286.947
222.4729, 2279.697
222.9550, 2265.212
223.4371, 2242.968
223.9192, 2211.193
224.4014, 2169.916
224.8835, 2120.323
225.3656, 2061.192
225.8477, 1985.862
226.3298, 1920.313
226.8119, 1866.374
227.2941, 1821.049
227.7762, 1776.770
228.2583, 1736.201
228.7404, 1693.571
229.2225, 1646.015
229.7046, 1589.944
230.1868, 1537.801
230.6689, 1489.784
231.1510, 1446.106
231.6331, 1406.957
232.1152, 1374.428
232.5974, 1343.890
233.0795, 1311.690
233.5616, 1273.190
234.0437, 1244.637
234.5258, 1229.789
235.0079, 1224.925
235.4901, 1216.360
235.9722, 1200.788
236.4543, 1186.252
236.9364, 1177.975
237.4185, 1182.046
237.9006, 1178.604
238.3828, 1161.730
238.8649, 1136.196
239.3470, 1123.020
239.8291, 1128.402
240.3112, 1138.291
240.7933, 1144.829
241.2755, 1147.677
241.7576, 1147.635
242.2397, 1142.852
242.7218, 1134.763
243.2039, 1131.276
243.6860, 1133.241
244.1682, 1138.710
244.6503, 1146.557
245.1324, 1157.235
245.6145, 1169.831
246.0966, 1187.142
246.5787, 1207.280
247.0609, 1215.879
247.5430, 1204.227
248.0251, 1192.091
248.5072, 1194.034
248.9893, 1217.840
249.4714, 1239.088
249.9536, 1256.680
250.4357, 1270.106
250.9178, 1274.183
251.3999, 1265.789
251.8820, 1252.076
252.3641, 1237.734
252.8463, 1222.128
253.3284, 1207.763
253.8105, 1195.997
254.2926, 1186.283
254.7747, 1173.295
255.2568, 1154.804
255.7390, 1135.968
256.2211, 1120.799
256.7032, 1111.137
257.1853, 1100.984
257.6674, 1089.280
258.1495, 1076.209
258.6317, 1064.313
259.1138, 1054.010
259.5959, 1044.408
260.0780, 1034.405
260.5601, 1022.285
261.0422, 1014.106
261.5244, 1011.664
262.0065, 1014.424
262.4886, 1016.353
262.9707, 1016.630
263.4528, 1017.394
263.9349, 1020.591
264.4171, 1026.939
264.8992, 1033.820
265.3813, 1041.309
265.8634, 1049.192
266.3455, 1055.330
266.8276, 1058.871
267.3098, 1062.289
267.7919, 1067.930
268.2740, 1076.307
268.7561, 1084.825
269.2382, 1092.519
269.7203, 1099.708
270.2025, 1109.602
270.6846, 1123.421
271.1667, 1137.188
271.6488, 1146.414
272.1309, 1149.226
272.6130, 1155.918
273.0952, 1168.507
273.5773, 1186.559
274.0594, 1208.268
274.5415, 1234.777
275.0236, 1261.718
275.5057, 1284.255
275.9879, 1301.550
276.4700, 1320.294
276.9521, 1341.322
277.4342, 1364.825
277.9163, 1393.110
278.3984, 1427.758
278.8806, 1461.749
279.3627, 1489.710
279.8448, 1511.542
280.3269, 1527.065
280.8090, 1532.965
281.2911, 1533.277
281.7733, 1545.722
282.2554, 1572.450
282.7375, 1600.430
283.2196, 1617.712
283.7017, 1624.304
284.1838, 1632.517
284.6660, 1647.290
285.1481, 1663.671
285.6302, 1664.348
286.1123, 1647.669
286.5944, 1629.936
287.0765, 1628.698
287.5587, 1641.823
288.0408, 1643.490
288.5229, 1625.983
289.0050, 1596.795
289.4871, 1572.851
289.9692, 1554.092
290.4514, 1538.274
290.9335, 1527.084
291.4156, 1518.647
291.8977, 1501.879
292.3798, 1471.437
292.8619, 1435.701
293.3441, 1412.212
293.8262, 1400.355
294.3083, 1390.844
294.7904, 1377.162
295.2726, 1360.323
295.7547, 1343.427
296.2368, 1327.027
296.7189, 1311.038
297.2010, 1294.822
297.6831, 1278.749
298.1653, 1264.996
298.6474, 1254.685
299.1295, 1247.861
299.6116, 1245.428
300.0937, 1249.455
300.5758, 1253.824
301.0580, 1249.446
301.5401, 1238.013
302.0222, 1226.751
302.5043, 1220.033
302.9864, 1216.470
303.4685, 1214.949
303.9507, 1216.538
304.4328, 1216.567
304.9149, 1209.094
305.3970, 1195.949
305.8791, 1182.357
306.3612, 1169.506
306.8434, 1158.648
307.3255, 1152.782
307.8076, 1153.876
308.2897, 1153.706
308.7718, 1144.021
309.2539, 1127.957
309.7361, 1112.490
310.2182, 1102.062
310.7003, 1093.090
311.1824, 1082.887
311.6645, 1071.158
312.1466, 1058.189
312.6288, 1042.685
313.1109, 1026.179
313.5930, 1010.946
314.0751, 997.4789
314.5572, 985.7822
315.0393, 976.1674
315.5215, 968.8431
316.0036, 962.1548
316.4857, 955.2983
316.9678, 948.6241
317.4499, 942.4416
317.9320, 938.0504
318.4142, 933.1756
318.8963, 925.9395
319.3784, 916.0108
319.8605, 908.1540
320.3426, 906.1871
320.8247, 906.2211
321.3069, 904.3282
321.7890, 897.4278
322.2711, 890.5200
322.7532, 885.4201
323.2353, 882.1841
323.7174, 877.9698
324.1996, 871.5716
324.6817, 864.2981
325.1638, 857.2530
325.6459, 848.0291
326.1280, 841.7272
326.6101, 841.0376
327.0923, 845.4526
327.5744, 846.8566
328.0565, 842.3179
328.5386, 836.3910
329.0207, 831.7067
329.5028, 826.5637
329.9850, 825.1033
330.4671, 831.1625
330.9492, 842.2686
331.4313, 845.4529
331.9134, 834.5917
332.3955, 822.2008
332.8777, 814.4429
333.3598, 812.3016
333.8419, 813.4431
334.3240, 820.3986
334.8061, 830.0651
335.2882, 832.7275
335.7704, 823.4156
336.2525, 815.6505
336.7346, 817.3432
337.2167, 834.1753
337.6988, 839.5458
338.1809, 828.7716
338.6631, 810.6859
339.1452, 803.4674
339.6273, 810.0447
340.1094, 817.0895
340.5915, 819.5345
341.0736, 817.1850
341.5558, 812.3146
342.0379, 803.3769
342.5200, 795.0677
343.0021, 795.8742
343.4842, 806.5687
343.9663, 814.1831
344.4485, 811.6492
344.9306, 801.3295
345.4127, 799.0361
345.8948, 805.8276
346.3769, 814.3365
346.8590, 816.3406
347.3412, 812.5580
347.8233, 807.7941
348.3054, 801.6307
348.7875, 796.3745
349.2696, 799.3153
349.7517, 810.3391
350.2339, 821.9202
350.7160, 827.7784
351.1981, 829.0887
351.6802, 828.5357
352.1623, 825.5332
352.6444, 822.4927
353.1266, 823.3874
353.6087, 827.5603
354.0908, 831.4062
354.5729, 832.0609
355.0550, 831.0303
355.5371, 830.6489
356.0193, 832.1064
356.5014, 832.6335
356.9835, 829.2347
357.4656, 822.9856
357.9477, 816.6647
358.4298, 810.6035
358.9120, 805.7745
359.3941, 802.5638
359.8762, 800.6227
360.3583, 802.0202
360.8404, 812.9689
361.3225, 827.1999
361.8047, 834.8544
362.2868, 821.2448
362.7689, 809.3246
363.2510, 812.6813
363.7331, 834.4288
364.2152, 852.5696
364.6974, 860.0664
365.1795, 860.6917
365.6616, 858.3546
366.1437, 847.3257
366.6258, 839.9886
367.1079, 840.7812
367.5901, 849.7329
368.0722, 857.6678
368.5543, 864.6097
369.0364, 869.7755
369.5185, 872.6913
370.0006, 873.4119
370.4828, 871.8543
370.9649, 865.8268
371.4470, 856.9881
371.9291, 853.0899
372.4112, 856.6678
372.8933, 862.1846
373.3755, 866.9233
373.8576, 870.7947
374.3397, 873.9341
374.8218, 875.1398
375.3039, 876.2183
375.7861, 881.9913
376.2682, 894.4623
376.7503, 905.8337
377.2324, 912.8925
377.7145, 915.4614
378.1967, 914.4779
378.6788, 907.4388
379.1609, 902.1774
379.6430, 915.1436
380.1251, 947.7285
380.6072, 967.2454
381.0894, 955.0868
381.5715, 921.2411
382.0536, 907.7538
382.5357, 915.5328
383.0178, 933.9835
383.4999, 959.3910
383.9821, 988.7493
384.4642, 1008.175
384.9463, 1009.055
385.4284, 1004.292
385.9105, 1014.363
386.3926, 1038.244
386.8748, 1067.843
387.3569, 1101.673
387.8390, 1136.776
388.3211, 1167.513
388.8032, 1191.127
389.2853, 1215.922
389.7675, 1245.543
390.2496, 1282.173
390.7317, 1330.476
391.2138, 1400.141
391.6959, 1477.415
392.1780, 1552.004
392.6602, 1621.819
393.1423, 1695.071
393.6244, 1776.603
394.1065, 1864.052
394.5886, 1955.620
395.0707, 2043.706
395.5529, 2141.443
396.0350, 2254.220
396.5171, 2382.130
396.9992, 2519.980
397.4813, 2688.656
397.9634, 2851.794
398.4456, 2985.282
398.9277, 3073.967
399.4098, 3145.357
399.8919, 3199.121
400.3740, 3236.782
400.8561, 3263.181
401.3383, 3261.091
401.8204, 3265.654
402.3025, 3291.152
402.7846, 3339.759
403.2667, 3406.033
403.7488, 3497.144
404.2310, 3600.480
404.7131, 3700.706
405.1952, 3810.052
405.6773, 3880.692
406.1594, 3899.383
406.6415, 3866.146
407.1237, 3772.339
407.6058, 3609.979
408.0879, 3411.447
408.5700, 3204.134
409.0521, 2986.964
409.5342, 2773.217
410.0164, 2562.608
410.4985, 2360.136
410.9806, 2179.556
411.4627, 2020.261
411.9448, 1884.036
412.4269, 1775.399
412.9091, 1688.916
413.3912, 1613.693
413.8733, 1547.856
414.3554, 1489.782
414.8375, 1440.021
415.3196, 1397.249
415.8018, 1358.036
416.2839, 1317.415
416.7660, 1281.301
417.2481, 1259.035
417.7302, 1251.671
418.2123, 1246.832
418.6945, 1237.674
419.1766, 1226.036
419.6587, 1214.413
420.1408, 1204.005
420.6229, 1193.348
421.1050, 1179.218
421.5872, 1162.768
422.0693, 1152.896
422.5514, 1157.479
423.0335, 1166.246
423.5156, 1172.674
423.9977, 1170.195
424.4799, 1173.143
424.9620, 1188.362
425.4441, 1209.975
425.9262, 1223.722
426.4083, 1223.272
426.8904, 1221.615
427.3726, 1219.803
427.8547, 1213.586
428.3368, 1228.964
428.8189, 1280.731
429.3010, 1339.528
429.7831, 1368.577
430.2653, 1356.650
430.7474, 1353.288
431.2295, 1369.619
431.7116, 1403.323
432.1937, 1444.626
432.6758, 1495.664
433.1580, 1544.344
433.6401, 1578.587
434.1222, 1600.043
434.6043, 1627.534
435.0864, 1665.078
435.5685, 1705.781
436.0507, 1736.568
436.5328, 1759.371
437.0149, 1785.372
437.4970, 1828.435
437.9791, 1876.197
438.4612, 1907.724
438.9434, 1921.897
439.4255, 1924.124
439.9076, 1914.894
440.3897, 1897.425
440.8718, 1877.341
441.3539, 1860.058
441.8361, 1837.320
442.3182, 1799.935
442.8003, 1751.047
443.2824, 1705.331
443.7645, 1673.909
444.2466, 1644.630
444.7288, 1609.541
445.2109, 1564.229
445.6930, 1518.860
446.1751, 1467.578
446.6572, 1418.552
447.1393, 1385.768
447.6215, 1391.833
448.1036, 1392.939
448.5857, 1376.352
449.0678, 1339.937
449.5499, 1307.453
450.0320, 1278.386
450.5142, 1254.185
450.9963, 1236.318
451.4784, 1225.471
451.9605, 1219.207
452.4426, 1217.669
452.9247, 1220.286
453.4069, 1226.126
453.8890, 1235.937
454.3711, 1245.337
454.8532, 1252.744
455.3353, 1258.032
455.8174, 1258.721
456.2996, 1253.776
456.7817, 1247.818
457.2638, 1247.708
457.7459, 1251.946
458.2281, 1254.362
458.7102, 1251.048
459.1923, 1245.642
459.6744, 1242.757
460.1565, 1242.417
460.6386, 1244.977
461.1208, 1255.936
461.6029, 1267.756
462.0850, 1271.028
462.5671, 1260.702
463.0492, 1249.310
463.5313, 1244.595
464.0135, 1243.789
464.4956, 1241.466
464.9777, 1237.283
465.4598, 1229.857
465.9419, 1217.578
466.4240, 1199.630
466.9062, 1182.568
467.3883, 1167.295
467.8704, 1153.336
468.3525, 1139.877
468.8346, 1122.725
469.3167, 1112.671
469.7989, 1114.842
470.2810, 1124.478
470.7631, 1124.631
471.2452, 1111.327
471.7273, 1096.326
472.2094, 1084.633
472.6916, 1076.635
473.1737, 1069.808
473.6558, 1064.779
474.1379, 1059.565
474.6200, 1050.157
475.1021, 1036.886
475.5843, 1027.281
476.0664, 1024.613
476.5485, 1026.175
477.0306, 1026.827
477.5127, 1026.525
477.9948, 1024.621
478.4770, 1017.268
478.9591, 1008.934
479.4412, 1007.986
479.9233, 1017.369
480.4054, 1027.328
480.8875, 1031.025
481.3697, 1029.749
481.8518, 1025.643
482.3339, 1013.590
482.8160, 1004.101
483.2981, 1005.557
483.7802, 1017.435
484.2624, 1024.205
484.7445, 1015.567
485.2266, 1004.414
485.7087, 998.9124
486.1908, 1006.001
486.6729, 1010.325
487.1551, 1010.503
487.6372, 1007.899
488.1193, 1004.945
488.6014, 1001.057
489.0835, 997.9459
489.5656, 995.8879
490.0478, 994.8994
490.5299, 996.7050
491.0120, 1002.584
491.4941, 1008.156
491.9762, 1008.672
492.4583, 1004.158
492.9405, 1001.955
493.4226, 1004.403
493.9047, 1007.606
494.3868, 1001.858
494.8689, 988.8854
495.3510, 980.2111
495.8332, 985.5444
496.3153, 997.9006
496.7974, 1006.358
497.2795, 1010.494
497.7616, 1014.312
498.2437, 1023.524
498.7259, 1033.226
499.2080, 1037.132
499.6901, 1027.696
500.1722, 1019.412
500.6543, 1019.746
501.1364, 1026.517
501.6186, 1033.862
502.1007, 1043.210
502.5828, 1050.115
503.0649, 1051.588
503.5470, 1044.858
504.0291, 1042.932
504.5113, 1050.069
504.9934, 1059.206
505.4755, 1063.474
505.9576, 1059.348
506.4397, 1058.781
506.9218, 1065.300
507.4040, 1075.756
507.8861, 1079.109
508.3682, 1074.011
508.8503, 1068.226
509.3324, 1065.181
509.8145, 1064.798
510.2967, 1068.373
510.7788, 1076.917
511.2609, 1082.898
511.7430, 1073.863
512.2252, 1055.359
512.7073, 1043.525
513.1894, 1045.766
513.6715, 1053.037
514.1536, 1055.805
514.6357, 1055.378
515.1179, 1056.277
515.6000, 1062.370
516.0821, 1069.699
516.5642, 1076.615
517.0463, 1083.630
517.5284, 1085.818
518.0106, 1074.705
518.4927, 1061.115
518.9748, 1055.753
519.4569, 1068.794
519.9390, 1079.792
520.4211, 1086.866
520.9033, 1090.381
521.3854, 1091.325
521.8675, 1087.971
522.3496, 1084.928
522.8317, 1084.015
523.3138, 1085.367
523.7960, 1087.646
524.2781, 1091.003
524.7602, 1094.970
525.2423, 1099.982
525.7244, 1105.809
526.2065, 1108.840
526.6887, 1107.426
527.1708, 1104.091
527.6529, 1102.394
528.1350, 1102.357
528.6171, 1104.100
529.0992, 1104.309
529.5814, 1108.118
530.0635, 1126.789
530.5456, 1161.666
531.0277, 1187.211
531.5098, 1178.838
531.9919, 1157.420
532.4741, 1143.354
532.9562, 1149.958
533.4383, 1154.668
533.9204, 1147.438
534.4025, 1134.076
534.8846, 1130.105
535.3668, 1149.447
535.8489, 1164.261
536.3310, 1164.578
536.8131, 1148.507
537.2952, 1143.126
537.7773, 1152.642
538.2595, 1165.881
538.7416, 1175.027
539.2237, 1180.193
539.7058, 1178.809
540.1879, 1168.698
540.6700, 1155.597
541.1522, 1149.333
541.6343, 1149.287
542.1164, 1151.194
542.5985, 1153.783
543.0806, 1156.740
543.5627, 1159.550
544.0449, 1162.209
544.5270, 1164.950
545.0091, 1169.652
545.4912, 1173.660
545.9733, 1173.028
546.4554, 1163.297
546.9376, 1158.485
547.4197, 1170.596
547.9018, 1189.606
548.3839, 1200.724
548.8660, 1195.993
549.3481, 1188.554
549.8303, 1178.167
550.3124, 1165.968
550.7945, 1163.371
551.2766, 1177.003
551.7587, 1190.057
552.2408, 1191.949
552.7230, 1179.361
553.2051, 1176.686
553.6872, 1186.461
554.1693, 1199.966
554.6514, 1206.871
555.1335, 1207.526
555.6157, 1205.031
556.0978, 1198.668
556.5799, 1191.568
557.0620, 1189.048
557.5441, 1190.393
558.0262, 1192.472
558.5084, 1195.477
558.9905, 1197.058
559.4726, 1193.659
559.9547, 1184.653
560.4368, 1177.712
560.9189, 1181.117
561.4011, 1185.839
561.8832, 1184.138
562.3653, 1165.561
562.8474, 1151.560
563.3295, 1147.492
563.8116, 1149.393
564.2938, 1150.395
564.7759, 1151.694
565.2580, 1149.781
565.7401, 1141.761
566.2222, 1128.509
566.7043, 1122.898
567.1865, 1126.544
567.6686, 1131.683
568.1507, 1131.877
568.6328, 1128.050
569.1149, 1126.793
569.5970, 1129.320
570.0792, 1132.016
570.5613, 1129.920
571.0434, 1124.665
571.5255, 1119.892
572.0076, 1115.713
572.4897, 1113.831
572.9719, 1116.429
573.4540, 1122.715
573.9361, 1129.670
574.4182, 1137.600
574.9003, 1144.579
575.3824, 1149.814
575.8646, 1153.451
576.3467, 1154.494
576.8288, 1151.143
577.3109, 1146.509
577.7930, 1142.647
578.2751, 1138.522
578.7573, 1138.407
579.2394, 1145.135
579.7215, 1153.769
580.2036, 1153.321
580.6857, 1143.186
581.1678, 1131.400
581.6500, 1118.430
582.1321, 1106.912
582.6142, 1106.571
583.0963, 1116.877
583.5784, 1128.797
584.0605, 1136.311
584.5427, 1141.299
585.0248, 1147.213
585.5069, 1155.668
585.9890, 1159.104
586.4711, 1148.175
586.9532, 1131.488
587.4354, 1119.069
587.9175, 1108.712
588.3996, 1108.252
588.8817, 1128.528
589.3638, 1161.264
589.8459, 1177.644
590.3281, 1165.716
590.8102, 1154.716
591.2923, 1155.843
591.7744, 1169.060
592.2565, 1175.647
592.7386, 1174.443
593.2208, 1170.557
593.7029, 1167.477
594.1850, 1165.247
594.6671, 1163.782
595.1492, 1162.614
595.6313, 1163.964
596.1135, 1173.587
596.5956, 1187.694
597.0777, 1197.969
597.5598, 1199.683
598.0419, 1197.861
598.5240, 1195.190
599.0062, 1191.769
599.4883, 1187.822
599.9704, 1180.545
600.4525, 1175.228
600.9346, 1175.236
601.4167, 1182.232
601.8989, 1186.715
602.3810, 1186.297
602.8631, 1185.537
603.3452, 1187.892
603.8273, 1194.008
604.3094, 1200.799
604.7916, 1208.818
605.2737, 1216.121
605.7558, 1217.759
606.2379, 1214.417
606.7200, 1215.437
607.2021, 1227.408
607.6843, 1242.522
608.1664, 1246.136
608.6485, 1240.601
609.1306, 1237.478
609.6127, 1247.358
610.0948, 1260.208
610.5770, 1267.681
611.0591, 1268.825
611.5412, 1268.769
612.0233, 1270.158
612.5054, 1270.579
612.9875, 1268.044
613.4697, 1252.463
613.9518, 1248.836
614.4339, 1263.468
614.9160, 1285.875
615.3981, 1299.254
615.8802, 1302.297
616.3624, 1301.368
616.8445, 1296.896
617.3266, 1290.278
617.8087, 1286.045
618.2908, 1284.070
618.7729, 1281.563
619.2551, 1275.813
619.7372, 1268.859
620.2193, 1263.697
620.7014, 1260.496
621.1835, 1258.840
621.6656, 1259.024
622.1478, 1260.331
622.6299, 1262.172
623.1120, 1264.685
623.5941, 1267.254
624.0762, 1272.144
624.5583, 1276.203
625.0405, 1274.472
625.5226, 1260.230
626.0047, 1251.834
626.4868, 1255.279
626.9689, 1265.669
627.4510, 1263.324
627.9332, 1245.083
628.4153, 1232.151
628.8974, 1241.253
629.3795, 1263.707
629.8616, 1262.185
630.3438, 1237.017
630.8259, 1213.578
631.3080, 1216.446
631.7901, 1231.521
632.2722, 1239.682
632.7543, 1236.928
633.2365, 1231.015
633.7186, 1225.134
634.2007, 1218.845
634.6828, 1211.651
635.1649, 1201.357
635.6470, 1192.746
636.1292, 1186.250
636.6113, 1181.839
637.0934, 1180.122
637.5755, 1183.087
638.0576, 1183.894
