##NAMES=Metazeunerite
##RRUFFID=R050524
##IDEAL CHEMISTRY=Cu^2+^(U^6+^O_2_)_2_(As^5+^O_4_)_2_&#183;8H_2_O
##LOCALITY=Majuba Hill mine, Pershing County, Nevada
##OWNER=RRUFF
##SOURCE=University of Arizona Mineral Museum
##DESCRIPTION=Green tabular crystal, cell parameters indicate a disordered structure
##STATUS=The identification of this mineral has been confirmed only by single crystal X-ray diffraction.
##URL=rruff.info/R050524
90.92609, 0.0000000E+00
91.40820, 6.023284
91.89032, 6.170865
92.37244, 6.080743
92.85455, 5.795053
93.33667, 5.565566
93.81879, 5.651574
94.30090, 5.948736
94.78302, 6.134622
95.26514, 6.099719
95.74725, 5.944581
96.22937, 5.906572
96.71149, 5.996490
97.19360, 6.085007
97.67572, 6.022645
98.15784, 5.813403
98.63995, 5.642249
99.12207, 5.576183
99.60419, 5.600733
100.0863, 5.566312
100.5684, 5.442927
101.0505, 5.320561
101.5327, 5.342646
102.0148, 5.568525
102.4969, 5.737939
102.9790, 5.750072
103.4611, 5.570298
103.9432, 5.414271
104.4253, 5.252020
104.9075, 5.130974
105.3896, 5.155642
105.8717, 5.394156
106.3538, 5.686796
106.8359, 5.987780
107.3180, 6.351232
107.8002, 6.620830
108.2823, 6.716368
108.7644, 6.702535
109.2465, 6.822355
109.7286, 7.150357
110.2107, 7.557669
110.6929, 7.995013
111.1750, 8.410542
111.6571, 8.907187
112.1392, 9.488419
112.6213, 10.15541
113.1034, 10.92570
113.5856, 11.90935
114.0677, 12.95185
114.5498, 13.93436
115.0319, 14.55545
115.5140, 15.38479
115.9961, 16.63820
116.4783, 18.31493
116.9604, 20.08599
117.4425, 21.77447
117.9246, 23.53386
118.4067, 25.51661
118.8888, 28.04140
119.3710, 30.62805
119.8531, 33.03337
120.3352, 35.23084
120.8173, 37.26471
121.2994, 39.01325
121.7815, 40.60524
122.2637, 42.27189
122.7458, 44.22441
123.2279, 46.23790
123.7100, 48.05902
124.1921, 49.62545
124.6742, 51.14873
125.1564, 52.79148
125.6385, 54.54442
126.1206, 56.38611
126.6027, 58.21089
127.0848, 60.11626
127.5669, 62.24779
128.0491, 64.61265
128.5312, 67.24019
129.0133, 70.30695
129.4954, 73.74690
129.9775, 77.20632
130.4596, 80.47363
130.9418, 83.53892
131.4239, 86.48207
131.9060, 89.30378
132.3881, 92.03231
132.8702, 94.67390
133.3523, 97.23891
133.8345, 99.74693
134.3166, 102.2052
134.7987, 104.6348
135.2808, 107.0293
135.7629, 109.4496
136.2450, 111.8709
136.7272, 114.0790
137.2093, 116.0492
137.6914, 117.9226
138.1735, 119.8802
138.6556, 121.9534
139.1377, 123.8930
139.6199, 125.7072
140.1020, 127.3799
140.5841, 128.5851
141.0662, 129.0939
141.5483, 129.4236
142.0304, 130.1993
142.5126, 131.4503
142.9947, 133.0262
143.4768, 134.5929
143.9589, 136.0020
144.4410, 136.8880
144.9231, 136.9598
145.4053, 136.7276
145.8874, 137.0129
146.3695, 138.2493
146.8516, 139.3833
147.3337, 140.0571
147.8158, 140.0816
148.2980, 140.1865
148.7801, 140.3050
149.2622, 140.5124
149.7443, 140.9606
150.2264, 142.0931
150.7085, 143.0771
151.1907, 143.6104
151.6728, 143.4033
152.1549, 143.2714
152.6370, 142.9819
153.1191, 142.7514
153.6012, 143.1389
154.0834, 145.1944
154.5655, 147.0892
155.0476, 148.0427
155.5297, 147.1773
156.0118, 146.4238
156.4939, 146.0069
156.9761, 145.8872
157.4582, 145.9624
157.9403, 146.1868
158.4224, 146.6068
158.9045, 147.2539
159.3866, 148.2092
159.8688, 149.2914
160.3509, 150.5373
160.8330, 151.9011
161.3151, 153.1644
161.7972, 154.0737
162.2793, 154.9469
162.7615, 156.0251
163.2436, 157.2903
163.7257, 158.8503
164.2078, 160.9369
164.6899, 163.4687
165.1720, 165.8727
165.6541, 167.6021
166.1363, 169.1690
166.6184, 171.0788
167.1005, 173.6269
167.5826, 176.4609
168.0647, 179.4533
168.5468, 182.5943
169.0290, 185.7803
169.5111, 189.0033
169.9932, 192.2202
170.4753, 195.3877
170.9574, 198.6165
171.4395, 201.6707
171.9217, 204.2318
172.4038, 206.3050
172.8859, 208.4722
173.3680, 211.1861
173.8501, 214.2903
174.3322, 217.5603
174.8144, 220.9582
175.2965, 224.4744
175.7786, 228.0144
176.2607, 231.6084
176.7428, 235.2280
177.2249, 238.6179
177.7071, 241.9698
178.1892, 245.8415
178.6713, 250.5876
179.1534, 255.9788
179.6355, 261.7817
180.1176, 268.0820
180.5998, 274.4039
181.0819, 280.1570
181.5640, 285.4932
182.0461, 291.1909
182.5282, 297.7840
183.0103, 304.9328
183.4925, 311.9675
183.9746, 318.8927
184.4567, 325.3719
184.9388, 331.5183
185.4209, 337.1670
185.9030, 340.9240
186.3852, 342.2506
186.8673, 341.2119
187.3494, 338.0251
187.8315, 332.6874
188.3136, 325.2719
188.7957, 315.1263
189.2779, 302.4742
189.7600, 289.0213
190.2421, 275.1115
190.7242, 261.0525
191.2063, 248.1203
191.6884, 236.3230
192.1706, 225.9483
192.6527, 217.2534
193.1348, 210.2874
193.6169, 204.3469
194.0990, 199.1768
194.5811, 194.7719
195.0633, 190.6754
195.5454, 186.7902
196.0275, 183.3457
196.5096, 181.0657
196.9917, 180.0179
197.4738, 179.2046
197.9560, 178.0000
198.4381, 176.4070
198.9202, 175.4330
199.4023, 175.2122
199.8844, 175.5178
200.3665, 176.0155
200.8487, 176.7659
201.3308, 177.3852
201.8129, 177.5663
202.2950, 177.2543
202.7771, 177.2350
203.2592, 177.5291
203.7414, 178.1375
204.2235, 179.1032
204.7056, 180.4578
205.1877, 181.9977
205.6698, 183.7459
206.1519, 185.8038
206.6341, 187.3270
207.1162, 188.0777
207.5983, 188.4442
208.0804, 189.2969
208.5625, 190.7107
209.0446, 192.3454
209.5268, 194.0800
210.0089, 195.9519
210.4910, 197.7562
210.9731, 199.5040
211.4552, 201.1809
211.9373, 202.6574
212.4195, 203.7781
212.9016, 205.0799
213.3837, 206.9439
213.8658, 209.6755
214.3479, 211.8832
214.8300, 213.5341
215.3121, 214.6701
215.7943, 215.3375
216.2764, 215.3858
216.7585, 215.2644
217.2406, 215.1870
217.7227, 215.2326
218.2048, 215.0883
218.6870, 214.8559
219.1691, 214.3759
219.6512, 213.2564
220.1333, 211.3853
220.6154, 209.0615
221.0975, 206.3057
221.5797, 202.9790
222.0618, 199.7010
222.5439, 196.4272
223.0260, 193.2357
223.5081, 190.2313
223.9902, 187.5403
224.4724, 184.8585
224.9545, 182.0487
225.4366, 178.8140
225.9187, 176.2318
226.4008, 174.5252
226.8829, 173.3474
227.3651, 171.9498
227.8472, 170.2122
228.3293, 168.4238
228.8114, 166.6454
229.2935, 164.7751
229.7757, 163.2502
230.2578, 162.2037
230.7399, 161.4482
231.2220, 160.6098
231.7041, 159.6689
232.1862, 158.6725
232.6684, 157.5337
233.1505, 155.9825
233.6326, 154.8205
234.1147, 155.2541
234.5968, 155.5005
235.0789, 155.5697
235.5611, 154.9309
236.0432, 155.2063
236.5253, 155.1154
237.0074, 155.0094
237.4895, 155.2497
237.9716, 155.8796
238.4538, 156.8046
238.9359, 157.4910
239.4180, 157.8692
239.9001, 158.1333
240.3822, 158.3158
240.8643, 158.3810
241.3465, 158.5419
241.8286, 158.9194
242.3107, 159.3070
242.7928, 159.3797
243.2749, 158.9126
243.7570, 158.5215
244.2392, 158.4434
244.7213, 158.7853
245.2034, 158.7566
245.6855, 158.1653
246.1676, 157.3656
246.6497, 156.8190
247.1319, 156.7072
247.6140, 156.5214
248.0961, 156.1224
248.5782, 155.4842
249.0603, 154.8657
249.5424, 154.2217
250.0246, 153.6379
250.5067, 153.2421
250.9888, 153.2395
251.4709, 153.0031
251.9530, 152.2371
252.4351, 150.8820
252.9173, 150.2130
253.3994, 150.5478
253.8815, 151.1801
254.3636, 151.4062
254.8457, 151.0022
255.3278, 150.6763
255.8100, 150.6104
256.2921, 150.7909
256.7742, 150.6938
257.2563, 150.0606
257.7384, 149.4965
258.2205, 149.5715
258.7026, 150.5615
259.1848, 151.5074
259.6669, 152.2687
260.1490, 152.8657
260.6311, 153.4057
261.1132, 153.9053
261.5953, 154.3266
262.0775, 154.5768
262.5596, 154.5035
263.0417, 154.7313
263.5238, 155.4164
264.0059, 156.4561
264.4880, 157.3835
264.9702, 158.1398
265.4523, 158.8798
265.9344, 159.7316
266.4165, 160.7829
266.8986, 161.6302
267.3807, 162.1823
267.8629, 162.5358
268.3450, 162.9692
268.8271, 163.4276
269.3092, 164.1187
269.7913, 165.3180
270.2734, 167.2285
270.7556, 168.5857
271.2377, 169.1839
271.7198, 169.3413
272.2019, 169.8123
272.6840, 170.6788
273.1661, 171.5927
273.6483, 172.3771
274.1304, 173.0055
274.6125, 173.7011
275.0946, 174.4624
275.5767, 175.2857
276.0588, 176.2430
276.5410, 177.3958
277.0231, 178.3286
277.5052, 178.8644
277.9873, 179.0020
278.4694, 178.7588
278.9515, 178.0561
279.4337, 177.1262
279.9158, 176.3104
280.3979, 175.6326
280.8800, 174.8386
281.3621, 173.8305
281.8442, 172.6257
282.3264, 171.4289
282.8085, 170.2626
283.2906, 169.0413
283.7727, 167.5541
284.2548, 165.7981
284.7369, 164.3161
285.2191, 163.2827
285.7012, 162.6491
286.1833, 162.2829
286.6654, 162.2358
287.1475, 162.1141
287.6296, 161.4017
288.1118, 160.1688
288.5939, 159.1829
289.0760, 158.6682
289.5581, 158.4731
290.0402, 158.2144
290.5223, 157.8868
291.0045, 157.5932
291.4866, 157.3371
291.9687, 157.1556
292.4508, 157.2565
292.9329, 157.7458
293.4150, 158.4294
293.8972, 159.0667
294.3793, 159.6501
294.8614, 160.0713
295.3435, 160.0923
295.8256, 159.8874
296.3077, 159.9399
296.7899, 160.3228
297.2720, 160.9356
297.7541, 161.6371
298.2362, 162.4394
298.7183, 163.4169
299.2004, 164.4962
299.6826, 165.7961
300.1647, 167.6861
300.6468, 170.2581
301.1289, 172.9358
301.6110, 174.9605
302.0931, 176.6007
302.5753, 178.6311
303.0574, 181.7141
303.5395, 185.2421
304.0216, 188.3477
304.5037, 191.0311
304.9858, 193.6432
305.4680, 196.5302
305.9501, 199.5507
306.4322, 202.4525
306.9143, 205.2413
307.3964, 207.8284
307.8785, 209.8959
308.3607, 211.5312
308.8428, 213.6254
309.3249, 217.0080
309.8070, 221.0956
310.2891, 225.1696
310.7712, 228.8681
311.2534, 232.7705
311.7355, 237.0109
312.2176, 241.7359
312.6997, 247.3788
313.1818, 254.3975
313.6639, 262.2094
314.1461, 270.4868
314.6282, 279.2781
315.1103, 288.1342
315.5924, 296.7678
316.0745, 305.2654
316.5566, 313.9590
317.0388, 323.4473
317.5209, 332.7263
318.0030, 341.7174
318.4851, 350.8718
318.9672, 357.7878
319.4493, 361.7882
319.9315, 363.0424
320.4136, 361.7974
320.8957, 358.8571
321.3778, 352.7290
321.8599, 342.4621
322.3420, 327.8311
322.8242, 311.3352
323.3063, 291.4409
323.7884, 270.8873
324.2705, 252.0636
324.7526, 234.6287
325.2347, 219.5657
325.7169, 207.8019
326.1990, 199.0517
326.6811, 191.4275
327.1632, 185.0192
327.6453, 179.5499
328.1274, 174.8725
328.6096, 171.1961
329.0917, 168.0300
329.5738, 165.5331
330.0559, 163.5784
330.5380, 161.7288
331.0201, 160.0371
331.5023, 158.3925
331.9844, 156.7123
332.4665, 154.8580
332.9486, 153.3492
333.4307, 152.2866
333.9128, 151.5243
334.3950, 150.8552
334.8771, 150.3224
335.3592, 149.7884
335.8413, 149.2011
336.3234, 148.5434
336.8055, 147.9641
337.2877, 147.4516
337.7698, 147.0411
338.2519, 146.7810
338.7340, 146.6991
339.2161, 146.6970
339.6982, 146.8790
340.1803, 147.1405
340.6624, 146.6771
341.1446, 145.2576
341.6267, 143.8620
342.1088, 143.3378
342.5909, 143.7248
343.0730, 143.9165
343.5551, 143.7368
344.0373, 143.3121
344.5194, 142.8509
345.0015, 142.3382
345.4836, 142.0160
345.9657, 142.1755
346.4478, 142.7019
346.9300, 142.9336
347.4121, 142.7887
347.8942, 142.5135
348.3763, 142.4330
348.8584, 142.5221
349.3405, 142.6242
349.8227, 142.6387
350.3048, 142.6270
350.7869, 142.7964
351.2690, 143.1553
351.7511, 143.3945
352.2332, 143.0209
352.7154, 142.3191
353.1975, 141.9108
353.6796, 142.1080
354.1617, 142.5612
354.6438, 142.8770
355.1259, 143.0884
355.6081, 143.3786
356.0902, 144.1824
356.5723, 144.9989
357.0544, 145.1398
357.5365, 144.1458
358.0186, 143.2195
358.5008, 143.3045
358.9829, 144.0679
359.4650, 144.7958
359.9471, 145.2244
360.4292, 145.4687
360.9113, 145.5791
361.3935, 145.5513
361.8756, 145.4685
362.3577, 145.3060
362.8398, 145.1310
363.3219, 145.0194
363.8040, 144.9838
364.2862, 145.0278
364.7683, 145.1397
365.2504, 145.3244
365.7325, 145.6345
366.2146, 146.2024
366.6967, 146.8230
367.1789, 147.3687
367.6610, 148.0329
368.1431, 148.3762
368.6252, 147.9870
369.1073, 147.2049
369.5894, 147.1101
370.0716, 148.3615
370.5537, 149.6209
371.0358, 150.4169
371.5179, 150.5943
372.0000, 150.7674
372.4821, 150.8804
372.9643, 151.0236
373.4464, 151.3467
373.9285, 151.9766
374.4106, 152.4925
374.8927, 152.6973
375.3748, 152.6166
375.8570, 153.0065
376.3391, 154.0185
376.8212, 155.1856
377.3033, 156.1519
377.7854, 156.8967
378.2675, 157.5352
378.7497, 158.0540
379.2318, 158.5094
379.7139, 159.0555
380.1960, 159.6915
380.6781, 160.3866
381.1602, 161.1722
381.6424, 162.0206
382.1245, 162.6988
382.6066, 163.1639
383.0887, 163.6299
383.5708, 164.4018
384.0529, 165.4295
384.5351, 166.5083
385.0172, 167.5928
385.4993, 168.6439
385.9814, 169.6078
386.4635, 170.4799
386.9456, 171.3531
387.4278, 172.3136
387.9099, 173.3072
388.3920, 174.2502
388.8741, 175.0767
389.3562, 175.9102
389.8383, 176.8662
390.3205, 177.9280
390.8026, 179.0246
391.2847, 180.2702
391.7668, 181.4348
392.2489, 182.3020
392.7310, 182.7821
393.2132, 183.2814
393.6953, 184.0479
394.1774, 184.9221
394.6595, 185.7173
395.1416, 186.5425
395.6237, 187.1126
396.1059, 187.0998
396.5880, 186.5643
397.0701, 186.4514
397.5522, 187.4603
398.0343, 188.6127
398.5164, 189.3293
398.9986, 189.1817
399.4807, 189.0923
399.9628, 189.1817
400.4449, 189.3433
400.9270, 189.3373
401.4091, 189.2100
401.8913, 188.8558
402.3734, 188.1943
402.8555, 187.1590
403.3376, 186.1957
403.8197, 185.3395
404.3018, 184.5117
404.7840, 183.6290
405.2661, 182.6776
405.7482, 181.6924
406.2303, 180.6351
406.7124, 179.5521
407.1945, 178.6343
407.6767, 177.9140
408.1588, 177.1877
408.6409, 176.2154
409.1230, 175.0350
409.6051, 174.1957
410.0872, 173.7742
410.5694, 173.5844
411.0515, 173.3779
411.5336, 173.1642
412.0157, 173.0040
412.4978, 172.9510
412.9799, 172.9652
413.4621, 172.9416
413.9442, 172.8842
414.4263, 172.8957
414.9084, 173.0296
415.3905, 173.2966
415.8727, 173.7329
416.3548, 174.4227
416.8369, 175.1659
417.3190, 175.7291
417.8011, 176.2017
418.2832, 176.8327
418.7654, 177.8975
419.2475, 179.0509
419.7296, 180.0055
420.2117, 180.6941
420.6938, 181.4711
421.1759, 182.6131
421.6581, 183.8545
422.1402, 184.9277
422.6223, 185.4069
423.1044, 186.0788
423.5865, 187.1387
424.0686, 188.5584
424.5508, 190.1499
425.0329, 192.1253
425.5150, 194.0748
425.9971, 195.7932
426.4792, 197.0664
426.9613, 198.5449
427.4435, 200.2327
427.9256, 202.1185
428.4077, 204.2225
428.8898, 206.7440
429.3719, 209.0837
429.8540, 210.9744
430.3362, 212.4688
430.8183, 214.5445
431.3004, 217.3280
431.7825, 220.3014
432.2646, 222.9400
432.7467, 225.2297
433.2289, 227.9978
433.7110, 231.4070
434.1931, 235.1563
434.6752, 238.7549
435.1573, 242.2005
435.6394, 245.4797
436.1216, 248.4995
436.6036, 251.3733
437.0858, 254.2181
437.5679, 257.0406
438.0500, 260.0893
438.5321, 263.6782
439.0142, 267.6242
439.4963, 271.6329
439.9785, 275.6859
440.4606, 279.6969
440.9427, 283.5886
441.4248, 287.3655
441.9069, 290.9841
442.3890, 294.5013
442.8712, 297.8061
443.3533, 300.8185
443.8354, 303.5158
444.3175, 306.0158
444.7996, 308.1931
445.2817, 310.2314
445.7639, 312.3404
446.2460, 315.2935
446.7281, 317.5124
447.2102, 318.3825
447.6923, 318.0894
448.1744, 317.9894
448.6566, 318.5069
449.1387, 318.7605
449.6208, 318.4232
450.1029, 317.5886
450.5850, 315.7535
451.0671, 312.4505
451.5493, 308.6529
452.0314, 305.9420
452.5135, 304.7399
452.9956, 302.8727
453.4777, 299.6245
453.9598, 295.3256
454.4420, 291.2344
454.9241, 287.3880
455.4062, 283.7325
455.8883, 280.4701
456.3704, 277.4531
456.8525, 273.9806
457.3347, 269.9750
457.8168, 265.7722
458.2989, 261.6522
458.7810, 257.6891
459.2631, 254.2335
459.7452, 251.7722
460.2274, 249.6397
460.7095, 247.0517
461.1916, 244.0508
461.6737, 241.2357
462.1558, 239.0096
462.6379, 237.0783
463.1201, 235.1986
463.6022, 233.3575
464.0843, 231.4241
464.5664, 229.1428
465.0485, 226.7686
465.5306, 224.7099
466.0128, 223.3645
466.4949, 222.0437
466.9770, 220.4745
467.4591, 218.6369
467.9412, 217.1296
468.4233, 216.2978
468.9055, 215.4958
469.3876, 214.3021
469.8697, 212.3643
470.3518, 210.8279
470.8339, 209.7967
471.3160, 209.1144
471.7982, 208.5482
472.2803, 208.1747
472.7624, 207.6038
473.2445, 206.6478
473.7266, 205.3779
474.2087, 204.2076
474.6909, 203.1343
475.1730, 202.1927
475.6551, 201.5713
476.1372, 201.1493
476.6193, 200.3280
477.1014, 198.8917
477.5836, 197.4536
478.0657, 196.9982
478.5478, 197.1954
479.0299, 197.1096
479.5120, 195.9683
479.9941, 194.5618
480.4763, 193.6445
480.9584, 193.1873
481.4405, 192.8256
481.9226, 192.3312
482.4047, 191.8685
482.8868, 191.6036
483.3690, 191.7410
483.8511, 191.7273
484.3332, 191.3108
484.8153, 190.6664
485.2974, 190.0701
485.7795, 189.4656
486.2617, 189.0260
486.7438, 188.8592
487.2259, 188.9578
487.7080, 188.9046
488.1901, 188.5688
488.6722, 188.2517
489.1544, 188.1599
489.6365, 188.3815
490.1186, 188.4908
490.6007, 188.4634
491.0828, 188.3381
491.5649, 188.1368
492.0471, 187.8544
492.5292, 187.6276
493.0113, 187.4518
493.4934, 187.3870
493.9755, 187.7603
494.4576, 188.5394
494.9398, 189.1181
495.4219, 188.8560
495.9040, 188.1234
496.3861, 187.5484
496.8682, 187.1759
497.3503, 187.0840
497.8325, 187.6309
498.3146, 188.4366
498.7967, 188.9232
499.2788, 188.5788
499.7609, 188.1281
500.2430, 187.9098
500.7252, 187.8902
501.2073, 187.8967
501.6894, 188.0640
502.1715, 188.1024
502.6536, 187.8389
503.1357, 187.1206
503.6179, 186.5016
504.1000, 185.9836
504.5821, 185.5794
505.0642, 185.3025
505.5463, 185.1624
506.0284, 185.1427
506.5106, 185.3329
506.9927, 185.6062
507.4748, 185.4449
507.9569, 184.7199
508.4390, 184.1725
508.9211, 184.3377
509.4033, 185.0926
509.8854, 185.3764
510.3675, 185.1512
510.8496, 184.7689
511.3317, 184.5179
511.8138, 184.3835
512.2960, 184.3571
512.7781, 184.5043
513.2602, 184.6138
513.7423, 184.4114
514.2244, 183.9962
514.7065, 183.6087
515.1887, 183.4854
515.6708, 183.3336
516.1529, 182.8493
516.6350, 182.0423
517.1171, 181.4897
517.5992, 181.6230
518.0814, 181.9316
518.5635, 182.0795
519.0456, 181.8732
519.5277, 181.7618
520.0098, 181.8709
520.4919, 182.0424
520.9741, 182.0191
521.4562, 181.6364
521.9383, 181.3979
522.4204, 181.4852
522.9025, 181.8203
523.3846, 181.8971
523.8668, 181.6766
524.3489, 181.3507
524.8310, 180.9526
525.3131, 180.5108
525.7952, 180.3501
526.2773, 180.5249
526.7595, 180.7309
527.2416, 180.5724
527.7237, 180.1710
528.2058, 179.8376
528.6879, 179.6993
529.1700, 179.6254
529.6522, 179.4564
530.1343, 179.2460
530.6164, 179.1419
531.0985, 179.3318
531.5806, 179.5658
532.0627, 179.7321
532.5449, 179.8269
533.0270, 179.7518
533.5091, 179.1506
533.9912, 178.5736
534.4733, 178.4233
534.9554, 179.3329
535.4376, 179.8057
535.9197, 179.6484
536.4018, 179.1436
536.8839, 178.7808
537.3660, 178.6024
537.8481, 178.4203
538.3303, 178.0960
538.8124, 177.7252
539.2945, 177.9626
539.7766, 178.8950
540.2587, 179.7011
540.7408, 179.7142
541.2230, 179.1271
541.7051, 178.6120
542.1872, 178.2105
542.6693, 177.9321
543.1514, 177.8511
543.6335, 177.8902
544.1157, 177.8941
544.5978, 177.7491
545.0799, 177.6513
545.5620, 177.7553
546.0441, 178.0138
546.5262, 178.3083
547.0084, 178.8115
547.4905, 179.1429
547.9726, 179.0121
548.4547, 178.3501
548.9368, 178.0161
549.4189, 178.3854
549.9011, 178.8532
550.3832, 179.0829
550.8653, 179.0086
551.3474, 178.7921
551.8295, 178.2648
552.3116, 177.7948
552.7938, 178.0902
553.2759, 179.2628
553.7580, 180.0998
554.2401, 180.2270
554.7222, 179.8612
555.2043, 179.3848
555.6865, 178.8324
556.1686, 178.5360
556.6507, 178.9673
557.1328, 179.6806
557.6149, 179.9588
558.0970, 179.7621
558.5792, 179.5364
559.0613, 179.6489
559.5434, 179.8699
560.0255, 179.9538
560.5076, 179.7302
560.9897, 179.5719
561.4719, 179.6873
561.9540, 179.9277
562.4361, 180.0434
562.9182, 179.8761
563.4003, 179.7182
563.8824, 179.5679
564.3646, 179.4485
564.8467, 179.5737
565.3288, 180.0957
565.8109, 180.5404
566.2930, 180.6235
566.7751, 180.3266
567.2573, 180.1084
567.7394, 179.9722
568.2215, 179.8833
568.7036, 179.7209
569.1857, 179.5584
569.6678, 179.7455
570.1500, 180.5100
570.6321, 181.2587
571.1142, 181.0992
571.5963, 180.3982
572.0784, 179.9809
572.5605, 180.4638
573.0427, 181.1237
573.5248, 181.5589
574.0069, 181.7869
574.4890, 182.0053
574.9711, 182.3413
575.4532, 182.6262
575.9354, 182.7922
576.4175, 182.8645
576.8996, 182.6929
577.3817, 182.0027
577.8638, 181.3396
578.3459, 181.2548
578.8281, 181.9337
579.3102, 182.4344
579.7923, 182.6340
580.2744, 182.6373
580.7565, 182.5665
581.2386, 182.4315
581.7208, 182.4335
582.2029, 182.7087
582.6850, 183.1261
583.1671, 183.4787
583.6492, 183.7705
584.1313, 184.0229
584.6134, 184.3770
585.0955, 184.6263
585.5776, 184.4473
586.0598, 183.7478
586.5419, 183.3176
