##NAMES=Metaheinrichite
##RRUFFID=R060778
##IDEAL CHEMISTRY=Ba(U^6+^O_2_)_2_(As^5+^O_4_)_2_&#183;8H_2_O
##LOCALITY=Schmiedestoll, Wittichen, Schwarzwald, Germany
##OWNER=RRUFF
##SOURCE=Michael Scott
##DESCRIPTION=Pale green thin tabular crystals with rectangular outline
##STATUS=The identification of this mineral has been confirmed only by single crystal X-ray diffraction.
##URL=rruff.info/R060778
159.133, 6865.852
159.615, 6905.005
160.097, 6957.017
160.579, 7012.659
161.061, 7069.910
161.543, 7132.792
162.025, 7210.153
162.508, 7305.654
162.990, 7393.535
163.472, 7452.755
163.954, 7508.072
164.436, 7580.131
164.918, 7675.022
165.400, 7776.885
165.882, 7861.737
166.365, 7922.438
166.847, 7990.175
167.329, 8087.193
167.811, 8185.646
168.293, 8263.911
168.775, 8314.827
169.257, 8350.628
169.739, 8388.725
170.221, 8429.998
170.704, 8471.479
171.186, 8516.934
171.668, 8560.584
172.150, 8597.655
172.632, 8626.831
173.114, 8649.905
173.596, 8668.650
174.078, 8680.311
174.561, 8694.927
175.043, 8711.493
175.525, 8732.933
176.007, 8762.334
176.489, 8801.011
176.971, 8845.843
177.453, 8891.110
177.935, 8933.339
178.417, 8983.827
178.900, 9045.606
179.382, 9114.163
179.864, 9187.089
180.346, 9263.313
180.828, 9340.909
181.310, 9413.185
181.792, 9467.721
182.274, 9543.281
182.757, 9655.892
183.239, 9780.353
183.721, 9896.554
184.203, 9997.728
184.685, 10090.630
185.167, 10188.330
185.649, 10296.000
186.131, 10397.790
186.613, 10492.710
187.096, 10581.720
187.578, 10665.560
188.060, 10744.450
188.542, 10820.100
189.024, 10898.560
189.506, 10991.940
189.988, 11062.050
190.470, 11109.090
190.952, 11135.830
191.435, 11142.330
191.917, 11129.250
192.399, 11101.850
192.881, 11070.800
193.363, 11047.560
193.845, 10995.530
194.327, 10903.790
194.809, 10794.430
195.292, 10682.300
195.774, 10571.850
196.256, 10460.000
196.738, 10340.160
197.220, 10202.220
197.702, 10077.620
198.184, 9974.923
198.666, 9878.017
199.148, 9771.786
199.631, 9654.277
200.113, 9539.861
200.595, 9451.796
201.077, 9412.229
201.559, 9351.955
202.041, 9247.500
202.523, 9143.118
203.005, 9072.245
203.488, 9038.330
203.970, 9017.444
204.452, 8976.062
204.934, 8898.171
205.416, 8841.266
205.898, 8818.948
206.380, 8803.048
206.862, 8780.845
207.344, 8748.855
207.827, 8707.087
208.309, 8650.848
208.791, 8566.516
209.273, 8514.870
209.755, 8511.613
210.237, 8523.135
210.719, 8540.318
211.201, 8557.825
211.684, 8567.326
212.166, 8557.230
212.648, 8520.116
213.130, 8499.063
213.612, 8513.778
214.094, 8525.588
214.576, 8510.624
215.058, 8474.822
215.540, 8443.906
216.023, 8444.791
216.505, 8482.823
216.987, 8503.629
217.469, 8490.642
217.951, 8476.800
218.433, 8474.359
218.915, 8481.322
219.397, 8489.793
219.880, 8494.352
220.362, 8495.123
220.844, 8488.209
221.326, 8462.390
221.808, 8439.744
222.290, 8426.437
222.772, 8420.734
223.254, 8419.591
223.736, 8422.445
224.219, 8427.883
224.701, 8420.190
225.183, 8383.590
225.665, 8349.775
226.147, 8324.608
226.629, 8306.689
227.111, 8293.967
227.593, 8285.970
228.076, 8280.797
228.558, 8269.082
229.040, 8240.543
229.522, 8218.852
230.004, 8206.173
230.486, 8202.981
230.968, 8211.546
231.450, 8233.845
231.932, 8264.338
232.415, 8283.049
232.897, 8257.286
233.379, 8278.283
233.861, 8429.406
234.343, 8595.710
234.825, 8651.763
235.307, 8548.338
235.789, 8367.098
236.271, 8262.398
236.754, 8263.754
237.236, 8278.439
237.718, 8304.487
238.200, 8329.802
238.682, 8342.369
239.164, 8339.632
239.646, 8333.847
240.128, 8343.935
240.611, 8375.805
241.093, 8402.906
241.575, 8432.328
242.057, 8449.016
242.539, 8434.771
243.021, 8390.859
243.503, 8345.230
243.985, 8331.658
244.467, 8355.230
244.950, 8368.453
245.432, 8361.500
245.914, 8348.142
246.396, 8329.373
246.878, 8308.256
247.360, 8294.571
247.842, 8301.128
248.324, 8326.948
248.807, 8343.880
249.289, 8344.839
249.771, 8343.974
250.253, 8352.080
250.735, 8364.763
251.217, 8369.640
251.699, 8352.344
252.181, 8320.205
252.663, 8305.739
253.146, 8319.374
253.628, 8332.214
254.110, 8323.536
254.592, 8304.714
255.074, 8296.504
255.556, 8316.407
256.038, 8346.851
256.520, 8347.242
257.003, 8305.241
257.485, 8273.474
257.967, 8296.343
258.449, 8338.941
258.931, 8359.517
259.413, 8341.939
259.895, 8306.745
260.377, 8271.458
260.859, 8235.016
261.341, 8215.146
261.824, 8231.051
262.306, 8261.430
262.788, 8280.814
263.270, 8286.811
263.752, 8282.715
264.234, 8266.070
264.716, 8239.035
265.198, 8216.823
265.681, 8203.199
266.163, 8197.781
266.645, 8200.184
267.127, 8211.230
267.609, 8223.112
268.091, 8231.508
268.573, 8237.996
269.055, 8247.736
269.538, 8263.763
270.020, 8278.280
270.502, 8279.523
270.984, 8268.754
271.466, 8258.192
271.948, 8249.359
272.430, 8243.175
272.912, 8240.685
273.394, 8242.025
273.877, 8247.148
274.359, 8257.720
274.841, 8273.531
275.323, 8285.125
275.805, 8292.516
276.287, 8295.043
276.769, 8289.675
277.251, 8277.523
277.733, 8265.926
278.216, 8260.174
278.698, 8259.302
279.180, 8255.240
279.662, 8241.745
280.144, 8231.839
280.626, 8236.715
281.108, 8249.085
281.590, 8251.482
282.073, 8234.196
282.555, 8204.300
283.037, 8184.666
283.519, 8188.549
284.001, 8185.610
284.483, 8169.697
284.965, 8146.365
285.447, 8120.155
285.930, 8092.875
286.412, 8067.624
286.894, 8049.605
287.376, 8043.041
287.858, 8036.505
288.340, 8031.975
288.822, 8026.284
289.304, 8018.340
289.786, 8007.467
290.268, 7991.763
290.751, 7967.640
291.233, 7931.880
291.715, 7906.526
292.197, 7894.634
292.679, 7889.463
293.161, 7897.158
293.643, 7910.141
294.125, 7911.322
294.608, 7885.857
295.090, 7837.728
295.572, 7802.717
296.054, 7781.109
296.536, 7773.905
297.018, 7788.568
297.500, 7814.317
297.982, 7838.020
298.465, 7853.592
298.947, 7863.402
299.429, 7871.458
299.911, 7875.658
300.393, 7883.267
300.875, 7895.561
301.357, 7911.746
301.839, 7932.624
302.321, 7958.315
302.804, 7984.838
303.286, 8007.697
303.768, 8026.690
304.250, 8046.286
304.732, 8063.592
305.214, 8085.902
305.696, 8118.412
306.178, 8160.671
306.660, 8207.457
307.143, 8250.244
307.625, 8294.893
308.107, 8363.018
308.589, 8464.379
309.071, 8567.082
309.553, 8633.986
310.035, 8682.412
310.517, 8753.958
311.000, 8869.281
311.482, 9007.312
311.964, 9140.903
312.446, 9270.158
312.928, 9418.812
313.410, 9605.457
313.892, 9818.511
314.374, 10019.960
314.857, 10179.010
315.339, 10370.320
315.821, 10662.260
316.303, 11013.750
316.785, 11327.590
317.267, 11569.770
317.749, 11764.470
318.231, 11957.070
318.713, 12158.080
319.195, 12330.080
319.678, 12474.750
320.160, 12584.950
320.642, 12665.450
321.124, 12712.860
321.606, 12693.080
322.088, 12564.480
322.570, 12308.530
323.052, 12041.600
323.535, 11769.910
324.017, 11483.960
324.499, 11167.920
324.981, 10831.830
325.463, 10503.000
325.945, 10196.820
326.427, 9914.754
326.909, 9665.753
327.392, 9464.167
327.874, 9282.291
328.356, 9114.912
328.838, 8966.371
329.320, 8845.104
329.802, 8754.363
330.284, 8681.403
330.766, 8605.835
331.248, 8527.581
331.731, 8448.883
332.213, 8360.622
332.695, 8279.591
333.177, 8214.420
333.659, 8166.058
334.141, 8129.386
334.623, 8105.220
335.105, 8091.976
335.587, 8071.695
336.070, 8039.058
336.552, 8007.423
337.034, 7994.898
337.516, 7988.061
337.998, 7957.181
338.480, 7869.583
338.962, 7769.434
339.444, 7729.916
339.927, 7756.136
340.409, 7776.014
340.891, 7751.971
341.373, 7705.041
341.855, 7671.833
342.337, 7653.689
342.819, 7648.682
343.301, 7669.301
343.784, 7701.961
344.266, 7707.942
344.748, 7671.251
345.230, 7625.038
345.712, 7617.273
346.194, 7655.570
346.676, 7679.149
347.158, 7664.883
347.640, 7644.500
348.122, 7650.065
348.605, 7679.863
349.087, 7705.200
349.569, 7701.950
350.051, 7671.467
350.533, 7655.075
351.015, 7662.227
351.497, 7670.588
351.979, 7675.570
352.462, 7677.518
352.944, 7677.605
353.426, 7676.359
353.908, 7673.260
354.390, 7666.154
354.872, 7647.905
355.354, 7639.889
355.836, 7651.099
356.319, 7665.065
356.801, 7671.522
357.283, 7669.246
357.765, 7662.606
358.247, 7654.921
358.729, 7646.229
359.211, 7638.046
359.693, 7630.058
360.175, 7623.153
360.658, 7618.403
361.140, 7614.842
361.622, 7610.786
362.104, 7605.626
362.586, 7599.467
363.068, 7588.825
363.550, 7572.003
364.032, 7568.521
364.514, 7595.951
364.997, 7633.770
365.479, 7654.315
365.961, 7653.415
366.443, 7650.437
366.925, 7656.352
367.407, 7667.595
367.889, 7675.468
368.371, 7677.424
368.853, 7680.767
369.336, 7694.410
369.818, 7718.996
370.300, 7739.367
370.782, 7750.750
371.264, 7761.067
371.746, 7772.315
372.228, 7786.460
372.711, 7810.646
373.193, 7851.143
373.675, 7901.387
374.157, 7934.862
374.639, 7935.388
375.121, 7938.706
375.603, 7950.511
376.085, 7964.654
376.567, 7972.702
377.049, 7973.687
377.532, 7976.768
378.014, 7995.351
378.496, 8034.355
378.978, 8065.837
379.460, 8087.675
379.942, 8103.208
380.424, 8107.952
380.906, 8107.172
381.389, 8111.586
381.871, 8128.189
382.353, 8153.196
382.835, 8179.202
383.317, 8208.842
383.799, 8230.182
384.281, 8231.489
384.763, 8226.026
385.246, 8225.715
385.728, 8232.365
386.210, 8242.877
386.692, 8257.828
387.174, 8275.188
387.656, 8286.553
388.138, 8288.140
388.620, 8291.439
389.102, 8311.038
389.585, 8345.520
390.067, 8373.655
390.549, 8392.182
391.031, 8404.260
391.513, 8408.887
391.995, 8408.259
392.477, 8409.777
392.959, 8417.749
393.441, 8429.998
393.924, 8439.780
394.406, 8442.736
394.888, 8448.637
395.370, 8464.873
395.852, 8480.061
396.334, 8483.899
396.816, 8474.568
397.298, 8456.746
397.780, 8434.154
398.263, 8405.942
398.745, 8381.542
399.227, 8366.701
399.709, 8349.332
400.191, 8321.225
400.673, 8288.849
401.155, 8265.237
401.638, 8259.728
402.120, 8256.803
402.602, 8225.540
403.084, 8161.231
403.566, 8105.570
404.048, 8078.667
404.530, 8057.475
405.012, 8014.771
405.494, 7949.277
405.977, 7894.359
406.459, 7871.693
406.941, 7868.156
407.423, 7864.335
407.905, 7858.555
408.387, 7847.430
408.869, 7826.568
409.351, 7797.652
409.833, 7774.010
410.316, 7751.605
410.798, 7738.645
411.280, 7746.890
411.762, 7764.436
412.244, 7767.992
412.726, 7749.530
413.208, 7728.413
413.690, 7739.209
414.172, 7807.212
414.655, 7839.138
415.137, 7810.725
415.619, 7774.719
416.101, 7749.831
416.583, 7739.854
417.065, 7748.317
417.547, 7783.214
418.029, 7831.283
418.512, 7843.178
418.994, 7801.133
419.476, 7768.083
419.958, 7765.438
420.440, 7778.584
420.922, 7802.031
421.404, 7835.650
421.886, 7860.817
422.368, 7850.901
422.851, 7821.724
423.333, 7825.694
423.815, 7876.568
424.297, 7930.822
424.779, 7954.196
425.261, 7949.415
425.743, 7940.087
426.225, 7919.998
426.708, 7902.955
427.190, 7896.650
427.672, 7898.917
428.154, 7905.747
428.636, 7915.816
429.118, 7927.545
429.600, 7937.534
430.082, 7940.196
430.565, 7954.513
431.047, 7968.351
431.529, 8005.797
432.011, 8037.514
432.493, 8063.812
432.975, 8068.442
433.457, 8101.046
433.939, 8122.439
434.421, 8143.372
434.904, 8179.914
435.386, 8187.700
435.868, 8222.462
436.350, 8256.036
436.832, 8301.221
437.314, 8355.233
437.796, 8408.645
438.278, 8458.637
438.760, 8502.715
439.243, 8529.205
439.725, 8533.073
440.207, 8537.932
440.689, 8560.321
441.171, 8599.491
441.653, 8644.613
442.135, 8703.451
442.617, 8759.876
443.099, 8806.727
443.582, 8846.012
444.064, 8878.296
444.546, 8903.762
445.028, 8930.739
445.510, 8973.900
445.992, 9046.073
446.474, 9091.052
446.957, 9081.738
447.439, 9075.570
447.921, 9101.918
448.403, 9151.146
448.885, 9200.586
449.367, 9238.895
449.849, 9266.890
450.331, 9284.996
450.813, 9290.892
451.296, 9297.448
451.778, 9316.496
452.260, 9329.979
452.742, 9314.033
453.224, 9270.969
453.706, 9246.152
454.188, 9287.908
454.670, 9351.050
455.152, 9355.316
455.635, 9297.801
456.117, 9248.747
456.599, 9254.717
457.081, 9297.214
457.563, 9306.719
458.045, 9254.486
458.527, 9217.913
459.009, 9230.120
459.491, 9255.067
459.974, 9253.523
460.456, 9220.444
460.938, 9178.324
461.420, 9150.000
461.902, 9135.385
462.384, 9109.912
462.866, 9069.359
463.348, 9022.548
463.831, 8963.583
464.313, 8903.816
464.795, 8860.178
465.277, 8838.993
465.759, 8816.729
466.241, 8762.555
466.723, 8681.146
467.205, 8612.647
467.687, 8565.729
468.170, 8523.726
468.652, 8469.939
469.134, 8408.979
469.616, 8358.354
470.098, 8331.578
470.580, 8305.154
471.062, 8264.504
471.544, 8213.357
472.026, 8157.378
472.509, 8098.512
472.991, 8042.613
473.473, 8000.441
473.955, 7977.745
474.437, 7950.193
474.919, 7912.633
475.401, 7876.136
475.883, 7847.068
476.366, 7822.744
476.848, 7795.953
477.330, 7762.201
477.812, 7727.807
478.294, 7710.822
478.776, 7717.187
479.258, 7701.720
479.740, 7638.469
480.223, 7567.475
480.705, 7525.895
481.187, 7509.625
481.669, 7487.326
482.151, 7427.261
482.633, 7368.817
483.115, 7368.561
483.597, 7416.537
484.079, 7448.093
484.561, 7431.499
485.044, 7383.515
485.526, 7338.582
486.008, 7292.497
486.490, 7258.852
486.972, 7243.195
487.454, 7235.339
487.936, 7232.713
488.418, 7231.909
488.901, 7225.774
489.383, 7208.513
489.865, 7184.140
490.347, 7166.970
490.829, 7161.306
491.311, 7150.291
491.793, 7123.839
492.275, 7094.523
492.758, 7069.309
493.240, 7048.937
493.722, 7036.067
494.204, 7039.422
494.686, 7047.622
495.168, 7042.198
495.650, 7023.161
496.132, 7002.296
496.614, 6985.021
497.097, 6971.398
497.579, 6962.262
498.061, 6961.761
498.543, 6958.141
499.025, 6950.379
499.507, 6939.120
499.989, 6924.579
500.471, 6907.003
500.953, 6886.610
501.436, 6862.916
501.918, 6837.021
502.400, 6812.607
502.882, 6785.927
503.364, 6769.586
503.846, 6776.756
504.328, 6788.866
504.810, 6792.142
505.293, 6785.540
505.775, 6776.363
506.257, 6768.423
506.739, 6760.587
507.221, 6747.987
507.703, 6731.056
508.185, 6723.726
508.667, 6737.822
509.150, 6762.342
509.632, 6764.896
510.114, 6727.744
510.596, 6701.190
511.078, 6699.211
511.560, 6702.065
512.042, 6693.992
512.524, 6675.430
513.006, 6655.039
513.489, 6637.705
513.971, 6625.107
514.453, 6626.191
514.935, 6649.049
515.417, 6662.758
515.899, 6650.429
516.381, 6632.526
516.863, 6625.104
517.346, 6628.531
517.828, 6630.972
518.310, 6624.419
518.792, 6614.938
519.274, 6610.685
519.756, 6611.382
520.238, 6613.277
520.720, 6615.337
521.202, 6615.771
521.685, 6610.359
522.167, 6594.301
522.649, 6580.843
523.131, 6571.742
523.613, 6563.620
524.095, 6551.336
524.577, 6537.974
525.059, 6532.186
525.541, 6539.864
526.024, 6555.989
526.506, 6571.942
526.988, 6589.542
527.470, 6595.576
527.952, 6581.107
528.434, 6560.627
528.916, 6549.566
529.398, 6545.762
529.880, 6533.274
530.363, 6490.784
530.845, 6451.621
531.327, 6454.292
531.809, 6484.452
532.291, 6494.247
532.773, 6463.638
533.255, 6420.889
533.737, 6412.971
534.219, 6456.298
534.702, 6477.544
535.184, 6454.720
535.666, 6434.442
536.148, 6433.978
536.630, 6448.402
537.112, 6471.608
537.594, 6503.214
538.076, 6527.725
538.559, 6521.512
539.041, 6487.520
539.523, 6454.763
540.005, 6425.779
540.487, 6401.694
540.969, 6382.007
541.451, 6367.883
541.933, 6363.739
542.416, 6384.322
542.898, 6398.187
543.380, 6386.508
543.862, 6363.773
544.344, 6350.668
544.826, 6350.990
545.308, 6352.082
545.790, 6339.571
546.273, 6314.280
546.755, 6300.352
547.237, 6305.541
547.719, 6309.539
548.201, 6311.104
548.683, 6306.384
549.165, 6286.060
549.647, 6248.656
550.129, 6219.867
550.612, 6222.740
551.094, 6242.285
551.576, 6256.673
552.058, 6263.956
552.540, 6258.287
553.022, 6232.617
553.504, 6196.854
553.986, 6177.768
554.468, 6193.784
554.951, 6197.799
555.433, 6174.179
555.915, 6151.997
556.397, 6154.313
556.879, 6174.875
557.361, 6193.115
557.843, 6198.133
558.325, 6191.863
558.807, 6174.981
559.290, 6146.659
559.772, 6121.332
560.254, 6100.646
560.736, 6085.856
561.218, 6080.774
561.700, 6083.695
562.182, 6086.230
562.664, 6090.458
563.146, 6090.422
563.629, 6077.167
564.111, 6058.831
564.593, 6052.497
565.075, 6062.016
565.557, 6071.629
566.039, 6060.262
566.521, 6026.390
567.003, 6009.223
567.486, 6024.039
567.968, 6032.538
568.450, 6020.207
568.932, 5997.628
569.414, 5972.761
569.896, 5946.463
570.378, 5930.570
570.860, 5941.098
571.343, 5963.680
571.825, 5975.875
572.307, 5976.288
572.789, 5969.356
573.271, 5956.004
573.753, 5939.635
574.235, 5929.010
574.717, 5925.693
575.200, 5926.127
575.682, 5937.968
576.164, 5946.383
576.646, 5943.629
577.128, 5930.244
577.610, 5906.381
578.092, 5867.756
578.574, 5832.192
579.056, 5830.294
579.539, 5859.491
580.021, 5889.637
580.503, 5919.137
580.985, 5937.272
581.467, 5930.160
581.949, 5899.493
582.431, 5876.191
582.913, 5855.045
583.395, 5847.463
583.878, 5867.059
584.360, 5896.860
584.842, 5924.167
585.324, 5942.759
585.806, 5940.234
586.288, 5897.506
586.770, 5826.104
587.252, 5789.898
587.734, 5796.373
588.217, 5814.073
588.699, 5844.410
589.181, 5873.141
589.663, 5884.616
590.145, 5878.525
590.627, 5868.940
591.109, 5855.065
591.591, 5843.587
592.073, 5844.912
592.556, 5852.846
593.038, 5848.740
593.520, 5825.456
594.002, 5799.063
594.484, 5796.451
594.966, 5823.529
595.448, 5835.140
595.930, 5820.376
596.413, 5804.432
596.895, 5792.036
597.377, 5785.726
597.859, 5792.730
598.341, 5817.359
598.823, 5834.143
599.305, 5822.580
599.787, 5795.127
600.269, 5764.649
600.752, 5734.639
601.234, 5720.210
601.716, 5732.369
602.198, 5760.136
602.680, 5773.379
603.162, 5757.424
603.644, 5755.663
604.127, 5781.331
604.609, 5807.338
605.091, 5820.936
605.573, 5824.463
606.055, 5824.482
606.537, 5823.308
607.019, 5820.158
607.501, 5816.726
607.983, 5810.688
608.466, 5790.026
608.948, 5751.433
609.430, 5719.001
609.912, 5712.711
610.394, 5728.427
610.876, 5740.906
611.358, 5747.695
611.840, 5754.419
612.322, 5760.601
612.805, 5767.424
613.287, 5778.773
613.769, 5792.047
614.251, 5797.585
614.733, 5785.820
615.215, 5769.972
615.697, 5775.971
616.179, 5800.705
616.661, 5812.917
617.144, 5803.438
617.626, 5785.938
618.108, 5771.101
618.590, 5759.146
619.072, 5756.750
619.554, 5781.131
620.036, 5792.534
620.518, 5764.977
621.000, 5730.583
621.483, 5724.947
621.965, 5748.986
622.447, 5774.214
622.929, 5778.778
623.411, 5769.669
623.893, 5762.052
624.375, 5755.807
624.857, 5753.752
625.340, 5758.202
625.822, 5764.323
626.304, 5766.443
626.786, 5764.203
627.268, 5762.839
627.750, 5764.854
628.232, 5765.054
628.714, 5758.738
629.196, 5751.021
629.679, 5749.269
630.161, 5754.328
630.643, 5759.634
631.125, 5758.868
631.607, 5753.812
632.089, 5749.668
632.571, 5746.021
633.054, 5748.190
633.536, 5762.288
634.018, 5777.324
634.500, 5777.134
634.982, 5760.338
635.464, 5745.949
635.946, 5734.417
636.428, 5726.474
636.910, 5723.072
637.393, 5723.134
637.875, 5725.354
638.357, 5729.281
638.839, 5735.168
639.321, 5748.468
639.803, 5764.130
640.285, 5752.448
640.767, 5707.463
641.250, 5674.822
641.732, 5675.860
642.214, 5692.200
642.696, 5697.296
643.178, 5689.693
643.660, 5684.790
644.142, 5687.898
644.624, 5689.674
645.106, 5683.466
645.589, 5673.927
646.071, 5667.667
646.553, 5666.645
647.035, 5669.243
647.517, 5678.909
647.999, 5691.305
648.481, 5680.892
648.963, 5643.160
649.445, 5617.721
649.928, 5623.841
650.410, 5645.122
650.892, 5657.881
651.374, 5660.844
651.856, 5663.602
652.338, 5667.261
652.820, 5670.029
653.302, 5668.379
653.784, 5666.383
654.267, 5674.707
654.749, 5693.927
655.231, 5703.583
655.713, 5670.755
656.195, 5612.782
656.677, 5597.610
657.159, 5628.574
657.641, 5650.940
658.123, 5640.255
658.606, 5617.738
659.088, 5615.839
659.570, 5642.638
660.052, 5648.091
660.534, 5613.061
661.016, 5579.104
661.498, 5560.002
661.981, 5551.540
662.463, 5549.122
662.945, 5551.158
663.427, 5555.973
663.909, 5563.576
664.391, 5572.524
664.873, 5580.344
665.355, 5586.923
665.837, 5589.307
666.320, 5586.275
666.802, 5578.934
667.284, 5566.363
667.766, 5545.973
668.248, 5541.748
668.730, 5577.949
669.212, 5599.157
669.694, 5579.249
670.177, 5545.883
670.659, 5526.042
671.141, 5523.803
671.623, 5529.904
672.105, 5541.598
672.587, 5555.899
673.069, 5571.160
673.551, 5585.787
674.033, 5590.517
674.516, 5582.118
674.998, 5569.146
675.480, 5560.586
675.962, 5556.428
676.444, 5555.045
676.926, 5562.591
677.408, 5563.640
677.890, 5550.335
678.372, 5534.111
678.855, 5525.560
679.337, 5523.605
679.819, 5517.596
680.301, 5494.210
680.783, 5473.742
681.265, 5479.802
681.747, 5501.606
