##NAMES=Meta-autunite
##RRUFFID=R050612
##IDEAL CHEMISTRY=Ca(U^6+^O_2_)_2_(PO_4_)_2_&#183;6H_2_O
##LOCALITY=Daybreak mine, Mt. Spokane, Spokane County, Washington, USA
##OWNER=RRUFF
##SOURCE=Dave Bunk Minerals
##DESCRIPTION=Green thin tabular crystal
##STATUS=The identification of this mineral has been confirmed by X-ray diffraction and chemical analysis
##URL=rruff.info/R050612
##MEASURED CHEMISTRY=(Ca_0.85_[box]_0.15_)_Σ=1_(U_1.00_O_2_)_2_(P_1.00_O_4_)_2_·3((H_2_O)_0.90_(H_3_O)^+^_0.10_)
92.06543, 420.5924
92.54755, 415.5876
93.02966, 416.3958
93.51178, 422.5376
93.99390, 427.3366
94.47601, 431.1487
94.95813, 434.1102
95.44025, 436.0809
95.92236, 436.9040
96.40448, 436.3699
96.88660, 435.6133
97.36871, 435.4100
97.85082, 434.8763
98.33294, 433.2441
98.81506, 430.1893
99.29717, 425.9152
99.77929, 422.6377
100.2614, 420.3782
100.7435, 418.0247
101.2256, 414.6192
101.7078, 410.8126
102.1899, 408.2545
102.6720, 407.4610
103.1541, 407.7630
103.6362, 408.3007
104.1183, 409.0502
104.6005, 410.1020
105.0826, 411.8089
105.5647, 414.3443
106.0468, 416.1014
106.5289, 415.9521
107.0110, 415.2666
107.4931, 414.7563
107.9753, 414.6230
108.4574, 414.7182
108.9395, 414.7018
109.4216, 414.0548
109.9037, 414.1474
110.3858, 415.3990
110.8680, 417.2524
111.3501, 419.2293
111.8322, 421.0948
112.3143, 422.7801
112.7964, 423.8507
113.2785, 424.1533
113.7607, 424.0799
114.2428, 423.4860
114.7249, 422.5429
115.2070, 421.6497
115.6891, 421.1119
116.1712, 420.9285
116.6534, 420.6798
117.1355, 420.5629
117.6176, 420.2541
118.0997, 419.3280
118.5818, 417.7108
119.0639, 416.1339
119.5461, 415.4770
120.0282, 415.4552
120.5103, 415.2480
120.9924, 414.6339
121.4745, 413.6664
121.9566, 412.3896
122.4388, 410.5615
122.9209, 408.8059
123.4030, 407.7152
123.8851, 407.1017
124.3672, 406.2923
124.8493, 404.7107
125.3315, 402.3016
125.8136, 399.8677
126.2957, 397.3244
126.7778, 394.8746
127.2599, 392.5039
127.7420, 390.2705
128.2242, 388.3026
128.7063, 386.8974
129.1884, 386.6247
129.6705, 385.6991
130.1526, 383.8011
130.6347, 381.5544
131.1169, 379.4028
131.5990, 377.4986
132.0811, 375.7258
132.5632, 373.8333
133.0453, 371.5007
133.5274, 369.4328
134.0096, 367.8091
134.4917, 366.4484
134.9738, 365.1201
135.4559, 363.7222
135.9380, 362.2721
136.4201, 360.8330
136.9023, 359.2752
137.3844, 357.8873
137.8665, 356.8210
138.3486, 356.0465
138.8307, 355.4492
139.3128, 355.0961
139.7950, 354.8357
140.2771, 354.3243
140.7592, 353.3680
141.2413, 352.3330
141.7234, 351.5860
142.2055, 351.1611
142.6877, 350.8628
143.1698, 350.4740
143.6519, 350.1734
144.1340, 350.2147
144.6161, 350.7538
145.0982, 351.6626
145.5803, 352.6785
146.0625, 354.0864
146.5446, 355.0945
147.0267, 355.1313
147.5088, 354.6865
147.9909, 354.5427
148.4730, 355.3166
148.9552, 356.9401
149.4373, 357.9910
149.9194, 357.5097
150.4015, 357.3167
150.8836, 357.7863
151.3657, 358.9269
151.8479, 360.6871
152.3300, 363.1263
152.8121, 366.5319
153.2942, 368.8716
153.7763, 369.6484
154.2584, 370.0655
154.7406, 370.5998
155.2227, 371.3432
155.7048, 372.2405
156.1869, 373.2322
156.6690, 374.3201
157.1511, 375.5637
157.6333, 376.8921
158.1154, 378.4069
158.5975, 380.3104
159.0796, 382.6590
159.5617, 385.0535
160.0438, 386.8440
160.5260, 387.9806
161.0081, 389.4348
161.4902, 391.3285
161.9723, 393.6923
162.4544, 396.6406
162.9365, 400.2756
163.4187, 404.3454
163.9008, 408.8553
164.3829, 413.7803
164.8650, 418.0058
165.3471, 420.4879
165.8292, 421.5009
166.3113, 422.7660
166.7935, 424.3702
167.2756, 426.6710
167.7577, 429.9828
168.2398, 434.2968
168.7219, 439.0458
169.2040, 443.5064
169.6862, 447.4901
170.1683, 452.4101
170.6504, 458.9153
171.1325, 466.1414
171.6146, 473.9214
172.0967, 482.1388
172.5789, 490.4859
173.0610, 498.4724
173.5431, 505.8219
174.0252, 513.4476
174.5073, 521.4998
174.9894, 529.7986
175.4716, 537.9902
175.9537, 545.9968
176.4358, 554.4178
176.9179, 564.5190
177.4000, 578.2407
177.8821, 591.0959
178.3643, 601.9869
178.8464, 612.3934
179.3285, 623.7966
179.8106, 636.8464
180.2927, 650.9713
180.7748, 664.5201
181.2570, 676.6433
181.7391, 689.2681
182.2212, 702.9402
182.7033, 717.1743
183.1854, 730.9262
183.6675, 743.5666
184.1497, 755.8032
184.6318, 770.1297
185.1139, 787.6512
185.5960, 804.9789
186.0781, 820.8157
186.5602, 835.4808
187.0423, 849.7576
187.5245, 863.5659
188.0066, 877.5177
188.4887, 893.0493
188.9708, 910.7076
189.4529, 928.6648
189.9350, 946.2030
190.4172, 963.1932
190.8993, 978.9706
191.3814, 992.5120
191.8635, 1004.943
192.3456, 1018.356
192.8277, 1033.743
193.3099, 1048.406
193.7920, 1059.897
194.2741, 1068.135
194.7562, 1073.910
195.2383, 1077.029
195.7204, 1077.889
196.2026, 1076.625
196.6847, 1073.385
197.1668, 1067.673
197.6489, 1058.874
198.1310, 1047.159
198.6131, 1031.566
199.0953, 1011.007
199.5774, 987.2305
200.0595, 961.5352
200.5416, 934.2443
201.0237, 905.6069
201.5058, 876.3765
201.9880, 846.5330
202.4701, 815.8414
202.9522, 783.8255
203.4343, 751.4314
203.9164, 719.5335
204.3985, 688.5303
204.8807, 658.6070
205.3628, 630.4771
205.8449, 604.7747
206.3270, 580.5342
206.8091, 558.1204
207.2912, 536.9787
207.7733, 516.3079
208.2555, 495.7831
208.7376, 475.6691
209.2197, 456.9814
209.7018, 439.7239
210.1839, 424.0439
210.6660, 410.6846
211.1482, 398.8253
211.6303, 387.2728
212.1124, 375.3548
212.5945, 363.5058
213.0766, 353.2869
213.5587, 345.7021
214.0409, 338.4059
214.5230, 330.9452
215.0051, 323.4542
215.4872, 316.0598
215.9693, 308.7787
216.4514, 301.7232
216.9336, 295.4501
217.4157, 290.2062
217.8978, 285.1773
218.3799, 280.1526
218.8620, 275.1440
219.3441, 270.0220
219.8263, 264.5839
220.3084, 259.2125
220.7905, 254.8788
221.2726, 251.8234
221.7547, 249.1738
222.2368, 246.7297
222.7190, 244.4049
223.2011, 241.8124
223.6832, 238.6605
224.1653, 235.2462
224.6474, 232.1099
225.1295, 229.2361
225.6117, 226.6538
226.0938, 224.5644
226.5759, 222.8965
227.0580, 221.0586
227.5401, 218.6624
228.0222, 216.1213
228.5043, 213.9622
228.9865, 212.2939
229.4686, 210.7178
229.9507, 208.8925
230.4328, 206.8244
230.9149, 204.8504
231.3970, 203.1406
231.8792, 201.5378
232.3613, 199.8807
232.8434, 198.1490
233.3255, 196.4656
233.8076, 194.9741
234.2897, 193.6912
234.7719, 192.4092
235.2540, 190.8735
235.7361, 189.4738
236.2182, 188.4560
236.7003, 187.8541
237.1824, 187.5557
237.6646, 187.5658
238.1467, 187.9929
238.6288, 188.1079
239.1109, 187.4825
239.5930, 186.7376
240.0751, 186.1709
240.5573, 185.8228
241.0394, 185.5693
241.5215, 185.3263
242.0036, 185.1574
242.4857, 184.7193
242.9678, 183.2689
243.4500, 182.1133
243.9321, 182.1183
244.4142, 183.2464
244.8963, 184.6947
245.3784, 185.4732
245.8605, 185.2446
246.3427, 185.5947
246.8248, 187.2475
247.3069, 188.8354
247.7890, 189.5822
248.2711, 189.5329
248.7532, 189.3087
249.2354, 189.6001
249.7175, 190.5985
250.1996, 191.2918
250.6817, 191.2476
251.1638, 191.3147
251.6459, 191.9168
252.1281, 193.0326
252.6102, 194.4003
253.0923, 195.8375
253.5744, 197.4398
254.0565, 198.4282
254.5386, 198.6352
255.0208, 198.5117
255.5029, 198.0077
255.9850, 197.2941
256.4671, 196.7782
256.9492, 196.8284
257.4313, 197.4938
257.9135, 198.1770
258.3956, 198.9159
258.8777, 199.6315
259.3598, 200.3767
259.8419, 201.0881
260.3240, 201.5668
260.8062, 201.6051
261.2883, 201.2102
261.7704, 201.3224
262.2525, 202.3156
262.7346, 203.3154
263.2167, 203.9237
263.6989, 204.2443
264.1810, 204.5810
264.6631, 205.1161
265.1452, 205.8455
265.6273, 206.7328
266.1094, 208.1770
266.5916, 209.3266
267.0737, 209.5369
267.5558, 209.1935
268.0379, 209.3183
268.5200, 210.6121
269.0021, 212.6321
269.4843, 213.4851
269.9664, 212.4731
270.4485, 211.4260
270.9306, 210.7595
271.4127, 210.4700
271.8948, 210.6212
272.3770, 211.3197
272.8591, 212.3307
273.3412, 213.1146
273.8233, 213.9141
274.3054, 214.1223
274.7875, 213.0884
275.2697, 211.3846
275.7518, 210.1642
276.2339, 209.9213
276.7160, 210.0792
277.1981, 209.3991
277.6802, 207.6377
278.1623, 206.3576
278.6444, 206.3172
279.1266, 206.9691
279.6087, 207.4169
280.0908, 207.4322
280.5729, 207.2078
281.0550, 206.9056
281.5371, 206.5083
282.0193, 206.3053
282.5014, 206.6441
282.9835, 207.1301
283.4656, 207.1126
283.9477, 206.4200
284.4298, 205.5874
284.9120, 205.2718
285.3941, 205.3860
285.8762, 205.2625
286.3583, 204.8031
286.8404, 204.0153
287.3225, 202.7946
287.8047, 201.0855
288.2868, 199.3488
288.7689, 197.9686
289.2510, 196.8693
289.7331, 195.7481
290.2152, 194.8565
290.6974, 193.7498
291.1795, 191.7230
291.6616, 188.7309
292.1437, 185.9957
292.6258, 184.4859
293.1079, 183.7261
293.5901, 182.5425
294.0722, 180.6794
294.5543, 178.5219
295.0364, 176.2782
295.5185, 173.9526
296.0006, 171.8072
296.4828, 170.1195
296.9649, 168.5880
297.4470, 166.6447
297.9291, 164.0790
298.4112, 161.5550
298.8933, 159.5877
299.3755, 158.1059
299.8576, 156.6039
300.3397, 154.8256
300.8218, 153.0683
301.3039, 151.7984
301.7860, 151.1050
302.2682, 150.2615
302.7503, 148.6298
303.2324, 146.4771
303.7145, 144.7761
304.1966, 143.9134
304.6787, 143.2424
305.1609, 142.0664
305.6430, 140.4383
306.1251, 138.7587
306.6072, 136.9698
307.0893, 135.2787
307.5714, 134.2962
308.0536, 134.3533
308.5357, 134.3817
309.0178, 133.0213
309.4999, 130.8301
309.9820, 129.3846
310.4641, 129.9626
310.9463, 131.2781
311.4284, 131.2912
311.9105, 129.7512
312.3926, 128.0832
312.8747, 127.3118
313.3568, 127.0282
313.8390, 126.5098
314.3211, 125.4463
314.8032, 124.2785
315.2853, 123.3573
315.7674, 122.6827
316.2495, 122.4397
316.7317, 123.0760
317.2138, 124.0046
317.6959, 124.3312
318.1780, 123.8811
318.6601, 123.1184
319.1422, 122.2297
319.6243, 121.2555
320.1064, 120.5221
320.5886, 120.2009
321.0707, 120.0971
321.5528, 119.9014
322.0349, 119.5910
322.5170, 119.4549
322.9991, 119.9757
323.4813, 120.8078
323.9634, 120.8740
324.4455, 119.7621
324.9276, 118.3234
325.4097, 117.2518
325.8918, 116.5213
326.3740, 116.2477
326.8561, 116.8896
327.3382, 117.8733
327.8203, 118.2021
328.3024, 117.6972
328.7845, 117.1012
329.2667, 117.1177
329.7488, 117.4709
330.2309, 117.4592
330.7130, 116.7445
331.1951, 115.7573
331.6772, 114.8324
332.1594, 113.9713
332.6415, 113.3019
333.1236, 112.9226
333.6057, 112.7826
334.0878, 112.7733
334.5699, 113.0979
335.0521, 113.1744
335.5342, 112.4020
336.0163, 110.9921
336.4984, 109.8377
336.9805, 109.2735
337.4626, 109.0788
337.9448, 108.9595
338.4269, 108.9418
338.9090, 108.8258
339.3911, 108.3536
339.8732, 107.7608
340.3553, 107.6255
340.8375, 108.1805
341.3196, 108.7088
341.8017, 108.2345
342.2838, 106.8671
342.7659, 105.7226
343.2480, 105.0496
343.7302, 104.6777
344.2123, 104.4892
344.6944, 104.4715
345.1765, 104.5152
345.6586, 104.6148
346.1407, 104.7078
346.6229, 104.5248
347.1050, 103.9471
347.5871, 103.1978
348.0692, 102.2621
348.5513, 101.2295
349.0334, 100.3978
349.5156, 99.90621
349.9977, 99.73723
350.4798, 99.90280
350.9619, 100.6738
351.4440, 101.1843
351.9261, 100.9047
352.4083, 100.2420
352.8904, 99.94801
353.3725, 100.2899
353.8546, 100.7453
354.3367, 100.4257
354.8188, 98.98570
355.3010, 98.28441
355.7831, 99.07893
356.2652, 100.3129
356.7473, 101.1206
357.2294, 101.3829
357.7115, 101.3057
358.1937, 100.9909
358.6758, 100.4267
359.1579, 100.1985
359.6400, 100.7211
360.1221, 101.1429
360.6042, 100.9216
361.0863, 100.2464
361.5685, 99.65562
362.0506, 99.45203
362.5327, 99.55556
363.0148, 99.64539
363.4969, 99.72185
363.9790, 99.78591
364.4612, 99.83651
364.9433, 99.87574
365.4254, 99.88471
365.9075, 99.86037
366.3896, 99.85915
366.8717, 99.97118
367.3539, 100.2284
367.8360, 100.5460
368.3181, 101.0010
368.8002, 101.4519
369.2823, 101.8699
369.7644, 102.2105
370.2466, 102.3287
370.7287, 102.0161
371.2108, 101.2125
371.6929, 101.0794
372.1750, 102.4753
372.6571, 103.5738
373.1393, 103.5665
373.6214, 102.9298
374.1035, 102.5610
374.5856, 102.9710
375.0677, 103.8803
375.5498, 104.3833
376.0320, 104.2494
376.5141, 104.0107
376.9962, 103.4877
377.4783, 103.0208
377.9604, 102.9162
378.4425, 103.2433
378.9247, 103.8428
379.4068, 104.5857
379.8889, 105.6253
380.3710, 106.2612
380.8531, 105.9912
381.3352, 105.7682
381.8174, 106.1218
382.2995, 106.9094
382.7816, 107.6377
383.2637, 107.9627
383.7458, 107.9073
384.2279, 107.5848
384.7101, 106.7595
385.1922, 106.0224
385.6743, 105.4728
386.1564, 105.1262
386.6385, 105.0518
387.1206, 105.3146
387.6028, 105.6708
388.0849, 105.7280
388.5670, 105.4390
389.0491, 105.0711
389.5312, 104.5092
390.0133, 104.0116
390.4955, 103.8369
390.9776, 103.9733
391.4597, 104.0531
391.9418, 103.7455
392.4239, 103.1135
392.9060, 102.4801
393.3882, 101.6934
393.8703, 101.2340
394.3524, 101.7287
394.8345, 102.7493
395.3166, 103.3596
395.7987, 103.0476
396.2809, 102.2840
396.7630, 101.7101
397.2451, 101.3384
397.7272, 100.8888
398.2093, 100.1804
398.6914, 99.34706
399.1736, 98.59277
399.6557, 97.91187
400.1378, 97.32967
400.6199, 96.94484
401.1020, 96.67104
401.5841, 96.24001
402.0662, 95.54461
402.5483, 94.82200
403.0305, 94.43935
403.5126, 94.37015
403.9947, 94.08109
404.4768, 93.20683
404.9589, 92.25117
405.4410, 91.67533
405.9232, 91.49431
406.4053, 91.52032
406.8874, 91.65980
407.3695, 91.90398
407.8516, 92.20206
408.3337, 92.70251
408.8159, 93.07790
409.2980, 93.24709
409.7801, 93.22279
410.2622, 92.99931
410.7443, 92.56947
411.2264, 92.01192
411.7086, 91.42595
412.1907, 90.69918
412.6728, 90.26701
413.1549, 90.20923
413.6370, 90.36954
414.1191, 90.78739
414.6013, 91.36244
415.0834, 91.79675
415.5655, 91.83530
416.0476, 91.50446
416.5297, 91.26189
417.0118, 91.18101
417.4940, 91.10877
417.9761, 90.91223
418.4582, 90.75038
418.9403, 90.87682
419.4224, 91.37953
419.9045, 92.02361
420.3867, 92.40986
420.8688, 92.48672
421.3509, 92.42956
421.8330, 92.12992
422.3151, 91.80515
422.7972, 91.46175
423.2794, 91.17635
423.7615, 91.14718
424.2436, 91.61563
424.7257, 92.48775
425.2078, 93.16350
425.6899, 93.72961
426.1721, 93.91643
426.6542, 93.29823
427.1363, 92.42883
427.6184, 91.95824
428.1005, 92.10101
428.5826, 92.62630
429.0648, 93.37744
429.5469, 94.36430
430.0290, 95.15768
430.5111, 95.61174
430.9932, 95.88335
431.4753, 96.10328
431.9575, 96.27663
432.4396, 96.44218
432.9217, 96.67332
433.4038, 96.88931
433.8859, 96.89310
434.3680, 96.64615
434.8502, 96.46435
435.3323, 96.48036
435.8144, 96.74209
436.2965, 97.33016
436.7786, 98.51291
437.2607, 99.61996
437.7429, 100.2790
438.2250, 100.5927
438.7071, 100.7635
439.1892, 100.8356
439.6713, 100.8707
440.1534, 100.9400
440.6356, 101.0339
441.1177, 101.2259
441.5998, 101.4710
442.0819, 101.8532
442.5640, 102.5367
443.0461, 103.4419
443.5282, 104.2566
444.0103, 104.7441
444.4925, 104.9898
444.9746, 105.4683
445.4567, 106.5065
445.9388, 107.3732
446.4209, 107.8709
446.9030, 108.2188
447.3852, 108.6517
447.8673, 109.2232
448.3494, 109.8210
448.8315, 110.3111
449.3136, 110.6927
449.7957, 110.9659
450.2779, 110.9891
450.7600, 111.0423
451.2421, 111.1713
451.7242, 111.4067
452.2063, 111.8273
452.6884, 112.5154
453.1706, 113.2984
453.6527, 113.7325
454.1348, 113.7081
454.6169, 113.6772
455.0990, 113.7710
455.5811, 113.8848
456.0633, 113.9009
456.5454, 113.8239
457.0275, 113.8531
457.5096, 114.4483
457.9917, 115.3018
458.4738, 115.1921
458.9560, 113.7722
459.4381, 112.1571
459.9202, 110.9611
460.4023, 110.1109
460.8844, 109.5483
461.3665, 109.5311
461.8487, 109.4186
462.3308, 108.6336
462.8129, 107.3349
463.2950, 106.0932
463.7771, 105.1016
464.2592, 104.1767
464.7414, 102.9631
465.2235, 101.3592
465.7056, 100.1728
466.1877, 99.82629
466.6698, 99.66676
467.1519, 99.27055
467.6341, 98.59261
468.1162, 97.64101
468.5983, 96.39099
469.0804, 94.91622
469.5625, 93.60323
470.0446, 92.30190
470.5268, 91.36857
471.0089, 91.08678
471.4910, 91.04174
471.9731, 90.87340
472.4552, 90.50309
472.9373, 90.05649
473.4195, 89.71015
473.9016, 89.49952
474.3837, 88.90502
474.8658, 87.19963
475.3479, 85.92490
475.8300, 85.87469
476.3122, 86.40612
476.7943, 86.56905
477.2764, 85.94773
477.7585, 84.98264
478.2406, 84.30900
478.7227, 83.94736
479.2049, 83.70534
479.6870, 83.45968
480.1691, 83.44115
480.6512, 84.12373
481.1333, 85.27569
481.6154, 85.83047
482.0976, 84.69621
482.5797, 82.91616
483.0618, 82.20250
483.5439, 82.59354
484.0260, 83.10984
484.5081, 83.36265
484.9902, 83.38268
485.4724, 83.22807
485.9545, 82.80109
486.4366, 82.49510
486.9187, 82.60058
487.4008, 82.83433
487.8829, 82.75145
488.3651, 82.30336
488.8472, 81.87119
489.3293, 81.79610
489.8114, 82.07462
490.2935, 82.34699
490.7756, 82.76237
491.2578, 83.00038
491.7399, 82.78960
492.2220, 82.41538
492.7041, 82.29297
493.1862, 82.55056
493.6683, 82.92955
494.1505, 83.01327
494.6326, 82.65214
495.1147, 82.58891
495.5968, 83.38058
496.0789, 83.92513
496.5610, 83.64694
497.0432, 82.84278
497.5253, 82.06516
498.0074, 81.55760
498.4895, 81.34294
498.9716, 81.56387
499.4537, 82.30895
499.9359, 82.94179
500.4180, 83.41878
500.9001, 83.62173
501.3822, 83.30827
501.8643, 82.54859
502.3464, 81.99096
502.8286, 82.02752
503.3107, 82.40684
503.7928, 82.87491
504.2749, 83.41889
504.7570, 83.62397
505.2391, 83.09341
505.7213, 82.20090
506.2034, 81.98824
506.6855, 82.79734
507.1676, 83.39668
507.6497, 83.26244
508.1318, 82.85628
508.6140, 82.70887
509.0961, 82.88074
509.5782, 83.12548
510.0603, 83.27427
510.5424, 83.31337
511.0245, 82.90688
511.5067, 81.24793
511.9888, 80.12331
512.4709, 80.00150
512.9530, 80.47243
513.4351, 81.30120
513.9172, 82.33585
514.3994, 83.12695
514.8815, 82.98837
515.3636, 81.81975
515.8457, 81.08280
516.3278, 81.06763
516.8099, 81.11115
517.2921, 80.85971
517.7742, 80.50835
518.2563, 80.39178
518.7384, 80.67361
519.2205, 81.03442
519.7026, 81.06361
520.1848, 80.81763
520.6669, 80.75866
521.1490, 81.03802
521.6311, 81.41436
522.1132, 81.70139
522.5953, 81.89645
523.0775, 81.91121
523.5596, 81.54973
524.0417, 81.16445
524.5238, 80.99430
525.0059, 81.00372
525.4880, 81.10245
525.9702, 81.26588
526.4523, 81.42271
526.9344, 81.45474
527.4165, 81.34609
527.8986, 81.13252
528.3807, 80.61055
528.8629, 80.18061
529.3450, 80.14423
529.8271, 80.37757
530.3092, 80.56747
530.7913, 80.53574
531.2734, 80.36565
531.7556, 80.25481
532.2377, 80.21522
532.7198, 80.20242
533.2019, 80.11996
533.6840, 80.14014
534.1661, 80.49550
534.6483, 81.08263
535.1304, 81.46534
535.6125, 81.19743
536.0946, 80.69751
536.5767, 80.80807
537.0588, 81.56126
537.5410, 82.26431
538.0231, 82.73228
538.5052, 82.91649
538.9873, 82.65390
539.4694, 81.86681
539.9515, 81.28373
540.4337, 81.26981
540.9158, 81.44264
541.3979, 81.31250
541.8800, 80.94962
542.3621, 80.93423
542.8442, 81.69678
543.3264, 82.92107
543.8085, 83.52750
544.2906, 83.05940
544.7726, 82.56341
545.2548, 81.76878
545.7369, 81.16878
546.2190, 81.28066
546.7011, 81.97964
547.1832, 82.67239
547.6653, 82.88133
548.1475, 82.75480
548.6296, 82.91643
549.1117, 83.52572
549.5938, 84.00082
550.0759, 84.10577
550.5580, 84.05240
551.0402, 83.91085
551.5223, 83.70836
552.0044, 83.65623
552.4865, 84.03671
552.9686, 84.58842
553.4507, 84.86235
553.9329, 84.83931
554.4150, 84.64893
554.8971, 84.38138
555.3792, 83.97121
555.8613, 83.14539
556.3434, 81.50771
556.8256, 80.50710
557.3077, 80.94432
557.7898, 81.76832
558.2719, 82.07759
558.7540, 81.82347
559.2361, 81.34319
559.7183, 80.84828
560.2004, 80.35857
560.6825, 79.94839
561.1646, 79.67670
561.6467, 79.39146
562.1288, 78.61990
562.6110, 78.18237
563.0931, 79.07751
563.5752, 81.02079
564.0573, 82.51949
564.5394, 82.44154
565.0215, 81.23060
565.5037, 79.88047
565.9858, 78.32045
566.4679, 77.04105
566.9500, 76.16579
567.4321, 75.73618
567.9142, 75.88413
568.3964, 76.66324
568.8785, 77.23656
569.3606, 77.19223
569.8427, 76.89910
570.3248, 76.67521
570.8069, 76.54728
571.2891, 76.48526
571.7712, 76.46564
572.2533, 76.53061
572.7354, 76.81787
573.2175, 77.89362
573.6996, 78.14774
574.1818, 76.74256
574.6639, 75.31022
575.1460, 74.88988
575.6281, 75.29745
576.1102, 75.84475
576.5923, 76.15553
577.0745, 76.27548
577.5566, 76.31268
578.0387, 76.28385
578.5208, 76.05821
579.0029, 75.31902
579.4850, 74.69081
579.9672, 74.81411
580.4493, 75.49289
580.9314, 75.87398
581.4135, 75.36227
581.8956, 74.65661
582.3777, 74.56957
582.8599, 74.90182
583.3420, 74.79482
583.8241, 73.88155
584.3062, 72.78820
584.7883, 72.38036
585.2704, 72.83457
585.7526, 73.14551
586.2347, 73.29622
