##NAMES=Metavariscite
##RRUFFID=R050461
##IDEAL CHEMISTRY=AlPO_4_&#183;2H_2_O
##LOCALITY=Utahlite Hill, Lucin, Utah, USA
##OWNER=RRUFF
##SOURCE=University of Arizona Mineral Museum
##DESCRIPTION=Group of pale green acicular bladed crystals
##STATUS=The identification of this mineral has been confirmed by X-ray diffraction and chemical analysis
##URL=rruff.info/R050461
##MEASURED CHEMISTRY=Al_1.00_P_1.00_O_4_Â·2H_2_O
91.00781, 13.22901
91.48993, 12.88099
91.97205, 12.74223
92.45416, 12.80671
92.93628, 13.07866
93.41840, 13.59179
93.90051, 14.39005
94.38263, 15.35846
94.86475, 16.33171
95.34686, 17.31021
95.82898, 18.33628
96.31110, 19.37117
96.79321, 20.43620
97.27533, 21.73575
97.75745, 23.30250
98.23956, 25.12182
98.72168, 27.09054
99.20380, 29.18174
99.68591, 31.44369
100.1680, 33.90628
100.6501, 36.52822
101.1323, 39.44049
101.6144, 42.59074
102.0965, 45.94380
102.5786, 49.97486
103.0607, 54.83950
103.5428, 60.27311
104.0250, 65.97132
104.5071, 71.88559
104.9892, 78.06643
105.4713, 84.54538
105.9534, 91.60172
106.4355, 98.29922
106.9177, 104.4170
107.3998, 110.1636
107.8819, 116.4321
108.3640, 123.7804
108.8461, 131.1306
109.3282, 138.0800
109.8104, 144.4450
110.2925, 150.4685
110.7746, 155.7757
111.2567, 160.4903
111.7388, 165.8103
112.2209, 171.5495
112.7031, 178.0365
113.1852, 185.5726
113.6673, 195.1808
114.1494, 204.8636
114.6315, 214.0810
115.1136, 222.8786
115.5958, 231.7596
116.0779, 240.7575
116.5600, 249.9694
117.0421, 259.4633
117.5242, 269.7877
118.0063, 280.1166
118.4885, 290.1271
118.9706, 299.7603
119.4527, 309.2188
119.9348, 318.6440
120.4169, 327.9319
120.8990, 337.0439
121.3812, 346.5426
121.8633, 355.5206
122.3454, 362.7434
122.8275, 367.5395
123.3096, 371.9552
123.7917, 377.9990
124.2739, 385.2649
124.7560, 392.2643
125.2381, 397.7599
125.7202, 402.4211
126.2023, 407.2505
126.6844, 412.3896
127.1666, 417.9497
127.6487, 424.1520
128.1308, 431.0097
128.6129, 438.2011
129.0950, 445.4908
129.5771, 452.9512
130.0593, 460.8996
130.5414, 469.4933
131.0235, 478.5375
131.5056, 486.7186
131.9877, 492.0479
132.4698, 495.6826
132.9520, 501.8832
133.4341, 510.4976
133.9162, 518.7147
134.3983, 525.3139
134.8804, 530.5543
135.3625, 536.7664
135.8447, 544.4104
136.3268, 551.9774
136.8089, 557.4271
137.2910, 560.6157
137.7731, 562.9122
138.2552, 565.3432
138.7374, 568.2842
139.2195, 567.9310
139.7016, 563.2033
140.1837, 556.2448
140.6658, 551.5841
141.1479, 549.7023
141.6301, 548.7587
142.1122, 547.8748
142.5943, 546.8174
143.0764, 546.4030
143.5585, 546.7742
144.0406, 547.7546
144.5228, 548.6950
145.0049, 549.0397
145.4870, 550.0051
145.9691, 552.3261
146.4512, 557.1528
146.9333, 561.5028
147.4155, 564.9888
147.8976, 567.7677
148.3797, 570.9407
148.8618, 574.5784
149.3439, 578.5953
149.8260, 582.9282
150.3082, 589.0370
150.7903, 593.8836
151.2724, 597.7207
151.7545, 600.5650
152.2366, 600.7613
152.7188, 596.9506
153.2009, 591.1274
153.6830, 584.9249
154.1651, 577.1682
154.6472, 570.2903
155.1293, 565.2031
155.6115, 562.0925
156.0936, 559.0154
156.5757, 554.9918
157.0578, 551.0468
157.5399, 548.3636
158.0220, 548.3190
158.5042, 548.6300
158.9863, 548.3779
159.4684, 547.3089
159.9505, 546.6199
160.4326, 547.0485
160.9147, 548.0385
161.3969, 548.7586
161.8790, 548.7813
162.3611, 548.5713
162.8432, 548.2708
163.3253, 547.7510
163.8074, 547.6049
164.2896, 548.6107
164.7717, 550.1739
165.2538, 551.1134
165.7359, 550.0219
166.2180, 548.5881
166.7001, 548.1035
167.1823, 548.9921
167.6644, 550.4008
168.1465, 552.1691
168.6286, 554.1007
169.1107, 555.6497
169.5928, 556.1949
170.0750, 556.3386
170.5571, 556.8034
171.0392, 558.1056
171.5213, 559.1791
172.0034, 558.7614
172.4855, 557.1775
172.9677, 555.8641
173.4498, 555.8300
173.9319, 556.6060
174.4140, 557.5545
174.8961, 558.6289
175.3782, 559.6748
175.8604, 560.5834
176.3425, 561.3548
176.8246, 561.9565
177.3067, 562.0791
177.7888, 562.0320
178.2709, 562.4848
178.7531, 563.9955
179.2352, 565.8272
179.7173, 566.8275
180.1994, 567.0272
180.6815, 567.0284
181.1636, 567.3976
181.6458, 568.0032
182.1279, 568.4248
182.6100, 568.3507
183.0921, 568.0860
183.5742, 568.3193
184.0563, 569.0638
184.5385, 569.9318
185.0206, 570.3970
185.5027, 570.5847
185.9848, 571.0963
186.4669, 572.3638
186.9490, 574.0798
187.4312, 575.3752
187.9133, 576.2001
188.3954, 576.7703
188.8775, 577.2364
189.3596, 577.6086
189.8417, 578.0172
190.3239, 578.5843
190.8060, 579.2516
191.2881, 579.5843
191.7702, 579.4880
192.2523, 579.4314
192.7344, 580.2090
193.2166, 581.8214
193.6987, 583.1956
194.1808, 583.7257
194.6629, 583.5140
195.1450, 583.8640
195.6271, 584.9322
196.1093, 586.1652
196.5914, 586.5797
197.0735, 586.0846
197.5556, 585.8652
198.0377, 586.6483
198.5198, 588.4474
199.0020, 589.5609
199.4841, 589.8008
199.9662, 589.6733
200.4483, 590.0673
200.9304, 591.0771
201.4125, 592.0087
201.8947, 592.4918
202.3768, 592.4791
202.8589, 592.5546
203.3410, 592.6188
203.8231, 592.9133
204.3052, 594.1168
204.7874, 596.5379
205.2695, 598.6160
205.7516, 599.4825
206.2337, 598.9113
206.7158, 598.7311
207.1979, 599.1076
207.6801, 599.7419
208.1622, 599.9296
208.6443, 599.4792
209.1264, 599.1811
209.6085, 599.5666
210.0906, 600.9386
210.5728, 601.5988
211.0549, 601.4313
211.5370, 600.6044
212.0191, 599.3044
212.5012, 597.1284
212.9833, 595.4551
213.4655, 594.9860
213.9476, 595.9252
214.4297, 597.4341
214.9118, 599.9973
215.3939, 602.8666
215.8760, 604.0308
216.3581, 602.6971
216.8403, 601.2658
217.3224, 600.9472
217.8045, 602.1415
218.2866, 603.1827
218.7687, 603.9875
219.2508, 604.6193
219.7330, 605.1893
220.2151, 605.5443
220.6972, 606.0807
221.1793, 607.1244
221.6614, 609.2019
222.1435, 610.2744
222.6257, 609.8762
223.1078, 608.5813
223.5899, 608.0164
224.0720, 608.5577
224.5541, 609.2377
225.0362, 609.6553
225.5184, 609.8213
226.0005, 609.6799
226.4826, 609.0121
226.9647, 608.1120
227.4468, 607.8574
227.9289, 608.7664
228.4111, 609.5580
228.8932, 609.5955
229.3753, 608.4813
229.8574, 607.5494
230.3395, 606.6392
230.8216, 605.9750
231.3038, 606.2849
231.7859, 608.2328
232.2680, 610.1681
232.7501, 611.2687
233.2322, 610.9249
233.7143, 611.1284
234.1965, 612.1425
234.6786, 613.6506
235.1607, 614.7074
235.6428, 614.7470
236.1249, 615.1378
236.6070, 616.6188
237.0892, 620.0795
237.5713, 622.6362
238.0534, 624.1256
238.5355, 624.7448
239.0176, 624.9594
239.4997, 624.5851
239.9819, 624.0657
240.4640, 623.4453
240.9461, 622.1193
241.4282, 622.1882
241.9103, 624.2591
242.3924, 627.5364
242.8746, 630.1638
243.3567, 632.1198
243.8388, 633.4706
244.3209, 634.1152
244.8030, 633.5922
245.2851, 633.6346
245.7673, 634.5202
246.2494, 635.8681
246.7315, 636.8199
247.2136, 637.0844
247.6957, 637.4262
248.1778, 638.2186
248.6600, 639.7545
249.1421, 640.8552
249.6242, 641.5370
250.1063, 641.7843
250.5884, 641.4367
251.0705, 639.8946
251.5527, 638.7696
252.0348, 638.7421
252.5169, 640.1523
252.9990, 641.4473
253.4811, 642.7633
253.9632, 643.8814
254.4454, 644.3468
254.9275, 643.8663
255.4096, 643.2790
255.8917, 642.6918
256.3738, 641.8814
256.8560, 642.2388
257.3381, 644.3245
257.8202, 647.1093
258.3023, 649.0106
258.7844, 649.6061
259.2665, 650.2037
259.7487, 651.2172
260.2308, 652.7056
260.7129, 654.2211
261.1950, 655.8906
261.6771, 657.4418
262.1592, 658.4049
262.6414, 658.4706
263.1235, 658.6898
263.6056, 659.2431
264.0877, 660.1073
264.5698, 661.9918
265.0519, 665.6191
265.5341, 669.2750
266.0162, 670.9199
266.4983, 670.1432
266.9804, 668.5488
267.4625, 666.3118
267.9446, 663.4658
268.4268, 660.7910
268.9089, 658.1885
269.3910, 656.0231
269.8731, 654.8232
270.3552, 654.8702
270.8373, 654.7646
271.3195, 654.1487
271.8016, 653.0759
272.2837, 652.0070
272.7658, 650.7492
273.2479, 649.8975
273.7300, 650.2780
274.2122, 652.1902
274.6943, 653.4441
275.1764, 653.4541
275.6585, 652.4648
276.1406, 651.6230
276.6227, 650.8487
277.1049, 650.5037
277.5870, 651.1761
278.0691, 653.0115
278.5512, 654.1660
279.0333, 654.1600
279.5154, 653.3710
279.9976, 652.9562
280.4797, 652.8984
280.9618, 653.2986
281.4439, 654.5253
281.9260, 656.5831
282.4081, 658.1034
282.8903, 659.0068
283.3724, 659.1650
283.8545, 657.7605
284.3366, 654.5976
284.8187, 651.9268
285.3008, 651.4823
285.7830, 653.0821
286.2651, 654.6523
286.7472, 656.0411
287.2293, 657.2802
287.7114, 658.3278
288.1935, 659.1842
288.6757, 660.1830
289.1578, 661.8611
289.6399, 663.9591
290.1220, 664.9273
290.6041, 664.4914
291.0862, 663.5490
291.5684, 663.4882
292.0505, 664.2005
292.5326, 664.6801
293.0147, 664.0197
293.4968, 662.7346
293.9789, 662.5076
294.4611, 663.5023
294.9432, 664.8514
295.4253, 665.4824
295.9074, 665.5753
296.3895, 665.8785
296.8716, 667.0260
297.3538, 668.5338
297.8359, 669.3450
298.3180, 669.4454
298.8001, 669.3632
299.2822, 669.6642
299.7643, 670.1843
300.2465, 670.4755
300.7286, 670.1335
301.2107, 669.6440
301.6928, 669.7834
302.1749, 670.5117
302.6570, 671.2154
303.1392, 671.1366
303.6213, 670.7410
304.1034, 670.8688
304.5855, 672.0685
305.0676, 673.5263
305.5497, 674.4988
306.0319, 675.0247
306.5140, 675.3535
306.9961, 675.4001
307.4782, 675.4195
307.9603, 675.7338
308.4424, 676.4898
308.9246, 677.3986
309.4067, 678.3744
309.8888, 679.3357
310.3709, 680.0761
310.8530, 680.1183
311.3351, 680.0773
311.8173, 680.6171
312.2994, 682.1313
312.7815, 683.3461
313.2636, 682.8181
313.7457, 681.5146
314.2278, 681.1771
314.7100, 683.7393
315.1921, 686.6474
315.6742, 688.3249
316.1563, 688.4711
316.6384, 688.3101
317.1205, 687.9407
317.6027, 687.6801
318.0848, 687.9327
318.5669, 689.2702
319.0490, 690.7447
319.5311, 692.0974
320.0132, 693.3165
320.4954, 694.1485
320.9775, 693.8876
321.4596, 693.4984
321.9417, 693.8056
322.4238, 695.6663
322.9059, 697.5149
323.3881, 699.1420
323.8702, 700.5085
324.3523, 701.4286
324.8344, 700.8298
325.3165, 700.4686
325.7986, 701.3777
326.2808, 705.7321
326.7629, 708.9044
327.2450, 709.8773
327.7271, 709.2626
328.2092, 709.4733
328.6913, 711.0231
329.1735, 712.9652
329.6556, 714.9777
330.1377, 717.1357
330.6198, 719.2596
331.1019, 722.0184
331.5840, 724.5250
332.0662, 724.9542
332.5483, 721.4135
333.0304, 718.4922
333.5125, 717.9246
333.9946, 720.3077
334.4767, 721.8266
334.9589, 722.4128
335.4410, 722.1826
335.9231, 721.0090
336.4052, 718.2335
336.8873, 716.3370
337.3694, 716.2921
337.8516, 717.9490
338.3336, 718.4477
338.8158, 717.3972
339.2979, 716.0488
339.7800, 715.5789
340.2621, 716.1340
340.7442, 716.5644
341.2263, 716.3986
341.7085, 716.1146
342.1906, 717.6482
342.6727, 721.3004
343.1548, 724.9757
343.6369, 727.1502
344.1190, 727.8967
344.6012, 728.6780
345.0833, 729.5137
345.5654, 730.6719
346.0475, 732.7957
346.5296, 735.8186
347.0117, 738.9688
347.4939, 741.9084
347.9760, 744.6160
348.4581, 746.9588
348.9402, 748.8455
349.4223, 750.7958
349.9044, 753.4459
350.3866, 756.6957
350.8687, 760.2220
351.3508, 764.2239
351.8329, 768.3145
352.3150, 771.6765
352.7971, 774.3557
353.2793, 777.3270
353.7614, 782.0432
354.2435, 787.4890
354.7256, 791.9728
355.2077, 794.3893
355.6898, 796.4315
356.1720, 799.3875
356.6541, 803.2201
357.1362, 807.7064
357.6183, 812.8563
358.1004, 818.5639
358.5826, 824.8311
359.0647, 831.8740
359.5468, 838.9112
360.0289, 845.7366
360.5110, 852.2471
360.9931, 858.2706
361.4753, 863.6844
361.9574, 868.5641
362.4395, 872.8785
362.9216, 876.5864
363.4037, 880.0002
363.8858, 883.7066
364.3680, 886.9843
364.8501, 889.0828
365.3322, 890.4702
365.8143, 890.0226
366.2964, 887.0071
366.7785, 881.4655
367.2607, 875.6416
367.7428, 869.0006
368.2249, 862.6149
368.7070, 857.1335
369.1891, 853.6349
369.6712, 849.6354
370.1534, 844.2109
370.6355, 838.1757
371.1176, 834.1334
371.5997, 832.9024
372.0818, 832.5742
372.5639, 832.3542
373.0461, 832.0045
373.5282, 832.5287
374.0103, 834.1204
374.4924, 836.3828
374.9745, 838.5701
375.4566, 840.3749
375.9388, 843.1215
376.4209, 847.2777
376.9030, 852.8460
377.3851, 858.7314
377.8672, 864.9895
378.3493, 871.6761
378.8315, 878.7004
379.3136, 886.1328
379.7957, 894.2050
380.2778, 903.0531
380.7599, 912.5837
381.2420, 923.2169
381.7242, 934.7760
382.2063, 946.1251
382.6884, 956.3057
383.1705, 965.5720
383.6526, 974.3554
384.1347, 982.5478
384.6169, 990.7103
385.0990, 999.5050
385.5811, 1008.756
386.0632, 1017.527
386.5453, 1025.299
387.0274, 1032.408
387.5096, 1039.071
387.9917, 1045.275
388.4738, 1051.349
388.9559, 1057.060
389.4380, 1062.802
389.9201, 1069.132
390.4023, 1076.015
390.8844, 1083.739
391.3665, 1092.506
391.8486, 1102.330
392.3307, 1112.957
392.8128, 1124.670
393.2950, 1136.863
393.7771, 1149.440
394.2592, 1162.799
394.7413, 1175.259
395.2234, 1186.500
395.7055, 1196.341
396.1877, 1204.516
396.6698, 1211.438
397.1519, 1216.217
397.6340, 1218.991
398.1161, 1219.934
398.5982, 1217.299
399.0804, 1209.680
399.5625, 1199.239
400.0446, 1187.552
400.5267, 1175.380
401.0088, 1160.775
401.4909, 1142.805
401.9731, 1122.295
402.4552, 1102.892
402.9373, 1085.305
403.4194, 1067.671
403.9015, 1048.743
404.3836, 1027.652
404.8658, 1008.601
405.3479, 991.7966
405.8300, 976.9762
406.3121, 963.7548
406.7942, 952.2020
407.2763, 941.6605
407.7585, 932.0108
408.2406, 923.1539
408.7227, 914.7947
409.2048, 906.9342
409.6869, 899.7302
410.1690, 893.3887
410.6512, 887.9012
411.1333, 882.9397
411.6154, 878.4030
412.0975, 874.4511
412.5796, 871.5040
413.0617, 869.4121
413.5439, 867.3523
414.0260, 864.2610
414.5081, 861.1263
414.9902, 859.6824
415.4723, 860.1904
415.9544, 860.8304
416.4366, 860.0646
416.9187, 858.4980
417.4008, 857.0379
417.8829, 855.7149
418.3650, 854.8503
418.8471, 854.6616
419.3293, 855.1081
419.8114, 855.9410
420.2935, 857.2963
420.7756, 858.8476
421.2577, 860.3323
421.7398, 861.6263
422.2220, 863.0676
422.7041, 865.2269
423.1862, 867.5247
423.6683, 868.9297
424.1504, 868.7462
424.6325, 868.2386
425.1147, 867.5644
425.5968, 866.6318
426.0789, 866.3395
426.5610, 867.2139
427.0431, 868.2513
427.5252, 868.5256
428.0074, 867.3956
428.4895, 867.1064
428.9716, 868.4949
429.4537, 870.6751
429.9358, 870.5654
430.4179, 867.5818
430.9001, 864.3640
431.3822, 862.3506
431.8643, 861.5640
432.3464, 860.4291
432.8285, 858.9337
433.3106, 857.1268
433.7928, 854.9212
434.2749, 852.3751
434.7570, 849.9537
435.2391, 847.7088
435.7212, 845.7529
436.2033, 844.5388
436.6855, 843.9987
437.1676, 843.2987
437.6497, 841.1434
438.1318, 838.6639
438.6139, 837.9084
439.0960, 839.6694
439.5782, 841.4515
440.0603, 840.8821
440.5424, 838.8936
441.0245, 837.2449
441.5066, 835.9270
441.9887, 835.7682
442.4709, 838.4593
442.9530, 843.8132
443.4351, 846.9234
443.9172, 843.7672
444.3993, 838.8980
444.8814, 835.6396
445.3636, 835.2003
445.8457, 835.4698
446.3278, 836.7689
446.8099, 838.5787
447.2920, 839.6396
447.7741, 839.3284
448.2563, 838.9473
448.7384, 838.8660
449.2205, 839.1207
449.7026, 839.3979
450.1847, 839.5459
450.6668, 839.9216
451.1490, 840.9792
451.6311, 842.9918
452.1132, 844.6503
452.5953, 845.6860
453.0774, 846.3279
453.5595, 847.3573
454.0417, 848.8480
454.5238, 850.0339
455.0059, 850.4894
455.4880, 850.2719
455.9701, 849.5703
456.4522, 848.3112
456.9344, 847.0707
457.4165, 846.5875
457.8986, 846.6292
458.3807, 846.6315
458.8628, 846.8008
459.3449, 846.4107
459.8271, 844.1913
460.3092, 840.5186
460.7913, 836.9769
461.2734, 834.5061
461.7555, 832.5746
462.2376, 830.6801
462.7198, 828.7134
463.2019, 827.0677
463.6840, 826.2336
464.1661, 825.7307
464.6482, 824.9765
465.1303, 823.5717
465.6125, 822.1390
466.0946, 820.5829
466.5767, 818.9803
467.0588, 818.1631
467.5409, 819.0482
468.0230, 819.9786
468.5052, 820.2310
468.9873, 819.5678
469.4694, 818.8054
469.9515, 817.8070
470.4336, 816.8455
470.9157, 816.3730
471.3979, 816.5887
471.8800, 816.6313
472.3621, 816.1543
472.8442, 815.3518
473.3263, 815.1422
473.8084, 815.5622
474.2906, 816.2772
474.7727, 817.3544
475.2548, 818.5998
475.7369, 818.9355
476.2190, 818.0781
476.7011, 816.9679
477.1833, 816.5830
477.6654, 816.8408
478.1475, 817.5216
478.6296, 818.6483
479.1117, 820.0765
479.5938, 822.1055
480.0760, 824.5483
480.5581, 826.0946
481.0402, 824.6556
481.5223, 822.8347
482.0044, 822.9580
482.4865, 826.2452
482.9687, 829.3027
483.4508, 830.8787
483.9329, 831.5756
484.4150, 832.2335
484.8971, 832.5673
485.3792, 833.3419
485.8614, 835.1581
486.3435, 837.8871
486.8256, 839.5372
487.3077, 839.3074
487.7898, 838.9213
488.2719, 839.3414
488.7541, 840.8676
489.2362, 842.1495
489.7183, 842.9852
490.2004, 843.8348
490.6825, 845.7382
491.1646, 848.8926
491.6468, 851.1073
492.1289, 851.6439
492.6110, 850.8508
493.0931, 849.5215
493.5752, 847.6570
494.0573, 845.8632
494.5395, 844.5201
495.0216, 843.5551
495.5037, 842.8922
495.9858, 842.6061
496.4679, 842.2142
496.9500, 841.2746
497.4322, 839.9407
497.9143, 838.4813
498.3964, 836.8776
498.8785, 835.2973
499.3606, 834.0719
499.8427, 833.0380
500.3249, 831.5172
500.8070, 828.3378
501.2891, 825.3312
501.7712, 823.6387
502.2533, 824.0355
502.7354, 823.8564
503.2176, 822.5496
503.6997, 820.7531
504.1818, 819.0805
504.6639, 817.5214
505.1460, 816.0889
505.6281, 814.8406
506.1103, 813.6917
506.5924, 812.2741
507.0745, 810.4066
507.5566, 808.8727
508.0387, 808.3239
508.5208, 808.6808
509.0030, 808.1253
509.4851, 806.4548
509.9672, 805.0153
510.4493, 805.9515
510.9314, 808.4388
511.4135, 809.5545
511.8957, 808.1463
512.3778, 805.8262
512.8599, 804.1639
513.3420, 803.1030
513.8242, 802.4600
514.3063, 802.5426
514.7884, 802.7255
515.2705, 802.3439
515.7526, 801.3510
516.2347, 800.8134
516.7169, 801.3270
517.1990, 802.3506
517.6811, 803.4811
518.1632, 804.8430
518.6453, 806.0208
519.1274, 807.3144
519.6096, 808.3143
520.0917, 808.1445
520.5738, 805.7986
521.0559, 803.9229
521.5380, 803.1493
522.0201, 803.4515
522.5023, 804.5296
522.9844, 806.6701
523.4665, 808.8046
523.9486, 809.9360
524.4307, 810.1487
524.9128, 811.1573
525.3950, 813.2269
525.8771, 815.6127
526.3592, 817.2656
526.8413, 818.3599
527.3234, 819.6279
527.8055, 821.6183
528.2877, 823.6047
528.7698, 824.6547
529.2519, 824.9241
529.7340, 825.1326
530.2161, 824.9828
530.6982, 825.4025
531.1804, 827.4766
531.6625, 831.6679
532.1446, 835.2595
532.6267, 836.6025
533.1088, 837.3039
533.5909, 838.8231
534.0731, 842.1605
534.5552, 845.3630
535.0373, 848.2094
535.5194, 850.8397
536.0015, 853.7904
536.4836, 857.2477
536.9658, 860.5894
537.4479, 863.5513
537.9300, 866.1309
538.4121, 868.5266
538.8942, 870.5633
539.3763, 873.0596
539.8585, 877.0355
540.3406, 882.1987
540.8227, 886.8947
541.3048, 890.9285
541.7869, 894.5463
542.2690, 897.7924
542.7512, 900.8688
543.2333, 904.3024
543.7154, 909.4006
544.1975, 914.0378
544.6796, 915.9680
545.1617, 915.7562
545.6439, 915.7967
546.1260, 917.5983
546.6081, 919.6741
547.0902, 921.1683
547.5723, 921.8751
548.0544, 922.4269
548.5366, 924.0386
549.0187, 924.8797
549.5008, 923.1987
549.9829, 916.7569
550.4650, 911.9646
550.9471, 910.0314
551.4293, 909.6981
551.9114, 907.8712
552.3935, 904.2664
552.8756, 900.5560
553.3577, 897.3486
553.8398, 894.5546
554.3220, 891.7722
554.8041, 888.9900
555.2862, 886.2562
555.7683, 883.3446
556.2504, 880.5345
556.7325, 878.3132
557.2147, 876.7455
557.6968, 875.7610
558.1789, 875.2975
558.6610, 875.3756
559.1431, 876.0300
559.6252, 877.9171
560.1074, 879.7032
560.5895, 880.8882
561.0716, 881.5527
561.5537, 881.9599
562.0358, 881.3239
562.5179, 881.2577
563.0001, 882.5685
563.4822, 885.4365
563.9643, 887.5466
564.4464, 888.3112
564.9285, 889.1558
565.4106, 891.3389
565.8928, 895.1541
566.3749, 898.4366
566.8570, 900.9932
567.3391, 903.1204
567.8212, 905.0926
568.3033, 906.9832
568.7855, 909.1993
569.2676, 911.9749
569.7497, 915.0762
570.2318, 918.3079
570.7139, 921.5949
571.1960, 924.8860
571.6782, 928.7048
572.1603, 932.0920
572.6424, 933.6536
573.1245, 933.1179
573.6066, 933.7421
574.0887, 938.3019
574.5709, 943.6213
575.0530, 947.2432
575.5351, 947.4134
576.0172, 948.0032
576.4993, 949.2766
576.9814, 950.9600
577.4636, 952.6733
577.9457, 954.6086
578.4278, 956.0597
578.9099, 956.7883
579.3920, 956.9077
579.8741, 956.7701
580.3563, 956.3621
580.8384, 955.8430
581.3205, 955.2595
581.8026, 954.6309
582.2847, 954.4235
582.7668, 954.6731
583.2490, 953.8987
583.7311, 949.5469
584.2132, 943.9354
584.6953, 940.3049
585.1774, 940.5107
585.6595, 940.2155
586.1416, 936.2059
586.6237, 930.5154
587.1058, 926.1584
