##NAMES=Metazeunerite
##RRUFFID=R050524
##IDEAL CHEMISTRY=Cu^2+^(U^6+^O_2_)_2_(As^5+^O_4_)_2_&#183;8H_2_O
##LOCALITY=Majuba Hill mine, Pershing County, Nevada
##OWNER=RRUFF
##SOURCE=University of Arizona Mineral Museum
##DESCRIPTION=Green tabular crystal, cell parameters indicate a disordered structure
##STATUS=The identification of this mineral has been confirmed only by single crystal X-ray diffraction.
##URL=rruff.info/R050524
92.37695, 183.9405
92.85907, 185.1915
93.34119, 185.1671
93.82330, 182.1219
94.30542, 178.1323
94.78754, 174.8396
95.26965, 172.3212
95.75177, 169.0214
96.23389, 164.1633
96.71600, 158.6545
97.19812, 153.3418
97.68024, 148.3080
98.16235, 143.6443
98.64447, 139.5186
99.12659, 136.0548
99.60870, 132.4190
100.0908, 129.0897
100.5729, 125.7276
101.0551, 121.7879
101.5372, 116.8475
102.0193, 111.2561
102.5014, 107.0611
102.9835, 105.4607
103.4656, 104.0681
103.9478, 102.7566
104.4299, 101.3539
104.9120, 99.63436
105.3941, 97.37753
105.8762, 94.47469
106.3583, 91.97989
106.8405, 90.14231
107.3226, 88.38420
107.8047, 86.35512
108.2868, 84.03242
108.7689, 81.63863
109.2510, 79.41215
109.7332, 77.35359
110.2153, 75.42489
110.6974, 73.56998
111.1795, 71.85500
111.6616, 70.37586
112.1437, 69.18301
112.6259, 68.21080
113.1080, 67.37402
113.5901, 66.66651
114.0722, 66.07867
114.5543, 65.63649
115.0364, 65.33335
115.5185, 65.08332
116.0007, 64.95048
116.4828, 64.80431
116.9649, 64.58426
117.4470, 64.27854
117.9291, 63.87120
118.4112, 63.27688
118.8934, 62.30789
119.3755, 61.63192
119.8576, 61.44054
120.3397, 61.45141
120.8218, 61.50869
121.3039, 61.54360
121.7861, 61.50129
122.2682, 61.21954
122.7503, 60.25043
123.2324, 59.51670
123.7145, 59.36375
124.1966, 59.44089
124.6788, 59.19359
125.1609, 58.25271
125.6430, 56.74073
126.1251, 55.73938
126.6072, 55.56124
127.0893, 55.44191
127.5715, 55.01093
128.0536, 54.32524
128.5357, 53.73211
129.0178, 53.51456
129.4999, 53.62824
129.9821, 53.66015
130.4642, 53.59019
130.9463, 53.43489
131.4284, 53.21025
131.9105, 52.91706
132.3926, 52.55247
132.8748, 51.98611
133.3569, 51.34004
133.8390, 50.87115
134.3211, 50.81202
134.8032, 51.03387
135.2853, 51.08178
135.7674, 50.85446
136.2496, 50.57311
136.7317, 50.31521
137.2138, 50.09380
137.6959, 49.93956
138.1780, 49.96976
138.6601, 50.23865
139.1423, 50.11379
139.6244, 49.05446
140.1065, 48.03640
140.5886, 47.43052
141.0707, 47.24670
141.5528, 47.27865
142.0350, 47.33210
142.5171, 47.56749
142.9992, 47.34764
143.4813, 46.29125
143.9634, 45.13108
144.4455, 44.33023
144.9277, 44.01062
145.4098, 43.99014
145.8919, 43.99052
146.3740, 44.05805
146.8561, 44.05373
147.3382, 43.95429
147.8204, 43.78559
148.3025, 43.56091
148.7846, 43.27385
149.2667, 42.97213
149.7488, 42.75076
150.2309, 42.59675
150.7131, 42.50924
151.1952, 42.56057
151.6773, 42.69414
152.1594, 42.71939
152.6415, 42.52223
153.1236, 42.21638
153.6058, 41.96839
154.0879, 41.76368
154.5700, 41.66413
155.0521, 41.78498
155.5342, 42.13861
156.0163, 42.42145
156.4985, 42.41636
156.9806, 42.33866
157.4627, 42.36147
157.9448, 42.53285
158.4269, 42.77901
158.9090, 43.00783
159.3912, 43.23908
159.8733, 43.39278
160.3554, 43.33171
160.8375, 43.24785
161.3196, 43.31758
161.8017, 43.62153
162.2839, 44.09994
162.7660, 44.56979
163.2481, 44.97137
163.7302, 45.45494
164.2123, 46.03189
164.6944, 46.69975
165.1766, 47.47848
165.6587, 48.39408
166.1408, 49.40328
166.6229, 50.23859
167.1050, 50.73017
167.5871, 51.23534
168.0693, 51.88420
168.5514, 52.60195
169.0335, 53.23142
169.5156, 53.65843
169.9977, 53.90021
170.4798, 54.20007
170.9620, 54.56435
171.4441, 54.96581
171.9262, 55.42274
172.4083, 55.91771
172.8904, 56.37585
173.3725, 56.70609
173.8547, 56.94098
174.3368, 57.34407
174.8189, 58.04918
175.3010, 58.83086
175.7831, 59.46093
176.2652, 59.92544
176.7474, 60.47826
177.2295, 61.41138
177.7116, 62.58057
178.1937, 63.60682
178.6758, 64.31799
179.1579, 64.87751
179.6401, 65.53674
180.1222, 66.32219
180.6043, 67.12280
181.0864, 67.77005
181.5685, 68.38756
182.0506, 69.20435
182.5328, 70.49097
183.0149, 72.03398
183.4970, 73.15498
183.9791, 73.65147
184.4612, 73.99265
184.9433, 74.52156
185.4255, 75.06153
185.9076, 75.31664
186.3897, 75.11244
186.8718, 74.45385
187.3539, 73.41077
187.8360, 71.80632
188.3182, 69.94138
188.8003, 67.82189
189.2824, 65.51461
189.7645, 63.10351
190.2466, 60.63536
190.7287, 58.08880
191.2109, 55.78043
191.6930, 53.57875
192.1751, 51.71788
192.6572, 50.38579
193.1393, 49.49467
193.6214, 48.81944
194.1036, 48.18520
194.5857, 47.59556
195.0678, 46.99749
195.5499, 46.27604
196.0320, 45.64625
196.5141, 45.21770
196.9963, 44.98315
197.4784, 44.86917
197.9605, 44.82153
198.4426, 44.85171
198.9247, 44.87328
199.4068, 44.83624
199.8890, 44.82808
200.3711, 44.93013
200.8532, 45.14074
201.3353, 45.36313
201.8174, 45.50631
202.2995, 45.56367
202.7817, 45.63962
203.2638, 45.71239
203.7459, 45.82000
204.2280, 46.04579
204.7101, 46.40786
205.1922, 46.71640
205.6744, 46.71615
206.1565, 46.48422
206.6386, 46.39639
207.1207, 46.70930
207.6028, 47.13744
208.0849, 47.22099
208.5671, 46.83092
209.0492, 46.46598
209.5313, 46.59899
210.0134, 47.05867
210.4955, 47.51533
210.9776, 47.88695
211.4598, 48.17041
211.9419, 48.33855
212.4240, 48.33458
212.9061, 48.33163
213.3882, 48.45389
213.8703, 48.64880
214.3525, 48.82743
214.8346, 48.99696
215.3167, 49.11455
215.7988, 48.99606
216.2809, 48.48882
216.7630, 47.96894
217.2451, 47.63211
217.7273, 47.39424
218.2094, 47.09814
218.6915, 46.61582
219.1736, 45.99541
219.6557, 45.54377
220.1378, 45.44095
220.6200, 45.29516
221.1021, 45.02437
221.5842, 44.63000
222.0663, 44.10536
222.5484, 43.42253
223.0305, 42.60760
223.5127, 41.91039
223.9948, 41.38206
224.4769, 40.94130
224.9590, 40.64405
225.4411, 40.41460
225.9232, 40.10786
226.4054, 39.59991
226.8875, 38.93317
227.3696, 38.58866
227.8517, 38.94107
228.3338, 39.23693
228.8159, 39.29365
229.2981, 39.18219
229.7802, 39.06675
230.2623, 39.06572
230.7444, 39.14975
231.2265, 38.97594
231.7086, 38.15892
232.1908, 37.52401
232.6729, 37.32750
233.1550, 37.46275
233.6371, 37.73812
234.1192, 38.06548
234.6013, 38.40987
235.0835, 38.48730
235.5656, 38.00379
236.0477, 37.62824
236.5298, 37.65070
237.0119, 37.93333
237.4940, 38.15971
237.9762, 38.14402
238.4583, 37.94608
238.9404, 37.85111
239.4225, 37.94703
239.9046, 38.02673
240.3867, 38.04653
240.8689, 37.99967
241.3510, 37.84077
241.8331, 37.50149
242.3152, 37.08751
242.7973, 36.92107
243.2794, 37.15522
243.7616, 37.35003
244.2437, 37.26600
244.7258, 36.98421
245.2079, 36.75257
245.6900, 36.68707
246.1721, 36.71435
246.6543, 36.68431
247.1364, 36.59245
247.6185, 36.46788
248.1006, 36.30893
248.5827, 36.12563
249.0648, 35.94810
249.5470, 35.77555
250.0291, 35.62752
250.5112, 35.52287
250.9933, 35.45906
251.4754, 35.43743
251.9576, 35.48406
252.4397, 35.58123
252.9218, 35.65432
253.4039, 35.68793
253.8860, 35.68197
254.3681, 35.63462
254.8503, 35.54602
255.3324, 35.45578
255.8145, 35.34866
256.2966, 35.24612
256.7787, 35.28585
257.2608, 35.62348
257.7430, 35.93227
258.2251, 35.88526
258.7072, 35.53720
259.1893, 35.25060
259.6714, 35.28090
260.1535, 35.58004
260.6357, 35.89910
261.1178, 36.29099
261.5999, 36.58934
262.0820, 36.67734
262.5641, 36.59857
263.0462, 36.48767
263.5284, 36.37735
264.0105, 36.28794
264.4926, 36.36219
264.9747, 36.74372
265.4568, 37.08413
265.9389, 37.17129
266.4211, 37.09947
266.9032, 37.06500
267.3853, 37.21447
267.8674, 37.49181
268.3495, 37.63987
268.8316, 37.54547
269.3138, 37.49167
269.7959, 37.60205
270.2780, 37.81022
270.7601, 38.02417
271.2422, 38.20535
271.7243, 38.34869
272.2065, 38.42687
272.6886, 38.39251
273.1707, 38.37056
273.6528, 38.38232
274.1349, 38.42739
274.6170, 38.52152
275.0992, 38.68060
275.5813, 38.85487
276.0634, 38.92554
276.5455, 38.89573
277.0276, 38.74042
277.5097, 38.28922
277.9919, 37.81787
278.4740, 37.62940
278.9561, 37.82870
279.4382, 38.19232
279.9203, 38.29607
280.4024, 38.02312
280.8846, 37.72287
281.3667, 37.44667
281.8488, 37.15432
282.3309, 36.75471
282.8130, 36.24883
283.2951, 35.80200
283.7773, 35.70350
284.2594, 36.17104
284.7415, 36.44569
285.2236, 36.49451
285.7057, 36.38851
286.1878, 36.06979
286.6700, 35.58822
287.1521, 35.14202
287.6342, 34.97895
288.1163, 35.18999
288.5984, 35.33628
289.0805, 35.43269
289.5627, 35.45823
290.0448, 35.33382
290.5269, 35.10903
291.0090, 34.93758
291.4911, 34.97496
291.9732, 35.24387
292.4554, 35.42865
292.9375, 35.43856
293.4196, 35.45650
293.9017, 35.53385
294.3838, 35.66645
294.8659, 35.83005
295.3481, 36.00595
295.8302, 36.19728
296.3123, 36.43697
296.7944, 36.75683
297.2765, 37.09541
297.7586, 37.43850
298.2408, 37.79346
298.7229, 38.15101
299.2050, 38.49918
299.6871, 38.87605
300.1692, 39.43037
300.6513, 40.32836
301.1335, 41.21605
301.6156, 42.11298
302.0977, 42.95852
302.5798, 43.69108
303.0619, 44.28411
303.5440, 44.76638
304.0262, 45.20333
304.5083, 45.57269
304.9904, 45.91906
305.4725, 46.28084
305.9546, 46.59921
306.4367, 46.77941
306.9189, 46.81957
307.4010, 46.85959
307.8831, 47.10734
308.3652, 47.67461
308.8473, 48.16384
309.3294, 48.48322
309.8116, 48.81348
310.2937, 49.26339
310.7758, 49.83714
311.2579, 50.47977
311.7400, 51.14536
312.2221, 51.85730
312.7043, 52.45359
313.1864, 52.78155
313.6685, 53.16255
314.1506, 53.78663
314.6327, 54.57746
315.1148, 55.33059
315.5970, 55.89018
316.0791, 56.27214
316.5612, 56.69100
317.0433, 57.31170
317.5254, 57.78899
318.0075, 58.12348
318.4897, 58.25092
318.9718, 58.06631
319.4539, 57.51067
319.9360, 56.65615
320.4181, 55.72845
320.9002, 55.01159
321.3824, 53.82765
321.8645, 51.86177
322.3466, 49.56367
322.8287, 47.30019
323.3108, 45.22424
323.7929, 43.31063
324.2751, 41.52545
324.7572, 39.76612
325.2393, 38.36862
325.7214, 37.43351
326.2035, 36.71946
326.6856, 36.10555
327.1678, 35.55078
327.6499, 35.02314
328.1320, 34.47863
328.6141, 33.89409
329.0962, 33.40966
329.5783, 33.04234
330.0605, 32.74234
330.5426, 32.51901
331.0247, 32.34817
331.5068, 32.18066
331.9889, 31.97482
332.4710, 31.73630
332.9532, 31.55893
333.4353, 31.55849
333.9174, 31.49344
334.3995, 31.24920
334.8816, 30.92861
335.3637, 30.68386
335.8459, 30.59468
336.3280, 30.60946
336.8101, 30.57382
337.2922, 30.40444
337.7743, 30.31200
338.2564, 30.39960
338.7386, 30.51545
339.2206, 30.49517
339.7028, 30.30513
340.1849, 30.07782
340.6670, 30.04177
341.1491, 30.35602
341.6312, 30.45857
342.1133, 30.13647
342.5955, 29.80775
343.0776, 29.70613
343.5597, 29.83045
344.0418, 30.04683
344.5239, 30.26039
345.0060, 30.48104
345.4882, 30.52472
345.9703, 30.12383
346.4524, 29.79943
346.9345, 29.73632
347.4166, 29.84685
347.8987, 29.96414
348.3809, 29.98977
348.8630, 29.93985
349.3451, 29.87501
349.8272, 29.76303
350.3093, 29.68744
350.7914, 29.62044
351.2736, 29.61184
351.7557, 29.76553
352.2378, 30.11396
352.7199, 30.47929
353.2020, 30.51813
353.6841, 30.07221
354.1663, 29.78351
354.6484, 29.86645
355.1305, 30.01120
355.6126, 30.01278
356.0947, 29.87293
356.5768, 29.76286
357.0590, 29.92543
357.5411, 30.38127
358.0232, 30.55217
358.5053, 30.17040
358.9874, 29.78595
359.4695, 29.63489
359.9517, 29.65425
360.4338, 29.70098
360.9159, 29.70139
361.3980, 29.66433
361.8801, 29.60630
362.3622, 29.49716
362.8444, 29.43647
363.3265, 29.46313
363.8086, 29.54944
364.2907, 29.69303
364.7728, 29.90750
365.2549, 30.10101
365.7371, 30.09928
366.2192, 29.86447
366.7013, 29.79110
367.1834, 30.14304
367.6655, 30.55060
368.1476, 30.74911
368.6298, 30.72966
369.1119, 30.61920
369.5940, 30.43146
370.0761, 30.20796
370.5582, 30.17879
371.0403, 30.46426
371.5225, 30.76209
372.0046, 30.83309
372.4867, 30.75964
372.9688, 30.72904
373.4509, 30.81611
373.9330, 30.98205
374.4152, 31.19768
374.8973, 31.47369
375.3794, 31.70050
375.8615, 31.80053
376.3436, 31.82391
376.8257, 31.83928
377.3079, 31.83456
377.7900, 31.86752
378.2721, 31.91782
378.7542, 32.02245
379.2363, 32.41787
379.7184, 33.35258
380.2006, 34.29750
380.6827, 34.48306
381.1648, 33.93483
381.6469, 33.43369
382.1290, 33.21292
382.6111, 33.18852
383.0933, 33.25747
383.5754, 33.40971
384.0575, 33.63368
384.5396, 33.94921
385.0217, 34.34221
385.5038, 34.69585
385.9860, 35.08212
386.4681, 35.35855
386.9502, 35.40405
387.4323, 35.25818
387.9144, 35.02920
388.3965, 34.72974
388.8787, 34.44165
389.3608, 34.41639
389.8429, 34.79500
390.3250, 35.08699
390.8071, 35.11892
391.2892, 35.04320
391.7714, 35.03758
392.2535, 35.14259
392.7356, 35.30635
393.2177, 35.48563
393.6998, 35.70545
394.1819, 35.78132
394.6641, 35.57385
395.1462, 35.36102
395.6283, 35.28383
396.1104, 35.33553
396.5925, 35.46886
397.0746, 35.66523
397.5568, 35.90131
398.0389, 36.05093
398.5210, 36.10044
399.0031, 36.07350
399.4852, 35.84765
399.9673, 35.60251
400.4495, 35.59129
400.9316, 35.87458
401.4137, 36.21558
401.8958, 36.25377
402.3779, 35.91890
402.8600, 35.45385
403.3422, 34.56820
403.8243, 33.82401
404.3064, 33.62951
404.7885, 33.85434
405.2706, 34.03400
405.7527, 33.77378
406.2349, 33.16047
406.7170, 32.93171
407.1991, 33.53331
407.6812, 33.88108
408.1633, 33.48853
408.6454, 32.83403
409.1276, 32.47678
409.6097, 32.62381
410.0918, 32.97642
410.5739, 33.08158
411.0560, 32.88288
411.5381, 32.73690
412.0203, 32.71687
412.5024, 32.75116
412.9845, 32.82868
413.4666, 32.93363
413.9487, 33.01394
414.4308, 33.01791
414.9130, 32.96620
415.3951, 32.92388
415.8772, 32.86636
416.3593, 32.87983
416.8414, 33.04829
417.3235, 33.30544
417.8057, 33.58897
418.2878, 33.93205
418.7699, 34.19930
419.2520, 34.16575
419.7341, 33.87548
420.2162, 33.77087
420.6984, 34.04314
421.1805, 34.48322
421.6626, 34.82424
422.1447, 35.06964
422.6268, 35.31722
423.1089, 35.55851
423.5911, 35.84091
424.0732, 36.25132
424.5553, 36.79802
425.0374, 37.38792
425.5195, 37.98162
426.0016, 38.55658
426.4838, 39.00888
426.9659, 39.37907
427.4480, 39.59045
427.9301, 39.38728
428.4122, 39.01562
428.8943, 39.04681
429.3765, 39.72313
429.8586, 40.70243
430.3407, 41.38815
430.8228, 41.60096
431.3049, 41.89437
431.7870, 42.32212
432.2692, 42.79307
432.7513, 43.26441
433.2334, 43.71871
433.7155, 44.13331
434.1976, 44.48101
434.6797, 44.76813
435.1619, 45.09800
435.6440, 45.50673
436.1261, 45.91915
436.6082, 46.27956
437.0903, 46.65459
437.5724, 47.16634
438.0546, 47.84562
438.5367, 48.54140
439.0188, 48.98806
439.5009, 49.07644
439.9830, 49.26643
440.4651, 49.63642
440.9473, 50.05290
441.4294, 50.54339
441.9115, 51.03793
442.3936, 51.34118
442.8757, 51.20059
443.3578, 50.84930
443.8400, 51.23891
444.3221, 52.88816
444.8042, 53.97699
445.2863, 53.33711
445.7684, 52.11614
446.2505, 51.33441
446.7327, 51.21117
447.2148, 51.27390
447.6969, 51.12332
448.1790, 50.80213
448.6611, 50.58394
449.1432, 50.61490
449.6254, 50.54740
450.1075, 49.93349
450.5896, 48.95265
451.0717, 48.15194
451.5538, 47.83083
452.0359, 47.64204
452.5181, 47.27009
453.0002, 46.72908
453.4823, 46.11669
453.9644, 45.43865
454.4465, 44.76126
454.9286, 44.25824
455.4108, 43.99176
455.8929, 43.67928
456.3750, 43.22942
456.8571, 42.71709
457.3392, 42.19388
457.8214, 41.67840
458.3035, 41.22017
458.7856, 40.87257
459.2677, 40.63678
459.7498, 40.34974
460.2319, 39.96802
460.7141, 39.59354
461.1962, 39.27655
461.6783, 38.97699
462.1604, 38.62412
462.6425, 38.19350
463.1246, 37.74948
463.6068, 37.41758
464.0889, 37.28680
464.5710, 37.03529
465.0531, 36.53777
465.5352, 36.04454
466.0173, 35.63791
466.4995, 35.33369
466.9816, 35.15571
467.4637, 35.16309
467.9458, 35.25650
468.4279, 35.07456
468.9100, 34.45818
469.3922, 33.97879
469.8743, 33.93255
470.3564, 34.01122
470.8385, 33.99473
471.3206, 33.84781
471.8027, 33.61419
472.2849, 33.24085
472.7670, 32.79470
473.2491, 32.56202
473.7312, 32.62079
474.2133, 32.74204
474.6954, 32.81995
475.1776, 32.83422
475.6597, 32.71893
476.1418, 32.40049
476.6239, 32.02794
477.1060, 31.66723
477.5881, 31.33372
478.0703, 31.04676
478.5524, 30.80000
479.0345, 30.66697
479.5166, 30.81211
479.9987, 31.34550
480.4808, 31.62899
480.9630, 31.41031
481.4451, 31.11378
481.9272, 30.99486
482.4093, 31.05347
482.8914, 31.24190
483.3735, 31.55808
483.8557, 31.90712
484.3378, 31.94710
484.8199, 31.43368
485.3020, 30.94019
485.7841, 30.43767
486.2662, 29.99653
486.7484, 29.63466
487.2305, 29.37613
487.7126, 29.29638
488.1947, 29.51988
488.6768, 30.01617
489.1589, 30.29200
489.6411, 30.25033
490.1232, 30.13114
490.6053, 29.96628
491.0874, 29.79705
491.5695, 29.68254
492.0516, 29.64337
492.5338, 29.60765
493.0159, 29.44612
493.4980, 29.18840
493.9801, 29.14024
494.4622, 29.45316
494.9443, 29.77787
495.4265, 29.81919
495.9086, 29.64519
496.3907, 29.41386
496.8728, 29.04004
497.3549, 28.73134
497.8370, 28.74136
498.3192, 28.98279
498.8013, 29.11728
499.2834, 28.99907
499.7655, 28.76535
500.2476, 28.63374
500.7297, 28.62771
501.2119, 28.64292
501.6940, 28.73397
502.1761, 28.79451
502.6582, 28.72852
503.1403, 28.56088
503.6224, 28.38178
504.1045, 28.24445
504.5866, 28.14525
505.0688, 28.06928
505.5509, 28.00395
506.0330, 27.98602
506.5151, 28.13505
506.9972, 28.24114
507.4793, 28.07560
507.9615, 27.67846
508.4436, 27.33116
508.9257, 27.28137
509.4078, 27.48486
509.8899, 27.68889
510.3720, 27.93430
510.8542, 28.09044
511.3363, 28.06553
511.8184, 27.95162
512.3005, 27.80715
512.7827, 27.63403
513.2648, 27.52546
513.7469, 27.60000
514.2290, 27.79333
514.7111, 27.91981
515.1932, 27.95305
515.6754, 27.93675
516.1575, 27.91523
516.6396, 27.86886
517.1217, 27.72694
517.6038, 27.36860
518.0859, 27.05219
518.5681, 26.93250
519.0502, 26.92243
519.5323, 26.86514
520.0144, 26.71715
520.4965, 26.56573
520.9786, 26.52819
521.4608, 26.63979
521.9429, 26.64767
522.4250, 26.41600
522.9071, 26.24500
523.3892, 26.32977
523.8713, 26.51949
524.3535, 26.55618
524.8356, 26.33629
525.3177, 26.02397
525.7998, 25.89338
526.2819, 25.97560
526.7640, 26.08973
527.2462, 26.34279
527.7283, 26.49592
528.2104, 26.34740
528.6925, 26.01809
529.1746, 25.79035
529.6567, 25.81557
530.1389, 25.94605
530.6210, 26.00278
531.1031, 25.98781
531.5852, 25.92695
532.0673, 25.80004
532.5494, 25.67255
533.0316, 25.62492
533.5137, 25.65109
533.9958, 25.71567
534.4779, 25.81894
534.9600, 25.95176
535.4421, 26.18914
535.9243, 26.46247
536.4064, 26.52138
536.8885, 26.22274
537.3706, 25.76365
537.8527, 25.56988
538.3348, 25.83431
538.8170, 25.98353
539.2991, 25.97153
539.7812, 25.89521
540.2633, 25.78161
540.7454, 25.65148
541.2275, 25.52961
541.7097, 25.42762
542.1918, 25.35463
542.6739, 25.33768
543.1560, 25.38685
543.6381, 25.46048
544.1202, 25.58476
544.6024, 25.70353
545.0845, 25.79893
545.5666, 25.86217
546.0487, 25.86100
546.5308, 25.72972
547.0129, 25.54914
547.4951, 25.44777
547.9772, 25.42385
548.4593, 25.42721
548.9414, 25.45335
549.4235, 25.47642
549.9056, 25.43852
550.3878, 25.32875
550.8699, 25.23914
551.3520, 25.16007
551.8341, 25.12873
552.3162, 25.21785
552.7983, 25.39127
553.2805, 25.52235
553.7626, 25.53672
554.2447, 25.46355
554.7268, 25.38467
555.2089, 25.28149
555.6910, 25.20706
556.1732, 25.14700
556.6553, 25.12496
557.1374, 25.18573
557.6195, 25.30075
558.1016, 25.38935
558.5837, 25.40492
559.0659, 25.35656
559.5480, 25.23657
560.0301, 25.01924
560.5122, 24.89466
560.9943, 25.01017
561.4764, 25.14979
561.9586, 25.06661
562.4407, 24.77823
562.9228, 24.56220
563.4049, 24.57803
563.8870, 24.67631
564.3691, 24.68198
564.8513, 24.61568
565.3334, 24.62442
565.8155, 24.78996
566.2976, 25.02135
566.7797, 25.15455
567.2618, 25.19116
567.7440, 25.09966
568.2261, 24.62944
568.7082, 24.26275
569.1903, 24.37710
569.6724, 24.81916
570.1545, 25.21292
570.6367, 25.35938
571.1188, 25.31870
571.6009, 25.18367
572.0830, 24.90267
572.5651, 24.71952
573.0472, 24.66208
573.5294, 24.71456
574.0115, 25.00616
574.4936, 25.40449
574.9757, 25.54056
575.4578, 25.13032
575.9399, 24.57531
576.4221, 24.31081
576.9042, 24.30883
577.3863, 24.44514
577.8684, 24.73221
578.3505, 25.00727
578.8326, 25.06909
579.3148, 24.89932
579.7969, 24.73426
580.2790, 24.52502
580.7611, 24.37894
581.2432, 24.37571
581.7253, 24.46241
582.2075, 24.56475
582.6896, 24.65301
583.1717, 24.71196
583.6538, 24.71227
584.1359, 24.64198
584.6180, 24.59673
585.1002, 24.53629
585.5823, 24.55431
586.0643, 24.74082
586.5464, 24.99523
587.0286, 25.18777
587.5107, 25.28107
587.9928, 25.32460
