##NAMES=Metavoltine
##RRUFFID=R070542
##IDEAL CHEMISTRY=K_2_Na_6_Fe^2+^Fe^3+^_6_O_2_(S^6+^O_4_)_12_&#183;18H_2_O
##LOCALITY=Vulcano Island. Lipari Islands, Messina Province, Sicily, Italy
##OWNER=RRUFF
##SOURCE=James Shigley
##DESCRIPTION=Dark yellow granular crystals
##STATUS=The identification of this mineral has been made only by X-ray diffraction.
##URL=rruff.info/R070542
159.9693, 1753.028
160.4514, 1761.100
160.9335, 1763.729
161.4157, 1763.645
161.8978, 1764.099
162.3799, 1771.110
162.8620, 1795.089
163.3441, 1805.313
163.8262, 1789.461
164.3084, 1765.567
164.7905, 1753.265
165.2726, 1758.356
165.7547, 1770.833
166.2368, 1774.135
166.7189, 1763.084
167.2011, 1755.485
167.6832, 1755.483
168.1653, 1758.814
168.6474, 1761.215
169.1295, 1761.606
169.6116, 1759.579
170.0938, 1753.421
170.5759, 1740.410
171.0580, 1730.913
171.5401, 1728.145
172.0222, 1729.115
172.5043, 1730.513
172.9865, 1731.578
173.4686, 1731.351
173.9507, 1726.719
174.4328, 1714.024
174.9149, 1708.061
175.3970, 1718.799
175.8792, 1736.185
176.3613, 1743.080
176.8434, 1732.805
177.3255, 1717.007
177.8076, 1717.495
178.2897, 1738.451
178.7719, 1754.099
179.2540, 1752.434
179.7361, 1742.651
180.2182, 1740.659
180.7003, 1752.045
181.1824, 1768.822
181.6646, 1776.068
182.1467, 1771.227
182.6288, 1773.272
183.1109, 1795.420
183.5930, 1826.375
184.0751, 1846.139
184.5573, 1848.015
185.0394, 1841.020
185.5215, 1837.524
186.0036, 1837.419
186.4857, 1838.287
186.9678, 1838.726
187.4500, 1839.741
187.9321, 1843.880
188.4142, 1852.612
188.8963, 1862.190
189.3784, 1867.535
189.8605, 1869.011
190.3427, 1868.035
190.8248, 1862.998
191.3069, 1856.151
191.7890, 1852.236
192.2711, 1853.253
192.7532, 1854.707
193.2354, 1848.589
193.7175, 1834.944
194.1996, 1826.131
194.6817, 1829.033
195.1638, 1838.749
195.6459, 1848.010
196.1281, 1856.594
196.6102, 1860.940
197.0923, 1853.983
197.5744, 1836.951
198.0565, 1820.773
198.5386, 1808.520
199.0207, 1799.199
199.5029, 1790.768
199.9850, 1782.295
200.4671, 1760.417
200.9492, 1779.938
201.4313, 1790.694
201.9134, 1793.156
202.3956, 1762.485
202.8777, 1774.599
203.3598, 1769.566
203.8419, 1763.831
204.3240, 1781.966
204.8061, 1756.114
205.2883, 1773.871
205.7704, 1774.221
206.2525, 1782.537
206.7346, 1773.601
207.2167, 1769.994
207.6988, 1783.644
208.1810, 1787.739
208.6631, 1776.817
209.1452, 1785.640
209.6273, 1759.185
210.1094, 1763.687
210.5915, 1781.545
211.0737, 1771.490
211.5558, 1780.628
212.0379, 1782.457
212.5200, 1769.659
213.0021, 1776.680
213.4842, 1781.693
213.9664, 1785.645
214.4485, 1786.431
214.9306, 1778.454
215.4127, 1761.040
215.8948, 1748.278
216.3769, 1752.711
216.8591, 1770.223
217.3412, 1784.636
217.8233, 1796.391
218.3054, 1803.078
218.7875, 1799.588
219.2696, 1786.292
219.7518, 1774.561
220.2339, 1770.644
220.7160, 1774.272
221.1981, 1781.742
221.6802, 1798.244
222.1623, 1813.909
222.6445, 1819.745
223.1266, 1817.105
223.6087, 1816.271
224.0908, 1824.395
224.5729, 1837.346
225.0550, 1842.661
225.5371, 1834.169
226.0193, 1826.244
226.5014, 1829.079
226.9835, 1840.142
227.4656, 1848.186
227.9477, 1846.652
228.4298, 1840.485
228.9120, 1842.231
229.3941, 1856.403
229.8762, 1869.173
230.3583, 1872.133
230.8404, 1868.822
231.3225, 1869.422
231.8047, 1879.328
232.2868, 1892.168
232.7689, 1893.000
233.2510, 1876.585
233.7331, 1865.286
234.2152, 1868.078
234.6974, 1880.333
235.1795, 1895.640
235.6616, 1913.398
236.1437, 1928.825
236.6258, 1931.199
237.1079, 1915.945
237.5901, 1908.177
238.0722, 1918.890
238.5543, 1937.523
239.0364, 1950.863
239.5185, 1955.910
240.0006, 1956.455
240.4828, 1956.712
240.9649, 1956.603
241.4470, 1956.725
241.9291, 1955.109
242.4112, 1954.935
242.8933, 1960.555
243.3755, 1972.309
243.8576, 1984.516
244.3397, 1991.103
244.8218, 1990.616
245.3039, 1994.283
245.7860, 2004.173
246.2682, 2016.459
246.7503, 2028.715
247.2324, 2040.833
247.7145, 2054.093
248.1966, 2070.190
248.6787, 2089.303
249.1608, 2101.962
249.6430, 2098.755
250.1251, 2099.179
250.6072, 2118.580
251.0893, 2149.992
251.5714, 2172.189
252.0535, 2169.441
252.5357, 2146.108
253.0178, 2140.695
253.4999, 2166.486
253.9820, 2192.450
254.4641, 2212.655
254.9462, 2227.464
255.4284, 2236.364
255.9105, 2238.455
256.3926, 2237.766
256.8747, 2247.775
257.3568, 2282.692
257.8390, 2311.766
258.3211, 2328.340
258.8032, 2340.046
259.2853, 2356.064
259.7674, 2379.582
260.2495, 2406.001
260.7316, 2425.881
261.2137, 2430.951
261.6959, 2442.818
262.1780, 2459.039
262.6601, 2482.840
263.1422, 2520.990
263.6243, 2572.627
264.1064, 2626.393
264.5886, 2668.183
265.0707, 2697.205
265.5528, 2715.194
266.0349, 2709.843
266.5170, 2705.518
266.9991, 2721.775
267.4813, 2753.685
267.9634, 2777.718
268.4455, 2769.191
268.9276, 2725.228
269.4097, 2692.172
269.8918, 2690.363
270.3740, 2680.292
270.8561, 2646.795
271.3382, 2595.797
271.8203, 2541.050
272.3024, 2490.596
272.7845, 2444.008
273.2667, 2399.195
273.7488, 2358.304
274.2309, 2316.245
274.7130, 2274.060
275.1951, 2229.492
275.6772, 2177.933
276.1594, 2115.667
276.6415, 2050.687
277.1236, 2000.923
277.6057, 1971.745
278.0878, 1942.774
278.5699, 1906.793
279.0521, 1869.640
279.5342, 1836.244
280.0163, 1807.942
280.4984, 1782.202
280.9805, 1755.098
281.4626, 1726.152
281.9448, 1702.812
282.4269, 1691.676
282.9090, 1682.717
283.3911, 1667.210
283.8732, 1644.905
284.3553, 1623.674
284.8375, 1610.166
285.3196, 1602.794
285.8017, 1593.764
286.2838, 1582.078
286.7659, 1568.542
287.2480, 1550.370
287.7302, 1529.688
288.2123, 1516.253
288.6944, 1522.193
289.1765, 1535.098
289.6586, 1531.368
290.1407, 1507.014
290.6229, 1482.783
291.1050, 1476.230
291.5871, 1481.238
292.0692, 1480.130
292.5513, 1465.718
293.0334, 1447.986
293.5156, 1433.046
293.9977, 1421.140
294.4798, 1414.198
294.9619, 1414.108
295.4440, 1419.414
295.9261, 1425.638
296.4083, 1435.214
296.8904, 1441.839
297.3725, 1443.326
297.8546, 1440.017
298.3367, 1431.482
298.8188, 1417.003
299.3010, 1399.906
299.7831, 1385.757
300.2652, 1372.614
300.7473, 1367.235
301.2294, 1377.561
301.7115, 1391.935
302.1937, 1398.678
302.6758, 1395.933
303.1579, 1390.046
303.6400, 1387.965
304.1221, 1390.885
304.6042, 1391.528
305.0864, 1392.759
305.5685, 1389.572
306.0506, 1374.795
306.5327, 1352.669
307.0148, 1335.583
307.4969, 1333.473
307.9791, 1344.398
308.4612, 1345.761
308.9433, 1320.291
309.4254, 1304.277
309.9075, 1310.732
310.3896, 1327.957
310.8717, 1340.819
311.3539, 1342.430
311.8360, 1336.534
312.3181, 1330.958
312.8002, 1324.506
313.2823, 1320.982
313.7644, 1326.320
314.2466, 1330.594
314.7287, 1324.716
315.2108, 1307.823
315.6929, 1288.612
316.1750, 1275.519
316.6571, 1268.499
317.1393, 1268.473
317.6214, 1283.920
318.1035, 1298.003
318.5856, 1303.648
319.0677, 1300.962
319.5498, 1291.654
320.0320, 1270.386
320.5141, 1243.718
320.9962, 1235.145
321.4783, 1252.022
321.9604, 1268.816
322.4425, 1270.709
322.9247, 1264.157
323.4068, 1257.500
323.8889, 1252.487
324.3710, 1248.714
324.8531, 1245.632
325.3352, 1243.273
325.8174, 1242.501
326.2995, 1244.677
326.7816, 1247.746
327.2637, 1247.994
327.7458, 1244.413
328.2279, 1241.865
328.7101, 1242.667
329.1922, 1245.947
329.6743, 1250.942
330.1564, 1257.954
330.6385, 1263.788
331.1206, 1263.917
331.6028, 1257.375
332.0849, 1253.046
332.5670, 1254.859
333.0491, 1256.602
333.5312, 1252.278
334.0133, 1242.703
334.4955, 1233.800
334.9776, 1229.857
335.4597, 1230.553
335.9418, 1231.601
336.4239, 1231.684
336.9060, 1233.549
337.3882, 1239.634
337.8703, 1247.476
338.3524, 1254.064
338.8345, 1258.119
339.3166, 1259.250
339.7987, 1256.140
340.2809, 1244.565
340.7630, 1236.231
341.2451, 1232.631
341.7272, 1230.955
342.2093, 1228.733
342.6914, 1226.047
343.1736, 1225.435
343.6557, 1230.715
344.1378, 1242.440
344.6199, 1249.375
345.1020, 1246.713
345.5841, 1244.482
346.0663, 1247.992
346.5484, 1254.474
347.0305, 1258.410
347.5126, 1256.312
347.9947, 1250.813
348.4768, 1247.840
348.9590, 1248.482
349.4411, 1247.265
349.9232, 1240.594
350.4053, 1231.760
350.8874, 1222.743
351.3695, 1212.901
351.8517, 1207.518
352.3338, 1215.673
352.8159, 1232.820
353.2980, 1238.730
353.7801, 1225.471
354.2622, 1207.599
354.7444, 1203.133
355.2265, 1210.479
355.7086, 1215.566
356.1907, 1212.342
356.6728, 1207.175
357.1549, 1206.619
357.6371, 1210.770
358.1192, 1216.440
358.6013, 1222.776
359.0834, 1228.694
359.5655, 1226.165
360.0476, 1204.484
360.5297, 1188.123
361.0118, 1189.109
361.4940, 1198.669
361.9761, 1203.152
362.4582, 1197.488
362.9403, 1186.900
363.4224, 1180.512
363.9045, 1180.283
364.3867, 1180.664
364.8688, 1180.370
365.3509, 1181.609
365.8330, 1187.532
366.3151, 1196.846
366.7972, 1204.591
367.2794, 1206.372
367.7615, 1202.532
368.2436, 1197.865
368.7257, 1190.742
369.2078, 1185.081
369.6899, 1181.640
370.1721, 1180.282
370.6542, 1181.171
371.1363, 1184.707
371.6184, 1189.107
372.1005, 1191.971
372.5826, 1193.258
373.0648, 1193.645
373.5469, 1193.401
374.0290, 1192.115
374.5111, 1189.148
374.9932, 1184.518
375.4753, 1180.148
375.9575, 1175.093
376.4396, 1171.402
376.9217, 1173.731
377.4038, 1182.966
377.8859, 1194.336
378.3680, 1206.650
378.8502, 1218.321
379.3323, 1221.860
379.8144, 1210.170
380.2965, 1197.203
380.7786, 1189.128
381.2607, 1185.166
381.7429, 1183.640
382.2250, 1183.968
382.7071, 1185.873
383.1892, 1189.033
383.6713, 1196.667
384.1534, 1199.547
384.6356, 1191.549
385.1177, 1183.356
385.5998, 1184.421
386.0819, 1193.972
386.5640, 1203.384
387.0461, 1204.497
387.5283, 1197.723
388.0104, 1195.829
388.4925, 1204.306
388.9746, 1210.958
389.4567, 1214.177
389.9388, 1213.561
390.4210, 1207.016
390.9031, 1193.015
391.3852, 1178.909
391.8673, 1176.899
392.3494, 1188.448
392.8315, 1197.105
393.3137, 1198.110
393.7958, 1196.763
394.2779, 1198.593
394.7600, 1202.930
395.2421, 1203.481
395.7242, 1191.664
396.2064, 1176.186
396.6885, 1172.747
397.1706, 1182.636
397.6527, 1195.298
398.1348, 1206.738
398.6169, 1215.152
399.0991, 1215.198
399.5812, 1197.836
400.0633, 1184.243
400.5454, 1185.957
401.0275, 1195.956
401.5096, 1202.573
401.9918, 1202.263
402.4739, 1199.721
402.9560, 1202.135
403.4381, 1213.649
403.9202, 1215.793
404.4023, 1199.207
404.8845, 1183.312
405.3666, 1178.493
405.8487, 1182.520
406.3308, 1188.036
406.8129, 1190.493
407.2950, 1190.831
407.7772, 1192.758
408.2592, 1198.524
408.7414, 1201.192
409.2235, 1194.462
409.7056, 1187.523
410.1877, 1189.578
410.6698, 1201.752
411.1519, 1213.532
411.6341, 1212.927
412.1162, 1203.128
412.5983, 1202.051
413.0804, 1214.095
413.5625, 1228.081
414.0446, 1237.826
414.5268, 1243.429
415.0089, 1243.688
415.4910, 1233.566
415.9731, 1222.768
416.4552, 1217.564
416.9373, 1217.504
417.4195, 1221.944
417.9016, 1231.267
418.3837, 1242.881
418.8658, 1252.549
419.3479, 1260.895
419.8300, 1265.304
420.3122, 1261.747
420.7943, 1257.301
421.2764, 1256.994
421.7585, 1260.718
422.2406, 1265.954
422.7227, 1271.125
423.2049, 1275.999
423.6870, 1278.838
424.1691, 1277.402
424.6512, 1277.242
425.1333, 1275.628
425.6154, 1277.604
426.0976, 1291.236
426.5797, 1317.600
427.0618, 1343.040
427.5439, 1351.708
428.0260, 1344.822
428.5081, 1338.133
428.9903, 1328.587
429.4724, 1326.840
429.9545, 1344.248
430.4366, 1374.420
430.9187, 1403.600
431.4008, 1432.993
431.8830, 1455.394
432.3651, 1460.218
432.8472, 1451.474
433.3293, 1446.232
433.8114, 1451.401
434.2935, 1460.590
434.7757, 1462.163
435.2578, 1450.988
435.7399, 1448.038
436.2220, 1461.079
436.7041, 1477.436
437.1862, 1489.015
437.6684, 1495.563
438.1505, 1499.776
438.6326, 1503.152
439.1147, 1506.192
439.5968, 1511.639
440.0789, 1523.237
440.5611, 1531.046
441.0432, 1531.247
441.5253, 1529.190
442.0074, 1528.229
442.4895, 1529.334
442.9716, 1533.439
443.4538, 1543.540
443.9359, 1558.187
444.4180, 1568.079
444.9001, 1571.467
445.3822, 1573.325
445.8643, 1577.530
446.3465, 1582.124
446.8286, 1583.206
447.3107, 1578.290
447.7928, 1572.614
448.2749, 1568.592
448.7570, 1566.448
449.2392, 1568.136
449.7213, 1574.745
450.2034, 1580.512
450.6855, 1577.711
451.1676, 1563.728
451.6497, 1553.693
452.1319, 1555.169
452.6140, 1552.778
453.0961, 1538.671
453.5782, 1515.231
454.0603, 1486.226
454.5424, 1453.161
455.0246, 1420.334
455.5067, 1398.632
455.9888, 1392.581
456.4709, 1384.578
456.9530, 1370.529
457.4351, 1355.695
457.9172, 1341.360
458.3994, 1328.457
458.8815, 1319.308
459.3636, 1316.218
459.8457, 1317.312
460.3278, 1321.448
460.8099, 1329.141
461.2921, 1329.471
461.7742, 1312.544
462.2563, 1289.455
462.7384, 1282.430
463.2205, 1296.849
463.7026, 1308.428
464.1848, 1306.965
464.6669, 1301.374
465.1490, 1301.199
465.6311, 1307.125
466.1132, 1314.505
466.5953, 1320.252
467.0775, 1324.076
467.5596, 1323.378
468.0417, 1311.979
468.5238, 1303.754
469.0059, 1303.024
469.4880, 1304.564
469.9702, 1301.735
470.4523, 1293.946
470.9344, 1288.712
471.4165, 1296.986
471.8986, 1316.852
472.3807, 1326.788
472.8629, 1322.619
473.3450, 1316.663
473.8271, 1315.359
474.3092, 1316.985
474.7913, 1319.090
475.2734, 1320.817
475.7556, 1323.892
476.2377, 1330.310
476.7198, 1338.721
477.2019, 1347.514
477.6840, 1356.478
478.1661, 1361.310
478.6483, 1355.824
479.1304, 1338.263
479.6125, 1331.260
480.0946, 1344.348
480.5767, 1355.708
481.0588, 1357.304
481.5410, 1352.900
482.0231, 1347.084
482.5052, 1341.716
482.9873, 1338.812
483.4694, 1342.133
483.9515, 1352.639
484.4337, 1362.474
484.9158, 1375.053
485.3979, 1381.863
485.8800, 1374.230
486.3621, 1358.663
486.8442, 1349.279
487.3264, 1352.260
487.8085, 1360.609
488.2906, 1370.772
488.7727, 1381.299
489.2548, 1385.294
489.7369, 1379.778
490.2191, 1371.149
490.7012, 1366.765
491.1833, 1367.309
491.6654, 1369.560
492.1475, 1375.390
492.6296, 1381.041
493.1118, 1385.714
493.5939, 1388.664
494.0760, 1387.771
494.5581, 1382.071
495.0402, 1375.266
495.5223, 1374.024
496.0045, 1379.429
496.4866, 1386.109
496.9687, 1397.205
497.4508, 1405.881
497.9329, 1407.261
498.4150, 1403.676
498.8972, 1400.999
499.3793, 1402.167
499.8614, 1404.510
500.3435, 1406.171
500.8256, 1406.720
501.3077, 1402.105
501.7899, 1388.893
502.2720, 1376.177
502.7541, 1377.121
503.2362, 1395.247
503.7183, 1405.803
504.2004, 1402.339
504.6826, 1396.880
505.1647, 1396.120
505.6468, 1398.164
506.1289, 1398.704
506.6110, 1395.840
507.0931, 1390.486
507.5752, 1383.743
508.0573, 1374.853
508.5395, 1367.820
509.0216, 1366.249
509.5037, 1362.935
509.9858, 1352.314
510.4679, 1337.445
510.9500, 1325.741
511.4322, 1321.270
511.9143, 1319.143
512.3964, 1313.706
512.8785, 1305.884
513.3607, 1301.693
513.8428, 1304.538
514.3249, 1304.634
514.8070, 1288.001
515.2891, 1250.571
515.7712, 1226.665
516.2534, 1222.007
516.7355, 1224.309
517.2176, 1233.907
517.6997, 1245.174
518.1818, 1249.971
518.6639, 1245.199
519.1461, 1234.149
519.6282, 1219.597
520.1103, 1200.247
520.5924, 1186.495
521.0745, 1174.118
521.5566, 1160.396
522.0388, 1178.566
522.5209, 1188.008
523.0030, 1189.190
523.4851, 1157.373
523.9672, 1168.167
524.4493, 1161.885
524.9315, 1154.903
525.4136, 1171.694
525.8957, 1144.677
526.3778, 1161.092
526.8599, 1155.618
527.3420, 1161.095
527.8242, 1167.708
528.3063, 1179.513
528.7884, 1187.467
529.2705, 1188.244
529.7526, 1184.582
530.2347, 1179.014
530.7169, 1172.423
531.1990, 1165.464
531.6810, 1157.642
532.1631, 1149.421
532.6453, 1145.776
533.1274, 1146.138
533.6095, 1152.675
534.0916, 1173.852
534.5737, 1198.855
535.0558, 1210.788
535.5380, 1204.073
536.0201, 1198.863
536.5022, 1207.647
536.9843, 1221.506
537.4664, 1227.580
537.9485, 1225.534
538.4307, 1224.829
538.9128, 1232.885
539.3949, 1246.826
539.8770, 1252.962
540.3591, 1246.286
540.8412, 1239.351
541.3234, 1229.151
541.8055, 1222.097
542.2876, 1223.448
542.7697, 1232.608
543.2518, 1245.364
543.7339, 1262.307
544.2161, 1278.579
544.6982, 1282.542
545.1803, 1274.024
545.6624, 1265.560
546.1445, 1259.115
546.6266, 1257.995
547.1088, 1270.629
547.5909, 1299.590
548.0730, 1318.400
548.5551, 1316.098
549.0372, 1310.248
549.5193, 1312.297
550.0015, 1319.088
550.4836, 1321.969
550.9657, 1317.214
551.4478, 1309.651
551.9299, 1308.258
552.4120, 1315.145
552.8942, 1315.723
553.3763, 1299.622
553.8584, 1287.146
554.3405, 1299.314
554.8226, 1307.525
555.3047, 1311.966
555.7869, 1302.734
556.2690, 1310.096
556.7511, 1310.160
557.2332, 1309.479
557.7153, 1317.853
558.1974, 1308.226
558.6796, 1315.522
559.1617, 1315.415
559.6438, 1310.942
560.1259, 1305.776
560.6080, 1286.468
561.0901, 1272.613
561.5723, 1270.797
562.0544, 1271.996
562.5365, 1267.081
563.0186, 1256.224
563.5007, 1247.652
563.9828, 1248.709
564.4650, 1256.008
564.9471, 1261.355
565.4292, 1264.635
565.9113, 1267.432
566.3934, 1271.422
566.8755, 1273.875
567.3577, 1268.907
567.8398, 1255.380
568.3219, 1246.097
568.8040, 1248.067
569.2861, 1249.795
569.7682, 1241.220
570.2504, 1227.315
570.7325, 1219.908
571.2146, 1223.932
571.6967, 1231.228
572.1788, 1229.309
572.6609, 1217.320
573.1431, 1201.504
573.6252, 1174.188
574.1073, 1154.580
574.5894, 1156.811
575.0715, 1171.223
575.5536, 1183.570
576.0358, 1192.586
576.5179, 1195.614
577.0000, 1186.894
577.4821, 1172.931
577.9642, 1163.961
578.4464, 1160.929
578.9285, 1158.942
579.4106, 1154.760
579.8927, 1148.465
580.3748, 1140.094
580.8569, 1126.416
581.3391, 1116.479
581.8212, 1111.727
582.3033, 1109.837
582.7854, 1109.723
583.2675, 1111.156
583.7496, 1114.164
584.2318, 1119.636
584.7139, 1125.566
585.1960, 1130.193
585.6781, 1133.162
586.1602, 1131.777
586.6423, 1124.607
587.1245, 1115.844
587.6066, 1109.870
588.0887, 1106.849
588.5708, 1104.179
589.0529, 1101.481
589.5350, 1099.564
590.0172, 1099.477
590.4993, 1099.859
590.9814, 1097.885
591.4635, 1093.697
591.9456, 1092.364
592.4277, 1101.835
592.9099, 1117.746
593.3920, 1121.444
593.8741, 1110.795
594.3562, 1102.059
594.8383, 1102.215
595.3204, 1107.194
595.8026, 1111.399
596.2847, 1115.365
596.7668, 1115.933
597.2489, 1107.850
597.7310, 1100.726
598.2131, 1103.814
598.6953, 1111.944
599.1774, 1113.317
599.6595, 1103.364
600.1416, 1090.053
600.6237, 1085.320
601.1058, 1089.609
601.5880, 1092.269
602.0701, 1092.375
602.5522, 1092.312
603.0343, 1094.817
603.5164, 1097.359
603.9985, 1095.565
604.4807, 1087.753
604.9628, 1080.078
605.4449, 1071.086
605.9270, 1065.997
606.4091, 1074.190
606.8912, 1092.390
607.3734, 1107.106
607.8555, 1110.708
608.3376, 1105.556
608.8197, 1094.931
609.3018, 1074.763
609.7839, 1064.090
610.2661, 1070.687
610.7482, 1079.515
611.2303, 1085.676
611.7124, 1087.891
612.1945, 1082.089
612.6766, 1061.648
613.1588, 1045.967
613.6409, 1053.297
614.1230, 1071.113
614.6051, 1080.619
615.0872, 1079.007
615.5693, 1068.609
616.0515, 1049.261
616.5336, 1025.590
617.0157, 1016.001
617.4978, 1029.162
617.9799, 1038.664
618.4620, 1040.969
618.9442, 1039.953
619.4263, 1035.209
619.9084, 1028.737
620.3905, 1026.240
620.8726, 1033.683
621.3547, 1039.526
621.8369, 1030.291
622.3190, 1011.947
622.8011, 998.0035
623.2832, 991.1748
623.7653, 989.5305
624.2474, 992.2073
624.7296, 998.4198
625.2117, 1002.170
625.6938, 1002.780
626.1759, 1001.892
626.6580, 999.8472
627.1401, 996.4059
627.6223, 988.6763
628.1044, 978.8712
628.5865, 975.5047
629.0686, 987.9437
629.5507, 1001.781
630.0328, 997.4852
630.5149, 980.8773
630.9970, 971.9214
631.4791, 975.5287
631.9612, 982.3424
632.4434, 983.8553
632.9255, 980.2626
633.4076, 974.9899
633.8897, 964.6936
634.3718, 957.4495
634.8539, 953.9683
635.3361, 953.9839
635.8182, 958.8482
636.3003, 967.4207
636.7824, 975.4158
637.2645, 982.5794
637.7466, 985.7358
638.2288, 975.7285
638.7109, 957.4458
639.1930, 952.1484
639.6751, 966.2554
640.1572, 983.0516
640.6393, 985.3059
641.1215, 973.5239
641.6036, 965.4998
642.0857, 960.9595
642.5678, 960.8367
643.0499, 970.7457
643.5320, 980.9582
644.0142, 983.7366
644.4963, 978.9756
644.9784, 970.7325
645.4605, 957.7774
645.9426, 945.9984
646.4247, 944.3706
646.9069, 950.4888
647.3890, 956.1003
647.8711, 959.2334
648.3532, 958.6716
648.8353, 952.0649
649.3174, 939.8969
649.7996, 934.3698
650.2817, 941.7953
650.7638, 947.1136
651.2459, 944.8627
651.7280, 942.5032
652.2101, 948.3159
652.6923, 960.4969
653.1744, 967.6706
653.6565, 960.7471
654.1386, 949.9926
654.6207, 945.4954
655.1028, 946.4538
655.5850, 952.2942
656.0671, 962.8865
656.5492, 970.7526
657.0313, 967.9246
