##NAMES=Meta-autunite
##RRUFFID=R060476
##IDEAL CHEMISTRY=Ca(U^6+^O_2_)_2_(PO_4_)_2_&#183;6H_2_O
##LOCALITY=San Pedro mine, Malacheta, Minas Gerais, Brazil
##OWNER=RRUFF
##SOURCE=Michael Scott
##DESCRIPTION=Book of yellowish-green thin tabular crystals
##STATUS=The identification of this mineral has been confirmed by X-ray diffraction and chemical analysis
##URL=rruff.info/R060476
##MEASURED CHEMISTRY=(Ca_0.87_Sr_0.05_Ba_0.04_)_∑=0.96_(UO_2_)_1.95_(PO_4_)_2.08_·4.10H_2_O
153.7627, 416.1713
154.2448, 412.8330
154.7269, 410.7948
155.2091, 412.3405
155.6912, 413.8167
156.1733, 412.9814
156.6554, 409.8158
157.1375, 406.2222
157.6196, 404.6568
158.1018, 406.0391
158.5839, 406.7914
159.0660, 406.5701
159.5481, 405.8568
160.0302, 404.7542
160.5123, 403.3559
160.9945, 401.9089
161.4766, 400.8196
161.9587, 399.8177
162.4408, 399.7098
162.9229, 401.7869
163.4050, 404.0786
163.8871, 404.5391
164.3693, 402.4276
164.8514, 398.8289
165.3335, 396.3469
165.8156, 395.6372
166.2977, 395.1406
166.7798, 395.0962
167.2620, 395.1011
167.7441, 394.4071
168.2262, 392.5673
168.7083, 390.1217
169.1904, 388.6188
169.6725, 388.1978
170.1547, 388.1665
170.6368, 388.5329
171.1189, 389.1469
171.6010, 389.4390
172.0831, 388.9544
172.5652, 388.1518
173.0474, 387.9821
173.5295, 388.7041
174.0116, 389.5599
174.4937, 389.7406
174.9758, 389.2485
175.4579, 389.3863
175.9401, 391.6420
176.4222, 394.3720
176.9043, 395.6591
177.3864, 394.8396
177.8685, 393.2863
178.3506, 392.6039
178.8328, 392.8367
179.3149, 393.8430
179.7970, 396.4676
180.2791, 399.4048
180.7612, 401.4834
181.2433, 402.2481
181.7255, 402.1293
182.2076, 401.9040
182.6897, 401.0473
183.1718, 401.1443
183.6539, 403.1488
184.1360, 405.8329
184.6181, 407.8419
185.1003, 408.4832
185.5824, 408.2567
186.0645, 408.9516
186.5466, 411.6619
187.0287, 414.0174
187.5108, 415.7879
187.9930, 417.0084
188.4751, 417.5260
188.9572, 417.1866
189.4393, 416.3316
189.9214, 416.9244
190.4035, 420.0731
190.8857, 423.4323
191.3678, 427.1610
191.8499, 430.7617
192.3320, 433.3553
192.8141, 434.3004
193.2962, 433.8705
193.7784, 434.2025
194.2605, 436.0432
194.7426, 437.6591
195.2247, 438.5526
195.7068, 438.7596
196.1889, 438.4676
196.6711, 437.8064
197.1532, 436.6748
197.6353, 434.8469
198.1174, 431.8570
198.5995, 428.6669
199.0816, 425.7525
199.5638, 423.0786
200.0459, 420.4992
200.5280, 418.1516
201.0101, 415.7037
201.4922, 412.4126
201.9743, 407.5525
202.4565, 402.5285
202.9386, 398.5695
203.4207, 395.6902
203.9028, 393.0737
204.3849, 390.7626
204.8670, 388.2736
205.3492, 384.7928
205.8313, 379.6189
206.3134, 374.1234
206.7955, 370.2594
207.2776, 368.4219
207.7597, 366.3788
208.2419, 362.8343
208.7240, 358.6556
209.2061, 354.6353
209.6882, 351.0407
210.1703, 347.6718
210.6524, 344.0502
211.1346, 339.8397
211.6167, 336.3419
212.0988, 334.4037
212.5809, 333.1139
213.0630, 331.6339
213.5451, 329.6401
214.0273, 327.2946
214.5094, 324.8795
214.9915, 322.0103
215.4736, 319.8366
215.9557, 318.9293
216.4378, 318.5351
216.9200, 317.9951
217.4021, 317.0329
217.8842, 315.6356
218.3663, 313.7203
218.8484, 310.6320
219.3305, 307.9789
219.8127, 305.9925
220.2948, 304.4673
220.7769, 303.0669
221.2590, 301.6374
221.7411, 300.4623
222.2232, 300.4137
222.7054, 303.5844
223.1875, 305.3680
223.6696, 304.6497
224.1517, 302.7184
224.6338, 301.0427
225.1159, 300.2725
225.5980, 300.0785
226.0802, 299.5079
226.5623, 298.1246
227.0444, 296.8741
227.5265, 296.0382
228.0086, 295.3112
228.4907, 294.2611
228.9729, 292.6928
229.4550, 290.8342
229.9371, 289.2858
230.4192, 287.9963
230.9013, 287.0577
231.3834, 286.6876
231.8656, 286.6394
232.3477, 286.6525
232.8298, 286.6803
233.3119, 286.5143
233.7940, 285.4617
234.2761, 282.8595
234.7583, 281.1419
235.2404, 281.7065
235.7225, 283.4344
236.2046, 284.3984
236.6867, 283.9442
237.1688, 282.5487
237.6510, 280.7540
238.1331, 278.3889
238.6152, 276.5695
239.0973, 275.8438
239.5794, 275.9173
240.0615, 276.2658
240.5437, 276.8941
241.0258, 277.4591
241.5079, 277.5371
241.9900, 277.1715
242.4721, 276.4697
242.9542, 275.1278
243.4364, 273.4760
243.9185, 272.4080
244.4006, 272.2413
244.8827, 272.4479
245.3648, 272.4738
245.8469, 272.3515
246.3290, 272.3589
246.8112, 272.8609
247.2933, 273.6187
247.7754, 273.8653
248.2575, 273.3254
248.7396, 272.5405
249.2217, 271.9115
249.7039, 271.4033
250.1860, 270.9081
250.6681, 270.2220
251.1502, 269.4771
251.6323, 269.2854
252.1144, 270.2059
252.5966, 270.7811
253.0787, 269.7315
253.5608, 267.7176
254.0429, 266.2498
254.5250, 266.6889
255.0071, 268.3718
255.4893, 268.5219
255.9714, 265.9304
256.4535, 263.7398
256.9356, 263.7309
257.4177, 264.9433
257.8998, 265.7767
258.3820, 265.1876
258.8641, 263.6688
259.3462, 263.0224
259.8283, 263.8476
260.3104, 264.5902
260.7925, 264.9052
261.2747, 264.8084
261.7568, 264.2333
262.2389, 263.0410
262.7210, 261.5416
263.2031, 260.6005
263.6852, 260.2418
264.1674, 260.4952
264.6495, 262.1212
265.1316, 263.9523
265.6137, 264.5996
266.0958, 263.4201
266.5779, 261.1992
267.0601, 259.7831
267.5422, 259.5204
268.0243, 259.5234
268.5064, 260.1250
268.9885, 260.6466
269.4706, 260.3129
269.9528, 258.8802
270.4349, 257.0053
270.9170, 255.9120
271.3991, 255.7734
271.8812, 256.1823
272.3633, 258.0179
272.8455, 259.7202
273.3276, 259.8274
273.8097, 258.1041
274.2918, 255.7101
274.7739, 254.4428
275.2560, 254.9873
275.7382, 255.2400
276.2202, 254.8505
276.7024, 254.4883
277.1845, 254.7117
277.6666, 255.5165
278.1487, 256.3676
278.6308, 256.5899
279.1129, 255.9534
279.5951, 255.4651
280.0772, 255.3703
280.5593, 255.1867
281.0414, 254.5555
281.5235, 253.5463
282.0056, 252.5083
282.4878, 251.7350
282.9699, 251.1863
283.4520, 251.2332
283.9341, 252.5454
284.4162, 253.7192
284.8983, 254.0952
285.3805, 253.8323
285.8626, 253.4972
286.3447, 253.5499
286.8268, 253.9787
287.3089, 253.9852
287.7910, 253.5352
288.2732, 252.7497
288.7553, 251.4479
289.2374, 249.8426
289.7195, 248.2240
290.2016, 246.7196
290.6837, 245.4375
291.1659, 245.0117
291.6480, 247.1218
292.1301, 248.1210
292.6122, 246.4220
293.0943, 243.4989
293.5764, 241.4395
294.0586, 241.2033
294.5407, 242.2287
295.0228, 242.9985
295.5049, 243.7768
295.9870, 243.9301
296.4691, 242.9644
296.9513, 241.5657
297.4334, 240.4783
297.9155, 239.9440
298.3976, 239.6551
298.8797, 239.0909
299.3618, 237.9690
299.8440, 237.1028
300.3261, 236.6915
300.8082, 236.4107
301.2903, 235.8313
301.7724, 234.9427
302.2545, 234.3244
302.7367, 234.7831
303.2188, 236.8607
303.7009, 237.8076
304.1830, 236.9607
304.6651, 235.6449
305.1472, 234.5433
305.6294, 233.7433
306.1115, 233.1101
306.5936, 232.5266
307.0757, 231.9871
307.5578, 231.6564
308.0399, 231.6392
308.5221, 231.6843
309.0042, 231.8967
309.4863, 232.1059
309.9684, 231.8428
310.4505, 230.7332
310.9326, 228.9552
311.4148, 227.8018
311.8969, 227.3205
312.3790, 227.2868
312.8611, 228.2128
313.3432, 229.4555
313.8253, 229.8936
314.3075, 228.9720
314.7896, 227.2496
315.2717, 226.1433
315.7538, 225.8606
316.2359, 225.9065
316.7180, 226.4903
317.2001, 227.2792
317.6823, 228.0138
318.1644, 228.6061
318.6465, 228.8944
319.1286, 228.5958
319.6107, 227.3352
320.0928, 226.3572
320.5750, 225.7618
321.0571, 225.3625
321.5392, 225.0637
322.0213, 224.8320
322.5034, 224.6150
322.9855, 224.3637
323.4677, 224.0698
323.9498, 223.7688
324.4319, 223.8006
324.9140, 223.5171
325.3961, 222.1517
325.8782, 220.1070
326.3604, 218.6347
326.8425, 218.7115
327.3246, 220.1508
327.8067, 220.8120
328.2888, 220.2726
328.7709, 219.5650
329.2531, 218.5583
329.7352, 217.6259
330.2173, 217.5296
330.6994, 218.6838
331.1815, 220.4492
331.6636, 221.0917
332.1458, 219.5710
332.6279, 218.1457
333.1100, 216.9048
333.5921, 215.7838
334.0742, 214.6366
334.5563, 213.4535
335.0385, 212.4554
335.5206, 211.9795
336.0027, 212.1820
336.4848, 212.5794
336.9669, 213.5477
337.4490, 214.4007
337.9312, 214.6530
338.4133, 214.3162
338.8954, 213.6958
339.3775, 213.0131
339.8596, 212.2182
340.3417, 211.9934
340.8239, 212.8670
341.3060, 213.6787
341.7881, 214.1764
342.2702, 214.2920
342.7523, 213.8576
343.2344, 212.7100
343.7166, 211.0937
344.1987, 210.2146
344.6808, 210.8651
345.1629, 211.4038
345.6450, 211.7459
346.1271, 211.8791
346.6093, 211.6534
347.0914, 211.0457
347.5735, 210.4297
348.0556, 210.6517
348.5377, 213.0234
349.0198, 213.7803
349.5020, 211.3485
349.9841, 208.7009
350.4662, 208.1916
350.9483, 209.8517
351.4304, 211.8195
351.9125, 211.9858
352.3947, 209.9759
352.8768, 208.6726
353.3589, 208.6629
353.8410, 208.7691
354.3231, 208.2366
354.8052, 207.5047
355.2874, 207.6383
355.7695, 209.5067
356.2516, 212.6834
356.7337, 214.7832
357.2158, 215.4361
357.6979, 215.3726
358.1800, 214.0343
358.6621, 212.3993
359.1443, 211.6843
359.6264, 212.3468
360.1085, 213.5364
360.5906, 213.5195
361.0727, 211.3899
361.5548, 210.4569
362.0370, 212.2451
362.5191, 214.3471
363.0012, 215.2307
363.4833, 214.8101
363.9654, 214.0387
364.4475, 213.9353
364.9297, 214.5637
365.4118, 214.7572
365.8939, 213.9655
366.3760, 213.3322
366.8581, 213.2220
367.3402, 213.6077
367.8224, 214.4102
368.3045, 215.6503
368.7866, 217.2121
369.2687, 218.9135
369.7508, 221.1922
370.2329, 222.5794
370.7151, 222.2768
371.1972, 221.0738
371.6793, 219.4090
372.1614, 217.3016
372.6435, 215.6334
373.1256, 215.8345
373.6078, 218.0656
374.0899, 219.8443
374.5720, 220.5469
375.0541, 220.6885
375.5362, 220.4392
376.0183, 219.8875
376.5005, 219.5789
376.9826, 220.1500
377.4647, 221.2904
377.9468, 221.8671
378.4289, 221.7625
378.9110, 221.1861
379.3932, 219.9285
379.8753, 218.3382
380.3574, 217.0592
380.8395, 216.0528
381.3216, 215.6645
381.8037, 216.7508
382.2859, 219.3546
382.7680, 221.4109
383.2501, 221.8364
383.7322, 221.2671
384.2143, 220.7477
384.6964, 220.2294
385.1786, 220.0155
385.6607, 220.6951
386.1428, 221.8264
386.6249, 222.1004
387.1070, 221.0170
387.5891, 219.5780
388.0713, 218.9782
388.5534, 219.1334
389.0355, 219.2908
389.5176, 219.4117
389.9997, 219.3967
390.4818, 219.0148
390.9640, 218.2901
391.4461, 217.7105
391.9282, 217.6220
392.4103, 217.9641
392.8924, 218.3158
393.3745, 218.7725
393.8567, 219.1331
394.3388, 219.3474
394.8209, 219.4049
395.3030, 219.2206
395.7851, 218.7322
396.2672, 218.1626
396.7494, 217.9225
397.2315, 218.2141
397.7136, 218.3554
398.1957, 218.4226
398.6778, 218.2576
399.1599, 217.5693
399.6420, 216.4231
400.1241, 215.3408
400.6063, 214.8480
401.0884, 214.9771
401.5705, 214.4985
402.0526, 212.6240
402.5347, 211.1031
403.0168, 210.7107
403.4990, 210.9790
403.9811, 211.1107
404.4632, 210.7218
404.9453, 210.0584
405.4274, 209.7399
405.9095, 210.1779
406.3917, 210.2665
406.8738, 209.8271
407.3559, 209.1754
407.8380, 208.3657
408.3201, 207.5085
408.8022, 206.9240
409.2844, 207.0552
409.7665, 207.9810
410.2486, 208.3017
410.7307, 207.2020
411.2128, 206.3635
411.6949, 206.3443
412.1771, 206.8966
412.6592, 207.6686
413.1413, 208.5529
413.6234, 209.3378
414.1055, 209.5101
414.5876, 208.8834
415.0698, 208.2095
415.5519, 207.2940
416.0340, 206.6484
416.5161, 206.8952
416.9982, 208.0298
417.4803, 209.0462
417.9625, 208.8371
418.4446, 207.6375
418.9267, 207.1663
419.4088, 207.9743
419.8909, 208.7296
420.3730, 208.3196
420.8552, 207.2539
421.3373, 206.5898
421.8194, 206.9509
422.3015, 207.5847
422.7836, 207.4497
423.2657, 206.5590
423.7479, 205.9807
424.2300, 206.2422
424.7121, 206.9639
425.1942, 207.4911
425.6763, 207.7589
426.1584, 208.1603
426.6406, 209.0818
427.1227, 210.1868
427.6048, 210.8630
428.0869, 210.9970
428.5690, 210.9319
429.0511, 210.9272
429.5333, 210.9947
430.0154, 211.1751
430.4975, 211.6336
430.9796, 212.0497
431.4617, 212.2264
431.9438, 212.2141
432.4260, 212.1599
432.9081, 212.1358
433.3902, 212.0948
433.8723, 211.9078
434.3544, 211.2146
434.8365, 210.9914
435.3187, 211.8480
435.8008, 212.8010
436.2829, 212.9370
436.7650, 212.2286
437.2471, 211.3313
437.7292, 210.8451
438.2114, 210.7774
438.6935, 210.7649
439.1756, 211.0502
439.6577, 211.1201
440.1398, 210.4892
440.6219, 209.6927
441.1040, 209.5302
441.5862, 210.3358
442.0683, 211.6047
442.5504, 212.4466
443.0325, 212.8138
443.5146, 212.9066
443.9967, 212.5684
444.4789, 212.1037
444.9610, 211.4244
445.4431, 210.7037
445.9252, 210.4751
446.4073, 211.5025
446.8894, 213.2747
447.3716, 213.6409
447.8537, 211.9854
448.3358, 210.4572
448.8179, 210.1118
449.3000, 210.3383
449.7821, 210.5351
450.2643, 210.5706
450.7464, 210.6080
451.2285, 210.8931
451.7106, 211.3379
452.1927, 211.3959
452.6748, 210.7417
453.1570, 210.1277
453.6391, 210.5694
454.1212, 211.8143
454.6033, 212.6998
455.0854, 212.8622
455.5675, 212.6217
456.0497, 212.2005
456.5318, 211.6188
457.0139, 210.9034
457.4960, 210.0311
457.9781, 209.0777
458.4602, 208.1940
458.9424, 207.0538
459.4245, 206.6103
459.9066, 207.7290
460.3887, 209.2372
460.8708, 209.7924
461.3529, 209.2773
461.8351, 208.7076
462.3172, 209.1675
462.7993, 210.7282
463.2814, 210.9393
463.7635, 208.5629
464.2456, 206.3582
464.7278, 204.7549
465.2099, 203.8116
465.6920, 203.7610
466.1741, 204.6560
466.6562, 205.8143
467.1383, 206.0277
467.6205, 204.9384
468.1026, 204.0160
468.5847, 203.2076
469.0668, 202.6700
469.5489, 202.6336
470.0310, 202.9506
470.5132, 203.1770
470.9953, 202.8283
471.4774, 202.4104
471.9595, 203.6451
472.4416, 207.2995
472.9237, 209.7417
473.4059, 208.7146
473.8880, 206.4260
474.3701, 204.7516
474.8522, 203.9111
475.3343, 203.2836
475.8164, 202.6072
476.2986, 201.8421
476.7807, 200.5474
477.2628, 198.4161
477.7449, 197.2356
478.2270, 199.1065
478.7091, 203.1502
479.1913, 205.5420
479.6734, 205.4424
480.1555, 204.3767
480.6376, 202.0637
481.1197, 199.4597
481.6018, 198.9893
482.0839, 201.5600
482.5660, 204.9914
483.0482, 206.2065
483.5303, 204.4139
484.0124, 203.0815
484.4945, 202.0104
484.9766, 201.5513
485.4587, 202.4114
485.9409, 204.0326
486.4230, 205.1439
486.9051, 205.0242
487.3872, 204.0027
487.8693, 202.9397
488.3514, 201.2756
488.8336, 200.6707
489.3157, 202.1456
489.7978, 203.8348
490.2799, 204.6366
490.7620, 204.4454
491.2441, 203.5827
491.7263, 202.0289
492.2084, 200.0337
492.6905, 198.8524
493.1726, 198.7176
493.6547, 198.8469
494.1368, 199.1402
494.6190, 199.4319
495.1011, 199.5054
495.5832, 199.2937
496.0653, 199.1015
496.5474, 199.1571
497.0295, 199.4141
497.5117, 199.7973
497.9938, 200.3558
498.4759, 200.7775
498.9580, 200.7034
499.4401, 200.2393
499.9222, 199.9859
500.4044, 200.0664
500.8865, 200.2721
501.3686, 200.5831
501.8507, 200.9302
502.3328, 201.2267
502.8149, 201.4490
503.2971, 201.4559
503.7792, 200.9754
504.2613, 199.6981
504.7434, 199.0806
505.2255, 199.6584
505.7076, 200.2937
506.1898, 200.6570
506.6719, 200.6381
507.1540, 199.9212
507.6361, 198.2867
508.1182, 196.4444
508.6003, 196.3004
509.0825, 198.9630
509.5646, 200.3440
510.0467, 198.5769
510.5288, 196.6900
511.0109, 196.3871
511.4930, 197.4780
511.9752, 198.7853
512.4573, 199.6794
512.9394, 200.2352
513.4215, 200.6195
513.9036, 200.8334
514.3857, 200.8701
514.8679, 200.6636
515.3500, 200.3125
515.8321, 199.8594
516.3142, 199.2583
516.7963, 198.9899
517.2784, 199.7905
517.7606, 200.7990
518.2427, 200.6987
518.7248, 199.4140
519.2069, 197.7515
519.6890, 195.9643
520.1711, 194.3306
520.6533, 194.3726
521.1354, 197.8890
521.6175, 200.4146
522.0996, 200.5968
522.5817, 199.8027
523.0638, 199.3152
523.5460, 199.3739
524.0281, 199.5575
524.5102, 199.4487
524.9923, 199.0613
525.4744, 198.8661
525.9565, 198.7939
526.4387, 199.0395
526.9208, 200.0303
527.4029, 201.1390
527.8850, 201.6758
528.3671, 201.4792
528.8492, 200.9843
529.3314, 200.4599
529.8135, 199.9539
530.2956, 200.0679
530.7777, 201.2417
531.2598, 202.1921
531.7419, 201.7273
532.2241, 200.5946
532.7062, 199.9973
533.1883, 200.3043
533.6704, 200.8706
534.1525, 201.3557
534.6346, 201.7615
535.1168, 202.0766
535.5989, 202.2904
536.0810, 202.4922
536.5631, 202.7784
537.0452, 203.1545
537.5273, 203.4679
538.0095, 203.5977
538.4916, 203.8053
538.9737, 204.4148
539.4558, 205.0886
539.9379, 205.1927
540.4200, 204.5651
540.9022, 203.8356
541.3843, 204.0111
541.8664, 205.4038
542.3485, 205.9275
542.8306, 204.6054
543.3127, 203.4451
543.7948, 203.0847
544.2769, 203.2878
544.7590, 203.7648
545.2411, 204.4648
545.7233, 205.0226
546.2054, 204.7904
546.6875, 203.8420
547.1696, 203.3172
547.6517, 203.4926
548.1339, 203.9179
548.6160, 204.3305
549.0981, 204.7034
549.5802, 204.9464
550.0623, 205.2690
550.5444, 205.2140
551.0266, 203.9901
551.5087, 202.2047
551.9908, 201.3481
552.4729, 201.8919
552.9550, 203.0222
553.4371, 203.7605
553.9193, 204.0437
554.4014, 204.3144
554.8835, 204.8916
555.3656, 205.1123
555.8477, 204.3854
556.3298, 203.2663
556.8120, 202.6633
557.2941, 202.8853
557.7762, 203.3314
558.2583, 203.0999
558.7404, 202.0959
559.2225, 201.2119
559.7047, 200.4507
560.1868, 199.8569
560.6689, 199.5020
561.1510, 199.2920
561.6331, 199.0118
562.1152, 198.4891
562.5974, 198.1910
563.0795, 198.7919
563.5616, 200.0110
564.0437, 200.8367
564.5258, 201.0622
565.0079, 200.9084
565.4901, 200.4919
565.9722, 199.8234
566.4543, 199.2407
566.9364, 198.6080
567.4185, 198.2152
567.9006, 198.3910
568.3828, 198.7924
568.8649, 198.8591
569.3470, 198.4800
569.8291, 198.1121
570.3112, 198.3690
570.7933, 199.3228
571.2755, 199.5814
571.7576, 198.0458
572.2397, 197.2098
572.7218, 198.3662
573.2039, 200.1580
573.6860, 201.0193
574.1682, 200.5720
574.6503, 199.6748
575.1324, 198.9026
575.6145, 198.3237
576.0966, 198.4840
576.5787, 199.7357
577.0609, 200.4260
577.5430, 199.0415
578.0251, 196.5389
578.5072, 195.2282
578.9893, 195.4343
579.4714, 196.2022
579.9536, 197.7587
580.4357, 199.3710
580.9178, 200.0874
581.3999, 199.8425
581.8820, 199.1804
582.3641, 198.4467
582.8463, 197.7046
583.3284, 197.3200
583.8105, 197.6452
584.2926, 197.8280
584.7747, 197.6526
585.2568, 197.4355
585.7390, 197.3836
586.2211, 197.5256
586.7032, 197.8414
587.1853, 198.4489
587.6674, 199.1250
588.1495, 199.0631
588.6317, 198.0607
589.1138, 197.6452
589.5959, 198.8378
590.0780, 200.3255
590.5601, 200.3865
591.0422, 199.0505
591.5244, 198.0711
592.0065, 198.3481
592.4886, 198.9208
592.9707, 198.7251
593.4528, 198.0332
593.9349, 198.0675
594.4171, 199.4526
594.8992, 201.1410
595.3813, 201.1994
595.8634, 198.7666
596.3455, 197.2417
596.8276, 196.9745
597.3098, 197.1072
597.7919, 197.5001
598.2740, 197.9879
598.7561, 198.3525
599.2382, 198.5023
599.7203, 198.5692
600.2025, 198.7937
600.6846, 199.1659
601.1667, 199.2134
601.6488, 198.7169
602.1309, 198.2417
602.6130, 198.2149
603.0952, 198.4838
603.5773, 198.8037
604.0594, 199.3476
604.5415, 199.5564
605.0236, 198.7716
605.5057, 197.6156
605.9879, 197.1288
606.4700, 197.4375
606.9521, 197.8586
607.4342, 197.7971
607.9163, 197.3587
608.3984, 197.3629
608.8806, 198.3115
609.3627, 199.0182
609.8448, 199.1795
610.3269, 199.2201
610.8090, 199.6103
611.2911, 200.2557
611.7733, 200.5474
612.2554, 199.8724
612.7375, 198.7319
613.2196, 198.3427
613.7017, 198.7697
614.1838, 199.2935
614.6660, 199.8954
615.1481, 200.2716
615.6302, 199.8454
616.1123, 198.6872
616.5944, 197.9858
617.0765, 198.0852
617.5587, 198.6181
618.0408, 199.7962
618.5229, 201.1615
619.0050, 201.6321
619.4871, 200.8466
619.9692, 199.6171
620.4514, 199.0082
620.9335, 199.0666
621.4156, 199.3766
621.8977, 200.1551
622.3798, 200.9393
622.8619, 201.6895
623.3441, 202.3419
623.8262, 202.7643
624.3083, 202.9334
624.7904, 203.1270
625.2725, 203.7685
625.7546, 204.5951
626.2367, 204.7452
626.7188, 204.1113
627.2009, 203.5855
627.6830, 203.6679
628.1652, 204.1207
628.6473, 204.3334
629.1294, 204.0508
629.6115, 204.3533
630.0936, 206.2594
630.5757, 208.0685
631.0579, 208.2749
631.5400, 207.3322
632.0221, 206.6859
632.5042, 207.0798
632.9863, 207.9172
633.4684, 207.8211
633.9506, 206.2929
634.4327, 206.4161
634.9148, 209.8699
635.3969, 213.0597
635.8790, 213.9797
636.3611, 213.5269
636.8433, 213.2442
637.3254, 213.5581
637.8075, 213.9475
638.2896, 213.7796
638.7717, 213.4929
639.2538, 214.1604
639.7360, 215.8866
640.2181, 217.5107
640.7002, 218.2347
641.1823, 218.1977
641.6644, 217.9608
642.1465, 216.7903
642.6287, 216.4707
643.1108, 217.8406
643.5929, 219.3623
644.0750, 219.8477
644.5571, 219.5746
645.0392, 219.6301
645.5214, 220.6848
646.0035, 222.1350
646.4856, 222.9198
646.9677, 223.0424
647.4498, 223.2484
647.9319, 223.7087
648.4141, 224.1845
