##NAMES=Metauranocircite II
##RRUFFID=R070721
##IDEAL CHEMISTRY=Ba(UO_2_)_2_(PO_4_)_2_&#183;6H_2_O
##LOCALITY=Streuberg Quarry, Bergen, Falkenstein, Voigtland, Saxony, Germany
##OWNER=RRUFF
##SOURCE=James Shigley
##DESCRIPTION=Yellow platy crystals
##STATUS=The identification of this mineral has been confirmed by single-crystal X-ray diffraction.
##URL=rruff.info/R070721
92.96582, 3046.254
93.44794, 3004.851
93.93005, 3008.560
94.41217, 3064.989
94.89429, 3104.725
95.37640, 3134.175
95.85852, 3156.816
96.34064, 3173.392
96.82275, 3185.372
97.30487, 3191.698
97.78699, 3194.110
98.26910, 3193.255
98.75122, 3191.390
99.23334, 3190.265
99.71545, 3188.331
100.1976, 3179.371
100.6797, 3169.016
101.1618, 3159.178
101.6439, 3150.247
102.1260, 3141.043
102.6081, 3132.211
103.0903, 3125.805
103.5724, 3122.260
104.0545, 3119.787
104.5366, 3117.383
105.0187, 3114.879
105.5008, 3112.056
105.9830, 3108.429
106.4651, 3103.779
106.9472, 3100.108
107.4293, 3096.914
107.9114, 3094.008
108.3935, 3091.568
108.8757, 3089.448
109.3578, 3087.242
109.8399, 3084.329
110.3220, 3079.771
110.8041, 3076.404
111.2862, 3075.364
111.7684, 3074.583
112.2505, 3072.137
112.7326, 3067.409
113.2147, 3061.626
113.6968, 3057.445
114.1789, 3055.544
114.6611, 3053.768
115.1432, 3052.180
115.6253, 3050.421
116.1074, 3047.522
116.5895, 3042.545
117.0716, 3036.683
117.5538, 3032.952
118.0359, 3032.599
118.5180, 3032.135
119.0001, 3028.774
119.4822, 3022.439
119.9643, 3015.890
120.4465, 3010.226
120.9286, 3005.220
121.4107, 3000.790
121.8928, 2997.161
122.3749, 2993.841
122.8570, 2989.991
123.3392, 2985.890
123.8213, 2980.548
124.3034, 2972.298
124.7855, 2963.103
125.2676, 2955.647
125.7497, 2952.064
126.2319, 2951.964
126.7140, 2949.884
127.1961, 2943.250
127.6782, 2936.821
128.1603, 2931.882
128.6424, 2928.145
129.1246, 2924.616
129.6067, 2920.302
130.0888, 2914.944
130.5709, 2910.320
131.0530, 2906.376
131.5351, 2902.995
132.0173, 2900.630
132.4994, 2899.133
132.9815, 2897.316
133.4636, 2893.517
133.9457, 2886.826
134.4278, 2881.013
134.9100, 2876.482
135.3921, 2872.831
135.8742, 2869.640
136.3563, 2866.821
136.8384, 2864.344
137.3205, 2862.472
137.8027, 2861.305
138.2848, 2859.529
138.7669, 2856.515
139.2490, 2852.407
139.7311, 2847.621
140.2132, 2841.462
140.6954, 2835.489
141.1775, 2831.431
141.6596, 2829.509
142.1417, 2828.117
142.6238, 2825.712
143.1059, 2822.101
143.5881, 2818.780
144.0702, 2816.360
144.5523, 2814.288
145.0344, 2812.387
145.5165, 2810.630
145.9986, 2808.722
146.4807, 2805.974
146.9629, 2801.471
147.4450, 2797.837
147.9271, 2795.760
148.4092, 2794.426
148.8913, 2793.170
149.3734, 2791.670
149.8556, 2789.868
150.3377, 2787.554
150.8198, 2783.529
151.3019, 2780.194
151.7840, 2778.395
152.2661, 2777.382
152.7483, 2775.946
153.2304, 2773.282
153.7125, 2769.488
154.1946, 2766.246
154.6767, 2763.684
155.1588, 2761.385
155.6410, 2759.317
156.1231, 2757.422
156.6052, 2755.503
157.0873, 2753.316
157.5694, 2750.966
158.0515, 2749.326
158.5337, 2749.451
159.0158, 2749.560
159.4979, 2747.977
159.9800, 2744.547
160.4621, 2740.985
160.9442, 2739.015
161.4264, 2738.061
161.9085, 2736.438
162.3906, 2733.041
162.8727, 2728.932
163.3548, 2725.902
163.8369, 2724.301
164.3191, 2723.164
164.8012, 2721.916
165.2833, 2720.603
165.7654, 2719.345
166.2475, 2718.000
166.7296, 2716.685
167.2118, 2716.151
167.6939, 2717.432
168.1760, 2718.271
168.6581, 2717.746
169.1402, 2715.991
169.6223, 2713.393
170.1045, 2709.807
170.5866, 2705.004
171.0687, 2701.869
171.5508, 2702.065
172.0329, 2702.612
172.5150, 2702.840
172.9972, 2702.511
173.4793, 2701.438
173.9614, 2699.258
174.4435, 2695.397
174.9256, 2692.417
175.4077, 2690.583
175.8899, 2689.188
176.3720, 2687.828
176.8541, 2686.453
177.3362, 2685.308
177.8183, 2684.793
178.3004, 2685.514
178.7826, 2685.348
179.2647, 2683.850
179.7468, 2681.803
180.2289, 2679.722
180.7110, 2677.766
181.1931, 2675.970
181.6752, 2674.407
182.1574, 2673.097
182.6395, 2672.030
183.1216, 2671.781
183.6037, 2671.617
184.0858, 2670.295
184.5679, 2667.236
185.0501, 2663.765
185.5322, 2662.351
186.0143, 2663.121
186.4964, 2663.657
186.9785, 2663.108
187.4606, 2661.699
187.9428, 2659.968
188.4249, 2658.005
188.9070, 2655.802
189.3891, 2653.364
189.8712, 2650.682
190.3533, 2647.871
190.8355, 2644.573
191.3176, 2640.938
191.7997, 2638.553
192.2818, 2639.050
192.7639, 2639.800
193.2460, 2638.378
193.7282, 2634.609
194.2103, 2630.450
194.6924, 2627.790
195.1745, 2626.773
195.6566, 2625.634
196.1387, 2624.114
196.6209, 2622.304
197.1030, 2620.007
197.5851, 2617.243
198.0672, 2614.623
198.5493, 2613.125
199.0314, 2613.338
199.5136, 2612.806
199.9957, 2610.669
200.4778, 2608.191
200.9599, 2606.143
201.4420, 2604.710
201.9241, 2603.591
202.4063, 2602.212
202.8884, 2600.003
203.3705, 2598.721
203.8526, 2599.520
204.3347, 2600.437
204.8168, 2599.545
205.2990, 2596.420
205.7811, 2592.589
206.2632, 2590.987
206.7453, 2594.249
207.2274, 2596.033
207.7095, 2595.052
208.1917, 2593.307
208.6738, 2592.790
209.1559, 2594.148
209.6380, 2596.377
210.1201, 2597.486
210.6022, 2597.126
211.0844, 2595.972
211.5665, 2593.208
212.0486, 2589.942
212.5307, 2587.629
213.0128, 2586.809
213.4949, 2586.698
213.9771, 2585.600
214.4592, 2582.950
214.9413, 2580.720
215.4234, 2579.345
215.9055, 2578.613
216.3876, 2578.378
216.8698, 2578.754
217.3519, 2579.177
217.8340, 2578.353
218.3161, 2576.067
218.7982, 2573.967
219.2803, 2572.779
219.7625, 2572.177
220.2446, 2571.350
220.7267, 2569.928
221.2088, 2568.415
221.6909, 2567.574
222.1730, 2567.434
222.6552, 2567.389
223.1373, 2567.198
223.6194, 2566.861
224.1015, 2566.330
224.5836, 2565.344
225.0657, 2564.470
225.5479, 2564.585
226.0300, 2565.727
226.5121, 2566.375
226.9942, 2564.987
227.4763, 2561.946
227.9584, 2559.935
228.4406, 2560.032
228.9227, 2560.862
229.4048, 2561.483
229.8869, 2561.853
230.3690, 2561.785
230.8511, 2560.977
231.3333, 2559.456
231.8154, 2558.012
232.2975, 2556.690
232.7796, 2555.569
233.2617, 2554.500
233.7438, 2553.567
234.2260, 2553.203
234.7081, 2554.412
235.1902, 2557.409
235.6723, 2558.571
236.1544, 2555.481
236.6365, 2552.213
237.1187, 2550.792
237.6008, 2551.011
238.0829, 2551.363
238.5650, 2550.182
239.0471, 2547.116
239.5292, 2545.063
240.0114, 2545.113
240.4935, 2545.292
240.9756, 2544.820
241.4577, 2543.763
241.9398, 2542.661
242.4219, 2542.058
242.9041, 2542.061
243.3862, 2541.837
243.8683, 2541.721
244.3504, 2541.124
244.8325, 2539.600
245.3146, 2537.360
245.7968, 2534.933
246.2789, 2532.726
246.7610, 2530.679
247.2431, 2529.519
247.7252, 2530.372
248.2073, 2530.995
248.6895, 2530.173
249.1716, 2528.317
249.6537, 2526.717
250.1358, 2526.496
250.6179, 2527.752
251.1000, 2528.691
251.5822, 2529.457
252.0643, 2529.777
252.5464, 2529.203
253.0285, 2528.018
253.5106, 2527.024
253.9927, 2526.923
254.4748, 2527.688
254.9570, 2527.053
255.4391, 2523.402
255.9212, 2520.245
256.4033, 2519.088
256.8854, 2519.462
257.3676, 2520.069
257.8497, 2520.046
258.3318, 2519.487
258.8139, 2519.482
259.2960, 2520.811
259.7781, 2521.785
260.2603, 2521.706
260.7424, 2520.853
261.2245, 2519.913
261.7066, 2519.311
262.1887, 2518.936
262.6708, 2518.133
263.1530, 2516.350
263.6351, 2514.869
264.1172, 2513.948
264.5993, 2513.617
265.0814, 2514.109
265.5635, 2515.742
266.0457, 2517.946
266.5278, 2518.791
267.0099, 2517.647
267.4920, 2516.467
267.9741, 2515.724
268.4562, 2515.360
268.9384, 2515.255
269.4204, 2515.337
269.9026, 2515.692
270.3847, 2516.803
270.8668, 2519.330
271.3489, 2520.699
271.8310, 2519.323
272.3131, 2516.314
272.7953, 2513.723
273.2774, 2512.167
273.7595, 2511.284
274.2416, 2510.561
274.7237, 2509.961
275.2058, 2509.610
275.6880, 2509.630
276.1701, 2509.914
276.6522, 2510.384
277.1343, 2511.138
277.6164, 2511.729
278.0985, 2511.494
278.5807, 2510.536
279.0628, 2509.321
279.5449, 2507.177
280.0270, 2505.089
280.5091, 2505.131
280.9912, 2508.117
281.4734, 2510.970
281.9555, 2509.406
282.4376, 2504.651
282.9197, 2502.023
283.4018, 2505.302
283.8839, 2510.394
284.3661, 2511.285
284.8482, 2507.031
285.3303, 2502.220
285.8124, 2500.333
286.2945, 2500.583
286.7766, 2501.234
287.2588, 2502.424
287.7409, 2503.566
288.2230, 2504.099
288.7051, 2504.042
289.1872, 2503.147
289.6693, 2500.581
290.1515, 2497.236
290.6336, 2494.704
291.1157, 2493.146
291.5978, 2492.560
292.0799, 2493.676
292.5620, 2496.525
293.0442, 2498.071
293.5263, 2495.699
294.0084, 2491.963
294.4905, 2490.669
294.9726, 2492.884
295.4547, 2495.383
295.9369, 2494.945
296.4190, 2491.855
296.9011, 2490.123
297.3832, 2492.077
297.8653, 2494.959
298.3474, 2495.359
298.8296, 2492.929
299.3117, 2490.605
299.7938, 2491.169
300.2759, 2493.882
300.7580, 2494.538
301.2401, 2491.126
301.7223, 2486.934
302.2044, 2485.221
302.6865, 2485.711
303.1686, 2486.175
303.6507, 2484.822
304.1328, 2482.439
304.6150, 2481.836
305.0971, 2484.163
305.5792, 2486.563
306.0613, 2486.892
306.5434, 2485.622
307.0255, 2483.843
307.5077, 2480.921
307.9898, 2478.023
308.4719, 2478.070
308.9540, 2482.084
309.4361, 2485.971
309.9182, 2487.476
310.4004, 2487.148
310.8825, 2485.335
311.3646, 2480.993
311.8467, 2476.331
312.3288, 2474.960
312.8109, 2477.430
313.2931, 2479.543
313.7752, 2478.851
314.2573, 2476.938
314.7394, 2475.565
315.2215, 2475.161
315.7036, 2475.001
316.1858, 2474.209
316.6679, 2472.792
317.1500, 2471.953
317.6321, 2472.544
318.1142, 2473.510
318.5963, 2473.648
319.0785, 2472.825
319.5606, 2472.093
320.0427, 2472.544
320.5248, 2473.892
321.0069, 2474.231
321.4890, 2472.320
321.9712, 2470.571
322.4533, 2471.511
322.9354, 2474.719
323.4175, 2477.482
323.8996, 2478.384
324.3817, 2477.817
324.8639, 2476.739
325.3460, 2475.121
325.8281, 2473.229
326.3102, 2470.583
326.7923, 2467.794
327.2744, 2466.374
327.7566, 2467.578
328.2387, 2470.079
328.7208, 2472.021
329.2029, 2473.368
329.6850, 2474.330
330.1671, 2474.705
330.6493, 2474.858
331.1314, 2475.412
331.6135, 2476.839
332.0956, 2478.092
332.5777, 2477.928
333.0598, 2476.405
333.5420, 2475.016
334.0241, 2474.109
334.5062, 2473.839
334.9883, 2474.414
335.4704, 2475.991
335.9525, 2477.599
336.4347, 2478.522
336.9168, 2478.945
337.3989, 2479.453
337.8810, 2479.970
338.3631, 2481.011
338.8452, 2483.708
339.3274, 2487.847
339.8094, 2490.961
340.2916, 2491.282
340.7737, 2490.167
341.2558, 2490.081
341.7379, 2491.470
342.2200, 2493.032
342.7021, 2493.339
343.1843, 2492.911
343.6664, 2493.396
344.1485, 2495.495
344.6306, 2498.385
345.1127, 2501.746
345.5948, 2505.528
346.0770, 2508.180
346.5591, 2508.001
347.0412, 2506.390
347.5233, 2507.060
348.0054, 2510.889
348.4875, 2515.587
348.9697, 2520.336
349.4518, 2524.937
349.9339, 2528.669
350.4160, 2531.210
350.8981, 2532.835
351.3802, 2533.749
351.8624, 2533.672
352.3445, 2534.360
352.8266, 2537.187
353.3087, 2540.875
353.7908, 2543.451
354.2729, 2544.497
354.7551, 2544.804
355.2372, 2545.118
355.7193, 2545.456
356.2014, 2545.716
356.6835, 2545.790
357.1656, 2545.886
357.6478, 2546.512
358.1299, 2547.551
358.6120, 2547.844
359.0941, 2546.369
359.5762, 2543.431
360.0583, 2541.252
360.5405, 2540.750
361.0226, 2539.919
361.5047, 2537.312
361.9868, 2533.761
362.4689, 2531.287
362.9510, 2530.926
363.4332, 2531.609
363.9153, 2530.726
364.3974, 2527.091
364.8795, 2524.260
365.3616, 2523.530
365.8438, 2523.409
366.3259, 2522.085
366.8080, 2519.200
367.2901, 2516.011
367.7722, 2513.936
368.2543, 2513.099
368.7365, 2513.312
369.2186, 2516.046
369.7007, 2518.507
370.1828, 2519.299
370.6649, 2518.380
371.1470, 2516.016
371.6292, 2512.173
372.1113, 2507.079
372.5934, 2503.497
373.0755, 2502.427
373.5576, 2501.637
374.0397, 2500.627
374.5219, 2499.643
375.0040, 2499.271
375.4861, 2499.760
375.9682, 2500.465
376.4503, 2499.877
376.9324, 2496.184
377.4146, 2494.104
377.8967, 2494.803
378.3788, 2496.150
378.8609, 2496.621
379.3430, 2496.002
379.8251, 2494.984
380.3073, 2494.180
380.7894, 2493.478
381.2715, 2493.760
381.7536, 2496.073
382.2357, 2498.301
382.7178, 2499.906
383.2000, 2500.865
383.6821, 2501.283
384.1642, 2501.196
384.6463, 2500.651
385.1284, 2499.769
385.6105, 2498.005
386.0927, 2496.844
386.5748, 2497.066
387.0569, 2497.664
387.5390, 2497.725
388.0211, 2496.983
388.5032, 2495.761
388.9854, 2494.193
389.4675, 2492.007
389.9496, 2491.044
390.4317, 2492.706
390.9138, 2494.723
391.3959, 2496.133
391.8781, 2496.910
392.3602, 2497.343
392.8423, 2497.525
393.3244, 2497.513
393.8065, 2497.520
394.2886, 2497.337
394.7708, 2497.603
395.2529, 2499.470
395.7350, 2501.702
396.2171, 2502.379
396.6992, 2500.427
397.1813, 2497.699
397.6635, 2496.599
398.1456, 2497.196
398.6277, 2497.743
399.1098, 2497.921
399.5919, 2497.580
400.0740, 2496.333
400.5562, 2494.100
401.0383, 2492.352
401.5204, 2492.395
402.0025, 2493.504
402.4846, 2493.741
402.9667, 2492.639
403.4489, 2491.354
403.9310, 2490.905
404.4131, 2491.111
404.8952, 2491.401
405.3773, 2492.209
405.8594, 2492.671
406.3416, 2491.613
406.8237, 2489.285
407.3058, 2487.486
407.7879, 2487.274
408.2700, 2488.051
408.7521, 2488.161
409.2343, 2487.061
409.7164, 2486.587
410.1985, 2487.782
410.6806, 2489.797
411.1627, 2491.418
411.6448, 2492.352
412.1269, 2492.982
412.6090, 2493.828
413.0912, 2495.042
413.5733, 2495.322
414.0554, 2493.081
414.5375, 2491.321
415.0196, 2492.649
415.5017, 2496.116
415.9839, 2498.400
416.4660, 2497.215
416.9481, 2493.535
417.4302, 2492.047
417.9123, 2494.902
418.3944, 2497.374
418.8766, 2499.333
419.3587, 2500.595
419.8408, 2500.582
420.3229, 2499.319
420.8050, 2497.996
421.2871, 2498.390
421.7693, 2501.273
422.2514, 2503.031
422.7335, 2502.515
423.2156, 2502.080
423.6977, 2503.160
424.1798, 2505.131
424.6620, 2506.390
425.1441, 2505.819
425.6262, 2503.878
426.1083, 2502.261
426.5904, 2501.005
427.0725, 2500.037
427.5547, 2499.716
428.0368, 2499.436
428.5189, 2498.338
429.0010, 2496.282
429.4831, 2494.601
429.9652, 2495.072
430.4474, 2497.700
430.9295, 2499.858
431.4116, 2501.263
431.8937, 2502.144
432.3758, 2502.556
432.8579, 2502.610
433.3401, 2502.613
433.8222, 2502.771
434.3043, 2502.894
434.7864, 2502.675
435.2685, 2502.088
435.7506, 2501.278
436.2328, 2500.101
436.7149, 2498.855
437.1970, 2498.189
437.6791, 2498.448
438.1612, 2498.108
438.6433, 2495.637
439.1255, 2492.105
439.6076, 2489.858
440.0897, 2489.471
440.5718, 2489.790
441.0539, 2489.768
441.5360, 2489.407
442.0182, 2488.995
442.5003, 2488.229
442.9824, 2487.715
443.4645, 2488.231
443.9466, 2489.399
444.4287, 2490.019
444.9109, 2489.454
445.3930, 2488.029
445.8751, 2486.546
446.3572, 2484.175
446.8393, 2483.049
447.3214, 2484.572
447.8036, 2486.544
448.2857, 2486.960
448.7678, 2485.629
449.2499, 2483.724
449.7320, 2482.369
450.2141, 2481.584
450.6963, 2480.929
451.1784, 2480.424
451.6605, 2480.032
452.1426, 2479.651
452.6247, 2479.418
453.1068, 2479.749
453.5890, 2480.835
454.0711, 2481.887
454.5532, 2476.986
455.0353, 2482.290
455.5174, 2485.056
455.9995, 2485.421
456.4817, 2476.190
456.9638, 2479.349
457.4459, 2477.543
457.9280, 2475.534
458.4101, 2480.437
458.8922, 2472.602
459.3744, 2477.396
459.8565, 2477.148
460.3386, 2479.208
460.8207, 2476.272
461.3028, 2474.879
461.7849, 2478.483
462.2671, 2479.320
462.7492, 2475.809
463.2313, 2478.015
463.7134, 2470.006
464.1955, 2470.961
464.6776, 2475.784
465.1598, 2472.523
465.6419, 2474.821
466.1240, 2475.002
466.6061, 2465.563
467.0882, 2466.240
467.5703, 2463.878
468.0525, 2463.487
468.5346, 2464.412
469.0167, 2464.135
469.4988, 2461.188
469.9809, 2457.079
470.4630, 2455.424
470.9452, 2458.701
471.4273, 2460.011
471.9094, 2456.889
472.3915, 2453.249
472.8736, 2452.720
473.3557, 2455.146
473.8379, 2457.583
474.3200, 2457.515
474.8021, 2455.112
475.2842, 2453.054
475.7663, 2451.235
476.2484, 2449.971
476.7306, 2450.091
477.2127, 2450.406
477.6948, 2449.343
478.1769, 2446.540
478.6590, 2443.529
479.1411, 2442.449
479.6233, 2443.500
480.1054, 2444.153
480.5875, 2443.869
481.0696, 2443.671
481.5517, 2444.350
482.0338, 2445.464
482.5159, 2446.068
482.9980, 2445.645
483.4802, 2444.688
483.9623, 2443.488
484.4444, 2442.045
484.9265, 2441.944
485.4086, 2444.503
485.8907, 2447.793
486.3729, 2449.423
486.8550, 2449.404
487.3371, 2448.711
487.8192, 2447.189
488.3013, 2445.446
488.7834, 2444.108
489.2656, 2443.235
489.7477, 2442.826
490.2298, 2442.943
490.7119, 2443.489
491.1940, 2443.999
491.6761, 2444.187
492.1583, 2444.700
492.6404, 2446.433
493.1225, 2448.150
493.6046, 2448.025
494.0867, 2445.923
494.5688, 2443.716
495.0510, 2443.456
495.5331, 2445.280
496.0152, 2447.073
496.4973, 2450.043
496.9794, 2451.595
497.4615, 2449.977
497.9437, 2446.959
498.4258, 2445.059
498.9079, 2445.223
499.3900, 2445.939
499.8721, 2444.758
500.3542, 2441.364
500.8364, 2438.567
501.3185, 2436.855
501.8006, 2435.588
502.2827, 2434.813
502.7648, 2434.178
503.2469, 2432.704
503.7291, 2429.340
504.2112, 2425.588
504.6933, 2424.055
505.1754, 2424.645
505.6575, 2424.094
506.1396, 2420.903
506.6218, 2416.439
507.1039, 2412.676
507.5860, 2409.675
508.0681, 2406.606
508.5502, 2403.387
509.0323, 2399.924
509.5145, 2395.823
509.9966, 2391.247
510.4787, 2387.215
510.9608, 2384.436
511.4429, 2382.594
511.9250, 2380.469
512.4072, 2378.384
512.8893, 2375.574
513.3714, 2371.276
513.8535, 2366.681
514.3356, 2362.369
514.8177, 2358.692
515.2999, 2356.389
515.7820, 2356.529
516.2641, 2358.802
516.7462, 2358.978
517.2283, 2355.579
517.7104, 2352.200
518.1926, 2349.938
518.6747, 2348.009
519.1568, 2345.467
519.6389, 2342.118
520.1210, 2338.927
520.6031, 2337.145
521.0853, 2336.493
521.5674, 2334.908
522.0495, 2331.648
522.5316, 2328.862
523.0137, 2328.829
523.4958, 2330.215
523.9780, 2330.440
524.4601, 2328.796
524.9422, 2326.426
525.4243, 2323.538
525.9064, 2320.524
526.3885, 2318.327
526.8707, 2317.186
527.3528, 2316.907
527.8349, 2317.606
528.3170, 2319.542
528.7991, 2319.616
529.2813, 2316.019
529.7634, 2312.644
530.2455, 2311.033
530.7276, 2310.759
531.2097, 2311.284
531.6918, 2312.351
532.1740, 2313.237
532.6561, 2312.719
533.1382, 2310.504
533.6203, 2307.904
534.1024, 2303.149
534.5845, 2299.772
535.0667, 2300.114
535.5488, 2302.668
536.0309, 2304.445
536.5130, 2303.983
536.9951, 2302.471
537.4772, 2301.833
537.9594, 2302.102
538.4415, 2301.547
538.9236, 2299.428
539.4057, 2296.855
539.8878, 2294.681
540.3699, 2292.905
540.8521, 2291.551
541.3342, 2290.591
541.8163, 2290.096
542.2984, 2290.580
542.7805, 2291.687
543.2626, 2292.087
543.7448, 2291.230
544.2269, 2289.442
544.7090, 2287.136
545.1911, 2283.630
545.6732, 2281.529
546.1553, 2282.247
546.6375, 2283.028
547.1196, 2282.144
547.6017, 2280.040
548.0838, 2277.843
548.5659, 2276.088
549.0480, 2275.093
549.5302, 2276.003
550.0123, 2280.077
550.4944, 2282.248
550.9765, 2279.892
551.4586, 2277.229
551.9407, 2276.214
552.4229, 2276.662
552.9050, 2277.650
553.3871, 2279.042
553.8692, 2280.343
554.3513, 2280.893
554.8334, 2280.691
555.3156, 2279.492
555.7977, 2276.700
556.2798, 2273.570
556.7619, 2271.970
557.2440, 2271.854
557.7261, 2271.586
558.2083, 2271.034
558.6904, 2270.076
559.1725, 2268.151
559.6546, 2265.705
560.1367, 2264.140
560.6188, 2264.189
561.1010, 2264.970
561.5831, 2264.653
562.0652, 2262.647
562.5473, 2260.851
563.0294, 2258.884
563.5115, 2257.462
563.9937, 2257.319
564.4758, 2257.972
564.9579, 2258.288
565.4400, 2257.595
565.9221, 2256.621
566.4042, 2256.947
566.8864, 2258.816
567.3685, 2259.855
567.8506, 2258.984
568.3327, 2257.934
568.8148, 2258.230
569.2969, 2259.505
569.7791, 2260.404
570.2612, 2260.658
570.7433, 2260.193
571.2254, 2258.191
571.7075, 2255.277
572.1896, 2254.010
572.6718, 2255.459
573.1539, 2257.630
573.6360, 2257.812
574.1181, 2255.440
574.6002, 2253.753
575.0823, 2252.722
575.5645, 2252.372
576.0466, 2253.636
576.5287, 2255.341
577.0108, 2255.200
577.4929, 2252.418
577.9750, 2249.131
578.4572, 2249.090
578.9393, 2253.133
579.4214, 2254.624
579.9035, 2251.192
580.3856, 2248.097
580.8677, 2248.205
581.3499, 2249.994
581.8320, 2250.940
582.3141, 2250.073
582.7962, 2249.042
583.2783, 2249.264
583.7604, 2250.503
584.2426, 2252.087
584.7247, 2253.925
585.2068, 2255.937
585.6889, 2258.251
586.1710, 2260.713
586.6531, 2262.207
587.1352, 2262.837
587.6173, 2262.416
588.0994, 2259.280
588.5815, 2255.889
589.0637, 2255.563
589.5458, 2258.575
590.0279, 2262.128
