##NAMES=Metarossite
##RRUFFID=R060598
##IDEAL CHEMISTRY=CaV^5+^_2_O_6_&#183;2H_2_O
##LOCALITY=Arrowhead Claim, Slick Rock, San Miguel County, Colorado, USA
##OWNER=RRUFF
##SOURCE=Michael Scott
##DESCRIPTION=Light yellow massive
##STATUS=The identification of this mineral has been confirmed by X-ray diffraction and chemical analysis
##URL=rruff.info/R060598
##MEASURED CHEMISTRY=(Ca_0.96_Al_0.02_[box]_0.02_)_Σ=1_V^5+^_2.00_O_6_·2H_2_O
91.53320, 1946.653
92.01532, 1897.461
92.49744, 1874.011
92.97955, 1915.800
93.46167, 1985.121
93.94379, 2034.621
94.42590, 2073.065
94.90802, 2106.781
95.39014, 2140.498
95.87225, 2177.562
96.35437, 2203.233
96.83649, 2218.616
97.31860, 2222.563
97.80072, 2211.543
98.28284, 2181.429
98.76495, 2132.488
99.24707, 2072.833
99.72919, 1994.886
100.2113, 1914.660
100.6934, 1831.939
101.1755, 1749.149
101.6577, 1671.125
102.1398, 1600.728
102.6219, 1537.662
103.1040, 1484.417
103.5861, 1439.544
104.0682, 1401.726
104.5504, 1370.722
105.0325, 1346.248
105.5146, 1327.102
105.9967, 1312.059
106.4788, 1301.774
106.9609, 1294.177
107.4431, 1288.610
107.9252, 1285.663
108.4073, 1285.979
108.8894, 1289.535
109.3715, 1297.089
109.8536, 1310.167
110.3358, 1329.200
110.8179, 1349.903
111.3000, 1368.659
111.7821, 1386.066
112.2642, 1408.198
112.7463, 1439.662
113.2285, 1476.073
113.7106, 1512.982
114.1927, 1549.343
114.6748, 1586.664
115.1569, 1626.348
115.6390, 1668.523
116.1212, 1714.025
116.6033, 1764.272
117.0854, 1817.172
117.5675, 1871.031
118.0496, 1925.316
118.5317, 1979.951
119.0139, 2033.982
119.4960, 2088.129
119.9781, 2140.562
120.4602, 2192.139
120.9423, 2241.954
121.4244, 2288.787
121.9066, 2332.196
122.3887, 2372.645
122.8708, 2402.432
123.3529, 2425.231
123.8350, 2437.602
124.3171, 2436.853
124.7993, 2423.303
125.2814, 2399.630
125.7635, 2366.858
126.2456, 2322.321
126.7277, 2280.733
127.2098, 2240.660
127.6920, 2204.382
128.1741, 2173.277
128.6562, 2147.394
129.1383, 2128.552
129.6204, 2119.872
130.1025, 2119.813
130.5847, 2128.021
131.0668, 2145.238
131.5489, 2170.784
132.0310, 2202.079
132.5131, 2238.523
132.9952, 2282.429
133.4774, 2335.392
133.9595, 2397.344
134.4416, 2463.341
134.9237, 2531.030
135.4058, 2601.752
135.8879, 2666.958
136.3701, 2730.796
136.8522, 2784.646
137.3343, 2825.134
137.8164, 2851.182
138.2985, 2858.803
138.7806, 2840.538
139.2628, 2787.973
139.7449, 2720.835
140.2270, 2635.764
140.7091, 2542.321
141.1912, 2446.717
141.6733, 2352.238
142.1555, 2260.074
142.6376, 2176.022
143.1197, 2100.214
143.6018, 2033.292
144.0839, 1976.608
144.5660, 1928.843
145.0482, 1887.796
145.5303, 1852.198
146.0124, 1822.412
146.4945, 1800.532
146.9766, 1788.274
147.4587, 1780.170
147.9409, 1774.014
148.4230, 1770.011
148.9051, 1769.492
149.3872, 1773.736
149.8693, 1782.877
150.3514, 1793.877
150.8336, 1806.176
151.3157, 1820.642
151.7978, 1838.218
152.2799, 1859.153
152.7620, 1882.386
153.2441, 1907.357
153.7263, 1934.110
154.2084, 1963.887
154.6905, 1996.958
155.1726, 2033.113
155.6547, 2073.050
156.1368, 2119.344
156.6190, 2164.412
157.1011, 2206.290
157.5832, 2244.362
158.0653, 2278.040
158.5474, 2310.467
159.0295, 2340.340
159.5117, 2350.181
159.9938, 2332.394
160.4759, 2298.730
160.9580, 2250.271
161.4401, 2189.362
161.9222, 2120.106
162.4044, 2044.418
162.8865, 1959.492
163.3686, 1882.349
163.8507, 1810.964
164.3328, 1747.682
164.8149, 1694.063
165.2971, 1649.819
165.7792, 1614.894
166.2613, 1589.022
166.7434, 1574.041
167.2255, 1565.296
167.7076, 1563.816
168.1898, 1566.741
168.6719, 1571.484
169.1540, 1577.729
169.6361, 1587.821
170.1182, 1605.324
170.6003, 1632.488
171.0825, 1662.828
171.5646, 1696.601
172.0467, 1733.180
172.5288, 1771.645
173.0109, 1811.635
173.4930, 1853.972
173.9752, 1900.573
174.4573, 1950.708
174.9394, 2005.164
175.4215, 2066.665
175.9036, 2132.909
176.3857, 2198.508
176.8679, 2263.079
177.3500, 2325.680
177.8321, 2385.618
178.3142, 2443.339
178.7963, 2498.078
179.2784, 2552.043
179.7606, 2604.548
180.2427, 2646.408
180.7248, 2674.607
181.2069, 2690.061
181.6890, 2693.127
182.1711, 2683.544
182.6533, 2667.783
183.1354, 2649.365
183.6175, 2627.230
184.0996, 2610.902
184.5817, 2601.357
185.0638, 2599.558
185.5460, 2606.300
186.0281, 2621.840
186.5102, 2647.294
186.9923, 2685.207
187.4744, 2738.534
187.9565, 2797.372
188.4387, 2858.032
188.9208, 2924.346
189.4029, 2999.064
189.8850, 3083.359
190.3671, 3175.260
190.8492, 3273.459
191.3314, 3382.618
191.8135, 3489.590
192.2956, 3591.683
192.7777, 3691.985
193.2598, 3796.259
193.7419, 3906.038
194.2241, 4014.206
194.7062, 4103.493
195.1883, 4169.230
195.6704, 4218.224
196.1525, 4250.634
196.6346, 4266.167
197.1168, 4262.177
197.5989, 4237.093
198.0810, 4196.081
198.5631, 4153.256
199.0452, 4109.119
199.5273, 4062.685
200.0095, 4009.730
200.4916, 3954.970
200.9737, 3905.271
201.4558, 3863.115
201.9379, 3828.645
202.4200, 3801.813
202.9022, 3780.749
203.3843, 3767.718
203.8664, 3762.046
204.3485, 3764.835
204.8306, 3779.029
205.3127, 3805.753
205.7949, 3846.010
206.2770, 3899.934
206.7591, 3972.735
207.2412, 4046.898
207.7233, 4116.178
208.2054, 4180.033
208.6876, 4234.437
209.1697, 4283.189
209.6518, 4314.850
210.1339, 4318.076
210.6160, 4289.994
211.0981, 4240.204
211.5803, 4173.729
212.0624, 4090.744
212.5445, 3995.936
213.0266, 3884.991
213.5087, 3766.591
213.9908, 3648.462
214.4730, 3532.418
214.9551, 3416.340
215.4372, 3298.127
215.9193, 3176.070
216.4014, 3059.764
216.8836, 2947.466
217.3657, 2844.469
217.8478, 2755.334
218.3299, 2681.672
218.8120, 2619.246
219.2941, 2562.968
219.7763, 2512.133
220.2584, 2470.448
220.7405, 2439.078
221.2226, 2415.764
221.7047, 2399.743
222.1868, 2390.735
222.6690, 2388.265
223.1511, 2391.914
223.6332, 2402.802
224.1153, 2418.012
224.5974, 2438.815
225.0795, 2461.944
225.5617, 2484.898
226.0438, 2507.038
226.5259, 2529.716
227.0080, 2555.344
227.4901, 2584.637
227.9722, 2615.864
228.4544, 2650.404
228.9365, 2685.623
229.4186, 2719.072
229.9007, 2750.082
230.3828, 2779.896
230.8649, 2810.459
231.3471, 2844.045
231.8292, 2874.719
232.3113, 2901.217
232.7934, 2925.756
233.2755, 2949.817
233.7576, 2973.813
234.2398, 2998.179
234.7219, 3023.119
235.2040, 3047.303
235.6861, 3075.136
236.1682, 3106.526
236.6503, 3141.450
237.1325, 3180.338
237.6146, 3223.041
238.0967, 3268.345
238.5788, 3314.538
239.0609, 3361.555
239.5430, 3409.357
240.0252, 3458.253
240.5073, 3507.548
240.9894, 3557.392
241.4715, 3608.031
241.9536, 3656.192
242.4357, 3698.219
242.9179, 3734.089
243.4000, 3762.109
243.8821, 3781.078
244.3642, 3792.421
244.8463, 3797.446
245.3284, 3796.409
245.8106, 3789.351
246.2927, 3774.569
246.7748, 3751.821
247.2569, 3728.965
247.7390, 3703.825
248.2211, 3680.500
248.7033, 3662.803
249.1854, 3650.987
249.6675, 3647.098
250.1496, 3654.503
250.6317, 3672.253
251.1138, 3697.349
251.5960, 3730.755
252.0781, 3770.591
252.5602, 3814.933
253.0423, 3863.335
253.5244, 3916.304
254.0065, 3976.375
254.4887, 4041.279
254.9708, 4105.496
255.4529, 4168.419
255.9350, 4229.457
256.4171, 4287.284
256.8992, 4341.771
257.3813, 4393.424
257.8635, 4440.781
258.3456, 4485.710
258.8277, 4531.710
259.3098, 4579.288
259.7919, 4628.295
260.2740, 4679.553
260.7562, 4734.169
261.2383, 4786.009
261.7204, 4832.244
262.2025, 4873.461
262.6846, 4909.789
263.1667, 4940.767
263.6489, 4967.399
264.1310, 4991.444
264.6131, 5013.161
265.0952, 5031.131
265.5773, 5039.415
266.0594, 5045.646
266.5416, 5056.300
267.0237, 5072.353
267.5058, 5095.530
267.9879, 5128.112
268.4700, 5170.098
268.9521, 5221.524
269.4343, 5288.456
269.9164, 5362.218
270.3985, 5437.684
270.8806, 5513.922
271.3627, 5589.321
271.8448, 5665.299
272.3270, 5745.458
272.8091, 5808.845
273.2912, 5846.575
273.7733, 5867.296
274.2554, 5873.595
274.7375, 5866.158
275.2197, 5847.311
275.7018, 5816.083
276.1839, 5769.993
276.6660, 5728.327
277.1481, 5692.072
277.6302, 5662.750
278.1124, 5645.938
278.5945, 5640.001
279.0766, 5634.446
279.5587, 5623.903
280.0408, 5610.531
280.5229, 5573.204
281.0051, 5507.514
281.4872, 5417.714
281.9693, 5306.069
282.4514, 5171.867
282.9335, 5010.942
283.4156, 4815.909
283.8978, 4586.118
284.3799, 4352.479
284.8620, 4107.788
285.3441, 3866.487
285.8262, 3629.060
286.3083, 3398.807
286.7905, 3180.742
287.2726, 2979.126
287.7547, 2793.452
288.2368, 2623.252
288.7189, 2471.288
289.2010, 2333.859
289.6832, 2211.176
290.1653, 2101.929
290.6474, 2004.205
291.1295, 1918.090
291.6116, 1842.156
292.0938, 1771.250
292.5759, 1704.869
293.0580, 1645.747
293.5401, 1595.671
294.0222, 1551.725
294.5043, 1511.271
294.9865, 1473.113
295.4686, 1437.460
295.9507, 1404.761
296.4328, 1374.939
296.9149, 1348.805
297.3970, 1327.469
297.8792, 1308.666
298.3613, 1290.680
298.8434, 1272.895
299.3255, 1255.767
299.8076, 1240.115
300.2897, 1226.319
300.7719, 1213.209
301.2540, 1201.084
301.7361, 1189.215
302.2182, 1176.798
302.7003, 1163.877
303.1824, 1151.201
303.6646, 1139.696
304.1467, 1129.768
304.6288, 1119.690
305.1109, 1109.048
305.5930, 1098.552
306.0751, 1088.582
306.5573, 1079.109
307.0394, 1069.926
307.5215, 1060.969
308.0036, 1052.244
308.4857, 1042.868
308.9678, 1031.830
309.4500, 1021.083
309.9321, 1011.647
310.4142, 1002.883
310.8963, 993.4547
311.3784, 982.3333
311.8605, 969.7372
312.3427, 957.6187
312.8248, 946.2000
313.3069, 934.9197
313.7890, 923.8927
314.2711, 912.8650
314.7532, 901.3585
315.2354, 889.1853
315.7175, 876.5792
316.1996, 864.3466
316.6817, 852.2648
317.1638, 840.9227
317.6459, 830.9367
318.1281, 821.3222
318.6102, 811.1678
319.0923, 800.2071
319.5744, 788.9991
320.0565, 778.3922
320.5386, 768.2933
321.0208, 759.1242
321.5029, 750.8035
321.9850, 743.3379
322.4671, 737.0031
322.9492, 731.6453
323.4313, 726.5930
323.9135, 721.0097
324.3956, 714.7345
324.8777, 708.7551
325.3598, 702.7411
325.8419, 697.3083
326.3240, 692.5001
326.8062, 688.4466
327.2883, 685.3944
327.7704, 683.6882
328.2525, 683.2385
328.7346, 682.3502
329.2167, 680.6211
329.6989, 678.8764
330.1810, 676.4383
330.6631, 674.3016
331.1452, 674.1292
331.6273, 676.9863
332.1094, 681.8029
332.5916, 685.0502
333.0737, 684.7917
333.5558, 686.3666
334.0379, 691.7882
334.5200, 698.5979
335.0021, 704.4697
335.4843, 708.6702
335.9664, 712.0741
336.4485, 715.8806
336.9306, 719.9034
337.4127, 724.9489
337.8948, 731.6723
338.3770, 738.9504
338.8591, 746.0046
339.3412, 752.8742
339.8233, 760.2098
340.3055, 768.8988
340.7876, 779.0543
341.2697, 789.0543
341.7518, 798.3677
342.2339, 808.0062
342.7160, 818.7025
343.1982, 830.0748
343.6803, 841.1250
344.1624, 850.7500
344.6445, 859.5803
345.1266, 871.1835
345.6087, 888.3134
346.0909, 903.6790
346.5730, 913.4699
347.0551, 920.9127
347.5372, 929.9683
348.0193, 942.4357
348.5014, 956.9236
348.9836, 971.5771
349.4657, 986.9568
349.9478, 1000.368
350.4299, 1009.605
350.9120, 1017.546
351.3941, 1026.056
351.8763, 1035.485
352.3584, 1045.261
352.8405, 1055.108
353.3226, 1065.102
353.8047, 1073.843
354.2868, 1081.504
354.7690, 1087.280
355.2511, 1090.312
355.7332, 1091.017
356.2153, 1091.049
356.6974, 1092.343
357.1795, 1093.976
357.6617, 1092.124
358.1438, 1085.943
358.6259, 1077.865
359.1080, 1068.840
359.5901, 1059.091
360.0722, 1048.821
360.5544, 1038.069
361.0365, 1026.892
361.5186, 1015.012
362.0007, 1002.367
362.4828, 990.0101
362.9649, 979.7628
363.4471, 969.0925
363.9292, 954.4633
364.4113, 934.6417
364.8934, 914.6857
365.3755, 898.2189
365.8576, 884.9130
366.3398, 873.3309
366.8219, 864.1376
367.3040, 855.0037
367.7861, 842.7912
368.2682, 827.8613
368.7503, 814.1236
369.2325, 803.5341
369.7146, 794.9440
370.1967, 786.5130
370.6788, 778.0534
371.1609, 769.7909
371.6430, 762.2491
372.1252, 755.0738
372.6073, 747.2424
373.0894, 736.7362
373.5715, 727.0584
374.0536, 721.9698
374.5357, 720.7452
375.0179, 718.7626
375.5000, 713.3881
375.9821, 706.3074
376.4642, 701.5779
376.9463, 700.0507
377.4284, 698.5729
377.9106, 695.4510
378.3927, 691.7499
378.8748, 689.3685
379.3569, 688.8576
379.8390, 689.3458
380.3211, 689.5176
380.8033, 689.0139
381.2854, 690.6959
381.7675, 696.5898
382.2496, 703.4267
382.7317, 708.6281
383.2138, 712.1290
383.6960, 715.2893
384.1781, 719.0499
384.6602, 723.3923
385.1423, 728.2786
385.6244, 736.0287
386.1065, 741.6702
386.5887, 742.4020
387.0708, 740.1116
387.5529, 738.1848
388.0350, 738.1374
388.5171, 738.6811
388.9992, 736.9754
389.4814, 731.5203
389.9635, 725.8978
390.4456, 719.9548
390.9277, 713.9498
391.4098, 707.7745
391.8919, 701.6097
392.3741, 696.0955
392.8562, 691.9513
393.3383, 689.2833
393.8204, 687.1297
394.3025, 684.3363
394.7846, 683.1937
395.2668, 685.1777
395.7489, 689.3248
396.2310, 693.8326
396.7131, 697.6496
397.1952, 701.1282
397.6773, 705.4456
398.1595, 710.3338
398.6416, 716.6910
399.1237, 723.6150
399.6058, 732.4208
400.0879, 744.7263
400.5700, 760.7083
401.0522, 778.3958
401.5343, 795.7288
402.0164, 812.5308
402.4985, 829.5273
402.9806, 845.4286
403.4627, 862.8973
403.9449, 883.6017
404.4270, 906.8339
404.9091, 930.6972
405.3912, 954.0369
405.8733, 977.1909
406.3554, 1001.022
406.8376, 1025.954
407.3197, 1050.964
407.8018, 1075.340
408.2839, 1099.695
408.7660, 1124.415
409.2481, 1149.809
409.7303, 1175.619
410.2124, 1201.798
410.6945, 1228.311
411.1766, 1255.142
411.6587, 1281.705
412.1408, 1309.645
412.6230, 1340.175
413.1051, 1373.133
413.5872, 1407.770
414.0693, 1444.310
414.5514, 1482.179
415.0335, 1520.082
415.5157, 1557.882
415.9978, 1596.442
416.4799, 1636.340
416.9620, 1677.513
417.4441, 1719.399
417.9262, 1762.681
418.4084, 1805.813
418.8905, 1848.273
419.3726, 1889.814
419.8547, 1930.577
420.3368, 1971.492
420.8189, 2008.806
421.3011, 2036.424
421.7832, 2054.667
422.2653, 2062.724
422.7474, 2060.461
423.2295, 2047.952
423.7116, 2024.885
424.1938, 1991.445
424.6759, 1948.238
425.1580, 1894.838
425.6401, 1831.676
426.1222, 1764.627
426.6043, 1690.531
427.0865, 1616.884
427.5686, 1543.832
428.0507, 1472.601
428.5328, 1404.287
429.0149, 1339.215
429.4970, 1277.791
429.9792, 1220.212
430.4613, 1165.797
430.9434, 1116.621
431.4255, 1071.852
431.9076, 1031.829
432.3897, 997.4177
432.8719, 967.9078
433.3540, 941.2478
433.8361, 915.8987
434.3182, 892.1400
434.8003, 871.7247
435.2824, 855.7996
435.7646, 841.9111
436.2467, 830.0377
436.7288, 819.3516
437.2109, 809.0383
437.6930, 798.8311
438.1751, 789.1931
438.6573, 780.5985
439.1394, 773.0578
439.6215, 766.4694
440.1036, 760.4599
440.5857, 755.9260
441.0678, 753.6420
441.5500, 753.2430
442.0321, 753.3455
442.5142, 753.3005
442.9963, 753.2914
443.4784, 753.9450
443.9605, 755.4432
444.4427, 756.0654
444.9248, 753.7366
445.4069, 750.6414
445.8890, 750.7110
446.3711, 755.1154
446.8532, 759.8586
447.3354, 762.9705
447.8175, 764.8021
448.2996, 765.8953
448.7817, 766.2588
449.2638, 766.6024
449.7459, 767.7740
450.2281, 769.8383
450.7102, 771.5538
451.1923, 773.3621
451.6744, 774.3759
452.1565, 773.4039
452.6386, 771.0774
453.1208, 769.3120
453.6029, 769.1388
454.0850, 770.0245
454.5671, 770.4946
455.0492, 770.1146
455.5313, 769.8932
456.0135, 770.2234
456.4956, 770.4645
456.9777, 770.1379
457.4598, 769.1680
457.9419, 767.6744
458.4240, 765.6547
458.9062, 763.1000
459.3883, 761.1113
459.8704, 759.0353
460.3525, 758.3923
460.8346, 760.1779
461.3167, 763.3311
461.7989, 766.4720
462.2810, 769.0805
462.7631, 771.7823
463.2452, 775.6664
463.7273, 780.9348
464.2094, 786.1360
464.6916, 790.3722
465.1737, 795.2252
465.6558, 802.0741
466.1379, 810.4034
466.6200, 818.3766
467.1021, 824.4135
467.5843, 829.7069
468.0664, 836.9739
468.5485, 846.5970
469.0306, 855.6320
469.5127, 862.6600
469.9948, 868.3464
470.4770, 873.7455
470.9591, 878.9453
471.4412, 883.6785
471.9233, 888.1080
472.4054, 891.9250
472.8875, 895.0289
473.3697, 897.5185
473.8518, 897.4739
474.3339, 892.6674
474.8160, 883.0145
475.2981, 873.6559
475.7802, 867.4908
476.2624, 858.6309
476.7445, 842.8383
477.2266, 822.6570
477.7087, 803.1215
478.1908, 786.0895
478.6729, 770.0246
479.1551, 752.1570
479.6372, 731.2089
480.1193, 711.2616
480.6014, 692.6316
481.0835, 674.4814
481.5656, 656.0795
482.0478, 637.7850
482.5299, 620.5968
483.0120, 605.2463
483.4941, 591.4064
483.9762, 578.2864
484.4583, 565.5605
484.9405, 554.3229
485.4226, 545.3414
485.9047, 537.3785
486.3868, 529.7755
486.8689, 522.3575
487.3510, 515.0439
487.8332, 507.6798
488.3153, 500.3695
488.7974, 493.2342
489.2795, 485.9626
489.7616, 479.6848
490.2437, 475.6217
490.7259, 472.8854
491.2080, 470.1790
491.6901, 467.2282
492.1722, 464.4207
492.6543, 461.9232
493.1364, 459.7948
493.6186, 458.2989
494.1007, 457.5648
494.5828, 457.1646
495.0649, 456.7612
495.5470, 456.3834
496.0291, 455.3091
496.5113, 452.4228
496.9934, 449.8455
497.4755, 449.1387
497.9576, 449.7352
498.4397, 450.0641
498.9218, 449.3433
499.4040, 448.2187
499.8861, 448.2196
500.3682, 450.6302
500.8503, 451.7773
501.3324, 449.9956
501.8145, 448.5190
502.2967, 450.0148
502.7788, 453.7343
503.2609, 456.6949
503.7430, 456.5564
504.2251, 454.3949
504.7072, 454.4787
505.1894, 457.6216
505.6715, 461.1800
506.1536, 465.3251
506.6357, 469.0633
507.1178, 471.2346
507.5999, 471.7960
508.0821, 472.3816
508.5642, 473.9453
509.0463, 476.4636
509.5284, 480.1179
510.0105, 485.1530
510.4926, 490.2885
510.9748, 494.9035
511.4569, 498.9739
511.9390, 502.3768
512.4211, 504.2213
512.9032, 506.9800
513.3853, 512.5319
513.8674, 519.6179
514.3495, 525.8465
514.8317, 530.7383
515.3138, 535.6630
515.7959, 542.0778
516.2780, 550.1257
516.7601, 557.9156
517.2422, 565.3490
517.7244, 572.7148
518.2065, 579.6598
518.6886, 586.7517
519.1707, 594.9269
519.6528, 604.4622
520.1349, 614.6320
520.6171, 624.0306
521.0992, 632.0303
521.5813, 641.8558
522.0634, 656.1249
522.5455, 669.6656
523.0276, 679.9233
523.5098, 688.2176
523.9919, 697.0176
524.4740, 707.4503
524.9561, 718.8611
525.4382, 730.5752
525.9203, 742.5270
526.4025, 754.6313
526.8846, 766.4888
527.3667, 778.8998
527.8488, 793.5300
528.3309, 809.8483
528.8130, 824.6411
529.2952, 835.2401
529.7773, 845.2095
530.2594, 858.6926
530.7415, 874.8045
531.2236, 889.5988
531.7057, 901.4984
532.1879, 910.6669
532.6700, 917.2050
533.1521, 919.8376
533.6342, 922.6481
534.1163, 927.2408
534.5984, 930.7092
535.0806, 931.3750
535.5627, 929.2431
536.0448, 924.7923
536.5269, 918.2594
537.0090, 909.9418
537.4911, 901.1473
537.9733, 893.2991
538.4554, 881.4952
538.9375, 861.7615
539.4196, 840.9211
539.9017, 823.0208
540.3839, 807.9075
540.8660, 793.2197
541.3481, 777.4974
541.8302, 761.1290
542.3123, 744.7712
542.7944, 728.3729
543.2766, 712.6715
543.7587, 697.9509
544.2408, 684.2169
544.7229, 671.6494
545.2050, 660.4047
545.6871, 648.8755
546.1693, 635.1464
546.6514, 621.7682
547.1335, 611.8721
547.6156, 605.3009
548.0977, 599.4267
548.5798, 592.7315
549.0620, 585.4603
549.5441, 578.5042
550.0262, 571.8301
550.5083, 565.5533
550.9904, 559.7403
551.4725, 554.2602
551.9547, 548.9661
552.4368, 543.8978
552.9189, 539.2393
553.4010, 535.2335
553.8831, 531.6710
554.3652, 527.7055
554.8474, 523.0633
555.3295, 518.7664
555.8116, 515.8766
556.2937, 512.8690
556.7758, 508.4095
557.2579, 502.5420
557.7401, 496.6985
558.2222, 491.7752
558.7043, 487.4106
559.1864, 482.8077
559.6685, 477.9701
560.1506, 473.5805
560.6328, 470.2235
561.1149, 467.3166
561.5970, 463.3432
562.0791, 457.8017
562.5612, 453.0459
563.0433, 450.3505
563.5255, 447.9886
564.0076, 444.4684
564.4897, 439.8458
564.9718, 434.8409
565.4539, 429.8451
565.9360, 425.0237
566.4182, 421.0417
566.9003, 418.4789
567.3824, 415.6256
567.8645, 412.0867
568.3466, 408.4874
568.8287, 405.3440
569.3109, 402.5226
569.7930, 399.5155
570.2751, 395.8840
570.7572, 391.9630
571.2393, 388.5384
571.7214, 385.6711
572.2036, 382.6414
572.6857, 378.9240
573.1678, 375.3286
573.6499, 372.8166
574.1320, 371.3600
574.6141, 370.1819
575.0963, 369.7210
575.5784, 368.9434
576.0605, 366.4941
576.5426, 362.8809
577.0247, 360.0230
577.5068, 358.8962
577.9890, 358.3344
578.4711, 355.9955
578.9532, 350.4038
579.4353, 346.8496
579.9174, 346.8768
580.3995, 347.1278
580.8817, 345.5931
581.3638, 343.1508
581.8459, 342.0673
582.3280, 343.5930
582.8101, 345.4083
583.2922, 342.9054
583.7744, 335.6320
584.2565, 330.8658
584.7386, 330.4422
585.2207, 331.4252
585.7029, 332.2135
586.1850, 332.7279
586.6671, 332.7328
587.1492, 332.2226
