##NAMES=Metazeunerite
##RRUFFID=R110205
##IDEAL CHEMISTRY=Cu^2+^(U^6+^O_2_)_2_(As^5+^O_4_)_2_&#183;8H_2_O
##LOCALITY=Roter Berg District, Schneeberg District, Erzgebirge, Saxony, Germany
##OWNER=RRUFF
##SOURCE=Michael Scott 
##DESCRIPTION=Pale green platy crystals associated with cobaltlotharmeyerite R070400. Cell parameters indicate that this has a disordered structure.
##STATUS=The identification of this mineral has been confirmed by single-crystal X-ray diffraction.
##URL=rruff.info/R110205
178.8666, 77.35342
179.3488, 80.10660
179.8309, 82.89259
180.3130, 85.87554
180.7951, 89.06638
181.2772, 92.46951
181.7593, 96.19296
182.2415, 100.0180
182.7236, 103.8635
183.2057, 107.6816
183.6878, 111.3451
184.1699, 114.7172
184.6520, 118.1865
185.1342, 120.3232
185.6163, 121.2404
186.0984, 120.7479
186.5805, 118.4529
187.0626, 114.1974
187.5447, 108.5972
188.0269, 102.3614
188.5090, 95.24902
188.9911, 88.53224
189.4732, 82.46372
189.9553, 76.98230
190.4374, 72.07293
190.9196, 67.70743
191.4017, 63.88208
191.8838, 60.53673
192.3659, 57.64513
192.8480, 55.12067
193.3301, 52.94310
193.8123, 51.10960
194.2944, 49.62011
194.7765, 48.59109
195.2586, 47.80037
195.7407, 46.98681
196.2228, 46.15166
196.7050, 45.33714
197.1871, 44.50083
197.6692, 43.65440
198.1513, 43.07246
198.6334, 42.99173
199.1155, 43.05864
199.5977, 43.03881
200.0798, 42.91810
200.5619, 42.79629
201.0440, 42.79159
201.5261, 42.93098
202.0082, 43.00782
202.4904, 42.82725
202.9725, 42.70085
203.4546, 42.80251
203.9367, 43.14587
204.4188, 43.61677
204.9009, 44.11713
205.3831, 44.71999
205.8652, 45.11298
206.3473, 45.10603
206.8294, 45.04115
207.3115, 45.09017
207.7936, 45.29052
208.2758, 45.59461
208.7579, 45.94373
209.2400, 46.36625
209.7221, 46.77188
210.2042, 47.05460
210.6863, 47.39220
211.1685, 47.97358
211.6506, 48.80577
212.1327, 49.67968
212.6148, 50.29076
213.0969, 50.46398
213.5790, 50.70857
214.0612, 51.08892
214.5433, 51.49422
215.0254, 51.89452
215.5075, 52.26535
215.9896, 52.50843
216.4717, 52.45911
216.9539, 51.92846
217.4360, 51.54144
217.9181, 51.53703
218.4002, 51.56647
218.8823, 51.24598
219.3644, 50.48168
219.8466, 49.53701
220.3287, 48.77689
220.8108, 48.24873
221.2929, 47.60640
221.7750, 46.73335
222.2571, 45.74863
222.7393, 44.78306
223.2214, 43.86067
223.7035, 42.98454
224.1856, 42.17336
224.6677, 41.42262
225.1498, 40.71604
225.6320, 40.06878
226.1141, 39.45904
226.5962, 38.84394
227.0783, 38.20491
227.5604, 37.59412
228.0425, 37.04478
228.5247, 36.55579
229.0068, 36.14843
229.4889, 35.87426
229.9710, 35.68758
230.4531, 35.47623
230.9352, 35.20524
231.4174, 34.96523
231.8995, 34.86287
232.3816, 34.85057
232.8637, 34.79790
233.3458, 34.57351
233.8279, 34.25317
234.3101, 34.08781
234.7922, 34.13416
235.2743, 34.26294
235.7564, 34.44056
236.2385, 34.63459
236.7206, 34.77430
237.2028, 34.77041
237.6849, 34.67626
238.1670, 34.73849
238.6491, 35.08602
239.1312, 35.40083
239.6133, 35.58715
240.0955, 35.65540
240.5776, 35.61774
241.0597, 35.45205
241.5418, 35.19311
242.0239, 35.02078
242.5060, 35.03374
242.9882, 34.99715
243.4703, 34.83757
243.9524, 34.59106
244.4345, 34.29506
244.9166, 33.95452
245.3987, 33.59990
245.8809, 33.39404
246.3630, 33.53650
246.8451, 33.57057
247.3272, 33.31547
247.8093, 32.92812
248.2914, 32.62222
248.7736, 32.51885
249.2557, 32.55781
249.7378, 32.49631
250.2199, 32.27916
250.7020, 32.01602
251.1841, 31.68737
251.6663, 31.33455
252.1484, 30.99183
252.6305, 30.67257
253.1126, 30.39806
253.5947, 30.23047
254.0768, 30.27072
254.5590, 30.30957
255.0411, 30.35012
255.5232, 30.37667
256.0053, 30.35337
256.4874, 30.26601
256.9695, 30.16529
257.4517, 30.17390
257.9338, 30.47671
258.4159, 30.67002
258.8980, 30.68060
259.3801, 30.61123
259.8622, 30.53246
260.3444, 30.47272
260.8265, 30.48981
261.3086, 30.70325
261.7907, 31.38790
262.2728, 31.83071
262.7549, 31.85364
263.2371, 31.71475
263.7192, 31.65416
264.2013, 31.73811
264.6834, 31.90501
265.1655, 32.06876
265.6476, 32.22871
266.1298, 32.38509
266.6119, 32.50528
267.0940, 32.64079
267.5761, 32.84576
268.0582, 33.13040
268.5403, 33.45314
269.0225, 33.76985
269.5046, 34.07914
269.9867, 34.38652
270.4688, 34.72312
270.9509, 35.03782
271.4330, 35.29731
271.9152, 35.49529
272.3973, 35.61701
272.8794, 35.61591
273.3615, 35.48241
273.8436, 35.46096
274.3257, 35.63994
274.8079, 35.87239
275.2900, 36.09731
275.7721, 36.29814
276.2542, 36.35104
276.7363, 36.09017
277.2184, 35.56944
277.7006, 35.27870
278.1827, 35.50261
278.6648, 35.73297
279.1469, 35.60841
279.6290, 35.15172
280.1111, 34.57022
280.5933, 33.91662
281.0754, 33.25472
281.5575, 32.76489
282.0396, 32.55505
282.5217, 32.38450
283.0038, 32.08646
283.4860, 31.68916
283.9681, 31.34646
284.4502, 31.15936
284.9323, 31.04237
285.4144, 30.79745
285.8965, 30.34915
286.3787, 29.95941
286.8608, 29.81306
287.3429, 29.85383
287.8250, 29.87866
288.3071, 29.82645
288.7892, 29.72241
289.2714, 29.59947
289.7535, 29.45504
290.2356, 29.31697
290.7177, 29.19900
291.1998, 29.09707
291.6819, 28.99445
292.1641, 28.87794
292.6462, 28.77984
293.1283, 28.74677
293.6104, 28.77049
294.0925, 28.79061
294.5746, 28.82056
295.0568, 28.82466
295.5389, 28.70498
296.0210, 28.41054
296.5031, 28.11132
296.9852, 27.92474
297.4673, 27.84062
297.9495, 27.87062
298.4316, 28.06304
298.9137, 28.35452
299.3958, 28.68999
299.8779, 29.09483
300.3600, 29.41032
300.8422, 29.44010
301.3243, 29.31831
301.8064, 29.26867
302.2885, 29.35812
302.7706, 29.52122
303.2527, 29.66536
303.7349, 29.78360
304.2170, 30.00058
304.6991, 30.50495
305.1812, 31.07874
305.6633, 31.40324
306.1454, 31.36250
306.6276, 31.25947
307.1097, 31.33916
307.5918, 31.59537
308.0739, 31.93512
308.5560, 32.36147
309.0381, 32.83294
309.5203, 33.27180
310.0024, 33.66742
310.4845, 34.14291
310.9666, 34.76934
311.4487, 35.54198
311.9308, 36.43707
312.4130, 37.44711
312.8951, 38.58900
313.3772, 39.80525
313.8593, 41.11193
314.3414, 42.62757
314.8235, 44.43575
315.3057, 46.49630
315.7878, 48.75174
316.2699, 51.22179
316.7520, 53.81037
317.2341, 56.48337
317.7162, 59.20402
318.1984, 61.92483
318.6805, 64.81341
319.1626, 67.59651
319.6447, 69.98270
320.1268, 72.06314
320.6089, 73.29314
321.0911, 73.17278
321.5732, 72.01415
322.0553, 70.11415
322.5374, 67.43085
323.0195, 64.17280
323.5016, 60.42128
323.9838, 56.15065
324.4659, 51.85712
324.9480, 47.47255
325.4301, 43.38823
325.9122, 40.07124
326.3943, 37.56758
326.8765, 35.56575
327.3586, 33.95137
327.8407, 32.67806
328.3228, 31.52959
328.8049, 30.46127
329.2870, 29.51056
329.7692, 28.70577
330.2513, 28.04084
330.7334, 27.47622
331.2155, 26.99534
331.6976, 26.60353
332.1797, 26.35071
332.6619, 26.29935
333.1440, 26.22576
333.6261, 25.87245
334.1082, 25.34929
334.5903, 24.91234
335.0724, 24.66671
335.5546, 24.53683
336.0367, 24.44347
336.5188, 24.38952
337.0009, 24.34251
337.4830, 24.30240
337.9651, 24.24990
338.4473, 24.14256
338.9294, 23.93080
339.4115, 23.73485
339.8936, 23.68652
340.3757, 23.76204
340.8578, 23.77741
341.3400, 23.63460
341.8221, 23.42815
342.3042, 23.31798
342.7863, 23.32620
343.2684, 23.30121
343.7505, 23.09106
344.2327, 22.79528
344.7148, 22.68229
345.1969, 22.85399
345.6790, 23.09534
346.1611, 23.15531
346.6432, 23.06255
347.1254, 22.94881
347.6075, 22.77860
348.0896, 22.63931
348.5717, 22.69373
349.0538, 22.96404
349.5359, 23.19231
350.0181, 23.14790
350.5002, 22.89490
350.9823, 22.75119
351.4644, 22.82969
351.9465, 22.94032
352.4286, 22.91645
352.9108, 22.79664
353.3929, 22.78687
353.8750, 23.03646
354.3571, 23.40723
354.8392, 23.55244
355.3214, 23.41690
355.8035, 23.22605
356.2856, 23.02881
356.7677, 22.83583
357.2498, 22.65689
357.7319, 22.48976
358.2141, 22.36493
358.6962, 22.33916
359.1783, 22.43026
359.6604, 22.50483
360.1425, 22.56857
360.6246, 22.59704
361.1068, 22.55280
361.5889, 22.43709
362.0710, 22.30329
362.5531, 22.18967
363.0352, 22.09789
363.5173, 22.03441
363.9995, 21.94362
364.4816, 21.93121
364.9637, 22.13989
365.4458, 22.47371
365.9279, 22.67256
366.4100, 22.58316
366.8922, 22.30999
367.3743, 22.19612
367.8564, 22.36864
368.3385, 22.50793
368.8206, 22.54588
369.3027, 22.54156
369.7849, 22.57442
370.2670, 22.66380
370.7491, 22.74719
371.2312, 22.72702
371.7133, 22.53344
372.1954, 22.45601
372.6776, 22.62142
373.1597, 22.78816
373.6418, 22.78321
374.1239, 22.62904
374.6060, 22.47326
375.0881, 22.43510
375.5703, 22.51063
376.0524, 22.55000
376.5345, 22.47691
377.0166, 22.45561
377.4987, 22.55720
377.9808, 22.72519
378.4630, 22.86883
378.9451, 22.94601
379.4272, 22.99985
379.9093, 23.14892
380.3914, 23.58635
380.8735, 23.78272
381.3557, 23.48505
381.8378, 23.13150
382.3199, 23.05592
382.8020, 23.29535
383.2841, 23.65981
383.7662, 23.95593
384.2484, 24.18736
384.7305, 24.33039
385.2126, 24.24041
385.6947, 24.19991
386.1768, 24.31936
386.6589, 24.55648
387.1411, 24.82505
387.6232, 25.08544
388.1053, 25.32261
388.5874, 25.46560
389.0695, 25.42672
389.5516, 25.46107
390.0338, 25.63587
390.5159, 25.89397
390.9980, 26.21938
391.4801, 26.60542
391.9622, 26.95610
392.4443, 27.13168
392.9265, 27.11134
393.4086, 27.11735
393.8907, 27.20445
394.3728, 27.29812
394.8549, 27.33786
395.3370, 27.34088
395.8192, 27.37779
396.3013, 27.53002
396.7834, 27.75007
397.2655, 27.86234
397.7476, 27.81677
398.2297, 27.79324
398.7119, 27.88946
399.1940, 28.06294
399.6761, 28.28424
400.1582, 28.58292
400.6403, 28.84475
401.1224, 28.91878
401.6046, 28.81758
402.0867, 28.76120
402.5688, 28.88241
403.0509, 28.99549
403.5330, 28.82969
404.0151, 28.37676
404.4973, 28.02933
404.9794, 28.10174
405.4615, 28.35087
405.9436, 28.36045
406.4257, 28.07619
406.9078, 27.60411
407.3900, 26.91760
407.8721, 26.09196
408.3542, 25.49601
408.8363, 25.32365
409.3184, 25.23859
409.8005, 25.02499
410.2827, 24.71840
410.7648, 24.44876
411.2469, 24.27276
411.7290, 24.16689
412.2111, 24.09160
412.6932, 24.07364
413.1754, 24.01639
413.6575, 23.82944
414.1396, 23.63463
414.6217, 23.56272
415.1038, 23.63406
415.5859, 23.79087
416.0681, 23.99943
416.5502, 24.27672
417.0323, 24.38651
417.5144, 24.22568
417.9965, 24.03478
418.4786, 23.82627
418.9608, 23.66851
419.4429, 23.70074
419.9250, 24.00352
420.4071, 24.46497
420.8892, 24.77594
421.3713, 24.84695
421.8535, 24.88774
422.3356, 24.83051
422.8177, 24.79935
423.2998, 24.90497
423.7819, 25.15120
424.2640, 25.45120
424.7462, 25.72628
425.2283, 25.97939
425.7104, 26.17679
426.1925, 26.20600
426.6746, 26.30285
427.1567, 26.60127
427.6389, 26.99568
428.1210, 27.29940
428.6031, 27.40625
429.0852, 27.44943
429.5673, 27.73243
430.0494, 28.35025
430.5316, 28.86591
431.0137, 28.96203
431.4958, 29.06942
431.9779, 29.52865
432.4600, 30.33533
432.9421, 31.12905
433.4243, 31.58393
433.9064, 31.78717
434.3885, 32.12227
434.8706, 32.63110
435.3527, 33.21985
435.8348, 33.89114
436.3170, 34.59273
436.7991, 35.22765
437.2812, 35.68674
437.7633, 36.18869
438.2454, 36.99384
438.7275, 38.05960
439.2097, 39.06646
439.6918, 39.88899
440.1739, 40.62180
440.6560, 41.37147
441.1381, 42.12547
441.6202, 42.99502
442.1024, 44.13216
442.5845, 45.33299
443.0666, 46.36705
443.5487, 47.21505
444.0308, 47.94979
444.5129, 48.61552
444.9951, 49.21125
445.4772, 49.76748
445.9593, 50.34630
446.4414, 50.81874
446.9235, 51.12224
447.4056, 51.30131
447.8878, 51.42112
448.3699, 51.50427
448.8520, 51.53837
449.3341, 51.50696
449.8162, 51.41792
450.2983, 51.22731
450.7805, 50.98093
451.2626, 50.61013
451.7447, 50.02589
452.2268, 49.28242
452.7089, 48.49574
453.1910, 47.73397
453.6732, 47.01629
454.1553, 46.43467
454.6374, 46.03584
455.1195, 45.70369
455.6016, 45.47504
456.0837, 45.26014
456.5659, 44.97561
457.0480, 44.60839
457.5301, 44.22848
458.0122, 43.87339
458.4943, 43.54403
458.9764, 43.36120
459.4586, 43.35561
459.9407, 43.46716
460.4228, 43.69447
460.9049, 43.99647
461.3870, 44.31511
461.8691, 44.67214
462.3513, 44.96796
462.8334, 45.09604
463.3155, 45.05640
463.7976, 44.83514
464.2797, 44.37106
464.7618, 43.78472
465.2440, 43.27691
465.7261, 42.85714
466.2082, 42.24361
466.6903, 41.15935
467.1724, 39.92589
467.6545, 38.90447
468.1367, 38.12817
468.6188, 37.53003
469.1009, 37.11226
469.5830, 36.83184
470.0651, 36.45721
470.5472, 35.99389
471.0294, 35.44924
471.5115, 34.66180
471.9936, 33.86226
472.4757, 33.38461
472.9578, 33.30071
473.4399, 33.36006
473.9221, 33.26785
474.4042, 32.99856
474.8863, 32.72080
475.3684, 32.50007
475.8505, 32.20136
476.3326, 31.62461
476.8148, 30.96657
477.2969, 30.60207
477.7790, 30.72480
478.2611, 31.06671
478.7432, 31.04795
479.2253, 30.55013
479.7075, 30.02533
480.1896, 29.40033
480.6717, 28.86452
481.1538, 28.58447
481.6359, 28.51327
482.1180, 28.43119
482.6002, 28.17130
483.0823, 27.79999
483.5644, 27.52127
484.0465, 27.37923
484.5286, 27.16965
485.0107, 26.72563
485.4929, 26.20454
485.9750, 25.77493
486.4571, 25.45312
486.9392, 25.24036
487.4213, 25.23409
487.9034, 25.32412
488.3856, 25.22904
488.8677, 24.88077
489.3498, 24.53300
489.8319, 24.41928
490.3140, 24.52451
490.7961, 24.55659
491.2783, 24.44112
491.7604, 24.33224
492.2425, 24.35031
492.7246, 24.41501
493.2067, 24.35970
493.6888, 24.12631
494.1710, 23.81609
494.6531, 23.58484
495.1352, 23.45144
495.6173, 23.34465
496.0994, 23.25617
496.5815, 23.19785
497.0637, 23.21704
497.5458, 23.26823
498.0279, 23.24893
498.5100, 23.09440
498.9921, 22.87062
499.4742, 22.74436
499.9564, 22.74696
500.4385, 22.76991
500.9206, 22.82488
501.4027, 22.87398
501.8848, 22.87518
502.3669, 22.84018
502.8491, 22.83738
503.3312, 22.99923
503.8133, 23.20832
504.2954, 23.07074
504.7775, 22.49035
505.2596, 22.02823
505.7418, 22.05596
506.2239, 22.29382
506.7060, 22.32694
507.1881, 22.09005
507.6702, 21.83817
508.1523, 21.69175
508.6345, 21.61514
509.1166, 21.57316
509.5987, 21.56049
510.0808, 21.49677
510.5629, 21.28138
511.0450, 20.94229
511.5272, 20.78919
512.0093, 20.97666
512.4914, 21.13897
512.9735, 21.15753
513.4556, 21.09492
513.9377, 21.02896
514.4199, 20.98342
514.9020, 20.94499
515.3841, 20.89927
515.8662, 20.84736
516.3483, 20.78164
516.8304, 20.64901
517.3126, 20.56033
517.7947, 20.58903
518.2768, 20.66913
518.7589, 20.70281
519.2410, 20.65032
519.7231, 20.55671
520.2053, 20.49162
520.6874, 20.45965
521.1695, 20.39071
521.6516, 20.28265
522.1337, 20.12291
522.6158, 19.82361
523.0980, 19.46343
523.5801, 19.27988
524.0622, 19.49894
524.5443, 19.79032
525.0264, 19.74019
525.5085, 19.41790
525.9907, 19.26771
526.4728, 19.50071
526.9549, 19.84277
527.4370, 19.84171
527.9191, 19.41591
528.4012, 19.19272
528.8834, 19.40263
529.3655, 19.68942
529.8476, 19.80745
530.3297, 19.78967
530.8118, 19.78796
531.2939, 19.88734
531.7761, 20.03086
532.2582, 20.07393
532.7403, 19.98418
533.2224, 19.84577
533.7045, 19.60264
534.1866, 19.36837
534.6688, 19.23016
535.1509, 19.16309
535.6330, 19.06961
536.1151, 18.86817
536.5972, 18.62102
537.0793, 18.49805
537.5615, 18.52026
538.0436, 18.58508
538.5257, 18.71610
539.0078, 18.83727
539.4899, 18.86929
539.9720, 18.81504
540.4542, 18.76653
540.9363, 18.79230
541.4184, 18.83849
541.9005, 18.82826
542.3826, 18.76017
542.8647, 18.66269
543.3469, 18.53989
543.8290, 18.40734
544.3111, 18.30266
544.7932, 18.21513
545.2753, 18.17397
545.7574, 18.22567
546.2396, 18.29493
546.7217, 18.30755
547.2038, 18.27041
547.6859, 18.24640
548.1680, 18.28275
548.6501, 18.36157
549.1323, 18.40160
549.6144, 18.37029
550.0965, 18.35594
550.5786, 18.41072
551.0607, 18.45177
551.5428, 18.39511
552.0250, 18.25393
552.5071, 18.13111
552.9892, 18.11893
553.4713, 18.17443
553.9534, 18.17710
554.4355, 18.12519
554.9177, 18.01832
555.3998, 17.76502
555.8819, 17.52607
556.3640, 17.55835
556.8461, 17.91153
557.3282, 18.15270
557.8104, 17.96988
558.2925, 17.67150
558.7746, 17.68757
559.2567, 17.99714
559.7388, 18.20062
560.2209, 18.03306
560.7031, 17.62894
561.1852, 17.41745
561.6673, 17.57208
562.1494, 17.68061
562.6315, 17.73857
563.1136, 17.74839
563.5958, 17.67520
564.0779, 17.54892
564.5600, 17.46950
565.0421, 17.52230
565.5242, 17.64742
566.0063, 17.61901
566.4885, 17.35263
566.9706, 17.17997
567.4527, 17.27114
567.9348, 17.41580
568.4169, 17.48587
568.8990, 17.47583
569.3812, 17.42393
569.8633, 17.28682
570.3454, 17.15263
570.8275, 17.18649
571.3096, 17.37539
571.7917, 17.51551
572.2739, 17.51033
572.7560, 17.43003
573.2381, 17.39320
573.7202, 17.39907
574.2023, 17.44612
574.6844, 17.62432
575.1666, 17.76589
575.6487, 17.72294
576.1308, 17.54621
576.6129, 17.36896
577.0950, 17.25719
577.5771, 17.21661
578.0593, 17.28594
578.5414, 17.56151
579.0235, 17.68251
579.5056, 17.45892
579.9877, 17.23671
580.4698, 17.16440
580.9520, 17.21615
581.4341, 17.31288
581.9162, 17.43060
582.3983, 17.55456
582.8804, 17.69530
583.3625, 17.84261
583.8447, 17.86075
584.3268, 17.67413
584.8089, 17.45133
585.2910, 17.36915
585.7731, 17.41558
586.2552, 17.46846
586.7374, 17.54659
587.2195, 17.59840
587.7016, 17.55481
588.1837, 17.47751
588.6658, 17.49357
589.1479, 17.63576
589.6301, 17.79389
590.1122, 17.82486
590.5943, 17.71005
591.0764, 17.64585
591.5585, 17.68785
592.0406, 17.71652
592.5228, 17.64960
593.0049, 17.57984
593.4870, 17.63135
593.9691, 17.83350
594.4512, 18.07421
594.9333, 18.29776
595.4155, 18.47980
595.8976, 18.47830
596.3797, 18.24261
596.8618, 18.01951
597.3439, 17.98458
597.8260, 18.04844
598.3082, 17.97326
598.7903, 17.66126
599.2724, 17.45778
599.7545, 17.54189
600.2366, 17.74705
600.7188, 17.92572
601.2009, 18.05207
601.6830, 18.12369
602.1651, 18.13618
602.6472, 18.10115
603.1293, 18.05451
603.6115, 17.94098
604.0936, 17.92166
604.5757, 18.08467
605.0578, 18.26606
605.5399, 18.37822
606.0220, 18.41983
606.5042, 18.42518
606.9863, 18.41885
607.4684, 18.37750
607.9505, 18.21908
608.4326, 17.94888
608.9147, 17.79853
609.3969, 17.86239
609.8790, 18.00174
610.3611, 18.06419
610.8432, 18.05849
611.3253, 18.09278
611.8074, 18.23058
612.2896, 18.35651
612.7717, 18.42488
613.2538, 18.43604
613.7359, 18.36419
614.2180, 18.21076
614.7001, 18.07529
615.1823, 18.08970
615.6644, 18.26547
616.1465, 18.34457
616.6286, 18.19248
617.1107, 18.13090
617.5928, 18.28401
618.0750, 18.53587
618.5571, 18.81388
619.0392, 19.09375
619.5213, 19.25518
620.0034, 19.11659
620.4855, 18.81679
620.9677, 18.66406
621.4498, 18.67399
621.9319, 18.76028
622.4140, 18.90769
622.8961, 19.07706
623.3782, 19.18267
623.8604, 19.21148
624.3425, 19.22799
624.8246, 19.22249
625.3067, 19.22151
625.7888, 19.26181
626.2709, 19.32028
626.7531, 19.33720
627.2352, 19.28242
627.7173, 19.19185
628.1994, 19.11304
628.6815, 19.02860
629.1636, 19.05733
629.6458, 19.29410
630.1279, 19.53173
630.6100, 19.70484
631.0921, 19.80075
631.5742, 19.76847
632.0563, 19.53755
632.5385, 19.35379
633.0206, 19.47151
633.5027, 19.74225
633.9848, 19.85029
634.4669, 19.75292
634.9490, 19.63997
635.4312, 19.64512
635.9133, 19.74960
636.3954, 19.86577
636.8775, 20.05511
637.3596, 20.16989
637.8417, 20.11862
638.3239, 20.06172
638.8060, 20.16683
639.2881, 20.37663
639.7702, 20.46806
640.2523, 20.27564
640.7344, 19.97424
641.2166, 19.93817
641.6987, 20.18279
642.1808, 20.32823
642.6629, 20.26273
643.1450, 20.14226
643.6271, 20.09879
644.1093, 20.11521
644.5914, 20.13608
645.0735, 20.12232
645.5556, 20.14772
646.0377, 20.25518
646.5198, 20.41944
647.0020, 20.67403
647.4841, 20.98822
647.9662, 21.13431
648.4483, 20.86579
648.9304, 20.27114
649.4125, 19.98857
649.8947, 20.21870
650.3768, 20.39007
650.8589, 20.29194
651.3410, 20.19325
651.8231, 20.36312
652.3052, 20.73847
652.7874, 20.95242
653.2695, 20.72197
653.7516, 20.33479
654.2337, 20.10580
654.7158, 20.02392
655.1979, 20.06355
655.6801, 20.23403
656.1622, 20.42319
656.6443, 20.49410
657.1264, 20.43490
657.6085, 20.48740
658.0906, 20.80824
658.5728, 21.02911
659.0549, 20.99253
659.5370, 20.85699
660.0191, 20.78564
660.5012, 20.80240
660.9833, 20.83392
661.4655, 20.83120
661.9476, 20.79151
662.4297, 20.66134
662.9118, 20.40880
663.3939, 20.33595
663.8760, 20.63632
664.3582, 21.03462
664.8403, 21.20835
665.3224, 21.17517
665.8045, 21.08503
666.2866, 20.88240
666.7687, 20.71124
667.2509, 20.68079
667.7330, 20.72651
668.2151, 20.72313
668.6972, 20.64621
669.1793, 20.59716
669.6614, 20.68287
670.1436, 20.89730
670.6257, 21.17821
671.1078, 21.67412
671.5899, 21.93042
672.0720, 21.59359
672.5541, 21.12644
673.0363, 20.86686
