##NAMES=Metatorbernite
##RRUFFID=R040171
##IDEAL CHEMISTRY=Cu^2+^(U^6+^O_2_)_2_(PO_4_)_2_&#183;8H_2_O
##LOCALITY=La Luz de Cobre, Sonora, Mexico
##OWNER=RRUFF
##SOURCE=University of Arizona Mineral Museum
##DESCRIPTION=Green thin tabular crystals
##STATUS=The identification of this mineral has been confirmed by X-ray diffraction and chemical analysis
##URL=rruff.info/R040171
##MEASURED CHEMISTRY=(Cu_0.80_[box]_0.20_)_Σ=1_(U_1.00_O_2_)_2_(P_1.00_O_4_)_2_·8((H_2_O)_0.95_(H_3_O)^+^_0.05_)
127.6675, 364.9985
128.1496, 388.6425
128.6317, 409.6883
129.1139, 419.8530
129.5960, 421.0663
130.0781, 430.7976
130.5602, 457.0722
131.0423, 484.4596
131.5244, 504.6699
132.0066, 517.5724
132.4887, 525.9272
132.9708, 531.9686
133.4529, 534.5913
133.9350, 530.8886
134.4171, 508.7987
134.8993, 487.7226
135.3814, 489.8113
135.8635, 517.1517
136.3456, 543.9130
136.8277, 546.3186
137.3098, 531.0787
137.7920, 521.7971
138.2741, 529.6924
138.7562, 542.8696
139.2383, 544.6595
139.7204, 532.0627
140.2025, 517.5472
140.6847, 509.3988
141.1668, 506.7211
141.6489, 509.5018
142.1310, 518.0211
142.6131, 531.9369
143.0952, 553.0391
143.5774, 586.1190
144.0595, 615.5524
144.5416, 623.4359
145.0237, 618.1430
145.5058, 621.5815
145.9879, 656.8273
146.4701, 710.3630
146.9522, 736.2959
147.4343, 722.3023
147.9164, 696.0325
148.3985, 668.4177
148.8806, 642.5334
149.3628, 628.1515
149.8449, 639.7417
150.3270, 671.7897
150.8091, 688.2818
151.2912, 679.2746
151.7733, 664.0921
152.2555, 654.0171
152.7376, 647.5748
153.2197, 639.0015
153.7018, 622.6161
154.1839, 598.7782
154.6660, 577.2319
155.1481, 556.9634
155.6303, 540.8474
156.1124, 529.9614
156.5945, 524.2070
157.0766, 522.7773
157.5587, 529.0988
158.0408, 544.3990
158.5230, 547.1849
159.0051, 517.1483
159.4872, 491.5378
159.9693, 488.7432
160.4514, 503.9552
160.9335, 521.3667
161.4157, 526.7229
161.8978, 518.0908
162.3799, 512.9654
162.8620, 517.4328
163.3441, 520.2546
163.8262, 515.0697
164.3084, 503.3558
164.7905, 492.1389
165.2726, 490.3000
165.7547, 501.3253
166.2368, 502.9776
166.7189, 486.7073
167.2011, 469.2409
167.6832, 457.7277
168.1653, 452.0984
168.6474, 448.0018
169.1295, 439.9271
169.6116, 425.2276
170.0938, 418.1505
170.5759, 425.5617
171.0580, 433.8267
171.5401, 437.0994
172.0222, 434.9211
172.5043, 429.9022
172.9865, 424.4026
173.4686, 417.8761
173.9507, 412.9197
174.4328, 409.7964
174.9149, 407.6537
175.3970, 405.8402
175.8792, 404.4431
176.3613, 404.0725
176.8434, 404.9813
177.3255, 405.9656
177.8076, 412.9150
178.2897, 435.1369
178.7719, 454.6877
179.2540, 458.4559
179.7361, 447.9132
180.2182, 436.2554
180.7003, 438.8154
181.1824, 461.2996
181.6646, 477.5623
182.1467, 487.7173
182.6288, 493.2522
183.1109, 492.6888
183.5930, 487.3448
184.0751, 481.6546
184.5573, 480.4111
185.0394, 484.3925
185.5215, 490.1206
186.0036, 500.9535
186.4857, 510.4279
186.9678, 512.9548
187.4500, 509.5967
187.9321, 506.9472
188.4142, 511.8164
188.8963, 525.5231
189.3784, 541.6809
189.8605, 567.5010
190.3427, 589.2266
190.8248, 596.2252
191.3069, 590.3989
191.7890, 583.7842
192.2711, 589.2787
192.7532, 611.1827
193.2354, 621.6138
193.7175, 618.9707
194.1996, 609.0545
194.6817, 592.2170
195.1638, 570.1117
195.6459, 546.5818
196.1281, 525.1278
196.6102, 505.8513
197.0923, 488.1027
197.5744, 471.9540
198.0565, 456.9512
198.5386, 444.0251
199.0208, 432.3118
199.5029, 418.7157
199.9850, 399.2452
200.4671, 372.3632
200.9492, 358.4514
201.4313, 368.3701
201.9135, 377.8502
202.3956, 374.2618
202.8777, 360.3269
203.3598, 346.8365
203.8419, 342.4333
204.3240, 347.4178
204.8061, 352.0094
205.2883, 356.8860
205.7704, 360.8387
206.2525, 363.8203
206.7346, 365.5232
207.2167, 364.8520
207.6988, 360.5075
208.1810, 352.6893
208.6631, 349.8512
209.1452, 354.5833
209.6273, 360.7058
210.1094, 368.3972
210.5915, 376.0132
211.0737, 380.1830
211.5558, 378.3063
212.0379, 371.2510
212.5200, 367.4637
213.0021, 367.2852
213.4842, 369.6228
213.9664, 375.7303
214.4485, 384.0472
214.9306, 392.3217
215.4127, 399.3615
215.8948, 405.0566
216.3769, 408.7750
216.8591, 408.3187
217.3412, 408.4552
217.8233, 409.5253
218.3054, 411.7555
218.7875, 416.1022
219.2696, 423.2519
219.7518, 431.5689
220.2339, 435.5132
220.7160, 429.0222
221.1981, 425.1238
221.6802, 429.0209
222.1623, 434.5648
222.6445, 433.2054
223.1266, 421.4392
223.6087, 404.2005
224.0908, 393.2986
224.5729, 397.2805
225.0550, 397.0078
225.5372, 390.3368
226.0193, 380.2877
226.5014, 368.2389
226.9835, 355.0123
227.4656, 343.0822
227.9477, 337.4893
228.4298, 347.5945
228.9120, 348.6473
229.3941, 333.6677
229.8762, 314.8482
230.3583, 301.8327
230.8404, 296.7420
231.3225, 295.2910
231.8047, 291.2568
232.2868, 281.8570
232.7689, 276.5327
233.2510, 276.0112
233.7331, 278.2216
234.2152, 284.1001
234.6974, 292.5053
235.1795, 298.7545
235.6616, 296.7380
236.1437, 282.9754
236.6258, 274.7863
237.1079, 276.1486
237.5901, 278.6872
238.0722, 278.3340
238.5543, 275.3040
239.0364, 272.3792
239.5185, 272.5137
240.0006, 276.2860
240.4828, 276.2951
240.9649, 268.3405
241.4470, 260.7332
241.9291, 254.8650
242.4112, 251.4436
242.8933, 251.7043
243.3755, 257.2961
243.8576, 267.5788
244.3397, 273.9958
244.8218, 270.9132
245.3039, 269.9839
245.7860, 276.2529
246.2682, 285.9441
246.7503, 292.9575
247.2324, 293.6842
247.7145, 289.5047
248.1966, 285.8515
248.6787, 282.6727
249.1609, 280.1406
249.6430, 277.5626
250.1251, 275.8157
250.6072, 276.3334
251.0893, 279.8734
251.5714, 284.6983
252.0535, 287.0858
252.5357, 286.4731
253.0178, 284.5165
253.4999, 281.4738
253.9820, 277.4417
254.4641, 272.4115
254.9462, 266.3851
255.4284, 259.5453
255.9105, 251.0793
256.3926, 239.5426
256.8747, 232.5630
257.3568, 235.1041
257.8390, 240.0901
258.3211, 244.5150
258.8032, 247.7223
259.2853, 249.2263
259.7674, 247.7816
260.2495, 243.2414
260.7317, 239.8838
261.2138, 238.6690
261.6959, 238.2363
262.1780, 238.7085
262.6601, 239.5742
263.1422, 238.8360
263.6244, 232.8065
264.1065, 223.1767
264.5886, 219.8962
265.0707, 226.9003
265.5528, 234.5738
266.0349, 237.5491
266.5170, 236.8583
266.9991, 234.6481
267.4813, 230.5070
267.9634, 225.9229
268.4455, 224.2546
268.9276, 226.1671
269.4097, 228.7503
269.8918, 229.9825
270.3740, 230.8666
270.8561, 233.0488
271.3382, 237.7274
271.8203, 242.9768
272.3024, 246.8181
272.7845, 249.2352
273.2667, 250.8209
273.7488, 251.4192
274.2309, 251.5104
274.7130, 252.3277
275.1951, 255.1569
275.6772, 256.0855
276.1594, 250.5145
276.6415, 240.2252
277.1236, 232.5169
277.6057, 229.6011
278.0878, 230.6732
278.5699, 235.0624
279.0521, 243.4278
279.5342, 251.0668
280.0163, 256.0122
280.4984, 259.2063
280.9805, 262.7021
281.4626, 267.2334
281.9448, 270.4587
282.4269, 268.6257
282.9090, 261.0917
283.3911, 255.4863
283.8732, 253.1452
284.3553, 252.8294
284.8375, 253.9643
285.3196, 256.3177
285.8017, 258.6613
286.2838, 259.7352
286.7659, 259.4856
287.2480, 260.9141
287.7302, 266.7403
288.2123, 271.5369
288.6944, 272.1968
289.1765, 269.4633
289.6586, 265.7456
290.1407, 262.3859
290.6229, 259.3682
291.1050, 256.6313
291.5871, 253.4749
292.0692, 251.3678
292.5513, 251.2729
293.0334, 252.1945
293.5156, 253.5475
293.9977, 255.0968
294.4798, 255.3027
294.9619, 250.2579
295.4440, 230.0823
295.9261, 220.0822
296.4083, 227.9002
296.8904, 240.4006
297.3725, 248.1688
297.8546, 249.1034
298.3367, 245.9611
298.8188, 241.7370
299.3010, 236.0428
299.7831, 230.6086
300.2652, 224.0525
300.7473, 218.9826
301.2294, 216.9822
301.7115, 217.5676
302.1937, 219.2942
302.6758, 221.5049
303.1579, 223.9853
303.6400, 224.0951
304.1221, 218.9568
304.6042, 215.4064
305.0864, 216.4750
305.5685, 220.1025
306.0506, 223.5150
306.5327, 225.6251
307.0148, 226.4087
307.4969, 225.6164
307.9791, 222.9287
308.4612, 219.7225
308.9433, 215.0912
309.4254, 210.8634
309.9075, 208.8398
310.3896, 209.5164
310.8718, 211.1569
311.3539, 213.3722
311.8360, 215.8940
312.3181, 214.2998
312.8002, 204.7304
313.2823, 194.1948
313.7644, 189.3685
314.2466, 189.9430
314.7287, 191.5268
315.2108, 191.4813
315.6929, 191.1838
316.1750, 194.6447
316.6571, 203.4342
317.1393, 210.2025
317.6214, 206.6003
318.1035, 195.1837
318.5856, 188.0962
319.0677, 190.3225
319.5498, 194.8350
320.0320, 196.6998
320.5141, 195.9833
320.9962, 193.3279
321.4783, 187.8941
321.9604, 181.5634
322.4425, 181.4759
322.9247, 193.8995
323.4068, 203.1479
323.8889, 202.3565
324.3710, 196.2366
324.8531, 192.2012
325.3352, 192.7762
325.8174, 195.1401
326.2995, 194.5022
326.7816, 187.4731
327.2637, 184.8394
327.7458, 189.6852
328.2279, 196.4707
328.7101, 202.7069
329.1922, 207.3462
329.6743, 208.8579
330.1564, 205.2257
330.6385, 195.9581
331.1206, 189.5496
331.6028, 187.6589
332.0849, 186.8155
332.5670, 186.2824
333.0491, 186.1047
333.5312, 186.9127
334.0133, 189.2935
334.4955, 191.9705
334.9776, 190.7546
335.4597, 182.6815
335.9418, 176.6790
336.4239, 175.7209
336.9060, 176.4297
337.3882, 175.8640
337.8703, 173.3664
338.3524, 170.8550
338.8345, 170.0391
339.3166, 170.9032
339.7987, 174.5467
340.2809, 185.4326
340.7630, 194.0831
341.2451, 192.6309
341.7272, 183.0926
342.2093, 174.5927
342.6914, 171.7063
343.1736, 173.1025
343.6557, 176.8794
344.1378, 183.6216
344.6199, 189.6747
345.1020, 193.0095
345.5841, 193.9081
346.0663, 192.9893
346.5484, 189.1009
347.0305, 184.9003
347.5126, 181.3355
347.9947, 178.8030
348.4768, 179.3203
348.9590, 184.5143
349.4411, 191.4600
349.9232, 194.2727
350.4053, 191.7786
350.8874, 189.5563
351.3695, 188.5470
351.8517, 188.2881
352.3338, 189.5318
352.8159, 191.9417
353.2980, 191.6855
353.7801, 183.7680
354.2622, 166.2823
354.7444, 158.8761
355.2265, 167.1245
355.7086, 177.5921
356.1907, 188.0770
356.6728, 196.5694
357.1549, 199.7234
357.6371, 195.4570
358.1192, 185.8775
358.6013, 177.4702
359.0834, 168.3176
359.5655, 164.0067
360.0476, 168.4543
360.5298, 175.2254
361.0119, 179.1341
361.4940, 179.1382
361.9761, 177.6887
362.4582, 177.0874
362.9403, 177.3155
363.4224, 178.9466
363.9045, 184.5871
364.3867, 188.4910
364.8688, 185.3248
365.3509, 178.0407
365.8330, 174.3377
366.3151, 181.0438
366.7972, 191.7446
367.2794, 193.8369
367.7615, 186.1171
368.2436, 179.5637
368.7257, 180.2605
369.2078, 184.7559
369.6899, 186.8146
370.1721, 184.9698
370.6542, 183.6179
371.1363, 186.6866
371.6184, 191.9133
372.1005, 193.8076
372.5826, 190.6945
373.0648, 185.5652
373.5469, 181.5516
374.0290, 178.6185
374.5111, 177.7233
374.9932, 180.7760
375.4753, 184.3581
375.9575, 186.2423
376.4396, 186.5314
376.9217, 186.1582
377.4038, 185.5260
377.8859, 184.9780
378.3680, 186.5097
378.8502, 195.2741
379.3323, 199.9315
379.8144, 196.7898
380.2965, 190.2750
380.7786, 183.5604
381.2607, 177.9908
381.7429, 175.5541
382.2250, 180.6983
382.7071, 196.3418
383.1892, 206.1742
383.6713, 205.0052
384.1534, 202.2423
384.6356, 200.9331
385.1177, 201.2146
385.5998, 202.5734
386.0819, 204.5066
386.5640, 207.4608
387.0461, 213.2931
387.5283, 223.0327
388.0104, 231.0191
388.4925, 233.1894
388.9746, 233.0502
389.4567, 234.5306
389.9388, 237.5745
390.4210, 243.7601
390.9031, 257.1930
391.3852, 274.3368
391.8673, 285.8064
392.3494, 288.8074
392.8315, 289.8869
393.3137, 296.3643
393.7958, 308.8054
394.2779, 318.8202
394.7600, 322.1321
395.2421, 326.4933
395.7242, 338.2562
396.2064, 355.4728
396.6885, 372.1393
397.1706, 385.0478
397.6527, 394.6550
398.1348, 402.1646
398.6169, 402.8188
399.0991, 407.9666
399.5812, 422.2403
400.0633, 438.2872
400.5454, 451.1795
401.0275, 459.4979
401.5096, 463.1227
401.9918, 459.9855
402.4739, 449.6886
402.9560, 445.9578
403.4381, 451.9928
403.9202, 461.0116
404.4023, 472.9866
404.8845, 485.3334
405.3666, 494.2960
405.8487, 498.5316
406.3308, 498.5097
406.8129, 494.3201
407.2950, 485.9811
407.7772, 475.9949
408.2593, 466.7945
408.7414, 454.1033
409.2235, 430.2743
409.7056, 394.7278
410.1877, 364.9760
410.6699, 351.4027
411.1520, 344.7106
411.6341, 333.4137
412.1162, 316.8007
412.5983, 300.5601
413.0804, 288.8664
413.5625, 281.0877
414.0446, 272.1328
414.5268, 259.8654
415.0089, 249.2030
415.4910, 240.6896
415.9731, 234.5546
416.4552, 232.1298
416.9373, 233.4267
417.4195, 235.0310
417.9016, 231.5274
418.3837, 220.4461
418.8658, 214.2927
419.3479, 217.6147
419.8300, 221.5594
420.3122, 223.5040
420.7943, 223.5767
421.2764, 222.4687
421.7585, 220.3209
422.2406, 217.6177
422.7227, 214.9211
423.2049, 211.9288
423.6870, 210.6910
424.1691, 211.6913
424.6512, 215.0147
425.1333, 222.3052
425.6154, 234.0294
426.0976, 241.7409
426.5797, 237.0951
427.0618, 227.3088
427.5439, 224.8784
428.0260, 231.1323
428.5081, 238.5769
428.9903, 242.2722
429.4724, 242.4012
429.9545, 241.1987
430.4366, 233.3325
430.9187, 230.4885
431.4008, 240.8474
431.8830, 256.5955
432.3651, 266.4373
432.8472, 267.1583
433.3293, 264.5475
433.8114, 266.5414
434.2935, 274.5318
434.7757, 281.4837
435.2578, 288.8420
435.7399, 293.6666
436.2220, 292.3590
436.7041, 287.9880
437.1862, 286.6497
437.6684, 292.0770
438.1505, 300.5534
438.6326, 304.7167
439.1147, 303.8669
439.5968, 304.0452
440.0789, 308.1769
440.5611, 312.6929
441.0432, 314.0189
441.5253, 312.1674
442.0074, 309.8936
442.4895, 310.0569
442.9716, 309.6548
443.4538, 303.0752
443.9359, 290.4410
444.4180, 279.1993
444.9001, 274.4716
445.3822, 274.6302
445.8643, 272.4212
446.3465, 266.8368
446.8286, 260.5990
447.3107, 253.3684
447.7928, 246.1440
448.2749, 239.1750
448.7570, 232.9152
449.2392, 229.5652
449.7213, 232.5915
450.2034, 242.5694
450.6855, 245.3828
451.1676, 235.0748
451.6497, 224.5691
452.1319, 215.6327
452.6140, 209.2320
453.0961, 206.8748
453.5782, 209.3134
454.0603, 214.1433
454.5424, 219.2021
455.0246, 224.4354
455.5067, 229.1534
455.9888, 234.1147
456.4709, 236.9936
456.9530, 233.3689
457.4352, 224.9924
457.9173, 220.0309
458.3994, 222.6698
458.8815, 227.1188
459.3636, 230.0077
459.8457, 231.2176
460.3279, 230.1852
460.8100, 226.3312
461.2921, 221.9322
461.7742, 221.8566
462.2563, 231.3066
462.7384, 233.7138
463.2205, 222.0589
463.7026, 210.0058
464.1848, 204.9195
464.6669, 206.4937
465.1490, 212.3945
465.6311, 222.5263
466.1132, 233.3297
466.5953, 232.3661
467.0775, 214.6115
467.5596, 200.7854
468.0417, 197.5092
468.5238, 199.5146
469.0059, 205.1334
469.4880, 213.8471
469.9702, 219.3122
470.4523, 214.8856
470.9344, 206.2263
471.4165, 203.9275
471.8986, 208.5606
472.3807, 211.6229
472.8629, 207.4265
473.3450, 198.1762
473.8271, 192.3016
474.3092, 191.5316
474.7913, 190.8518
475.2734, 188.7752
475.7556, 186.7285
476.2377, 186.8178
476.7198, 188.8950
477.2019, 190.3009
477.6840, 188.2928
478.1661, 183.1719
478.6483, 179.8095
479.1304, 177.5855
479.6125, 178.3343
480.0946, 186.0191
480.5767, 194.6709
481.0588, 197.4736
481.5410, 192.7959
482.0231, 186.4785
482.5052, 183.7924
482.9873, 183.6769
483.4694, 181.4953
483.9515, 175.9397
484.4337, 172.0547
484.9158, 174.4948
485.3979, 181.7575
485.8800, 186.3372
486.3621, 185.1572
486.8442, 184.9099
487.3264, 190.7041
487.8085, 198.0338
488.2906, 200.0384
488.7727, 195.2321
489.2548, 187.4792
489.7369, 180.3919
490.2191, 173.6020
490.7012, 171.9661
491.1833, 183.3874
491.6654, 191.2109
492.1475, 188.7348
492.6296, 181.5898
493.1118, 176.7779
493.5939, 176.4711
494.0760, 178.7789
494.5581, 183.3221
495.0402, 189.3719
495.5223, 190.7895
496.0045, 185.4914
496.4866, 178.9291
496.9687, 174.8162
497.4508, 172.8388
497.9329, 171.9425
498.4150, 174.2368
498.8972, 175.1804
499.3793, 169.8010
499.8614, 162.2654
500.3435, 160.3068
500.8256, 165.9202
501.3077, 174.5585
501.7899, 181.2003
502.2720, 185.7932
502.7541, 188.4295
503.2362, 188.8162
503.7183, 187.4567
504.2004, 182.0762
504.6826, 175.8867
505.1647, 173.3741
505.6468, 176.0908
506.1289, 180.8834
506.6110, 185.0757
507.0931, 188.5138
507.5753, 189.3326
508.0574, 186.2069
508.5395, 183.2058
509.0216, 183.5422
509.5037, 186.4896
509.9858, 189.6312
510.4680, 195.8760
510.9501, 198.5955
511.4322, 189.9477
511.9143, 177.2706
512.3964, 173.8453
512.8785, 182.4532
513.3607, 193.4127
513.8428, 195.8697
514.3249, 189.2927
514.8070, 183.6178
515.2891, 177.8449
515.7712, 174.3329
516.2534, 175.2355
516.7355, 177.8829
517.2176, 179.1112
517.6997, 178.0396
518.1818, 176.4178
518.6639, 175.9342
519.1461, 176.3526
519.6282, 176.5800
520.1103, 176.4217
520.5924, 176.5475
521.0745, 178.0365
521.5566, 180.0704
522.0388, 179.7968
522.5209, 175.0752
523.0030, 171.1731
523.4851, 170.3030
523.9672, 170.9269
524.4493, 170.8024
524.9315, 169.8340
525.4136, 170.2118
525.8957, 174.2049
526.3778, 181.3903
526.8599, 187.4040
527.3420, 193.1837
527.8242, 196.1292
528.3063, 194.6187
528.7884, 191.0914
529.2705, 187.2202
529.7526, 183.3586
530.2347, 180.1724
530.7169, 177.5689
531.1990, 176.0995
531.6811, 177.4139
532.1632, 181.5910
532.6453, 186.1836
533.1274, 190.6467
533.6096, 193.9805
534.0917, 193.0329
534.5738, 184.8757
535.0559, 178.9656
535.5380, 176.7077
536.0201, 176.6822
536.5022, 178.7954
536.9843, 182.2616
537.4664, 185.4037
537.9485, 187.2688
538.4307, 187.8791
538.9128, 186.6476
539.3949, 182.3944
539.8770, 181.1227
540.3591, 188.1936
540.8412, 194.5192
541.3234, 191.2719
541.8055, 180.3864
542.2876, 173.3484
542.7697, 178.5668
543.2518, 185.9081
543.7339, 184.6965
544.2161, 177.4900
544.6982, 173.4812
545.1803, 176.2187
545.6624, 180.5953
546.1445, 178.5938
546.6266, 167.1962
547.1088, 162.5359
547.5909, 169.3580
548.0730, 177.0187
548.5551, 183.3576
549.0372, 187.6465
549.5193, 188.8908
550.0015, 186.6828
550.4836, 183.1588
550.9657, 180.0919
551.4478, 177.6590
551.9299, 177.4961
552.4120, 180.5109
552.8942, 183.2510
553.3763, 182.9216
553.8584, 180.4789
554.3405, 179.6783
554.8226, 182.3729
555.3047, 183.8615
555.7869, 180.7861
556.2690, 176.8604
556.7511, 177.0571
557.2332, 181.2519
557.7153, 184.8141
558.1974, 183.8709
558.6796, 179.3995
559.1617, 176.3535
559.6438, 175.0482
560.1259, 174.4781
560.6080, 175.0322
561.0901, 175.8178
561.5723, 176.4897
562.0544, 176.9248
562.5365, 176.5483
563.0186, 174.8478
563.5007, 172.3611
563.9828, 168.0286
564.4650, 162.9971
564.9471, 163.5969
565.4292, 173.1935
565.9113, 184.6590
566.3934, 186.3689
566.8755, 174.7782
567.3577, 166.3706
567.8398, 161.5534
568.3219, 159.0260
568.8040, 159.1582
569.2861, 161.0088
569.7682, 163.4885
570.2504, 166.2178
570.7325, 168.9437
571.2146, 171.5338
571.6967, 173.8972
572.1788, 175.5242
572.6609, 176.2794
573.1431, 176.7031
573.6252, 177.2256
574.1073, 177.6478
574.5894, 177.3946
575.0715, 176.8265
575.5536, 175.0325
576.0358, 170.6019
576.5179, 165.6909
577.0000, 162.1602
577.4821, 160.1351
577.9642, 158.6017
578.4464, 156.5309
578.9285, 155.3112
579.4106, 160.2464
579.8927, 173.7871
580.3748, 183.0231
580.8569, 183.3194
581.3391, 180.8642
581.8212, 180.9442
582.3033, 182.8227
582.7854, 182.9709
583.2675, 177.4231
583.7496, 172.7187
584.2318, 175.9370
584.7139, 182.9360
585.1960, 184.1861
585.6781, 177.3799
586.1602, 169.2684
586.6423, 167.7532
587.1245, 172.9500
587.6066, 175.0037
588.0887, 170.0810
588.5708, 167.6055
589.0529, 172.7312
589.5350, 179.2220
590.0172, 179.9157
590.4993, 174.2129
590.9814, 170.0095
591.4635, 174.5420
591.9456, 182.4832
592.4277, 185.3320
592.9099, 183.3893
593.3920, 181.2756
593.8741, 180.9660
594.3562, 181.6846
594.8383, 182.2475
595.3204, 183.2492
595.8026, 182.1629
596.2847, 175.3212
596.7668, 170.5421
597.2489, 172.3108
597.7310, 177.8432
598.2131, 182.7381
598.6953, 185.5144
599.1774, 187.3885
599.6595, 190.1486
600.1416, 193.1620
600.6237, 193.4084
601.1058, 190.2912
601.5880, 187.1789
602.0701, 186.0565
602.5522, 186.4166
603.0343, 186.8026
603.5164, 187.4736
603.9985, 187.6831
604.4807, 187.4675
604.9628, 186.6705
605.4449, 184.2972
605.9270, 181.2760
606.4091, 179.9031
606.8912, 181.5502
607.3734, 184.7051
607.8555, 186.4211
608.3376, 186.7287
608.8197, 189.8768
609.3018, 198.5904
609.7839, 205.1941
610.2661, 201.7917
610.7482, 191.3052
611.2303, 186.1954
611.7124, 189.6501
612.1945, 194.4082
612.6766, 200.1786
613.1588, 205.0167
613.6409, 206.8710
614.1230, 205.7168
614.6051, 202.5019
615.0872, 197.5250
615.5693, 191.7705
616.0515, 187.7898
616.5336, 185.6705
617.0157, 184.8162
617.4978, 184.6736
617.9799, 186.3884
618.4620, 193.8415
618.9442, 204.6817
619.4263, 208.8831
619.9084, 197.8632
620.3905, 187.6416
620.8726, 186.9987
621.3547, 191.1952
621.8369, 194.0765
