##NAMES=Metazeunerite
##RRUFFID=R060301
##IDEAL CHEMISTRY=Cu^2+^(U^6+^O_2_)_2_(As^5+^O_4_)_2_&#183;8H_2_O
##LOCALITY=Joachimstal, Bohemia, Czech Republic
##OWNER=RRUFF
##SOURCE=University of Arizona Mineral Museum
##DESCRIPTION=Green blocky dipyramidal single crystals associated with yellow walpurgite, R050573
##STATUS=The identification of this mineral has been confirmed by single-crystal X-ray diffraction.
##URL=rruff.info/R060301
117.5675, 33.28000
118.0496, 33.31520
118.5317, 33.56163
119.0139, 33.73377
119.4960, 33.78077
119.9781, 33.79545
120.4602, 33.79906
120.9423, 33.78270
121.4244, 33.71631
121.9066, 33.56409
122.3887, 33.30962
122.8708, 33.21205
123.3529, 33.44319
123.8350, 33.64173
124.3171, 33.60825
124.7993, 33.35063
125.2814, 33.03611
125.7635, 32.82757
126.2456, 32.75264
126.7277, 32.67617
127.2098, 32.56115
127.6920, 32.45930
128.1741, 32.45121
128.6562, 32.57059
129.1383, 32.69655
129.6204, 32.63567
130.1025, 32.40982
130.5847, 32.23108
131.0668, 32.25143
131.5489, 32.40130
132.0310, 32.42669
132.5131, 32.19828
132.9952, 31.90743
133.4774, 31.69714
133.9595, 31.57220
134.4416, 31.53618
134.9237, 31.64211
135.4058, 31.92551
135.8879, 32.10731
136.3701, 32.01220
136.8522, 31.87690
137.3343, 31.86351
137.8164, 32.00733
138.2985, 32.18121
138.7806, 32.14381
139.2628, 31.69104
139.7449, 31.40145
140.2270, 31.47755
140.7091, 31.64495
141.1912, 31.60641
141.6733, 31.22935
142.1555, 30.66930
142.6376, 30.46862
143.1197, 31.05119
143.6018, 31.54599
144.0839, 31.92514
144.5660, 32.15110
145.0482, 32.14735
145.5303, 31.84205
146.0124, 31.28953
146.4945, 30.89745
146.9766, 30.70708
147.4587, 30.59481
147.9409, 30.52558
148.4230, 30.49558
148.9051, 30.49994
149.3872, 30.54682
149.8693, 30.62910
150.3514, 30.69360
150.8336, 30.75344
151.3157, 30.78684
151.7978, 30.76029
152.2799, 30.66495
152.7620, 30.56851
153.2441, 30.57487
153.7263, 30.61481
154.2084, 30.55544
154.6905, 30.23311
155.1726, 29.79876
155.6547, 29.60138
156.1368, 29.73687
156.6190, 29.95326
157.1011, 30.21535
157.5832, 30.45075
158.0653, 30.50578
158.5474, 30.18362
159.0295, 29.52653
159.5117, 29.10473
159.9938, 29.13094
160.4759, 29.20331
160.9580, 29.14603
161.4401, 29.00465
161.9222, 28.93141
162.4044, 29.11486
162.8865, 29.65262
163.3686, 29.86255
163.8507, 29.34869
164.3328, 28.87095
164.8149, 28.81907
165.2971, 29.17470
165.7792, 29.63808
166.2613, 29.85886
166.7434, 29.73078
167.2255, 29.64279
167.7076, 29.63975
168.1898, 29.64052
168.6719, 29.54946
169.1540, 29.35928
169.6361, 29.19499
170.1182, 29.25532
170.6003, 29.70074
171.0825, 29.95789
171.5646, 29.82855
172.0467, 29.56500
172.5288, 29.50424
173.0109, 29.76768
173.4930, 30.09210
173.9752, 29.95400
174.4573, 29.28291
174.9394, 28.77276
175.4215, 28.75811
175.9036, 29.04753
176.3857, 29.21205
176.8679, 29.11059
177.3500, 28.86738
177.8321, 28.61896
178.3142, 28.34927
178.7963, 28.18323
179.2784, 28.25510
179.7606, 28.53379
180.2427, 28.75600
180.7248, 28.79087
181.2069, 28.79834
181.6890, 28.94137
182.1711, 29.23782
182.6533, 29.53436
183.1354, 29.68358
183.6175, 29.67260
184.0996, 29.61676
184.5817, 29.47810
185.0638, 29.33976
185.5460, 29.25994
186.0281, 29.24973
186.5102, 29.26320
186.9923, 29.23927
187.4744, 29.17266
187.9565, 29.07876
188.4387, 28.89916
188.9208, 28.73203
189.4029, 28.66946
189.8850, 28.73424
190.3671, 28.85153
190.8492, 28.86345
191.3314, 28.59731
191.8135, 28.51926
192.2956, 28.89358
192.7777, 29.32888
193.2598, 29.41955
193.7419, 29.01548
194.2241, 28.35317
194.7062, 28.00336
195.1883, 28.42168
195.6704, 28.64304
196.1525, 28.45401
196.6346, 28.11972
197.1168, 27.96992
197.5989, 28.15305
198.0810, 28.54363
198.5631, 28.78040
199.0452, 28.83743
199.5273, 28.79210
200.0095, 28.57581
200.4916, 28.27453
200.9737, 28.01771
201.4558, 27.85532
201.9379, 27.78655
202.4200, 27.82915
202.9022, 28.08604
203.3843, 28.25800
203.8664, 28.15735
204.3485, 27.87847
204.8306, 27.68238
205.3127, 27.68792
205.7949, 27.84086
206.2770, 28.02070
206.7591, 28.27875
207.2412, 28.45959
207.7233, 28.45463
208.2054, 28.28317
208.6876, 28.04548
209.1697, 27.68591
209.6518, 27.36157
210.1339, 27.30511
210.6160, 27.59665
211.0981, 27.95127
211.5803, 28.16186
212.0624, 28.22829
212.5445, 28.20642
213.0266, 28.02291
213.5087, 27.81446
213.9908, 27.72233
214.4730, 27.78209
214.9551, 27.87800
215.4372, 27.87289
215.9193, 27.74644
216.4014, 27.64595
216.8836, 27.62802
217.3657, 27.64426
217.8478, 27.67921
218.3299, 27.73004
218.8120, 27.76583
219.2941, 27.73464
219.7763, 27.61176
220.2584, 27.50263
220.7405, 27.38371
221.2226, 27.30851
221.7047, 27.34149
222.1868, 27.49521
222.6690, 27.68883
223.1511, 27.78227
223.6332, 27.70215
224.1153, 27.69149
224.5974, 27.83864
225.0795, 28.01120
225.5617, 28.10201
226.0438, 28.08506
226.5259, 28.02690
227.0080, 28.05633
227.4901, 28.29334
227.9722, 28.39073
228.4544, 28.23623
228.9365, 28.02101
229.4186, 27.90621
229.9007, 27.93215
230.3828, 28.00942
230.8649, 27.97207
231.3471, 27.62779
231.8292, 27.48920
232.3113, 27.79807
232.7934, 28.15461
233.2755, 28.18640
233.7576, 27.80482
234.2398, 27.24459
234.7219, 26.89040
235.2040, 26.79965
235.6861, 26.85937
236.1682, 27.23823
236.6503, 27.67335
237.1325, 27.90157
237.6146, 27.85809
238.0967, 27.70545
238.5788, 27.69077
239.0609, 27.91998
239.5430, 28.03998
240.0252, 27.96367
240.5073, 27.81005
240.9894, 27.70669
241.4715, 27.68328
241.9536, 27.66317
242.4357, 27.52784
242.9179, 27.23754
243.4000, 27.01329
243.8821, 26.85917
244.3642, 26.78943
244.8463, 26.87416
245.3284, 27.13728
245.8106, 27.38733
246.2927, 27.34583
246.7748, 26.99689
247.2569, 26.78264
247.7390, 26.88344
248.2211, 27.10233
248.7033, 27.21871
249.1854, 27.20008
249.6675, 27.07639
250.1496, 26.78232
250.6317, 26.35648
251.1138, 26.12087
251.5960, 26.28780
252.0781, 26.61874
252.5602, 26.79579
253.0423, 26.77000
253.5244, 26.70635
254.0065, 26.75278
254.4887, 26.87460
254.9708, 26.98120
255.4529, 27.07871
255.9350, 27.13693
256.4171, 27.09225
256.8992, 26.92242
257.3813, 26.74423
257.8635, 26.63917
258.3456, 26.58270
258.8277, 26.54104
259.3098, 26.51477
259.7919, 26.49275
260.2740, 26.46087
260.7562, 26.41953
261.2383, 26.36610
261.7204, 26.25181
262.2025, 26.13574
262.6846, 26.10693
263.1667, 26.23516
263.6489, 26.40720
264.1310, 26.46932
264.6131, 26.41211
265.0952, 26.28493
265.5773, 25.95328
266.0594, 25.62577
266.5416, 25.53634
267.0237, 25.79242
267.5058, 26.18494
267.9879, 26.47667
268.4700, 26.68247
268.9521, 26.71306
269.4343, 26.31235
269.9164, 25.83779
270.3985, 25.57924
270.8806, 25.61648
271.3627, 25.76741
271.8448, 25.81766
272.3270, 25.75349
272.8091, 25.66057
273.2912, 25.45894
273.7733, 25.29860
274.2554, 25.33625
274.7375, 25.58735
275.2197, 25.82420
275.7018, 25.75107
276.1839, 25.30901
276.6660, 24.94217
277.1481, 24.55787
277.6302, 24.39216
278.1124, 24.76528
278.5945, 25.60852
279.0766, 26.38911
279.5587, 26.48185
280.0408, 25.78536
280.5229, 25.32773
281.0051, 25.42411
281.4872, 25.54403
281.9693, 25.42224
282.4514, 25.11045
282.9335, 24.84149
283.4156, 24.84528
283.8978, 25.12949
284.3799, 25.32384
284.8620, 25.40924
285.3441, 25.41017
285.8262, 25.30670
286.3083, 25.12536
286.7905, 24.90755
287.2726, 24.65901
287.7547, 24.39530
288.2368, 24.27839
288.7189, 24.41037
289.2010, 24.58232
289.6832, 24.80937
290.1653, 25.02363
290.6474, 25.11790
291.1295, 25.01427
291.6116, 24.77144
292.0938, 24.62212
292.5759, 24.56040
293.0580, 24.62148
293.5401, 24.90889
294.0222, 25.27228
294.5043, 25.55791
294.9865, 25.69895
295.4686, 25.70965
295.9507, 25.61423
296.4328, 25.35536
296.9149, 25.08547
297.3970, 24.68358
297.8792, 24.35594
298.3613, 24.36407
298.8434, 24.76416
299.3255, 25.27448
299.8076, 25.39640
300.2897, 24.89133
300.7719, 24.53118
301.2540, 24.44136
301.7361, 24.41880
302.2182, 24.32093
302.7003, 24.13330
303.1824, 23.95082
303.6646, 23.89221
304.1467, 23.98992
304.6288, 24.09842
305.1109, 24.27145
305.5930, 24.40911
306.0751, 24.47779
306.5573, 24.46890
307.0394, 24.37157
307.5215, 24.14903
308.0036, 23.78186
308.4857, 23.56101
308.9678, 23.60171
309.4500, 23.68240
309.9321, 23.78647
310.4142, 23.88204
310.8963, 23.90945
311.3784, 23.81140
311.8605, 23.61880
312.3427, 23.58134
312.8248, 23.95020
313.3069, 24.18200
313.7890, 24.06793
314.2711, 23.79542
314.7532, 23.62015
315.2354, 23.67306
315.7175, 23.86353
316.1996, 23.92924
316.6817, 23.79165
317.1638, 23.64426
317.6459, 23.49061
318.1281, 23.34795
318.6102, 23.19405
319.0923, 23.03215
319.5744, 22.95232
320.0565, 23.14210
320.5386, 23.79435
321.0208, 24.26804
321.5029, 24.53755
321.9850, 24.65275
322.4671, 24.59672
322.9492, 24.39419
323.4313, 24.13914
323.9135, 23.91920
324.3956, 23.72738
324.8777, 23.61148
325.3598, 23.69083
325.8419, 23.73523
326.3240, 23.62120
326.8062, 23.38960
327.2883, 23.16983
327.7704, 23.06849
328.2525, 23.07691
328.7346, 23.03221
329.2167, 22.83517
329.6989, 22.69856
330.1810, 22.72485
330.6631, 22.83196
331.1452, 22.88586
331.6273, 22.80582
332.1094, 22.65551
332.5916, 22.64371
333.0737, 22.88106
333.5558, 23.07095
334.0379, 23.15198
334.5200, 23.17575
335.0021, 23.16695
335.4843, 23.13703
335.9664, 23.13114
336.4485, 23.24731
336.9306, 23.56258
337.4127, 23.76817
337.8948, 23.78211
338.3770, 23.72385
338.8591, 23.63033
339.3412, 23.52059
339.8233, 23.43254
340.3055, 23.41445
340.7876, 23.47511
341.2697, 23.52126
341.7518, 23.66669
342.2339, 23.67315
342.7160, 23.28597
343.1982, 22.67666
343.6803, 22.25872
344.1624, 22.38016
344.6445, 22.90683
345.1266, 23.14711
345.6087, 22.91319
346.0909, 22.68863
346.5730, 22.61019
347.0551, 22.63916
347.5372, 22.75557
348.0193, 22.97603
348.5014, 23.19767
348.9836, 23.21712
349.4657, 22.97807
349.9478, 22.72468
350.4299, 22.42514
350.9120, 22.19349
351.3941, 22.16636
351.8763, 22.36291
352.3584, 22.58680
352.8405, 22.61407
353.3226, 22.43799
353.8047, 22.31304
354.2868, 22.28768
354.7690, 22.30924
355.2511, 22.34122
355.7332, 22.38654
356.2153, 22.46240
356.6974, 22.61167
357.1795, 22.80575
357.6617, 22.92129
358.1438, 22.91581
358.6259, 22.91618
359.1080, 23.06067
359.5901, 23.24707
360.0722, 23.29578
360.5544, 23.08224
361.0365, 22.77397
361.5186, 22.60088
362.0007, 22.57508
362.4828, 22.60149
362.9649, 22.69457
363.4471, 22.79063
363.9292, 22.79758
364.4113, 22.68086
364.8934, 22.58980
365.3755, 22.70776
365.8576, 22.97970
366.3398, 23.09277
366.8219, 22.93719
367.3040, 22.65283
367.7861, 22.31115
368.2682, 21.92618
368.7503, 21.72997
369.2325, 21.98726
369.7146, 22.44140
370.1967, 22.64645
370.6788, 22.54505
371.1609, 22.30786
371.6430, 21.93728
372.1252, 21.52752
372.6073, 21.40077
373.0894, 21.87376
373.5715, 22.42608
374.0536, 22.64617
374.5357, 22.57175
375.0179, 22.40621
375.5000, 22.18933
375.9821, 21.99778
376.4642, 22.02739
376.9463, 22.38870
377.4284, 22.68503
377.9106, 22.71028
378.3927, 22.58770
378.8748, 22.54827
379.3569, 22.66308
379.8390, 22.78904
380.3211, 22.70702
380.8033, 22.35376
381.2854, 22.17957
381.7675, 22.40000
382.2496, 22.67970
382.7317, 22.72511
383.2138, 22.54220
383.6960, 22.35397
384.1781, 22.32870
384.6602, 22.45461
385.1423, 22.54832
385.6244, 22.61156
386.1065, 22.64772
386.5887, 22.62282
387.0708, 22.57737
387.5529, 22.60028
388.0350, 22.73526
388.5171, 22.90205
388.9992, 22.92435
389.4814, 22.71053
389.9635, 22.47744
390.4456, 22.10798
390.9277, 21.79607
391.4098, 21.77246
391.8919, 22.02444
392.3741, 22.27747
392.8562, 22.21840
393.3383, 21.77570
393.8204, 21.57376
394.3025, 21.77627
394.7846, 22.03089
395.2668, 22.32909
395.7489, 22.58069
396.2310, 22.60227
396.7131, 22.25838
397.1952, 21.71354
397.6773, 21.55982
398.1595, 22.10199
398.6416, 22.54341
399.1237, 22.73155
399.6058, 22.81899
400.0879, 22.96952
400.5700, 23.20811
401.0522, 23.38444
401.5343, 23.26293
402.0164, 22.77032
402.4985, 22.41834
402.9806, 22.28419
403.4627, 22.24873
403.9449, 22.35328
404.4270, 22.52165
404.9091, 22.56881
405.3912, 22.31449
405.8733, 21.88854
406.3554, 21.72722
406.8376, 21.94428
407.3197, 22.14012
407.8018, 22.13620
408.2839, 22.03984
408.7660, 21.93215
409.2481, 21.81837
409.7303, 21.76505
410.2124, 21.91070
410.6945, 22.23348
411.1766, 22.37687
411.6587, 22.16270
412.1408, 21.87747
412.6230, 21.82351
413.1051, 21.96615
413.5872, 22.04679
414.0693, 21.89766
414.5514, 21.64184
415.0335, 21.45919
415.5157, 21.35861
415.9978, 21.34543
416.4799, 21.46728
416.9620, 21.67596
417.4441, 21.81513
417.9262, 21.83657
418.4084, 21.84453
418.8905, 21.92575
419.3726, 22.04022
419.8547, 22.06531
420.3368, 21.94141
420.8189, 21.77240
421.3011, 21.73617
421.7832, 21.86980
422.2653, 21.96992
422.7474, 22.00613
423.2295, 22.00641
423.7116, 21.96980
424.1938, 21.90957
424.6759, 21.88742
425.1580, 21.95996
425.6401, 22.11979
426.1222, 22.23053
426.6043, 22.23716
427.0865, 22.26634
427.5686, 22.45456
428.0507, 22.65132
428.5328, 22.60801
429.0149, 22.23462
429.4970, 21.71813
429.9792, 21.37410
430.4613, 21.20729
430.9434, 21.22139
431.4255, 21.61311
431.9076, 21.98174
432.3897, 22.03301
432.8719, 21.83819
433.3540, 21.71207
433.8361, 21.94321
434.3182, 22.44940
434.8003, 22.60942
435.2824, 22.13828
435.7646, 21.74928
436.2467, 21.61028
436.7288, 21.63654
437.2109, 21.79523
437.6930, 22.07908
438.1751, 22.31866
438.6573, 22.22659
439.1394, 21.76581
439.6215, 21.50245
440.1036, 21.61817
440.5857, 21.83891
441.0678, 22.04065
441.5500, 22.20135
442.0321, 22.25595
442.5142, 22.06672
442.9963, 21.79239
443.4784, 21.76513
443.9605, 22.02255
444.4427, 22.23444
444.9248, 22.22264
445.4069, 22.06565
445.8890, 21.89132
446.3711, 21.66733
446.8532, 21.52961
447.3354, 21.62568
447.8175, 21.85436
448.2996, 21.98196
448.7817, 21.94605
449.2638, 21.87472
449.7459, 21.91979
450.2281, 22.09046
450.7102, 22.17363
451.1923, 22.07072
451.6744, 21.95886
452.1565, 21.96836
452.6386, 22.06560
453.1208, 22.13209
453.6029, 22.10294
454.0850, 22.01488
454.5671, 21.96961
455.0492, 21.98792
455.5313, 22.02491
456.0135, 22.10773
456.4956, 22.19052
456.9777, 22.24243
457.4598, 22.25638
457.9419, 22.22996
458.4240, 22.14399
458.9062, 21.99626
459.3883, 21.97639
459.8704, 22.29218
460.3525, 22.50267
460.8346, 22.40954
461.3167, 22.19550
461.7989, 22.13592
462.2810, 22.33948
462.7631, 22.57432
463.2452, 22.40430
463.7273, 21.71841
464.2094, 21.28889
464.6916, 21.32424
465.1737, 21.55152
465.6558, 21.97048
466.1379, 22.47355
466.6200, 22.72479
467.1021, 22.35217
467.5843, 21.69271
468.0664, 21.47346
468.5485, 21.75791
469.0306, 22.01596
469.5127, 21.98628
469.9948, 21.80289
470.4770, 21.67099
470.9591, 21.59388
471.4412, 21.58220
471.9233, 21.68687
472.4054, 21.84976
472.8875, 21.98694
473.3697, 22.08806
473.8518, 22.08831
474.3339, 21.88435
474.8160, 21.48200
475.2981, 21.24607
475.7802, 21.22438
476.2624, 21.31318
476.7445, 21.58413
477.2266, 21.91411
477.7087, 22.05751
478.1908, 21.91583
478.6729, 21.62434
479.1551, 21.41688
479.6372, 21.27407
480.1193, 21.27634
480.6014, 21.59217
481.0835, 21.88229
481.5656, 21.94750
482.0478, 21.82048
482.5299, 21.63670
483.0120, 21.48280
483.4941, 21.34496
483.9762, 21.15958
484.4583, 20.84099
484.9405, 20.65588
485.4226, 20.77512
485.9047, 20.95539
486.3868, 20.98083
486.8689, 20.83667
487.3510, 20.71386
487.8332, 20.82341
488.3153, 21.10465
488.7974, 21.24356
489.2795, 21.17148
489.7616, 21.09856
490.2437, 21.20718
490.7259, 21.38520
491.2080, 21.45022
491.6901, 21.31995
492.1722, 21.17054
492.6543, 21.11743
493.1364, 21.14572
493.6186, 21.23005
494.1007, 21.37903
494.5828, 21.52011
495.0649, 21.56950
495.5470, 21.51815
496.0291, 21.44377
496.5113, 21.37104
496.9934, 21.25492
497.4755, 20.97956
497.9576, 20.64060
498.4397, 20.49869
498.9218, 20.69065
499.4040, 21.03890
499.8861, 21.13453
500.3682, 20.74707
500.8503, 20.52793
501.3324, 20.54903
501.8145, 20.65489
502.2967, 20.80799
502.7788, 20.96533
503.2609, 21.03804
503.7430, 20.94137
504.2251, 20.74020
504.7072, 20.70423
505.1894, 20.92474
505.6715, 21.10128
506.1536, 21.16729
506.6357, 21.15429
507.1178, 21.05164
507.5999, 20.86657
508.0821, 20.69607
508.5642, 20.60279
509.0463, 20.57950
509.5284, 20.63041
510.0105, 20.78248
510.4926, 20.88677
510.9748, 20.79968
511.4569, 20.61236
511.9390, 20.55504
512.4211, 20.75068
512.9032, 20.87281
513.3853, 20.62306
513.8674, 20.22985
514.3495, 20.14273
514.8317, 20.46026
515.3138, 20.83950
515.7959, 20.92173
516.2780, 20.68009
516.7601, 20.53852
517.2422, 20.63681
517.7244, 20.66128
518.2065, 20.42036
518.6886, 20.06841
519.1707, 19.81489
519.6528, 19.73743
520.1349, 19.79846
520.6171, 19.98587
521.0992, 20.38053
521.5813, 20.57156
522.0634, 20.38108
522.5455, 20.15278
523.0276, 19.98772
523.5098, 19.87708
523.9919, 19.78073
524.4740, 19.66669
524.9561, 19.59833
525.4382, 19.72829
525.9203, 20.06168
526.4025, 20.23482
526.8846, 20.08035
527.3667, 19.84806
527.8488, 19.76539
528.3309, 19.81684
528.8130, 19.91955
529.2952, 20.10015
529.7773, 20.28276
530.2594, 20.45257
530.7415, 20.57821
531.2236, 20.48658
531.7057, 20.05125
532.1879, 19.50534
532.6700, 19.31524
533.1521, 19.71856
533.6342, 19.94300
534.1163, 19.78672
534.5984, 19.60810
535.0806, 19.66750
535.5627, 19.91382
536.0448, 20.15114
536.5269, 20.26060
537.0090, 20.26608
537.4911, 20.22134
537.9733, 20.05403
538.4554, 19.99821
538.9375, 20.22545
539.4196, 20.44812
539.9017, 20.46514
540.3839, 20.30100
540.8660, 20.13033
541.3481, 20.06328
541.8302, 20.06616
542.3123, 20.05371
542.7944, 20.01730
543.2766, 20.05150
543.7587, 20.26656
544.2408, 20.50952
544.7229, 20.53285
545.2050, 20.30593
545.6871, 20.14564
546.1693, 20.24340
546.6514, 20.41039
547.1335, 20.44137
547.6156, 20.33293
548.0977, 20.16084
548.5798, 19.94528
549.0620, 19.74035
549.5441, 19.72959
550.0262, 20.18336
550.5083, 20.47323
550.9904, 20.54480
551.4725, 20.49069
551.9547, 20.30349
552.4368, 20.04315
552.9189, 19.86003
553.4010, 19.87104
553.8831, 20.04198
554.3652, 20.27526
554.8474, 20.68043
555.3295, 20.86791
555.8116, 20.52802
556.2937, 20.07662
556.7758, 19.79691
557.2579, 19.70730
557.7401, 19.67138
558.2222, 19.56634
558.7043, 19.48106
559.1864, 19.63480
559.6685, 20.03325
560.1506, 20.33871
560.6328, 20.38066
561.1149, 20.23437
561.5970, 20.00875
562.0791, 19.60138
562.5612, 19.44338
563.0433, 19.81946
563.5255, 20.32123
564.0076, 20.66817
564.4897, 20.82256
564.9718, 20.79545
565.4539, 20.57708
565.9360, 20.23716
566.4182, 20.01198
566.9003, 19.93787
567.3824, 19.91315
567.8645, 19.99020
568.3466, 20.05816
568.8287, 20.03406
569.3109, 19.93368
569.7930, 19.83204
570.2751, 19.76866
570.7572, 19.73991
571.2393, 19.75550
571.7214, 19.82236
572.2036, 19.84594
572.6857, 19.77123
573.1678, 19.66730
573.6499, 19.58690
574.1320, 19.52906
574.6141, 19.58126
575.0963, 19.89685
575.5784, 20.22913
576.0605, 20.37032
576.5426, 20.34142
577.0247, 20.22066
577.5068, 20.03230
577.9890, 19.84309
578.4711, 19.78589
578.9532, 19.93780
579.4353, 20.02753
579.9174, 20.07710
580.3995, 20.05215
580.8817, 19.82127
581.3638, 19.52325
581.8459, 19.45281
582.3280, 19.77028
582.8101, 20.19744
583.2922, 20.21157
583.7744, 19.76854
584.2565, 19.59269
584.7386, 19.99750
585.2207, 20.37158
585.7029, 20.16236
586.1850, 19.59116
586.6671, 19.22704
587.1492, 19.29580
587.6313, 19.48627
588.1135, 19.60125
588.5956, 19.66271
589.0777, 19.72636
589.5598, 19.80678
590.0419, 19.86610
590.5240, 19.84913
591.0062, 19.74821
591.4883, 19.75342
591.9704, 20.00810
592.4525, 20.18266
592.9346, 20.17242
593.4167, 20.05121
593.8989, 19.86392
594.3810, 19.64269
594.8631, 19.47571
595.3452, 19.47300
595.8273, 19.61994
596.3094, 19.75039
596.7916, 19.87344
597.2737, 19.96091
597.7558, 20.02634
598.2379, 20.03513
598.7200, 19.89671
599.2021, 19.57550
599.6843, 19.36158
600.1664, 19.52354
600.6485, 19.82080
601.1306, 19.88439
601.6127, 19.71029
602.0948, 19.54657
602.5770, 19.54110
603.0591, 19.63305
603.5412, 19.65297
604.0233, 19.50202
604.5054, 19.44267
604.9875, 19.50280
605.4697, 19.62820
605.9518, 19.87782
606.4339, 20.16193
606.9160, 20.25552
607.3981, 20.01010
607.8802, 19.61708
608.3624, 19.47894
608.8445, 19.63672
609.3266, 19.72063
609.8087, 19.60256
610.2908, 19.49122
610.7729, 19.59363
611.2551, 19.82951
611.7372, 19.95605
612.2193, 19.86378
612.7014, 19.70453
613.1835, 19.53248
