##NAMES=Metaborite
##RRUFFID=R130694
##IDEAL CHEMISTRY=HBO_2_
##LOCALITY=Chelkar salt dome, Aksai Valley, Aktobe Province, Kazakhstan
##OWNER=RRUFF
##SOURCE=Rock Currier
##DESCRIPTION=Colorless fragment
##STATUS=The identification of this mineral has been confirmed by single-crystal X-ray diffraction.
##URL=rruff.info/R130694
8.813672e+001, 2.002077e+002
8.861884e+001, 2.017534e+002
8.910095e+001, 2.038895e+002
8.958307e+001, 2.077691e+002
9.006519e+001, 2.128119e+002
9.054730e+001, 2.180836e+002
9.102942e+001, 2.243372e+002
9.151154e+001, 2.293027e+002
9.199365e+001, 2.293000e+002
9.247577e+001, 2.252251e+002
9.295789e+001, 2.215160e+002
9.344000e+001, 2.222387e+002
9.392212e+001, 2.256829e+002
9.440424e+001, 2.272662e+002
9.488635e+001, 2.258396e+002
9.536847e+001, 2.228930e+002
9.585059e+001, 2.213640e+002
9.633270e+001, 2.212286e+002
9.681482e+001, 2.220347e+002
9.729694e+001, 2.234026e+002
9.777905e+001, 2.253245e+002
9.826117e+001, 2.279753e+002
9.874329e+001, 2.318579e+002
9.922540e+001, 2.366216e+002
9.970752e+001, 2.396399e+002
1.001896e+002, 2.405247e+002
1.006718e+002, 2.404536e+002
1.011539e+002, 2.406594e+002
1.016360e+002, 2.409689e+002
1.021181e+002, 2.421479e+002
1.026002e+002, 2.444878e+002
1.030823e+002, 2.480793e+002
1.035645e+002, 2.520950e+002
1.040466e+002, 2.563246e+002
1.045287e+002, 2.611160e+002
1.050108e+002, 2.674154e+002
1.054929e+002, 2.762859e+002
1.059750e+002, 2.850805e+002
1.064572e+002, 2.930193e+002
1.069393e+002, 3.017169e+002
1.074214e+002, 3.067072e+002
1.079035e+002, 3.059596e+002
1.083856e+002, 3.012838e+002
1.088677e+002, 2.990341e+002
1.093499e+002, 3.008347e+002
1.098320e+002, 3.038245e+002
1.103141e+002, 3.067770e+002
1.107962e+002, 3.092911e+002
1.112783e+002, 3.122561e+002
1.117604e+002, 3.158238e+002
1.122426e+002, 3.199808e+002
1.127247e+002, 3.243902e+002
1.132068e+002, 3.286543e+002
1.136889e+002, 3.333541e+002
1.141710e+002, 3.388500e+002
1.146531e+002, 3.473190e+002
1.151353e+002, 3.545921e+002
1.156174e+002, 3.590420e+002
1.160995e+002, 3.606293e+002
1.165816e+002, 3.622216e+002
1.170637e+002, 3.652749e+002
1.175458e+002, 3.687419e+002
1.180280e+002, 3.715228e+002
1.185101e+002, 3.725332e+002
1.189922e+002, 3.731628e+002
1.194743e+002, 3.739129e+002
1.199564e+002, 3.747338e+002
1.204385e+002, 3.764804e+002
1.209207e+002, 3.795843e+002
1.214028e+002, 3.839931e+002
1.218849e+002, 3.895823e+002
1.223670e+002, 3.991339e+002
1.228491e+002, 4.086435e+002
1.233312e+002, 4.133195e+002
1.238134e+002, 4.118301e+002
1.242955e+002, 4.085894e+002
1.247776e+002, 4.071059e+002
1.252597e+002, 4.071698e+002
1.257418e+002, 4.080487e+002
1.262239e+002, 4.091128e+002
1.267061e+002, 4.107504e+002
1.271882e+002, 4.138337e+002
1.276703e+002, 4.189394e+002
1.281524e+002, 4.247526e+002
1.286345e+002, 4.292474e+002
1.291166e+002, 4.325459e+002
1.295988e+002, 4.359728e+002
1.300809e+002, 4.410943e+002
1.305630e+002, 4.473510e+002
1.310451e+002, 4.523292e+002
1.315272e+002, 4.551878e+002
1.320093e+002, 4.566709e+002
1.324915e+002, 4.583517e+002
1.329736e+002, 4.602100e+002
1.334557e+002, 4.624205e+002
1.339378e+002, 4.650783e+002
1.344199e+002, 4.681873e+002
1.349020e+002, 4.717729e+002
1.353842e+002, 4.759125e+002
1.358663e+002, 4.804864e+002
1.363484e+002, 4.852157e+002
1.368305e+002, 4.899616e+002
1.373126e+002, 4.952348e+002
1.377947e+002, 5.020815e+002
1.382769e+002, 5.111146e+002
1.387590e+002, 5.186443e+002
1.392411e+002, 5.233738e+002
1.397232e+002, 5.253007e+002
1.402053e+002, 5.267016e+002
1.406874e+002, 5.272401e+002
1.411696e+002, 5.277462e+002
1.416517e+002, 5.291885e+002
1.421338e+002, 5.314450e+002
1.426159e+002, 5.350131e+002
1.430980e+002, 5.401230e+002
1.435801e+002, 5.468480e+002
1.440623e+002, 5.547347e+002
1.445444e+002, 5.635163e+002
1.450265e+002, 5.736562e+002
1.455086e+002, 5.856239e+002
1.459907e+002, 5.991150e+002
1.464728e+002, 6.149959e+002
1.469550e+002, 6.336979e+002
1.474371e+002, 6.550916e+002
1.479192e+002, 6.797503e+002
1.484013e+002, 7.146318e+002
1.488834e+002, 7.519660e+002
1.493655e+002, 7.752484e+002
1.498477e+002, 7.882894e+002
1.503298e+002, 7.837097e+002
1.508119e+002, 7.573913e+002
1.512940e+002, 6.873849e+002
1.517761e+002, 6.279630e+002
1.522583e+002, 5.817880e+002
1.527404e+002, 5.478107e+002
1.532225e+002, 5.231248e+002
1.537046e+002, 5.137872e+002
1.541867e+002, 5.095033e+002
1.546688e+002, 5.056444e+002
1.551510e+002, 5.012321e+002
1.556331e+002, 4.977196e+002
1.561152e+002, 4.953276e+002
1.565973e+002, 4.940133e+002
1.570794e+002, 4.936814e+002
1.575615e+002, 4.948838e+002
1.580437e+002, 4.967147e+002
1.585258e+002, 4.986298e+002
1.590079e+002, 5.017620e+002
1.594900e+002, 5.036706e+002
1.599721e+002, 5.030577e+002
1.604542e+002, 5.003266e+002
1.609364e+002, 4.978129e+002
1.614185e+002, 4.962857e+002
1.619006e+002, 4.953555e+002
1.623827e+002, 4.947082e+002
1.628648e+002, 4.946918e+002
1.633469e+002, 4.945491e+002
1.638291e+002, 4.939257e+002
1.643112e+002, 4.928506e+002
1.647933e+002, 4.915889e+002
1.652754e+002, 4.897914e+002
1.657575e+002, 4.880384e+002
1.662396e+002, 4.869403e+002
1.667218e+002, 4.876380e+002
1.672039e+002, 4.883653e+002
1.676860e+002, 4.880049e+002
1.681681e+002, 4.865620e+002
1.686502e+002, 4.846086e+002
1.691323e+002, 4.820545e+002
1.696145e+002, 4.793201e+002
1.700966e+002, 4.769946e+002
1.705787e+002, 4.756115e+002
1.710608e+002, 4.745606e+002
1.715429e+002, 4.732086e+002
1.720250e+002, 4.715107e+002
1.725072e+002, 4.701017e+002
1.729893e+002, 4.693827e+002
1.734714e+002, 4.692710e+002
1.739535e+002, 4.696122e+002
1.744356e+002, 4.705619e+002
1.749177e+002, 4.718287e+002
1.753999e+002, 4.730726e+002
1.758820e+002, 4.742804e+002
1.763641e+002, 4.755679e+002
1.768462e+002, 4.775116e+002
1.773283e+002, 4.797018e+002
1.778104e+002, 4.810909e+002
1.782926e+002, 4.807889e+002
1.787747e+002, 4.794536e+002
1.792568e+002, 4.781892e+002
1.797389e+002, 4.771014e+002
1.802210e+002, 4.757426e+002
1.807031e+002, 4.731593e+002
1.811853e+002, 4.697396e+002
1.816674e+002, 4.669862e+002
1.821495e+002, 4.660289e+002
1.826316e+002, 4.662798e+002
1.831137e+002, 4.663537e+002
1.835958e+002, 4.661227e+002
1.840780e+002, 4.659567e+002
1.845601e+002, 4.665534e+002
1.850422e+002, 4.677806e+002
1.855243e+002, 4.687882e+002
1.860064e+002, 4.689941e+002
1.864885e+002, 4.686009e+002
1.869707e+002, 4.682747e+002
1.874528e+002, 4.680455e+002
1.879349e+002, 4.679329e+002
1.884170e+002, 4.680395e+002
1.888991e+002, 4.683500e+002
1.893812e+002, 4.685923e+002
1.898634e+002, 4.684776e+002
1.903455e+002, 4.681001e+002
1.908276e+002, 4.680761e+002
1.913097e+002, 4.684756e+002
1.917918e+002, 4.691537e+002
1.922739e+002, 4.698872e+002
1.927561e+002, 4.706802e+002
1.932382e+002, 4.715251e+002
1.937203e+002, 4.726017e+002
1.942024e+002, 4.738514e+002
1.946845e+002, 4.744352e+002
1.951666e+002, 4.740764e+002
1.956488e+002, 4.733634e+002
1.961309e+002, 4.735265e+002
1.966130e+002, 4.746630e+002
1.970951e+002, 4.759287e+002
1.975772e+002, 4.768817e+002
1.980593e+002, 4.775214e+002
1.985415e+002, 4.780735e+002
1.990236e+002, 4.784961e+002
1.995057e+002, 4.789126e+002
1.999878e+002, 4.794721e+002
2.004699e+002, 4.800962e+002
2.009520e+002, 4.812627e+002
2.014342e+002, 4.835677e+002
2.019163e+002, 4.871805e+002
2.023984e+002, 4.899933e+002
2.028805e+002, 4.918373e+002
2.033626e+002, 4.928338e+002
2.038447e+002, 4.930428e+002
2.043269e+002, 4.921898e+002
2.048090e+002, 4.915312e+002
2.052911e+002, 4.918834e+002
2.057732e+002, 4.934053e+002
2.062553e+002, 4.948040e+002
2.067374e+002, 4.958259e+002
2.072196e+002, 4.967929e+002
2.077017e+002, 4.986667e+002
2.081838e+002, 5.016654e+002
2.086659e+002, 5.049870e+002
2.091480e+002, 5.079136e+002
2.096301e+002, 5.100806e+002
2.101123e+002, 5.137075e+002
2.105944e+002, 5.191658e+002
2.110765e+002, 5.260539e+002
2.115586e+002, 5.333815e+002
2.120407e+002, 5.413977e+002
2.125228e+002, 5.493251e+002
2.130050e+002, 5.568058e+002
2.134871e+002, 5.639677e+002
2.139692e+002, 5.699567e+002
2.144513e+002, 5.741212e+002
2.149334e+002, 5.772835e+002
2.154155e+002, 5.821837e+002
2.158977e+002, 5.894866e+002
2.163798e+002, 5.972321e+002
2.168619e+002, 6.041478e+002
2.173440e+002, 6.095547e+002
2.178261e+002, 6.161592e+002
2.183082e+002, 6.240961e+002
2.187904e+002, 6.332365e+002
2.192725e+002, 6.431188e+002
2.197546e+002, 6.534664e+002
2.202367e+002, 6.648897e+002
2.207188e+002, 6.774166e+002
2.212009e+002, 6.907928e+002
2.216831e+002, 7.062057e+002
2.221652e+002, 7.231268e+002
2.226473e+002, 7.423177e+002
2.231294e+002, 7.652010e+002
2.236115e+002, 7.915339e+002
2.240936e+002, 8.222767e+002
2.245758e+002, 8.581556e+002
2.250579e+002, 8.987084e+002
2.255400e+002, 9.450168e+002
2.260221e+002, 9.963621e+002
2.265042e+002, 1.053848e+003
2.269863e+002, 1.117906e+003
2.274685e+002, 1.185619e+003
2.279506e+002, 1.265673e+003
2.284327e+002, 1.370201e+003
2.289148e+002, 1.539057e+003
2.293969e+002, 1.643436e+003
2.298790e+002, 1.683459e+003
2.303612e+002, 1.658216e+003
2.308433e+002, 1.556286e+003
2.313254e+002, 1.326516e+003
2.318075e+002, 1.095296e+003
2.322896e+002, 9.148951e+002
2.327717e+002, 7.960189e+002
2.332539e+002, 7.031567e+002
2.337360e+002, 6.431934e+002
2.342181e+002, 6.082271e+002
2.347002e+002, 5.813110e+002
2.351823e+002, 5.652469e+002
2.356644e+002, 5.533606e+002
2.361466e+002, 5.434012e+002
2.366287e+002, 5.359694e+002
2.371108e+002, 5.288304e+002
2.375929e+002, 5.218536e+002
2.380750e+002, 5.153254e+002
2.385571e+002, 5.099128e+002
2.390393e+002, 5.057827e+002
2.395214e+002, 5.025200e+002
2.400035e+002, 5.001295e+002
2.404856e+002, 4.989828e+002
2.409677e+002, 4.974783e+002
2.414498e+002, 4.951782e+002
2.419320e+002, 4.927665e+002
2.424141e+002, 4.914937e+002
2.428962e+002, 4.919907e+002
2.433783e+002, 4.926222e+002
2.438604e+002, 4.928382e+002
2.443425e+002, 4.925023e+002
2.448247e+002, 4.922656e+002
2.453068e+002, 4.920521e+002
2.457889e+002, 4.919909e+002
2.462710e+002, 4.923499e+002
2.467531e+002, 4.934993e+002
2.472352e+002, 4.944132e+002
2.477174e+002, 4.946036e+002
2.481995e+002, 4.937520e+002
2.486816e+002, 4.937679e+002
2.491637e+002, 4.949130e+002
2.496458e+002, 4.967230e+002
2.501279e+002, 4.986231e+002
2.506101e+002, 5.009415e+002
2.510922e+002, 5.027355e+002
2.515743e+002, 5.035373e+002
2.520564e+002, 5.031408e+002
2.525385e+002, 5.034061e+002
2.530206e+002, 5.046632e+002
2.535028e+002, 5.062873e+002
2.539849e+002, 5.074594e+002
2.544670e+002, 5.079503e+002
2.549491e+002, 5.085233e+002
2.554312e+002, 5.094223e+002
2.559133e+002, 5.106716e+002
2.563955e+002, 5.116688e+002
2.568776e+002, 5.122982e+002
2.573597e+002, 5.128074e+002
2.578418e+002, 5.134799e+002
2.583239e+002, 5.144407e+002
2.588061e+002, 5.152604e+002
2.592882e+002, 5.157814e+002
2.597703e+002, 5.160129e+002
2.602524e+002, 5.165049e+002
2.607345e+002, 5.173105e+002
2.612166e+002, 5.183061e+002
2.616988e+002, 5.193640e+002
2.621809e+002, 5.203585e+002
2.626630e+002, 5.217293e+002
2.631451e+002, 5.235848e+002
2.636272e+002, 5.259059e+002
2.641093e+002, 5.283180e+002
2.645915e+002, 5.307668e+002
2.650736e+002, 5.334477e+002
2.655557e+002, 5.366014e+002
2.660378e+002, 5.402584e+002
2.665199e+002, 5.440590e+002
2.670020e+002, 5.477792e+002
2.674842e+002, 5.516027e+002
2.679663e+002, 5.563049e+002
2.684484e+002, 5.619755e+002
2.689305e+002, 5.682766e+002
2.694126e+002, 5.763522e+002
2.698947e+002, 5.883340e+002
2.703769e+002, 5.925676e+002
2.708590e+002, 5.864532e+002
2.713411e+002, 5.726219e+002
2.718232e+002, 5.589217e+002
2.723053e+002, 5.448105e+002
2.727874e+002, 5.325091e+002
2.732696e+002, 5.234779e+002
2.737517e+002, 5.181129e+002
2.742338e+002, 5.136026e+002
2.747159e+002, 5.096300e+002
2.751980e+002, 5.064994e+002
2.756801e+002, 5.053553e+002
2.761623e+002, 5.066005e+002
2.766444e+002, 5.080454e+002
2.771265e+002, 5.084666e+002
2.776086e+002, 5.077658e+002
2.780907e+002, 5.075031e+002
2.785728e+002, 5.077480e+002
2.790550e+002, 5.083998e+002
2.795371e+002, 5.094070e+002
2.800192e+002, 5.108264e+002
2.805013e+002, 5.121327e+002
2.809834e+002, 5.130167e+002
2.814655e+002, 5.134903e+002
2.819477e+002, 5.141468e+002
2.824298e+002, 5.150225e+002
2.829119e+002, 5.159500e+002
2.833940e+002, 5.165959e+002
2.838761e+002, 5.169418e+002
2.843582e+002, 5.175130e+002
2.848404e+002, 5.185009e+002
2.853225e+002, 5.198736e+002
2.858046e+002, 5.215506e+002
2.862867e+002, 5.235637e+002
2.867688e+002, 5.256367e+002
2.872509e+002, 5.275522e+002
2.877331e+002, 5.292986e+002
2.882152e+002, 5.306821e+002
2.886973e+002, 5.315344e+002
2.891794e+002, 5.320202e+002
2.896615e+002, 5.323630e+002
2.901436e+002, 5.325011e+002
2.906258e+002, 5.333531e+002
2.911079e+002, 5.367060e+002
2.915900e+002, 5.419286e+002
2.920721e+002, 5.454152e+002
2.925542e+002, 5.455880e+002
2.930363e+002, 5.440943e+002
2.935185e+002, 5.441565e+002
2.940006e+002, 5.457761e+002
2.944827e+002, 5.481581e+002
2.949648e+002, 5.507497e+002
2.954469e+002, 5.536533e+002
2.959290e+002, 5.571942e+002
2.964112e+002, 5.616125e+002
2.968933e+002, 5.664320e+002
2.973754e+002, 5.706259e+002
2.978575e+002, 5.743390e+002
2.983396e+002, 5.786553e+002
2.988217e+002, 5.836891e+002
2.993039e+002, 5.898782e+002
2.997860e+002, 5.979789e+002
3.002681e+002, 6.081755e+002
3.007502e+002, 6.201836e+002
3.012323e+002, 6.334354e+002
3.017144e+002, 6.482200e+002
3.021966e+002, 6.646771e+002
3.026787e+002, 6.876346e+002
3.031608e+002, 7.107684e+002
3.036429e+002, 7.275897e+002
3.041250e+002, 7.380327e+002
3.046071e+002, 7.375861e+002
3.050893e+002, 7.150888e+002
3.055714e+002, 6.783553e+002
3.060535e+002, 6.446592e+002
3.065356e+002, 6.209249e+002
3.070177e+002, 6.038362e+002
3.074998e+002, 5.913112e+002
3.079820e+002, 5.831591e+002
3.084641e+002, 5.780508e+002
3.089462e+002, 5.763266e+002
3.094283e+002, 5.767094e+002
3.099104e+002, 5.774971e+002
3.103925e+002, 5.778392e+002
3.108747e+002, 5.785433e+002
3.113568e+002, 5.801543e+002
3.118389e+002, 5.826367e+002
3.123210e+002, 5.856869e+002
3.128031e+002, 5.893021e+002
3.132852e+002, 5.933669e+002
3.137674e+002, 5.977816e+002
3.142495e+002, 6.022586e+002
3.147316e+002, 6.073392e+002
3.152137e+002, 6.135677e+002
3.156958e+002, 6.206536e+002
3.161779e+002, 6.276249e+002
3.166601e+002, 6.340760e+002
3.171422e+002, 6.402759e+002
3.176243e+002, 6.465309e+002
3.181064e+002, 6.534885e+002
3.185885e+002, 6.590739e+002
3.190706e+002, 6.636166e+002
3.195528e+002, 6.662382e+002
3.200349e+002, 6.652412e+002
3.205170e+002, 6.586295e+002
3.209991e+002, 6.495385e+002
3.214812e+002, 6.386524e+002
3.219633e+002, 6.251671e+002
3.224455e+002, 6.131415e+002
3.229276e+002, 6.034084e+002
3.234097e+002, 5.954661e+002
3.238918e+002, 5.886976e+002
3.243739e+002, 5.828224e+002
3.248560e+002, 5.783017e+002
3.253382e+002, 5.755042e+002
3.258203e+002, 5.745679e+002
3.263024e+002, 5.740258e+002
3.267845e+002, 5.740202e+002
3.272666e+002, 5.742337e+002
3.277487e+002, 5.744177e+002
3.282309e+002, 5.746827e+002
3.287130e+002, 5.747799e+002
3.291951e+002, 5.744933e+002
3.296772e+002, 5.739016e+002
3.301593e+002, 5.738177e+002
3.306414e+002, 5.747037e+002
3.311236e+002, 5.756512e+002
3.316057e+002, 5.761008e+002
3.320878e+002, 5.752574e+002
3.325699e+002, 5.753604e+002
3.330520e+002, 5.768419e+002
3.335341e+002, 5.792333e+002
3.340163e+002, 5.812745e+002
3.344984e+002, 5.829283e+002
3.349805e+002, 5.842502e+002
3.354626e+002, 5.851879e+002
3.359447e+002, 5.855753e+002
3.364268e+002, 5.862127e+002
3.369090e+002, 5.870504e+002
3.373911e+002, 5.882050e+002
3.378732e+002, 5.900463e+002
3.383553e+002, 5.929274e+002
3.388374e+002, 5.952469e+002
3.393195e+002, 5.962094e+002
3.398017e+002, 5.958918e+002
3.402838e+002, 5.968920e+002
3.407659e+002, 5.996395e+002
3.412480e+002, 6.026384e+002
3.417301e+002, 6.039405e+002
3.422122e+002, 6.033482e+002
3.426944e+002, 6.040609e+002
3.431765e+002, 6.072593e+002
3.436586e+002, 6.120496e+002
3.441407e+002, 6.152770e+002
3.446228e+002, 6.168403e+002
3.451049e+002, 6.179039e+002
3.455871e+002, 6.189946e+002
3.460692e+002, 6.202161e+002
3.465513e+002, 6.222100e+002
3.470334e+002, 6.251541e+002
3.475155e+002, 6.287088e+002
3.479977e+002, 6.325006e+002
3.484798e+002, 6.364985e+002
3.489619e+002, 6.401707e+002
3.494440e+002, 6.428714e+002
3.499261e+002, 6.450702e+002
3.504082e+002, 6.479180e+002
3.508904e+002, 6.515560e+002
3.513725e+002, 6.553629e+002
3.518546e+002, 6.585365e+002
3.523367e+002, 6.613689e+002
3.528188e+002, 6.646596e+002
3.533009e+002, 6.690687e+002
3.537831e+002, 6.739535e+002
3.542652e+002, 6.785005e+002
3.547473e+002, 6.827292e+002
3.552294e+002, 6.871247e+002
3.557115e+002, 6.920196e+002
3.561936e+002, 6.972991e+002
3.566758e+002, 7.027769e+002
3.571579e+002, 7.083412e+002
3.576400e+002, 7.142567e+002
3.581221e+002, 7.207708e+002
3.586042e+002, 7.277895e+002
3.590863e+002, 7.351859e+002
3.595685e+002, 7.431800e+002
3.600506e+002, 7.513478e+002
3.605327e+002, 7.593565e+002
3.610148e+002, 7.670689e+002
3.614969e+002, 7.748528e+002
3.619790e+002, 7.828550e+002
3.624612e+002, 7.910032e+002
3.629433e+002, 7.993170e+002
3.634254e+002, 8.081181e+002
3.639075e+002, 8.167928e+002
3.643896e+002, 8.253090e+002
3.648717e+002, 8.337692e+002
3.653539e+002, 8.411349e+002
3.658360e+002, 8.467983e+002
3.663181e+002, 8.514216e+002
3.668002e+002, 8.557563e+002
3.672823e+002, 8.588057e+002
3.677644e+002, 8.627333e+002
3.682466e+002, 8.681068e+002
3.687287e+002, 8.748460e+002
3.692108e+002, 8.816073e+002
3.696929e+002, 8.883676e+002
3.701750e+002, 8.952470e+002
3.706571e+002, 9.021569e+002
3.711393e+002, 9.083314e+002
3.716214e+002, 9.159391e+002
3.721035e+002, 9.247808e+002
3.725856e+002, 9.352263e+002
3.730677e+002, 9.478615e+002
3.735498e+002, 9.626865e+002
3.740320e+002, 9.799164e+002
3.745141e+002, 9.996465e+002
3.749962e+002, 1.021868e+003
3.754783e+002, 1.045759e+003
3.759604e+002, 1.070753e+003
3.764425e+002, 1.097899e+003
3.769247e+002, 1.128569e+003
3.774068e+002, 1.162666e+003
3.778889e+002, 1.199372e+003
3.783710e+002, 1.238727e+003
3.788531e+002, 1.280073e+003
3.793352e+002, 1.321917e+003
3.798174e+002, 1.363967e+003
3.802995e+002, 1.406117e+003
3.807816e+002, 1.451808e+003
3.812637e+002, 1.499573e+003
3.817458e+002, 1.535576e+003
3.822279e+002, 1.561076e+003
3.827101e+002, 1.568250e+003
3.831922e+002, 1.545090e+003
3.836743e+002, 1.492324e+003
3.841564e+002, 1.416687e+003
3.846385e+002, 1.309376e+003
3.851206e+002, 1.183548e+003
3.856028e+002, 1.061037e+003
3.860849e+002, 9.420482e+002
3.865670e+002, 8.356318e+002
3.870491e+002, 7.489099e+002
3.875312e+002, 6.801953e+002
3.880133e+002, 6.254155e+002
3.884955e+002, 5.868046e+002
3.889776e+002, 5.582593e+002
3.894597e+002, 5.365996e+002
3.899418e+002, 5.213224e+002
3.904239e+002, 5.094105e+002
3.909060e+002, 5.001208e+002
3.913882e+002, 4.928276e+002
3.918703e+002, 4.869450e+002
3.923524e+002, 4.821033e+002
3.928345e+002, 4.790437e+002
3.933166e+002, 4.789510e+002
3.937987e+002, 4.808479e+002
3.942809e+002, 4.827637e+002
3.947630e+002, 4.842270e+002
3.952451e+002, 4.854203e+002
3.957272e+002, 4.861472e+002
3.962093e+002, 4.861758e+002
3.966914e+002, 4.871728e+002
3.971736e+002, 4.902246e+002
3.976557e+002, 4.940241e+002
3.981378e+002, 4.973821e+002
3.986199e+002, 5.003702e+002
3.991020e+002, 5.026218e+002
3.995841e+002, 5.036425e+002
4.000663e+002, 5.036815e+002
4.005484e+002, 5.044429e+002
4.010305e+002, 5.063962e+002
4.015126e+002, 5.085665e+002
4.019947e+002, 5.104865e+002
4.024768e+002, 5.119740e+002
4.029590e+002, 5.136194e+002
4.034411e+002, 5.154711e+002
4.039232e+002, 5.174591e+002
4.044053e+002, 5.194348e+002
4.048874e+002, 5.213550e+002
4.053695e+002, 5.234564e+002
4.058517e+002, 5.259447e+002
4.063338e+002, 5.287606e+002
4.068159e+002, 5.312582e+002
4.072980e+002, 5.334282e+002
4.077801e+002, 5.353368e+002
4.082622e+002, 5.368624e+002
4.087444e+002, 5.380373e+002
4.092265e+002, 5.394916e+002
4.097086e+002, 5.413271e+002
4.101907e+002, 5.435256e+002
4.106728e+002, 5.464052e+002
4.111549e+002, 5.498724e+002
4.116371e+002, 5.527982e+002
4.121192e+002, 5.539405e+002
4.126013e+002, 5.540929e+002
4.130834e+002, 5.550228e+002
4.135655e+002, 5.569133e+002
4.140476e+002, 5.591141e+002
4.145298e+002, 5.610399e+002
