##NAMES=Metaborite
##RRUFFID=R130694
##IDEAL CHEMISTRY=HBO_2_
##LOCALITY=Chelkar salt dome, Aksai Valley, Aktobe Province, Kazakhstan
##OWNER=RRUFF
##SOURCE=Rock Currier
##DESCRIPTION=Colorless fragment
##STATUS=The identification of this mineral has been confirmed by single-crystal X-ray diffraction.
##URL=rruff.info/R130694
8.806445e+001, 9.286011e+002
8.854657e+001, 9.131013e+002
8.902869e+001, 9.077600e+002
8.951080e+001, 9.169717e+002
8.999292e+001, 9.343279e+002
9.047504e+001, 9.543080e+002
9.095715e+001, 9.760443e+002
9.143927e+001, 9.981849e+002
9.192139e+001, 1.019074e+003
9.240350e+001, 1.038745e+003
9.288562e+001, 1.057779e+003
9.336774e+001, 1.069470e+003
9.384985e+001, 1.066948e+003
9.433197e+001, 1.050277e+003
9.481409e+001, 1.033586e+003
9.529620e+001, 1.014752e+003
9.577832e+001, 9.979167e+002
9.626044e+001, 9.837050e+002
9.674255e+001, 9.717772e+002
9.722467e+001, 9.618646e+002
9.770679e+001, 9.543800e+002
9.818890e+001, 9.467748e+002
9.867102e+001, 9.379734e+002
9.915314e+001, 9.289941e+002
9.963525e+001, 9.204179e+002
1.001174e+002, 9.124260e+002
1.005995e+002, 9.050392e+002
1.010816e+002, 8.984626e+002
1.015637e+002, 8.930755e+002
1.020458e+002, 8.879533e+002
1.025280e+002, 8.824014e+002
1.030101e+002, 8.768284e+002
1.034922e+002, 8.718563e+002
1.039743e+002, 8.678779e+002
1.044564e+002, 8.648689e+002
1.049385e+002, 8.634514e+002
1.054207e+002, 8.653330e+002
1.059028e+002, 8.668569e+002
1.063849e+002, 8.663529e+002
1.068670e+002, 8.636804e+002
1.073491e+002, 8.591699e+002
1.078312e+002, 8.522466e+002
1.083134e+002, 8.431016e+002
1.087955e+002, 8.356118e+002
1.092776e+002, 8.306247e+002
1.097597e+002, 8.274306e+002
1.102418e+002, 8.252370e+002
1.107239e+002, 8.242304e+002
1.112061e+002, 8.235499e+002
1.116882e+002, 8.222941e+002
1.121703e+002, 8.206031e+002
1.126524e+002, 8.191777e+002
1.131345e+002, 8.189099e+002
1.136166e+002, 8.196688e+002
1.140988e+002, 8.192087e+002
1.145809e+002, 8.161024e+002
1.150630e+002, 8.125664e+002
1.155451e+002, 8.097394e+002
1.160272e+002, 8.076935e+002
1.165093e+002, 8.059634e+002
1.169915e+002, 8.039703e+002
1.174736e+002, 8.015629e+002
1.179557e+002, 7.992630e+002
1.184378e+002, 7.968539e+002
1.189199e+002, 7.946719e+002
1.194020e+002, 7.928688e+002
1.198842e+002, 7.915115e+002
1.203663e+002, 7.906705e+002
1.208484e+002, 7.905201e+002
1.213305e+002, 7.923731e+002
1.218126e+002, 7.934288e+002
1.222947e+002, 7.933023e+002
1.227769e+002, 7.924037e+002
1.232590e+002, 7.912678e+002
1.237411e+002, 7.901683e+002
1.242232e+002, 7.890072e+002
1.247053e+002, 7.872369e+002
1.251874e+002, 7.841105e+002
1.256696e+002, 7.813162e+002
1.261517e+002, 7.794598e+002
1.266338e+002, 7.784597e+002
1.271159e+002, 7.779387e+002
1.275980e+002, 7.778422e+002
1.280801e+002, 7.780538e+002
1.285623e+002, 7.781149e+002
1.290444e+002, 7.780804e+002
1.295265e+002, 7.778460e+002
1.300086e+002, 7.772775e+002
1.304907e+002, 7.763447e+002
1.309728e+002, 7.752371e+002
1.314550e+002, 7.738737e+002
1.319371e+002, 7.724391e+002
1.324192e+002, 7.711896e+002
1.329013e+002, 7.700510e+002
1.333834e+002, 7.691954e+002
1.338655e+002, 7.693201e+002
1.343477e+002, 7.715001e+002
1.348298e+002, 7.730547e+002
1.353119e+002, 7.719248e+002
1.357940e+002, 7.694397e+002
1.362761e+002, 7.681490e+002
1.367582e+002, 7.704562e+002
1.372404e+002, 7.765012e+002
1.377225e+002, 7.803716e+002
1.382046e+002, 7.803136e+002
1.386867e+002, 7.794883e+002
1.391688e+002, 7.784193e+002
1.396509e+002, 7.773700e+002
1.401331e+002, 7.765793e+002
1.406152e+002, 7.762917e+002
1.410973e+002, 7.765961e+002
1.415794e+002, 7.772019e+002
1.420615e+002, 7.775626e+002
1.425436e+002, 7.785358e+002
1.430258e+002, 7.806848e+002
1.435079e+002, 7.840900e+002
1.439900e+002, 7.884150e+002
1.444721e+002, 7.932203e+002
1.449542e+002, 7.984841e+002
1.454363e+002, 8.045179e+002
1.459185e+002, 8.109926e+002
1.464006e+002, 8.183832e+002
1.468827e+002, 8.275860e+002
1.473648e+002, 8.390534e+002
1.478469e+002, 8.514723e+002
1.483290e+002, 8.641317e+002
1.488112e+002, 8.783689e+002
1.492933e+002, 8.868016e+002
1.497754e+002, 8.866343e+002
1.502575e+002, 8.785899e+002
1.507396e+002, 8.637735e+002
1.512217e+002, 8.392848e+002
1.517039e+002, 8.116323e+002
1.521860e+002, 7.884300e+002
1.526681e+002, 7.695596e+002
1.531502e+002, 7.551005e+002
1.536323e+002, 7.461302e+002
1.541144e+002, 7.428391e+002
1.545966e+002, 7.403896e+002
1.550787e+002, 7.376478e+002
1.555608e+002, 7.352363e+002
1.560429e+002, 7.337525e+002
1.565250e+002, 7.333312e+002
1.570071e+002, 7.333699e+002
1.574893e+002, 7.329958e+002
1.579714e+002, 7.319678e+002
1.584535e+002, 7.311804e+002
1.589356e+002, 7.308473e+002
1.594177e+002, 7.307422e+002
1.598998e+002, 7.308065e+002
1.603820e+002, 7.310110e+002
1.608641e+002, 7.311724e+002
1.613462e+002, 7.308349e+002
1.618283e+002, 7.296055e+002
1.623104e+002, 7.283719e+002
1.627925e+002, 7.272455e+002
1.632747e+002, 7.261534e+002
1.637568e+002, 7.249065e+002
1.642389e+002, 7.234063e+002
1.647210e+002, 7.218372e+002
1.652031e+002, 7.210089e+002
1.656852e+002, 7.222161e+002
1.661674e+002, 7.227095e+002
1.666495e+002, 7.215483e+002
1.671316e+002, 7.194124e+002
1.676137e+002, 7.174594e+002
1.680958e+002, 7.163278e+002
1.685779e+002, 7.159466e+002
1.690601e+002, 7.158076e+002
1.695422e+002, 7.165507e+002
1.700243e+002, 7.168552e+002
1.705064e+002, 7.158556e+002
1.709885e+002, 7.138387e+002
1.714706e+002, 7.119234e+002
1.719528e+002, 7.107292e+002
1.724349e+002, 7.102668e+002
1.729170e+002, 7.101371e+002
1.733991e+002, 7.106680e+002
1.738812e+002, 7.112631e+002
1.743633e+002, 7.113448e+002
1.748455e+002, 7.108965e+002
1.753276e+002, 7.106265e+002
1.758097e+002, 7.112450e+002
1.762918e+002, 7.122903e+002
1.767739e+002, 7.129457e+002
1.772560e+002, 7.129902e+002
1.777382e+002, 7.126093e+002
1.782203e+002, 7.118965e+002
1.787024e+002, 7.106571e+002
1.791845e+002, 7.097593e+002
1.796666e+002, 7.104230e+002
1.801487e+002, 7.115297e+002
1.806309e+002, 7.114544e+002
1.811130e+002, 7.088802e+002
1.815951e+002, 7.050539e+002
1.820772e+002, 7.035300e+002
1.825593e+002, 7.058411e+002
1.830414e+002, 7.080375e+002
1.835236e+002, 7.085748e+002
1.840057e+002, 7.081576e+002
1.844878e+002, 7.078270e+002
1.849699e+002, 7.082875e+002
1.854520e+002, 7.093173e+002
1.859341e+002, 7.094725e+002
1.864163e+002, 7.077483e+002
1.868984e+002, 7.062034e+002
1.873805e+002, 7.054830e+002
1.878626e+002, 7.052567e+002
1.883447e+002, 7.048381e+002
1.888268e+002, 7.036400e+002
1.893090e+002, 7.017228e+002
1.897911e+002, 7.010521e+002
1.902732e+002, 7.030677e+002
1.907553e+002, 7.048741e+002
1.912374e+002, 7.057422e+002
1.917195e+002, 7.057766e+002
1.922017e+002, 7.053938e+002
1.926838e+002, 7.049063e+002
1.931659e+002, 7.043174e+002
1.936480e+002, 7.034092e+002
1.941301e+002, 7.017174e+002
1.946122e+002, 7.002200e+002
1.950944e+002, 6.994077e+002
1.955765e+002, 6.991940e+002
1.960586e+002, 6.991561e+002
1.965407e+002, 6.989488e+002
1.970228e+002, 6.985657e+002
1.975049e+002, 6.984303e+002
1.979871e+002, 6.984904e+002
1.984692e+002, 6.987947e+002
1.989513e+002, 6.995480e+002
1.994334e+002, 7.006876e+002
1.999155e+002, 7.016962e+002
2.003976e+002, 7.020310e+002
2.008798e+002, 7.017662e+002
2.013619e+002, 7.020041e+002
2.018440e+002, 7.031631e+002
2.023261e+002, 7.046018e+002
2.028082e+002, 7.059317e+002
2.032903e+002, 7.071442e+002
2.037725e+002, 7.078541e+002
2.042546e+002, 7.072691e+002
2.047367e+002, 7.058947e+002
2.052188e+002, 7.051895e+002
2.057009e+002, 7.057190e+002
2.061830e+002, 7.069410e+002
2.066652e+002, 7.080908e+002
2.071473e+002, 7.090591e+002
2.076294e+002, 7.103659e+002
2.081115e+002, 7.124730e+002
2.085936e+002, 7.151317e+002
2.090757e+002, 7.180812e+002
2.095579e+002, 7.213653e+002
2.100400e+002, 7.248138e+002
2.105221e+002, 7.282045e+002
2.110042e+002, 7.317078e+002
2.114863e+002, 7.347150e+002
2.119685e+002, 7.369598e+002
2.124506e+002, 7.385839e+002
2.129327e+002, 7.396360e+002
2.134148e+002, 7.398226e+002
2.138969e+002, 7.396160e+002
2.143790e+002, 7.405140e+002
2.148612e+002, 7.429713e+002
2.153433e+002, 7.458968e+002
2.158254e+002, 7.490506e+002
2.163075e+002, 7.522933e+002
2.167896e+002, 7.553566e+002
2.172717e+002, 7.579117e+002
2.177539e+002, 7.602900e+002
2.182360e+002, 7.640004e+002
2.187181e+002, 7.701865e+002
2.192002e+002, 7.762889e+002
2.196823e+002, 7.811999e+002
2.201644e+002, 7.857310e+002
2.206466e+002, 7.909750e+002
2.211287e+002, 7.975615e+002
2.216108e+002, 8.053677e+002
2.220929e+002, 8.136193e+002
2.225750e+002, 8.214132e+002
2.230571e+002, 8.308505e+002
2.235393e+002, 8.424215e+002
2.240214e+002, 8.557505e+002
2.245035e+002, 8.700267e+002
2.249856e+002, 8.845762e+002
2.254677e+002, 8.998889e+002
2.259498e+002, 9.190141e+002
2.264320e+002, 9.433916e+002
2.269141e+002, 9.702709e+002
2.273962e+002, 1.001408e+003
2.278783e+002, 1.034491e+003
2.283604e+002, 1.069251e+003
2.288425e+002, 1.106839e+003
2.293247e+002, 1.142926e+003
2.298068e+002, 1.151561e+003
2.302889e+002, 1.123348e+003
2.307710e+002, 1.081053e+003
2.312531e+002, 1.017472e+003
2.317352e+002, 9.437491e+002
2.322174e+002, 8.774050e+002
2.326995e+002, 8.275215e+002
2.331816e+002, 7.925169e+002
2.336637e+002, 7.669534e+002
2.341458e+002, 7.544249e+002
2.346279e+002, 7.450341e+002
2.351101e+002, 7.374974e+002
2.355922e+002, 7.313502e+002
2.360743e+002, 7.256989e+002
2.365564e+002, 7.201069e+002
2.370385e+002, 7.148106e+002
2.375206e+002, 7.108238e+002
2.380028e+002, 7.084606e+002
2.384849e+002, 7.065170e+002
2.389670e+002, 7.047031e+002
2.394491e+002, 7.030321e+002
2.399312e+002, 7.014925e+002
2.404133e+002, 7.000724e+002
2.408955e+002, 6.988377e+002
2.413776e+002, 6.979442e+002
2.418597e+002, 6.974957e+002
2.423418e+002, 6.970657e+002
2.428239e+002, 6.962602e+002
2.433060e+002, 6.953134e+002
2.437882e+002, 6.949356e+002
2.442703e+002, 6.955403e+002
2.447524e+002, 6.966083e+002
2.452345e+002, 6.973860e+002
2.457166e+002, 6.979433e+002
2.461987e+002, 6.980072e+002
2.466809e+002, 6.971356e+002
2.471630e+002, 6.956035e+002
2.476451e+002, 6.942691e+002
2.481272e+002, 6.932613e+002
2.486093e+002, 6.927369e+002
2.490914e+002, 6.930341e+002
2.495736e+002, 6.941760e+002
2.500557e+002, 6.950688e+002
2.505378e+002, 6.948149e+002
2.510199e+002, 6.937283e+002
2.515020e+002, 6.931165e+002
2.519841e+002, 6.933530e+002
2.524663e+002, 6.939783e+002
2.529484e+002, 6.946701e+002
2.534305e+002, 6.954003e+002
2.539126e+002, 6.959284e+002
2.543947e+002, 6.958879e+002
2.548768e+002, 6.954538e+002
2.553590e+002, 6.955087e+002
2.558411e+002, 6.964612e+002
2.563232e+002, 6.974948e+002
2.568053e+002, 6.979142e+002
2.572874e+002, 6.978928e+002
2.577695e+002, 6.980523e+002
2.582516e+002, 6.989647e+002
2.587338e+002, 7.004561e+002
2.592159e+002, 7.015424e+002
2.596980e+002, 7.020665e+002
2.601801e+002, 7.023483e+002
2.606622e+002, 7.023478e+002
2.611443e+002, 7.022618e+002
2.616265e+002, 7.025392e+002
2.621086e+002, 7.036028e+002
2.625907e+002, 7.052619e+002
2.630728e+002, 7.065971e+002
2.635549e+002, 7.073767e+002
2.640370e+002, 7.081782e+002
2.645192e+002, 7.091039e+002
2.650013e+002, 7.102192e+002
2.654834e+002, 7.115959e+002
2.659655e+002, 7.132136e+002
2.664476e+002, 7.151622e+002
2.669297e+002, 7.178762e+002
2.674119e+002, 7.218719e+002
2.678940e+002, 7.258160e+002
2.683761e+002, 7.297435e+002
2.688582e+002, 7.332617e+002
2.693403e+002, 7.361458e+002
2.698224e+002, 7.384619e+002
2.703046e+002, 7.395975e+002
2.707867e+002, 7.376443e+002
2.712688e+002, 7.310754e+002
2.717509e+002, 7.239313e+002
2.722330e+002, 7.160668e+002
2.727151e+002, 7.086047e+002
2.731973e+002, 7.026207e+002
2.736794e+002, 6.985511e+002
2.741615e+002, 6.959813e+002
2.746436e+002, 6.941166e+002
2.751257e+002, 6.933568e+002
2.756078e+002, 6.925420e+002
2.760900e+002, 6.912550e+002
2.765721e+002, 6.900048e+002
2.770542e+002, 6.892224e+002
2.775363e+002, 6.890265e+002
2.780184e+002, 6.892249e+002
2.785005e+002, 6.895724e+002
2.789827e+002, 6.903130e+002
2.794648e+002, 6.906285e+002
2.799469e+002, 6.901469e+002
2.804290e+002, 6.895377e+002
2.809111e+002, 6.892275e+002
2.813932e+002, 6.892997e+002
2.818754e+002, 6.895791e+002
2.823575e+002, 6.898014e+002
2.828396e+002, 6.897991e+002
2.833217e+002, 6.902569e+002
2.838038e+002, 6.915048e+002
2.842859e+002, 6.928774e+002
2.847681e+002, 6.941323e+002
2.852502e+002, 6.951909e+002
2.857323e+002, 6.959763e+002
2.862144e+002, 6.963221e+002
2.866965e+002, 6.960562e+002
2.871786e+002, 6.963723e+002
2.876608e+002, 6.980839e+002
2.881429e+002, 6.995676e+002
2.886250e+002, 6.999908e+002
2.891071e+002, 6.995720e+002
2.895892e+002, 6.990917e+002
2.900714e+002, 6.992076e+002
2.905535e+002, 6.999333e+002
2.910356e+002, 7.003532e+002
2.915177e+002, 6.998485e+002
2.919998e+002, 6.996901e+002
2.924819e+002, 7.004961e+002
2.929641e+002, 7.018936e+002
2.934462e+002, 7.031246e+002
2.939283e+002, 7.036803e+002
2.944104e+002, 7.037028e+002
2.948925e+002, 7.041953e+002
2.953746e+002, 7.060353e+002
2.958568e+002, 7.073742e+002
2.963389e+002, 7.072263e+002
2.968210e+002, 7.066158e+002
2.973031e+002, 7.070593e+002
2.977852e+002, 7.093044e+002
2.982673e+002, 7.127075e+002
2.987495e+002, 7.153133e+002
2.992316e+002, 7.155774e+002
2.997137e+002, 7.170184e+002
3.001958e+002, 7.203353e+002
3.006779e+002, 7.246091e+002
3.011600e+002, 7.290374e+002
3.016422e+002, 7.333361e+002
3.021243e+002, 7.375407e+002
3.026064e+002, 7.417960e+002
3.030885e+002, 7.472037e+002
3.035706e+002, 7.504777e+002
3.040527e+002, 7.517901e+002
3.045349e+002, 7.510856e+002
3.050170e+002, 7.474600e+002
3.054991e+002, 7.411812e+002
3.059812e+002, 7.342809e+002
3.064633e+002, 7.292078e+002
3.069454e+002, 7.263336e+002
3.074276e+002, 7.242521e+002
3.079097e+002, 7.232705e+002
3.083918e+002, 7.226888e+002
3.088739e+002, 7.219385e+002
3.093560e+002, 7.211591e+002
3.098381e+002, 7.210550e+002
3.103203e+002, 7.223387e+002
3.108024e+002, 7.251188e+002
3.112845e+002, 7.275130e+002
3.117666e+002, 7.293487e+002
3.122487e+002, 7.310458e+002
3.127308e+002, 7.324491e+002
3.132130e+002, 7.338346e+002
3.136951e+002, 7.357250e+002
3.141772e+002, 7.384693e+002
3.146593e+002, 7.419833e+002
3.151414e+002, 7.456200e+002
3.156235e+002, 7.494203e+002
3.161057e+002, 7.533165e+002
3.165878e+002, 7.572572e+002
3.170699e+002, 7.612958e+002
3.175520e+002, 7.658809e+002
3.180341e+002, 7.712240e+002
3.185162e+002, 7.764261e+002
3.189984e+002, 7.791406e+002
3.194805e+002, 7.785989e+002
3.199626e+002, 7.761600e+002
3.204447e+002, 7.711667e+002
3.209268e+002, 7.647249e+002
3.214089e+002, 7.574423e+002
3.218911e+002, 7.496070e+002
3.223732e+002, 7.418141e+002
3.228553e+002, 7.348344e+002
3.233374e+002, 7.287602e+002
3.238195e+002, 7.235364e+002
3.243016e+002, 7.189778e+002
3.247838e+002, 7.153073e+002
3.252659e+002, 7.129385e+002
3.257480e+002, 7.117225e+002
3.262301e+002, 7.110309e+002
3.267122e+002, 7.102693e+002
3.271943e+002, 7.094248e+002
3.276765e+002, 7.086181e+002
3.281586e+002, 7.077248e+002
3.286407e+002, 7.069770e+002
3.291228e+002, 7.062770e+002
3.296049e+002, 7.057830e+002
3.300870e+002, 7.058840e+002
3.305692e+002, 7.069138e+002
3.310513e+002, 7.086971e+002
3.315334e+002, 7.098699e+002
3.320155e+002, 7.098885e+002
3.324976e+002, 7.098836e+002
3.329797e+002, 7.098173e+002
3.334619e+002, 7.098842e+002
3.339440e+002, 7.104454e+002
3.344261e+002, 7.116668e+002
3.349082e+002, 7.131406e+002
3.353904e+002, 7.138959e+002
3.358725e+002, 7.135719e+002
3.363546e+002, 7.130261e+002
3.368367e+002, 7.118313e+002
3.373188e+002, 7.107395e+002
3.378009e+002, 7.103837e+002
3.382831e+002, 7.108851e+002
3.387652e+002, 7.119220e+002
3.392473e+002, 7.131465e+002
3.397294e+002, 7.147773e+002
3.402115e+002, 7.159016e+002
3.406936e+002, 7.162357e+002
3.411758e+002, 7.163857e+002
3.416579e+002, 7.163700e+002
3.421400e+002, 7.163820e+002
3.426221e+002, 7.168763e+002
3.431042e+002, 7.183425e+002
3.435863e+002, 7.207756e+002
3.440685e+002, 7.227020e+002
3.445506e+002, 7.237838e+002
3.450327e+002, 7.246305e+002
3.455148e+002, 7.251711e+002
3.459969e+002, 7.255881e+002
3.464790e+002, 7.261348e+002
3.469612e+002, 7.269568e+002
3.474433e+002, 7.279767e+002
3.479254e+002, 7.289626e+002
3.484075e+002, 7.298027e+002
3.488896e+002, 7.307902e+002
3.493717e+002, 7.318575e+002
3.498539e+002, 7.331172e+002
3.503360e+002, 7.347853e+002
3.508181e+002, 7.368915e+002
3.513002e+002, 7.391104e+002
3.517823e+002, 7.408517e+002
3.522644e+002, 7.417926e+002
3.527466e+002, 7.433275e+002
3.532287e+002, 7.461844e+002
3.537108e+002, 7.491225e+002
3.541929e+002, 7.515585e+002
3.546750e+002, 7.534654e+002
3.551571e+002, 7.550818e+002
3.556393e+002, 7.564040e+002
3.561214e+002, 7.574459e+002
3.566035e+002, 7.594162e+002
3.570856e+002, 7.630264e+002
3.575677e+002, 7.667685e+002
3.580498e+002, 7.701470e+002
3.585320e+002, 7.732675e+002
3.590141e+002, 7.763463e+002
3.594962e+002, 7.794744e+002
3.599783e+002, 7.826462e+002
3.604604e+002, 7.857994e+002
3.609425e+002, 7.889240e+002
3.614247e+002, 7.920734e+002
3.619068e+002, 7.949908e+002
3.623889e+002, 7.980671e+002
3.628710e+002, 8.016885e+002
3.633531e+002, 8.059669e+002
3.638352e+002, 8.106041e+002
3.643174e+002, 8.153002e+002
3.647995e+002, 8.200605e+002
3.652816e+002, 8.249332e+002
3.657637e+002, 8.304521e+002
3.662458e+002, 8.355800e+002
3.667279e+002, 8.398060e+002
3.672101e+002, 8.430845e+002
3.676922e+002, 8.454199e+002
3.681743e+002, 8.461631e+002
3.686564e+002, 8.458027e+002
3.691385e+002, 8.465697e+002
3.696206e+002, 8.487454e+002
3.701028e+002, 8.517260e+002
3.705849e+002, 8.551349e+002
3.710670e+002, 8.590245e+002
3.715491e+002, 8.635016e+002
3.720312e+002, 8.686143e+002
3.725133e+002, 8.743752e+002
3.729955e+002, 8.809944e+002
3.734776e+002, 8.885235e+002
3.739597e+002, 8.962391e+002
3.744418e+002, 9.034723e+002
3.749239e+002, 9.110506e+002
3.754060e+002, 9.198578e+002
3.758882e+002, 9.299883e+002
3.763703e+002, 9.412432e+002
3.768524e+002, 9.534256e+002
3.773345e+002, 9.666208e+002
3.778166e+002, 9.813600e+002
3.782987e+002, 9.979948e+002
3.787809e+002, 1.015812e+003
3.792630e+002, 1.034827e+003
3.797451e+002, 1.054879e+003
3.802272e+002, 1.073335e+003
3.807093e+002, 1.090777e+003
3.811914e+002, 1.105436e+003
3.816736e+002, 1.116121e+003
3.821557e+002, 1.122845e+003
3.826378e+002, 1.122053e+003
3.831199e+002, 1.111561e+003
3.836020e+002, 1.090310e+003
3.840841e+002, 1.059334e+003
3.845663e+002, 1.012889e+003
3.850484e+002, 9.624453e+002
3.855305e+002, 9.114250e+002
3.860126e+002, 8.612803e+002
3.864947e+002, 8.159958e+002
3.869768e+002, 7.770045e+002
3.874590e+002, 7.442667e+002
3.879411e+002, 7.189860e+002
3.884232e+002, 7.016956e+002
3.889053e+002, 6.880082e+002
3.893874e+002, 6.780998e+002
3.898695e+002, 6.708564e+002
3.903517e+002, 6.652373e+002
3.908338e+002, 6.609780e+002
3.913159e+002, 6.580297e+002
3.917980e+002, 6.565218e+002
3.922801e+002, 6.566995e+002
3.927622e+002, 6.562763e+002
3.932444e+002, 6.545206e+002
3.937265e+002, 6.529133e+002
3.942086e+002, 6.523098e+002
3.946907e+002, 6.524905e+002
3.951728e+002, 6.527051e+002
3.956549e+002, 6.524773e+002
3.961371e+002, 6.520607e+002
3.966192e+002, 6.524832e+002
3.971013e+002, 6.547418e+002
3.975834e+002, 6.566230e+002
3.980655e+002, 6.579156e+002
3.985476e+002, 6.587798e+002
3.990298e+002, 6.592414e+002
3.995119e+002, 6.593594e+002
3.999940e+002, 6.594330e+002
4.004761e+002, 6.598804e+002
4.009582e+002, 6.608250e+002
4.014403e+002, 6.617151e+002
4.019225e+002, 6.625349e+002
4.024046e+002, 6.633214e+002
4.028867e+002, 6.642241e+002
4.033688e+002, 6.651122e+002
4.038509e+002, 6.656491e+002
4.043330e+002, 6.655388e+002
4.048152e+002, 6.649442e+002
4.052973e+002, 6.647888e+002
4.057794e+002, 6.651425e+002
4.062615e+002, 6.658826e+002
4.067436e+002, 6.673224e+002
4.072257e+002, 6.689216e+002
4.077079e+002, 6.701846e+002
4.081900e+002, 6.709584e+002
4.086721e+002, 6.713173e+002
4.091542e+002, 6.708975e+002
4.096363e+002, 6.692100e+002
4.101184e+002, 6.695701e+002
4.106006e+002, 6.752592e+002
4.110827e+002, 6.804308e+002
4.115648e+002, 6.815424e+002
4.120469e+002, 6.793965e+002
4.125290e+002, 6.772225e+002
4.130111e+002, 6.771988e+002
4.134933e+002, 6.787148e+002
4.139754e+002, 6.798516e+002
4.144575e+002, 6.805674e+002
