##NAMES=Metarauchite
##RRUFFID=R120114
##IDEAL CHEMISTRY=Ni^2+^(U^6+^O_2_)_2_(As^5+^O_4_)_2_&#183;8H_2_O
##LOCALITY=Schweizer vein, 90 level, Eduard mine, Jachymov, Krusne Hory Mts., Czech Republic
##OWNER=RRUFF
##SOURCE=Dr Peter Kolesar
##DESCRIPTION=Aggregates of yellow play crystals, associated with green platy metazeunerite
##STATUS=The identification of this mineral has been confirmed only by single crystal X-ray diffraction.
##URL=rruff.info/R120114
9.001007e+001, 0.000000e+000
9.049219e+001, 3.982500e+001
9.097430e+001, 3.941618e+001
9.145642e+001, 3.960292e+001
9.193854e+001, 4.031501e+001
9.242065e+001, 4.096775e+001
9.290277e+001, 4.107196e+001
9.338489e+001, 4.076486e+001
9.386700e+001, 4.035244e+001
9.434912e+001, 3.985495e+001
9.483124e+001, 3.934745e+001
9.531335e+001, 3.898298e+001
9.579547e+001, 3.876257e+001
9.627759e+001, 3.867422e+001
9.675970e+001, 3.880791e+001
9.724182e+001, 3.913823e+001
9.772394e+001, 3.932656e+001
9.820605e+001, 3.915563e+001
9.868817e+001, 3.865778e+001
9.917029e+001, 3.823226e+001
9.965240e+001, 3.786611e+001
1.001345e+002, 3.759671e+001
1.006166e+002, 3.753920e+001
1.010988e+002, 3.773757e+001
1.015809e+002, 3.795354e+001
1.020630e+002, 3.812145e+001
1.025451e+002, 3.829626e+001
1.030272e+002, 3.810685e+001
1.035093e+002, 3.734540e+001
1.039915e+002, 3.622155e+001
1.044736e+002, 3.564928e+001
1.049557e+002, 3.594574e+001
1.054378e+002, 3.634225e+001
1.059199e+002, 3.627966e+001
1.064020e+002, 3.540129e+001
1.068842e+002, 3.472527e+001
1.073663e+002, 3.441086e+001
1.078484e+002, 3.446503e+001
1.083305e+002, 3.451876e+001
1.088126e+002, 3.459922e+001
1.092947e+002, 3.466331e+001
1.097769e+002, 3.467194e+001
1.102590e+002, 3.465968e+001
1.107411e+002, 3.455621e+001
1.112232e+002, 3.428271e+001
1.117053e+002, 3.375080e+001
1.121874e+002, 3.343906e+001
1.126696e+002, 3.368363e+001
1.131517e+002, 3.409146e+001
1.136338e+002, 3.415330e+001
1.141159e+002, 3.326344e+001
1.145980e+002, 3.245119e+001
1.150801e+002, 3.214305e+001
1.155623e+002, 3.265126e+001
1.160444e+002, 3.303270e+001
1.165265e+002, 3.292451e+001
1.170086e+002, 3.251271e+001
1.174907e+002, 3.218727e+001
1.179728e+002, 3.199084e+001
1.184550e+002, 3.197980e+001
1.189371e+002, 3.226659e+001
1.194192e+002, 3.328614e+001
1.199013e+002, 3.396999e+001
1.203834e+002, 3.337924e+001
1.208655e+002, 3.184445e+001
1.213477e+002, 3.065450e+001
1.218298e+002, 3.088562e+001
1.223119e+002, 3.171095e+001
1.227940e+002, 3.226167e+001
1.232761e+002, 3.219291e+001
1.237582e+002, 3.182659e+001
1.242404e+002, 3.129718e+001
1.247225e+002, 3.062729e+001
1.252046e+002, 3.009397e+001
1.256867e+002, 2.996353e+001
1.261688e+002, 3.011845e+001
1.266509e+002, 3.034890e+001
1.271331e+002, 3.073351e+001
1.276152e+002, 3.109179e+001
1.280973e+002, 3.109713e+001
1.285794e+002, 3.072815e+001
1.290615e+002, 3.026554e+001
1.295436e+002, 2.995089e+001
1.300258e+002, 2.977661e+001
1.305079e+002, 2.971376e+001
1.309900e+002, 2.988391e+001
1.314721e+002, 3.016624e+001
1.319542e+002, 3.013620e+001
1.324363e+002, 2.971644e+001
1.329185e+002, 2.918383e+001
1.334006e+002, 2.897507e+001
1.338827e+002, 2.908885e+001
1.343648e+002, 2.922662e+001
1.348469e+002, 2.923506e+001
1.353290e+002, 2.912104e+001
1.358112e+002, 2.894263e+001
1.362933e+002, 2.863324e+001
1.367754e+002, 2.834925e+001
1.372575e+002, 2.858173e+001
1.377396e+002, 2.947061e+001
1.382217e+002, 3.024923e+001
1.387039e+002, 3.033668e+001
1.391860e+002, 2.960459e+001
1.396681e+002, 2.910811e+001
1.401502e+002, 2.904581e+001
1.406323e+002, 2.929066e+001
1.411144e+002, 2.926062e+001
1.415966e+002, 2.885211e+001
1.420787e+002, 2.836415e+001
1.425608e+002, 2.803287e+001
1.430429e+002, 2.792573e+001
1.435250e+002, 2.777590e+001
1.440071e+002, 2.746987e+001
1.444893e+002, 2.702747e+001
1.449714e+002, 2.693234e+001
1.454535e+002, 2.739234e+001
1.459356e+002, 2.799935e+001
1.464177e+002, 2.836204e+001
1.468998e+002, 2.837773e+001
1.473820e+002, 2.831920e+001
1.478641e+002, 2.820936e+001
1.483462e+002, 2.803316e+001
1.488283e+002, 2.791353e+001
1.493104e+002, 2.782380e+001
1.497925e+002, 2.780216e+001
1.502747e+002, 2.789515e+001
1.507568e+002, 2.818406e+001
1.512389e+002, 2.850069e+001
1.517210e+002, 2.884416e+001
1.522031e+002, 2.927313e+001
1.526852e+002, 2.953768e+001
1.531674e+002, 2.947121e+001
1.536495e+002, 2.927511e+001
1.541316e+002, 2.924056e+001
1.546137e+002, 2.952215e+001
1.550958e+002, 2.985412e+001
1.555779e+002, 3.010147e+001
1.560601e+002, 3.005980e+001
1.565422e+002, 3.038919e+001
1.570243e+002, 3.135700e+001
1.575064e+002, 3.275066e+001
1.579885e+002, 3.415860e+001
1.584706e+002, 3.544949e+001
1.589528e+002, 3.676624e+001
1.594349e+002, 3.812937e+001
1.599170e+002, 3.932096e+001
1.603991e+002, 4.095346e+001
1.608812e+002, 4.332052e+001
1.613633e+002, 4.627207e+001
1.618455e+002, 4.941414e+001
1.623276e+002, 5.259388e+001
1.628097e+002, 5.591050e+001
1.632918e+002, 5.943675e+001
1.637739e+002, 6.271827e+001
1.642560e+002, 6.681647e+001
1.647382e+002, 7.234103e+001
1.652203e+002, 7.911534e+001
1.657024e+002, 8.646365e+001
1.661845e+002, 9.404884e+001
1.666666e+002, 1.021062e+002
1.671487e+002, 1.107449e+002
1.676309e+002, 1.200793e+002
1.681130e+002, 1.300501e+002
1.685951e+002, 1.406497e+002
1.690772e+002, 1.518622e+002
1.695593e+002, 1.633309e+002
1.700414e+002, 1.749974e+002
1.705236e+002, 1.868066e+002
1.710057e+002, 1.985257e+002
1.714878e+002, 2.099369e+002
1.719699e+002, 2.215153e+002
1.724520e+002, 2.336352e+002
1.729341e+002, 2.463051e+002
1.734163e+002, 2.589844e+002
1.738984e+002, 2.712993e+002
1.743805e+002, 2.834644e+002
1.748626e+002, 2.954546e+002
1.753447e+002, 3.074947e+002
1.758268e+002, 3.194708e+002
1.763090e+002, 3.311842e+002
1.767911e+002, 3.425306e+002
1.772732e+002, 3.540134e+002
1.777553e+002, 3.644340e+002
1.782374e+002, 3.735617e+002
1.787195e+002, 3.825888e+002
1.792017e+002, 3.916862e+002
1.796838e+002, 4.012209e+002
1.801659e+002, 4.114756e+002
1.806480e+002, 4.225252e+002
1.811301e+002, 4.344097e+002
1.816122e+002, 4.475888e+002
1.820944e+002, 4.618908e+002
1.825765e+002, 4.764235e+002
1.830586e+002, 4.907940e+002
1.835407e+002, 5.051436e+002
1.840228e+002, 5.205281e+002
1.845049e+002, 5.368773e+002
1.849871e+002, 5.539696e+002
1.854692e+002, 5.715869e+002
1.859513e+002, 5.897398e+002
1.864334e+002, 6.074959e+002
1.869155e+002, 6.244476e+002
1.873976e+002, 6.407702e+002
1.878798e+002, 6.574608e+002
1.883619e+002, 6.746432e+002
1.888440e+002, 6.916581e+002
1.893261e+002, 7.073300e+002
1.898082e+002, 7.218297e+002
1.902903e+002, 7.354229e+002
1.907725e+002, 7.482652e+002
1.912546e+002, 7.604874e+002
1.917367e+002, 7.718010e+002
1.922188e+002, 7.823269e+002
1.927009e+002, 7.918248e+002
1.931830e+002, 7.995595e+002
1.936652e+002, 8.055162e+002
1.941473e+002, 8.105364e+002
1.946294e+002, 8.150055e+002
1.951115e+002, 8.189080e+002
1.955936e+002, 8.218478e+002
1.960757e+002, 8.235837e+002
1.965579e+002, 8.247372e+002
1.970400e+002, 8.265429e+002
1.975221e+002, 8.290610e+002
1.980042e+002, 8.315650e+002
1.984863e+002, 8.337822e+002
1.989684e+002, 8.357095e+002
1.994506e+002, 8.371118e+002
1.999327e+002, 8.378479e+002
2.004148e+002, 8.382101e+002
2.008969e+002, 8.388407e+002
2.013790e+002, 8.398072e+002
2.018611e+002, 8.407454e+002
2.023433e+002, 8.415742e+002
2.028254e+002, 8.423406e+002
2.033075e+002, 8.425561e+002
2.037896e+002, 8.422761e+002
2.042717e+002, 8.413546e+002
2.047538e+002, 8.394288e+002
2.052360e+002, 8.364880e+002
2.057181e+002, 8.325549e+002
2.062002e+002, 8.276286e+002
2.066823e+002, 8.216948e+002
2.071644e+002, 8.148748e+002
2.076465e+002, 8.073408e+002
2.081287e+002, 7.988459e+002
2.086108e+002, 7.881907e+002
2.090929e+002, 7.749213e+002
2.095750e+002, 7.606948e+002
2.100571e+002, 7.465587e+002
2.105392e+002, 7.324377e+002
2.110214e+002, 7.184208e+002
2.115035e+002, 7.044449e+002
2.119856e+002, 6.906554e+002
2.124677e+002, 6.769928e+002
2.129498e+002, 6.632522e+002
2.134319e+002, 6.500605e+002
2.139140e+002, 6.377485e+002
2.143962e+002, 6.265192e+002
2.148783e+002, 6.153934e+002
2.153604e+002, 6.042714e+002
2.158425e+002, 5.932113e+002
2.163246e+002, 5.829232e+002
2.168067e+002, 5.733828e+002
2.172889e+002, 5.644600e+002
2.177710e+002, 5.559577e+002
2.182531e+002, 5.477509e+002
2.187352e+002, 5.402441e+002
2.192173e+002, 5.334960e+002
2.196994e+002, 5.273660e+002
2.201816e+002, 5.215179e+002
2.206637e+002, 5.156749e+002
2.211458e+002, 5.103883e+002
2.216279e+002, 5.061591e+002
2.221100e+002, 5.033520e+002
2.225921e+002, 5.005135e+002
2.230743e+002, 4.974134e+002
2.235564e+002, 4.941891e+002
2.240385e+002, 4.914374e+002
2.245206e+002, 4.896868e+002
2.250027e+002, 4.876981e+002
2.254848e+002, 4.844804e+002
2.259670e+002, 4.790166e+002
2.264491e+002, 4.749223e+002
2.269312e+002, 4.728403e+002
2.274133e+002, 4.723726e+002
2.278954e+002, 4.715224e+002
2.283775e+002, 4.702351e+002
2.288597e+002, 4.686808e+002
2.293418e+002, 4.669149e+002
2.298239e+002, 4.647286e+002
2.303060e+002, 4.628155e+002
2.307881e+002, 4.612831e+002
2.312702e+002, 4.600582e+002
2.317524e+002, 4.588543e+002
2.322345e+002, 4.575187e+002
2.327166e+002, 4.564127e+002
2.331987e+002, 4.558386e+002
2.336808e+002, 4.562133e+002
2.341629e+002, 4.561544e+002
2.346451e+002, 4.554015e+002
2.351272e+002, 4.541288e+002
2.356093e+002, 4.531033e+002
2.360914e+002, 4.524235e+002
2.365735e+002, 4.518560e+002
2.370556e+002, 4.513059e+002
2.375378e+002, 4.508931e+002
2.380199e+002, 4.502372e+002
2.385020e+002, 4.491969e+002
2.389841e+002, 4.479048e+002
2.394662e+002, 4.469147e+002
2.399483e+002, 4.463032e+002
2.404305e+002, 4.459136e+002
2.409126e+002, 4.456949e+002
2.413947e+002, 4.457878e+002
2.418768e+002, 4.457049e+002
2.423589e+002, 4.450237e+002
2.428410e+002, 4.441743e+002
2.433232e+002, 4.448865e+002
2.438053e+002, 4.484070e+002
2.442874e+002, 4.517647e+002
2.447695e+002, 4.532897e+002
2.452516e+002, 4.518374e+002
2.457337e+002, 4.511332e+002
2.462159e+002, 4.515165e+002
2.466980e+002, 4.526784e+002
2.471801e+002, 4.535952e+002
2.476622e+002, 4.539645e+002
2.481443e+002, 4.545404e+002
2.486264e+002, 4.557394e+002
2.491086e+002, 4.579628e+002
2.495907e+002, 4.598793e+002
2.500728e+002, 4.615550e+002
2.505549e+002, 4.628936e+002
2.510370e+002, 4.634992e+002
2.515191e+002, 4.627216e+002
2.520013e+002, 4.622620e+002
2.524834e+002, 4.630363e+002
2.529655e+002, 4.658428e+002
2.534476e+002, 4.677391e+002
2.539297e+002, 4.682966e+002
2.544118e+002, 4.681416e+002
2.548940e+002, 4.687833e+002
2.553761e+002, 4.708046e+002
2.558582e+002, 4.725895e+002
2.563403e+002, 4.733061e+002
2.568224e+002, 4.724078e+002
2.573046e+002, 4.722220e+002
2.577867e+002, 4.728596e+002
2.582688e+002, 4.741201e+002
2.587509e+002, 4.757375e+002
2.592330e+002, 4.779935e+002
2.597151e+002, 4.799741e+002
2.601973e+002, 4.812218e+002
2.606794e+002, 4.814588e+002
2.611615e+002, 4.821006e+002
2.616436e+002, 4.832140e+002
2.621257e+002, 4.846689e+002
2.626078e+002, 4.863309e+002
2.630900e+002, 4.883780e+002
2.635721e+002, 4.902045e+002
2.640542e+002, 4.915882e+002
2.645363e+002, 4.925221e+002
2.650184e+002, 4.931898e+002
2.655005e+002, 4.934835e+002
2.659827e+002, 4.936723e+002
2.664648e+002, 4.941392e+002
2.669469e+002, 4.949224e+002
2.674290e+002, 4.958796e+002
2.679111e+002, 4.970210e+002
2.683932e+002, 4.983542e+002
2.688754e+002, 4.996035e+002
2.693575e+002, 5.007539e+002
2.698396e+002, 5.018215e+002
2.703217e+002, 5.027086e+002
2.708038e+002, 5.032589e+002
2.712859e+002, 5.042057e+002
2.717681e+002, 5.059566e+002
2.722502e+002, 5.084487e+002
2.727323e+002, 5.100943e+002
2.732144e+002, 5.106309e+002
2.736965e+002, 5.107874e+002
2.741786e+002, 5.113517e+002
2.746608e+002, 5.124180e+002
2.751429e+002, 5.134407e+002
2.756250e+002, 5.143837e+002
2.761071e+002, 5.151981e+002
2.765892e+002, 5.154326e+002
2.770714e+002, 5.149586e+002
2.775535e+002, 5.142629e+002
2.780356e+002, 5.137435e+002
2.785177e+002, 5.133979e+002
2.789998e+002, 5.132786e+002
2.794819e+002, 5.135919e+002
2.799641e+002, 5.140982e+002
2.804462e+002, 5.137000e+002
2.809283e+002, 5.122932e+002
2.814104e+002, 5.104096e+002
2.818925e+002, 5.082599e+002
2.823746e+002, 5.058369e+002
2.828568e+002, 5.039102e+002
2.833389e+002, 5.028230e+002
2.838210e+002, 5.021600e+002
2.843031e+002, 5.006036e+002
2.847852e+002, 4.980508e+002
2.852673e+002, 4.955408e+002
2.857495e+002, 4.940248e+002
2.862316e+002, 4.934007e+002
2.867137e+002, 4.921637e+002
2.871958e+002, 4.899858e+002
2.876779e+002, 4.873239e+002
2.881600e+002, 4.851049e+002
2.886422e+002, 4.833320e+002
2.891243e+002, 4.816082e+002
2.896064e+002, 4.797365e+002
2.900885e+002, 4.777169e+002
2.905706e+002, 4.755775e+002
2.910527e+002, 4.732178e+002
2.915349e+002, 4.709584e+002
2.920170e+002, 4.695410e+002
2.924991e+002, 4.688812e+002
2.929812e+002, 4.679637e+002
2.934633e+002, 4.660973e+002
2.939454e+002, 4.635306e+002
2.944276e+002, 4.610022e+002
2.949097e+002, 4.585464e+002
2.953918e+002, 4.562686e+002
2.958739e+002, 4.543439e+002
2.963560e+002, 4.527533e+002
2.968381e+002, 4.513055e+002
2.973203e+002, 4.501481e+002
2.978024e+002, 4.490527e+002
2.982845e+002, 4.472984e+002
2.987666e+002, 4.447794e+002
2.992487e+002, 4.425019e+002
2.997308e+002, 4.418052e+002
3.002130e+002, 4.421995e+002
3.006951e+002, 4.422835e+002
3.011772e+002, 4.412767e+002
3.016593e+002, 4.397494e+002
3.021414e+002, 4.383491e+002
3.026235e+002, 4.370911e+002
3.031057e+002, 4.361865e+002
3.035878e+002, 4.361120e+002
3.040699e+002, 4.364967e+002
3.045520e+002, 4.366640e+002
3.050341e+002, 4.363889e+002
3.055162e+002, 4.358116e+002
3.059984e+002, 4.347722e+002
3.064805e+002, 4.333959e+002
3.069626e+002, 4.324670e+002
3.074447e+002, 4.326010e+002
3.079268e+002, 4.334873e+002
3.084089e+002, 4.348524e+002
3.088911e+002, 4.371532e+002
3.093732e+002, 4.390981e+002
3.098553e+002, 4.393502e+002
3.103374e+002, 4.382988e+002
3.108195e+002, 4.372556e+002
3.113016e+002, 4.368798e+002
3.117838e+002, 4.368951e+002
3.122659e+002, 4.370562e+002
3.127480e+002, 4.373055e+002
3.132301e+002, 4.377209e+002
3.137122e+002, 4.385640e+002
3.141943e+002, 4.396130e+002
3.146765e+002, 4.403837e+002
3.151586e+002, 4.403774e+002
3.156407e+002, 4.402238e+002
3.161228e+002, 4.402968e+002
3.166049e+002, 4.406544e+002
3.170870e+002, 4.412036e+002
3.175692e+002, 4.422598e+002
3.180513e+002, 4.434028e+002
3.185334e+002, 4.440364e+002
3.190155e+002, 4.435192e+002
3.194976e+002, 4.428412e+002
3.199797e+002, 4.422403e+002
3.204619e+002, 4.416904e+002
3.209440e+002, 4.418014e+002
3.214261e+002, 4.435193e+002
3.219082e+002, 4.456461e+002
3.223903e+002, 4.470401e+002
3.228724e+002, 4.467010e+002
3.233546e+002, 4.463590e+002
3.238367e+002, 4.466447e+002
3.243188e+002, 4.475252e+002
3.248009e+002, 4.478672e+002
3.252830e+002, 4.468774e+002
3.257651e+002, 4.456744e+002
3.262473e+002, 4.449864e+002
3.267294e+002, 4.458732e+002
3.272115e+002, 4.461512e+002
3.276936e+002, 4.454723e+002
3.281757e+002, 4.439848e+002
3.286578e+002, 4.423740e+002
3.291400e+002, 4.404246e+002
3.296221e+002, 4.385592e+002
3.301042e+002, 4.369598e+002
3.305863e+002, 4.359117e+002
3.310684e+002, 4.346535e+002
3.315505e+002, 4.330997e+002
3.320327e+002, 4.313505e+002
3.325148e+002, 4.296452e+002
3.329969e+002, 4.280054e+002
3.334790e+002, 4.263407e+002
3.339611e+002, 4.245453e+002
3.344432e+002, 4.225117e+002
3.349254e+002, 4.207072e+002
3.354075e+002, 4.191495e+002
3.358896e+002, 4.178031e+002
3.363717e+002, 4.166230e+002
3.368538e+002, 4.155919e+002
3.373359e+002, 4.147808e+002
3.378180e+002, 4.142279e+002
3.383001e+002, 4.139344e+002
3.387823e+002, 4.138356e+002
3.392644e+002, 4.140026e+002
3.397465e+002, 4.142453e+002
3.402286e+002, 4.144391e+002
3.407107e+002, 4.146265e+002
3.411928e+002, 4.145424e+002
3.416750e+002, 4.140807e+002
3.421571e+002, 4.133405e+002
3.426392e+002, 4.127269e+002
3.431213e+002, 4.122630e+002
3.436034e+002, 4.117986e+002
3.440855e+002, 4.111370e+002
3.445677e+002, 4.103019e+002
3.450498e+002, 4.097505e+002
3.455319e+002, 4.096104e+002
3.460140e+002, 4.096663e+002
3.464961e+002, 4.095593e+002
3.469782e+002, 4.092908e+002
3.474604e+002, 4.088524e+002
3.479425e+002, 4.079493e+002
3.484246e+002, 4.068265e+002
3.489067e+002, 4.064643e+002
3.493888e+002, 4.069740e+002
3.498709e+002, 4.079440e+002
3.503531e+002, 4.091418e+002
3.508352e+002, 4.104506e+002
3.513173e+002, 4.114344e+002
3.517994e+002, 4.117505e+002
3.522815e+002, 4.116786e+002
3.527636e+002, 4.116117e+002
3.532458e+002, 4.115468e+002
3.537279e+002, 4.115992e+002
3.542100e+002, 4.118168e+002
3.546921e+002, 4.122197e+002
3.551742e+002, 4.128802e+002
3.556563e+002, 4.141425e+002
3.561385e+002, 4.153281e+002
3.566206e+002, 4.157130e+002
3.571027e+002, 4.154100e+002
3.575848e+002, 4.149859e+002
3.580669e+002, 4.147178e+002
3.585490e+002, 4.145208e+002
3.590312e+002, 4.142769e+002
3.595133e+002, 4.138467e+002
3.599954e+002, 4.136398e+002
3.604775e+002, 4.141040e+002
3.609596e+002, 4.149713e+002
3.614417e+002, 4.156605e+002
3.619239e+002, 4.157822e+002
3.624060e+002, 4.157959e+002
3.628881e+002, 4.160064e+002
3.633702e+002, 4.165187e+002
3.638523e+002, 4.168396e+002
3.643344e+002, 4.165228e+002
3.648166e+002, 4.160305e+002
3.652987e+002, 4.158893e+002
3.657808e+002, 4.166256e+002
3.662629e+002, 4.173265e+002
3.667450e+002, 4.176712e+002
3.672271e+002, 4.176569e+002
3.677093e+002, 4.178349e+002
3.681914e+002, 4.182812e+002
3.686735e+002, 4.189249e+002
3.691556e+002, 4.197272e+002
3.696377e+002, 4.208260e+002
3.701198e+002, 4.218804e+002
3.706020e+002, 4.229966e+002
3.710841e+002, 4.240707e+002
3.715662e+002, 4.246986e+002
3.720483e+002, 4.244130e+002
3.725304e+002, 4.242332e+002
3.730125e+002, 4.246448e+002
3.734947e+002, 4.259793e+002
3.739768e+002, 4.269016e+002
3.744589e+002, 4.271845e+002
3.749410e+002, 4.272472e+002
3.754231e+002, 4.277976e+002
3.759052e+002, 4.290251e+002
3.763874e+002, 4.302423e+002
3.768695e+002, 4.312491e+002
3.773516e+002, 4.320680e+002
3.778337e+002, 4.328347e+002
3.783158e+002, 4.335558e+002
3.787979e+002, 4.342653e+002
3.792801e+002, 4.349940e+002
3.797622e+002, 4.357546e+002
3.802443e+002, 4.364645e+002
3.807264e+002, 4.370425e+002
3.812085e+002, 4.376249e+002
3.816906e+002, 4.386176e+002
3.821728e+002, 4.400166e+002
3.826549e+002, 4.415570e+002
3.831370e+002, 4.432113e+002
3.836191e+002, 4.448777e+002
3.841012e+002, 4.460431e+002
3.845833e+002, 4.465809e+002
3.850655e+002, 4.468707e+002
3.855476e+002, 4.472614e+002
3.860297e+002, 4.477896e+002
3.865118e+002, 4.485849e+002
3.869939e+002, 4.501750e+002
3.874760e+002, 4.518916e+002
3.879582e+002, 4.526541e+002
3.884403e+002, 4.524448e+002
3.889224e+002, 4.520385e+002
3.894045e+002, 4.518851e+002
3.898866e+002, 4.519848e+002
3.903687e+002, 4.523930e+002
3.908509e+002, 4.538171e+002
3.913330e+002, 4.548164e+002
3.918151e+002, 4.541106e+002
3.922972e+002, 4.520240e+002
3.927793e+002, 4.498675e+002
3.932614e+002, 4.481244e+002
3.937436e+002, 4.466690e+002
3.942257e+002, 4.453457e+002
3.947078e+002, 4.440414e+002
3.951899e+002, 4.431050e+002
3.956720e+002, 4.430804e+002
3.961541e+002, 4.434224e+002
3.966363e+002, 4.432563e+002
3.971184e+002, 4.418159e+002
3.976005e+002, 4.403442e+002
3.980826e+002, 4.392979e+002
3.985647e+002, 4.387604e+002
3.990468e+002, 4.381201e+002
3.995290e+002, 4.372846e+002
4.000111e+002, 4.363426e+002
4.004932e+002, 4.353550e+002
4.009753e+002, 4.340052e+002
4.014574e+002, 4.330394e+002
4.019395e+002, 4.325912e+002
4.024217e+002, 4.325961e+002
4.029038e+002, 4.328023e+002
4.033859e+002, 4.334292e+002
4.038680e+002, 4.339406e+002
4.043501e+002, 4.340850e+002
4.048322e+002, 4.338225e+002
4.053144e+002, 4.332437e+002
4.057965e+002, 4.321083e+002
4.062786e+002, 4.309484e+002
4.067607e+002, 4.307158e+002
4.072428e+002, 4.315624e+002
4.077249e+002, 4.325101e+002
4.082071e+002, 4.332551e+002
4.086892e+002, 4.338252e+002
4.091713e+002, 4.343622e+002
4.096534e+002, 4.348605e+002
4.101355e+002, 4.353578e+002
4.106176e+002, 4.360265e+002
4.110998e+002, 4.367838e+002
4.115819e+002, 4.370746e+002
4.120640e+002, 4.366546e+002
4.125461e+002, 4.359462e+002
4.130282e+002, 4.356354e+002
4.135103e+002, 4.356673e+002
4.139925e+002, 4.357124e+002
