##NAMES=Metamunirite
##RRUFFID=R060624
##IDEAL CHEMISTRY=NaV^5+^O_3_
##LOCALITY=Big Gypsum Valley, San Miguel County, Colorado, USA
##OWNER=RRUFF
##SOURCE=Michael Scott
##DESCRIPTION=Tan colored divergent radial spray of bladed crystals
##STATUS=The identification of this mineral is confirmed by single-crystal X-ray diffraction and chemical analysis.
##URL=rruff.info/R060624
##MEASURED CHEMISTRY=(Na_0.98_Ca_0.02_)_Σ=1_(V^5+^_0.99_Al_0.01_)_Σ=1_O_3_
93.30109, 0.0000000E+00
93.78320, 363.7052
94.26532, 360.5661
94.74744, 361.7554
95.22955, 366.4014
95.71167, 373.4163
96.19379, 379.2169
96.67590, 384.4724
97.15802, 389.2165
97.64014, 392.9708
98.12225, 396.2719
98.60437, 400.1957
99.08649, 405.3234
99.56860, 411.1883
100.0507, 416.8567
100.5328, 421.5609
101.0150, 426.2631
101.4971, 431.8004
101.9792, 438.2759
102.4613, 444.7527
102.9434, 450.3857
103.4255, 456.0685
103.9077, 462.5213
104.3898, 469.9902
104.8719, 478.2354
105.3540, 486.8262
105.8361, 495.8980
106.3182, 505.1605
106.8004, 514.0784
107.2825, 523.2417
107.7646, 533.4138
108.2467, 545.1233
108.7288, 558.2238
109.2109, 570.8342
109.6931, 581.3145
110.1752, 593.0133
110.6573, 606.5428
111.1394, 622.0145
111.6215, 639.4249
112.1036, 658.6204
112.5858, 679.9073
113.0679, 703.3470
113.5500, 729.6069
114.0321, 757.1701
114.5142, 785.1924
114.9964, 813.5358
115.4785, 842.0500
115.9606, 870.8972
116.4427, 900.0367
116.9248, 927.4460
117.4069, 952.6745
117.8891, 975.7834
118.3712, 997.1780
118.8533, 1016.832
119.3354, 1034.493
119.8175, 1050.005
120.2996, 1063.566
120.7818, 1076.333
121.2639, 1089.357
121.7460, 1102.689
122.2281, 1114.790
122.7102, 1124.527
123.1923, 1133.413
123.6745, 1141.852
124.1566, 1150.004
124.6387, 1158.126
125.1208, 1166.630
125.6029, 1175.505
126.0850, 1184.840
126.5672, 1193.561
127.0493, 1203.170
127.5314, 1214.703
128.0135, 1228.649
128.4956, 1244.767
128.9777, 1262.814
129.4599, 1281.743
129.9420, 1303.981
130.4241, 1330.793
130.9062, 1360.943
131.3883, 1393.248
131.8704, 1427.662
132.3526, 1463.245
132.8347, 1495.054
133.3168, 1528.613
133.7989, 1554.426
134.2810, 1571.722
134.7632, 1579.301
135.2453, 1571.618
135.7274, 1543.473
136.2095, 1495.119
136.6916, 1436.747
137.1737, 1363.825
137.6559, 1283.815
138.1380, 1201.206
138.6201, 1114.310
139.1022, 1032.344
139.5843, 960.5862
140.0664, 896.8421
140.5486, 840.8959
141.0307, 793.7889
141.5128, 754.0547
141.9949, 718.2109
142.4770, 686.3387
142.9591, 658.7791
143.4413, 635.4158
143.9234, 615.8251
144.4055, 599.1805
144.8876, 585.2754
145.3697, 574.1376
145.8518, 564.2547
146.3340, 556.3856
146.8161, 549.2491
147.2982, 542.5519
147.7803, 536.2814
148.2624, 530.5283
148.7445, 525.2678
149.2267, 520.3260
149.7088, 516.9899
150.1909, 515.9216
150.6730, 515.5209
151.1551, 514.8376
151.6372, 513.7751
152.1194, 512.9521
152.6015, 513.2127
153.0836, 515.2371
153.5657, 516.5223
154.0478, 516.1465
154.5299, 515.4690
155.0121, 515.9413
155.4942, 517.9667
155.9763, 520.7098
156.4584, 523.0827
156.9405, 525.1471
157.4226, 526.7550
157.9048, 527.0785
158.3869, 526.9427
158.8690, 528.2708
159.3511, 532.0645
159.8332, 536.7442
160.3153, 540.4556
160.7975, 543.2162
161.2796, 545.5036
161.7617, 547.5366
162.2438, 549.3306
162.7259, 550.8959
163.2081, 551.8939
163.6902, 552.9621
164.1723, 554.6981
164.6544, 557.1656
165.1365, 559.6765
165.6186, 561.4256
166.1008, 562.2021
166.5829, 563.1448
167.0650, 563.8406
167.5471, 565.1375
168.0292, 567.6270
168.5113, 571.4534
168.9935, 576.3143
169.4756, 581.6152
169.9577, 586.8282
170.4398, 593.7641
170.9219, 602.4327
171.4040, 612.5554
171.8862, 623.7925
172.3683, 636.0377
172.8504, 649.5571
173.3325, 665.1522
173.8146, 683.4332
174.2967, 703.2838
174.7789, 724.9517
175.2610, 748.0861
175.7431, 771.9402
176.2252, 796.3404
176.7073, 821.7225
177.1894, 849.5834
177.6716, 880.5954
178.1537, 912.9679
178.6358, 946.6609
179.1179, 981.5788
179.6000, 1017.987
180.0821, 1055.804
180.5643, 1095.279
181.0464, 1136.803
181.5285, 1180.135
182.0106, 1225.840
182.4927, 1274.979
182.9748, 1327.075
183.4570, 1380.078
183.9391, 1433.325
184.4212, 1486.753
184.9033, 1539.467
185.3854, 1590.731
185.8675, 1642.486
186.3497, 1696.249
186.8318, 1752.044
187.3139, 1809.128
187.7960, 1867.738
188.2781, 1927.448
188.7602, 1987.040
189.2424, 2045.872
189.7245, 2105.962
190.2066, 2170.166
190.6887, 2239.312
191.1708, 2310.145
191.6530, 2382.624
192.1351, 2455.712
192.6172, 2529.127
193.0993, 2602.743
193.5814, 2675.384
194.0635, 2743.790
194.5457, 2806.472
195.0278, 2867.313
195.5099, 2929.437
195.9920, 2989.514
196.4741, 3044.513
196.9562, 3093.103
197.4384, 3135.610
197.9205, 3173.257
198.4026, 3204.679
198.8847, 3231.959
199.3668, 3260.699
199.8489, 3284.126
200.3311, 3295.008
200.8132, 3289.697
201.2953, 3269.268
201.7774, 3238.065
202.2595, 3195.498
202.7416, 3141.187
203.2238, 3071.993
203.7059, 2991.376
204.1880, 2902.407
204.6701, 2806.742
205.1522, 2705.250
205.6343, 2601.886
206.1165, 2492.351
206.5986, 2384.618
207.0807, 2279.195
207.5628, 2176.733
208.0449, 2078.176
208.5270, 1984.073
209.0092, 1894.343
209.4913, 1810.325
209.9734, 1732.306
210.4555, 1658.088
210.9376, 1586.191
211.4197, 1517.495
211.9019, 1453.896
212.3840, 1397.330
212.8661, 1346.972
213.3482, 1299.258
213.8303, 1253.916
214.3124, 1211.539
214.7946, 1173.053
215.2767, 1138.167
215.7588, 1106.351
216.2409, 1077.563
216.7230, 1051.887
217.2052, 1027.961
217.6873, 1005.873
218.1694, 985.6733
218.6515, 967.6841
219.1336, 951.7994
219.6157, 937.0712
220.0979, 922.4617
220.5800, 909.4351
221.0621, 899.7242
221.5442, 893.9550
222.0263, 889.7516
222.5084, 884.5980
222.9906, 878.2556
223.4727, 873.3472
223.9548, 871.4479
224.4369, 870.9725
224.9190, 870.6993
225.4011, 870.3691
225.8833, 870.9460
226.3654, 873.5881
226.8475, 878.4387
227.3296, 884.6472
227.8117, 892.6314
228.2938, 901.5563
228.7760, 910.7542
229.2581, 920.1654
229.7402, 930.3946
230.2223, 942.2414
230.7044, 955.8746
231.1865, 970.8123
231.6687, 986.7227
232.1508, 1003.950
232.6329, 1022.742
233.1150, 1043.224
233.5971, 1065.217
234.0792, 1088.587
234.5614, 1113.525
235.0435, 1139.524
235.5256, 1166.556
236.0077, 1194.487
236.4898, 1223.428
236.9719, 1253.172
237.4541, 1283.333
237.9362, 1313.391
238.4183, 1343.088
238.9004, 1372.916
239.3825, 1402.408
239.8646, 1432.155
240.3468, 1462.687
240.8289, 1494.025
241.3110, 1525.008
241.7931, 1554.477
242.2752, 1581.135
242.7573, 1609.648
243.2395, 1640.266
243.7216, 1672.147
244.2037, 1704.755
244.6858, 1737.975
245.1679, 1772.189
245.6501, 1807.900
246.1322, 1845.490
246.6143, 1883.190
247.0964, 1921.971
247.5785, 1960.283
248.0606, 1996.116
248.5428, 2029.690
249.0249, 2064.610
249.5070, 2104.904
249.9891, 2152.088
250.4712, 2194.442
250.9533, 2231.777
251.4355, 2264.954
251.9176, 2294.444
252.3997, 2320.385
252.8818, 2343.445
253.3639, 2364.753
253.8460, 2383.686
254.3282, 2394.942
254.8103, 2397.668
255.2924, 2393.744
255.7745, 2383.708
256.2566, 2367.790
256.7387, 2347.111
257.2209, 2321.941
257.7030, 2292.123
258.1851, 2259.991
258.6672, 2223.613
259.1493, 2186.612
259.6314, 2151.218
260.1136, 2117.383
260.5957, 2084.345
261.0778, 2050.747
261.5599, 2018.058
262.0420, 1989.007
262.5241, 1964.003
263.0063, 1942.168
263.4884, 1923.226
263.9705, 1907.055
264.4526, 1892.536
264.9347, 1879.041
265.4168, 1867.317
265.8990, 1858.159
266.3811, 1851.669
266.8632, 1847.355
267.3453, 1844.341
267.8274, 1842.864
268.3095, 1845.045
268.7917, 1852.910
269.2738, 1864.027
269.7559, 1874.267
270.2380, 1883.124
270.7201, 1893.600
271.2022, 1908.067
271.6844, 1926.131
272.1665, 1945.398
272.6486, 1965.196
273.1307, 1986.216
273.6128, 2008.860
274.0949, 2033.260
274.5771, 2058.844
275.0592, 2085.082
275.5413, 2112.233
276.0234, 2141.679
276.5055, 2175.246
276.9876, 2209.216
277.4698, 2240.393
277.9519, 2269.249
278.4340, 2298.506
278.9161, 2331.791
279.3982, 2367.362
279.8803, 2397.845
280.3625, 2421.219
280.8446, 2441.355
281.3267, 2460.349
281.8088, 2478.271
282.2909, 2495.515
282.7730, 2513.526
283.2552, 2530.892
283.7373, 2542.792
284.2194, 2548.203
284.7015, 2549.568
285.1836, 2549.344
285.6658, 2546.253
286.1479, 2538.146
286.6300, 2524.035
287.1121, 2504.400
287.5942, 2479.799
288.0764, 2448.894
288.5585, 2415.906
289.0406, 2382.751
289.5227, 2348.468
290.0048, 2312.168
290.4869, 2273.067
290.9691, 2232.108
291.4512, 2190.470
291.9333, 2148.080
292.4154, 2105.478
292.8975, 2065.226
293.3796, 2023.566
293.8618, 1977.578
294.3439, 1926.502
294.8260, 1871.970
295.3081, 1816.302
295.7902, 1760.126
296.2723, 1700.219
296.7545, 1634.256
297.2366, 1565.524
297.7187, 1495.137
298.2008, 1423.546
298.6829, 1351.593
299.1650, 1280.057
299.6472, 1208.360
300.1293, 1140.841
300.6114, 1079.772
301.0935, 1021.951
301.5756, 965.8056
302.0577, 911.8427
302.5399, 861.0622
303.0220, 814.4863
303.5041, 772.1707
303.9862, 733.5760
304.4683, 700.0290
304.9504, 669.1141
305.4326, 640.3438
305.9147, 613.3592
306.3968, 587.4919
306.8789, 562.1041
307.3610, 537.6390
307.8431, 516.7244
308.3253, 501.4496
308.8074, 486.6794
309.2895, 470.6528
309.7716, 454.2935
310.2537, 438.9594
310.7358, 425.2111
311.2180, 412.5172
311.7001, 399.7421
312.1822, 386.2451
312.6643, 373.9186
313.1464, 363.5391
313.6285, 354.0066
314.1107, 344.3910
314.5928, 334.4465
315.0749, 324.5632
315.5570, 315.3477
316.0391, 306.8981
316.5212, 298.7927
317.0034, 290.6772
317.4855, 283.0797
317.9676, 276.4407
318.4497, 270.7361
318.9318, 265.5497
319.4139, 260.6919
319.8961, 256.2718
320.3782, 251.1769
320.8603, 244.0235
321.3424, 237.5367
321.8245, 233.0843
322.3066, 230.1788
322.7888, 227.4582
323.2709, 223.9745
323.7530, 219.8385
324.2351, 215.9609
324.7172, 212.2730
325.1993, 208.9766
325.6815, 206.3547
326.1636, 204.0385
326.6457, 201.4302
327.1278, 198.1820
327.6099, 194.6626
328.0920, 191.7557
328.5742, 189.6258
329.0563, 187.7822
329.5384, 186.5113
330.0205, 185.2182
330.5026, 183.2158
330.9847, 180.3058
331.4669, 177.2586
331.9490, 175.3109
332.4311, 174.8299
332.9132, 173.8346
333.3953, 171.1387
333.8774, 168.5079
334.3596, 167.1638
334.8417, 167.0417
335.3238, 166.9726
335.8059, 165.8073
336.2880, 163.5280
336.7701, 161.3431
337.2523, 159.0150
337.7344, 157.1220
338.2165, 156.1463
338.6986, 155.7859
339.1807, 155.3163
339.6628, 154.1985
340.1450, 152.6580
340.6271, 151.5966
341.1092, 151.3509
341.5913, 150.9359
342.0735, 149.7722
342.5556, 148.3149
343.0377, 147.1534
343.5198, 146.5691
344.0019, 146.1712
344.4840, 145.2196
344.9662, 143.4942
345.4483, 142.1558
345.9304, 141.9448
346.4125, 142.0372
346.8946, 141.8995
347.3767, 141.4437
347.8589, 140.8699
348.3410, 140.3938
348.8231, 140.0073
349.3052, 139.4478
349.7873, 138.4782
350.2694, 137.5545
350.7516, 137.0854
351.2337, 136.9629
351.7158, 136.7290
352.1979, 136.0083
352.6800, 134.9554
353.1621, 134.0821
353.6443, 133.4264
354.1264, 132.8866
354.6085, 132.5249
355.0906, 132.2132
355.5727, 131.7240
356.0548, 130.8763
356.5370, 129.9483
357.0191, 129.3119
357.5012, 128.9866
357.9833, 128.7716
358.4654, 128.5942
358.9475, 128.4943
359.4297, 128.5696
359.9118, 128.8854
360.3939, 129.1078
360.8760, 128.9134
361.3581, 128.3835
361.8402, 127.9164
362.3224, 127.5772
362.8045, 127.3745
363.2866, 127.4447
363.7687, 127.7442
364.2508, 127.7643
364.7329, 126.9871
365.2151, 125.9013
365.6972, 125.3914
366.1793, 125.6033
366.6614, 125.9427
367.1435, 126.0085
367.6256, 125.8475
368.1078, 125.6044
368.5899, 125.0876
369.0720, 124.6682
369.5541, 124.7009
370.0362, 125.1357
370.5183, 125.6472
371.0005, 126.1023
371.4826, 126.5284
371.9647, 127.0032
372.4468, 127.5764
372.9289, 128.0682
373.4110, 128.3332
373.8932, 128.4826
374.3753, 128.7140
374.8574, 129.0807
375.3395, 129.5231
375.8216, 130.0057
376.3037, 130.5502
376.7859, 130.9111
377.2680, 131.0366
377.7501, 130.9867
378.2322, 130.6204
378.7143, 130.0174
379.1964, 129.7672
379.6786, 130.4563
380.1607, 131.9379
380.6428, 132.5539
381.1249, 131.6331
381.6070, 130.7224
382.0891, 130.3388
382.5713, 130.3521
383.0534, 130.4552
383.5355, 130.5057
384.0176, 130.6656
384.4997, 131.3195
384.9818, 133.2050
385.4640, 134.3609
385.9461, 134.0509
386.4282, 133.4242
386.9103, 133.5149
387.3924, 134.4360
387.8745, 135.5689
388.3567, 136.1988
388.8388, 136.1696
389.3209, 136.7981
389.8030, 138.5915
390.2851, 140.4156
390.7672, 141.9316
391.2494, 143.1416
391.7315, 144.0800
392.2136, 144.7407
392.6957, 145.2466
393.1778, 146.0613
393.6599, 147.3347
394.1421, 148.7394
394.6242, 150.2431
395.1063, 151.8607
395.5884, 153.5877
396.0706, 155.4323
396.5527, 157.3906
397.0348, 159.4999
397.5169, 161.7958
397.9990, 164.0525
398.4811, 166.0042
398.9633, 168.1430
399.4454, 170.6118
399.9275, 173.4347
400.4096, 176.6539
400.8917, 180.3205
401.3738, 184.3777
401.8560, 188.6005
402.3381, 193.0506
402.8202, 197.5485
403.3023, 201.7060
403.7844, 206.0513
404.2665, 211.0945
404.7487, 216.9776
405.2308, 223.6844
405.7129, 231.1602
406.1950, 239.4515
406.6771, 248.4161
407.1592, 257.4902
407.6414, 267.8806
408.1235, 280.3634
408.6056, 294.8131
409.0877, 310.4877
409.5698, 326.2592
410.0519, 342.9747
410.5341, 362.9019
411.0162, 386.2643
411.4983, 411.8622
411.9804, 438.6281
412.4625, 467.2978
412.9446, 499.2858
413.4268, 535.9823
413.9089, 574.0422
414.3910, 611.0169
414.8731, 647.0049
415.3552, 682.6393
415.8373, 718.4454
416.3195, 753.4022
416.8016, 785.4767
417.2837, 814.5589
417.7658, 844.1132
418.2479, 874.4047
418.7300, 905.9561
419.2122, 939.0341
419.6943, 973.7654
420.1764, 1011.706
420.6585, 1054.079
421.1406, 1100.977
421.6227, 1149.464
422.1049, 1198.401
422.5870, 1250.441
423.0691, 1307.060
423.5512, 1367.365
424.0333, 1430.241
424.5154, 1494.928
424.9976, 1561.787
425.4797, 1630.900
425.9618, 1702.373
426.4439, 1776.246
426.9260, 1857.212
427.4081, 1937.212
427.8903, 2013.791
428.3724, 2084.957
428.8545, 2147.159
429.3366, 2198.955
429.8187, 2240.020
430.3008, 2257.635
430.7830, 2249.855
431.2651, 2217.621
431.7472, 2156.711
432.2293, 2072.632
432.7114, 1968.847
433.1935, 1847.316
433.6757, 1715.641
434.1578, 1585.394
434.6399, 1455.204
435.1220, 1332.467
435.6041, 1217.249
436.0862, 1111.241
436.5684, 1015.318
437.0505, 929.8134
437.5326, 854.7137
438.0147, 791.6891
438.4968, 739.0447
438.9789, 691.2680
439.4611, 649.0709
439.9432, 610.1416
440.4253, 573.4144
440.9074, 539.2216
441.3895, 508.5060
441.8716, 481.5505
442.3538, 456.9200
442.8359, 433.7301
443.3180, 411.8188
443.8001, 391.4193
444.2822, 372.5684
444.7643, 355.0691
445.2465, 338.9776
445.7286, 323.9834
446.2107, 309.6472
446.6928, 295.9261
447.1749, 282.7250
447.6570, 269.9684
448.1392, 257.7011
448.6213, 246.1148
449.1034, 235.4165
449.5855, 225.4675
450.0677, 215.8095
450.5498, 206.0241
451.0319, 197.2940
451.5140, 190.6355
451.9961, 184.8894
452.4782, 178.5341
452.9604, 171.3156
453.4425, 164.3040
453.9246, 158.6632
454.4067, 154.5576
454.8888, 150.1370
455.3709, 144.7889
455.8531, 139.8689
456.3352, 135.9595
456.8173, 132.8033
457.2994, 129.9281
457.7815, 127.1295
458.2636, 124.4405
458.7458, 121.9435
459.2279, 119.8124
459.7100, 117.4974
460.1921, 114.4851
460.6742, 111.7207
461.1563, 109.9380
461.6385, 108.9679
462.1206, 108.0490
462.6027, 106.5547
463.0848, 104.6309
463.5669, 103.0231
464.0490, 101.7584
464.5312, 100.7876
465.0133, 100.4687
465.4954, 100.2293
465.9775, 99.44531
466.4596, 97.94698
466.9417, 96.20632
467.4239, 94.45618
467.9060, 92.76657
468.3881, 91.68423
468.8702, 91.56837
469.3523, 91.51747
469.8344, 90.58627
470.3166, 89.08077
470.7987, 87.89962
471.2808, 87.53385
471.7629, 87.37569
472.2450, 86.83181
472.7271, 85.99184
473.2093, 85.35104
473.6914, 85.17933
474.1735, 85.20007
474.6556, 84.82119
475.1377, 83.87376
475.6198, 83.16238
476.1020, 82.97120
476.5841, 82.95072
477.0662, 82.76399
477.5483, 82.41315
478.0304, 82.15627
478.5125, 82.22561
478.9947, 82.55445
479.4768, 82.55420
479.9589, 81.97258
480.4410, 81.35945
480.9231, 80.65771
481.4052, 80.02196
481.8874, 79.63238
482.3695, 79.51902
482.8516, 79.55221
483.3337, 79.60880
483.8158, 79.70756
484.2979, 79.66370
484.7801, 79.29782
485.2622, 78.99069
485.7443, 78.88545
486.2264, 78.92175
486.7085, 78.98915
487.1906, 79.03341
487.6728, 79.12194
488.1549, 79.33313
488.6370, 79.66482
489.1191, 80.24097
489.6012, 81.57775
490.0833, 82.58963
490.5655, 82.08205
491.0476, 80.28728
491.5297, 78.81211
492.0118, 78.51717
492.4939, 78.76743
492.9760, 78.73695
493.4582, 78.42848
493.9403, 78.31547
494.4224, 78.69987
494.9045, 79.37998
495.3866, 79.85350
495.8687, 80.13380
496.3509, 80.24008
496.8330, 79.90218
497.3151, 79.54823
497.7972, 79.78137
498.2793, 80.58567
498.7614, 81.29996
499.2436, 81.31309
499.7257, 80.67955
500.2078, 80.40551
500.6899, 80.86311
501.1720, 81.23104
501.6541, 81.16640
502.1363, 81.05319
502.6184, 81.43934
503.1005, 82.41134
503.5826, 83.40984
504.0647, 83.63439
504.5468, 82.96726
505.0290, 82.72302
505.5111, 83.17166
505.9932, 83.73123
506.4753, 84.29935
506.9575, 84.78757
507.4396, 84.99337
507.9217, 84.74342
508.4038, 84.52180
508.8859, 85.00860
509.3680, 86.16512
509.8502, 87.30383
510.3323, 88.38976
510.8144, 89.23621
511.2965, 89.43415
511.7786, 89.13381
512.2607, 89.21940
512.7429, 90.19530
513.2250, 91.41499
513.7071, 92.42102
514.1892, 93.20538
514.6713, 93.76696
515.1534, 94.05671
515.6356, 94.27425
516.1177, 94.81693
516.5998, 95.82372
517.0819, 96.88558
517.5640, 97.98000
518.0461, 99.13782
518.5283, 100.4841
519.0104, 101.9303
519.4925, 103.1432
519.9746, 103.8554
520.4567, 104.3098
520.9388, 105.4941
521.4210, 108.1395
521.9031, 110.1328
522.3852, 110.6353
522.8673, 110.9394
523.3494, 111.9238
523.8315, 113.6331
524.3137, 115.6334
524.7958, 117.6555
525.2779, 119.6891
525.7600, 121.5885
526.2421, 123.2268
526.7242, 125.1960
527.2064, 127.9556
527.6885, 131.0942
528.1706, 134.0734
528.6527, 136.7916
529.1348, 139.6771
529.6169, 142.7949
530.0991, 146.2879
530.5812, 150.5216
531.0633, 155.5298
531.5454, 160.7551
532.0275, 165.8000
532.5096, 170.7178
532.9918, 175.7657
533.4739, 180.5615
533.9560, 185.9065
534.4381, 192.0842
534.9202, 198.8266
535.4023, 205.7279
535.8845, 212.7576
536.3666, 220.4386
536.8487, 229.2612
537.3308, 239.2376
537.8129, 249.7589
538.2950, 261.1335
538.7772, 272.7145
539.2593, 283.9751
539.7414, 295.5268
540.2235, 308.2438
540.7056, 322.2838
541.1877, 336.5422
541.6699, 349.6735
542.1520, 361.8925
542.6341, 374.9334
543.1162, 388.9512
543.5983, 403.6444
544.0804, 419.1561
544.5626, 435.0775
545.0447, 450.6494
545.5268, 465.5444
546.0089, 480.4467
546.4910, 495.6735
546.9731, 511.2955
547.4553, 527.2529
547.9374, 543.6710
548.4195, 560.7313
548.9016, 578.8705
549.3837, 598.2017
549.8658, 616.0813
550.3480, 631.7382
550.8301, 647.2306
551.3122, 663.8742
551.7943, 680.2771
552.2764, 694.7233
552.7585, 706.7467
553.2407, 717.2055
553.7228, 727.5087
554.2049, 737.8821
554.6870, 743.9340
555.1691, 745.2408
555.6512, 742.4251
556.1334, 735.7701
556.6155, 725.6731
557.0976, 712.4398
557.5797, 696.0677
558.0618, 677.2135
558.5439, 656.3190
559.0261, 633.4559
559.5082, 608.1324
559.9903, 579.9999
560.4724, 551.1310
560.9545, 522.6927
561.4366, 494.9124
561.9188, 468.0136
562.4009, 441.8833
562.8830, 416.9493
563.3651, 392.9820
563.8472, 370.3650
564.3293, 349.6537
564.8115, 330.9241
565.2936, 313.7198
565.7757, 297.6639
566.2578, 282.6990
566.7399, 268.6206
567.2220, 255.1736
567.7042, 243.0262
568.1863, 232.9883
568.6684, 223.9575
569.1505, 214.7183
569.6326, 205.1227
570.1147, 196.1988
570.5969, 189.3732
571.0790, 184.2814
571.5611, 178.5968
572.0432, 171.9410
572.5253, 165.6737
573.0074, 160.5421
573.4896, 156.2368
573.9717, 152.2870
574.4538, 148.7452
574.9359, 145.3433
575.4180, 142.0424
575.9001, 138.7666
576.3823, 135.3701
576.8644, 131.8432
577.3465, 128.3514
577.8286, 124.9442
578.3107, 121.7123
578.7928, 119.1083
579.2750, 117.8564
579.7571, 116.2881
580.2392, 114.1052
580.7213, 111.7473
581.2034, 109.4436
581.6855, 107.2898
582.1677, 105.3373
582.6498, 103.6214
583.1319, 102.1575
583.6140, 101.1184
584.0961, 100.6878
584.5782, 100.0309
585.0604, 98.67213
585.5425, 97.18457
586.0246, 96.10642
586.5067, 95.41254
586.9889, 94.63268
587.4710, 93.37638
587.9531, 92.05058
588.4352, 91.18453
