##NAMES=Metazeunerite
##RRUFFID=R060301
##IDEAL CHEMISTRY=Cu^2+^(U^6+^O_2_)_2_(As^5+^O_4_)_2_&#183;8H_2_O
##LOCALITY=Joachimstal, Bohemia, Czech Republic
##OWNER=RRUFF
##SOURCE=University of Arizona Mineral Museum
##DESCRIPTION=Green blocky dipyramidal single crystals associated with yellow walpurgite, R050573
##STATUS=The identification of this mineral has been confirmed by single-crystal X-ray diffraction.
##URL=rruff.info/R060301
130.0258, 50.09426
130.5079, 52.32637
130.9900, 55.17440
131.4721, 58.61388
131.9542, 62.91577
132.4363, 68.43539
132.9185, 75.09206
133.4006, 82.33807
133.8827, 90.13435
134.3648, 98.33896
134.8469, 106.8205
135.3290, 115.4575
135.8112, 124.9507
136.2933, 135.7733
136.7754, 147.9406
137.2575, 161.8264
137.7396, 177.7587
138.2217, 195.4482
138.7039, 214.8075
139.1860, 236.2973
139.6681, 258.7869
140.1502, 281.0335
140.6323, 302.7025
141.1144, 324.5180
141.5966, 347.0568
142.0787, 370.6286
142.5608, 393.0430
143.0429, 414.3092
143.5250, 434.3751
144.0071, 452.8751
144.4893, 469.2173
144.9714, 484.6927
145.4535, 499.2912
145.9356, 511.1982
146.4177, 526.2365
146.8998, 545.3784
147.3820, 567.8438
147.8641, 591.3265
148.3462, 615.7444
148.8283, 640.9579
149.3104, 667.1321
149.7925, 693.0476
150.2747, 721.3730
150.7568, 752.7114
151.2389, 786.7950
151.7210, 820.5116
152.2031, 854.6644
152.6852, 887.6296
153.1674, 918.7737
153.6495, 947.3727
154.1316, 974.5682
154.6137, 1000.554
155.0958, 1025.339
155.5779, 1048.613
156.0601, 1070.607
156.5422, 1091.013
157.0243, 1109.302
157.5064, 1122.755
157.9885, 1136.534
158.4706, 1152.619
158.9528, 1171.489
159.4349, 1189.214
159.9170, 1203.138
160.3991, 1215.874
160.8812, 1230.440
161.3633, 1248.908
161.8455, 1268.427
162.3276, 1287.556
162.8097, 1305.517
163.2918, 1325.053
163.7739, 1347.886
164.2560, 1371.274
164.7382, 1384.624
165.2203, 1394.721
165.7024, 1404.420
166.1845, 1413.441
166.6666, 1421.540
167.1487, 1429.852
167.6309, 1438.920
168.1130, 1448.743
168.5951, 1459.159
169.0772, 1471.197
169.5593, 1483.300
170.0414, 1494.229
170.5236, 1503.902
171.0057, 1512.202
171.4878, 1519.251
171.9699, 1525.029
172.4520, 1529.305
172.9341, 1531.073
173.4163, 1531.665
173.8984, 1532.640
174.3805, 1534.434
174.8626, 1536.490
175.3447, 1537.884
175.8268, 1538.885
176.3090, 1540.840
176.7911, 1545.769
177.2732, 1552.019
177.7553, 1556.764
178.2374, 1558.551
178.7195, 1559.363
179.2017, 1561.801
179.6838, 1565.739
180.1659, 1569.868
180.6480, 1572.626
181.1301, 1574.802
181.6122, 1578.509
182.0944, 1585.597
182.5765, 1593.606
183.0586, 1598.139
183.5407, 1599.166
184.0228, 1599.381
184.5049, 1600.965
184.9871, 1603.674
185.4692, 1606.604
185.9513, 1609.782
186.4334, 1612.891
186.9155, 1615.201
187.3976, 1616.670
187.8798, 1617.734
188.3619, 1618.869
188.8440, 1620.032
189.3261, 1620.838
189.8082, 1621.086
190.2903, 1620.887
190.7725, 1620.802
191.2546, 1620.935
191.7367, 1620.629
192.2188, 1618.584
192.7009, 1614.906
193.1830, 1612.030
193.6652, 1611.216
194.1473, 1612.086
194.6294, 1612.197
195.1115, 1611.338
195.5936, 1610.412
196.0757, 1610.675
196.5579, 1612.151
197.0400, 1613.951
197.5221, 1616.128
198.0042, 1618.585
198.4863, 1619.413
198.9684, 1618.068
199.4506, 1616.321
199.9327, 1616.984
200.4148, 1620.265
200.8969, 1623.954
201.3790, 1627.610
201.8611, 1631.260
202.3433, 1633.064
202.8254, 1632.451
203.3075, 1630.858
203.7896, 1630.863
204.2717, 1632.742
204.7538, 1634.627
205.2360, 1635.331
205.7181, 1634.533
206.2002, 1635.694
206.6823, 1639.661
207.1644, 1644.555
207.6465, 1646.784
208.1287, 1645.841
208.6108, 1644.028
209.0929, 1642.156
209.5750, 1640.140
210.0571, 1638.662
210.5392, 1637.832
211.0214, 1637.496
211.5035, 1637.207
211.9856, 1636.761
212.4677, 1637.021
212.9498, 1638.743
213.4319, 1642.561
213.9141, 1645.041
214.3962, 1645.676
214.8783, 1645.255
215.3604, 1645.616
215.8425, 1646.997
216.3246, 1648.552
216.8067, 1649.887
217.2889, 1650.865
217.7710, 1652.010
218.2531, 1653.629
218.7352, 1655.209
219.2173, 1655.423
219.6994, 1653.580
220.1816, 1651.630
220.6637, 1650.377
221.1458, 1649.884
221.6279, 1650.028
222.1100, 1651.348
222.5921, 1653.128
223.0743, 1653.318
223.5564, 1651.051
224.0385, 1648.806
224.5206, 1647.934
225.0027, 1649.283
225.4848, 1649.717
225.9670, 1648.734
226.4491, 1646.989
226.9312, 1646.211
227.4133, 1646.863
227.8954, 1647.738
228.3775, 1648.305
228.8597, 1648.591
229.3418, 1648.343
229.8239, 1647.026
230.3060, 1645.235
230.7881, 1644.767
231.2702, 1646.151
231.7524, 1647.942
232.2345, 1649.558
232.7166, 1651.271
233.1987, 1652.128
233.6808, 1651.879
234.1629, 1650.841
234.6451, 1649.807
235.1272, 1648.777
235.6093, 1647.844
236.0914, 1647.053
236.5735, 1646.391
237.0556, 1646.114
237.5378, 1646.697
238.0199, 1647.604
238.5020, 1647.196
238.9841, 1644.025
239.4662, 1641.739
239.9483, 1642.177
240.4305, 1647.109
240.9126, 1650.584
241.3947, 1652.368
241.8768, 1652.738
242.3589, 1652.248
242.8410, 1650.215
243.3232, 1648.284
243.8053, 1647.139
244.2874, 1646.953
244.7695, 1647.155
245.2516, 1648.225
245.7337, 1649.494
246.2159, 1649.225
246.6980, 1645.937
247.1801, 1643.475
247.6622, 1643.655
248.1443, 1648.011
248.6264, 1650.736
249.1086, 1651.460
249.5907, 1650.786
250.0728, 1649.790
250.5549, 1648.000
251.0370, 1646.674
251.5191, 1646.312
252.0013, 1647.099
252.4834, 1648.190
252.9655, 1649.639
253.4476, 1651.306
253.9297, 1652.831
254.4118, 1653.726
254.8940, 1655.344
255.3761, 1658.847
255.8582, 1665.689
256.3403, 1668.280
256.8224, 1664.992
257.3046, 1658.732
257.7867, 1654.314
258.2688, 1652.190
258.7509, 1650.953
259.2330, 1650.314
259.7151, 1650.398
260.1973, 1650.481
260.6794, 1650.561
261.1615, 1650.691
261.6436, 1650.928
262.1257, 1651.258
262.6078, 1651.750
263.0900, 1652.552
263.5721, 1653.759
264.0542, 1654.203
264.5363, 1653.512
265.0184, 1652.459
265.5005, 1651.894
265.9827, 1651.662
266.4648, 1652.349
266.9469, 1654.485
267.4290, 1658.103
267.9111, 1660.520
268.3932, 1661.442
268.8754, 1661.566
269.3575, 1661.606
269.8396, 1661.541
270.3217, 1661.551
270.8038, 1661.968
271.2859, 1662.717
271.7681, 1661.768
272.2502, 1658.512
272.7323, 1654.853
273.2144, 1652.770
273.6965, 1652.411
274.1786, 1652.808
274.6608, 1654.045
275.1429, 1655.934
275.6250, 1657.271
276.1071, 1658.175
276.5892, 1658.211
277.0714, 1656.205
277.5535, 1651.695
278.0356, 1649.512
278.5177, 1651.297
278.9998, 1655.913
279.4819, 1658.531
279.9641, 1658.864
280.4462, 1658.584
280.9283, 1659.138
281.4104, 1660.578
281.8925, 1661.421
282.3746, 1661.315
282.8568, 1660.574
283.3389, 1659.905
283.8210, 1659.242
284.3031, 1659.068
284.7852, 1659.938
285.2673, 1661.761
285.7495, 1663.333
286.2316, 1664.427
286.7137, 1665.238
287.1958, 1666.197
287.6779, 1667.289
288.1600, 1668.332
288.6422, 1669.166
289.1243, 1669.818
289.6064, 1670.553
290.0885, 1671.456
290.5706, 1672.323
291.0527, 1672.784
291.5349, 1672.874
292.0170, 1672.915
292.4991, 1673.364
292.9812, 1673.979
293.4633, 1673.658
293.9454, 1672.212
294.4276, 1670.472
294.9097, 1669.292
295.3918, 1668.690
295.8739, 1668.800
296.3560, 1670.076
296.8381, 1672.060
297.3203, 1673.875
297.8024, 1675.543
298.2845, 1676.514
298.7666, 1675.620
299.2487, 1673.426
299.7308, 1671.661
300.2130, 1671.096
300.6951, 1671.373
301.1772, 1672.062
301.6593, 1673.167
302.1414, 1674.380
302.6235, 1675.863
303.1057, 1677.258
303.5878, 1677.739
304.0699, 1676.262
304.5520, 1674.392
305.0341, 1674.240
305.5162, 1675.609
305.9984, 1676.798
306.4805, 1675.887
306.9626, 1674.200
307.4447, 1673.621
307.9268, 1674.952
308.4089, 1677.103
308.8911, 1679.743
309.3732, 1682.582
309.8553, 1684.479
310.3374, 1683.859
310.8195, 1682.364
311.3016, 1681.669
311.7838, 1682.371
312.2659, 1683.407
312.7480, 1684.217
313.2301, 1684.861
313.7122, 1685.483
314.1943, 1685.386
314.6765, 1685.824
315.1586, 1688.237
315.6407, 1693.735
316.1228, 1698.003
316.6049, 1697.625
317.0870, 1694.813
317.5692, 1693.215
318.0513, 1695.434
318.5334, 1698.063
319.0155, 1699.554
319.4976, 1699.718
319.9797, 1699.040
320.4619, 1696.898
320.9440, 1694.214
321.4261, 1692.058
321.9082, 1691.994
322.3903, 1691.177
322.8724, 1688.003
323.3546, 1682.386
323.8367, 1678.286
324.3188, 1677.724
324.8009, 1678.305
325.2830, 1678.208
325.7651, 1676.686
326.2473, 1675.135
326.7294, 1673.528
327.2115, 1671.974
327.6936, 1671.158
328.1757, 1672.312
328.6578, 1673.381
329.1400, 1673.305
329.6221, 1669.580
330.1042, 1668.141
330.5863, 1670.874
331.0684, 1675.954
331.5505, 1677.895
332.0327, 1674.310
332.5148, 1670.352
332.9969, 1667.897
333.4790, 1667.209
333.9611, 1667.404
334.4432, 1668.980
334.9254, 1671.132
335.4075, 1672.467
335.8896, 1672.729
336.3717, 1672.721
336.8538, 1672.637
337.3359, 1672.469
337.8180, 1672.505
338.3001, 1672.961
338.7823, 1673.327
339.2644, 1672.743
339.7465, 1670.789
340.2286, 1669.830
340.7107, 1670.875
341.1928, 1673.495
341.6750, 1674.322
342.1571, 1672.933
342.6392, 1671.331
343.1213, 1671.443
343.6034, 1673.289
344.0855, 1674.411
344.5677, 1674.181
345.0498, 1673.185
345.5319, 1672.711
346.0140, 1672.755
346.4961, 1673.394
346.9782, 1676.094
347.4604, 1679.909
347.9425, 1679.139
348.4246, 1672.140
348.9067, 1663.909
349.3888, 1662.387
349.8709, 1666.514
350.3531, 1670.330
350.8352, 1669.819
351.3173, 1667.202
351.7994, 1667.257
352.2815, 1670.366
352.7636, 1673.477
353.2458, 1673.428
353.7279, 1671.181
354.2100, 1668.774
354.6921, 1665.592
355.1742, 1663.545
355.6563, 1665.908
356.1385, 1672.199
356.6206, 1677.561
357.1027, 1677.843
357.5848, 1675.612
358.0669, 1673.875
358.5490, 1673.561
359.0312, 1673.696
359.5133, 1673.564
359.9954, 1673.345
360.4775, 1673.612
360.9596, 1675.839
361.4417, 1677.846
361.9239, 1677.799
362.4060, 1674.465
362.8881, 1671.862
363.3702, 1672.329
363.8523, 1674.312
364.3344, 1675.430
364.8166, 1674.100
365.2987, 1672.613
365.7808, 1672.119
366.2629, 1672.899
366.7450, 1672.779
367.2271, 1670.520
367.7093, 1667.692
368.1914, 1665.676
368.6735, 1665.117
369.1556, 1664.828
369.6377, 1664.646
370.1198, 1664.593
370.6020, 1664.938
371.0841, 1666.197
371.5662, 1667.378
372.0483, 1667.895
372.5304, 1667.153
373.0125, 1666.917
373.4947, 1667.707
373.9768, 1668.844
374.4589, 1668.560
374.9410, 1666.017
375.4231, 1663.773
375.9052, 1662.961
376.3874, 1663.840
376.8695, 1664.150
377.3516, 1663.860
377.8337, 1663.072
378.3158, 1661.647
378.7979, 1659.422
379.2801, 1657.745
379.7622, 1656.785
380.2443, 1656.668
380.7264, 1658.616
381.2085, 1662.973
381.6906, 1666.821
382.1728, 1666.996
382.6549, 1664.122
383.1370, 1662.173
383.6191, 1661.836
384.1012, 1662.637
384.5833, 1664.350
385.0655, 1666.789
385.5476, 1668.575
386.0297, 1668.360
386.5118, 1667.117
386.9939, 1666.582
387.4760, 1666.925
387.9582, 1667.791
388.4403, 1669.448
388.9224, 1671.376
389.4045, 1672.487
389.8866, 1671.436
390.3687, 1670.013
390.8509, 1669.797
391.3330, 1670.712
391.8151, 1671.821
392.2972, 1673.568
392.7793, 1674.764
393.2614, 1674.057
393.7436, 1669.107
394.2257, 1665.069
394.7078, 1664.837
395.1899, 1667.272
395.6720, 1669.375
396.1541, 1669.998
396.6363, 1670.259
397.1184, 1670.734
397.6005, 1671.670
398.0826, 1672.274
398.5647, 1672.458
399.0468, 1672.252
399.5290, 1671.684
400.0111, 1669.187
400.4932, 1668.070
400.9753, 1669.835
401.4574, 1674.467
401.9395, 1676.531
402.4217, 1674.515
402.9038, 1671.527
403.3859, 1669.562
403.8680, 1668.845
404.3501, 1668.663
404.8322, 1669.317
405.3144, 1670.296
405.7965, 1670.136
406.2786, 1668.527
406.7607, 1666.799
407.2428, 1665.621
407.7249, 1665.016
408.2071, 1663.842
408.6892, 1661.838
409.1713, 1659.991
409.6534, 1659.816
410.1355, 1661.228
410.6176, 1662.434
411.0998, 1662.948
411.5819, 1662.906
412.0640, 1662.366
412.5461, 1661.364
413.0282, 1660.661
413.5103, 1661.702
413.9925, 1663.367
414.4746, 1662.929
414.9567, 1659.258
415.4388, 1655.432
415.9209, 1654.871
416.4030, 1656.666
416.8852, 1658.545
417.3673, 1660.041
417.8494, 1660.683
418.3315, 1659.565
418.8136, 1656.617
419.2957, 1654.121
419.7779, 1653.529
420.2600, 1653.967
420.7421, 1654.575
421.2242, 1655.794
421.7063, 1656.446
422.1884, 1655.747
422.6706, 1654.094
423.1527, 1652.928
423.6348, 1653.134
424.1169, 1653.498
424.5990, 1653.484
425.0811, 1652.953
425.5633, 1652.302
426.0454, 1651.326
426.5275, 1650.346
427.0096, 1649.749
427.4917, 1649.501
427.9738, 1649.739
428.4560, 1650.792
428.9381, 1652.588
429.4202, 1653.182
429.9023, 1651.918
430.3844, 1650.624
430.8665, 1650.670
431.3487, 1652.224
431.8308, 1654.078
432.3129, 1656.240
432.7950, 1658.461
433.2771, 1660.434
433.7592, 1662.158
434.2414, 1662.860
434.7235, 1661.313
435.2056, 1658.316
435.6877, 1657.464
436.1698, 1658.890
436.6519, 1660.688
437.1341, 1660.503
437.6162, 1659.170
438.0983, 1659.061
438.5804, 1661.652
439.0625, 1664.551
439.5446, 1664.980
440.0268, 1663.357
440.5089, 1661.182
440.9910, 1658.656
441.4731, 1656.392
441.9552, 1654.999
442.4373, 1654.681
442.9195, 1654.629
443.4016, 1654.550
443.8837, 1654.479
444.3658, 1654.457
444.8479, 1653.756
445.3300, 1653.860
445.8122, 1656.549
446.2943, 1661.225
446.7764, 1662.899
447.2585, 1657.028
447.7406, 1650.898
448.2227, 1648.328
448.7049, 1652.076
449.1870, 1654.152
449.6691, 1653.936
450.1512, 1652.344
450.6333, 1650.715
451.1154, 1648.830
451.5976, 1647.361
452.0797, 1646.626
452.5618, 1646.551
453.0439, 1646.039
453.5260, 1644.885
454.0081, 1643.946
454.4903, 1644.128
454.9724, 1645.409
455.4545, 1646.437
455.9366, 1647.257
456.4187, 1647.314
456.9008, 1644.832
457.3830, 1640.186
457.8651, 1636.559
458.3472, 1635.819
458.8293, 1636.934
459.3114, 1638.562
459.7935, 1640.656
460.2757, 1641.930
460.7578, 1640.103
461.2399, 1637.172
461.7220, 1636.141
462.2041, 1639.063
462.6862, 1641.838
463.1684, 1641.027
463.6505, 1638.009
464.1326, 1635.998
464.6147, 1637.370
465.0968, 1639.156
465.5789, 1639.921
466.0611, 1639.484
466.5432, 1638.503
467.0253, 1635.954
467.5074, 1633.510
467.9895, 1632.595
468.4716, 1635.705
468.9538, 1637.176
469.4359, 1635.695
469.9180, 1632.364
470.4001, 1630.890
470.8822, 1632.631
471.3643, 1633.883
471.8465, 1632.983
472.3286, 1629.709
472.8107, 1626.721
473.2928, 1623.960
473.7749, 1621.787
474.2570, 1620.930
474.7392, 1621.389
475.2213, 1621.703
475.7034, 1621.632
476.1855, 1621.154
476.6676, 1619.787
477.1497, 1617.671
477.6319, 1616.226
478.1140, 1616.804
478.5961, 1618.405
479.0782, 1619.554
479.5603, 1620.161
480.0424, 1619.971
480.5246, 1618.265
481.0067, 1615.753
481.4888, 1613.405
481.9709, 1610.801
482.4530, 1609.238
482.9352, 1610.180
483.4173, 1612.845
483.8994, 1614.762
484.3815, 1614.660
484.8636, 1613.975
485.3457, 1613.351
485.8279, 1612.854
486.3100, 1612.344
486.7921, 1611.938
487.2742, 1611.448
487.7563, 1610.690
488.2384, 1609.513
488.7206, 1608.316
489.2027, 1607.020
489.6848, 1605.764
490.1669, 1605.203
490.6490, 1605.666
491.1311, 1605.870
491.6133, 1604.839
492.0954, 1602.617
492.5775, 1602.065
493.0596, 1603.540
493.5417, 1605.237
494.0238, 1604.946
494.5060, 1603.078
494.9881, 1601.492
495.4702, 1600.636
495.9523, 1600.313
496.4344, 1600.377
496.9165, 1600.772
497.3987, 1601.291
497.8808, 1602.001
498.3629, 1602.662
498.8450, 1603.032
499.3271, 1603.082
499.8092, 1602.945
500.2914, 1602.322
500.7735, 1601.703
501.2556, 1601.545
501.7377, 1602.393
502.2198, 1603.164
502.7019, 1603.790
503.1841, 1604.171
503.6662, 1604.053
504.1483, 1603.108
504.6304, 1601.992
505.1125, 1600.931
505.5946, 1599.964
506.0768, 1598.655
506.5589, 1596.752
507.0410, 1594.936
507.5231, 1593.860
508.0052, 1593.677
508.4873, 1593.305
508.9695, 1592.550
509.4516, 1591.714
509.9337, 1591.551
510.4158, 1592.008
510.8979, 1592.106
511.3800, 1591.027
511.8622, 1589.398
512.3443, 1588.705
512.8264, 1588.906
513.3085, 1589.277
513.7906, 1589.714
514.2728, 1589.819
514.7549, 1588.847
515.2370, 1586.209
515.7191, 1583.872
516.2012, 1583.630
516.6833, 1584.380
517.1655, 1584.415
517.6476, 1582.076
518.1297, 1580.062
518.6118, 1579.459
519.0939, 1580.185
519.5760, 1580.924
520.0582, 1581.966
520.5403, 1582.609
521.0224, 1582.407
521.5045, 1580.791
521.9866, 1580.049
522.4688, 1580.654
522.9509, 1581.589
523.4330, 1581.594
523.9151, 1580.542
524.3972, 1579.129
524.8793, 1577.249
525.3615, 1575.318
525.8436, 1574.526
526.3257, 1574.861
526.8078, 1575.510
527.2899, 1576.481
527.7720, 1577.356
528.2542, 1577.129
528.7363, 1575.762
529.2184, 1573.723
529.7005, 1570.302
530.1826, 1566.833
530.6647, 1565.331
531.1469, 1567.581
531.6290, 1569.893
532.1111, 1569.928
532.5932, 1568.562
533.0753, 1567.584
533.5574, 1567.785
534.0396, 1568.171
534.5217, 1568.514
535.0038, 1568.799
535.4859, 1568.681
535.9680, 1568.127
536.4501, 1567.170
536.9323, 1565.727
537.4144, 1563.393
537.8965, 1561.633
538.3786, 1560.464
538.8607, 1559.897
539.3428, 1560.216
539.8250, 1561.526
540.3071, 1562.463
540.7892, 1562.584
541.2713, 1562.151
541.7534, 1561.773
542.2355, 1561.440
542.7177, 1560.945
543.1998, 1560.175
543.6819, 1559.151
544.1640, 1557.873
544.6461, 1556.335
545.1282, 1554.683
545.6104, 1552.476
546.0925, 1550.442
546.5746, 1549.415
547.0567, 1549.984
547.5388, 1551.061
548.0209, 1553.120
548.5031, 1555.376
548.9852, 1556.161
549.4673, 1553.116
549.9494, 1550.817
550.4315, 1551.058
550.9136, 1553.822
551.3958, 1553.998
551.8779, 1550.086
552.3600, 1546.119
552.8421, 1544.884
553.3242, 1546.729
553.8063, 1548.061
554.2885, 1548.750
554.7706, 1548.863
555.2527, 1548.419
555.7348, 1547.447
556.2169, 1545.977
556.6990, 1543.482
557.1812, 1541.213
557.6633, 1541.397
558.1454, 1543.497
558.6275, 1545.498
559.1096, 1546.519
559.5917, 1546.775
560.0739, 1546.064
560.5560, 1544.359
561.0381, 1543.197
561.5202, 1544.237
562.0023, 1545.442
562.4844, 1545.220
562.9666, 1541.347
563.4487, 1539.077
563.9308, 1539.417
564.4129, 1541.149
564.8950, 1542.490
565.3771, 1543.350
565.8593, 1543.932
566.3414, 1544.138
566.8235, 1544.097
567.3056, 1544.646
567.7877, 1545.922
568.2698, 1546.676
568.7520, 1545.989
569.2341, 1544.150
569.7162, 1542.017
570.1983, 1539.599
570.6804, 1537.541
571.1625, 1536.868
571.6447, 1536.889
572.1268, 1536.412
572.6089, 1534.837
573.0910, 1533.420
573.5731, 1533.518
574.0552, 1534.248
574.5374, 1534.064
575.0195, 1530.954
575.5016, 1528.410
575.9837, 1528.298
576.4658, 1530.340
576.9479, 1530.627
577.4301, 1527.682
577.9122, 1524.651
578.3943, 1522.782
578.8764, 1522.179
579.3585, 1522.412
579.8406, 1523.771
580.3228, 1525.313
580.8049, 1526.147
581.2870, 1526.275
581.7691, 1525.685
582.2512, 1524.074
582.7333, 1522.402
583.2155, 1522.265
583.6976, 1523.284
584.1797, 1524.318
584.6617, 1524.294
585.1439, 1524.403
585.6260, 1526.518
586.1081, 1530.045
586.5902, 1532.027
587.0723, 1529.521
587.5544, 1526.297
588.0366, 1524.533
588.5187, 1524.810
589.0008, 1525.088
589.4829, 1525.755
589.9650, 1525.930
590.4471, 1524.851
590.9293, 1521.852
591.4114, 1519.134
591.8935, 1516.724
592.3756, 1514.780
592.8577, 1513.639
593.3398, 1513.337
593.8220, 1513.476
594.3041, 1514.160
594.7862, 1515.024
595.2683, 1515.218
595.7504, 1514.784
596.2325, 1514.049
596.7147, 1512.781
597.1968, 1511.566
597.6789, 1511.268
598.1610, 1511.971
598.6431, 1512.501
599.1252, 1512.295
599.6074, 1511.602
600.0895, 1510.565
600.5716, 1508.732
601.0537, 1507.413
601.5358, 1506.889
602.0179, 1506.969
602.5001, 1507.528
602.9822, 1509.141
603.4643, 1510.014
603.9464, 1509.595
604.4285, 1508.311
604.9106, 1507.784
605.3928, 1508.152
605.8749, 1507.878
606.3570, 1505.375
606.8391, 1501.687
607.3212, 1500.396
607.8033, 1501.432
608.2855, 1503.240
608.7676, 1505.424
609.2497, 1507.330
609.7318, 1508.022
610.2139, 1507.254
610.6960, 1505.855
611.1782, 1503.581
611.6603, 1501.231
612.1424, 1499.634
612.6245, 1499.801
613.1066, 1499.769
613.5887, 1498.913
614.0709, 1497.773
614.5530, 1497.565
615.0351, 1499.104
615.5172, 1499.789
615.9993, 1498.509
616.4814, 1495.817
616.9636, 1495.057
617.4457, 1496.455
617.9278, 1497.368
618.4099, 1495.441
618.8920, 1491.820
619.3741, 1489.710
619.8563, 1489.228
620.3384, 1489.078
620.8205, 1487.739
621.3026, 1486.302
621.7847, 1486.285
622.2668, 1488.615
622.7490, 1490.678
623.2311, 1491.769
623.7132, 1491.787
624.1953, 1490.606
624.6774, 1485.753
625.1595, 1482.776
625.6417, 1483.452
