##NAMES=Metazeunerite
##RRUFFID=R110205
##IDEAL CHEMISTRY=Cu^2+^(U^6+^O_2_)_2_(As^5+^O_4_)_2_&#183;8H_2_O
##LOCALITY=Roter Berg District, Schneeberg District, Erzgebirge, Saxony, Germany
##OWNER=RRUFF
##SOURCE=Michael Scott 
##DESCRIPTION=Pale green platy crystals associated with cobaltlotharmeyerite R070400. Cell parameters indicate that this has a disordered structure.
##STATUS=The identification of this mineral has been confirmed by single-crystal X-ray diffraction.
##URL=rruff.info/R110205
179.2017, 87.04687
179.6838, 87.54832
180.1659, 88.95461
180.6480, 91.31315
181.1301, 94.06246
181.6122, 96.84475
182.0944, 99.64066
182.5765, 102.3120
183.0586, 104.8033
183.5407, 107.1393
184.0228, 109.6136
184.5049, 112.2847
184.9871, 114.6810
185.4692, 116.3298
185.9513, 117.2487
186.4334, 117.3912
186.9155, 116.7459
187.3976, 115.3251
187.8798, 112.9945
188.3619, 109.6429
188.8440, 105.8614
189.3261, 102.4389
189.8082, 99.33149
190.2903, 96.41938
190.7725, 93.56042
191.2546, 90.77494
191.7367, 88.44675
192.2188, 86.60131
192.7009, 85.13673
193.1830, 83.91470
193.6652, 82.93385
194.1473, 82.27790
194.6294, 82.14872
195.1115, 82.49467
195.5936, 82.62832
196.0757, 82.44083
196.5579, 82.14629
197.0400, 82.15810
197.5221, 82.49134
198.0042, 82.94711
198.4863, 83.42305
198.9684, 83.91648
199.4506, 84.50489
199.9327, 85.20264
200.4148, 85.97676
200.8969, 86.78932
201.3790, 87.67638
201.8611, 88.45803
202.3433, 88.97459
202.8254, 89.19518
203.3075, 89.54756
203.7896, 90.10233
204.2717, 90.76679
204.7538, 91.28372
205.2360, 91.61565
205.7181, 91.93420
206.2002, 92.38734
206.6823, 93.02560
207.1644, 93.43203
207.6465, 93.47879
208.1287, 93.32249
208.6108, 93.46750
209.0929, 94.00530
209.5750, 94.58928
210.0571, 94.98125
210.5392, 95.12654
211.0214, 95.37041
211.5035, 95.81985
211.9856, 96.36419
212.4677, 96.57536
212.9498, 96.30436
213.4319, 96.04101
213.9140, 96.14406
214.3962, 96.78492
214.8783, 97.17628
215.3604, 97.19228
215.8425, 96.91906
216.3246, 96.69419
216.8067, 96.53140
217.2889, 96.38452
217.7710, 96.26611
218.2531, 96.27587
218.7352, 96.00905
219.2173, 95.40720
219.6994, 94.49235
220.1816, 93.39220
220.6637, 92.00035
221.1458, 90.57278
221.6279, 89.29705
222.1100, 88.23879
222.5921, 87.12621
223.0743, 85.91222
223.5564, 84.62728
224.0385, 83.33691
224.5206, 82.03386
225.0027, 80.78469
225.4848, 79.65187
225.9670, 78.72266
226.4491, 77.71268
226.9312, 76.51664
227.4133, 75.21642
227.8954, 74.17686
228.3775, 73.58364
228.8597, 73.00993
229.3418, 72.15861
229.8239, 70.77583
230.3060, 69.72211
230.7881, 69.19205
231.2702, 69.05417
231.7524, 68.67941
232.2345, 67.85794
232.7166, 67.09950
233.1987, 66.74881
233.6808, 67.07132
234.1629, 67.20191
234.6451, 67.00545
235.1272, 66.56948
235.6093, 66.27847
236.0914, 66.18372
236.5735, 66.16304
237.0556, 66.17068
237.5378, 66.29010
238.0199, 66.25112
238.5020, 65.98000
238.9841, 65.53980
239.4662, 65.17819
239.9483, 64.84927
240.4305, 64.66420
240.9126, 64.72317
241.3947, 65.25072
241.8768, 65.52042
242.3589, 65.39902
242.8410, 65.00577
243.3232, 64.75407
243.8053, 64.67664
244.2874, 64.69771
244.7695, 64.80422
245.2516, 65.10546
245.7337, 65.24402
246.2159, 65.18002
246.6980, 64.94718
247.1801, 64.63702
247.6622, 64.14747
248.1443, 63.72728
248.6264, 63.52248
249.1086, 63.67200
249.5907, 63.68843
250.0728, 63.48443
250.5549, 63.16590
251.0370, 63.02489
251.5191, 63.14864
252.0013, 63.31386
252.4834, 63.43381
252.9655, 63.51635
253.4476, 63.52478
253.9297, 63.40739
254.4118, 63.24011
254.8940, 63.20649
255.3761, 63.39512
255.8582, 63.56020
256.3403, 63.58333
256.8224, 63.40065
257.3046, 63.27241
257.7867, 63.15941
258.2688, 63.12389
258.7509, 63.33310
259.2330, 63.93836
259.7151, 64.47079
260.1973, 64.71442
260.6794, 64.56818
261.1615, 64.57524
261.6436, 64.79379
262.1257, 65.11526
262.6078, 65.31544
263.0900, 65.25887
263.5721, 65.41200
264.0542, 66.04393
264.5363, 67.30272
265.0184, 68.08727
265.5005, 68.30392
265.9827, 68.18087
266.4648, 68.01051
266.9469, 67.75976
267.4290, 67.56345
267.9111, 67.47421
268.3932, 67.49966
268.8754, 67.49477
269.3575, 67.42581
269.8396, 67.37512
270.3217, 67.46370
270.8038, 67.72485
271.2859, 67.98843
271.7681, 68.20759
272.2502, 68.38190
272.7323, 68.53419
273.2144, 68.63544
273.6965, 68.76754
274.1786, 69.06563
274.6608, 69.58816
275.1429, 69.96341
275.6250, 70.03973
276.1071, 69.87397
276.5892, 69.94393
277.0714, 70.32571
277.5535, 70.72312
278.0356, 70.85860
278.5177, 70.71618
278.9998, 70.46536
279.4819, 70.10567
279.9641, 69.66927
280.4462, 69.35620
280.9283, 69.21229
281.4104, 68.98877
281.8925, 68.37966
282.3746, 67.37697
282.8568, 66.61081
283.3389, 66.24328
283.8210, 66.13252
284.3031, 65.90033
284.7852, 65.54089
285.2673, 65.11552
285.7495, 64.62722
286.2316, 64.08604
286.7137, 63.62047
287.1958, 63.26302
287.6779, 62.96577
288.1600, 62.60163
288.6422, 62.16784
289.1243, 61.80791
289.6064, 61.64436
290.0885, 61.64448
290.5706, 61.65411
291.0527, 61.65468
291.5349, 61.66737
292.0170, 61.74279
292.4991, 61.87320
292.9812, 61.99038
293.4633, 62.05410
293.9454, 62.07399
294.4276, 62.06934
294.9097, 62.03410
295.3918, 62.00702
295.8739, 61.99455
296.3560, 62.01644
296.8381, 62.16573
297.3203, 62.63519
297.8024, 63.23426
298.2845, 63.54104
298.7666, 63.52891
299.2487, 63.42402
299.7308, 63.41137
300.2130, 63.48460
300.6951, 63.62177
301.1772, 63.70955
301.6593, 63.90510
302.1414, 64.52837
302.6235, 65.56512
303.1057, 66.64873
303.5878, 67.37186
304.0699, 67.93043
304.5520, 68.67376
305.0341, 69.77065
305.5162, 71.04675
305.9984, 72.40294
306.4805, 73.81145
306.9626, 75.17121
307.4447, 76.26463
307.9268, 77.30315
308.4089, 78.56182
308.8911, 80.21497
309.3732, 81.94824
309.8553, 83.47818
310.3374, 84.86201
310.8195, 86.32810
311.3016, 87.94585
311.7838, 89.71126
312.2659, 91.62499
312.7480, 93.64521
313.2301, 95.89702
313.7122, 98.31577
314.1943, 101.0418
314.6765, 104.3216
315.1586, 108.4653
315.6407, 113.0418
316.1228, 117.8133
316.6049, 122.6850
317.0870, 127.9401
317.5692, 134.2499
318.0513, 140.8594
318.5334, 146.6725
319.0155, 151.0746
319.4976, 154.8376
319.9797, 158.3529
320.4619, 161.6985
320.9440, 164.1661
321.4261, 166.1540
321.9082, 166.8856
322.3903, 165.6063
322.8724, 162.1152
323.3546, 156.6420
323.8367, 148.5587
324.3188, 137.9754
324.8009, 127.5278
325.2830, 116.8979
325.7651, 107.0913
326.2473, 98.79219
326.7294, 92.57433
327.2115, 87.27369
327.6936, 82.89471
328.1757, 79.41631
328.6578, 76.53008
329.1400, 74.57323
329.6221, 72.91392
330.1042, 71.25210
330.5863, 69.25481
331.0684, 67.81430
331.5505, 67.22780
332.0327, 67.14806
332.5148, 66.81089
332.9969, 66.02777
333.4790, 65.22958
333.9611, 64.52124
334.4432, 63.87227
334.9254, 63.45039
335.4075, 63.39178
335.8896, 63.44657
336.3717, 63.23429
336.8538, 62.59511
337.3359, 62.08032
337.8180, 61.87208
338.3001, 61.96545
338.7823, 62.02052
339.2644, 62.04121
339.7465, 62.01846
340.2286, 61.90837
340.7107, 61.68032
341.1928, 61.57580
341.6750, 61.69883
342.1571, 61.96469
342.6392, 62.03197
343.1213, 61.88500
343.6034, 61.63144
344.0855, 61.26338
344.5677, 60.79597
345.0498, 60.57286
345.5319, 60.71210
346.0140, 60.98976
346.4961, 60.90804
346.9782, 60.48429
347.4604, 60.14925
347.9425, 60.21248
348.4246, 60.57394
348.9067, 60.87317
349.3888, 61.08620
349.8709, 61.26266
350.3531, 61.45363
350.8352, 61.65654
351.3173, 61.86111
351.7994, 62.08776
352.2815, 62.30604
352.7636, 62.42933
353.2458, 62.45730
353.7279, 62.53507
354.2100, 62.85243
354.6921, 63.29261
355.1742, 63.66126
355.6563, 63.95794
356.1385, 64.09847
356.6206, 63.94363
357.1027, 63.53451
357.5848, 63.08448
358.0669, 62.66996
358.5490, 62.29716
359.0312, 61.97279
359.5133, 61.69434
359.9954, 61.46667
360.4775, 61.31531
360.9596, 61.21655
361.4417, 61.12172
361.9239, 60.96729
362.4060, 60.84471
362.8881, 60.80589
363.3702, 60.86266
363.8523, 60.97002
364.3344, 61.24070
364.8166, 61.51027
365.2987, 61.59162
365.7808, 61.13720
366.2629, 60.79227
366.7450, 60.80876
367.2271, 61.18676
367.7093, 61.42758
368.1914, 61.40186
368.6735, 61.26557
369.1556, 61.11655
369.6377, 60.80741
370.1198, 60.68138
370.6020, 60.83973
371.0841, 61.20218
371.5662, 61.48491
372.0483, 61.68824
372.5304, 61.80626
373.0125, 61.81932
373.4947, 61.67083
373.9768, 61.58227
374.4589, 61.58288
374.9410, 61.61894
375.4231, 61.59855
375.9052, 61.49647
376.3874, 61.40856
376.8695, 61.34605
377.3516, 61.31180
377.8337, 61.40949
378.3158, 61.66603
378.7979, 61.98559
379.2801, 62.33702
379.7622, 62.73586
380.2443, 62.85669
380.7264, 62.49377
381.2085, 61.93310
381.6906, 62.07394
382.1728, 62.92978
382.6549, 63.71654
383.1370, 63.77150
383.6191, 63.28203
384.1012, 62.99343
384.5833, 63.00099
385.0655, 63.13821
385.5476, 63.13365
386.0297, 63.05312
386.5118, 63.13977
386.9939, 63.67591
387.4760, 64.38371
387.9582, 64.86124
388.4403, 65.10320
388.9224, 65.24920
389.4045, 65.35726
389.8866, 65.45474
390.3687, 65.58057
390.8509, 65.74220
391.3330, 65.94193
391.8151, 66.17447
392.2972, 66.44550
392.7793, 66.77908
393.2614, 67.36404
393.7436, 67.90199
394.2257, 68.16497
394.7078, 68.00784
395.1899, 67.82430
395.6720, 67.71315
396.1541, 67.66953
396.6363, 67.68606
397.1184, 67.81357
397.6005, 67.95101
398.0826, 68.03374
398.5647, 68.03796
399.0468, 68.16978
399.5290, 68.60721
400.0111, 69.09122
400.4932, 69.41465
400.9753, 69.47606
401.4574, 69.50800
401.9395, 69.47473
402.4217, 69.41565
402.9038, 69.55070
403.3859, 70.09140
403.8680, 70.51662
404.3501, 70.52966
404.8322, 69.97054
405.3144, 69.57494
405.7965, 69.41607
406.2786, 69.33883
406.7607, 69.09418
407.2428, 68.66072
407.7249, 68.16177
408.2071, 67.56216
408.6892, 66.91623
409.1713, 66.69774
409.6534, 66.98384
410.1355, 67.24059
410.6176, 66.80017
411.0998, 65.81717
411.5819, 65.24455
412.0640, 65.36540
412.5461, 65.81051
413.0282, 66.02898
413.5103, 66.04195
413.9925, 65.98410
414.4746, 65.83662
414.9567, 65.69968
415.4388, 65.76283
415.9209, 66.05920
416.4030, 66.38918
416.8852, 66.58270
417.3673, 66.70112
417.8494, 66.84515
418.3315, 67.08686
418.8136, 67.34200
419.2957, 67.59779
419.7779, 67.83928
420.2600, 67.98373
420.7421, 67.72802
421.2242, 67.52283
421.7063, 67.74028
422.1884, 68.74413
422.6706, 69.61052
423.1527, 70.02637
423.6348, 70.16944
424.1169, 70.37766
424.5990, 70.69010
425.0811, 71.08633
425.5633, 71.57598
426.0454, 72.16926
426.5275, 72.76665
427.0096, 73.31252
427.4917, 73.91085
427.9738, 74.66935
428.4560, 75.71574
428.9381, 76.62811
429.4202, 77.24161
429.9023, 77.70071
430.3844, 78.61153
430.8665, 80.13798
431.3487, 81.63494
431.8308, 82.67421
432.3129, 83.21096
432.7950, 84.18932
433.2771, 85.72033
433.7592, 87.41546
434.2414, 88.70581
434.7235, 89.64082
435.2056, 90.82524
435.6877, 92.53352
436.1698, 94.54640
436.6519, 96.40124
437.1341, 98.11337
437.6162, 99.91991
438.0983, 102.0963
438.5804, 104.4823
439.0625, 106.8072
439.5446, 109.0256
440.0268, 111.1844
440.5089, 113.2167
440.9910, 115.2324
441.4731, 117.4206
441.9552, 120.0789
442.4373, 122.7907
442.9195, 125.3206
443.4016, 127.6609
443.8837, 129.9349
444.3658, 132.2195
444.8479, 134.4494
445.3300, 136.5407
445.8122, 138.2936
446.2943, 140.1710
446.7764, 142.5168
447.2585, 145.0612
447.7406, 147.1138
448.2227, 148.3828
448.7049, 149.3968
449.1870, 150.2987
449.6691, 151.0840
450.1512, 151.7634
450.6333, 152.4146
451.1154, 152.8724
451.5976, 152.9392
452.0797, 152.5117
452.5618, 152.0495
453.0439, 151.6273
453.5260, 151.2185
454.0081, 150.6403
454.4903, 149.8400
454.9724, 149.2108
455.4545, 148.9520
455.9366, 149.0492
456.4187, 149.4253
456.9008, 150.0934
457.3830, 150.9339
457.8651, 151.6467
458.3472, 152.3781
458.8293, 153.5882
459.3114, 155.5724
459.7935, 157.9642
460.2757, 160.4107
460.7578, 162.9014
461.2399, 165.4399
461.7220, 168.2016
462.2041, 170.9213
462.6862, 173.3472
463.1684, 175.4553
463.6505, 177.1981
464.1326, 178.9786
464.6147, 180.2338
465.0968, 180.2455
465.5789, 178.6609
466.0611, 175.9478
466.5432, 172.0049
467.0253, 166.9150
467.5074, 161.3848
467.9895, 154.9930
468.4716, 148.5754
468.9538, 142.5395
469.4359, 136.9770
469.9180, 131.7285
470.4001, 126.6610
470.8822, 121.9443
471.3643, 117.8291
471.8465, 114.4137
472.3286, 111.3126
472.8107, 108.4359
473.2928, 105.8143
473.7749, 103.3965
474.2570, 101.1888
474.7392, 99.21744
475.2213, 97.48739
475.7034, 96.00475
476.1855, 94.86577
476.6676, 94.13883
477.1497, 93.55601
477.6319, 92.85036
478.1140, 92.01202
478.5961, 91.01073
479.0782, 89.61050
479.5603, 88.17850
480.0424, 87.20368
480.5246, 86.63448
481.0067, 86.08552
481.4888, 85.31525
481.9709, 84.45560
482.4530, 83.58372
482.9352, 82.60987
483.4173, 81.88697
483.8994, 81.84489
484.3815, 82.07582
484.8636, 81.95976
485.3457, 80.90553
485.8279, 79.95435
486.3100, 79.40561
486.7921, 79.26848
487.2742, 79.16116
487.7563, 79.13697
488.2384, 79.08993
488.7206, 78.93308
489.2027, 78.54057
489.6848, 78.41118
490.1669, 78.67399
490.6490, 79.07023
491.1311, 79.20699
491.6133, 79.06992
492.0954, 78.75239
492.5775, 78.19835
493.0596, 77.50603
493.5417, 77.04362
494.0238, 76.81343
494.5060, 76.67784
494.9881, 76.53478
495.4702, 76.40810
495.9523, 76.36337
496.4344, 76.41712
496.9165, 76.51299
497.3987, 76.58424
497.8808, 76.65829
498.3629, 76.78589
498.8450, 77.23685
499.3271, 77.54003
499.8092, 77.20470
500.2914, 76.36327
500.7735, 75.76920
501.2556, 75.92940
501.7377, 76.25736
502.2198, 76.43156
502.7019, 76.42117
503.1841, 76.24527
503.6662, 75.69263
504.1483, 75.06567
504.6304, 74.73316
505.1125, 74.94801
505.5946, 75.04825
506.0768, 74.88007
506.5589, 74.51252
507.0410, 74.30561
507.5231, 74.30917
508.0052, 74.33092
508.4873, 74.26154
508.9695, 74.10036
509.4516, 73.97359
509.9337, 73.88828
510.4158, 73.80785
510.8979, 73.70019
511.3800, 73.56292
511.8622, 73.38855
512.3443, 73.16516
512.8264, 72.91768
513.3085, 72.68291
513.7906, 72.45213
514.2728, 72.19328
514.7549, 71.79000
515.2370, 71.41586
515.7191, 71.26575
516.2012, 71.36644
516.6833, 71.42727
517.1655, 71.31345
517.6476, 71.10180
518.1297, 70.85625
518.6118, 70.50375
519.0939, 70.22672
519.5760, 70.07131
520.0582, 70.01179
520.5403, 69.98254
521.0224, 70.04823
521.5045, 70.05386
521.9866, 69.95302
522.4688, 69.74442
522.9509, 69.46985
523.4330, 69.06243
523.9151, 68.73720
524.3972, 68.74360
524.8793, 69.09206
525.3615, 69.16478
525.8436, 68.82702
526.3257, 68.42025
526.8078, 68.63763
527.2899, 69.30827
527.7720, 69.59301
528.2542, 68.83793
528.7363, 67.77060
529.2184, 67.40855
529.7005, 67.64987
530.1826, 67.92050
530.6647, 67.90529
531.1469, 67.74479
531.6290, 67.54037
532.1111, 67.29516
532.5932, 67.06970
533.0753, 66.82253
533.5574, 66.63593
534.0396, 66.59911
534.5217, 67.07173
535.0038, 67.28955
535.4859, 66.98153
535.9680, 66.33455
536.4501, 65.94028
536.9323, 65.91811
537.4144, 65.94717
537.8965, 65.91656
538.3786, 65.82440
538.8607, 65.75835
539.3428, 65.73280
539.8250, 65.68804
540.3071, 65.53630
540.7892, 65.29591
541.2713, 65.12319
541.7534, 65.03806
542.2355, 65.04024
542.7177, 65.20836
543.1998, 65.47903
543.6819, 65.64554
544.1640, 65.57085
544.6461, 65.37786
545.1282, 65.10867
545.6104, 64.79140
546.0925, 64.58775
546.5746, 64.77345
547.0567, 64.96737
547.5388, 64.82890
548.0209, 64.11019
548.5031, 63.75202
548.9852, 64.33370
549.4673, 65.18524
549.9494, 65.59972
550.4315, 65.37025
550.9136, 64.98739
551.3958, 64.33949
551.8779, 63.60778
552.3600, 63.40152
552.8421, 63.86357
553.3242, 64.34624
553.8063, 64.60752
554.2885, 64.65962
554.7706, 64.57737
555.2527, 64.35490
555.7348, 64.06345
556.2169, 63.64674
556.6990, 63.21465
557.1812, 63.08435
557.6633, 63.36310
558.1454, 63.72718
558.6275, 63.86333
559.1096, 63.86648
559.5917, 63.90656
560.0739, 64.24924
560.5560, 64.45856
561.0381, 64.19664
561.5202, 63.57784
562.0023, 63.10063
562.4844, 62.85602
562.9666, 62.80889
563.4487, 63.03351
563.9308, 63.63853
564.4129, 63.94559
564.8950, 63.87345
565.3771, 63.59067
565.8593, 63.15217
566.3414, 62.43495
566.8235, 62.13183
567.3056, 62.42505
567.7877, 62.97891
568.2698, 63.19446
568.7520, 63.08779
569.2341, 62.88671
569.7162, 62.60112
570.1983, 62.32747
570.6804, 62.25421
571.1625, 62.36543
571.6447, 62.54045
572.1268, 62.82892
572.6089, 63.07049
573.0910, 63.05651
573.5731, 62.72772
574.0552, 62.44139
574.5374, 62.35542
575.0195, 62.38890
575.5016, 62.46497
575.9837, 62.57489
576.4658, 62.71900
576.9479, 62.98057
577.4301, 63.25605
577.9122, 63.31719
578.3943, 62.99666
578.8764, 62.79797
579.3585, 62.90105
579.8406, 63.25069
580.3228, 63.46612
580.8049, 63.53765
581.2870, 63.53593
581.7691, 63.48834
582.2512, 63.40485
582.7333, 63.30693
583.2155, 63.19054
583.6975, 63.12186
584.1796, 63.22308
584.6617, 63.40049
585.1439, 63.47871
585.6260, 63.30899
586.1081, 63.21581
586.5902, 63.54906
587.0723, 64.08495
587.5544, 64.38628
588.0366, 64.13765
588.5187, 63.83410
589.0008, 63.58097
589.4829, 63.38883
589.9650, 63.34203
590.4471, 63.52587
590.9293, 63.74215
591.4114, 63.90820
591.8935, 64.02700
592.3756, 64.07999
592.8577, 64.07283
593.3398, 63.98275
593.8220, 63.70346
594.3041, 63.27739
594.7862, 63.04336
595.2683, 63.08205
595.7504, 63.28351
596.2325, 63.61907
596.7147, 64.01215
597.1968, 64.25766
597.6789, 64.08763
598.1610, 63.89093
598.6431, 64.02641
599.1252, 64.40913
599.6074, 64.63969
600.0895, 64.42921
600.5716, 64.15956
601.0537, 64.01698
601.5358, 64.04788
602.0179, 64.05284
602.5001, 63.97394
602.9822, 63.92372
603.4643, 64.00035
603.9464, 64.24955
604.4285, 64.45590
604.9106, 64.61907
605.3928, 64.71676
605.8749, 64.64383
606.3570, 64.42358
606.8391, 64.38500
607.3212, 64.73473
607.8033, 65.18039
608.2855, 65.22494
608.7676, 64.96317
609.2497, 64.74708
609.7318, 64.83716
610.2139, 65.00168
610.6960, 65.05073
611.1782, 64.97905
611.6603, 64.93143
612.1424, 64.90443
612.6245, 64.95658
613.1066, 65.15655
613.5887, 65.68890
614.0709, 65.93878
614.5530, 65.72778
615.0351, 65.39884
615.5172, 65.32046
615.9993, 65.54965
616.4814, 65.78011
616.9636, 65.98479
617.4457, 66.14511
617.9278, 66.16472
618.4099, 66.06721
618.8920, 66.10245
619.3741, 66.54539
619.8563, 67.05499
620.3384, 67.02226
620.8205, 66.55075
621.3026, 66.16106
621.7847, 66.25540
622.2668, 66.47213
622.7490, 66.53062
623.2311, 66.38891
623.7132, 66.29214
624.1953, 66.31744
624.6774, 66.40407
625.1595, 66.51202
625.6417, 66.65321
626.1238, 66.79578
626.6059, 66.94823
627.0880, 67.09380
627.5701, 67.19369
628.0522, 67.23838
628.5344, 67.34897
629.0165, 67.58696
629.4986, 67.85034
629.9807, 67.88425
630.4628, 67.73742
630.9449, 67.67315
631.4271, 67.94454
631.9092, 68.28335
632.3913, 68.36337
632.8734, 68.22179
633.3555, 68.10674
633.8376, 68.12135
634.3198, 68.21451
634.8019, 68.39877
635.2840, 68.72184
635.7661, 68.87806
636.2482, 68.61844
636.7303, 68.36559
637.2125, 68.44632
637.6946, 69.06262
638.1767, 69.40022
638.6588, 69.34129
639.1409, 69.15146
639.6230, 69.22283
640.1052, 69.53849
640.5873, 69.85767
641.0694, 70.16848
641.5515, 70.36552
642.0336, 70.16444
642.5157, 69.69789
642.9979, 69.34972
643.4800, 69.43237
643.9621, 69.60100
644.4442, 69.60593
644.9263, 69.47343
645.4084, 69.38358
645.8906, 69.41981
646.3727, 69.48980
646.8548, 69.52498
647.3369, 69.49653
647.8190, 69.66718
648.3011, 70.21507
648.7833, 70.69299
649.2654, 70.68855
649.7475, 70.14574
650.2296, 69.81273
650.7117, 69.74126
651.1938, 69.83575
651.6760, 70.04675
652.1581, 70.33459
652.6402, 70.57355
653.1223, 70.73510
653.6044, 70.82818
654.0865, 70.80122
654.5687, 70.72067
655.0508, 70.71426
655.5329, 70.86756
656.0150, 71.06435
656.4971, 71.38892
656.9792, 71.76161
657.4614, 71.76035
657.9435, 70.95118
658.4256, 70.36436
658.9077, 70.41303
659.3898, 71.06389
659.8719, 71.49873
660.3541, 71.69756
660.8362, 71.77290
661.3183, 71.74306
661.8004, 71.64809
662.2825, 71.66536
662.7646, 71.81062
663.2468, 71.96252
663.7289, 72.05278
664.2110, 72.07079
664.6931, 71.97179
665.1752, 71.66211
665.6573, 71.46176
666.1395, 71.58308
666.6216, 71.86325
667.1037, 72.10172
667.5858, 72.37599
668.0679, 72.45153
668.5500, 72.16618
669.0322, 71.73519
669.5143, 71.70203
669.9964, 72.18462
670.4785, 72.46371
670.9606, 72.21757
671.4427, 71.68998
671.9249, 71.58591
672.4070, 71.86207
672.8891, 72.18184
673.3712, 72.45770
