##NAMES=Metavoltine
##RRUFFID=R070542
##IDEAL CHEMISTRY=K_2_Na_6_Fe^2+^Fe^3+^_6_O_2_(S^6+^O_4_)_12_&#183;18H_2_O
##LOCALITY=Vulcano Island. Lipari Islands, Messina Province, Sicily, Italy
##OWNER=RRUFF
##SOURCE=James Shigley
##DESCRIPTION=Dark yellow granular crystals
##STATUS=The identification of this mineral has been made only by X-ray diffraction.
##URL=rruff.info/R070542
128.9422, 277.5892
129.4243, 284.1006
129.9064, 293.5038
130.3886, 306.0186
130.8707, 320.8402
131.3528, 335.9934
131.8349, 350.7231
132.3170, 366.2510
132.7991, 385.5683
133.2813, 408.9147
133.7634, 433.1130
134.2455, 456.2131
134.7276, 478.0561
135.2097, 499.3368
135.6918, 519.9548
136.1740, 540.0378
136.6561, 560.5822
137.1382, 581.2374
137.6203, 603.6308
138.1024, 630.2167
138.5845, 661.7729
139.0667, 694.4644
139.5488, 728.2015
140.0309, 763.2792
140.5130, 796.5214
140.9951, 828.2796
141.4772, 858.2561
141.9594, 885.0998
142.4415, 908.0057
142.9236, 930.2185
143.4057, 952.8154
143.8878, 974.2795
144.3699, 999.9922
144.8521, 1029.984
145.3342, 1064.214
145.8163, 1102.505
146.2984, 1152.261
146.7805, 1197.604
147.2626, 1230.529
147.7448, 1238.446
148.2269, 1253.915
148.7090, 1283.690
149.1911, 1325.673
149.6732, 1356.689
150.1554, 1366.935
150.6375, 1372.778
151.1196, 1384.841
151.6017, 1413.635
152.0838, 1437.762
152.5659, 1454.253
153.0481, 1462.905
153.5302, 1469.198
154.0123, 1470.971
154.4944, 1471.514
154.9765, 1473.941
155.4586, 1473.619
155.9408, 1479.795
156.4229, 1498.003
156.9050, 1526.809
157.3871, 1541.215
157.8692, 1534.820
158.3513, 1520.760
158.8335, 1515.909
159.3156, 1536.076
159.7977, 1556.639
160.2798, 1566.561
160.7619, 1560.966
161.2440, 1554.131
161.7262, 1550.091
162.2083, 1547.971
162.6904, 1545.878
163.1725, 1544.303
163.6546, 1541.826
164.1367, 1537.061
164.6189, 1526.369
165.1010, 1518.192
165.5831, 1517.554
166.0652, 1522.987
166.5473, 1529.160
167.0294, 1534.180
167.5116, 1538.153
167.9937, 1541.091
168.4758, 1542.382
168.9579, 1543.131
169.4400, 1545.535
169.9221, 1549.040
170.4043, 1548.760
170.8864, 1535.820
171.3685, 1518.535
171.8506, 1507.831
172.3327, 1512.780
172.8148, 1523.067
173.2970, 1529.705
173.7791, 1532.543
174.2612, 1535.110
174.7433, 1542.575
175.2254, 1551.787
175.7076, 1556.654
176.1897, 1547.373
176.6718, 1535.186
177.1539, 1535.551
177.6360, 1550.499
178.1181, 1569.599
178.6003, 1584.209
179.0824, 1595.112
179.5645, 1604.233
180.0466, 1612.222
180.5287, 1619.431
181.0108, 1625.995
181.4930, 1631.597
181.9751, 1637.791
182.4572, 1648.194
182.9393, 1661.906
183.4214, 1673.095
183.9035, 1675.836
184.3857, 1673.146
184.8678, 1673.057
185.3499, 1676.726
185.8320, 1683.251
186.3141, 1691.928
186.7962, 1702.707
187.2784, 1713.500
187.7605, 1723.911
188.2426, 1733.383
188.7247, 1739.190
189.2068, 1739.400
189.6889, 1736.851
190.1711, 1737.555
190.6532, 1741.550
191.1353, 1747.750
191.6174, 1757.373
192.0995, 1769.596
192.5816, 1777.177
193.0638, 1776.426
193.5459, 1770.358
194.0280, 1770.568
194.5101, 1778.321
194.9922, 1785.275
195.4743, 1780.566
195.9565, 1764.444
196.4386, 1752.245
196.9207, 1750.088
197.4028, 1756.062
197.8849, 1757.178
198.3671, 1752.068
198.8492, 1746.487
199.3313, 1749.863
199.8134, 1763.646
200.2955, 1771.465
200.7776, 1765.280
201.2598, 1745.876
201.7419, 1733.469
202.2240, 1729.871
202.7061, 1729.317
203.1882, 1721.959
203.6703, 1705.735
204.1525, 1693.132
204.6346, 1689.672
205.1167, 1695.983
205.5988, 1701.793
206.0809, 1707.278
206.5630, 1711.990
207.0452, 1713.634
207.5273, 1710.037
208.0094, 1711.020
208.4915, 1724.913
208.9736, 1756.341
209.4557, 1770.552
209.9379, 1761.310
210.4200, 1740.120
210.9021, 1732.837
211.3842, 1744.693
211.8663, 1756.532
212.3484, 1758.793
212.8306, 1749.615
213.3127, 1737.963
213.7948, 1719.813
214.2769, 1701.419
214.7590, 1703.063
215.2411, 1733.847
215.7233, 1765.134
216.2054, 1778.960
216.6875, 1767.767
217.1696, 1765.105
217.6517, 1774.792
218.1338, 1794.021
218.6160, 1812.981
219.0981, 1832.830
219.5802, 1850.623
220.0623, 1864.952
220.5444, 1876.815
221.0265, 1881.391
221.5087, 1873.445
221.9908, 1857.461
222.4729, 1857.391
222.9550, 1880.818
223.4371, 1908.736
223.9192, 1929.440
224.4014, 1941.643
224.8835, 1948.400
225.3656, 1946.296
225.8477, 1937.692
226.3298, 1941.455
226.8119, 1965.498
227.2941, 1991.398
227.7762, 2004.876
228.2583, 1997.865
228.7404, 1995.893
229.2225, 2003.819
229.7046, 2020.486
230.1868, 2033.622
230.6689, 2040.802
231.1510, 2047.063
231.6331, 2056.693
232.1152, 2071.778
232.5974, 2086.213
233.0795, 2101.454
233.5616, 2117.096
234.0437, 2120.912
234.5258, 2102.102
235.0079, 2083.431
235.4901, 2086.743
235.9722, 2127.781
236.4543, 2160.023
236.9364, 2173.104
237.4185, 2167.019
237.9006, 2167.123
238.3828, 2176.170
238.8649, 2188.468
239.3470, 2198.615
239.8291, 2203.668
240.3112, 2211.885
240.7933, 2225.669
241.2755, 2245.250
241.7576, 2262.529
242.2397, 2277.833
242.7218, 2290.374
243.2039, 2298.760
243.6860, 2299.735
244.1682, 2302.734
244.6503, 2310.569
245.1324, 2323.612
245.6145, 2332.832
246.0966, 2334.708
246.5787, 2336.253
247.0609, 2345.437
247.5430, 2366.976
248.0251, 2387.240
248.5072, 2403.851
248.9893, 2416.653
249.4714, 2425.242
249.9536, 2424.118
250.4357, 2424.087
250.9178, 2438.927
251.3999, 2479.086
251.8820, 2512.687
252.3641, 2531.416
252.8463, 2534.182
253.3284, 2537.261
253.8105, 2537.160
254.2926, 2540.936
254.7747, 2557.931
255.2568, 2595.450
255.7390, 2630.933
256.2211, 2658.034
256.7032, 2675.658
257.1853, 2700.865
257.6674, 2737.271
258.1495, 2776.877
258.6317, 2809.394
259.1138, 2828.960
259.5959, 2854.318
260.0780, 2889.172
260.5601, 2933.908
261.0422, 2987.406
261.5244, 3053.594
262.0065, 3123.476
262.4886, 3187.511
262.9707, 3248.939
263.4528, 3296.975
263.9349, 3325.887
264.4171, 3335.048
264.8992, 3352.827
265.3813, 3387.403
265.8634, 3419.250
266.3455, 3424.679
266.8276, 3395.948
267.3098, 3365.546
267.7919, 3343.338
268.2740, 3329.291
268.7561, 3301.004
269.2382, 3259.409
269.7203, 3203.094
270.2025, 3124.212
270.6846, 3014.853
271.1667, 2916.564
271.6488, 2843.366
272.1309, 2793.532
272.6130, 2724.144
273.0952, 2627.432
273.5773, 2527.698
274.0594, 2453.522
274.5415, 2410.475
275.0236, 2361.891
275.5057, 2296.131
275.9879, 2216.152
276.4700, 2147.879
276.9521, 2092.380
277.4342, 2045.669
277.9163, 2005.342
278.3984, 1971.980
278.8806, 1939.225
279.3627, 1903.781
279.8448, 1867.657
280.3269, 1842.632
280.8090, 1830.605
281.2911, 1823.361
281.7733, 1814.451
282.2554, 1803.903
282.7375, 1789.133
283.2196, 1767.122
283.7017, 1740.967
284.1838, 1725.213
284.6660, 1721.755
285.1481, 1717.595
285.6302, 1698.631
286.1123, 1665.748
286.5944, 1636.457
287.0765, 1614.679
287.5587, 1599.042
288.0408, 1585.556
288.5229, 1574.103
289.0050, 1565.897
289.4871, 1564.389
289.9692, 1568.224
290.4514, 1568.385
290.9335, 1562.664
291.4156, 1552.549
291.8977, 1539.547
292.3798, 1523.629
292.8619, 1510.099
293.3441, 1504.193
293.8262, 1504.426
294.3083, 1506.278
294.7904, 1510.928
295.2726, 1513.900
295.7547, 1502.511
296.2368, 1478.477
296.7189, 1460.164
297.2010, 1469.007
297.6831, 1493.569
298.1653, 1504.619
298.6474, 1493.694
299.1295, 1474.588
299.6116, 1464.407
300.0937, 1462.257
300.5758, 1462.840
301.0580, 1462.011
301.5401, 1461.815
302.0222, 1467.806
302.5043, 1483.805
302.9864, 1497.745
303.4685, 1490.296
303.9507, 1467.814
304.4328, 1452.038
304.9149, 1466.504
305.3970, 1490.490
305.8791, 1496.619
306.3612, 1478.172
306.8434, 1453.956
307.3255, 1438.461
307.8076, 1429.823
308.2897, 1423.549
308.7718, 1418.923
309.2539, 1414.819
309.7361, 1409.224
310.2182, 1401.212
310.7003, 1396.014
311.1824, 1399.928
311.6645, 1408.902
312.1466, 1415.957
312.6288, 1419.239
313.1109, 1418.750
313.5930, 1413.117
314.0751, 1401.695
314.5572, 1391.272
315.0393, 1383.288
315.5215, 1378.965
316.0036, 1379.844
316.4857, 1397.591
316.9678, 1411.401
317.4499, 1407.097
317.9320, 1383.530
318.4142, 1365.372
318.8963, 1366.444
319.3784, 1375.394
319.8605, 1381.347
320.3426, 1376.396
320.8247, 1372.688
321.3069, 1374.841
321.7890, 1382.595
322.2711, 1390.251
322.7532, 1399.392
323.2353, 1406.232
323.7174, 1408.031
324.1996, 1398.003
324.6817, 1389.688
325.1638, 1387.024
325.6459, 1388.986
326.1280, 1388.317
326.6101, 1380.105
327.0923, 1371.938
327.5744, 1367.998
328.0565, 1374.048
328.5386, 1377.564
329.0207, 1376.708
329.5028, 1372.872
329.9850, 1370.928
330.4671, 1371.322
330.9492, 1373.268
331.4313, 1376.565
331.9134, 1382.041
332.3955, 1387.576
332.8777, 1394.910
333.3598, 1401.808
333.8419, 1403.200
334.3240, 1396.139
334.8061, 1387.979
335.2882, 1379.610
335.7704, 1367.824
336.2525, 1369.870
336.7346, 1394.425
337.2167, 1424.918
337.6988, 1432.827
338.1809, 1409.769
338.6631, 1388.981
339.1452, 1382.498
339.6273, 1390.816
340.1094, 1395.074
340.5915, 1393.886
341.0736, 1391.557
341.5558, 1395.179
342.0379, 1406.112
342.5200, 1410.833
343.0021, 1403.053
343.4842, 1385.992
343.9663, 1376.089
344.4485, 1373.940
344.9306, 1376.300
345.4127, 1380.747
345.8948, 1387.233
346.3769, 1396.001
346.8590, 1408.955
347.3412, 1422.558
347.8233, 1427.920
348.3054, 1425.153
348.7875, 1418.821
349.2696, 1410.495
349.7517, 1401.227
350.2339, 1393.491
350.7160, 1387.328
351.1981, 1383.693
351.6802, 1386.667
352.1623, 1394.539
352.6444, 1398.984
353.1266, 1388.815
353.6087, 1373.767
354.0908, 1369.639
354.5729, 1379.932
355.0550, 1394.391
355.5371, 1407.691
356.0193, 1418.310
356.5014, 1422.502
356.9835, 1414.818
357.4656, 1402.220
357.9477, 1388.353
358.4298, 1372.991
358.9120, 1363.431
359.3941, 1369.081
359.8762, 1381.788
360.3583, 1391.275
360.8404, 1391.968
361.3225, 1389.927
361.8047, 1386.659
362.2868, 1382.407
362.7689, 1380.848
363.2510, 1386.419
363.7331, 1393.633
364.2152, 1398.075
364.6974, 1396.444
365.1795, 1394.201
365.6616, 1391.987
366.1437, 1389.946
366.6258, 1388.796
367.1079, 1391.293
367.5901, 1392.796
368.0722, 1390.793
368.5543, 1380.352
369.0364, 1373.501
369.5185, 1373.656
370.0006, 1377.538
370.4828, 1377.638
370.9649, 1369.110
371.4470, 1362.331
371.9291, 1360.724
372.4112, 1365.364
372.8933, 1371.873
373.3755, 1381.928
373.8576, 1392.351
374.3397, 1398.489
374.8218, 1398.744
375.3039, 1398.235
375.7861, 1398.667
376.2682, 1399.918
376.7503, 1396.773
377.2324, 1386.662
377.7145, 1377.733
378.1967, 1379.166
378.6788, 1392.191
379.1609, 1403.806
379.6430, 1412.632
380.1251, 1417.799
380.6072, 1413.980
381.0894, 1400.118
381.5715, 1388.411
382.0536, 1390.771
382.5357, 1404.364
383.0178, 1412.485
383.4999, 1412.917
383.9821, 1407.676
384.4642, 1394.337
384.9463, 1375.210
385.4284, 1365.521
385.9105, 1381.396
386.3926, 1410.009
386.8748, 1428.504
387.3569, 1435.133
387.8390, 1435.380
388.3211, 1430.397
388.8032, 1422.947
389.2853, 1418.770
389.7675, 1424.710
390.2496, 1431.819
390.7317, 1432.078
391.2138, 1425.719
391.6959, 1417.896
392.1780, 1409.200
392.6602, 1401.551
393.1423, 1396.853
393.6244, 1394.506
394.1065, 1396.495
394.5886, 1407.335
395.0707, 1424.117
395.5529, 1436.528
396.0350, 1440.141
396.5171, 1439.296
396.9992, 1435.170
397.4813, 1423.139
397.9634, 1417.691
398.4456, 1425.569
398.9277, 1440.467
399.4098, 1451.438
399.8919, 1458.133
400.3740, 1460.304
400.8561, 1456.223
401.3383, 1444.269
401.8204, 1436.624
402.3025, 1435.447
402.7846, 1436.810
403.2667, 1437.100
403.7488, 1436.119
404.2310, 1434.669
404.7131, 1433.324
405.1952, 1431.716
405.6773, 1425.537
406.1594, 1410.940
406.6415, 1401.865
407.1237, 1412.025
407.6058, 1443.498
408.0879, 1463.978
408.5700, 1468.835
409.0521, 1464.401
409.5342, 1461.042
410.0164, 1458.754
410.4985, 1459.313
410.9806, 1463.582
411.4627, 1471.441
411.9448, 1484.739
412.4269, 1504.650
412.9091, 1521.572
413.3912, 1521.044
413.8733, 1508.671
414.3554, 1499.214
414.8375, 1498.702
415.3196, 1503.330
415.8018, 1510.813
416.2839, 1520.500
416.7660, 1527.907
417.2481, 1524.906
417.7302, 1520.100
418.2123, 1523.703
418.6945, 1542.429
419.1766, 1561.215
419.6587, 1572.121
420.1408, 1576.681
420.6229, 1578.012
421.1050, 1570.518
421.5872, 1565.628
422.0693, 1570.211
422.5514, 1587.129
423.0335, 1603.210
423.5156, 1615.844
423.9977, 1626.219
424.4799, 1635.862
424.9620, 1644.443
425.4441, 1652.472
425.9262, 1659.169
426.4083, 1664.707
426.8904, 1673.044
427.3726, 1686.183
427.8547, 1700.057
428.3368, 1712.243
428.8189, 1722.213
429.3010, 1731.776
429.7831, 1739.568
430.2653, 1748.064
430.7474, 1764.325
431.2295, 1790.782
431.7116, 1815.817
432.1937, 1835.815
432.6758, 1850.736
433.1580, 1856.423
433.6401, 1850.784
434.1222, 1844.028
434.6043, 1849.612
435.0864, 1865.773
435.5685, 1879.304
436.0507, 1884.862
436.5328, 1886.869
437.0149, 1894.978
437.4970, 1908.208
437.9791, 1919.190
438.4612, 1917.250
438.9434, 1911.129
439.4255, 1915.364
439.9076, 1934.480
440.3897, 1957.161
440.8718, 1976.450
441.3539, 1992.162
441.8361, 2003.508
442.3182, 2004.619
442.8003, 2005.782
443.2824, 2014.904
443.7645, 2032.635
444.2466, 2047.472
444.7288, 2049.974
445.2109, 2050.390
445.6930, 2057.135
446.1751, 2085.108
446.6572, 2104.302
447.1393, 2108.067
447.6215, 2098.689
448.1036, 2086.088
448.5857, 2067.098
449.0678, 2048.415
449.5499, 2032.924
450.0320, 2022.855
450.5142, 2008.841
450.9963, 1988.527
451.4784, 1966.437
451.9605, 1949.737
452.4426, 1940.310
452.9247, 1929.234
453.4069, 1915.106
453.8890, 1897.339
454.3711, 1869.705
454.8532, 1829.609
455.3353, 1794.402
455.8174, 1782.318
456.2996, 1789.483
456.7817, 1791.350
457.2638, 1783.236
457.7459, 1772.283
458.2281, 1768.752
458.7102, 1771.175
459.1923, 1773.707
459.6744, 1772.907
460.1565, 1770.771
460.6386, 1770.338
461.1208, 1771.746
461.6029, 1772.288
462.0850, 1770.509
462.5671, 1766.785
463.0492, 1761.354
463.5313, 1750.428
464.0135, 1742.485
464.4956, 1744.174
464.9777, 1752.407
465.4598, 1757.659
465.9419, 1752.590
466.4240, 1747.668
466.9062, 1748.097
467.3883, 1756.393
467.8704, 1763.571
468.3525, 1767.961
468.8346, 1771.439
469.3167, 1776.141
469.7989, 1783.070
470.2810, 1789.489
470.7631, 1796.325
471.2452, 1802.681
471.7273, 1800.949
472.2094, 1787.609
472.6916, 1774.845
473.1737, 1770.988
473.6558, 1776.511
474.1379, 1781.273
474.6200, 1784.318
475.1021, 1787.686
475.5843, 1796.234
476.0664, 1809.221
476.5485, 1819.152
477.0306, 1822.150
477.5127, 1820.446
477.9948, 1816.755
478.4770, 1811.262
478.9591, 1807.536
479.4412, 1808.633
479.9233, 1813.029
480.4054, 1819.341
480.8875, 1829.146
481.3697, 1836.278
481.8518, 1831.695
482.3339, 1821.646
482.8160, 1818.832
483.2981, 1837.512
483.7802, 1856.670
484.2624, 1866.031
484.7445, 1864.651
485.2266, 1860.337
485.7087, 1849.947
486.1908, 1839.795
486.6729, 1834.896
487.1551, 1839.472
487.6372, 1843.234
488.1193, 1845.175
488.6014, 1846.064
489.0835, 1848.621
489.5656, 1854.955
490.0478, 1858.432
490.5299, 1855.819
491.0120, 1846.886
491.4941, 1837.989
491.9762, 1828.353
492.4583, 1821.023
492.9405, 1819.318
493.4226, 1822.995
493.9047, 1830.531
494.3868, 1844.033
494.8689, 1857.795
495.3510, 1862.638
495.8332, 1859.095
496.3153, 1850.593
496.7974, 1830.752
497.2795, 1810.948
497.7616, 1809.282
498.2437, 1828.747
498.7259, 1845.850
499.2080, 1842.501
499.6901, 1829.069
500.1722, 1817.904
500.6543, 1813.632
501.1364, 1811.535
501.6186, 1812.629
502.1007, 1815.361
502.5828, 1813.454
503.0649, 1802.655
503.5470, 1789.713
504.0291, 1775.701
504.5113, 1756.370
504.9934, 1750.615
505.4755, 1767.296
505.9576, 1789.641
506.4397, 1799.507
506.9218, 1793.528
507.4040, 1785.233
507.8861, 1776.826
508.3682, 1767.839
508.8503, 1754.697
509.3324, 1736.444
509.8145, 1722.921
510.2967, 1725.163
510.7788, 1737.958
511.2609, 1737.925
511.7430, 1722.495
512.2252, 1705.243
512.7073, 1701.806
513.1894, 1707.050
513.6715, 1710.073
514.1536, 1707.622
514.6357, 1701.097
515.1179, 1686.325
515.6000, 1667.044
516.0821, 1656.994
516.5642, 1673.364
517.0463, 1692.681
517.5284, 1700.284
518.0106, 1692.116
518.4927, 1682.902
518.9748, 1674.943
519.4569, 1667.865
519.9390, 1661.365
520.4211, 1653.691
520.9033, 1648.953
521.3854, 1648.057
521.8675, 1650.411
522.3496, 1654.376
522.8317, 1661.613
523.3138, 1666.528
523.7960, 1665.044
524.2781, 1656.954
524.7602, 1654.384
525.2423, 1658.509
525.7244, 1663.405
526.2065, 1660.970
526.6887, 1652.962
527.1708, 1648.196
527.6529, 1649.311
528.1350, 1653.990
528.6171, 1662.314
529.0992, 1672.427
529.5814, 1677.444
530.0635, 1665.582
530.5456, 1652.174
531.0277, 1651.756
531.5098, 1665.984
531.9919, 1681.187
532.4741, 1692.332
532.9562, 1701.064
533.4383, 1708.978
533.9204, 1717.920
534.4025, 1724.101
534.8846, 1725.606
535.3668, 1724.000
535.8489, 1722.791
536.3310, 1720.133
536.8131, 1720.785
537.2952, 1727.448
537.7773, 1740.294
538.2595, 1748.560
538.7416, 1749.895
539.2237, 1753.175
539.7058, 1769.743
540.1879, 1798.834
540.6700, 1816.111
541.1522, 1816.439
541.6343, 1809.321
542.1164, 1808.103
542.5985, 1811.562
543.0806, 1814.990
543.5627, 1812.719
544.0449, 1811.345
544.5270, 1821.767
545.0091, 1842.183
545.4912, 1857.838
545.9733, 1854.964
546.4554, 1846.955
546.9376, 1844.782
547.4197, 1852.668
547.9018, 1860.442
548.3839, 1866.361
548.8660, 1870.395
549.3481, 1872.484
549.8303, 1873.228
550.3124, 1871.238
550.7945, 1864.192
551.2766, 1853.809
551.7587, 1849.572
552.2408, 1852.849
552.7230, 1859.056
553.2051, 1867.601
553.6872, 1878.701
554.1693, 1882.962
554.6514, 1879.173
555.1335, 1873.430
555.6157, 1875.447
556.0978, 1882.070
556.5799, 1880.041
557.0620, 1861.705
557.5441, 1840.148
558.0262, 1832.407
558.5084, 1834.851
558.9905, 1836.297
559.4726, 1829.780
559.9547, 1821.293
560.4368, 1814.774
560.9189, 1810.587
561.4011, 1806.729
561.8832, 1801.391
562.3653, 1796.922
562.8474, 1795.035
563.3295, 1801.159
563.8116, 1802.633
564.2938, 1798.534
564.7759, 1790.240
565.2580, 1779.017
565.7401, 1762.447
566.2222, 1749.605
566.7043, 1744.286
567.1865, 1744.441
567.6686, 1738.700
568.1507, 1726.437
568.6328, 1714.459
569.1149, 1708.361
569.5970, 1706.152
570.0792, 1700.612
570.5613, 1690.445
571.0434, 1682.630
571.5255, 1688.088
572.0076, 1699.245
572.4897, 1703.841
572.9719, 1693.015
573.4540, 1680.479
573.9361, 1675.366
574.4182, 1674.545
574.9003, 1669.599
575.3824, 1653.316
575.8646, 1637.016
576.3467, 1625.628
576.8288, 1619.958
577.3109, 1611.949
577.7930, 1596.814
578.2751, 1584.991
578.7573, 1585.931
579.2394, 1604.257
579.7215, 1613.508
580.2036, 1610.176
580.6857, 1601.060
581.1678, 1595.571
581.6500, 1593.713
582.1321, 1595.770
582.6142, 1603.780
583.0963, 1614.141
583.5784, 1622.041
584.0605, 1627.315
584.5427, 1629.134
585.0248, 1623.761
585.5069, 1616.609
585.9890, 1612.743
586.4711, 1613.006
586.9532, 1613.838
587.4354, 1614.390
587.9175, 1614.527
588.3996, 1614.127
588.8817, 1611.108
589.3638, 1610.209
589.8459, 1613.034
590.3281, 1617.615
590.8102, 1619.650
591.2923, 1616.924
591.7744, 1617.248
592.2565, 1624.256
592.7386, 1636.248
593.2208, 1643.160
593.7029, 1644.615
594.1850, 1644.715
594.6671, 1647.066
595.1492, 1650.335
595.6313, 1650.434
596.1135, 1646.803
596.5956, 1642.101
597.0777, 1636.100
597.5598, 1631.287
598.0419, 1631.973
598.5240, 1646.934
599.0062, 1657.299
599.4883, 1648.775
599.9704, 1629.593
600.4525, 1618.350
600.9346, 1628.395
601.4167, 1637.465
601.8989, 1638.693
602.3810, 1632.220
602.8631, 1626.709
603.3452, 1621.403
603.8273, 1618.253
604.3094, 1618.640
604.7916, 1622.730
605.2737, 1629.183
605.7558, 1639.230
606.2379, 1647.424
606.7200, 1644.763
607.2021, 1634.297
607.6843, 1628.166
608.1664, 1631.483
608.6485, 1637.180
609.1306, 1639.486
609.6127, 1638.203
610.0948, 1632.912
610.5770, 1614.000
611.0591, 1599.237
611.5412, 1602.216
612.0233, 1622.554
612.5054, 1637.104
612.9875, 1638.756
613.4697, 1635.276
613.9518, 1630.518
614.4339, 1624.436
614.9160, 1616.722
615.3981, 1605.664
615.8802, 1595.477
616.3624, 1592.111
616.8445, 1596.121
617.3266, 1597.397
617.8087, 1592.885
618.2908, 1586.900
618.7729, 1589.386
619.2551, 1597.951
619.7372, 1602.131
620.2193, 1590.697
620.7014, 1576.421
621.1835, 1573.219
621.6656, 1579.972
622.1478, 1587.724
622.6299, 1595.222
623.1120, 1600.144
623.5941, 1601.081
624.0762, 1597.873
624.5583, 1590.527
625.0405, 1570.479
625.5226, 1552.598
626.0047, 1550.796
