##NAMES=Metaheinrichite
##RRUFFID=R060778
##IDEAL CHEMISTRY=Ba(U^6+^O_2_)_2_(As^5+^O_4_)_2_&#183;8H_2_O
##LOCALITY=Schmiedestoll, Wittichen, Schwarzwald, Germany
##OWNER=RRUFF
##SOURCE=Michael Scott
##DESCRIPTION=Pale green thin tabular crystals with rectangular outline
##STATUS=The identification of this mineral has been confirmed only by single crystal X-ray diffraction.
##URL=rruff.info/R060778
83.91797, 530.1370
84.40009, 531.0014
84.88220, 531.9350
85.36432, 532.7653
85.84644, 533.0916
86.32855, 530.5537
86.81067, 528.5658
87.29279, 530.1297
87.77490, 537.7991
88.25701, 546.4484
88.73913, 552.7062
89.22124, 556.7320
89.70336, 559.1539
90.18548, 559.2990
90.66759, 558.2493
91.14971, 557.7594
91.63183, 557.4669
92.11395, 558.4554
92.59606, 563.1058
93.07818, 571.7274
93.56030, 581.2281
94.04241, 588.8064
94.52453, 594.4476
95.00665, 598.3632
95.48875, 599.7207
95.97087, 599.1228
96.45299, 599.2772
96.93510, 600.0541
97.41722, 602.1498
97.89934, 606.4835
98.38145, 612.9492
98.86357, 622.7794
99.34569, 636.2543
99.82780, 653.3381
100.3099, 675.4344
100.7920, 701.3559
101.2742, 732.3504
101.7563, 775.2557
102.2384, 829.3375
102.7205, 897.3793
103.2026, 983.7935
103.6847, 1087.683
104.1668, 1210.591
104.6490, 1352.135
105.1311, 1514.501
105.6132, 1690.937
106.0953, 1879.638
106.5774, 2084.518
107.0595, 2312.785
107.5417, 2549.051
108.0238, 2824.392
108.5059, 3147.395
108.9880, 3517.045
109.4701, 3935.038
109.9522, 4381.583
110.4344, 4873.155
110.9165, 5446.805
111.3986, 6127.845
111.8807, 6880.026
112.3628, 7677.935
112.8449, 8534.440
113.3271, 9416.650
113.8092, 10341.13
114.2913, 11303.42
114.7734, 12258.10
115.2555, 13163.51
115.7376, 14062.21
116.2198, 14980.46
116.7019, 15927.94
117.1840, 16893.32
117.6661, 17876.34
118.1482, 18867.66
118.6303, 19902.42
119.1124, 20989.96
119.5946, 22126.35
120.0767, 23296.87
120.5588, 24526.58
121.0409, 25764.92
121.5230, 26989.86
122.0051, 28198.62
122.4873, 29372.76
122.9694, 30513.61
123.4515, 31610.05
123.9336, 32597.81
124.4157, 33410.09
124.8979, 34091.39
125.3800, 34709.15
125.8621, 35278.26
126.3442, 35797.05
126.8263, 36251.30
127.3084, 36638.63
127.7905, 37006.14
128.2727, 37409.50
128.7548, 37829.05
129.2369, 38193.99
129.7190, 38448.43
130.2011, 38628.57
130.6832, 38831.87
131.1654, 39061.09
131.6475, 39305.11
132.1296, 39546.45
132.6117, 39786.59
133.0938, 40041.79
133.5759, 40313.04
134.0581, 40602.58
134.5402, 40933.39
135.0223, 41319.31
135.5044, 41732.71
135.9865, 42094.03
136.4686, 42387.48
136.9508, 42706.98
137.4329, 43136.40
137.9150, 43691.66
138.3971, 44197.08
138.8792, 44624.69
139.3613, 44987.51
139.8434, 45359.68
140.3256, 45758.35
140.8077, 46142.71
141.2898, 46480.18
141.7719, 46752.32
142.2540, 47025.32
142.7361, 47317.53
143.2183, 47634.22
143.7004, 47901.76
144.1825, 48101.65
144.6646, 48266.48
145.1467, 48431.79
145.6288, 48609.19
146.1110, 48767.59
146.5931, 48894.42
147.0752, 48978.65
147.5573, 49063.30
148.0394, 49176.84
148.5215, 49281.48
149.0037, 49308.49
149.4858, 49155.83
149.9679, 49018.23
150.4500, 48962.48
150.9321, 49069.55
151.4142, 49141.16
151.8964, 49143.31
152.3785, 49106.84
152.8606, 49122.26
153.3427, 49253.18
153.8248, 49402.35
154.3069, 49523.90
154.7890, 49613.31
155.2712, 49682.43
155.7533, 49712.00
156.2354, 49712.06
156.7175, 49754.02
157.1996, 49867.85
157.6817, 50020.52
158.1639, 50187.17
158.6460, 50366.50
159.1281, 50551.12
159.6102, 50739.73
160.0923, 50930.17
160.5744, 51111.54
161.0566, 51277.93
161.5387, 51428.85
162.0208, 51564.15
162.5029, 51671.68
162.9850, 51768.25
163.4671, 51863.82
163.9493, 51959.42
164.4314, 52040.60
164.9135, 52102.86
165.3956, 52146.21
165.8777, 52170.83
166.3598, 52171.20
166.8420, 52159.10
167.3241, 52146.09
167.8062, 52139.42
168.2883, 52121.60
168.7704, 52070.95
169.2525, 52000.88
169.7346, 51942.22
170.2168, 51933.86
170.6989, 51938.36
171.1810, 51910.14
171.6631, 51815.50
172.1452, 51732.10
172.6273, 51737.09
173.1095, 51815.98
173.5916, 51906.04
174.0737, 51976.92
174.5558, 52030.84
175.0379, 52069.00
175.5201, 52084.47
176.0022, 52091.19
176.4843, 52099.54
176.9664, 52109.86
177.4485, 52132.00
177.9306, 52179.68
178.4128, 52244.70
178.8949, 52310.81
179.3770, 52376.14
179.8591, 52437.43
180.3412, 52486.75
180.8233, 52524.05
181.3055, 52560.38
181.7876, 52608.21
182.2697, 52664.50
182.7518, 52720.47
183.2339, 52773.54
183.7160, 52822.98
184.1982, 52864.15
184.6803, 52895.62
185.1624, 52924.05
185.6445, 52961.03
186.1266, 53003.74
186.6087, 53038.10
187.0908, 53052.60
187.5730, 53051.48
188.0551, 53056.06
188.5372, 53071.36
189.0193, 53079.52
189.5014, 53039.19
189.9835, 52952.46
190.4657, 52885.65
190.9478, 52893.47
191.4299, 52963.89
191.9120, 53004.29
192.3941, 53010.30
192.8762, 52981.06
193.3584, 52898.82
193.8405, 52761.00
194.3226, 52628.36
194.8047, 52548.05
195.2868, 52518.59
195.7689, 52475.50
196.2511, 52402.15
196.7332, 52320.42
197.2153, 52294.11
197.6974, 52329.75
198.1795, 52384.41
198.6616, 52439.70
199.1438, 52498.73
199.6259, 52517.27
200.1080, 52474.79
200.5901, 52391.20
201.0722, 52349.89
201.5543, 52358.86
202.0364, 52378.90
202.5186, 52366.60
203.0007, 52311.05
203.4828, 52296.49
203.9649, 52352.36
204.4470, 52462.98
204.9291, 52527.79
205.4113, 52537.23
205.8934, 52519.46
206.3755, 52494.81
206.8576, 52458.23
207.3397, 52434.25
207.8218, 52433.39
208.3040, 52454.18
208.7861, 52464.93
209.2682, 52473.15
209.7503, 52462.41
210.2324, 52402.39
210.7145, 52272.71
211.1967, 52174.93
211.6788, 52149.49
212.1609, 52202.36
212.6430, 52214.56
213.1251, 52173.18
213.6072, 52110.91
214.0894, 52062.69
214.5715, 52023.09
215.0536, 52013.32
215.5357, 52058.09
216.0178, 52173.01
216.4999, 52192.68
216.9820, 52065.60
217.4642, 51887.61
217.9463, 51801.46
218.4284, 51833.64
218.9105, 51895.96
219.3926, 51970.87
219.8747, 52069.25
220.3569, 52120.23
220.8390, 52111.77
221.3211, 52064.81
221.8032, 52009.98
222.2853, 51938.00
222.7674, 51880.54
223.2496, 51851.05
223.7317, 51855.26
224.2138, 51878.34
224.6959, 51945.03
225.1780, 52020.13
225.6601, 52027.48
226.1423, 51930.92
226.6244, 51828.62
227.1065, 51759.63
227.5886, 51732.82
228.0707, 51712.13
228.5528, 51697.96
229.0350, 51687.55
229.5171, 51674.03
229.9992, 51647.88
230.4813, 51630.29
230.9634, 51633.34
231.4455, 51675.36
231.9276, 51695.20
232.4098, 51684.41
232.8919, 51653.05
233.3740, 51629.25
233.8561, 51610.22
234.3382, 51603.41
234.8203, 51619.45
235.3025, 51694.65
235.7846, 51714.07
236.2667, 51656.43
236.7488, 51543.54
237.2309, 51447.84
237.7130, 51371.97
238.1952, 51312.32
238.6773, 51268.07
239.1594, 51241.96
239.6415, 51227.63
240.1236, 51230.17
240.6057, 51245.05
241.0879, 51254.66
241.5700, 51260.80
242.0521, 51259.54
242.5342, 51245.94
243.0163, 51205.78
243.4984, 51180.54
243.9806, 51165.87
244.4627, 51165.53
244.9448, 51205.61
245.4269, 51330.21
245.9090, 51432.80
246.3911, 51443.04
246.8732, 51288.27
247.3554, 51192.60
247.8375, 51186.43
248.3196, 51249.99
248.8017, 51298.97
249.2838, 51343.86
249.7659, 51359.39
250.2481, 51328.18
250.7302, 51232.00
251.2123, 51135.57
251.6944, 51047.06
252.1765, 50965.64
252.6586, 50872.61
253.1408, 50747.91
253.6229, 50645.79
254.1050, 50608.15
254.5871, 50680.73
255.0692, 50709.50
255.5513, 50663.43
256.0334, 50564.48
256.5156, 50511.97
256.9977, 50527.14
257.4798, 50555.53
257.9619, 50563.54
258.4440, 50543.30
258.9261, 50516.80
259.4083, 50475.89
259.8904, 50427.01
260.3725, 50408.54
260.8546, 50430.04
261.3367, 50461.86
261.8188, 50486.04
262.3010, 50501.13
262.7831, 50508.36
263.2652, 50501.42
263.7473, 50486.27
264.2294, 50494.45
264.7115, 50542.77
265.1937, 50580.84
265.6758, 50572.54
266.1579, 50506.45
266.6400, 50438.72
267.1221, 50374.96
267.6042, 50314.42
268.0864, 50250.59
268.5685, 50173.73
269.0506, 50117.38
269.5327, 50120.40
270.0148, 50209.80
270.4969, 50231.85
270.9791, 50151.17
271.4612, 50004.86
271.9433, 49921.62
272.4254, 49918.70
272.9075, 49930.40
273.3896, 49909.43
273.8718, 49846.88
274.3539, 49819.55
274.8360, 49845.39
275.3181, 49902.44
275.8002, 49928.74
276.2823, 49919.20
276.7645, 49895.98
277.2466, 49868.53
277.7287, 49835.44
278.2108, 49805.65
278.6929, 49778.46
279.1750, 49754.35
279.6572, 49735.65
280.1393, 49722.10
280.6214, 49710.78
281.1035, 49701.50
281.5856, 49693.85
282.0677, 49679.20
282.5499, 49654.22
283.0320, 49625.02
283.5141, 49610.33
283.9962, 49612.73
284.4783, 49603.18
284.9604, 49556.88
285.4425, 49477.34
285.9247, 49412.55
286.4068, 49367.51
286.8889, 49336.94
287.3710, 49314.96
287.8531, 49301.89
288.3352, 49290.96
288.8174, 49277.73
289.2995, 49263.21
289.7816, 49256.45
290.2637, 49262.14
290.7458, 49263.10
291.2279, 49233.41
291.7101, 49174.02
292.1922, 49098.88
292.6743, 48994.94
293.1564, 48878.87
293.6385, 48815.23
294.1206, 48815.88
294.6028, 48837.73
295.0849, 48841.65
295.5670, 48825.96
296.0491, 48778.14
296.5312, 48654.77
297.0133, 48501.64
297.4955, 48429.57
297.9776, 48452.43
298.4597, 48507.04
298.9418, 48535.16
299.4239, 48541.46
299.9060, 48538.19
300.3882, 48512.53
300.8703, 48485.36
301.3524, 48494.43
301.8345, 48540.88
302.3166, 48596.04
302.7987, 48636.90
303.2809, 48664.88
303.7630, 48686.09
304.2451, 48685.04
304.7272, 48684.21
305.2093, 48718.65
305.6914, 48788.28
306.1736, 48848.44
306.6557, 48862.47
307.1378, 48846.12
307.6199, 48824.93
308.1020, 48813.36
308.5841, 48799.40
309.0663, 48765.41
309.5484, 48714.58
310.0305, 48680.25
310.5126, 48719.67
310.9947, 48775.82
311.4768, 48781.06
311.9590, 48666.89
312.4411, 48540.79
312.9232, 48469.19
313.4053, 48445.55
313.8874, 48431.39
314.3695, 48409.23
314.8517, 48386.75
315.3337, 48371.94
315.8159, 48387.44
316.2980, 48386.16
316.7801, 48328.52
317.2622, 48231.60
317.7443, 48161.13
318.2264, 48121.61
318.7086, 48131.92
319.1907, 48216.42
319.6728, 48476.61
320.1549, 48661.86
320.6370, 48661.28
321.1191, 48529.64
321.6013, 48412.51
322.0834, 48365.68
322.5655, 48326.35
323.0476, 48258.33
323.5297, 48114.61
324.0118, 48023.50
324.4940, 48028.55
324.9761, 48094.95
325.4582, 48156.54
325.9403, 48231.91
326.4224, 48277.56
326.9045, 48273.14
327.3867, 48192.18
327.8688, 48125.20
328.3509, 48065.29
328.8330, 48022.65
329.3151, 48012.42
329.7972, 48081.43
330.2794, 48130.01
330.7615, 48130.18
331.2436, 48071.21
331.7257, 48022.53
332.2078, 47982.90
332.6899, 47955.00
333.1721, 47944.79
333.6542, 47971.44
334.1363, 47982.53
334.6184, 47963.89
335.1005, 47916.45
335.5826, 47875.84
336.0648, 47842.44
336.5469, 47815.79
337.0290, 47795.05
337.5111, 47780.06
337.9932, 47768.71
338.4753, 47759.73
338.9575, 47752.51
339.4396, 47747.85
339.9217, 47745.51
340.4038, 47743.11
340.8859, 47745.43
341.3680, 47755.24
341.8502, 47733.11
342.3323, 47665.48
342.8144, 47573.11
343.2965, 47511.72
343.7786, 47484.31
344.2607, 47463.21
344.7429, 47423.21
345.2250, 47370.69
345.7071, 47355.71
346.1892, 47390.07
346.6713, 47448.55
347.1534, 47498.77
347.6355, 47539.94
348.1176, 47568.03
348.5998, 47556.30
349.0819, 47528.35
349.5640, 47563.91
350.0461, 47675.97
350.5282, 47790.55
351.0103, 47816.14
351.4925, 47775.00
351.9746, 47734.59
352.4567, 47727.75
352.9388, 47736.54
353.4209, 47743.58
353.9030, 47748.84
354.3852, 47737.75
354.8673, 47678.79
355.3494, 47601.06
355.8315, 47550.33
356.3136, 47566.01
356.7957, 47597.89
357.2779, 47606.89
357.7600, 47596.75
358.2421, 47586.93
358.7242, 47601.75
359.2063, 47616.29
359.6884, 47604.45
360.1706, 47534.43
360.6527, 47471.94
361.1348, 47445.09
361.6169, 47449.05
362.0990, 47470.18
362.5811, 47523.41
363.0633, 47576.65
363.5454, 47611.96
364.0275, 47625.15
364.5096, 47621.69
364.9917, 47598.90
365.4738, 47560.54
365.9560, 47513.33
366.4381, 47420.48
366.9202, 47355.27
367.4023, 47350.45
367.8844, 47428.80
368.3665, 47491.38
368.8487, 47533.36
369.3308, 47559.10
369.8129, 47571.46
370.2950, 47550.04
370.7771, 47542.68
371.2592, 47562.39
371.7414, 47609.12
372.2235, 47651.76
372.7056, 47705.16
373.1877, 47736.16
373.6698, 47704.11
374.1519, 47559.57
374.6341, 47482.75
375.1162, 47511.73
375.5983, 47620.37
376.0804, 47711.76
376.5625, 47785.46
377.0446, 47839.41
377.5267, 47863.59
378.0089, 47854.54
378.4910, 47867.42
378.9731, 47915.14
379.4552, 47973.01
379.9373, 47995.22
380.4194, 47982.45
380.9016, 47952.00
381.3837, 47890.63
381.8658, 47813.76
382.3479, 47808.10
382.8300, 47884.89
383.3121, 47979.22
383.7943, 48000.93
384.2764, 47970.23
384.7585, 47966.79
385.2406, 48037.38
385.7227, 48142.87
386.2048, 48218.56
386.6870, 48264.45
387.1691, 48297.13
387.6512, 48321.78
388.1333, 48340.57
388.6154, 48357.84
389.0975, 48373.57
389.5797, 48386.64
390.0618, 48390.68
390.5439, 48389.77
391.0260, 48398.18
391.5081, 48444.98
391.9902, 48492.85
392.4724, 48512.47
392.9545, 48494.00
393.4366, 48466.68
393.9187, 48428.84
394.4008, 48395.28
394.8829, 48387.78
395.3651, 48448.82
395.8472, 48507.45
396.3293, 48533.24
396.8114, 48519.85
397.2935, 48505.64
397.7756, 48485.96
398.2578, 48471.99
398.7399, 48473.35
399.2220, 48484.96
399.7041, 48516.74
400.1862, 48587.20
400.6683, 48688.55
401.1505, 48743.43
401.6326, 48716.53
402.1147, 48682.24
402.5968, 48687.54
403.0789, 48765.81
403.5610, 48798.61
404.0432, 48753.20
404.5253, 48676.64
405.0074, 48690.55
405.4895, 48828.11
405.9716, 48955.92
406.4537, 49009.77
406.9359, 48988.08
407.4180, 48985.81
407.9001, 49005.40
408.3822, 49037.08
408.8643, 49070.17
409.3464, 49104.51
409.8285, 49141.77
410.3106, 49181.05
410.7928, 49223.98
411.2749, 49286.83
411.7570, 49369.93
412.2391, 49431.42
412.7212, 49400.58
413.2033, 49324.14
413.6855, 49321.45
414.1676, 49441.81
414.6497, 49590.99
415.1318, 49663.96
415.6139, 49677.40
416.0960, 49682.93
416.5782, 49689.65
417.0603, 49711.81
417.5424, 49775.58
418.0245, 49892.76
418.5066, 49987.56
418.9887, 49989.38
419.4709, 49951.23
419.9530, 49943.71
420.4351, 50044.33
420.9172, 50131.79
421.3993, 50143.70
421.8814, 50083.74
422.3636, 50043.17
422.8457, 50044.19
423.3278, 50072.69
423.8099, 50119.87
424.2920, 50241.21
424.7741, 50314.39
425.2563, 50302.70
425.7384, 50238.87
426.2205, 50213.27
426.7026, 50245.91
427.1847, 50290.07
427.6668, 50332.98
428.1490, 50379.14
428.6311, 50393.64
429.1132, 50347.98
429.5953, 50302.17
430.0774, 50349.61
430.5595, 50515.52
431.0417, 50643.59
431.5238, 50671.57
432.0059, 50630.18
432.4880, 50688.54
432.9701, 50861.67
433.4522, 51030.68
433.9344, 51099.64
434.4165, 51079.89
434.8986, 51036.36
435.3807, 50966.08
435.8628, 50905.67
436.3449, 50912.80
436.8271, 50979.71
437.3092, 51070.16
437.7913, 51183.70
438.2734, 51300.36
438.7555, 51392.03
439.2376, 51456.43
439.7197, 51505.99
440.2018, 51540.20
440.6840, 51567.01
441.1661, 51597.50
441.6482, 51637.82
442.1303, 51679.00
442.6124, 51712.50
443.0945, 51740.82
443.5767, 51776.92
444.0588, 51828.81
444.5409, 51887.86
445.0230, 51951.68
445.5051, 52032.96
445.9872, 52095.16
446.4694, 52117.18
446.9515, 52121.42
447.4336, 52144.46
447.9157, 52203.82
448.3978, 52264.57
448.8799, 52324.16
449.3621, 52384.98
449.8442, 52414.02
450.3263, 52387.57
450.8084, 52360.88
451.2905, 52386.00
451.7726, 52479.07
452.2548, 52551.60
452.7369, 52585.12
453.2190, 52595.41
453.7011, 52625.87
454.1832, 52677.47
454.6653, 52735.35
455.1475, 52785.18
455.6296, 52832.21
456.1117, 52920.50
456.5938, 53059.21
457.0759, 53190.54
457.5580, 53241.26
458.0402, 53229.45
458.5223, 53204.93
459.0044, 53161.07
459.4865, 53134.91
459.9686, 53181.71
460.4507, 53291.62
460.9329, 53409.85
461.4150, 53505.04
461.8971, 53588.49
462.3792, 53671.40
462.8613, 53756.82
463.3434, 53836.85
463.8256, 53913.93
464.3077, 53981.29
464.7898, 54028.87
465.2719, 54046.56
465.7540, 54049.73
466.2361, 54018.58
466.7183, 53945.57
467.2004, 53956.19
467.6825, 54136.63
468.1646, 54346.32
468.6467, 54498.78
469.1288, 54565.84
469.6110, 54620.81
470.0930, 54664.94
470.5752, 54699.02
471.0573, 54723.36
471.5394, 54730.51
472.0215, 54745.42
472.5036, 54775.68
472.9857, 54820.96
473.4679, 54895.80
473.9500, 55008.20
474.4321, 55116.44
474.9142, 55169.54
475.3963, 55175.47
475.8784, 55181.46
476.3606, 55200.10
476.8427, 55227.73
477.3248, 55259.33
477.8069, 55296.11
478.2890, 55337.36
478.7711, 55388.26
479.2533, 55442.88
479.7354, 55490.88
480.2175, 55529.20
480.6996, 55575.82
481.1817, 55638.94
481.6638, 55716.79
482.1460, 55807.17
482.6281, 55891.93
483.1102, 56000.66
483.5923, 56160.37
484.0744, 56359.57
484.5565, 56529.92
485.0387, 56653.98
485.5208, 56742.00
486.0029, 56794.32
486.4850, 56784.93
486.9671, 56793.90
487.4492, 56831.52
487.9314, 56882.45
488.4135, 56926.32
488.8956, 56965.84
489.3777, 56996.73
489.8598, 57016.77
490.3419, 57029.64
490.8241, 57053.51
491.3062, 57090.84
491.7883, 57137.00
492.2704, 57184.83
492.7525, 57236.84
493.2346, 57324.19
493.7168, 57461.77
494.1989, 57593.52
494.6810, 57619.77
495.1631, 57566.96
495.6452, 57532.39
496.1273, 57563.81
496.6095, 57634.68
497.0916, 57723.49
497.5737, 57827.50
498.0558, 57927.20
498.5379, 58008.79
499.0201, 58081.45
499.5022, 58153.85
499.9843, 58237.09
500.4664, 58306.78
500.9485, 58328.67
501.4306, 58335.65
501.9127, 58385.72
502.3948, 58535.41
502.8770, 58684.40
503.3591, 58805.30
503.8412, 58896.47
504.3233, 58979.16
504.8054, 59048.04
505.2875, 59110.58
505.7697, 59170.44
506.2518, 59224.64
506.7339, 59281.97
507.2160, 59339.57
507.6981, 59402.85
508.1802, 59486.84
508.6624, 59592.96
509.1445, 59700.94
509.6266, 59809.05
510.1087, 59913.08
510.5908, 59994.48
511.0729, 60053.77
511.5551, 60107.34
512.0372, 60165.25
512.5193, 60229.25
513.0014, 60300.66
513.4835, 60380.06
513.9656, 60468.70
514.4478, 60568.45
514.9299, 60677.60
515.4120, 60792.75
515.8941, 60919.05
516.3762, 61043.71
516.8583, 61167.63
517.3405, 61290.45
517.8226, 61375.91
518.3047, 61346.04
518.7868, 61320.86
519.2689, 61381.58
519.7510, 61626.55
520.2332, 61815.39
520.7153, 61930.57
521.1974, 61995.00
521.6795, 62042.29
522.1616, 62060.97
522.6437, 62096.38
523.1259, 62170.08
523.6080, 62275.94
524.0901, 62356.43
524.5722, 62409.26
525.0543, 62454.42
525.5364, 62498.14
526.0186, 62546.02
526.5007, 62627.61
526.9828, 62751.84
527.4649, 62889.50
527.9470, 63028.10
528.4291, 63151.86
528.9113, 63229.66
529.3934, 63192.15
529.8755, 63143.11
530.3576, 63180.67
530.8397, 63292.57
531.3218, 63377.05
531.8040, 63353.48
532.2861, 63309.18
532.7682, 63305.48
533.2503, 63375.50
533.7324, 63433.95
534.2145, 63447.72
534.6967, 63453.78
535.1788, 63503.73
535.6609, 63644.11
536.1430, 63755.11
536.6251, 63806.73
537.1072, 63809.88
537.5894, 63814.28
538.0715, 63810.28
538.5536, 63839.72
539.0357, 63943.39
539.5178, 64115.23
539.9999, 64258.87
540.4821, 64362.27
540.9642, 64462.22
541.4463, 64619.14
541.9284, 64809.64
542.4105, 64960.91
542.8926, 65033.00
543.3748, 65074.60
543.8569, 65138.66
544.3390, 65215.59
544.8211, 65276.05
545.3032, 65256.00
545.7853, 65250.13
546.2675, 65343.64
546.7495, 65562.13
547.2316, 65738.72
547.7137, 65801.04
548.1959, 65816.52
548.6780, 65843.61
549.1601, 65908.23
549.6422, 65956.35
550.1243, 65968.09
550.6064, 65967.32
551.0886, 66013.46
551.5707, 66118.97
552.0528, 66241.11
552.5349, 66371.30
553.0170, 66507.27
553.4991, 66625.65
553.9813, 66728.45
554.4634, 66798.69
554.9455, 66799.88
555.4276, 66753.14
555.9097, 66731.55
556.3918, 66745.23
556.8740, 66790.16
557.3561, 66887.95
557.8382, 67013.49
558.3203, 67114.47
558.8024, 67156.21
559.2845, 67177.93
559.7667, 67188.77
560.2488, 67194.93
560.7309, 67231.82
561.2130, 67332.41
561.6951, 67449.66
562.1772, 67559.77
562.6594, 67655.65
563.1415, 67755.67
563.6236, 67862.87
564.1057, 67968.43
564.5878, 68064.55
565.0699, 68148.61
565.5521, 68222.23
566.0342, 68278.57
566.5163, 68328.58
566.9984, 68410.92
567.4805, 68527.15
567.9626, 68637.83
568.4448, 68708.00
568.9269, 68759.10
569.4090, 68876.05
569.8911, 69058.85
570.3732, 69206.53
570.8553, 69185.73
571.3375, 69094.28
571.8196, 69071.02
572.3017, 69169.41
572.7838, 69281.30
573.2659, 69356.18
573.7480, 69403.86
574.2302, 69442.11
574.7123, 69462.73
575.1944, 69487.33
575.6765, 69511.30
576.1586, 69539.26
576.6407, 69616.41
577.1229, 69796.85
577.6050, 69958.23
578.0871, 70038.51
578.5692, 70025.71
579.0513, 70001.44
579.5334, 69952.11
580.0156, 69927.59
580.4977, 70003.98
