##NAMES=Metamunirite
##RRUFFID=R060624
##IDEAL CHEMISTRY=NaV^5+^O_3_
##LOCALITY=Big Gypsum Valley, San Miguel County, Colorado, USA
##OWNER=RRUFF
##SOURCE=Michael Scott
##DESCRIPTION=Tan colored divergent radial spray of bladed crystals
##STATUS=The identification of this mineral is confirmed by single-crystal X-ray diffraction and chemical analysis.
##URL=rruff.info/R060624
##MEASURED CHEMISTRY=(Na_0.98_Ca_0.02_)_Σ=1_(V^5+^_0.99_Al_0.01_)_Σ=1_O_3_
90.52570, 0.0000000E+00
91.00781, 37.78674
91.48993, 37.68303
91.97205, 37.64272
92.45416, 37.64655
92.93628, 37.71382
93.41840, 37.90472
93.90051, 38.26017
94.38263, 38.68613
94.86475, 39.04961
95.34686, 39.35072
95.82898, 39.60301
96.31110, 39.69759
96.79321, 39.67186
97.27533, 39.94521
97.75745, 40.65890
98.23956, 41.73087
98.72168, 42.84479
99.20380, 44.01276
99.68591, 45.15016
100.1680, 45.97567
100.6501, 46.28825
101.1323, 47.23964
101.6144, 49.19975
102.0965, 52.21556
102.5786, 55.64463
103.0607, 59.46389
103.5428, 63.73973
104.0250, 68.67540
104.5071, 74.24174
104.9892, 80.44679
105.4713, 87.21935
105.9534, 94.39827
106.4355, 102.4271
106.9177, 111.0337
107.3998, 120.4640
107.8819, 131.8351
108.3640, 145.2531
108.8461, 160.3903
109.3282, 177.3429
109.8104, 195.5169
110.2925, 215.7635
110.7746, 237.8653
111.2567, 261.7866
111.7388, 288.2711
112.2209, 317.0847
112.7031, 348.3545
113.1852, 382.5251
113.6673, 421.0639
114.1494, 460.9000
114.6315, 501.5331
115.1136, 543.2997
115.5958, 585.5976
116.0779, 628.1284
116.5600, 671.1680
117.0421, 714.8358
117.5242, 760.1516
118.0063, 805.8673
118.4885, 851.5082
118.9706, 896.7538
119.4527, 943.4004
119.9348, 993.5508
120.4169, 1045.550
120.8990, 1097.198
121.3812, 1146.908
121.8633, 1195.675
122.3454, 1243.744
122.8275, 1291.353
123.3096, 1338.683
123.7917, 1386.346
124.2739, 1434.025
124.7560, 1480.553
125.2381, 1524.901
125.7202, 1567.828
126.2023, 1609.375
126.6844, 1648.049
127.1666, 1687.822
127.6487, 1733.042
128.1308, 1784.011
128.6129, 1841.346
129.0950, 1907.146
129.5771, 1980.507
130.0593, 2058.543
130.5414, 2139.610
131.0235, 2224.414
131.5056, 2314.077
131.9877, 2399.717
132.4698, 2473.483
132.9520, 2545.521
133.4341, 2615.375
133.9162, 2665.820
134.3983, 2694.239
134.8804, 2700.423
135.3625, 2675.700
135.8447, 2618.646
136.3268, 2536.778
136.8089, 2434.276
137.2910, 2307.707
137.7731, 2179.389
138.2552, 2053.843
138.7374, 1930.309
139.2195, 1819.052
139.7016, 1719.793
140.1837, 1630.816
140.6658, 1550.251
141.1479, 1476.696
141.6301, 1412.258
142.1122, 1357.573
142.5943, 1313.416
143.0764, 1275.773
143.5585, 1244.531
144.0406, 1219.225
144.5228, 1197.542
145.0049, 1180.712
145.4870, 1166.088
145.9691, 1152.370
146.4512, 1138.392
146.9333, 1126.956
147.4155, 1118.697
147.8976, 1113.294
148.3797, 1108.436
148.8618, 1103.576
149.3439, 1099.593
149.8260, 1097.035
150.3082, 1096.170
150.7903, 1096.370
151.2724, 1097.877
151.7545, 1100.705
152.2366, 1103.385
152.7188, 1105.303
153.2009, 1107.285
153.6830, 1109.972
154.1651, 1113.420
154.6472, 1117.535
155.1293, 1122.465
155.6115, 1128.348
156.0936, 1133.950
156.5757, 1138.655
157.0578, 1143.140
157.5399, 1148.091
158.0220, 1155.026
158.5042, 1161.359
158.9863, 1165.744
159.4684, 1167.639
159.9505, 1170.028
160.4326, 1174.690
160.9147, 1180.279
161.3969, 1184.781
161.8790, 1186.821
162.3611, 1188.113
162.8432, 1189.553
163.3253, 1191.313
163.8074, 1192.998
164.2896, 1194.463
164.7717, 1195.699
165.2538, 1196.694
165.7359, 1196.182
166.2180, 1196.103
166.7001, 1198.058
167.1823, 1202.788
167.6644, 1208.430
168.1465, 1213.447
168.6286, 1218.348
169.1107, 1224.590
169.5928, 1232.287
170.0750, 1241.985
170.5571, 1254.396
171.0392, 1269.573
171.5213, 1287.393
172.0034, 1307.866
172.4855, 1331.025
172.9677, 1356.373
173.4498, 1382.531
173.9319, 1411.145
174.4140, 1444.655
174.8961, 1484.699
175.3782, 1528.793
175.8604, 1575.238
176.3425, 1624.360
176.8246, 1676.677
177.3067, 1733.343
177.7888, 1794.156
178.2709, 1857.611
178.7531, 1923.543
179.2352, 1992.555
179.7173, 2065.435
180.1994, 2142.460
180.6815, 2224.026
181.1636, 2308.543
181.6458, 2397.487
182.1279, 2492.411
182.6100, 2595.706
183.0921, 2705.035
183.5742, 2819.074
184.0563, 2935.867
184.5385, 3056.984
185.0206, 3180.924
185.5027, 3309.040
185.9848, 3441.761
186.4669, 3581.550
186.9490, 3726.148
187.4312, 3873.392
187.9133, 4020.208
188.3954, 4172.479
188.8775, 4334.235
189.3596, 4504.397
189.8417, 4681.599
190.3239, 4865.166
190.8060, 5055.411
191.2881, 5246.902
191.7702, 5438.571
192.2523, 5627.875
192.7344, 5814.432
193.2166, 5997.479
193.6987, 6173.367
194.1808, 6343.110
194.6629, 6505.873
195.1450, 6659.897
195.6271, 6805.015
196.1093, 6942.039
196.5914, 7072.820
197.0735, 7197.636
197.5556, 7312.841
198.0377, 7419.214
198.5198, 7517.723
199.0020, 7596.485
199.4841, 7657.125
199.9662, 7695.176
200.4483, 7706.375
200.9304, 7691.688
201.4125, 7644.518
201.8947, 7559.860
202.3768, 7436.689
202.8589, 7289.481
203.3410, 7117.531
203.8231, 6921.977
204.3052, 6704.302
204.7874, 6459.729
205.2695, 6208.979
205.7516, 5959.333
206.2337, 5710.119
206.7158, 5466.016
207.1979, 5225.655
207.6801, 4990.790
208.1622, 4768.717
208.6443, 4558.519
209.1264, 4359.659
209.6085, 4171.867
210.0906, 3995.064
210.5728, 3828.881
211.0549, 3674.937
211.5370, 3531.465
212.0191, 3398.902
212.5012, 3277.088
212.9833, 3163.927
213.4655, 3060.268
213.9476, 2966.778
214.4297, 2877.816
214.9118, 2792.031
215.3939, 2711.519
215.8760, 2639.478
216.3581, 2577.959
216.8403, 2521.881
217.3224, 2469.659
217.8045, 2420.867
218.2866, 2375.931
218.7687, 2335.200
219.2508, 2298.307
219.7330, 2265.408
220.2151, 2236.604
220.6972, 2211.556
221.1793, 2190.608
221.6614, 2174.225
222.1435, 2160.017
222.6257, 2147.415
223.1078, 2137.043
223.5899, 2130.605
224.0720, 2129.491
224.5541, 2130.122
225.0362, 2130.429
225.5184, 2128.438
226.0005, 2131.189
226.4826, 2139.618
226.9647, 2152.679
227.4468, 2167.924
227.9289, 2185.797
228.4111, 2205.121
228.8932, 2224.979
229.3753, 2243.483
229.8574, 2267.006
230.3395, 2296.254
230.8216, 2330.199
231.3038, 2366.657
231.7859, 2404.909
232.2680, 2446.367
232.7501, 2491.704
233.2322, 2541.310
233.7143, 2593.633
234.1965, 2649.077
234.6786, 2707.449
235.1607, 2768.801
235.6428, 2832.862
236.1249, 2900.207
236.6070, 2971.361
237.0892, 3047.821
237.5713, 3124.497
238.0534, 3200.130
238.5355, 3276.245
239.0176, 3356.533
239.4997, 3442.855
239.9819, 3532.361
240.4640, 3623.478
240.9461, 3718.040
241.4282, 3811.025
241.9103, 3901.456
242.3924, 3990.630
242.8746, 4081.464
243.3567, 4173.505
243.8388, 4267.949
244.3209, 4365.830
244.8030, 4466.908
245.2851, 4569.556
245.7673, 4673.628
246.2494, 4779.409
246.7315, 4887.578
247.2136, 4998.795
247.6957, 5111.437
248.1778, 5225.287
248.6600, 5339.452
249.1421, 5455.683
249.6242, 5577.111
250.1063, 5699.720
250.5884, 5816.388
251.0705, 5928.836
251.5527, 6032.784
252.0348, 6126.113
252.5169, 6210.171
252.9990, 6281.729
253.4811, 6342.396
253.9632, 6390.198
254.4454, 6421.268
254.9275, 6435.902
255.4096, 6433.713
255.8917, 6413.466
256.3738, 6373.575
256.8560, 6322.902
257.3381, 6259.536
257.8202, 6186.725
258.3023, 6107.069
258.7844, 6019.118
259.2665, 5929.408
259.7487, 5839.825
260.2308, 5751.180
260.7129, 5659.168
261.1950, 5560.955
261.6771, 5462.825
262.1592, 5373.759
262.6414, 5296.495
263.1235, 5223.245
263.6056, 5152.393
264.0877, 5083.114
264.5698, 5019.429
265.0519, 4961.375
265.5341, 4909.070
266.0162, 4861.941
266.4983, 4820.109
266.9804, 4783.961
267.4625, 4752.087
267.9446, 4724.844
268.4268, 4710.624
268.9089, 4713.008
269.3910, 4722.540
269.8731, 4728.439
270.3552, 4727.849
270.8373, 4735.016
271.3195, 4753.476
271.8016, 4782.676
272.2837, 4817.687
272.7658, 4859.448
273.2479, 4905.920
273.7300, 4955.891
274.2122, 5009.014
274.6943, 5066.583
275.1764, 5128.660
275.6585, 5195.134
276.1406, 5264.948
276.6227, 5337.652
277.1049, 5415.333
277.5870, 5501.226
278.0691, 5596.109
278.5512, 5690.791
279.0333, 5784.369
279.5154, 5876.504
279.9976, 5965.999
280.4797, 6053.146
280.9618, 6137.296
281.4439, 6221.306
281.9260, 6304.835
282.4081, 6381.070
282.8903, 6449.758
283.3724, 6509.923
283.8545, 6558.038
284.3366, 6593.572
284.8187, 6622.666
285.3008, 6651.091
285.7830, 6678.118
286.2651, 6691.532
286.7472, 6689.148
287.2293, 6675.182
287.7114, 6656.271
288.1935, 6632.394
288.6757, 6603.657
289.1578, 6571.122
289.6399, 6533.993
290.1220, 6489.923
290.6041, 6438.350
291.0862, 6380.425
291.5684, 6318.478
292.0505, 6251.877
292.5326, 6178.200
293.0147, 6099.009
293.4968, 6011.866
293.9789, 5906.263
294.4611, 5782.535
294.9432, 5643.177
295.4253, 5492.228
295.9074, 5328.167
296.3895, 5148.750
296.8716, 4946.146
297.3538, 4727.532
297.8359, 4503.568
298.3180, 4272.014
298.8001, 4042.741
299.2822, 3818.824
299.7643, 3600.844
300.2465, 3393.625
300.7286, 3198.503
301.2107, 3015.609
301.6928, 2842.069
302.1749, 2679.452
302.6570, 2528.152
303.1392, 2392.340
303.6213, 2268.659
304.1034, 2154.548
304.5855, 2048.022
305.0676, 1950.456
305.5497, 1861.047
306.0319, 1780.093
306.5140, 1704.531
306.9961, 1633.193
307.4782, 1566.971
307.9603, 1506.380
308.4424, 1453.053
308.9246, 1403.558
309.4067, 1355.625
309.8888, 1309.615
310.3709, 1265.639
310.8530, 1224.486
311.3351, 1185.508
311.8173, 1148.249
312.2994, 1112.143
312.7815, 1077.936
313.2636, 1046.910
313.7457, 1018.318
314.2278, 990.5928
314.7100, 963.0604
315.1921, 936.5446
315.6742, 911.5812
316.1563, 888.3909
316.6384, 866.1645
317.1205, 844.6811
317.6027, 824.3116
318.0848, 805.6533
318.5669, 790.1976
319.0490, 775.3143
319.5311, 759.7114
320.0132, 743.2625
320.4954, 727.7728
320.9775, 714.2382
321.4596, 701.7422
321.9417, 689.7220
322.4238, 678.2120
322.9059, 666.9921
323.3881, 655.8544
323.8702, 644.9319
324.3523, 634.6249
324.8344, 624.9919
325.3165, 616.0184
325.7986, 607.6052
326.2808, 599.6632
326.7629, 592.3903
327.2450, 586.2831
327.7271, 580.9891
328.2092, 575.0875
328.6913, 567.7323
329.1735, 560.5162
329.6556, 553.9606
330.1377, 548.3278
330.6198, 542.8499
331.1019, 537.4874
331.5840, 532.2984
332.0662, 527.2628
332.5483, 522.1719
333.0304, 517.5045
333.5125, 513.7665
333.9946, 511.3421
334.4767, 507.4000
334.9589, 500.9307
335.4410, 493.9776
335.9231, 489.3108
336.4052, 487.8519
336.8873, 486.3785
337.3694, 484.1715
337.8515, 481.2792
338.3336, 478.1963
338.8158, 474.8073
339.2979, 471.4790
339.7800, 468.5224
340.2621, 466.0143
340.7442, 463.5336
341.2263, 461.0099
341.7085, 458.5077
342.1906, 456.4820
342.6727, 455.0055
343.1548, 453.4479
343.6369, 451.2593
344.1190, 448.4979
344.6012, 445.7619
345.0833, 443.0151
345.5654, 440.5374
346.0475, 439.2373
346.5296, 439.0154
347.0117, 438.2267
347.4939, 435.2960
347.9760, 431.0643
348.4581, 428.2533
348.9402, 427.1151
349.4223, 426.7213
349.9044, 426.3007
350.3866, 425.7938
350.8687, 424.9963
351.3508, 423.7019
351.8329, 422.1150
352.3150, 420.4920
352.7971, 418.8289
353.2793, 417.2168
353.7614, 415.7398
354.2435, 414.3279
354.7256, 412.7907
355.2077, 410.6442
355.6898, 408.8967
356.1720, 408.8668
356.6541, 410.1664
357.1362, 411.1230
357.6183, 410.5921
358.1004, 409.3915
358.5826, 408.2065
359.0647, 407.1192
359.5468, 406.1755
360.0289, 405.2945
360.5110, 404.5797
360.9931, 404.2270
361.4753, 404.7299
361.9574, 405.2863
362.4395, 405.5190
362.9216, 405.3806
363.4037, 405.0012
363.8858, 404.3017
364.3680, 403.4321
364.8501, 402.5468
365.3322, 400.9745
365.8143, 400.1297
366.2964, 400.7491
366.7785, 402.7986
367.2607, 404.3215
367.7428, 404.7926
368.2249, 404.9306
368.7070, 405.1660
369.1891, 405.5875
369.6712, 405.9781
370.1534, 405.9491
370.6355, 405.8665
371.1176, 406.9433
371.5997, 409.9348
372.0818, 413.0993
372.5639, 415.7331
373.0461, 417.6072
373.5282, 419.7570
374.0103, 422.4418
374.4924, 425.1898
374.9745, 427.1670
375.4566, 428.1164
375.9388, 429.1579
376.4209, 430.7006
376.9030, 432.7132
377.3851, 434.3002
377.8672, 435.4708
378.3493, 436.2998
378.8315, 436.7901
379.3136, 436.9495
379.7957, 436.9941
380.2778, 436.8857
380.7599, 436.7783
381.2420, 437.0714
381.7242, 437.7592
382.2063, 438.5999
382.6884, 439.6703
383.1705, 440.7873
383.6526, 440.9601
384.1347, 439.7773
384.6169, 438.8876
385.0990, 440.5542
385.5811, 444.2974
386.0632, 448.5255
386.5453, 453.0073
387.0274, 457.3225
387.5096, 460.6303
387.9917, 462.9241
388.4738, 465.2282
388.9559, 468.1776
389.4380, 471.6031
389.9201, 475.3093
390.4023, 479.1425
390.8844, 483.3181
391.3665, 487.9765
391.8486, 493.1245
392.3307, 498.6191
392.8128, 505.0420
393.2950, 511.3549
393.7771, 516.7332
394.2592, 520.4647
394.7413, 524.7582
395.2234, 530.2961
395.7055, 536.7988
396.1877, 543.8378
396.6698, 551.9210
397.1519, 559.9432
397.6340, 567.2523
398.1161, 573.6014
398.5982, 581.3816
399.0804, 591.4670
399.5625, 602.6243
400.0446, 613.9465
400.5267, 624.8989
401.0088, 636.8769
401.4909, 649.8964
401.9731, 663.9873
402.4552, 679.0372
402.9373, 695.0069
403.4194, 712.0182
403.9015, 730.0519
404.3836, 748.9672
404.8658, 769.4579
405.3479, 791.2050
405.8300, 814.6642
406.3121, 840.4554
406.7942, 868.4086
407.2763, 899.7946
407.7585, 934.9045
408.2406, 973.9266
408.7227, 1016.424
409.2048, 1061.991
409.6869, 1112.505
410.1690, 1169.143
410.6512, 1231.615
411.1333, 1300.658
411.6154, 1375.783
412.0975, 1458.895
412.5796, 1554.314
413.0617, 1661.470
413.5439, 1778.716
414.0260, 1907.740
414.5081, 2046.727
414.9902, 2192.202
415.4723, 2344.849
415.9544, 2502.019
416.4366, 2660.743
416.9187, 2821.580
417.4008, 2984.668
417.8829, 3152.117
418.3650, 3321.507
418.8471, 3490.111
419.3293, 3658.399
419.8114, 3838.899
420.2935, 4031.594
420.7756, 4241.147
421.2577, 4465.374
421.7398, 4706.044
422.2220, 4964.148
422.7041, 5239.541
423.1862, 5534.273
423.6683, 5852.451
424.1504, 6205.500
424.6325, 6576.965
425.1147, 6962.229
425.5968, 7368.126
426.0789, 7771.357
426.5610, 8179.460
427.0431, 8578.354
427.5252, 8956.103
428.0074, 9324.480
428.4895, 9646.209
428.9716, 9922.244
429.4537, 10142.82
429.9358, 10280.94
430.4179, 10346.47
430.9001, 10295.71
431.3822, 10097.38
431.8643, 9750.598
432.3464, 9309.788
432.8285, 8763.653
433.3106, 8161.140
433.7928, 7541.070
434.2749, 6908.799
434.7570, 6308.392
435.2391, 5749.742
435.7212, 5234.157
436.2033, 4762.004
436.6855, 4337.192
437.1676, 3957.672
437.6497, 3630.193
438.1318, 3345.968
438.6139, 3093.619
439.0960, 2873.328
439.5782, 2677.182
440.0603, 2503.003
440.5424, 2347.309
441.0245, 2206.163
441.5066, 2079.871
441.9887, 1964.063
442.4709, 1857.038
442.9530, 1758.614
443.4351, 1666.745
443.9172, 1583.513
444.3993, 1505.473
444.8814, 1431.285
445.3636, 1358.980
445.8457, 1291.875
446.3278, 1231.800
446.8099, 1177.568
447.2920, 1124.566
447.7741, 1071.542
448.2563, 1020.632
448.7384, 973.4958
449.2205, 929.9039
449.7026, 888.0809
450.1847, 848.2797
450.6668, 810.5367
451.1490, 774.9260
451.6311, 741.1347
452.1132, 710.4737
452.5953, 683.2065
453.0774, 658.9078
453.5595, 634.8303
454.0417, 610.7267
454.5238, 588.3364
455.0059, 568.4553
455.4880, 551.0323
455.9701, 535.0534
456.4522, 520.6664
456.9344, 507.0953
457.4165, 493.2807
457.8986, 479.5233
458.3807, 467.1358
458.8628, 456.7285
459.3449, 447.4806
459.8271, 438.3839
460.3092, 429.5265
460.7913, 421.1145
461.2734, 413.5019
461.7555, 406.2789
462.2376, 398.8836
462.7198, 391.1490
463.2019, 384.0129
463.6840, 378.2783
464.1661, 373.3297
464.6482, 368.4227
465.1303, 363.3148
465.6125, 358.2701
466.0946, 353.3472
466.5767, 348.5109
467.0588, 343.8357
467.5409, 339.2536
468.0230, 334.8922
468.5052, 330.7846
468.9873, 326.8380
469.4694, 323.4135
469.9515, 320.6919
470.4336, 318.3521
470.9157, 315.9303
471.3979, 313.4327
471.8800, 310.8683
472.3621, 308.1393
472.8442, 305.3661
473.3263, 302.9645
473.8084, 300.9261
474.2906, 299.3156
474.7727, 298.5016
475.2548, 298.2473
475.7369, 297.2931
476.2190, 295.3695
476.7011, 293.2796
477.1833, 291.8913
477.6654, 291.0932
478.1475, 290.5860
478.6296, 290.5703
479.1117, 290.5602
479.5938, 289.9449
480.0760, 288.8111
480.5581, 287.7615
481.0402, 287.3597
481.5223, 287.0474
482.0044, 286.2635
482.4865, 284.5915
482.9687, 283.3374
483.4508, 283.2679
483.9329, 283.7967
484.4150, 284.0875
484.8971, 284.1205
485.3792, 283.7654
485.8614, 282.7637
486.3435, 281.1819
486.8256, 279.9881
487.3077, 279.3397
487.7898, 278.9075
488.2719, 278.4691
488.7541, 277.8625
489.2362, 277.9015
489.7183, 278.9297
490.2004, 280.1546
490.6825, 280.1512
491.1646, 278.7442
491.6468, 277.9356
492.1289, 278.5998
492.6110, 280.1216
493.0931, 280.6368
493.5752, 280.1574
494.0573, 279.5967
494.5395, 279.5349
495.0216, 279.8737
495.5037, 280.4517
495.9858, 281.2633
496.4679, 282.1800
496.9500, 283.2676
497.4322, 284.3463
497.9143, 285.0972
498.3964, 285.1059
498.8785, 285.0174
499.3606, 285.0993
499.8427, 285.3672
500.3249, 285.8718
500.8070, 286.8813
501.2891, 287.9406
501.7712, 288.7880
502.2533, 289.2964
502.7354, 289.8756
503.2176, 290.3091
503.6997, 290.9527
504.1818, 292.2101
504.6639, 294.4476
505.1460, 296.6336
505.6281, 298.7184
506.1103, 300.6316
506.5924, 301.9127
507.0745, 302.3569
507.5566, 302.8767
508.0387, 303.9724
508.5208, 305.6155
509.0030, 307.2393
509.4851, 308.8180
509.9672, 310.5177
510.4493, 312.5467
510.9314, 314.8519
511.4135, 317.2567
511.8957, 319.6837
512.3778, 322.2140
512.8599, 324.8104
513.3420, 327.5640
513.8242, 330.7197
514.3063, 334.9891
514.7884, 339.3575
515.2705, 342.9540
515.7526, 345.7054
516.2347, 348.3915
516.7169, 350.7120
517.1990, 353.4381
517.6811, 357.1924
518.1632, 363.3716
518.6453, 368.8056
519.1274, 371.9901
519.6096, 374.4677
520.0917, 379.1773
520.5738, 387.9050
521.0559, 395.8070
521.5380, 401.1549
522.0201, 404.1874
522.5023, 409.2882
522.9844, 416.9842
523.4665, 425.3409
523.9486, 432.8336
524.4307, 439.5658
524.9128, 447.0499
525.3950, 455.3419
525.8771, 464.3635
526.3592, 474.3405
526.8413, 484.9582
527.3234, 495.3766
527.8055, 504.3788
528.2877, 513.7307
528.7698, 525.9491
529.2519, 540.4730
529.7340, 555.3982
530.2161, 569.2543
530.6982, 583.3224
531.1804, 598.6512
531.6625, 615.0204
532.1446, 633.1016
532.6267, 652.7523
533.1088, 674.2862
533.5909, 697.6779
534.0731, 723.6822
534.5552, 750.9171
535.0373, 779.5314
535.5194, 809.1730
536.0015, 840.3817
536.4836, 872.3679
536.9658, 906.9698
537.4479, 944.2582
537.9300, 984.1160
538.4121, 1028.643
538.8942, 1077.948
539.3763, 1130.554
539.8585, 1185.202
540.3406, 1242.026
540.8227, 1301.765
541.3048, 1365.208
541.7869, 1431.157
542.2690, 1498.195
542.7512, 1566.783
543.2333, 1638.104
543.7154, 1713.316
544.1975, 1790.886
544.6796, 1868.839
545.1617, 1948.226
545.6439, 2030.554
546.1260, 2117.521
546.6081, 2207.011
547.0902, 2298.107
547.5723, 2389.693
548.0544, 2483.123
548.5366, 2581.101
549.0187, 2680.448
549.5008, 2778.827
549.9829, 2877.780
550.4650, 2973.146
550.9471, 3065.615
551.4293, 3153.604
551.9114, 3236.806
552.3935, 3316.580
552.8756, 3385.184
553.3577, 3439.488
553.8398, 3480.277
554.3220, 3513.263
554.8041, 3538.810
555.2862, 3547.437
555.7683, 3530.297
556.2504, 3491.470
556.7325, 3438.585
557.2147, 3372.645
557.6968, 3292.697
558.1789, 3194.947
558.6610, 3082.934
559.1431, 2962.935
559.6252, 2833.005
560.1074, 2700.194
560.5895, 2565.260
561.0716, 2428.856
561.5537, 2296.090
562.0358, 2163.890
562.5179, 2037.720
563.0001, 1920.068
563.4822, 1811.622
563.9643, 1709.008
564.4464, 1611.731
564.9285, 1520.866
565.4106, 1436.129
565.8928, 1357.141
566.3749, 1285.384
566.8570, 1220.776
567.3391, 1162.177
567.8212, 1108.266
568.3033, 1058.440
568.7855, 1011.971
569.2676, 968.2850
569.7497, 927.5120
570.2318, 889.1470
570.7139, 853.6443
571.1960, 819.7878
571.6782, 786.6599
572.1603, 755.5120
572.6424, 728.1257
573.1245, 704.5101
573.6066, 682.7152
574.0887, 662.2841
574.5709, 642.9578
575.0530, 624.3194
575.5351, 606.0076
576.0172, 588.5618
576.4993, 571.9734
576.9814, 556.2217
577.4636, 541.5599
577.9457, 528.0768
578.4278, 515.5162
578.9099, 504.1640
579.3920, 493.8135
579.8741, 483.5479
580.3563, 473.3712
580.8384, 463.8505
581.3205, 455.8184
581.8026, 448.6107
582.2847, 440.4865
582.7668, 431.3351
583.2490, 422.4488
583.7311, 414.8302
584.2131, 408.1815
584.6953, 402.0167
585.1774, 396.2134
585.6595, 391.0384
