##NAMES=Meyerhofferite
##RRUFFID=R050671
##IDEAL CHEMISTRY=CaB_3_O_3_(OH)_5_&#183;H_2_O
##LOCALITY=Inyo County, California, USA
##OWNER=RRUFF
##SOURCE=University of Arizona Mineral Museum
##DESCRIPTION=Colorless prismatic single crystals
##STATUS=The identification of this mineral has been confirmed by X-ray diffraction and chemical analysis
##URL=rruff.info/R050671
##MEASURED CHEMISTRY=Ca_1.00_B_3_O_3_(OH)_5_Â·H_2_O ; B not measured but estimated by charge balance
92.02539, 835.0153
92.50751, 828.2300
92.98962, 831.0692
93.47174, 837.0431
93.95386, 846.3928
94.43597, 853.2665
94.91809, 856.5978
95.40021, 857.6122
95.88232, 856.9792
96.36444, 854.7139
96.84656, 850.8321
97.32867, 846.0626
97.81078, 840.5039
98.29290, 833.9769
98.77502, 825.5637
99.25713, 813.5994
99.73925, 803.5754
100.2214, 796.0262
100.7035, 789.5757
101.1856, 783.5519
101.6677, 777.8144
102.1498, 772.6705
102.6320, 768.5263
103.1141, 765.5822
103.5962, 763.2347
104.0783, 761.5383
104.5604, 760.2892
105.0425, 759.3680
105.5247, 758.7639
106.0068, 758.2354
106.4889, 757.0011
106.9710, 754.7846
107.4531, 753.0871
107.9352, 752.6138
108.4173, 753.2264
108.8995, 754.2747
109.3816, 755.7100
109.8637, 757.3459
110.3458, 758.9149
110.8279, 760.3322
111.3100, 761.8876
111.7922, 764.0299
112.2743, 766.9583
112.7564, 769.7903
113.2385, 771.5046
113.7206, 773.3333
114.2027, 776.3470
114.6849, 781.0068
115.1670, 787.1553
115.6491, 794.1676
116.1312, 802.5429
116.6133, 811.4293
117.0954, 822.8674
117.5776, 834.4883
118.0597, 843.0035
118.5418, 846.1529
119.0239, 843.8875
119.5060, 838.2482
119.9881, 825.9798
120.4703, 814.0696
120.9524, 804.9050
121.4345, 798.6591
121.9166, 794.6667
122.3987, 792.6906
122.8808, 793.1483
123.3630, 793.1249
123.8451, 792.8729
124.3272, 792.0100
124.8093, 790.1252
125.2914, 787.1141
125.7735, 783.2897
126.2557, 778.4803
126.7378, 772.9229
127.2199, 767.8028
127.7020, 763.4348
128.1841, 759.8438
128.6662, 757.2787
129.1483, 756.2688
129.6305, 755.7719
130.1126, 754.8636
130.5947, 753.5878
131.0768, 752.4485
131.5589, 751.8729
132.0410, 751.8993
132.5232, 752.1984
133.0053, 752.7559
133.4874, 753.5778
133.9695, 754.5159
134.4516, 755.6068
134.9337, 757.2184
135.4159, 759.9290
135.8980, 764.0292
136.3801, 768.8975
136.8622, 775.7321
137.3443, 782.5585
137.8264, 787.7906
138.3086, 790.8240
138.7907, 792.0172
139.2728, 792.2596
139.7549, 792.9307
140.2370, 790.9118
140.7191, 784.2063
141.2013, 774.9333
141.6834, 766.0245
142.1655, 758.9658
142.6476, 753.5587
143.1297, 749.0146
143.6118, 745.3786
144.0939, 742.3329
144.5761, 739.8279
145.0582, 737.8446
145.5403, 736.2602
146.0224, 735.0055
146.5045, 734.1694
146.9866, 733.8035
147.4688, 734.3806
147.9509, 735.0453
148.4330, 734.7225
148.9151, 733.1918
149.3972, 732.0469
149.8793, 732.8223
150.3615, 734.4620
150.8436, 735.6811
151.3257, 735.7158
151.8078, 735.1917
152.2899, 735.5779
152.7720, 737.2883
153.2542, 739.2500
153.7363, 741.2909
154.2184, 743.2139
154.7005, 744.6901
155.1826, 745.3654
155.6647, 745.3544
156.1469, 745.8450
156.6290, 747.1487
157.1111, 748.7174
157.5932, 750.5530
158.0753, 752.5511
158.5574, 754.4570
159.0396, 755.9338
159.5217, 756.7879
160.0038, 759.0865
160.4859, 764.4402
160.9680, 769.5912
161.4501, 773.2162
161.9323, 775.2857
162.4144, 776.5071
162.8965, 777.6196
163.3786, 778.7708
163.8607, 778.8405
164.3428, 778.0223
164.8250, 776.1339
165.3071, 772.5866
165.7892, 767.3851
166.2713, 761.8126
166.7534, 757.3190
167.2355, 754.0102
167.7177, 751.2885
168.1998, 748.6143
168.6819, 746.6542
169.1640, 746.6191
169.6461, 749.0674
170.1282, 752.2883
170.6104, 753.9036
171.0925, 754.1116
171.5746, 754.9924
172.0567, 757.7156
172.5388, 761.7707
173.0209, 765.6841
173.5031, 769.1819
173.9852, 772.4741
174.4673, 775.8596
174.9494, 779.3093
175.4315, 782.6144
175.9136, 786.0705
176.3958, 789.6298
176.8779, 791.4926
177.3600, 790.3640
177.8421, 788.1734
178.3242, 785.8538
178.8063, 783.5012
179.2885, 781.0256
179.7706, 778.0335
180.2527, 774.1213
180.7348, 771.4955
181.2169, 770.8701
181.6990, 771.1050
182.1812, 771.7114
182.6633, 772.5905
183.1454, 773.8947
183.6275, 775.7590
184.1096, 777.8730
184.5917, 781.3903
185.0738, 786.9504
185.5560, 793.1851
186.0381, 799.5388
186.5202, 805.7172
187.0023, 811.2613
187.4844, 815.4005
187.9665, 818.3027
188.4487, 819.1132
188.9308, 817.4119
189.4129, 813.9490
189.8950, 809.2868
190.3771, 803.6413
190.8592, 797.0177
191.3414, 789.2576
191.8235, 779.3232
192.3056, 770.2685
192.7877, 762.6156
193.2698, 756.0042
193.7519, 749.9158
194.2341, 744.1524
194.7162, 738.8920
195.1983, 734.5615
195.6804, 730.9865
196.1625, 728.2878
196.6446, 726.7337
197.1268, 726.0784
197.6089, 725.8302
198.0910, 725.9559
198.5731, 726.2316
199.0552, 726.2555
199.5373, 725.9636
200.0195, 725.7819
200.5016, 725.9207
200.9837, 726.3605
201.4658, 727.0368
201.9479, 728.1424
202.4300, 729.2711
202.9122, 730.0521
203.3943, 730.4841
203.8764, 730.5363
204.3585, 730.3401
204.8406, 729.8952
205.3227, 728.5450
205.8048, 725.3398
206.2870, 721.7196
206.7691, 718.6503
207.2512, 716.2511
207.7333, 714.2258
208.2154, 712.3304
208.6975, 710.5759
209.1797, 708.8867
209.6618, 706.9727
210.1439, 705.3120
210.6260, 704.3702
211.1081, 704.1639
211.5902, 704.1225
212.0724, 703.4002
212.5545, 701.6057
213.0366, 700.3434
213.5187, 699.8002
214.0008, 699.7084
214.4829, 700.1107
214.9651, 700.9305
215.4472, 701.8121
215.9293, 702.1193
216.4114, 701.1131
216.8935, 701.1275
217.3756, 702.8206
217.8578, 704.8854
218.3399, 706.4689
218.8220, 707.3668
219.3041, 707.9101
219.7862, 708.5365
220.2683, 708.9130
220.7505, 710.1429
221.2326, 712.8965
221.7147, 715.9933
222.1968, 718.4475
222.6789, 720.0557
223.1610, 721.3997
223.6432, 723.3572
224.1253, 726.3891
224.6074, 729.1188
225.0895, 731.8419
225.5716, 734.1152
226.0537, 735.5273
226.5358, 735.9888
227.0180, 735.6794
227.5001, 734.8348
227.9822, 733.4861
228.4643, 731.3152
228.9464, 728.3096
229.4285, 724.4633
229.9107, 719.2547
230.3928, 712.5072
230.8749, 705.9274
231.3570, 701.9618
231.8391, 700.7938
232.3212, 699.9216
232.8034, 698.8386
233.2855, 697.9136
233.7676, 698.1019
234.2497, 699.8479
234.7318, 701.0927
235.2139, 698.6190
235.6961, 692.9536
236.1782, 688.2398
236.6603, 685.9175
237.1424, 685.0488
237.6245, 684.3005
238.1066, 683.5558
238.5888, 682.7513
239.0709, 681.8499
239.5530, 680.8489
240.0351, 679.6579
240.5172, 678.1132
240.9993, 676.3763
241.4815, 674.6728
241.9636, 672.8701
242.4457, 671.4725
242.9278, 671.0775
243.4099, 671.3342
243.8920, 671.5717
244.3742, 671.5345
244.8563, 671.2834
245.3384, 670.9367
245.8205, 670.4587
246.3026, 669.9667
246.7847, 669.2370
247.2668, 668.5687
247.7490, 668.5538
248.2311, 669.8734
248.7132, 671.8180
249.1953, 672.5339
249.6774, 671.3983
250.1595, 670.2692
250.6417, 670.0594
251.1238, 670.2883
251.6059, 670.3318
252.0880, 669.8531
252.5701, 669.0872
253.0522, 668.7288
253.5344, 669.3032
254.0165, 669.2135
254.4986, 667.5059
254.9807, 665.1778
255.4628, 663.3493
255.9449, 662.5654
256.4271, 662.3444
256.9092, 661.5165
257.3913, 659.6865
257.8734, 657.9926
258.3555, 656.5898
258.8376, 655.4415
259.3198, 654.5219
259.8019, 653.8262
260.2840, 653.3258
260.7661, 652.9774
261.2482, 652.8522
261.7303, 652.7488
262.2125, 652.7402
262.6946, 652.6780
263.1767, 652.4578
263.6588, 652.0394
264.1409, 651.4245
264.6230, 650.5491
265.1052, 649.0435
265.5873, 648.0192
266.0694, 647.9152
266.5515, 647.9686
267.0336, 647.5667
267.5157, 646.5995
267.9979, 645.4501
268.4800, 644.7062
268.9621, 644.6321
269.4442, 644.4107
269.9263, 644.1222
270.4084, 643.6681
270.8906, 642.9658
271.3727, 642.0187
271.8548, 640.8907
272.3369, 639.5864
272.8190, 637.8564
273.3011, 636.8815
273.7833, 637.1148
274.2654, 637.5723
274.7475, 637.8600
275.2296, 637.8746
275.7117, 637.5485
276.1938, 636.7284
276.6760, 635.2166
277.1581, 634.4854
277.6402, 635.1892
278.1223, 635.8785
278.6044, 635.7346
279.0865, 634.9235
279.5686, 634.2157
280.0508, 634.2937
280.5329, 635.1863
281.0150, 635.3621
281.4971, 634.3180
281.9792, 633.2174
282.4613, 632.5184
282.9435, 632.1075
283.4256, 631.6336
283.9077, 630.8549
284.3898, 629.8158
284.8719, 628.9854
285.3540, 628.3107
285.8362, 627.8508
286.3183, 627.7362
286.8004, 627.8357
287.2825, 627.9060
287.7646, 627.8123
288.2467, 627.6353
288.7289, 627.6644
289.2110, 628.1926
289.6931, 628.5552
290.1752, 628.5823
290.6573, 628.4044
291.1394, 628.2567
291.6216, 628.2449
292.1037, 628.1630
292.5858, 627.4972
293.0679, 625.5619
293.5500, 624.3883
294.0321, 624.7723
294.5143, 625.7609
294.9964, 626.2368
295.4785, 625.9030
295.9606, 625.3431
296.4427, 625.4618
296.9248, 626.7326
297.4070, 627.1721
297.8891, 625.8505
298.3712, 624.1833
298.8533, 623.4482
299.3354, 623.8245
299.8175, 624.6830
300.2997, 625.5095
300.7818, 626.3298
301.2639, 626.5599
301.7460, 625.7850
302.2281, 624.7567
302.7102, 623.7939
303.1924, 622.9871
303.6745, 622.6022
304.1566, 623.0150
304.6387, 624.1298
305.1208, 624.3196
305.6029, 622.7265
306.0851, 621.1325
306.5672, 620.5605
307.0493, 620.7643
307.5314, 620.8204
308.0135, 620.1243
308.4956, 618.9520
308.9778, 618.5507
309.4599, 619.9128
309.9420, 620.6882
310.4241, 619.4745
310.9062, 617.2010
311.3883, 615.7806
311.8705, 616.0978
312.3526, 617.3572
312.8347, 617.7630
313.3168, 616.9392
313.7989, 616.3157
314.2810, 616.1911
314.7632, 616.4171
315.2453, 616.8077
315.7274, 617.3137
316.2095, 617.9830
316.6916, 618.9935
317.1737, 620.5442
317.6559, 621.5145
318.1380, 621.4304
318.6201, 620.9573
319.1022, 620.5859
319.5843, 620.4066
320.0664, 620.5049
320.5485, 620.9899
321.0306, 621.9031
321.5128, 622.8931
321.9949, 624.0421
322.4770, 625.1998
322.9591, 626.2462
323.4412, 627.1992
323.9233, 628.1481
324.4055, 629.0710
324.8876, 630.0588
325.3697, 631.6295
325.8518, 634.1943
326.3339, 636.7980
326.8160, 639.0510
327.2982, 641.0833
327.7803, 643.2011
328.2624, 645.5438
328.7445, 648.0691
329.2266, 650.6868
329.7087, 653.3578
330.1909, 656.1710
330.6730, 659.3596
331.1551, 662.6165
331.6372, 665.3676
332.1193, 667.4348
332.6014, 669.5107
333.0836, 672.7375
333.5657, 677.8078
334.0478, 681.9151
334.5299, 684.4872
335.0120, 686.3588
335.4941, 688.1121
335.9763, 689.8419
336.4584, 691.5610
336.9405, 693.3673
337.4226, 695.3085
337.9047, 696.2707
338.3868, 695.8561
338.8690, 694.9747
339.3511, 693.8661
339.8332, 692.6542
340.3153, 691.5845
340.7974, 690.8222
341.2795, 690.3245
341.7617, 689.8378
342.2438, 688.9234
342.7259, 688.5284
343.2080, 689.6960
343.6901, 691.3214
344.1722, 691.8610
344.6544, 690.6904
345.1365, 688.0097
345.6186, 684.1879
346.1007, 678.1957
346.5828, 672.5359
347.0649, 667.4713
347.5471, 662.6371
348.0292, 657.7928
348.5113, 652.8895
348.9934, 647.7879
349.4755, 642.2859
349.9576, 635.9962
350.4398, 630.9527
350.9219, 627.6257
351.4040, 624.8887
351.8861, 622.3246
352.3682, 619.8766
352.8503, 617.5391
353.3325, 615.2707
353.8146, 613.1132
354.2967, 611.7498
354.7788, 611.9266
355.2609, 612.0360
355.7430, 611.6464
356.2252, 611.0114
356.7073, 610.4658
357.1894, 610.1677
357.6715, 610.1339
358.1536, 610.4193
358.6357, 611.2785
359.1179, 612.0986
359.5999, 612.7519
360.0821, 613.4314
360.5642, 614.3007
361.0463, 615.3922
361.5284, 616.6104
362.0105, 617.8762
362.4926, 619.2604
362.9748, 620.4237
363.4569, 621.1536
363.9390, 621.8796
364.4211, 622.8883
364.9032, 624.0702
365.3853, 625.0813
365.8675, 625.6493
366.3496, 625.8148
366.8317, 625.9609
367.3138, 625.9587
367.7959, 626.1080
368.2780, 626.2834
368.7602, 626.6984
369.2423, 627.7330
369.7244, 629.5702
370.2065, 631.7373
370.6886, 633.2354
371.1707, 633.6812
371.6529, 634.4154
372.1350, 635.7126
372.6171, 637.2741
373.0992, 638.8167
373.5813, 640.3467
374.0634, 642.2707
374.5456, 645.0294
375.0277, 648.6380
375.5098, 652.6319
375.9919, 657.4716
376.4740, 662.1854
376.9561, 666.4735
377.4383, 670.3124
377.9204, 673.6319
378.4025, 676.3528
378.8846, 678.5730
379.3667, 680.6426
379.8488, 682.7328
380.3310, 684.2061
380.8131, 684.8847
381.2952, 684.8030
381.7773, 683.8672
382.2594, 682.0067
382.7415, 679.5021
383.2237, 676.6436
383.7058, 673.4260
384.1879, 669.7527
384.6700, 665.3738
385.1521, 660.7318
385.6342, 655.9401
386.1164, 651.0905
386.5985, 646.9307
387.0806, 644.1279
387.5627, 642.3290
388.0448, 640.7103
388.5269, 639.2224
389.0091, 637.8867
389.4912, 636.6339
389.9733, 635.5468
390.4554, 634.8562
390.9375, 634.4425
391.4196, 634.5973
391.9018, 635.7239
392.3839, 637.7592
392.8660, 640.0842
393.3481, 642.4420
393.8302, 644.9440
394.3123, 647.9515
394.7945, 651.8431
395.2766, 655.0242
395.7587, 656.6987
396.2408, 657.2922
396.7229, 657.4709
397.2050, 657.3781
397.6872, 656.9247
398.1693, 656.0808
398.6514, 654.8287
399.1335, 652.7133
399.6156, 649.0358
400.0977, 645.0084
400.5798, 641.8530
401.0620, 639.2629
401.5441, 635.6486
402.0262, 629.8562
402.5083, 622.3926
402.9904, 615.9435
403.4725, 610.9921
403.9547, 606.2772
404.4368, 601.2391
404.9189, 596.4265
405.4010, 592.8792
405.8831, 590.8668
406.3652, 589.1887
406.8474, 585.9919
407.3295, 580.4249
407.8116, 575.8647
408.2937, 572.9091
408.7758, 570.3163
409.2579, 567.2783
409.7401, 563.9358
410.2222, 560.9637
410.7043, 558.8688
411.1864, 557.5544
411.6685, 556.0880
412.1506, 554.4517
412.6328, 552.6702
413.1149, 550.3807
413.5970, 548.1153
414.0791, 546.4835
414.5612, 545.6844
415.0433, 545.3788
415.5255, 545.1137
416.0076, 544.9642
416.4897, 544.5878
416.9718, 543.9903
417.4539, 543.1307
417.9360, 541.7757
418.4182, 540.0806
418.9003, 538.5207
419.3824, 537.2833
419.8645, 536.4626
420.3466, 536.6303
420.8287, 538.3930
421.3109, 539.8703
421.7930, 540.0706
422.2751, 539.6902
422.7572, 539.4201
423.2393, 539.4181
423.7214, 539.6951
424.2036, 540.3198
424.6857, 541.2827
425.1678, 542.4218
425.6499, 544.0698
426.1320, 545.3964
426.6141, 545.3591
427.0963, 544.1630
427.5784, 543.4214
428.0605, 544.1545
428.5426, 545.6169
429.0247, 546.5803
429.5068, 546.9504
429.9890, 547.5180
430.4711, 548.8671
430.9532, 550.7857
431.4353, 552.5075
431.9174, 554.1666
432.3995, 555.4283
432.8817, 556.2518
433.3638, 556.5392
433.8459, 555.9070
434.3280, 554.1500
434.8101, 552.0085
435.2922, 550.6035
435.7744, 550.2913
436.2565, 549.1650
436.7386, 546.6696
437.2207, 543.7274
437.7028, 540.9409
438.1849, 538.3122
438.6671, 535.5662
439.1492, 532.4966
439.6313, 529.1805
440.1134, 526.1473
440.5955, 523.4597
441.0776, 520.9850
441.5598, 518.6713
442.0418, 516.5977
442.5240, 514.9323
443.0061, 513.6956
443.4882, 512.6556
443.9703, 511.5093
444.4524, 510.1918
444.9345, 509.0756
445.4167, 508.3015
445.8988, 507.5991
446.3809, 506.8192
446.8630, 506.0515
447.3451, 505.5087
447.8272, 505.3649
448.3094, 505.3997
448.7915, 505.0576
449.2736, 504.2635
449.7557, 503.2929
450.2378, 501.6548
450.7199, 500.2281
451.2021, 499.8809
451.6842, 500.6351
452.1663, 501.3929
452.6484, 501.1815
453.1305, 500.2210
453.6126, 499.4853
454.0948, 499.0846
454.5769, 498.8025
455.0590, 498.5474
455.5411, 498.3081
456.0232, 498.0680
456.5053, 497.8668
456.9875, 497.6113
457.4696, 497.0830
457.9517, 496.3882
458.4338, 495.9657
458.9159, 495.9096
459.3980, 496.2965
459.8802, 497.6612
460.3623, 500.2399
460.8444, 501.5353
461.3265, 499.6641
461.8086, 497.2967
462.2907, 497.0390
462.7729, 498.8052
463.2550, 500.7930
463.7371, 501.8190
464.2192, 502.0313
464.7013, 502.3166
465.1834, 502.6761
465.6656, 503.0999
466.1477, 503.5002
466.6298, 504.0134
467.1119, 504.7386
467.5940, 505.7221
468.0761, 507.0397
468.5583, 508.8456
469.0404, 511.2799
469.5225, 513.3927
470.0046, 515.0219
470.4867, 516.4908
470.9688, 517.7943
471.4510, 519.0164
471.9331, 520.3090
472.4152, 521.7672
472.8973, 523.1815
473.3794, 524.1851
473.8615, 524.7769
474.3437, 524.9559
474.8258, 524.8159
475.3079, 524.1304
475.7900, 522.4906
476.2721, 520.0634
476.7542, 517.6736
477.2364, 515.8321
477.7185, 514.3935
478.2006, 512.8790
478.6827, 511.1815
479.1648, 510.1192
479.6469, 510.4792
480.1291, 511.6077
480.6112, 512.2376
481.0933, 512.0770
481.5754, 512.0969
482.0575, 512.6210
482.5396, 513.6998
483.0217, 515.5551
483.5038, 518.2552
483.9860, 521.2566
484.4681, 524.0847
484.9502, 526.7231
485.4323, 529.4304
485.9144, 531.9877
486.3965, 534.8262
486.8787, 537.7917
487.3608, 541.2435
487.8429, 545.9037
488.3250, 552.0712
488.8071, 559.1678
489.2892, 566.1171
489.7714, 572.7936
490.2535, 579.7712
490.7356, 588.0031
491.2177, 595.5909
491.6998, 601.8594
492.1819, 606.6526
492.6641, 609.9724
493.1462, 611.9026
493.6283, 612.1370
494.1104, 609.7288
494.5925, 604.4731
495.0746, 597.1432
495.5568, 586.4609
496.0389, 574.7999
496.5210, 563.4915
497.0031, 552.7527
497.4852, 542.4955
497.9673, 532.5872
498.4495, 523.1958
498.9316, 514.8434
499.4137, 507.5560
499.8958, 501.2455
500.3779, 496.0290
500.8600, 491.6971
501.3422, 487.7540
501.8243, 484.1429
502.3064, 480.9604
502.7885, 478.3193
503.2706, 476.1016
503.7527, 474.0313
504.2349, 472.0544
504.7170, 470.3791
505.1991, 469.3064
505.6812, 468.8776
506.1633, 468.0252
506.6454, 466.2848
507.1276, 464.6880
507.6097, 463.5954
508.0918, 462.8962
508.5739, 462.5155
509.0560, 462.4043
509.5381, 462.2780
510.0203, 461.5897
510.5024, 459.9782
510.9845, 459.0462
511.4666, 459.6929
511.9487, 460.1308
512.4308, 459.4098
512.9130, 457.9896
513.3951, 456.8130
513.8772, 456.3409
514.3593, 456.3885
514.8414, 456.7704
515.3235, 457.5792
515.8057, 458.0360
516.2878, 458.0729
516.7699, 457.5453
517.2520, 456.0872
517.7341, 453.8610
518.2162, 452.0032
518.6984, 451.1240
519.1805, 450.7867
519.6626, 450.4639
520.1447, 450.1522
520.6268, 449.9771
521.1089, 450.0006
521.5911, 450.1958
522.0732, 450.6374
522.5553, 451.7262
523.0374, 451.9238
523.5195, 450.1617
524.0016, 447.9719
524.4838, 446.8174
524.9659, 446.6501
525.4480, 446.3929
525.9301, 445.2145
526.4122, 443.3937
526.8943, 442.3752
527.3765, 443.0707
527.8586, 443.2892
528.3407, 442.2280
528.8228, 441.0695
529.3049, 440.9665
529.7870, 441.9078
530.2692, 442.8517
530.7513, 442.8956
531.2334, 442.1576
531.7155, 441.2533
532.1976, 440.0111
532.6797, 439.0150
533.1619, 438.7177
533.6440, 438.6977
534.1261, 438.4562
534.6082, 437.8616
535.0903, 437.5438
535.5724, 438.2468
536.0546, 439.4507
536.5367, 440.0260
537.0188, 439.8124
537.5009, 439.2606
537.9830, 438.5714
538.4651, 437.8183
538.9473, 437.3974
539.4294, 437.5621
539.9115, 437.7012
540.3936, 437.5150
540.8757, 437.2686
541.3578, 437.4422
541.8400, 438.0546
542.3221, 438.4808
542.8042, 438.0038
543.2863, 436.6015
543.7684, 435.6852
544.2505, 435.6217
544.7326, 435.6421
545.2147, 435.6899
545.6968, 435.7088
546.1790, 435.6547
546.6611, 435.5159
547.1432, 435.2927
547.6253, 434.9165
548.1074, 434.4140
548.5895, 434.1184
549.0717, 434.1012
549.5538, 434.1667
550.0359, 434.2521
550.5180, 434.3322
551.0001, 434.3385
551.4822, 434.1793
551.9644, 434.1401
552.4465, 434.3931
552.9286, 434.8931
553.4107, 435.6602
553.8928, 436.7070
554.3749, 437.6200
554.8571, 438.0223
555.3392, 437.9206
555.8213, 437.6905
556.3034, 436.9748
556.7855, 436.5796
557.2676, 436.8349
557.7498, 437.4621
558.2319, 438.2596
558.7140, 439.1171
559.1961, 439.7628
559.6782, 439.7813
560.1603, 439.1581
560.6425, 439.2348
561.1246, 440.8433
561.6067, 441.9199
562.0888, 441.3917
562.5709, 440.2794
563.0530, 439.7653
563.5352, 440.1450
564.0173, 440.7448
564.4994, 441.0593
564.9815, 441.1363
565.4636, 441.0468
565.9457, 440.7281
566.4279, 440.6129
566.9100, 441.0009
567.3921, 441.8392
567.8742, 442.8765
568.3563, 444.5421
568.8384, 445.6940
569.3206, 445.7174
569.8027, 445.1296
570.2848, 444.5194
570.7669, 443.9919
571.2490, 443.3769
571.7311, 442.5284
572.2133, 441.4598
572.6954, 440.3576
573.1775, 439.1177
573.6596, 437.9855
574.1417, 437.0911
574.6238, 436.2421
575.1060, 435.2139
575.5881, 434.0132
576.0702, 432.8985
576.5523, 431.9619
577.0344, 431.2919
577.5165, 431.4502
577.9987, 432.7518
578.4808, 433.4747
578.9629, 432.4641
579.4450, 430.7484
579.9271, 429.6446
580.4092, 429.1503
580.8914, 429.4332
581.3735, 431.3628
581.8556, 433.5978
582.3377, 434.4162
582.8198, 433.9525
583.3019, 433.6278
583.7841, 434.2352
584.2662, 435.5970
584.7483, 437.2619
585.2304, 439.9216
585.7125, 441.7152
586.1946, 441.8143
586.6768, 441.8403
