##NAMES=Meyerhofferite
##RRUFFID=R050671
##IDEAL CHEMISTRY=CaB_3_O_3_(OH)_5_&#183;H_2_O
##LOCALITY=Inyo County, California, USA
##OWNER=RRUFF
##SOURCE=University of Arizona Mineral Museum
##DESCRIPTION=Colorless prismatic single crystals
##STATUS=The identification of this mineral has been confirmed by X-ray diffraction and chemical analysis
##URL=rruff.info/R050671
##MEASURED CHEMISTRY=Ca_1.00_B_3_O_3_(OH)_5_Â·H_2_O ; B not measured but estimated by charge balance
89.78156, 0.0000000E+00
90.26367, 37.51664
90.74579, 37.40923
91.22791, 37.41087
91.71002, 37.51849
92.19214, 37.71125
92.67426, 36.57523
93.15638, 35.32352
93.63850, 37.44867
94.12061, 47.84716
94.60273, 61.44147
95.08485, 65.07015
95.56696, 57.74159
96.04908, 46.93700
96.53120, 40.98173
97.01331, 39.80054
97.49543, 39.81404
97.97755, 39.77423
98.45966, 39.69324
98.94178, 39.84438
99.42390, 40.31861
99.90602, 40.89553
100.3881, 41.12980
100.8703, 40.94166
101.3524, 40.69447
101.8345, 40.57053
102.3166, 40.59748
102.7987, 40.63380
103.2808, 40.66649
103.7630, 40.70213
104.2451, 40.74819
104.7272, 40.72457
105.2093, 40.81823
105.6914, 41.14677
106.1735, 41.69006
106.6557, 42.51561
107.1378, 43.82440
107.6199, 45.65799
108.1020, 46.86905
108.5841, 45.83693
109.0662, 45.04560
109.5484, 46.70578
110.0305, 55.13592
110.5126, 61.75093
110.9947, 64.29000
111.4768, 61.55552
111.9590, 60.33624
112.4411, 61.54627
112.9232, 64.52921
113.4053, 68.40189
113.8874, 73.39127
114.3695, 78.95351
114.8517, 84.78996
115.3338, 90.67522
115.8159, 97.29861
116.2980, 104.6268
116.7801, 112.8956
117.2622, 122.5143
117.7444, 133.0142
118.2265, 145.3566
118.7086, 160.5406
119.1907, 181.2549
119.6728, 201.3463
120.1549, 215.9093
120.6371, 226.3911
121.1192, 238.7144
121.6013, 256.5915
122.0834, 277.9078
122.5655, 300.3160
123.0476, 323.6561
123.5298, 347.3259
124.0119, 371.3149
124.4940, 395.5283
124.9761, 418.7270
125.4582, 439.6189
125.9404, 458.6424
126.4225, 476.4594
126.9046, 493.0424
127.3867, 508.6624
127.8688, 523.2855
128.3509, 536.7722
128.8331, 550.6230
129.3152, 566.1092
129.7973, 583.3197
130.2794, 602.2470
130.7615, 622.8035
131.2436, 645.0790
131.7258, 668.8710
132.2079, 693.9371
132.6900, 721.2092
133.1721, 753.2003
133.6542, 789.8326
134.1364, 826.8535
134.6185, 862.1451
135.1006, 895.9332
135.5827, 930.0652
136.0648, 965.0931
136.5469, 1000.416
137.0291, 1035.906
137.5112, 1072.402
137.9933, 1104.570
138.4754, 1128.779
138.9575, 1143.990
139.4396, 1156.226
139.9218, 1165.448
140.4039, 1172.153
140.8860, 1178.225
141.3681, 1182.956
141.8502, 1188.254
142.3323, 1195.383
142.8145, 1204.515
143.2966, 1215.236
143.7787, 1227.316
144.2608, 1240.872
144.7429, 1256.326
145.2250, 1274.498
145.7072, 1294.025
146.1893, 1313.614
146.6714, 1332.261
147.1535, 1352.438
147.6356, 1374.783
148.1178, 1399.514
148.5999, 1424.338
149.0820, 1448.773
149.5641, 1473.417
150.0462, 1498.732
150.5283, 1525.283
151.0105, 1551.620
151.4926, 1562.851
151.9747, 1570.026
152.4568, 1579.282
152.9389, 1593.462
153.4210, 1609.080
153.9032, 1621.469
154.3853, 1626.280
154.8674, 1631.117
155.3495, 1638.453
155.8316, 1649.497
156.3137, 1660.676
156.7959, 1671.696
157.2780, 1682.459
157.7601, 1692.732
158.2422, 1702.201
158.7243, 1711.445
159.2065, 1720.814
159.6886, 1730.298
160.1707, 1739.939
160.6528, 1750.042
161.1349, 1760.323
161.6170, 1770.053
162.0992, 1779.473
162.5813, 1787.957
163.0634, 1795.198
163.5455, 1801.896
164.0276, 1806.339
164.5097, 1806.254
164.9919, 1802.779
165.4740, 1800.329
165.9561, 1800.379
166.4382, 1802.721
166.9203, 1807.186
167.4024, 1814.246
167.8846, 1822.874
168.3667, 1832.334
168.8488, 1842.739
169.3309, 1854.858
169.8130, 1870.587
170.2952, 1887.939
170.7773, 1904.199
171.2594, 1917.148
171.7415, 1929.780
172.2236, 1945.303
172.7057, 1963.503
173.1879, 1981.500
173.6700, 1997.703
174.1521, 2012.182
174.6342, 2025.143
175.1163, 2037.101
175.5984, 2047.501
176.0806, 2055.970
176.5627, 2062.579
177.0448, 2066.236
177.5269, 2064.863
178.0090, 2059.725
178.4911, 2053.763
178.9733, 2047.339
179.4554, 2041.208
179.9375, 2036.064
180.4196, 2031.856
180.9017, 2029.742
181.3838, 2031.618
181.8660, 2036.832
182.3481, 2043.130
182.8302, 2048.749
183.3123, 2054.791
183.7944, 2064.235
184.2766, 2077.643
184.7587, 2092.412
185.2408, 2106.501
185.7229, 2119.663
186.2050, 2131.097
186.6871, 2140.746
187.1693, 2148.416
187.6514, 2153.371
188.1335, 2156.094
188.6156, 2154.754
189.0977, 2146.520
189.5798, 2131.486
190.0620, 2111.642
190.5441, 2086.190
191.0262, 2055.825
191.5083, 2025.211
191.9904, 1993.472
192.4725, 1962.861
192.9547, 1936.613
193.4368, 1914.497
193.9189, 1896.689
194.4010, 1884.387
194.8831, 1877.289
195.3652, 1870.472
195.8474, 1863.404
196.3295, 1856.843
196.8116, 1852.368
197.2937, 1850.084
197.7758, 1848.962
198.2579, 1848.381
198.7401, 1848.319
199.2222, 1849.565
199.7043, 1852.400
200.1864, 1856.245
200.6685, 1860.238
201.1507, 1864.604
201.6328, 1867.858
202.1149, 1868.807
202.5970, 1867.229
203.0791, 1865.651
203.5612, 1864.591
204.0434, 1863.448
204.5255, 1860.327
205.0076, 1854.795
205.4897, 1848.835
205.9718, 1843.638
206.4539, 1839.323
206.9361, 1835.018
207.4182, 1830.248
207.9003, 1825.646
208.3824, 1823.345
208.8645, 1823.945
209.3466, 1825.300
209.8288, 1826.007
210.3109, 1825.744
210.7930, 1826.352
211.2751, 1828.398
211.7572, 1831.325
212.2393, 1832.807
212.7215, 1831.919
213.2036, 1831.550
213.6857, 1833.797
214.1678, 1839.559
214.6499, 1844.841
215.1320, 1849.095
215.6142, 1852.648
216.0963, 1856.890
216.5784, 1861.981
217.0605, 1867.387
217.5426, 1872.804
218.0247, 1878.172
218.5069, 1883.515
218.9890, 1888.642
219.4711, 1893.745
219.9532, 1899.837
220.4353, 1907.267
220.9175, 1915.225
221.3996, 1923.432
221.8817, 1932.092
222.3638, 1940.381
222.8459, 1948.424
223.3280, 1956.097
223.8102, 1962.083
224.2923, 1965.961
224.7744, 1968.946
225.2565, 1971.988
225.7386, 1976.045
226.2207, 1977.892
226.7029, 1977.755
227.1850, 1975.240
227.6671, 1967.923
228.1492, 1953.469
228.6313, 1937.534
229.1134, 1923.423
229.5956, 1911.160
230.0777, 1900.447
230.5598, 1891.433
231.0419, 1883.960
231.5240, 1876.917
232.0062, 1869.894
232.4883, 1863.900
232.9704, 1859.708
233.4525, 1858.248
233.9346, 1856.611
234.4167, 1854.629
234.8989, 1852.327
235.3810, 1849.805
235.8631, 1846.858
236.3452, 1843.881
236.8273, 1841.082
237.3094, 1838.615
237.7916, 1835.886
238.2737, 1832.531
238.7558, 1828.828
239.2379, 1825.928
239.7200, 1823.924
240.2021, 1822.557
240.6843, 1821.752
241.1664, 1821.853
241.6485, 1821.767
242.1306, 1821.408
242.6127, 1820.852
243.0948, 1820.345
243.5770, 1819.877
244.0591, 1819.551
244.5412, 1819.446
245.0233, 1819.652
245.5054, 1819.979
245.9876, 1820.454
246.4697, 1821.077
246.9518, 1821.859
247.4339, 1822.984
247.9160, 1824.005
248.3981, 1824.562
248.8803, 1824.036
249.3624, 1824.506
249.8445, 1826.239
250.3266, 1828.889
250.8087, 1831.644
251.2908, 1834.715
251.7730, 1837.428
252.2551, 1839.441
252.7372, 1840.653
253.2193, 1841.357
253.7014, 1841.371
254.1835, 1840.939
254.6657, 1840.673
255.1478, 1840.847
255.6299, 1840.712
256.1120, 1839.773
256.5941, 1837.477
257.0763, 1836.328
257.5584, 1836.918
258.0405, 1838.300
258.5226, 1838.440
259.0047, 1836.667
259.4868, 1835.082
259.9690, 1834.732
260.4511, 1836.159
260.9332, 1836.172
261.4153, 1833.898
261.8974, 1830.973
262.3795, 1830.380
262.8617, 1833.032
263.3438, 1835.777
263.8259, 1837.474
264.3080, 1837.886
264.7901, 1838.940
265.2722, 1841.068
265.7544, 1843.302
266.2365, 1843.937
266.7186, 1842.240
267.2007, 1841.207
267.6828, 1842.191
268.1649, 1845.415
268.6471, 1846.821
269.1292, 1845.968
269.6113, 1844.052
270.0934, 1842.347
270.5755, 1840.700
271.0576, 1839.816
271.5398, 1839.940
272.0219, 1841.059
272.5040, 1842.806
272.9861, 1845.444
273.4682, 1848.094
273.9503, 1849.711
274.4325, 1850.071
274.9146, 1850.585
275.3967, 1851.709
275.8788, 1853.312
276.3610, 1854.109
276.8431, 1853.794
277.3252, 1853.579
277.8073, 1854.966
278.2894, 1858.182
278.7715, 1860.396
279.2537, 1860.640
279.7358, 1859.588
280.2179, 1860.340
280.7000, 1863.299
281.1821, 1866.342
281.6642, 1867.626
282.1464, 1867.145
282.6285, 1866.655
283.1106, 1866.166
283.5927, 1866.059
284.0748, 1867.781
284.5569, 1871.526
285.0391, 1875.232
285.5212, 1876.899
286.0033, 1876.777
286.4854, 1878.237
286.9675, 1882.039
287.4496, 1887.033
287.9318, 1891.187
288.4139, 1894.515
288.8960, 1897.018
289.3781, 1898.348
289.8602, 1898.781
290.3423, 1899.746
290.8245, 1901.476
291.3066, 1903.553
291.7887, 1905.458
292.2708, 1907.194
292.7529, 1908.567
293.2350, 1908.981
293.7172, 1908.925
294.1993, 1909.944
294.6814, 1912.209
295.1635, 1915.101
295.6456, 1918.051
296.1277, 1921.004
296.6099, 1923.719
297.0920, 1925.837
297.5741, 1927.633
298.0562, 1929.716
298.5383, 1932.102
299.0204, 1934.349
299.5026, 1935.680
299.9847, 1936.479
300.4668, 1937.825
300.9489, 1940.728
301.4311, 1944.117
301.9132, 1946.465
302.3953, 1947.826
302.8774, 1948.648
303.3595, 1949.034
303.8416, 1949.197
304.3238, 1949.554
304.8059, 1950.634
305.2880, 1951.581
305.7701, 1950.837
306.2522, 1948.769
306.7343, 1947.685
307.2165, 1950.127
307.6986, 1954.070
308.1807, 1956.813
308.6628, 1956.847
309.1449, 1956.920
309.6270, 1959.180
310.1092, 1963.244
310.5913, 1967.856
311.0734, 1973.297
311.5555, 1978.450
312.0376, 1982.025
312.5197, 1983.182
313.0019, 1984.392
313.4840, 1987.148
313.9661, 1990.988
314.4482, 1994.983
314.9303, 1997.877
315.4124, 2001.446
315.8946, 2007.305
316.3767, 2016.305
316.8588, 2024.399
317.3409, 2028.949
317.8230, 2031.960
318.3051, 2036.045
318.7873, 2042.958
319.2694, 2050.348
319.7515, 2057.099
320.2336, 2063.061
320.7157, 2069.729
321.1978, 2077.676
321.6800, 2086.371
322.1621, 2095.304
322.6442, 2104.752
323.1263, 2114.013
323.6084, 2122.333
324.0905, 2129.862
324.5727, 2138.991
325.0548, 2151.296
325.5369, 2164.437
326.0190, 2176.982
326.5012, 2188.596
326.9833, 2199.965
327.4654, 2210.882
327.9475, 2221.515
328.4296, 2232.331
328.9117, 2243.056
329.3939, 2254.195
329.8760, 2266.077
330.3581, 2279.284
330.8402, 2292.183
331.3223, 2305.285
331.8044, 2317.946
332.2866, 2328.830
332.7687, 2336.906
333.2508, 2344.447
333.7329, 2352.358
334.2150, 2361.034
334.6971, 2368.199
335.1793, 2374.136
335.6614, 2378.383
336.1435, 2380.249
336.6256, 2379.527
337.1077, 2377.038
337.5898, 2372.367
338.0720, 2365.704
338.5541, 2361.477
339.0362, 2360.374
339.5183, 2360.268
340.0004, 2359.491
340.4825, 2358.098
340.9647, 2355.692
341.4468, 2351.800
341.9289, 2347.090
342.4110, 2344.125
342.8931, 2343.272
343.3752, 2341.744
343.8574, 2337.794
344.3395, 2331.391
344.8216, 2322.932
345.3037, 2312.005
345.7858, 2299.797
346.2679, 2288.666
346.7501, 2278.385
347.2322, 2267.296
347.7143, 2253.497
348.1964, 2238.031
348.6785, 2224.025
349.1607, 2211.419
349.6428, 2200.329
350.1249, 2190.485
350.6070, 2182.068
351.0891, 2175.490
351.5713, 2172.206
352.0534, 2170.362
352.5355, 2166.716
353.0176, 2161.424
353.4997, 2156.885
353.9818, 2154.847
354.4640, 2154.842
354.9461, 2156.319
355.4282, 2160.127
355.9103, 2164.077
356.3924, 2165.370
356.8745, 2164.861
357.3567, 2165.872
357.8388, 2171.599
358.3209, 2178.926
358.8030, 2185.072
359.2851, 2188.945
359.7672, 2193.134
360.2494, 2199.192
360.7315, 2206.548
361.2136, 2214.044
361.6957, 2221.568
362.1778, 2228.921
362.6599, 2236.020
363.1421, 2242.854
363.6242, 2249.356
364.1063, 2255.005
364.5884, 2260.509
365.0705, 2266.545
365.5526, 2274.245
366.0348, 2281.386
366.5169, 2287.242
366.9990, 2291.866
367.4811, 2296.514
367.9632, 2301.199
368.4453, 2306.007
368.9275, 2310.956
369.4096, 2315.751
369.8917, 2321.036
370.3738, 2326.664
370.8559, 2332.821
371.3380, 2339.885
371.8202, 2347.940
372.3023, 2356.912
372.7844, 2367.007
373.2665, 2378.752
373.7487, 2389.250
374.2308, 2398.016
374.7129, 2406.045
375.1950, 2414.690
375.6771, 2423.915
376.1592, 2434.126
376.6414, 2446.240
377.1235, 2459.814
377.6056, 2470.564
378.0877, 2478.187
378.5698, 2484.353
379.0519, 2491.252
379.5341, 2498.865
380.0162, 2503.184
380.4983, 2502.935
380.9804, 2499.688
381.4625, 2497.219
381.9446, 2495.453
382.4268, 2492.398
382.9089, 2485.816
383.3910, 2476.871
383.8731, 2469.214
384.3552, 2463.278
384.8373, 2458.042
385.3195, 2452.198
385.8016, 2446.068
386.2837, 2440.509
386.7658, 2435.722
387.2479, 2431.872
387.7300, 2428.973
388.2122, 2427.066
388.6943, 2426.565
389.1764, 2428.362
389.6585, 2431.557
390.1406, 2434.895
390.6227, 2437.279
391.1049, 2440.780
391.5870, 2447.821
392.0691, 2457.262
392.5512, 2465.671
393.0333, 2470.391
393.5154, 2474.333
393.9976, 2479.969
394.4797, 2488.915
394.9618, 2495.089
395.4439, 2495.329
395.9260, 2492.037
396.4081, 2488.419
396.8903, 2486.414
397.3724, 2482.882
397.8545, 2477.101
398.3366, 2469.047
398.8188, 2458.784
399.3009, 2445.854
399.7830, 2430.999
400.2651, 2414.528
400.7472, 2393.481
401.2293, 2375.307
401.7115, 2361.586
402.1936, 2350.758
402.6757, 2338.002
403.1578, 2322.177
403.6399, 2306.285
404.1220, 2291.617
404.6042, 2278.138
405.0863, 2265.512
405.5684, 2253.809
406.0505, 2243.049
406.5326, 2233.397
407.0147, 2224.870
407.4969, 2217.165
407.9790, 2210.292
408.4611, 2204.117
408.9432, 2198.083
409.4253, 2192.226
409.9074, 2186.593
410.3896, 2180.831
410.8717, 2175.194
411.3538, 2170.845
411.8359, 2168.109
412.3180, 2166.439
412.8001, 2165.699
413.2823, 2165.584
413.7644, 2164.820
414.2465, 2161.217
414.7286, 2157.235
415.2107, 2156.534
415.6928, 2159.351
416.1750, 2162.769
416.6571, 2165.208
417.1392, 2166.693
417.6213, 2167.267
418.1034, 2165.383
418.5855, 2164.249
419.0677, 2166.533
419.5498, 2171.375
420.0319, 2175.461
420.5140, 2176.491
420.9961, 2177.080
421.4782, 2178.868
421.9604, 2182.464
422.4425, 2186.218
422.9246, 2190.021
423.4067, 2193.676
423.8889, 2196.967
424.3710, 2199.611
424.8531, 2202.129
425.3352, 2204.544
425.8173, 2206.859
426.2994, 2209.175
426.7816, 2210.676
427.2637, 2212.991
427.7458, 2217.462
428.2279, 2225.697
428.7100, 2232.333
429.1921, 2236.944
429.6743, 2239.799
430.1564, 2241.033
430.6385, 2240.237
431.1206, 2239.419
431.6027, 2239.769
432.0848, 2241.177
432.5670, 2240.830
433.0491, 2238.537
433.5312, 2235.265
434.0133, 2232.135
434.4954, 2229.010
434.9775, 2224.829
435.4597, 2219.104
435.9418, 2212.523
436.4239, 2206.231
436.9060, 2200.262
437.3881, 2194.423
437.8702, 2189.134
438.3524, 2183.705
438.8345, 2176.739
439.3166, 2167.800
439.7987, 2159.180
440.2808, 2152.473
440.7629, 2147.276
441.2451, 2143.034
441.7272, 2140.454
442.2093, 2137.920
442.6914, 2134.415
443.1735, 2130.092
443.6556, 2126.036
444.1378, 2122.628
444.6199, 2119.639
445.1020, 2116.938
445.5841, 2114.372
446.0662, 2112.447
446.5483, 2111.668
447.0305, 2111.528
447.5126, 2111.158
447.9947, 2110.257
448.4768, 2109.465
448.9590, 2108.538
449.4411, 2107.431
449.9232, 2108.414
450.4053, 2112.570
450.8874, 2117.207
451.3695, 2120.092
451.8517, 2120.634
452.3338, 2122.110
452.8159, 2125.134
453.2980, 2128.784
453.7801, 2130.719
454.2622, 2130.715
454.7444, 2131.969
455.2265, 2136.701
455.7086, 2143.983
456.1907, 2149.658
456.6728, 2153.737
457.1549, 2157.038
457.6371, 2159.819
458.1192, 2162.496
458.6013, 2166.307
459.0834, 2171.988
459.5655, 2178.033
460.0476, 2182.815
460.5298, 2186.612
461.0119, 2190.015
461.4940, 2192.597
461.9761, 2195.506
462.4582, 2199.600
462.9403, 2205.007
463.4225, 2211.336
463.9046, 2219.486
464.3867, 2228.037
464.8688, 2235.453
465.3509, 2239.771
465.8330, 2244.847
466.3152, 2251.583
466.7973, 2259.698
467.2794, 2268.114
467.7615, 2277.548
468.2436, 2286.621
468.7257, 2294.728
469.2079, 2301.363
469.6900, 2309.068
470.1721, 2318.941
470.6542, 2328.587
471.1363, 2335.302
471.6184, 2338.454
472.1006, 2341.293
472.5827, 2344.860
473.0648, 2348.192
473.5469, 2347.804
474.0291, 2343.439
474.5112, 2338.504
474.9933, 2334.961
475.4754, 2332.506
475.9575, 2329.356
476.4396, 2325.233
476.9218, 2322.140
477.4039, 2322.800
477.8860, 2326.126
478.3681, 2329.528
478.8502, 2331.491
479.3323, 2334.012
479.8145, 2339.349
480.2966, 2347.036
480.7787, 2355.120
481.2608, 2363.170
481.7429, 2370.958
482.2250, 2377.872
482.7072, 2383.432
483.1893, 2390.509
483.6714, 2400.642
484.1535, 2412.572
484.6356, 2425.012
485.1177, 2438.523
485.5999, 2451.823
486.0820, 2464.171
486.5641, 2476.040
487.0462, 2489.580
487.5283, 2505.512
488.0104, 2522.300
488.4926, 2540.200
488.9747, 2559.774
489.4568, 2575.694
489.9389, 2586.742
490.4210, 2596.106
490.9031, 2608.613
491.3853, 2624.881
491.8674, 2635.027
492.3495, 2637.144
492.8316, 2631.710
493.3137, 2619.388
493.7958, 2600.238
494.2780, 2575.261
494.7601, 2542.987
495.2422, 2505.852
495.7243, 2467.858
496.2064, 2428.552
496.6885, 2392.574
497.1707, 2363.083
497.6528, 2338.491
498.1349, 2316.556
498.6170, 2296.468
499.0992, 2278.795
499.5813, 2263.903
500.0634, 2251.531
500.5455, 2240.848
501.0276, 2232.410
501.5097, 2224.905
501.9919, 2217.669
502.4740, 2210.607
502.9561, 2204.569
503.4382, 2199.850
503.9203, 2195.948
504.4024, 2192.458
504.8846, 2189.027
505.3667, 2186.995
505.8488, 2187.331
506.3309, 2188.591
506.8130, 2187.300
507.2951, 2182.823
507.7773, 2178.698
508.2594, 2176.297
508.7415, 2175.399
509.2236, 2174.635
509.7057, 2174.001
510.1878, 2173.610
510.6700, 2173.589
511.1521, 2173.891
511.6342, 2174.474
512.1163, 2175.458
512.5984, 2176.267
513.0806, 2176.025
513.5627, 2175.162
514.0448, 2174.577
514.5269, 2175.300
515.0090, 2175.888
515.4911, 2175.357
515.9733, 2173.766
516.4554, 2171.732
516.9375, 2167.896
517.4196, 2164.804
517.9017, 2164.162
518.3839, 2167.236
518.8660, 2170.091
519.3481, 2173.602
519.8302, 2176.064
520.3123, 2175.242
520.7944, 2168.058
521.2766, 2163.365
521.7587, 2163.453
522.2408, 2166.934
522.7229, 2168.173
523.2050, 2166.666
523.6871, 2164.940
524.1693, 2164.409
524.6514, 2164.985
525.1335, 2165.121
525.6156, 2164.773
526.0977, 2164.349
526.5798, 2164.128
527.0620, 2164.142
527.5441, 2164.507
528.0262, 2165.263
528.5083, 2166.279
528.9904, 2167.477
529.4725, 2168.788
529.9547, 2170.077
530.4368, 2171.066
530.9189, 2172.100
531.4010, 2173.675
531.8831, 2175.765
532.3652, 2176.955
532.8474, 2175.626
533.3295, 2174.056
533.8116, 2173.747
534.2937, 2176.045
534.7758, 2177.621
535.2579, 2177.966
535.7401, 2177.805
536.2222, 2178.252
536.7043, 2179.839
537.1864, 2180.868
537.6685, 2180.773
538.1506, 2179.922
538.6328, 2180.000
539.1149, 2181.146
539.5970, 2182.539
540.0791, 2183.459
540.5612, 2184.157
541.0433, 2186.034
541.5255, 2189.258
542.0076, 2192.354
542.4897, 2193.552
542.9718, 2193.591
543.4539, 2193.957
543.9360, 2194.995
544.4182, 2196.500
544.9003, 2198.220
545.3824, 2200.251
545.8645, 2202.829
546.3466, 2206.938
546.8287, 2210.781
547.3109, 2213.449
547.7930, 2214.855
548.2751, 2215.963
548.7572, 2216.172
549.2393, 2216.714
549.7214, 2218.370
550.2036, 2222.092
550.6857, 2224.780
551.1678, 2226.027
551.6499, 2226.715
552.1320, 2228.143
552.6141, 2230.502
553.0963, 2232.502
553.5784, 2233.733
554.0605, 2234.546
554.5426, 2235.779
555.0247, 2237.429
555.5068, 2239.394
555.9890, 2241.408
556.4711, 2243.737
556.9532, 2247.283
557.4353, 2252.054
557.9174, 2256.206
558.3995, 2257.648
558.8817, 2257.973
559.3638, 2258.913
559.8459, 2261.021
560.3281, 2263.441
560.8102, 2266.295
561.2923, 2269.129
561.7744, 2271.205
562.2565, 2271.676
562.7386, 2272.167
563.2208, 2272.801
563.7029, 2273.668
564.1850, 2275.525
564.6671, 2278.946
565.1492, 2282.330
565.6313, 2284.785
566.1135, 2286.187
566.5956, 2288.195
567.0777, 2290.973
567.5598, 2293.718
568.0419, 2296.066
568.5240, 2297.787
569.0062, 2297.492
569.4883, 2294.235
569.9704, 2290.478
570.4525, 2290.271
570.9346, 2292.153
571.4167, 2292.377
571.8989, 2286.904
572.3810, 2281.115
572.8631, 2279.281
573.3452, 2280.855
573.8273, 2281.657
574.3094, 2279.412
574.7916, 2276.553
575.2737, 2274.061
575.7558, 2271.446
576.2379, 2271.235
576.7200, 2275.149
577.2021, 2280.065
577.6843, 2283.136
578.1664, 2283.489
578.6485, 2284.414
579.1306, 2286.115
579.6127, 2288.683
580.0948, 2292.886
580.5770, 2298.702
581.0591, 2303.665
581.5412, 2305.800
582.0233, 2306.950
582.5054, 2311.986
582.9875, 2320.320
583.4697, 2328.026
583.9518, 2330.627
584.4339, 2332.091
