##NAMES=Miargyrite
##RRUFFID=R050440
##IDEAL CHEMISTRY=Ag^1+^Sb^3+^S^2-^_2_
##LOCALITY=Saint Andreasberg, Harz Mountains, Niedersachsen, Germany
##OWNER=RRUFF
##SOURCE=University of Arizona Mineral Museum
##DESCRIPTION=Black prismatic crystals
##STATUS=The identification of this mineral is confirmed by single-crystal X-ray diffraction and chemical analysis.
##URL=rruff.info/R050440
##MEASURED CHEMISTRY=Ag_1.00_Sb_1.00_S_2.00_
91.346, 0.000
91.828, 0.000
92.311, 74.428
92.793, 75.477
93.275, 79.322
93.757, 86.485
94.239, 94.585
94.721, 100.693
95.203, 104.924
95.685, 108.299
96.167, 111.031
96.650, 113.266
97.132, 115.912
97.614, 119.206
98.096, 122.870
98.578, 126.371
99.060, 129.699
99.542, 132.795
100.024, 135.345
100.507, 137.209
100.989, 139.926
101.471, 144.089
101.953, 149.558
102.435, 154.557
102.917, 158.719
103.399, 162.925
103.881, 168.739
104.364, 177.238
104.846, 184.869
105.328, 190.309
105.810, 192.863
106.292, 195.798
106.774, 199.814
107.256, 204.034
107.738, 206.621
108.220, 205.693
108.702, 204.983
109.185, 205.947
109.667, 209.910
110.149, 213.885
110.631, 218.809
111.113, 224.067
111.595, 226.953
112.077, 223.088
112.560, 219.357
113.042, 219.769
113.524, 228.868
114.006, 238.155
114.488, 245.657
114.970, 251.417
115.452, 257.726
115.934, 265.112
116.416, 273.370
116.898, 282.395
117.381, 292.786
117.863, 303.363
118.345, 314.118
118.827, 325.380
119.309, 334.772
119.791, 342.003
120.273, 346.545
120.755, 347.478
121.238, 346.263
121.720, 340.268
122.202, 325.960
122.684, 299.840
123.166, 272.205
123.648, 250.246
124.130, 233.248
124.612, 219.962
125.094, 210.789
125.577, 204.534
126.059, 199.555
126.541, 195.947
127.023, 192.881
127.505, 188.798
127.987, 183.827
128.469, 180.069
128.951, 180.670
129.434, 184.175
129.916, 186.069
130.398, 183.541
130.880, 178.680
131.362, 176.994
131.844, 178.820
132.326, 181.683
132.808, 182.673
133.290, 181.936
133.773, 181.446
134.255, 181.812
134.737, 183.045
135.219, 185.672
135.701, 190.223
136.183, 195.153
136.665, 197.434
137.147, 196.678
137.630, 196.119
138.112, 197.697
138.594, 201.707
139.076, 205.075
139.558, 207.612
140.040, 209.381
140.522, 210.499
141.004, 210.805
141.486, 210.816
141.969, 210.630
142.451, 209.801
142.933, 210.297
143.415, 213.214
143.897, 218.035
144.379, 219.755
144.861, 216.879
145.343, 212.691
145.826, 209.870
146.308, 209.904
146.790, 208.828
147.272, 205.582
147.754, 199.824
148.236, 195.284
148.718, 192.210
149.200, 190.146
149.682, 188.617
150.165, 188.163
150.647, 187.658
151.129, 187.236
151.611, 187.572
152.093, 185.729
152.575, 179.101
153.057, 170.871
153.539, 165.470
154.021, 165.824
154.504, 166.746
154.986, 166.432
155.468, 163.527
155.950, 162.107
156.432, 164.807
156.914, 169.360
157.396, 171.129
157.878, 164.513
158.361, 158.226
158.843, 156.934
159.325, 165.976
159.807, 173.065
160.289, 173.973
160.771, 170.114
161.253, 165.986
161.735, 160.852
162.217, 157.174
162.700, 156.780
163.182, 163.634
163.664, 170.044
164.146, 172.654
164.628, 171.859
165.110, 170.295
165.592, 167.627
166.074, 165.391
166.557, 165.057
167.039, 169.932
167.521, 174.681
168.003, 175.291
168.485, 171.925
168.967, 169.192
169.449, 171.236
169.931, 175.342
170.413, 177.850
170.896, 174.551
171.378, 170.714
171.860, 171.197
172.342, 176.332
172.824, 182.605
173.306, 188.160
173.788, 192.871
174.270, 196.445
174.753, 196.791
175.235, 196.751
175.717, 199.693
176.199, 206.012
176.681, 214.437
177.163, 222.987
177.645, 232.487
178.127, 245.284
178.609, 262.971
179.092, 284.574
179.574, 309.122
180.056, 336.971
180.538, 365.643
181.020, 392.294
181.502, 417.150
181.984, 442.626
182.466, 467.780
182.949, 494.418
183.431, 528.483
183.913, 573.279
184.395, 620.170
184.877, 651.673
185.359, 669.221
185.841, 689.123
186.323, 723.427
186.805, 769.487
187.288, 818.267
187.770, 866.849
188.252, 918.545
188.734, 982.033
189.216, 1056.562
189.698, 1131.402
190.180, 1211.610
190.662, 1291.934
191.145, 1327.640
191.627, 1307.993
192.109, 1239.577
192.591, 1128.396
193.073, 969.986
193.555, 807.105
194.037, 673.387
194.519, 568.477
195.001, 483.989
195.484, 420.154
195.966, 374.492
196.448, 336.076
196.930, 304.966
197.412, 280.580
197.894, 262.872
198.376, 252.184
198.858, 243.732
199.340, 236.807
199.823, 231.202
200.305, 225.413
200.787, 219.192
201.269, 213.276
201.751, 208.555
202.233, 205.197
202.715, 201.699
203.197, 197.198
203.680, 191.847
204.162, 189.141
204.644, 190.208
205.126, 191.660
205.608, 188.092
206.090, 177.846
206.572, 170.558
207.054, 170.422
207.536, 177.750
208.019, 181.520
208.501, 180.840
208.983, 177.887
209.465, 175.518
209.947, 173.680
210.429, 172.550
210.911, 172.356
211.393, 173.221
211.876, 173.810
212.358, 174.090
212.840, 174.133
213.322, 174.154
213.804, 174.393
214.286, 173.930
214.768, 171.760
215.250, 166.972
215.732, 165.903
216.215, 170.105
216.697, 176.668
217.179, 180.335
217.661, 179.975
218.143, 179.144
218.625, 179.319
219.107, 181.092
219.589, 181.249
220.072, 178.817
220.554, 175.400
221.036, 174.116
221.518, 175.689
222.000, 178.003
222.482, 180.407
222.964, 183.069
223.446, 185.251
223.928, 187.132
224.411, 188.428
224.893, 188.309
225.375, 185.838
225.857, 183.540
226.339, 182.467
226.821, 183.143
227.303, 183.446
227.785, 182.427
228.268, 181.409
228.750, 183.781
229.232, 191.654
229.714, 199.534
230.196, 204.955
230.678, 206.489
231.160, 209.311
231.642, 214.271
232.124, 220.207
232.607, 224.022
233.089, 223.244
233.571, 224.022
234.053, 229.229
234.535, 240.970
235.017, 252.180
235.499, 262.431
235.981, 272.301
236.464, 282.863
236.946, 293.519
237.428, 305.741
237.910, 320.020
238.392, 335.898
238.874, 354.616
239.356, 374.724
239.838, 398.053
240.320, 429.798
240.803, 473.525
241.285, 520.446
241.767, 566.460
242.249, 608.658
242.731, 656.461
243.213, 710.364
243.695, 769.744
244.177, 833.686
244.660, 905.596
245.142, 977.056
245.624, 1043.699
246.106, 1099.364
246.588, 1162.983
247.070, 1234.567
247.552, 1314.103
248.034, 1403.082
248.516, 1506.162
248.999, 1609.855
249.481, 1708.817
249.963, 1800.755
250.445, 1891.944
250.927, 1986.696
251.409, 2079.147
251.891, 2158.953
252.373, 2237.977
252.855, 2283.579
253.338, 2281.688
253.820, 2227.184
254.302, 2135.648
254.784, 1999.401
255.266, 1830.287
255.748, 1650.236
256.230, 1448.091
256.712, 1258.698
257.194, 1095.890
257.677, 960.823
258.159, 847.697
258.641, 758.718
259.123, 688.238
259.605, 626.664
260.087, 574.408
260.569, 529.166
261.051, 489.861
261.534, 456.433
262.016, 429.114
262.498, 409.721
262.980, 394.540
263.462, 375.737
263.944, 350.963
264.426, 328.495
264.908, 312.049
265.391, 302.531
265.873, 293.691
266.355, 285.743
266.837, 278.289
267.319, 270.240
267.801, 260.951
268.283, 253.119
268.765, 248.292
269.247, 246.980
269.729, 244.451
270.212, 240.615
270.694, 235.758
271.176, 229.782
271.658, 222.107
272.140, 215.579
272.622, 211.256
273.104, 209.251
273.586, 207.907
274.069, 207.717
274.551, 207.327
275.033, 204.824
275.515, 199.973
275.997, 194.280
276.479, 187.723
276.961, 180.398
277.443, 175.003
277.926, 171.762
278.408, 169.910
278.890, 168.649
279.372, 168.018
279.854, 167.795
280.336, 168.361
280.818, 169.428
281.300, 168.292
281.782, 164.368
282.265, 160.227
282.747, 159.329
283.229, 161.757
283.711, 162.739
284.193, 160.175
284.675, 155.281
285.157, 153.490
285.639, 155.154
286.121, 157.893
286.604, 159.895
287.086, 161.148
287.568, 161.186
288.050, 159.483
288.532, 156.732
289.014, 154.948
289.496, 154.189
289.978, 153.635
290.461, 152.492
290.943, 150.896
291.425, 149.706
291.907, 149.208
292.389, 149.085
292.871, 148.471
293.353, 147.391
293.835, 146.789
294.318, 147.976
294.800, 150.314
295.282, 151.639
295.764, 151.412
296.246, 150.319
296.728, 149.208
297.210, 148.107
297.692, 147.281
298.174, 147.108
298.656, 147.332
299.139, 147.330
299.621, 146.929
300.103, 146.532
300.585, 147.153
301.067, 148.405
301.549, 148.732
302.031, 145.601
302.513, 141.410
302.996, 140.408
303.478, 143.547
303.960, 147.392
304.442, 148.386
304.924, 147.397
305.406, 146.667
305.888, 148.009
306.370, 149.874
306.853, 150.328
307.335, 149.090
307.817, 147.895
308.299, 148.606
308.781, 150.273
309.263, 151.231
309.745, 150.463
310.227, 148.886
310.709, 145.988
311.192, 141.771
311.674, 140.537
312.156, 147.120
312.638, 157.684
313.120, 167.451
313.602, 178.653
314.084, 185.469
314.566, 182.081
315.048, 169.473
315.531, 157.469
316.013, 150.525
316.495, 146.603
316.977, 143.872
317.459, 141.117
317.941, 140.178
318.423, 143.205
318.905, 149.215
319.388, 153.605
319.870, 153.905
320.352, 152.602
320.834, 151.237
321.316, 149.836
321.798, 148.786
322.280, 148.203
322.762, 148.047
323.245, 148.183
323.727, 149.610
324.209, 150.521
324.691, 149.766
325.173, 145.305
325.655, 143.109
326.137, 145.939
326.619, 151.197
327.101, 154.204
327.583, 152.912
328.066, 150.911
328.548, 149.014
329.030, 147.043
329.512, 145.838
329.994, 145.534
330.476, 145.941
330.958, 146.987
331.440, 151.040
331.923, 152.567
332.405, 149.482
332.887, 141.210
333.369, 135.395
333.851, 132.866
334.333, 132.061
334.815, 131.750
335.297, 132.232
335.780, 132.561
336.262, 132.667
336.744, 132.521
337.226, 131.628
337.708, 129.241
338.190, 127.478
338.672, 128.408
339.154, 133.090
339.637, 135.606
340.119, 134.822
340.601, 131.848
341.083, 129.422
341.565, 127.353
342.047, 126.759
342.529, 129.047
343.011, 134.243
343.493, 138.043
343.975, 139.988
344.458, 140.886
344.940, 141.519
345.422, 141.871
345.904, 143.543
346.386, 149.029
346.868, 156.968
347.350, 159.860
347.832, 157.105
348.315, 152.628
348.797, 150.715
349.279, 150.990
349.761, 151.712
350.243, 152.142
350.725, 152.672
351.207, 154.591
351.689, 157.851
352.172, 160.410
352.654, 160.495
353.136, 158.656
353.618, 155.776
354.100, 151.102
354.582, 146.792
355.064, 145.454
355.546, 146.629
356.028, 148.150
356.511, 148.844
356.993, 149.091
357.475, 149.496
357.957, 150.593
358.439, 150.751
358.921, 147.692
359.403, 142.860
359.885, 139.303
360.367, 137.700
360.850, 138.322
361.332, 142.346
361.814, 150.644
362.296, 157.520
362.778, 158.645
363.260, 157.578
363.742, 158.575
364.224, 162.782
364.707, 169.299
365.189, 179.332
365.671, 192.898
366.153, 203.846
366.635, 209.580
367.117, 212.806
367.599, 215.360
368.081, 215.614
368.564, 217.294
369.046, 221.394
369.528, 227.495
370.010, 233.214
370.492, 238.263
370.974, 243.245
371.456, 248.822
371.938, 257.374
372.420, 261.578
372.902, 260.552
373.385, 255.521
373.867, 248.683
374.349, 239.156
374.831, 229.370
375.313, 220.019
375.795, 211.047
376.277, 202.628
376.759, 194.883
377.242, 187.637
377.724, 180.784
378.206, 174.410
378.688, 168.066
379.170, 161.508
379.652, 154.894
380.134, 149.476
380.616, 145.389
381.099, 141.294
381.581, 135.072
382.063, 127.304
382.545, 122.750
383.027, 123.066
383.509, 125.319
383.991, 124.320
384.473, 120.434
384.955, 116.682
385.438, 115.379
385.920, 115.334
386.402, 113.707
386.884, 110.050
387.366, 106.556
387.848, 105.866
388.330, 106.956
388.812, 107.661
389.294, 106.936
389.777, 105.487
390.259, 103.753
390.741, 101.799
391.223, 100.021
391.705, 98.125
392.187, 96.789
392.669, 96.874
393.151, 100.277
393.634, 102.875
394.116, 101.835
394.598, 98.272
395.080, 95.539
395.562, 94.995
396.044, 95.435
396.526, 96.516
397.008, 98.807
397.491, 100.021
397.973, 99.089
398.455, 97.007
398.937, 95.139
399.419, 93.559
399.901, 92.270
400.383, 91.302
400.865, 90.665
401.347, 90.157
401.829, 89.574
402.312, 89.295
402.794, 89.611
403.276, 90.622
403.758, 92.103
404.240, 94.510
404.722, 97.300
405.204, 98.338
405.686, 97.089
406.169, 95.427
406.651, 94.115
407.133, 93.093
407.615, 93.181
408.097, 94.807
408.579, 96.685
409.061, 96.599
409.543, 94.539
410.026, 93.078
410.508, 93.738
410.990, 95.573
411.472, 95.291
411.954, 92.809
412.436, 90.093
412.918, 88.559
413.400, 88.109
413.882, 88.652
414.365, 90.573
414.847, 92.734
415.329, 93.886
415.811, 94.137
416.293, 93.824
416.775, 92.312
417.257, 90.768
417.739, 90.861
418.221, 93.140
418.704, 94.573
419.186, 91.974
419.668, 87.782
420.150, 85.309
420.632, 86.480
421.114, 88.873
421.596, 92.315
422.078, 96.606
422.560, 99.286
423.043, 98.267
423.525, 96.460
424.007, 95.655
424.489, 97.077
424.971, 98.114
425.453, 98.276
425.935, 97.950
426.418, 97.983
426.900, 98.290
427.382, 99.072
427.864, 100.544
428.346, 102.904
428.828, 104.649
429.310, 105.338
429.792, 105.961
430.274, 107.768
430.757, 111.199
431.239, 113.786
431.721, 114.647
432.203, 114.539
432.685, 116.406
433.167, 120.501
433.649, 124.741
434.131, 127.378
434.613, 128.773
435.096, 131.342
435.578, 135.270
436.060, 140.460
436.542, 147.489
437.024, 155.893
437.506, 163.823
437.988, 170.059
438.470, 175.578
438.953, 181.392
439.435, 187.576
439.917, 195.062
440.399, 205.391
440.881, 217.060
441.363, 228.043
441.845, 236.826
442.327, 246.890
442.809, 261.792
443.292, 279.473
443.774, 295.801
444.256, 305.854
444.738, 317.019
445.220, 334.074
445.702, 358.744
446.184, 380.421
446.666, 396.140
447.148, 408.461
447.631, 419.532
448.113, 430.844
448.595, 439.245
449.077, 443.547
449.559, 444.543
450.041, 445.904
450.523, 449.949
451.005, 450.712
451.487, 445.134
451.970, 432.149
452.452, 417.493
452.934, 401.120
453.416, 382.959
453.898, 361.037
454.380, 334.853
454.862, 312.824
455.345, 298.527
455.827, 289.353
456.309, 276.409
456.791, 259.570
457.273, 242.874
457.755, 229.227
458.237, 217.925
458.719, 206.717
459.201, 195.019
459.684, 184.536
460.166, 177.429
460.648, 173.038
461.130, 170.021
461.612, 169.399
462.094, 168.698
462.576, 165.733
463.058, 160.565
463.540, 155.160
464.023, 150.302
464.505, 145.708
464.987, 141.211
465.469, 136.788
465.951, 132.439
466.433, 127.055
466.915, 121.816
467.397, 119.175
467.879, 122.747
468.362, 125.567
468.844, 125.321
469.326, 121.555
469.808, 119.184
470.290, 118.818
470.772, 119.223
471.254, 119.797
471.737, 121.245
472.219, 120.107
472.701, 114.780
473.183, 107.587
473.665, 104.790
474.147, 106.870
474.629, 109.300
475.111, 109.982
475.593, 109.153
476.076, 107.884
476.558, 106.121
477.040, 104.436
477.522, 103.600
478.004, 103.295
478.486, 102.674
478.968, 101.437
479.450, 99.919
479.932, 98.236
480.415, 96.519
480.897, 95.181
481.379, 94.708
481.861, 94.519
482.343, 94.040
482.825, 93.133
483.307, 92.728
483.789, 93.839
484.272, 95.336
484.754, 96.144
485.236, 96.020
485.718, 95.199
486.200, 92.841
486.682, 89.611
487.164, 88.163
487.646, 89.688
488.128, 91.608
488.611, 93.213
489.093, 94.654
489.575, 94.738
490.057, 92.947
490.539, 90.582
491.021, 88.985
491.503, 88.221
491.985, 87.706
492.467, 87.360
492.950, 87.155
493.432, 87.093
493.914, 87.166
494.396, 87.125
494.878, 86.386
495.360, 85.496
495.842, 85.864
496.324, 87.617
496.806, 89.699
497.289, 92.152
497.771, 94.067
498.253, 93.843
498.735, 89.299
499.217, 84.667
499.699, 82.401
500.181, 82.149
500.664, 82.814
501.146, 85.422
501.628, 87.658
502.110, 88.275
502.592, 86.891
503.074, 85.359
503.556, 82.702
504.038, 80.703
504.520, 81.017
505.003, 86.048
505.485, 89.306
505.967, 89.579
506.449, 87.919
506.931, 87.444
507.413, 88.559
507.895, 89.627
508.377, 89.800
508.859, 89.159
509.342, 89.456
509.824, 90.906
510.306, 92.046
510.788, 90.864
511.270, 87.973
511.752, 85.958
512.234, 85.563
512.716, 85.793
513.198, 85.038
513.681, 83.812
514.163, 83.596
514.645, 86.898
515.127, 90.303
515.609, 90.395
516.091, 87.147
516.573, 84.550
517.055, 85.259
517.537, 86.899
518.020, 87.578
518.502, 85.814
518.984, 84.852
519.466, 85.909
519.948, 87.970
520.430, 89.056
520.912, 88.268
521.394, 87.817
521.877, 88.544
522.359, 90.311
522.841, 90.327
523.323, 87.766
523.805, 85.474
524.287, 86.007
524.769, 89.464
525.251, 90.994
525.734, 89.971
526.216, 87.982
526.698, 86.711
527.180, 86.239
527.662, 87.012
528.144, 90.253
528.626, 93.880
529.108, 95.033
529.591, 94.007
530.073, 92.211
530.555, 90.144
531.037, 87.882
531.519, 84.951
532.001, 80.818
532.483, 78.671
532.965, 82.130
533.447, 87.148
533.930, 89.701
534.412, 86.299
534.894, 83.575
535.376, 82.387
535.858, 82.507
536.340, 83.501
536.822, 86.541
537.304, 88.496
537.786, 87.931
538.269, 84.738
538.751, 81.928
539.233, 79.192
539.715, 77.807
540.197, 80.058
540.679, 85.464
541.161, 88.635
541.643, 88.365
542.125, 86.737
542.608, 87.085
543.090, 88.632
543.572, 88.780
544.054, 84.071
544.536, 78.883
545.018, 78.535
545.500, 82.306
545.982, 85.287
546.464, 84.479
546.947, 82.256
547.429, 79.976
547.911, 77.314
548.393, 76.153
548.875, 78.724
549.357, 82.245
549.839, 83.433
550.321, 80.185
550.804, 77.740
551.286, 76.787
551.768, 77.071
552.250, 77.797
552.732, 79.200
553.214, 80.294
553.696, 80.775
554.178, 80.613
554.661, 79.056
555.143, 75.935
555.625, 72.894
556.107, 71.285
556.589, 70.992
557.071, 71.857
557.553, 74.174
558.035, 76.716
558.518, 78.511
559.000, 79.622
559.482, 80.158
559.964, 80.201
560.446, 79.665
560.928, 78.287
561.410, 76.166
561.892, 74.090
562.374, 70.538
562.857, 68.453
563.339, 70.080
563.821, 77.764
564.303, 81.598
564.785, 79.049
565.267, 75.043
565.749, 75.219
566.231, 81.372
566.713, 84.140
567.196, 81.111
567.678, 75.177
568.160, 73.215
568.642, 75.108
569.124, 77.145
569.606, 77.654
570.088, 77.115
570.570, 76.259
571.052, 75.123
571.535, 74.259
572.017, 74.114
572.499, 74.424
572.981, 75.077
573.463, 76.300
573.945, 76.942
574.427, 76.089
574.909, 74.521
575.391, 73.150
575.874, 72.033
576.356, 71.301
576.838, 70.740
577.320, 70.550
577.802, 71.597
578.284, 75.040
578.766, 77.550
579.248, 77.494
579.731, 74.955
580.213, 73.926
580.695, 74.543
581.177, 75.925
581.659, 78.190
582.141, 80.791
582.623, 80.913
583.105, 77.866
583.588, 73.937
584.070, 70.578
584.552, 68.361
585.034, 68.526
585.516, 73.914
585.998, 79.303
586.480, 81.170
586.962, 80.399
587.445, 79.658
587.927, 80.534
588.409, 80.987
588.891, 79.941
589.373, 77.091
589.855, 74.760
590.337, 72.710
590.819, 71.446
591.302, 71.504
591.784, 73.294
592.266, 74.650
592.748, 75.445
593.230, 75.860
593.712, 76.040
594.194, 76.013
594.676, 76.096
595.158, 76.440
595.641, 76.860
596.123, 77.561
596.605, 78.226
597.087, 77.673
597.569, 73.733
598.051, 69.414
598.533, 67.015
599.015, 66.631
599.497, 67.271
599.980, 69.947
600.462, 72.529
600.944, 73.653
601.426, 72.726
601.908, 71.046
602.390, 67.200
602.872, 63.640
603.354, 63.851
603.836, 69.515
604.319, 72.871
604.801, 71.981
605.283, 68.799
605.765, 68.054
606.247, 69.671
606.729, 71.498
607.211, 72.783
607.693, 73.516
608.175, 73.543
608.658, 72.921
609.140, 72.156
609.622, 71.315
610.104, 70.646
610.586, 70.303
611.068, 70.271
611.550, 70.811
612.032, 73.010
612.515, 75.302
612.997, 76.254
613.479, 74.446
613.961, 72.950
614.443, 71.642
614.925, 70.797
615.407, 71.078
615.889, 72.784
616.372, 74.542
616.854, 76.214
617.336, 77.542
617.818, 77.359
618.300, 75.702
618.782, 73.794
619.264, 71.573
619.746, 69.892
620.229, 70.876
620.711, 74.580
621.193, 77.746
621.675, 77.754
622.157, 76.432
622.639, 75.411
623.121, 74.872
623.603, 75.012
624.085, 76.388
624.568, 78.276
625.050, 79.807
625.532, 81.326
626.014, 81.840
626.496, 80.908
626.978, 79.037
627.460, 77.627
627.942, 76.802
628.424, 75.615
628.907, 73.096
629.389, 70.119
629.871, 69.835
630.353, 72.106
630.835, 74.736
631.317, 76.551
631.799, 77.703
632.281, 78.394
632.763, 78.652
633.246, 78.327
633.728, 76.315
634.210, 74.238
634.692, 73.634
635.174, 76.116
635.656, 77.895
636.138, 78.519
636.620, 78.266
637.102, 77.274
637.585, 74.855
638.067, 73.487
638.549, 73.884
639.031, 75.401
639.513, 76.291
639.995, 76.547
640.477, 76.804
640.959, 77.037
641.442, 77.599
641.924, 80.263
642.406, 84.540
642.888, 86.809
643.370, 82.178
643.852, 76.096
644.334, 73.513
644.816, 75.532
645.299, 77.464
645.781, 77.467
646.263, 76.964
646.745, 77.132
647.227, 78.827
647.709, 79.788
648.191, 79.945
648.673, 79.436
649.156, 78.150
649.638, 75.870
650.120, 74.514
650.602, 74.547
651.084, 75.658
651.566, 78.108
652.048, 81.432
652.530, 83.248
653.012, 81.472
653.495, 78.218
653.977, 75.018
654.459, 72.088
654.941, 70.456
655.423, 71.478
655.905, 73.249
656.387, 74.968
656.869, 76.688
657.351, 77.459
657.834, 76.198
