##NAMES=Microcline
##RRUFFID=R050054
##IDEAL CHEMISTRY=KAlSi_3_O_8_
##LOCALITY=Kenticha, Negele area, Sidamo Province, Ethiopia
##OWNER=RRUFF
##SOURCE=Rock Currier
##DESCRIPTION=Light blue single crystal
##STATUS=The identification of this mineral has been confirmed by X-ray diffraction and chemical analysis
##URL=rruff.info/R050054
##MEASURED CHEMISTRY=(K_0.96_Na_0.04_)Al_1.00_Si_3.00_O_8_
145.1252, 2056.198
145.6074, 2137.513
146.0895, 2221.938
146.5716, 2304.054
147.0537, 2378.769
147.5358, 2445.855
148.0179, 2516.306
148.5001, 2591.589
148.9822, 2668.963
149.4643, 2751.933
149.9464, 2840.055
150.4285, 2917.574
150.9106, 2968.945
151.3928, 2995.373
151.8749, 3024.755
152.3570, 3064.950
152.8391, 3104.832
153.3212, 3132.545
153.8033, 3146.865
154.2855, 3159.330
154.7676, 3178.011
155.2497, 3202.486
155.7318, 3230.563
156.2139, 3271.609
156.6960, 3311.356
157.1782, 3332.464
157.6603, 3332.826
158.1424, 3323.291
158.6245, 3304.243
159.1066, 3280.856
159.5887, 3266.861
160.0709, 3272.033
160.5530, 3286.230
161.0351, 3294.774
161.5172, 3296.086
161.9993, 3296.320
162.4814, 3297.219
162.9636, 3300.095
163.4457, 3308.585
163.9278, 3322.836
164.4099, 3343.776
164.8920, 3376.551
165.3741, 3427.104
165.8563, 3472.433
166.3384, 3491.006
166.8205, 3495.386
167.3026, 3506.691
167.7847, 3536.583
168.2668, 3577.871
168.7490, 3615.594
169.2311, 3649.757
169.7132, 3680.410
170.1953, 3706.737
170.6774, 3730.123
171.1595, 3752.413
171.6417, 3773.809
172.1238, 3794.913
172.6059, 3816.972
173.0880, 3839.438
173.5701, 3864.243
174.0522, 3892.219
174.5344, 3922.913
175.0165, 3955.767
175.4986, 3991.823
175.9807, 4029.248
176.4628, 4062.190
176.9449, 4085.121
177.4271, 4114.268
177.9092, 4169.180
178.3913, 4230.074
178.8734, 4268.393
179.3555, 4266.398
179.8376, 4236.800
180.3197, 4217.390
180.8019, 4214.299
181.2840, 4210.976
181.7661, 4200.462
182.2482, 4187.135
182.7303, 4176.773
183.2124, 4172.714
183.6946, 4172.498
184.1767, 4167.983
184.6588, 4152.419
185.1409, 4145.010
185.6230, 4155.207
186.1051, 4173.321
186.5873, 4187.768
187.0694, 4192.550
187.5515, 4192.364
188.0336, 4200.599
188.5157, 4223.961
188.9978, 4244.226
189.4800, 4252.271
189.9621, 4257.666
190.4442, 4272.079
190.9263, 4301.284
191.4084, 4337.658
191.8905, 4361.009
192.3727, 4357.716
192.8548, 4366.200
193.3369, 4393.688
193.8190, 4433.451
194.3011, 4482.363
194.7832, 4539.436
195.2654, 4597.990
195.7475, 4642.651
196.2296, 4667.237
196.7117, 4689.087
197.1938, 4708.351
197.6759, 4727.601
198.1581, 4751.275
198.6402, 4780.613
199.1223, 4808.844
199.6044, 4821.726
200.0865, 4807.800
200.5686, 4801.224
201.0508, 4821.194
201.5329, 4838.685
202.0150, 4825.390
202.4971, 4775.316
202.9792, 4712.604
203.4613, 4677.092
203.9435, 4682.877
204.4256, 4685.251
204.9077, 4682.278
205.3898, 4675.662
205.8719, 4664.217
206.3540, 4648.725
206.8362, 4634.075
207.3183, 4626.704
207.8004, 4627.621
208.2825, 4634.109
208.7646, 4650.607
209.2467, 4668.468
209.7289, 4683.992
210.2110, 4696.014
210.6931, 4704.192
211.1752, 4706.410
211.6573, 4698.564
212.1395, 4700.144
212.6216, 4723.224
213.1037, 4744.777
213.5858, 4749.574
214.0679, 4740.223
214.5500, 4732.401
215.0322, 4744.512
215.5143, 4782.307
215.9964, 4801.054
216.4785, 4770.614
216.9606, 4749.355
217.4427, 4765.584
217.9249, 4811.859
218.4070, 4862.333
218.8891, 4895.945
219.3712, 4912.292
219.8533, 4926.361
220.3354, 4936.099
220.8176, 4945.427
221.2997, 4954.695
221.7818, 4964.363
222.2639, 4974.882
222.7460, 4986.285
223.2281, 4998.844
223.7103, 5014.604
224.1924, 5042.630
224.6745, 5063.741
225.1566, 5071.763
225.6387, 5070.905
226.1208, 5066.565
226.6030, 5061.209
227.0851, 5056.167
227.5672, 5057.391
228.0493, 5071.475
228.5314, 5083.212
229.0135, 5086.613
229.4957, 5087.642
229.9778, 5093.481
230.4599, 5107.456
230.9420, 5126.633
231.4241, 5143.980
231.9062, 5158.364
232.3884, 5172.640
232.8705, 5185.194
233.3526, 5198.798
233.8347, 5217.328
234.3168, 5241.763
234.7989, 5267.710
235.2811, 5287.525
235.7632, 5299.820
236.2453, 5308.993
236.7274, 5308.147
237.2095, 5309.733
237.6916, 5324.627
238.1738, 5353.777
238.6559, 5386.878
239.1380, 5410.229
239.6201, 5419.846
240.1022, 5434.668
240.5843, 5464.651
241.0665, 5492.348
241.5486, 5507.921
242.0307, 5512.077
242.5128, 5512.899
242.9949, 5516.919
243.4770, 5524.038
243.9592, 5536.011
244.4413, 5563.122
244.9234, 5585.363
245.4055, 5589.056
245.8876, 5580.965
246.3697, 5579.090
246.8519, 5598.818
247.3340, 5637.281
247.8161, 5666.841
248.2982, 5678.850
248.7803, 5693.457
249.2624, 5718.320
249.7446, 5750.131
250.2267, 5783.476
250.7088, 5816.163
251.1909, 5848.032
251.6730, 5878.312
252.1551, 5905.384
252.6373, 5934.490
253.1194, 5962.240
253.6015, 5994.459
254.0836, 6041.264
254.5657, 6109.352
255.0478, 6181.440
255.5300, 6226.631
256.0121, 6236.092
256.4942, 6251.754
256.9763, 6295.103
257.4584, 6343.713
257.9406, 6383.942
258.4227, 6413.010
258.9048, 6430.622
259.3869, 6428.736
259.8690, 6405.783
260.3511, 6400.640
260.8333, 6427.927
261.3154, 6470.435
261.7975, 6521.358
262.2796, 6578.772
262.7617, 6629.274
263.2438, 6657.530
263.7260, 6668.371
264.2081, 6691.199
264.6902, 6736.645
265.1723, 6782.655
265.6544, 6817.498
266.1365, 6841.165
266.6187, 6851.498
267.1008, 6845.335
267.5829, 6825.565
268.0650, 6795.562
268.5471, 6752.200
269.0292, 6709.267
269.5114, 6677.382
269.9935, 6652.533
270.4756, 6628.221
270.9577, 6599.790
271.4398, 6573.687
271.9219, 6555.390
272.4041, 6544.808
272.8862, 6546.374
273.3683, 6569.378
273.8504, 6603.158
274.3325, 6626.155
274.8146, 6632.423
275.2968, 6636.980
275.7789, 6647.916
276.2610, 6665.012
276.7431, 6687.055
277.2252, 6712.531
277.7073, 6744.757
278.1895, 6792.291
278.6716, 6859.041
279.1537, 6919.441
279.6358, 6963.903
280.1179, 6996.007
280.6000, 7016.334
281.0822, 7022.435
281.5643, 7033.263
282.0464, 7076.560
282.5285, 7155.369
283.0106, 7224.622
283.4927, 7278.779
283.9749, 7321.554
284.4570, 7360.421
284.9391, 7394.655
285.4212, 7409.897
285.9033, 7390.570
286.3854, 7336.829
286.8676, 7292.204
287.3497, 7263.104
287.8318, 7235.932
288.3139, 7206.937
288.7960, 7174.708
289.2781, 7135.497
289.7603, 7085.938
290.2424, 7029.924
290.7245, 6985.035
291.2066, 6955.432
291.6887, 6930.784
292.1708, 6913.108
292.6530, 6898.341
293.1351, 6879.892
293.6172, 6855.621
294.0993, 6831.514
294.5814, 6818.488
295.0635, 6822.603
295.5457, 6827.323
296.0278, 6834.261
296.5099, 6840.582
296.9920, 6842.233
297.4741, 6840.031
297.9562, 6839.978
298.4384, 6848.863
298.9205, 6868.307
299.4026, 6885.700
299.8847, 6900.664
300.3668, 6914.026
300.8489, 6924.620
301.3311, 6933.884
301.8131, 6945.437
302.2953, 6962.810
302.7774, 6983.186
303.2595, 6991.016
303.7416, 6972.820
304.2237, 6961.899
304.7058, 6963.827
305.1880, 6976.160
305.6701, 6999.814
306.1522, 7035.644
306.6343, 7072.523
307.1164, 7089.116
307.5985, 7077.758
308.0807, 7074.480
308.5628, 7089.114
309.0449, 7111.604
309.5270, 7141.607
310.0091, 7177.208
310.4912, 7206.121
310.9734, 7213.483
311.4555, 7201.640
311.9376, 7196.290
312.4197, 7200.740
312.9018, 7210.034
313.3839, 7222.677
313.8661, 7237.333
314.3482, 7250.273
314.8303, 7257.274
315.3124, 7262.660
315.7945, 7275.684
316.2766, 7297.983
316.7588, 7318.302
317.2409, 7331.057
317.7230, 7337.407
318.2051, 7337.827
318.6872, 7326.362
319.1693, 7319.511
319.6515, 7335.071
320.1336, 7367.626
320.6157, 7392.222
321.0978, 7398.036
321.5799, 7395.847
322.0620, 7401.979
322.5442, 7415.984
323.0263, 7435.916
323.5084, 7468.603
323.9905, 7503.879
324.4726, 7525.050
324.9547, 7529.509
325.4369, 7535.299
325.9190, 7562.313
326.4011, 7613.353
326.8832, 7648.476
327.3653, 7653.038
327.8474, 7655.931
328.3296, 7672.989
328.8117, 7702.147
329.2938, 7734.814
329.7759, 7766.485
330.2580, 7797.170
330.7401, 7825.893
331.2223, 7858.659
331.7044, 7882.068
332.1865, 7894.315
332.6686, 7896.781
333.1507, 7886.377
333.6328, 7863.575
334.1150, 7840.233
334.5971, 7835.936
335.0792, 7862.738
335.5613, 7875.781
336.0434, 7863.015
336.5255, 7848.846
337.0077, 7843.253
337.4898, 7847.290
337.9719, 7859.486
338.4540, 7880.855
338.9361, 7909.670
339.4182, 7929.508
339.9004, 7930.991
340.3825, 7937.211
340.8646, 7958.313
341.3467, 7986.278
341.8288, 8009.708
342.3109, 8023.353
342.7931, 8036.107
343.2752, 8067.288
343.7573, 8122.326
344.2394, 8156.406
344.7215, 8141.645
345.2036, 8115.194
345.6858, 8103.635
346.1679, 8108.578
346.6500, 8125.027
347.1321, 8158.509
347.6142, 8200.953
348.0963, 8227.742
348.5785, 8232.131
349.0606, 8234.519
349.5427, 8253.690
350.0248, 8284.106
350.5069, 8309.370
350.9890, 8324.353
351.4712, 8335.053
351.9533, 8341.895
352.4354, 8347.051
352.9175, 8364.810
353.3996, 8408.093
353.8817, 8460.981
354.3639, 8476.584
354.8460, 8432.177
355.3281, 8406.318
355.8102, 8429.148
356.2923, 8473.911
356.7744, 8512.128
357.2566, 8537.136
357.7387, 8551.258
358.2208, 8555.082
358.7029, 8544.509
359.1850, 8547.487
359.6671, 8577.162
360.1493, 8605.215
360.6314, 8615.434
361.1135, 8614.197
361.5956, 8617.459
362.0777, 8635.133
362.5598, 8662.590
363.0420, 8682.071
363.5241, 8681.189
364.0062, 8692.804
364.4883, 8732.815
364.9704, 8777.929
365.4525, 8807.527
365.9347, 8817.701
366.4168, 8821.311
366.8989, 8835.400
367.3810, 8861.566
367.8631, 8871.156
368.3452, 8841.488
368.8274, 8821.446
369.3095, 8840.097
369.7916, 8886.569
370.2737, 8934.360
370.7558, 8972.011
371.2379, 9003.184
371.7201, 9033.286
372.2022, 9062.307
372.6843, 9090.678
373.1664, 9125.046
373.6485, 9153.920
374.1306, 9158.139
374.6128, 9129.284
375.0949, 9104.030
375.5770, 9099.824
376.0591, 9112.978
376.5412, 9140.304
377.0233, 9182.874
377.5055, 9226.405
377.9876, 9256.370
378.4697, 9270.986
378.9518, 9284.109
379.4339, 9304.092
379.9160, 9315.162
380.3982, 9296.097
380.8803, 9259.096
381.3624, 9239.475
381.8445, 9257.780
382.3266, 9301.266
382.8087, 9331.723
383.2909, 9337.610
383.7730, 9344.300
384.2551, 9355.035
384.7372, 9365.038
385.2193, 9368.664
385.7014, 9366.077
386.1836, 9363.484
386.6657, 9366.183
387.1478, 9373.896
387.6299, 9391.953
388.1120, 9425.862
388.5941, 9464.832
389.0763, 9513.995
389.5584, 9563.649
390.0405, 9596.021
390.5226, 9600.044
391.0047, 9595.078
391.4868, 9617.242
391.9690, 9670.854
392.4511, 9708.526
392.9332, 9704.947
393.4153, 9691.834
393.8974, 9698.243
394.3795, 9724.587
394.8617, 9758.529
395.3438, 9799.754
395.8259, 9842.741
396.3080, 9880.769
396.7901, 9913.530
397.2722, 9933.344
397.7544, 9926.638
398.2365, 9902.104
398.7186, 9904.490
399.2007, 9960.891
399.6828, 10013.16
400.1649, 10031.92
400.6471, 10033.33
401.1292, 10045.76
401.6113, 10078.70
402.0934, 10118.92
402.5755, 10146.48
403.0576, 10153.94
403.5398, 10171.25
404.0219, 10217.13
404.5040, 10254.35
404.9861, 10259.89
405.4682, 10240.58
405.9503, 10213.63
406.4325, 10187.47
406.9146, 10167.34
407.3967, 10173.95
407.8788, 10218.23
408.3609, 10267.47
408.8430, 10327.52
409.3252, 10381.94
409.8073, 10415.22
410.2894, 10425.82
410.7715, 10428.93
411.2536, 10437.07
411.7357, 10448.82
412.2179, 10455.87
412.7000, 10455.85
413.1821, 10455.51
413.6642, 10456.30
414.1463, 10460.35
414.6284, 10473.35
415.1106, 10499.86
415.5927, 10531.41
416.0748, 10565.24
416.5569, 10599.51
417.0390, 10628.88
417.5211, 10651.90
418.0033, 10667.66
418.4854, 10674.39
418.9675, 10670.58
419.4496, 10661.36
419.9317, 10632.48
420.4138, 10610.12
420.8960, 10615.01
421.3781, 10642.83
421.8602, 10677.92
422.3423, 10711.97
422.8244, 10741.86
423.3065, 10752.25
423.7887, 10713.12
424.2708, 10702.37
424.7529, 10751.40
425.2350, 10813.56
425.7171, 10848.11
426.1992, 10851.07
426.6814, 10850.14
427.1635, 10876.61
427.6456, 10927.11
428.1277, 10956.80
428.6098, 10955.63
429.0919, 10952.77
429.5741, 10961.40
430.0562, 10978.49
430.5383, 11001.20
431.0204, 11031.45
431.5025, 11061.63
431.9846, 11084.52
432.4668, 11101.95
432.9489, 11121.24
433.4310, 11145.15
433.9131, 11167.96
434.3952, 11178.58
434.8773, 11174.21
435.3595, 11191.49
435.8416, 11257.51
436.3237, 11323.04
436.8058, 11354.86
437.2879, 11361.27
437.7701, 11365.44
438.2522, 11378.44
438.7343, 11401.50
439.2164, 11439.81
439.6985, 11516.71
440.1806, 11566.15
440.6628, 11563.29
441.1449, 11555.87
441.6270, 11578.22
442.1091, 11626.62
442.5912, 11671.95
443.0733, 11684.12
443.5555, 11679.17
444.0376, 11727.22
444.5197, 11851.54
445.0018, 11963.83
445.4839, 12029.95
445.9660, 12067.59
446.4482, 12084.56
446.9303, 12077.76
447.4124, 12081.75
447.8945, 12120.98
448.3766, 12185.43
448.8587, 12258.45
449.3409, 12339.16
449.8230, 12413.38
450.3051, 12465.38
450.7872, 12499.40
451.2693, 12556.09
451.7514, 12669.61
452.2336, 12764.35
452.7157, 12803.35
453.1978, 12812.81
453.6799, 12832.40
454.1620, 12872.50
454.6441, 12909.16
455.1263, 12909.48
455.6084, 12866.56
456.0905, 12826.68
456.5726, 12792.55
457.0547, 12759.20
457.5368, 12723.72
458.0190, 12688.40
458.5011, 12655.40
458.9832, 12624.44
459.4653, 12601.62
459.9474, 12601.43
460.4295, 12624.38
460.9117, 12634.03
461.3938, 12614.90
461.8759, 12592.19
462.3580, 12586.60
462.8401, 12596.37
463.3222, 12614.64
463.8044, 12645.46
464.2865, 12679.50
464.7686, 12706.63
465.2507, 12729.15
465.7328, 12756.13
466.2149, 12791.15
466.6971, 12834.03
467.1792, 12885.08
467.6613, 12955.59
468.1434, 13009.68
468.6255, 13025.78
469.1076, 13044.51
469.5898, 13095.76
470.0719, 13172.30
470.5540, 13247.64
471.0361, 13305.47
471.5182, 13350.71
472.0003, 13396.78
472.4825, 13438.75
472.9646, 13494.29
473.4467, 13598.21
473.9288, 13693.99
474.4109, 13737.22
474.8930, 13730.08
475.3752, 13718.09
475.8573, 13734.59
476.3394, 13759.94
476.8215, 13758.45
477.3036, 13729.14
477.7857, 13693.57
478.2679, 13660.64
478.7500, 13629.80
479.2321, 13597.84
479.7142, 13557.96
480.1963, 13533.56
480.6784, 13538.53
481.1606, 13554.56
481.6427, 13569.36
482.1248, 13579.52
482.6069, 13578.76
483.0890, 13558.72
483.5711, 13527.88
484.0533, 13536.13
484.5354, 13621.34
485.0175, 13683.55
485.4996, 13706.49
485.9817, 13705.51
486.4638, 13676.47
486.9460, 13627.18
487.4281, 13600.43
487.9102, 13653.48
488.3923, 13753.69
488.8744, 13793.73
489.3565, 13762.17
489.8387, 13731.46
490.3208, 13736.28
490.8029, 13766.28
491.2850, 13799.51
491.7671, 13841.39
492.2492, 13871.26
492.7314, 13876.31
493.2135, 13868.70
493.6956, 13851.82
494.1777, 13831.56
494.6598, 13834.72
495.1419, 13885.83
495.6241, 13975.09
496.1062, 14039.87
496.5883, 14059.79
497.0704, 14082.26
497.5525, 14104.53
498.0346, 14136.23
498.5168, 14191.87
498.9989, 14268.79
499.4810, 14342.73
499.9631, 14386.29
500.4452, 14411.25
500.9273, 14466.61
501.4095, 14561.42
501.8916, 14647.53
502.3737, 14690.64
502.8558, 14721.47
503.3379, 14787.45
503.8200, 14894.38
504.3022, 15014.54
504.7843, 15150.66
505.2664, 15286.88
505.7485, 15394.76
506.2306, 15477.98
506.7127, 15570.09
507.1949, 15693.71
507.6770, 15845.02
508.1591, 16006.13
508.6412, 16187.83
509.1233, 16364.96
509.6054, 16541.21
510.0876, 16708.86
510.5697, 16862.34
511.0518, 17001.01
511.5339, 17127.55
512.0161, 17250.11
512.4982, 17357.79
512.9803, 17428.69
513.4624, 17467.18
513.9445, 17435.93
514.4266, 17297.86
514.9088, 17101.16
515.3909, 16900.09
515.8730, 16691.30
516.3551, 16514.84
516.8372, 16408.79
517.3193, 16320.67
517.8015, 16192.76
518.2836, 16034.59
518.7657, 15891.86
519.2478, 15789.06
519.7299, 15717.82
520.2120, 15659.28
520.6942, 15617.81
521.1763, 15580.89
521.6584, 15551.24
522.1405, 15523.08
522.6226, 15489.97
523.1047, 15455.68
523.5869, 15431.46
524.0690, 15425.71
524.5511, 15426.91
525.0332, 15409.75
525.5153, 15374.49
525.9974, 15365.00
526.4796, 15402.00
526.9617, 15451.16
527.4438, 15476.40
527.9259, 15480.53
528.4080, 15482.09
528.8901, 15479.30
529.3723, 15478.93
529.8544, 15481.36
530.3365, 15489.82
530.8186, 15514.33
531.3007, 15557.81
531.7828, 15603.72
532.2650, 15627.83
532.7471, 15625.47
533.2292, 15630.93
533.7113, 15653.13
534.1934, 15673.08
534.6755, 15674.85
535.1577, 15674.85
535.6398, 15700.86
536.1219, 15763.80
536.6040, 15825.43
537.0861, 15844.74
537.5682, 15833.88
538.0504, 15830.20
538.5325, 15837.74
539.0146, 15854.93
539.4967, 15883.38
539.9788, 15920.50
540.4609, 15952.56
540.9431, 15974.57
541.4252, 15999.33
541.9073, 16039.68
542.3894, 16077.31
542.8715, 16091.73
543.3536, 16083.55
543.8358, 16068.69
544.3179, 16057.26
544.8000, 16051.81
545.2821, 16067.39
545.7642, 16116.08
546.2463, 16152.21
546.7285, 16139.57
547.2106, 16128.77
547.6927, 16171.10
548.1748, 16261.84
548.6569, 16332.53
549.1390, 16333.48
549.6211, 16313.11
550.1032, 16323.63
550.5853, 16360.40
551.0674, 16398.92
551.5496, 16430.17
552.0317, 16456.55
552.5138, 16481.29
552.9959, 16501.82
553.4780, 16529.97
553.9601, 16571.81
554.4423, 16613.76
554.9244, 16655.61
555.4065, 16692.39
555.8886, 16711.94
556.3707, 16709.15
556.8528, 16709.57
557.3350, 16755.92
557.8171, 16839.67
558.2992, 16885.23
558.7813, 16873.78
559.2634, 16862.45
559.7455, 16895.22
560.2277, 16956.19
560.7098, 16992.09
561.1919, 16986.37
561.6740, 16984.07
562.1561, 17006.77
562.6382, 17035.27
563.1204, 17041.66
563.6025, 17029.38
564.0846, 17031.14
564.5667, 17072.85
565.0488, 17143.90
565.5309, 17205.34
566.0131, 17261.63
566.4952, 17296.88
566.9773, 17282.59
567.4594, 17267.04
567.9415, 17283.76
568.4236, 17327.90
568.9058, 17370.37
569.3879, 17393.87
569.8700, 17415.10
570.3521, 17457.77
570.8342, 17513.47
571.3163, 17550.59
571.7985, 17558.14
572.2806, 17558.05
572.7627, 17577.09
573.2448, 17618.02
573.7269, 17652.71
574.2090, 17667.31
574.6912, 17692.96
575.1733, 17758.79
575.6554, 17828.51
576.1375, 17854.91
576.6196, 17830.69
577.1017, 17800.35
577.5839, 17796.99
578.0660, 17819.86
578.5481, 17877.68
579.0302, 17976.65
579.5123, 18053.02
579.9944, 18065.41
580.4766, 18048.87
580.9587, 18075.72
581.4408, 18159.47
581.9229, 18222.02
582.4050, 18238.60
582.8871, 18243.19
583.3693, 18252.40
583.8514, 18268.24
584.3335, 18292.30
584.8156, 18325.29
585.2977, 18360.18
585.7798, 18385.34
586.2620, 18399.88
586.7441, 18413.55
587.2262, 18422.49
587.7083, 18438.03
588.1904, 18470.97
588.6725, 18513.61
589.1547, 18555.72
589.6368, 18600.83
590.1189, 18632.77
590.6010, 18631.45
591.0831, 18619.31
591.5652, 18621.92
592.0474, 18642.36
592.5295, 18680.49
593.0116, 18739.89
593.4937, 18806.04
593.9758, 18830.06
594.4579, 18783.66
594.9401, 18762.15
595.4222, 18788.36
595.9043, 18828.05
596.3864, 18867.68
596.8685, 18907.37
597.3506, 18951.85
597.8328, 19010.16
598.3149, 19059.15
598.7970, 19067.31
599.2791, 19050.85
599.7612, 19053.88
600.2433, 19085.00
600.7255, 19119.78
601.2076, 19134.40
601.6897, 19134.43
602.1718, 19165.81
602.6539, 19269.95
603.1360, 19349.02
603.6182, 19384.11
604.1003, 19401.12
604.5824, 19412.98
605.0645, 19424.29
605.5466, 19440.81
606.0287, 19466.31
606.5109, 19498.33
606.9930, 19537.67
607.4751, 19582.49
607.9572, 19616.37
608.4393, 19633.77
608.9214, 19645.55
609.4036, 19662.10
609.8857, 19683.47
610.3678, 19704.19
610.8499, 19703.75
611.3320, 19728.33
611.8141, 19816.62
612.2963, 19917.54
612.7784, 19982.28
613.2605, 20004.44
613.7426, 20001.05
614.2247, 19974.06
614.7068, 19939.66
615.1890, 19942.62
615.6711, 19984.67
616.1532, 20023.38
616.6353, 20042.03
617.1174, 20061.10
617.5995, 20108.86
618.0817, 20186.17
618.5638, 20244.41
619.0459, 20271.46
619.5280, 20290.97
620.0101, 20309.29
620.4922, 20326.51
620.9744, 20337.49
621.4565, 20344.17
621.9386, 20361.91
622.4207, 20407.47
622.9028, 20473.97
623.3849, 20537.38
623.8671, 20600.14
624.3492, 20644.20
624.8313, 20656.13
625.3134, 20656.06
625.7955, 20666.13
626.2776, 20685.71
626.7598, 20708.85
627.2419, 20731.42
627.7240, 20760.89
628.2061, 20812.09
628.6882, 20867.92
629.1703, 20900.41
629.6525, 20904.98
630.1346, 20901.85
630.6167, 20908.68
631.0988, 20925.17
631.5809, 20952.31
632.0630, 20994.96
632.5452, 21029.07
633.0273, 21041.79
633.5094, 21048.36
633.9915, 21061.66
634.4736, 21081.76
634.9557, 21118.32
635.4379, 21191.84
635.9200, 21262.47
636.4021, 21280.15
636.8842, 21253.32
637.3663, 21326.21
637.8484, 21380.29
638.3306, 21416.56
638.8127, 21381.65
639.2948, 21438.64
639.7769, 21458.80
640.2590, 21477.45
640.7411, 21547.38
641.2233, 21522.83
641.7054, 21591.94
