##NAMES=Microcline
##RRUFFID=R050193
##IDEAL CHEMISTRY=KAlSi_3_O_8_
##LOCALITY=Devil's Head, Douglas County, Colorado, USA
##OWNER=RRUFF
##SOURCE=Dave Bunk Minerals
##DESCRIPTION=White to colorless heterogeneous mixture of K and Na feldspar in a cluster of crystals. Crystal structure determined, presented below. This sample is known as an intermediate microcline in the literature.
##STATUS=The identification of this mineral has been confirmed by X-ray diffraction and chemical analysis
##URL=rruff.info/R050193
##MEASURED CHEMISTRY=(K_0.929_Na_0.071_)(Al_1.005_Si_2.994_Fe_0.001_)O_7.993_F_0.007_  ; Light Band :  (Na_0.973_K_0.007_Ca_0.020_)(Al_1.020_Si_2.980_)O_8_ ; Dark Band
92.96582, 1320.133
93.44794, 1301.091
93.93005, 1302.578
94.41217, 1329.154
94.89429, 1347.982
95.37640, 1361.324
95.85852, 1371.169
96.34064, 1378.262
96.82275, 1383.065
97.30487, 1385.923
97.78699, 1390.032
98.26910, 1396.542
98.75122, 1403.844
99.23334, 1411.510
99.71545, 1418.879
100.1976, 1423.011
100.6797, 1427.143
101.1618, 1431.301
101.6439, 1433.984
102.1260, 1432.773
102.6081, 1430.111
103.0903, 1431.544
103.5724, 1438.883
104.0545, 1447.015
104.5366, 1453.741
105.0187, 1459.259
105.5008, 1463.949
105.9830, 1467.524
106.4651, 1469.756
106.9472, 1474.043
107.4293, 1482.751
107.9114, 1491.059
108.3935, 1497.634
108.8757, 1502.187
109.3578, 1504.775
109.8399, 1505.266
110.3220, 1502.140
110.8041, 1500.069
111.2862, 1499.073
111.7684, 1498.874
112.2505, 1499.345
112.7326, 1500.425
113.2147, 1501.968
113.6968, 1503.642
114.1789, 1504.661
114.6611, 1507.107
115.1432, 1512.026
115.6253, 1518.613
116.1074, 1525.103
116.5895, 1530.209
117.0716, 1535.355
117.5538, 1543.780
118.0359, 1557.746
118.5180, 1571.041
119.0001, 1577.710
119.4822, 1577.496
119.9643, 1578.881
120.4465, 1587.961
120.9286, 1600.557
121.4107, 1612.751
121.8928, 1624.154
122.3749, 1633.895
122.8570, 1639.981
123.3392, 1640.643
123.8213, 1640.621
124.3034, 1641.550
124.7855, 1642.993
125.2676, 1644.599
125.7497, 1646.519
126.2319, 1648.543
126.7140, 1647.676
127.1961, 1638.247
127.6782, 1631.002
128.1603, 1629.661
128.6424, 1632.962
129.1246, 1637.339
129.6067, 1639.576
130.0888, 1639.247
130.5709, 1638.734
131.0530, 1634.865
131.5351, 1633.194
132.0173, 1637.775
132.4994, 1648.808
132.9815, 1662.671
133.4636, 1675.070
133.9457, 1685.652
134.4278, 1695.836
134.9100, 1703.968
135.3921, 1712.335
135.8742, 1723.810
136.3563, 1739.307
136.8384, 1757.425
137.3205, 1777.409
137.8027, 1799.874
138.2848, 1819.042
138.7669, 1831.250
139.2490, 1837.834
139.7311, 1844.191
140.2132, 1852.579
140.6954, 1860.413
141.1775, 1865.580
141.6596, 1868.017
142.1417, 1867.803
142.6238, 1863.652
143.1059, 1854.622
143.5881, 1847.954
144.0702, 1846.403
144.5523, 1847.514
145.0344, 1850.216
145.5165, 1854.213
145.9986, 1859.313
146.4807, 1865.057
146.9629, 1870.947
147.4450, 1878.720
147.9271, 1889.272
148.4092, 1901.222
148.8913, 1913.022
149.3734, 1923.934
149.8556, 1934.521
150.3377, 1947.030
150.8198, 1962.884
151.3019, 1979.498
151.7840, 1997.073
152.2661, 2015.242
152.7483, 2033.452
153.2304, 2051.435
153.7125, 2069.276
154.1946, 2086.571
154.6767, 2105.181
155.1588, 2121.671
155.6410, 2133.953
156.1231, 2142.662
156.6052, 2150.530
157.0873, 2160.492
157.5694, 2171.511
158.0515, 2175.183
158.5337, 2170.480
159.0158, 2159.438
159.4979, 2141.349
159.9800, 2115.960
160.4621, 2090.362
160.9442, 2072.096
161.4264, 2058.428
161.9085, 2041.438
162.3906, 2015.714
162.8727, 1986.534
163.3548, 1962.543
163.8369, 1945.202
164.3191, 1930.681
164.8012, 1917.044
165.2833, 1904.062
165.7654, 1891.477
166.2475, 1878.246
166.7296, 1864.960
167.2118, 1854.623
167.6939, 1848.847
168.1760, 1844.597
168.6581, 1840.041
169.1402, 1835.640
169.6223, 1832.693
170.1045, 1832.892
170.5866, 1836.628
171.0687, 1839.075
171.5508, 1836.887
172.0329, 1836.224
172.5150, 1840.671
172.9972, 1849.363
173.4793, 1858.327
173.9614, 1862.729
174.4435, 1859.830
174.9256, 1862.075
175.4077, 1874.201
175.8899, 1886.729
176.3720, 1894.494
176.8541, 1896.761
177.3362, 1895.804
177.8183, 1894.581
178.3004, 1893.644
178.7826, 1890.676
179.2647, 1883.780
179.7468, 1876.112
180.2289, 1870.512
180.7110, 1867.673
181.1931, 1865.787
181.6752, 1862.090
182.1574, 1856.051
182.6395, 1849.778
183.1216, 1842.173
183.6037, 1834.837
184.0858, 1830.346
184.5679, 1829.743
185.0501, 1831.054
185.5322, 1830.905
186.0143, 1828.989
186.4964, 1828.234
186.9785, 1830.817
187.4606, 1835.379
187.9428, 1838.363
188.4249, 1838.234
188.9070, 1836.928
189.3891, 1836.406
189.8712, 1836.511
190.3533, 1838.383
190.8355, 1843.572
191.3176, 1851.683
191.7997, 1859.196
192.2818, 1864.711
192.7639, 1869.885
193.2460, 1876.049
193.7282, 1883.319
194.2103, 1891.180
194.6924, 1899.249
195.1745, 1907.608
195.6566, 1916.033
196.1387, 1925.876
196.6209, 1934.816
197.1030, 1941.566
197.5851, 1945.923
198.0672, 1948.257
198.5493, 1949.424
199.0314, 1950.271
199.5136, 1946.953
199.9957, 1935.978
200.4778, 1923.179
200.9599, 1910.970
201.4420, 1900.307
201.9241, 1892.347
202.4063, 1889.571
202.8884, 1896.502
203.3705, 1899.776
203.8526, 1896.834
204.3347, 1891.961
204.8168, 1888.192
205.2990, 1886.489
205.7811, 1885.965
206.2632, 1884.914
206.7453, 1881.574
207.2274, 1880.387
207.7095, 1882.431
208.1917, 1885.903
208.6738, 1889.006
209.1559, 1891.143
209.6380, 1893.215
210.1201, 1897.120
210.6022, 1905.330
211.0844, 1911.705
211.5665, 1915.668
212.0486, 1917.774
212.5307, 1918.215
213.0128, 1916.986
213.4949, 1915.055
213.9771, 1914.411
214.4592, 1915.226
214.9413, 1916.792
215.4234, 1919.580
215.9055, 1922.950
216.3876, 1926.027
216.8698, 1928.581
217.3519, 1930.559
217.8340, 1931.579
218.3161, 1931.345
218.7982, 1931.619
219.2803, 1932.909
219.7625, 1935.132
220.2446, 1938.323
220.7267, 1942.911
221.2088, 1947.738
221.6909, 1950.726
222.1730, 1951.552
222.6552, 1953.237
223.1373, 1958.364
223.6194, 1965.781
224.1015, 1971.256
224.5836, 1972.807
225.0657, 1973.093
225.5479, 1975.268
226.0300, 1979.371
226.5121, 1983.556
226.9942, 1986.428
227.4763, 1988.207
227.9584, 1990.671
228.4406, 1994.932
228.9227, 1999.178
229.4048, 2001.430
229.8869, 2001.840
230.3690, 2002.910
230.8511, 2007.626
231.3333, 2015.844
231.8154, 2021.521
232.2975, 2021.394
232.7796, 2020.744
233.2617, 2022.725
233.7438, 2027.271
234.2260, 2032.560
234.7081, 2036.501
235.1902, 2038.849
235.6723, 2043.511
236.1544, 2054.542
236.6365, 2064.806
237.1187, 2070.644
237.6008, 2072.430
238.0829, 2072.872
238.5650, 2073.942
239.0471, 2075.439
239.5292, 2079.008
240.0114, 2087.450
240.4935, 2095.675
240.9756, 2101.174
241.4577, 2104.486
241.9398, 2108.071
242.4219, 2114.763
242.9041, 2125.333
243.3862, 2133.004
243.8683, 2135.168
244.3504, 2136.851
244.8325, 2139.285
245.3146, 2142.799
245.7968, 2147.591
246.2789, 2154.017
246.7610, 2162.393
247.2431, 2169.867
247.7252, 2174.606
248.2073, 2180.288
248.6895, 2189.761
249.1716, 2201.656
249.6537, 2211.866
250.1358, 2216.530
250.6179, 2215.065
251.1000, 2217.430
251.5822, 2225.522
252.0643, 2234.914
252.5464, 2244.592
253.0285, 2254.301
253.5106, 2263.869
253.9927, 2273.247
254.4748, 2282.385
254.9570, 2291.083
255.4391, 2297.484
255.9212, 2305.381
256.4033, 2317.283
256.8854, 2331.862
257.3676, 2346.131
257.8497, 2358.245
258.3318, 2368.235
258.8139, 2376.442
259.2960, 2381.877
259.7781, 2387.100
260.2603, 2392.523
260.7424, 2398.407
261.2245, 2405.377
261.7066, 2413.913
262.1887, 2423.679
262.6708, 2432.765
263.1530, 2441.726
263.6351, 2449.682
264.1172, 2455.418
264.5993, 2459.953
265.0814, 2465.962
265.5635, 2475.235
266.0457, 2486.054
266.5278, 2492.452
267.0099, 2491.776
267.4920, 2491.961
267.9741, 2497.088
268.4562, 2504.724
268.9384, 2509.089
269.4204, 2506.840
269.9026, 2502.300
270.3847, 2505.774
270.8668, 2519.207
271.3489, 2532.398
271.8310, 2542.039
272.3131, 2549.199
272.7953, 2555.773
273.2774, 2562.142
273.7595, 2568.632
274.2416, 2575.893
274.7237, 2583.893
275.2058, 2592.246
275.6880, 2599.329
276.1701, 2607.038
276.6522, 2619.626
277.1343, 2639.291
277.6164, 2660.307
278.0985, 2675.426
278.5807, 2685.324
279.0628, 2693.631
279.5449, 2700.197
280.0270, 2706.112
280.5091, 2714.375
280.9912, 2726.473
281.4734, 2736.205
281.9555, 2735.062
282.4376, 2725.546
282.9197, 2717.001
283.4018, 2715.158
283.8839, 2714.109
284.3661, 2705.195
284.8482, 2687.094
285.3303, 2666.252
285.8124, 2645.974
286.2945, 2626.688
286.7766, 2609.780
287.2588, 2596.369
287.7409, 2585.080
288.2230, 2575.084
288.7051, 2566.592
289.1872, 2557.583
289.6693, 2546.784
290.1515, 2534.667
290.6336, 2522.004
291.1157, 2507.246
291.5978, 2493.958
292.0799, 2486.663
292.5620, 2485.394
293.0442, 2483.811
293.5263, 2478.057
294.0084, 2471.103
294.4905, 2467.231
294.9726, 2467.511
295.4547, 2468.804
295.9369, 2468.250
296.4190, 2466.051
296.9011, 2465.103
297.3832, 2467.142
297.8653, 2470.093
298.3474, 2471.242
298.8296, 2470.280
299.3117, 2469.883
299.7938, 2472.975
300.2759, 2478.646
300.7580, 2481.774
301.2401, 2480.232
301.7223, 2477.214
302.2044, 2475.525
302.6865, 2475.073
303.1686, 2475.289
303.6507, 2475.614
304.1328, 2476.340
304.6150, 2478.698
305.0971, 2483.629
305.5792, 2488.575
306.0613, 2491.641
306.5434, 2493.232
307.0255, 2494.228
307.5077, 2493.745
307.9898, 2493.172
308.4719, 2495.890
308.9540, 2502.964
309.4361, 2510.129
309.9182, 2514.304
310.4004, 2516.878
310.8825, 2519.911
311.3646, 2524.359
311.8467, 2529.230
312.3288, 2533.208
312.8109, 2536.284
313.2931, 2538.603
313.7752, 2539.059
314.2573, 2539.297
314.7394, 2541.613
315.2215, 2547.178
315.7036, 2552.738
316.1858, 2553.749
316.6679, 2550.257
317.1500, 2550.025
317.6321, 2557.842
318.1142, 2568.229
318.5963, 2575.608
319.0785, 2579.541
319.5606, 2582.422
320.0427, 2585.173
320.5248, 2588.040
321.0069, 2592.708
321.4890, 2600.699
321.9712, 2608.911
322.4533, 2614.736
322.9354, 2618.435
323.4175, 2621.229
323.8996, 2623.621
324.3817, 2625.606
324.8639, 2626.847
325.3460, 2626.739
325.8281, 2627.335
326.3102, 2630.465
326.7923, 2635.374
327.2744, 2640.679
327.7566, 2646.430
328.2387, 2652.025
328.7208, 2656.121
329.2029, 2658.333
329.6850, 2661.241
330.1671, 2667.173
330.6493, 2674.455
331.1314, 2680.815
331.6135, 2686.030
332.0956, 2689.905
332.5777, 2691.351
333.0598, 2690.494
333.5420, 2691.055
334.0241, 2695.414
334.5062, 2701.152
334.9883, 2705.041
335.4704, 2706.817
335.9525, 2707.782
336.4347, 2707.857
336.9168, 2707.582
337.3989, 2709.387
337.8810, 2714.814
338.3631, 2720.774
338.8452, 2723.055
339.3274, 2722.094
339.8094, 2723.231
340.2916, 2731.497
340.7737, 2742.437
341.2558, 2747.396
341.7379, 2744.378
342.2200, 2740.430
342.7021, 2741.235
343.1843, 2745.774
343.6664, 2751.280
344.1485, 2758.146
344.6306, 2765.194
345.1127, 2771.531
345.5948, 2777.131
346.0770, 2781.472
346.5591, 2783.579
347.0412, 2784.429
347.5233, 2786.664
348.0054, 2790.762
348.4875, 2795.468
348.9697, 2800.357
349.4518, 2805.288
349.9339, 2809.710
350.4160, 2813.289
350.8981, 2816.474
351.3802, 2819.739
351.8624, 2822.660
352.3445, 2827.283
352.8266, 2836.984
353.3087, 2847.966
353.7908, 2853.698
354.2729, 2852.547
354.7551, 2849.448
355.2372, 2849.500
355.7193, 2852.827
356.2014, 2856.423
356.6835, 2860.594
357.1656, 2864.559
357.6478, 2867.085
358.1299, 2868.406
358.6120, 2870.765
359.0941, 2875.825
359.5762, 2883.338
360.0583, 2891.100
360.5405, 2901.490
361.0226, 2909.652
361.5047, 2912.443
361.9868, 2911.559
362.4689, 2910.306
362.9510, 2909.821
363.4332, 2910.730
363.9153, 2914.916
364.3974, 2924.585
364.8795, 2932.969
365.3616, 2939.232
365.8438, 2943.763
366.3259, 2946.446
366.8080, 2947.385
367.2901, 2947.751
367.7722, 2948.708
368.2543, 2949.950
368.7365, 2953.805
369.2186, 2962.227
369.7007, 2971.360
370.1828, 2979.728
370.6649, 2986.938
371.1470, 2992.654
371.6292, 2996.644
372.1113, 2998.929
372.5934, 2999.521
373.0755, 2995.939
373.5576, 2993.667
374.0397, 2994.855
374.5219, 2997.813
375.0040, 2999.721
375.4861, 2999.386
375.9682, 2998.568
376.4503, 3001.286
376.9324, 3011.238
377.4146, 3018.946
377.8967, 3022.984
378.3788, 3025.908
378.8609, 3029.042
379.3430, 3032.860
379.8251, 3037.770
380.3073, 3044.373
380.7894, 3052.937
381.2715, 3061.191
381.7536, 3070.945
382.2357, 3078.579
382.7178, 3080.770
383.2000, 3080.003
383.6821, 3081.369
384.1642, 3088.319
384.6463, 3099.113
385.1284, 3106.763
385.6105, 3109.156
386.0927, 3111.769
386.5748, 3116.901
387.0569, 3122.083
387.5390, 3123.723
388.0211, 3120.995
388.5032, 3118.737
388.9854, 3125.373
389.4675, 3143.545
389.9496, 3155.881
390.4317, 3155.286
390.9138, 3152.451
391.3959, 3150.524
391.8781, 3150.617
392.3602, 3154.872
392.8423, 3167.663
393.3244, 3186.405
393.8065, 3197.915
394.2886, 3199.196
394.7708, 3198.888
395.2529, 3200.047
395.7350, 3202.554
396.2171, 3206.473
396.6992, 3212.100
397.1813, 3218.573
397.6635, 3225.077
398.1456, 3231.629
398.6277, 3237.766
399.1098, 3243.157
399.5919, 3248.161
400.0740, 3252.911
400.5562, 3257.389
401.0383, 3262.441
401.5204, 3268.859
402.0025, 3276.201
402.4846, 3283.939
402.9667, 3292.610
403.4489, 3299.497
403.9310, 3299.816
404.4131, 3295.798
404.8952, 3295.649
405.3773, 3303.666
405.8594, 3314.037
406.3416, 3322.225
406.8237, 3328.305
407.3058, 3333.057
407.7879, 3336.677
408.2700, 3339.353
408.7521, 3341.376
409.2343, 3341.859
409.7164, 3343.665
410.1985, 3348.964
410.6806, 3355.700
411.1627, 3360.682
411.6448, 3363.144
412.1269, 3364.814
412.6090, 3367.762
413.0912, 3372.372
413.5733, 3376.101
414.0554, 3378.009
414.5375, 3379.879
415.0196, 3382.582
415.5017, 3386.125
415.9839, 3390.398
416.4660, 3395.436
416.9481, 3400.950
417.4302, 3405.598
417.9123, 3407.022
418.3944, 3410.507
418.8766, 3418.738
419.3587, 3428.126
419.8408, 3434.602
420.3229, 3437.265
420.8050, 3438.866
421.2871, 3443.413
421.7693, 3452.503
422.2514, 3458.625
422.7335, 3459.158
423.2156, 3459.495
423.6977, 3461.237
424.1798, 3464.616
424.6620, 3469.759
425.1441, 3477.081
425.6262, 3485.773
426.1083, 3492.518
426.5904, 3495.869
427.0725, 3500.125
427.5547, 3506.398
428.0368, 3513.829
428.5189, 3522.221
429.0010, 3531.439
429.4831, 3539.948
429.9652, 3545.092
430.4474, 3546.876
430.9295, 3551.216
431.4116, 3559.666
431.8937, 3569.669
432.3758, 3580.904
432.8579, 3592.363
433.3401, 3601.078
433.8222, 3604.112
434.3043, 3604.699
434.7864, 3608.047
435.2685, 3614.369
435.7506, 3621.167
436.2328, 3626.896
436.7149, 3632.798
437.1970, 3641.040
437.6791, 3652.583
438.1612, 3663.370
438.6433, 3670.401
439.1255, 3675.290
439.6076, 3681.937
440.0897, 3691.469
440.5718, 3700.423
441.0539, 3703.575
441.5360, 3701.070
442.0182, 3705.531
442.5003, 3723.143
442.9824, 3743.007
443.4645, 3759.580
443.9466, 3772.639
444.4287, 3781.709
444.9109, 3786.039
445.3930, 3787.809
445.8751, 3793.068
446.3572, 3803.959
446.8393, 3815.116
447.3214, 3825.176
447.8036, 3836.115
448.2857, 3851.439
448.7678, 3870.527
449.2499, 3887.867
449.7320, 3897.232
450.2141, 3898.021
450.6963, 3903.231
451.1784, 3916.804
451.6605, 3930.712
452.1426, 3943.641
452.6247, 3955.563
453.1068, 3966.660
453.5890, 3976.994
454.0711, 3986.490
454.5532, 3994.804
455.0353, 4001.826
455.5174, 4008.141
455.9995, 4014.534
456.4817, 4019.535
456.9638, 4021.949
457.4459, 4022.050
457.9280, 4021.073
458.4101, 4019.434
458.8922, 4017.391
459.3744, 4015.471
459.8565, 4013.195
460.3386, 4012.565
460.8207, 4015.484
461.3028, 4020.233
461.7849, 4024.568
462.2671, 4027.648
462.7492, 4032.321
463.2313, 4042.420
463.7134, 4055.867
464.1955, 4065.791
464.6776, 4069.880
465.1598, 4073.218
465.6419, 4081.091
466.1240, 4093.101
466.6061, 4105.523
467.0882, 4118.673
467.5703, 4131.450
468.0525, 4142.270
468.5346, 4151.933
469.0167, 4163.059
469.4988, 4176.814
469.9809, 4193.045
470.4630, 4211.896
470.9452, 4237.047
471.4273, 4258.019
471.9094, 4270.905
472.3915, 4282.015
472.8736, 4297.167
473.3557, 4316.085
473.8379, 4334.163
474.3200, 4347.722
474.8021, 4356.857
475.2842, 4362.247
475.7663, 4361.810
476.2484, 4359.831
476.7306, 4358.274
477.2127, 4354.957
477.6948, 4346.442
478.1769, 4332.073
478.6590, 4316.209
479.1411, 4303.831
479.6233, 4294.891
480.1054, 4289.656
480.5875, 4289.817
481.0696, 4291.954
481.5517, 4295.602
482.0338, 4299.672
482.5159, 4301.992
482.9980, 4301.382
483.4802, 4298.948
483.9623, 4295.530
484.4444, 4291.127
484.9265, 4287.736
485.4086, 4284.293
485.8907, 4284.252
486.3729, 4293.859
486.8550, 4313.576
487.3371, 4329.410
487.8192, 4334.389
488.3013, 4334.269
488.7834, 4335.053
489.2656, 4337.356
489.7477, 4341.285
490.2298, 4347.169
490.7119, 4354.651
491.1940, 4361.800
491.6761, 4367.567
492.1583, 4374.438
492.6404, 4381.848
493.1225, 4391.128
493.6046, 4405.354
494.0867, 4424.306
494.5688, 4442.554
495.0510, 4453.437
495.5331, 4455.956
496.0152, 4464.304
496.4973, 4485.140
496.9794, 4504.581
497.4615, 4517.582
497.9437, 4527.894
498.4258, 4540.847
498.9079, 4558.465
499.3900, 4577.842
499.8721, 4594.698
500.3542, 4608.620
500.8364, 4622.303
501.3185, 4633.420
501.8006, 4647.331
502.2827, 4666.799
502.7648, 4691.140
503.2469, 4718.942
503.7291, 4749.819
504.2112, 4783.326
504.6933, 4819.630
505.1754, 4858.552
505.6575, 4896.616
506.1396, 4933.106
506.6218, 4967.569
507.1039, 4997.218
507.5860, 5020.857
508.0681, 5052.182
508.5502, 5101.924
509.0323, 5156.567
509.5145, 5202.800
509.9966, 5240.399
510.4787, 5275.028
510.9608, 5310.565
511.4429, 5345.444
511.9250, 5372.625
512.4072, 5394.301
512.8893, 5405.002
513.3714, 5404.454
513.8535, 5392.680
514.3356, 5366.687
514.8177, 5328.196
515.2999, 5284.671
515.7820, 5243.065
516.2641, 5203.132
516.7462, 5158.398
517.2283, 5101.984
517.7104, 5051.786
518.1926, 5014.340
518.6747, 4983.243
519.1568, 4951.642
519.6389, 4918.062
520.1210, 4887.251
520.6031, 4864.320
521.0853, 4848.494
521.5674, 4835.019
522.0495, 4824.161
522.5316, 4814.181
523.0137, 4803.107
523.4958, 4792.187
523.9780, 4784.286
524.4601, 4780.751
524.9422, 4778.713
525.4243, 4776.425
525.9064, 4774.204
526.3885, 4772.863
526.8707, 4772.616
527.3528, 4773.082
527.8349, 4773.900
528.3170, 4775.108
528.7991, 4776.415
529.2813, 4778.294
529.7634, 4779.745
530.2455, 4778.993
530.7276, 4777.867
531.2097, 4779.699
531.6918, 4785.737
532.1740, 4793.810
532.6561, 4800.827
533.1382, 4807.230
533.6203, 4810.900
534.1024, 4808.582
534.5845, 4806.616
535.0667, 4806.978
535.5488, 4809.457
536.0309, 4813.553
536.5130, 4819.378
536.9951, 4825.714
537.4772, 4830.346
537.9594, 4833.213
538.4415, 4837.690
538.9236, 4845.734
539.4057, 4853.970
539.8878, 4859.377
540.3699, 4862.287
540.8521, 4864.316
541.3342, 4863.105
541.8163, 4863.473
542.2984, 4871.167
542.7805, 4884.466
543.2626, 4897.049
543.7448, 4906.585
544.2269, 4913.161
544.7090, 4916.242
545.1911, 4912.303
545.6732, 4914.773
546.1553, 4930.547
546.6375, 4946.204
547.1196, 4953.784
547.6017, 4955.079
548.0838, 4954.508
548.5659, 4954.167
549.0480, 4956.049
549.5302, 4966.484
550.0123, 4990.843
550.4944, 5007.511
550.9765, 5005.652
551.4586, 5002.695
551.9407, 5007.043
552.4229, 5017.670
552.9050, 5029.932
553.3871, 5042.380
553.8692, 5054.101
554.3513, 5063.960
554.8334, 5071.946
555.3156, 5077.086
555.7977, 5077.646
556.2798, 5077.216
556.7619, 5081.802
557.2440, 5091.394
557.7261, 5097.838
558.2083, 5094.993
558.6904, 5092.325
559.1725, 5097.650
559.6546, 5109.506
560.1367, 5123.344
560.6188, 5137.218
561.1010, 5149.663
561.5831, 5156.934
562.0652, 5154.636
562.5473, 5157.250
563.0294, 5169.127
563.5115, 5180.962
563.9937, 5187.185
564.4758, 5189.762
564.9579, 5193.637
565.4400, 5201.378
565.9221, 5211.657
566.4042, 5222.250
566.8864, 5233.091
567.3685, 5244.813
567.8506, 5260.108
568.3327, 5273.034
568.8148, 5276.786
569.2969, 5274.132
569.7791, 5275.685
570.2612, 5289.649
570.7433, 5304.918
571.2254, 5309.846
571.7075, 5307.313
572.1896, 5307.704
572.6718, 5314.674
573.1539, 5324.720
573.6360, 5333.541
574.1181, 5341.214
574.6002, 5347.161
575.0823, 5350.743
575.5645, 5353.427
576.0466, 5353.029
576.5287, 5352.970
577.0108, 5359.460
577.4929, 5374.713
577.9750, 5393.614
578.4572, 5409.517
578.9393, 5422.637
579.4214, 5430.341
579.9035, 5426.568
580.3856, 5425.112
580.8677, 5434.402
581.3499, 5449.104
581.8320, 5460.500
582.3141, 5465.457
