##NAMES=Microcline
##RRUFFID=R050150
##IDEAL CHEMISTRY=KAlSi_3_O_8_
##LOCALITY=Crystal Peak area, Park/Teller Counties, Colorado, USA
##OWNER=RRUFF
##SOURCE=Dave Bunk Minerals
##DESCRIPTION=Pale blue prismatic crystals
##STATUS=The identification of this mineral has been confirmed by X-ray diffraction and chemical analysis
##URL=rruff.info/R050150
##MEASURED CHEMISTRY=(K_0.95_Na_0.05_)_Î£=1_Al_1.00_Si_3.00_O_8_
93.46680, 8844.295
93.94891, 8711.358
94.43103, 8735.188
94.91315, 8855.968
95.39526, 8960.885
95.87738, 9026.044
96.35950, 9068.875
96.84161, 9096.480
97.32373, 9120.753
97.80585, 9132.158
98.28796, 9124.412
98.77008, 9093.521
99.25220, 9059.738
99.73431, 9053.592
100.2164, 9088.873
100.6985, 9093.801
101.1807, 9066.876
101.6628, 9032.141
102.1449, 9010.099
102.6270, 9010.969
103.1091, 9029.961
103.5912, 9044.043
104.0734, 9040.928
104.5555, 9043.567
105.0376, 9061.216
105.5197, 9087.662
106.0018, 9109.254
106.4839, 9112.943
106.9661, 9093.686
107.4482, 9091.154
107.9303, 9111.188
108.4124, 9136.609
108.8945, 9158.068
109.3766, 9174.123
109.8588, 9188.471
110.3409, 9205.971
110.8230, 9227.354
111.3051, 9244.563
111.7872, 9252.572
112.2693, 9256.511
112.7515, 9264.094
113.2336, 9277.061
113.7157, 9294.386
114.1978, 9315.994
114.6799, 9341.792
115.1620, 9366.322
115.6442, 9385.044
116.1263, 9398.261
116.6084, 9411.913
117.0905, 9427.810
117.5726, 9444.363
118.0547, 9459.582
118.5369, 9472.985
119.0190, 9488.003
119.5011, 9510.422
119.9832, 9543.980
120.4653, 9575.764
120.9474, 9606.947
121.4296, 9634.354
121.9117, 9654.021
122.3938, 9664.158
122.8759, 9667.839
123.3580, 9675.318
123.8401, 9688.975
124.3223, 9704.336
124.8044, 9721.164
125.2865, 9739.404
125.7686, 9759.880
126.2507, 9783.958
126.7328, 9810.767
127.2150, 9827.939
127.6971, 9831.522
128.1792, 9832.100
128.6613, 9832.719
129.1434, 9833.877
129.6255, 9836.159
130.1077, 9839.227
130.5898, 9844.020
131.0719, 9854.247
131.5540, 9873.021
132.0361, 9895.930
132.5182, 9917.840
133.0004, 9937.706
133.4825, 9960.023
133.9646, 9992.799
134.4467, 10031.54
134.9288, 10065.23
135.4109, 10084.93
135.8931, 10095.16
136.3752, 10112.36
136.8573, 10140.27
137.3394, 10171.89
137.8215, 10206.12
138.3036, 10241.14
138.7858, 10271.70
139.2679, 10293.24
139.7500, 10305.00
140.2321, 10313.64
140.7142, 10317.47
141.1963, 10319.45
141.6785, 10318.22
142.1606, 10315.11
142.6427, 10314.45
143.1248, 10321.64
143.6069, 10338.51
144.0890, 10360.65
144.5712, 10393.53
145.0533, 10427.04
145.5354, 10454.24
146.0175, 10473.12
146.4996, 10487.08
146.9817, 10501.80
147.4639, 10513.68
147.9460, 10532.86
148.4281, 10568.48
148.9102, 10609.14
149.3923, 10638.87
149.8744, 10650.30
150.3566, 10652.37
150.8387, 10666.62
151.3208, 10695.82
151.8029, 10726.13
152.2850, 10752.57
152.7671, 10776.09
153.2493, 10799.38
153.7314, 10823.92
154.2135, 10848.46
154.6956, 10872.11
155.1777, 10896.21
155.6598, 10915.90
156.1420, 10925.33
156.6241, 10923.97
157.1062, 10921.83
157.5883, 10927.13
158.0704, 10931.32
158.5525, 10925.22
159.0347, 10904.74
159.5168, 10878.45
159.9989, 10859.87
160.4810, 10852.55
160.9631, 10844.52
161.4452, 10831.29
161.9274, 10816.29
162.4095, 10802.31
162.8916, 10790.59
163.3737, 10781.18
163.8558, 10774.54
164.3379, 10774.32
164.8201, 10772.27
165.3022, 10763.32
165.7843, 10752.71
166.2664, 10747.71
166.7485, 10752.96
167.2306, 10767.11
167.7128, 10778.38
168.1949, 10782.07
168.6770, 10787.97
169.1591, 10799.43
169.6412, 10814.85
170.1233, 10831.67
170.6055, 10848.92
171.0876, 10866.30
171.5697, 10872.54
172.0518, 10852.47
172.5339, 10837.54
173.0160, 10845.73
173.4982, 10874.19
173.9803, 10906.58
174.4624, 10932.13
174.9445, 10949.69
175.4266, 10961.32
175.9087, 10958.62
176.3909, 10955.70
176.8730, 10965.30
177.3551, 10988.43
177.8372, 11015.37
178.3193, 11041.22
178.8014, 11065.09
179.2836, 11082.96
179.7657, 11089.74
180.2478, 11091.51
180.7299, 11097.67
181.2120, 11109.52
181.6941, 11122.59
182.1763, 11134.14
182.6584, 11144.61
183.1405, 11154.58
183.6226, 11163.60
184.1047, 11172.21
184.5868, 11182.80
185.0690, 11197.56
185.5511, 11210.67
186.0332, 11218.29
186.5153, 11222.50
186.9974, 11227.19
187.4795, 11234.14
187.9617, 11243.52
188.4438, 11257.61
188.9259, 11282.97
189.4080, 11306.58
189.8901, 11324.90
190.3722, 11338.26
190.8544, 11347.90
191.3365, 11353.97
191.8186, 11356.06
192.3007, 11361.91
192.7828, 11371.91
193.2649, 11385.48
193.7471, 11404.23
194.2292, 11426.86
194.7113, 11450.40
195.1934, 11471.83
195.6755, 11490.67
196.1576, 11511.28
196.6398, 11536.80
197.1219, 11560.95
197.6040, 11582.15
198.0861, 11599.44
198.5682, 11610.95
199.0503, 11613.82
199.5325, 11605.80
200.0146, 11601.33
200.4967, 11599.74
200.9788, 11601.54
201.4609, 11607.54
201.9430, 11617.63
202.4252, 11630.44
202.9073, 11645.63
203.3894, 11663.53
203.8715, 11678.26
204.3536, 11686.22
204.8357, 11692.88
205.3179, 11703.86
205.8000, 11720.10
206.2821, 11737.76
206.7642, 11753.40
207.2463, 11767.44
207.7284, 11781.64
208.2106, 11798.24
208.6927, 11814.63
209.1748, 11825.53
209.6569, 11828.64
210.1390, 11833.35
210.6211, 11851.93
211.1033, 11879.03
211.5854, 11901.31
212.0675, 11910.05
212.5496, 11911.05
213.0317, 11917.90
213.5138, 11933.39
213.9960, 11949.91
214.4781, 11962.24
214.9602, 11971.88
215.4423, 11981.90
215.9244, 11995.06
216.4065, 12009.96
216.8886, 12019.81
217.3708, 12018.15
217.8529, 12021.63
218.3350, 12041.43
218.8171, 12070.86
219.2992, 12097.39
219.7813, 12112.83
220.2635, 12118.67
220.7456, 12124.07
221.2277, 12123.16
221.7098, 12129.78
222.1919, 12155.13
222.6740, 12190.15
223.1562, 12219.09
223.6383, 12229.72
224.1204, 12223.96
224.6025, 12225.09
225.0846, 12236.29
225.5667, 12252.17
226.0489, 12276.07
226.5310, 12303.61
227.0131, 12327.31
227.4952, 12341.68
227.9773, 12347.34
228.4594, 12355.86
228.9416, 12367.63
229.4237, 12381.90
229.9058, 12402.34
230.3879, 12425.00
230.8700, 12441.61
231.3521, 12445.49
231.8343, 12438.18
232.3164, 12445.17
232.7985, 12480.67
233.2806, 12513.80
233.7627, 12533.91
234.2448, 12545.55
234.7270, 12560.30
235.2091, 12586.69
235.6912, 12622.12
236.1733, 12640.68
236.6554, 12622.93
237.1375, 12612.76
237.6197, 12628.33
238.1018, 12662.19
238.5839, 12697.21
239.0660, 12723.88
239.5481, 12743.42
240.0302, 12762.81
240.5124, 12782.78
240.9945, 12801.86
241.4766, 12817.99
241.9587, 12832.60
242.4408, 12850.20
242.9229, 12874.78
243.4051, 12902.24
243.8872, 12918.61
244.3693, 12913.24
244.8514, 12913.39
245.3335, 12935.77
245.8156, 12973.90
246.2978, 13007.44
246.7799, 13026.03
247.2620, 13036.36
247.7441, 13054.09
248.2262, 13082.09
248.7083, 13109.96
249.1905, 13131.90
249.6726, 13149.22
250.1547, 13167.19
250.6368, 13188.69
251.1189, 13210.70
251.6010, 13226.76
252.0832, 13234.55
252.5653, 13247.63
253.0474, 13280.06
253.5295, 13326.39
254.0116, 13361.84
254.4937, 13373.92
254.9759, 13379.05
255.4580, 13397.29
255.9401, 13429.04
256.4222, 13461.20
256.9043, 13487.58
257.3864, 13508.10
257.8686, 13521.10
258.3507, 13521.02
258.8328, 13519.85
259.3149, 13527.11
259.7970, 13542.33
260.2791, 13561.98
260.7613, 13583.47
261.2434, 13607.20
261.7255, 13637.55
262.2076, 13683.28
262.6897, 13724.08
263.1718, 13745.40
263.6540, 13750.99
264.1361, 13754.32
264.6182, 13762.96
265.1003, 13776.36
265.5824, 13792.11
266.0645, 13813.19
266.5467, 13832.13
267.0288, 13843.71
267.5109, 13850.65
267.9930, 13858.82
268.4751, 13872.00
268.9572, 13889.32
269.4394, 13906.45
269.9215, 13921.41
270.4036, 13939.73
270.8857, 13968.37
271.3678, 14000.51
271.8499, 14024.70
272.3321, 14032.60
272.8142, 14030.03
273.2963, 14036.88
273.7784, 14055.26
274.2605, 14080.50
274.7426, 14116.61
275.2248, 14155.75
275.7069, 14187.17
276.1890, 14205.21
276.6711, 14215.72
277.1532, 14233.69
277.6353, 14262.30
278.1175, 14293.05
278.5996, 14327.48
279.0817, 14361.28
279.5638, 14389.94
280.0459, 14411.93
280.5280, 14429.83
281.0102, 14448.25
281.4923, 14465.81
281.9744, 14487.17
282.4565, 14517.78
282.9386, 14548.78
283.4207, 14572.38
283.9029, 14586.94
284.3850, 14597.85
284.8671, 14614.30
285.3492, 14641.91
285.8313, 14660.76
286.3134, 14672.77
286.7956, 14675.34
287.2777, 14661.93
287.7598, 14634.40
288.2419, 14604.34
288.7240, 14584.44
289.2061, 14575.34
289.6883, 14575.22
290.1704, 14595.18
290.6525, 14613.51
291.1346, 14616.94
291.6167, 14607.94
292.0988, 14599.25
292.5810, 14603.35
293.0631, 14621.68
293.5452, 14636.95
294.0273, 14644.81
294.5094, 14653.95
294.9915, 14667.94
295.4737, 14685.62
295.9558, 14703.92
296.4379, 14720.64
296.9200, 14735.94
297.4021, 14751.52
297.8842, 14768.83
298.3664, 14784.97
298.8485, 14798.42
299.3306, 14810.51
299.8127, 14823.90
300.2948, 14840.30
300.7769, 14857.86
301.2591, 14868.41
301.7412, 14852.99
302.2233, 14854.11
302.7054, 14892.21
303.1875, 14941.97
303.6696, 14973.87
304.1518, 14976.03
304.6339, 14961.70
305.1160, 14959.77
305.5981, 14982.27
306.0802, 14999.84
306.5623, 15002.60
307.0445, 15006.03
307.5266, 15026.38
308.0087, 15066.00
308.4908, 15110.54
308.9729, 15138.18
309.4550, 15136.50
309.9372, 15149.41
310.4193, 15190.39
310.9014, 15232.84
311.3835, 15259.56
311.8656, 15270.32
312.3477, 15276.09
312.8299, 15288.16
313.3120, 15308.58
313.7941, 15322.14
314.2762, 15314.85
314.7583, 15315.20
315.2404, 15337.04
315.7226, 15376.47
316.2047, 15423.31
316.6868, 15471.46
317.1689, 15519.90
317.6510, 15552.65
318.1331, 15557.86
318.6153, 15560.42
319.0974, 15558.96
319.5795, 15559.31
320.0616, 15571.28
320.5437, 15600.44
321.0258, 15640.47
321.5080, 15670.61
321.9901, 15677.15
322.4722, 15690.27
322.9543, 15719.15
323.4364, 15751.68
323.9185, 15773.95
324.4007, 15781.72
324.8828, 15784.66
325.3649, 15800.07
325.8470, 15838.65
326.3291, 15869.96
326.8112, 15889.68
327.2934, 15906.78
327.7755, 15929.93
328.2576, 15958.78
328.7397, 15984.03
329.2218, 15993.41
329.7039, 15980.08
330.1861, 15984.98
330.6682, 16027.55
331.1503, 16067.34
331.6324, 16081.72
332.1145, 16077.80
332.5966, 16078.37
333.0788, 16102.07
333.5609, 16146.84
334.0430, 16177.51
334.5251, 16171.42
335.0072, 16175.40
335.4893, 16207.36
335.9715, 16252.80
336.4536, 16290.39
336.9357, 16308.90
337.4178, 16314.51
337.8999, 16325.10
338.3820, 16343.50
338.8642, 16363.23
339.3463, 16383.28
339.8284, 16404.60
340.3105, 16428.98
340.7926, 16456.65
341.2747, 16484.56
341.7568, 16507.37
342.2390, 16520.82
342.7211, 16539.76
343.2032, 16569.61
343.6853, 16599.63
344.1674, 16622.96
344.6495, 16640.18
345.1317, 16656.69
345.6138, 16677.10
346.0959, 16701.43
346.5780, 16729.58
347.0601, 16775.15
347.5422, 16811.04
348.0244, 16821.18
348.5065, 16817.16
348.9886, 16820.03
349.4707, 16843.13
349.9528, 16881.73
350.4349, 16916.86
350.9171, 16951.16
351.3992, 16977.48
351.8813, 16988.51
352.3634, 16994.89
352.8455, 17007.13
353.3276, 17028.88
353.8098, 17056.07
354.2919, 17082.22
354.7740, 17107.09
355.2561, 17131.49
355.7382, 17155.05
356.2203, 17178.54
356.7025, 17200.96
357.1846, 17223.00
357.6667, 17247.89
358.1488, 17282.23
358.6309, 17326.61
359.1130, 17359.15
359.5952, 17370.08
360.0773, 17379.20
360.5594, 17393.40
361.0415, 17412.02
361.5236, 17433.21
362.0057, 17456.85
362.4879, 17481.63
362.9700, 17503.14
363.4521, 17518.26
363.9342, 17536.90
364.4163, 17568.60
364.8984, 17602.60
365.3806, 17626.73
365.8627, 17636.66
366.3448, 17641.11
366.8269, 17648.35
367.3090, 17657.52
367.7911, 17678.38
368.2733, 17727.70
368.7554, 17777.68
369.2375, 17803.99
369.7196, 17807.46
370.2017, 17812.82
370.6838, 17843.75
371.1660, 17893.46
371.6481, 17927.51
372.1302, 17936.41
372.6123, 17941.95
373.0944, 17961.08
373.5765, 17988.10
374.0587, 18010.47
374.5408, 18020.27
375.0229, 18024.89
375.5050, 18032.41
375.9871, 18041.88
376.4692, 18062.81
376.9514, 18110.70
377.4335, 18167.60
377.9156, 18206.99
378.3977, 18222.99
378.8798, 18230.83
379.3619, 18236.90
379.8441, 18242.79
380.3262, 18255.74
380.8083, 18278.75
381.2904, 18308.10
381.7725, 18341.76
382.2546, 18379.52
382.7368, 18412.74
383.2189, 18435.08
383.7010, 18452.93
384.1831, 18475.90
384.6652, 18505.40
385.1473, 18534.65
385.6295, 18558.46
386.1116, 18577.28
386.5937, 18596.72
387.0758, 18615.17
387.5579, 18635.84
388.0400, 18661.11
388.5222, 18690.27
389.0043, 18722.02
389.4864, 18756.56
389.9685, 18791.69
390.4506, 18821.19
390.9327, 18843.00
391.4149, 18865.45
391.8970, 18891.17
392.3791, 18918.02
392.8612, 18942.92
393.3433, 18965.25
393.8254, 18987.67
394.3076, 19013.08
394.7897, 19042.18
395.2718, 19071.23
395.7539, 19099.74
396.2360, 19128.73
396.7181, 19159.23
397.2003, 19190.63
397.6824, 19220.32
398.1645, 19246.41
398.6466, 19270.13
399.1287, 19298.86
399.6108, 19339.82
400.0930, 19376.90
400.5751, 19406.70
401.0572, 19432.76
401.5393, 19460.35
402.0214, 19490.59
402.5035, 19518.55
402.9857, 19535.46
403.4678, 19533.85
403.9499, 19543.15
404.4320, 19571.13
404.9141, 19601.52
405.3962, 19624.06
405.8784, 19641.60
406.3605, 19664.87
406.8426, 19703.04
407.3247, 19753.41
407.8068, 19795.19
408.2889, 19825.80
408.7711, 19850.09
409.2532, 19860.96
409.7353, 19870.29
410.2174, 19892.26
410.6995, 19931.79
411.1816, 19978.62
411.6638, 20018.18
412.1459, 20048.73
412.6280, 20080.38
413.1101, 20117.75
413.5922, 20153.35
414.0743, 20182.90
414.5565, 20206.65
415.0386, 20227.17
415.5207, 20242.22
416.0028, 20255.20
416.4849, 20280.55
416.9670, 20324.41
417.4492, 20365.48
417.9313, 20391.25
418.4134, 20408.23
418.8955, 20422.58
419.3776, 20433.23
419.8597, 20447.79
420.3419, 20473.75
420.8240, 20510.62
421.3061, 20556.09
421.7882, 20617.29
422.2703, 20675.87
422.7524, 20704.93
423.2346, 20705.75
423.7167, 20712.26
424.1988, 20740.73
424.6809, 20779.96
425.1630, 20815.77
425.6451, 20846.62
426.1273, 20875.65
426.6094, 20902.68
427.0915, 20929.78
427.5736, 20966.06
428.0557, 21027.70
428.5378, 21080.93
429.0200, 21103.67
429.5021, 21107.93
429.9842, 21117.81
430.4663, 21142.08
430.9484, 21174.90
431.4305, 21207.11
431.9127, 21238.72
432.3948, 21269.63
432.8769, 21291.46
433.3590, 21318.84
433.8411, 21366.71
434.3232, 21431.69
434.8054, 21498.35
435.2875, 21555.86
435.7696, 21603.59
436.2517, 21635.98
436.7338, 21633.04
437.2159, 21637.70
437.6981, 21657.92
438.1802, 21688.02
438.6623, 21721.79
439.1444, 21757.04
439.6265, 21795.12
440.1086, 21840.56
440.5908, 21899.90
441.0729, 21945.03
441.5550, 21970.30
442.0371, 21986.84
442.5192, 21988.36
443.0013, 21984.48
443.4835, 21997.68
443.9656, 22047.33
444.4477, 22119.70
444.9298, 22168.66
445.4119, 22186.20
445.8940, 22201.45
446.3762, 22221.05
446.8583, 22244.38
447.3404, 22271.26
447.8225, 22301.63
448.3046, 22334.79
448.7867, 22370.29
449.2689, 22407.91
449.7510, 22447.14
450.2331, 22488.00
450.7152, 22529.87
451.1973, 22574.35
451.6794, 22619.51
452.1616, 22660.29
452.6437, 22691.74
453.1258, 22720.78
453.6079, 22756.21
454.0900, 22796.35
454.5721, 22828.76
455.0543, 22845.60
455.5364, 22855.09
456.0185, 22873.58
456.5006, 22900.82
456.9827, 22933.72
457.4648, 22978.66
457.9470, 23024.97
458.4291, 23060.07
458.9112, 23083.17
459.3933, 23104.32
459.8754, 23132.33
460.3575, 23167.00
460.8397, 23196.43
461.3218, 23215.49
461.8039, 23236.59
462.2860, 23260.73
462.7681, 23289.80
463.2502, 23329.32
463.7324, 23380.46
464.2145, 23432.36
464.6966, 23465.41
465.1787, 23467.12
465.6608, 23487.38
466.1429, 23541.71
466.6251, 23598.21
467.1072, 23640.58
467.5893, 23673.55
468.0714, 23711.91
468.5535, 23766.66
469.0356, 23829.46
469.5178, 23874.06
469.9999, 23890.78
470.4820, 23915.06
470.9641, 23966.24
471.4462, 24021.88
471.9283, 24065.29
472.4105, 24094.56
472.8926, 24118.78
473.3747, 24141.95
473.8568, 24165.45
474.3389, 24196.14
474.8210, 24238.60
475.3032, 24276.23
475.7853, 24293.77
476.2674, 24299.37
476.7495, 24307.47
477.2316, 24317.90
477.7137, 24334.95
478.1959, 24363.64
478.6780, 24401.34
479.1601, 24443.63
479.6422, 24490.87
480.1243, 24533.83
480.6064, 24557.04
481.0886, 24556.06
481.5707, 24565.56
482.0528, 24588.25
482.5349, 24620.94
483.0170, 24672.26
483.4991, 24732.83
483.9813, 24774.01
484.4634, 24777.75
484.9455, 24760.53
485.4276, 24772.40
485.9097, 24852.95
486.3918, 24904.86
486.8740, 24899.27
487.3561, 24886.70
487.8382, 24906.52
488.3203, 24959.16
488.8024, 25018.85
489.2845, 25065.00
489.7667, 25098.82
490.2488, 25131.81
490.7309, 25162.94
491.2130, 25195.39
491.6951, 25228.68
492.1772, 25264.32
492.6594, 25304.53
493.1415, 25349.78
493.6236, 25396.53
494.1057, 25438.52
494.5878, 25477.30
495.0699, 25526.74
495.5521, 25594.44
496.0342, 25660.63
496.5163, 25708.03
496.9984, 25742.83
497.4805, 25777.34
497.9626, 25812.23
498.4448, 25850.05
498.9269, 25891.32
499.4090, 25936.70
499.8911, 25992.36
500.3732, 26063.93
500.8553, 26134.76
501.3375, 26177.31
501.8196, 26182.99
502.3017, 26205.82
502.7838, 26260.76
503.2659, 26323.85
503.7480, 26381.53
504.2302, 26433.64
504.7123, 26485.07
505.1944, 26538.83
505.6765, 26593.01
506.1586, 26642.22
506.6407, 26686.95
507.1228, 26725.84
507.6049, 26753.30
508.0871, 26780.20
508.5692, 26811.78
509.0513, 26849.67
509.5334, 26896.79
510.0155, 26960.33
510.4977, 27033.14
510.9798, 27074.60
511.4619, 27067.87
511.9440, 27068.11
512.4261, 27101.02
512.9083, 27144.02
513.3904, 27181.71
513.8725, 27211.64
514.3546, 27226.68
514.8367, 27205.66
515.3188, 27166.37
515.8010, 27165.91
516.2831, 27217.21
516.7652, 27268.30
517.2473, 27281.38
517.7294, 27266.64
518.2115, 27260.19
518.6937, 27262.57
519.1758, 27274.17
519.6579, 27300.50
520.1400, 27334.53
520.6221, 27363.83
521.1042, 27385.64
521.5864, 27407.51
522.0685, 27438.30
522.5506, 27479.35
523.0327, 27514.96
523.5148, 27539.01
523.9969, 27565.83
524.4791, 27602.88
524.9612, 27644.36
525.4433, 27681.45
525.9254, 27710.96
526.4075, 27738.07
526.8896, 27769.23
527.3718, 27804.12
527.8539, 27844.58
528.3360, 27898.62
528.8181, 27949.03
529.3002, 27984.42
529.7823, 28011.88
530.2645, 28046.98
530.7466, 28100.13
531.2287, 28152.31
531.7108, 28171.83
532.1929, 28161.59
532.6750, 28166.86
533.1572, 28202.10
533.6393, 28249.59
534.1214, 28293.22
534.6035, 28333.30
535.0856, 28372.29
535.5677, 28413.14
536.0499, 28451.00
536.5320, 28482.39
537.0141, 28508.03
537.4962, 28528.57
537.9783, 28543.10
538.4604, 28559.80
538.9426, 28594.12
539.4247, 28659.19
539.9068, 28708.59
540.3889, 28722.73
540.8710, 28740.70
541.3531, 28785.13
541.8353, 28850.10
542.3174, 28923.03
542.7995, 28998.70
543.2816, 29066.41
543.7637, 29095.48
544.2458, 29068.01
544.7280, 29061.85
545.2101, 29105.05
545.6922, 29157.17
546.1743, 29196.09
546.6564, 29224.89
547.1385, 29258.13
547.6207, 29310.66
548.1028, 29365.41
548.5849, 29388.11
549.0670, 29380.69
549.5491, 29393.52
550.0313, 29451.85
550.5134, 29528.01
550.9955, 29579.43
551.4776, 29605.56
551.9597, 29634.99
552.4418, 29669.32
552.9240, 29711.66
553.4061, 29770.42
553.8882, 29839.97
554.3703, 29902.75
554.8524, 29949.63
555.3345, 29986.80
555.8167, 30029.26
556.2988, 30084.49
556.7809, 30129.17
557.2630, 30146.61
557.7451, 30169.90
558.2272, 30224.72
558.7094, 30300.55
559.1915, 30368.35
559.6736, 30411.25
560.1557, 30438.97
560.6378, 30471.54
561.1199, 30509.79
561.6021, 30545.98
562.0842, 30571.30
562.5663, 30601.90
563.0484, 30658.54
563.5305, 30734.66
564.0126, 30795.45
564.4948, 30815.88
564.9769, 30824.54
565.4590, 30849.27
565.9411, 30887.97
566.4232, 30929.77
566.9053, 30970.61
567.3875, 31012.74
567.8696, 31059.69
568.3517, 31112.07
568.8338, 31168.61
569.3159, 31240.67
569.7980, 31305.42
570.2802, 31345.72
570.7623, 31370.39
571.2444, 31399.13
571.7265, 31440.82
572.2086, 31487.28
572.6907, 31519.25
573.1729, 31527.36
573.6550, 31560.05
574.1371, 31646.40
574.6192, 31729.04
575.1013, 31778.88
575.5834, 31806.74
576.0656, 31835.09
576.5477, 31871.65
577.0298, 31913.33
577.5119, 31959.79
577.9940, 32009.37
578.4761, 32052.71
578.9583, 32086.28
579.4404, 32117.98
579.9225, 32155.66
580.4046, 32199.07
580.8867, 32240.25
581.3688, 32275.19
581.8510, 32312.11
582.3331, 32355.39
582.8152, 32402.71
583.2973, 32452.47
583.7794, 32503.42
584.2615, 32552.71
584.7437, 32596.21
585.2258, 32633.49
585.7079, 32672.06
586.1900, 32708.61
586.6721, 32751.43
587.1542, 32811.28
587.6363, 32873.61
588.1184, 32918.46
588.6005, 32942.12
589.0826, 32967.16
589.5648, 33018.87
