##NAMES=Microcline
##RRUFFID=R040154
##IDEAL CHEMISTRY=KAlSi_3_O_8_
##LOCALITY=Mitchell County, North Carolina, USA
##OWNER=RRUFF
##SOURCE=University of Arizona Mineral Museum
##DESCRIPTION=White cleavage fragment with some perthitic character
##STATUS=The identification of this mineral has been confirmed by X-ray diffraction and chemical analysis
##URL=rruff.info/R040154
##MEASURED CHEMISTRY=(K_0.90_Na_0.09_Ba_0.01_)Al_1.00_(Si_2.99_Al_0.01_)_Î£=3_O_8_
144.8407, 4191.954
145.3228, 4234.843
145.8049, 4297.729
146.2870, 4366.646
146.7691, 4438.657
147.2512, 4519.227
147.7334, 4607.283
148.2155, 4702.209
148.6976, 4811.569
149.1797, 4942.341
149.6618, 5085.941
150.1439, 5229.699
150.6261, 5370.172
151.1082, 5512.241
151.5903, 5653.453
152.0724, 5783.781
152.5545, 5935.103
153.0366, 6115.029
153.5188, 6316.655
154.0009, 6525.505
154.4830, 6745.648
154.9651, 6970.201
155.4472, 7201.770
155.9293, 7472.935
156.4115, 7702.087
156.8936, 7882.310
157.3757, 8010.815
157.8578, 8082.184
158.3399, 8085.659
158.8221, 8036.526
159.3042, 7944.989
159.7863, 7808.547
160.2684, 7634.806
160.7505, 7408.939
161.2326, 7136.054
161.7148, 6871.480
162.1969, 6632.937
162.6790, 6414.729
163.1611, 6214.185
163.6432, 6020.835
164.1253, 5850.059
164.6075, 5710.609
165.0896, 5602.824
165.5717, 5519.348
166.0538, 5465.505
166.5359, 5431.861
167.0180, 5404.581
167.5002, 5376.986
167.9823, 5353.861
168.4644, 5336.705
168.9465, 5324.632
169.4286, 5325.476
169.9107, 5351.523
170.3929, 5394.945
170.8750, 5439.969
171.3571, 5475.766
171.8392, 5509.787
172.3213, 5546.449
172.8034, 5582.124
173.2856, 5632.987
173.7677, 5718.465
174.2498, 5833.565
174.7319, 5959.254
175.2140, 6092.437
175.6961, 6227.103
176.1783, 6356.029
176.6604, 6481.448
177.1425, 6591.655
177.6246, 6680.300
178.1067, 6744.249
178.5888, 6768.589
179.0710, 6739.890
179.5531, 6663.373
180.0352, 6543.817
180.5173, 6363.808
180.9994, 6161.512
181.4815, 6000.830
181.9637, 5879.773
182.4458, 5780.271
182.9279, 5687.504
183.4100, 5602.845
183.8921, 5529.393
184.3742, 5466.142
184.8564, 5415.315
185.3385, 5388.785
185.8206, 5387.803
186.3027, 5393.145
186.7848, 5383.030
187.2669, 5359.947
187.7491, 5342.396
188.2312, 5336.331
188.7133, 5340.758
189.1954, 5352.647
189.6775, 5372.216
190.1596, 5398.088
190.6418, 5431.535
191.1239, 5472.211
191.6060, 5511.615
192.0881, 5539.962
192.5702, 5560.463
193.0524, 5603.166
193.5345, 5670.744
194.0166, 5753.104
194.4987, 5833.176
194.9808, 5910.302
195.4629, 5995.498
195.9451, 6092.892
196.4272, 6203.591
196.9093, 6327.722
197.3914, 6475.801
197.8735, 6620.804
198.3556, 6718.396
198.8378, 6769.627
199.3199, 6766.796
199.8020, 6692.278
200.2841, 6542.281
200.7662, 6384.532
201.2483, 6216.681
201.7305, 6048.854
202.2126, 5907.536
202.6947, 5796.416
203.1768, 5698.050
203.6589, 5601.163
204.1410, 5505.255
204.6232, 5419.507
205.1053, 5342.019
205.5874, 5276.418
206.0695, 5239.637
206.5516, 5240.692
207.0337, 5246.891
207.5159, 5233.752
207.9980, 5196.065
208.4801, 5165.239
208.9622, 5146.277
209.4443, 5137.089
209.9264, 5129.021
210.4086, 5124.858
210.8907, 5116.141
211.3728, 5094.604
211.8549, 5055.395
212.3370, 5018.608
212.8191, 4983.828
213.3013, 4952.828
213.7834, 4941.148
214.2655, 4958.034
214.7476, 4979.409
215.2297, 4983.108
215.7118, 4962.056
216.1940, 4942.591
216.6761, 4927.453
217.1582, 4916.813
217.6403, 4918.425
218.1224, 4937.811
218.6045, 4962.024
219.0867, 4979.960
219.5688, 4993.004
220.0509, 4995.415
220.5330, 4981.585
221.0151, 4950.724
221.4972, 4933.418
221.9794, 4933.542
222.4615, 4942.695
222.9436, 4952.473
223.4257, 4963.282
223.9078, 4974.032
224.3899, 4984.507
224.8721, 4994.907
225.3542, 5004.768
225.8363, 5016.480
226.3184, 5025.490
226.8005, 5024.242
227.2827, 5002.023
227.7648, 4990.328
228.2469, 4999.862
228.7290, 5034.055
229.2111, 5062.644
229.6932, 5085.249
230.1754, 5102.231
230.6575, 5114.203
231.1396, 5120.908
231.6217, 5122.547
232.1038, 5116.031
232.5859, 5097.162
233.0681, 5093.335
233.5502, 5109.428
234.0323, 5136.964
234.5144, 5165.742
234.9965, 5201.803
235.4786, 5228.283
235.9608, 5237.477
236.4429, 5224.045
236.9250, 5217.790
237.4071, 5220.645
237.8892, 5229.556
238.3713, 5239.724
238.8535, 5250.404
239.3356, 5263.604
239.8177, 5280.205
240.2998, 5300.936
240.7819, 5322.303
241.2640, 5343.811
241.7462, 5366.580
242.2283, 5392.259
242.7104, 5419.148
243.1925, 5451.859
243.6746, 5493.689
244.1567, 5549.536
244.6389, 5597.522
245.1210, 5631.816
245.6031, 5661.605
246.0852, 5702.227
246.5673, 5753.686
247.0494, 5816.091
247.5316, 5891.497
248.0137, 5984.884
248.4958, 6074.598
248.9779, 6157.813
249.4600, 6238.510
249.9421, 6321.493
250.4243, 6405.857
250.9064, 6494.945
251.3885, 6587.883
251.8706, 6680.238
252.3527, 6794.006
252.8348, 6934.082
253.3170, 7092.062
253.7991, 7252.465
254.2812, 7414.107
254.7633, 7577.374
255.2454, 7747.979
255.7275, 7935.335
256.2097, 8091.608
256.6918, 8221.482
257.1739, 8315.417
257.6560, 8352.495
258.1381, 8317.049
258.6202, 8256.484
259.1024, 8181.453
259.5845, 8083.996
260.0666, 8005.860
260.5487, 7940.632
261.0308, 7899.919
261.5129, 7904.823
261.9951, 7962.379
262.4772, 8049.022
262.9593, 8161.782
263.4414, 8310.669
263.9235, 8444.271
264.4056, 8567.833
264.8878, 8672.598
265.3699, 8751.052
265.8520, 8811.425
266.3341, 8823.662
266.8162, 8767.296
267.2983, 8632.391
267.7805, 8495.300
268.2626, 8357.952
268.7447, 8217.452
269.2268, 8061.069
269.7089, 7877.310
270.1910, 7719.499
270.6732, 7611.239
271.1553, 7557.624
271.6374, 7508.869
272.1195, 7461.438
272.6016, 7423.997
273.0837, 7411.153
273.5659, 7423.426
274.0480, 7456.554
274.5301, 7512.003
275.0122, 7590.091
275.4943, 7676.544
275.9764, 7770.990
276.4586, 7874.511
276.9407, 7987.339
277.4228, 8107.054
277.9049, 8243.697
278.3870, 8402.274
278.8691, 8582.173
279.3513, 8767.086
279.8334, 8953.933
280.3155, 9153.725
280.7976, 9390.091
281.2798, 9662.740
281.7619, 9931.738
282.2440, 10189.58
282.7261, 10433.54
283.2082, 10651.69
283.6903, 10851.12
284.1725, 10998.59
284.6546, 11055.47
285.1367, 11021.91
285.6188, 10911.77
286.1009, 10718.60
286.5830, 10451.62
287.0652, 10139.47
287.5473, 9780.671
288.0294, 9402.837
288.5115, 9017.778
288.9936, 8629.887
289.4757, 8290.969
289.9579, 8027.379
290.4400, 7821.010
290.9221, 7613.688
291.4042, 7404.127
291.8863, 7209.700
292.3684, 7047.101
292.8506, 6914.826
293.3327, 6804.479
293.8148, 6721.549
294.2969, 6653.438
294.7790, 6569.110
295.2611, 6468.188
295.7433, 6375.457
296.2254, 6312.801
296.7075, 6274.308
297.1896, 6246.039
297.6717, 6227.734
298.1538, 6213.313
298.6360, 6193.888
299.1181, 6169.619
299.6002, 6144.509
300.0823, 6117.970
300.5644, 6092.928
301.0465, 6076.139
301.5287, 6076.536
302.0108, 6076.899
302.4929, 6050.958
302.9750, 6003.560
303.4571, 5963.958
303.9392, 5960.411
304.4214, 5973.705
304.9035, 5977.303
305.3856, 5961.125
305.8677, 5939.650
306.3498, 5924.760
306.8319, 5915.170
307.3141, 5906.043
307.7962, 5888.230
308.2783, 5872.589
308.7604, 5872.974
309.2425, 5901.806
309.7246, 5925.748
310.2068, 5915.474
310.6889, 5882.655
311.1710, 5857.545
311.6531, 5856.878
312.1352, 5868.165
312.6173, 5885.940
313.0995, 5915.142
313.5816, 5933.062
314.0637, 5916.390
314.5458, 5881.806
315.0279, 5860.590
315.5100, 5870.336
315.9922, 5892.377
316.4743, 5920.039
316.9564, 5955.641
317.4385, 5983.947
317.9206, 5996.435
318.4027, 5999.409
318.8849, 6001.687
319.3670, 6000.179
319.8491, 6003.165
320.3312, 6015.552
320.8133, 6039.625
321.2954, 6061.485
321.7776, 6072.366
322.2597, 6082.171
322.7418, 6101.456
323.2239, 6138.699
323.7060, 6178.610
324.1881, 6218.513
324.6703, 6258.372
325.1524, 6297.400
325.6345, 6331.380
326.1166, 6366.278
326.5987, 6407.330
327.0808, 6467.219
327.5630, 6518.223
328.0451, 6552.622
328.5272, 6571.495
329.0093, 6599.173
329.4914, 6644.292
329.9735, 6689.721
330.4557, 6725.999
330.9378, 6764.237
331.4199, 6772.440
331.9020, 6736.046
332.3841, 6665.762
332.8662, 6616.093
333.3484, 6603.396
333.8305, 6587.241
334.3126, 6540.561
334.7947, 6447.253
335.2768, 6375.867
335.7589, 6336.601
336.2411, 6317.485
336.7232, 6284.499
337.2053, 6230.271
337.6874, 6184.441
338.1695, 6162.300
338.6516, 6166.328
339.1338, 6175.811
339.6159, 6193.397
340.0980, 6211.511
340.5801, 6216.561
341.0622, 6207.688
341.5443, 6193.582
342.0265, 6171.490
342.5086, 6144.124
342.9907, 6137.743
343.4728, 6155.128
343.9549, 6182.846
344.4370, 6208.584
344.9192, 6231.689
345.4013, 6246.520
345.8834, 6248.896
346.3655, 6241.953
346.8476, 6229.292
347.3297, 6210.484
347.8119, 6198.823
348.2940, 6212.019
348.7761, 6243.301
349.2582, 6272.697
349.7403, 6297.931
350.2225, 6315.935
350.7046, 6316.966
351.1867, 6303.387
351.6688, 6293.379
352.1509, 6301.608
352.6331, 6321.349
353.1152, 6342.819
353.5973, 6364.195
354.0794, 6386.146
354.5615, 6414.895
355.0436, 6445.922
355.5258, 6465.469
356.0079, 6463.683
356.4900, 6448.380
356.9721, 6421.909
357.4542, 6378.314
357.9363, 6344.971
358.4185, 6349.125
358.9006, 6372.675
359.3827, 6384.302
359.8648, 6350.186
360.3469, 6318.131
360.8290, 6317.750
361.3112, 6356.531
361.7933, 6390.329
362.2754, 6397.488
362.7575, 6395.488
363.2396, 6403.356
363.7217, 6439.133
364.2039, 6471.334
364.6860, 6491.178
365.1681, 6498.406
365.6502, 6502.975
366.1323, 6495.276
366.6144, 6491.779
367.0966, 6504.063
367.5787, 6552.379
368.0608, 6591.727
368.5429, 6613.147
369.0250, 6621.535
369.5071, 6641.616
369.9893, 6679.745
370.4714, 6721.984
370.9535, 6764.065
371.4356, 6815.000
371.9177, 6843.950
372.3998, 6847.018
372.8820, 6829.596
373.3641, 6801.633
373.8462, 6759.569
374.3283, 6716.289
374.8104, 6674.690
375.2925, 6633.398
375.7747, 6609.280
376.2568, 6608.254
376.7389, 6612.271
377.2210, 6593.241
377.7031, 6549.099
378.1852, 6511.615
378.6674, 6489.252
379.1495, 6481.285
379.6316, 6487.123
380.1137, 6507.924
380.5958, 6531.599
381.0779, 6552.986
381.5601, 6569.640
382.0422, 6564.550
382.5243, 6521.533
383.0064, 6471.023
383.4885, 6470.126
383.9706, 6513.141
384.4528, 6558.021
384.9349, 6578.347
385.4170, 6581.528
385.8991, 6578.653
386.3812, 6569.405
386.8633, 6560.590
387.3455, 6559.644
387.8276, 6564.030
388.3097, 6567.947
388.7918, 6558.611
389.2739, 6553.964
389.7560, 6573.906
390.2382, 6622.352
390.7203, 6666.192
391.2024, 6687.833
391.6845, 6694.905
392.1666, 6696.375
392.6487, 6680.546
393.1309, 6673.260
393.6130, 6689.471
394.0951, 6727.177
394.5772, 6761.686
395.0593, 6781.202
395.5414, 6799.076
396.0236, 6823.471
396.5057, 6859.800
396.9878, 6897.757
397.4699, 6938.864
397.9520, 6981.139
398.4341, 7017.859
398.9163, 7042.808
399.3984, 7068.489
399.8805, 7096.957
400.3626, 7121.869
400.8447, 7171.493
401.3268, 7267.483
401.8090, 7372.106
402.2911, 7432.395
402.7732, 7437.155
403.2553, 7424.996
403.7374, 7403.568
404.2195, 7373.118
404.7017, 7337.521
405.1838, 7295.723
405.6659, 7251.137
406.1480, 7201.065
406.6301, 7144.861
407.1122, 7110.155
407.5944, 7106.538
408.0765, 7122.492
408.5586, 7128.584
409.0407, 7125.149
409.5228, 7129.823
410.0049, 7159.373
410.4871, 7206.012
410.9692, 7252.909
411.4513, 7302.110
411.9334, 7336.613
412.4155, 7331.566
412.8976, 7295.367
413.3798, 7253.120
413.8619, 7216.835
414.3440, 7179.460
414.8261, 7128.426
415.3082, 7063.481
415.7903, 7005.917
416.2725, 6971.441
416.7546, 6950.878
417.2367, 6933.189
417.7188, 6913.087
418.2009, 6897.804
418.6830, 6894.312
419.1652, 6899.447
419.6473, 6901.750
420.1294, 6894.339
420.6115, 6885.340
421.0937, 6878.793
421.5758, 6875.179
422.0579, 6874.458
422.5400, 6874.083
423.0221, 6877.085
423.5042, 6888.651
423.9864, 6918.093
424.4685, 6945.823
424.9506, 6971.351
425.4327, 6995.623
425.9148, 6997.999
426.3969, 6959.886
426.8791, 6921.057
427.3612, 6922.226
427.8433, 6983.621
428.3254, 7019.578
428.8075, 7009.779
429.2896, 6969.614
429.7718, 6951.406
430.2539, 6957.402
430.7360, 6972.549
431.2181, 6989.177
431.7002, 7007.387
432.1823, 7028.432
432.6645, 7052.200
433.1466, 7079.510
433.6287, 7117.969
434.1108, 7163.466
434.5929, 7194.765
435.0750, 7188.493
435.5572, 7168.549
436.0393, 7180.919
436.5214, 7224.256
437.0035, 7270.077
437.4856, 7292.154
437.9677, 7303.670
438.4499, 7322.546
438.9320, 7353.639
439.4141, 7392.620
439.8962, 7440.295
440.3783, 7493.643
440.8604, 7546.295
441.3426, 7585.522
441.8247, 7630.045
442.3068, 7693.022
442.7889, 7780.013
443.2710, 7865.427
443.7531, 7933.033
444.2353, 7999.074
444.7174, 8082.703
445.1995, 8207.137
445.6816, 8325.590
446.1637, 8419.189
446.6458, 8491.963
447.1280, 8599.443
447.6101, 8761.267
448.0922, 8936.844
448.5743, 9099.163
449.0564, 9232.616
449.5385, 9401.241
450.0207, 9616.324
450.5028, 9857.634
450.9849, 10091.93
451.4670, 10319.86
451.9491, 10528.13
452.4312, 10726.00
452.9134, 10904.27
453.3955, 10999.39
453.8776, 11009.95
454.3597, 10948.27
454.8418, 10806.13
455.3239, 10595.76
455.8061, 10372.14
456.2882, 10140.90
456.7703, 9908.060
457.2524, 9666.291
457.7345, 9425.079
458.2166, 9217.908
458.6988, 9079.592
459.1809, 8980.525
459.6630, 8892.857
460.1451, 8812.623
460.6272, 8744.917
461.1093, 8686.251
461.5915, 8644.172
462.0736, 8629.541
462.5557, 8656.396
463.0378, 8700.877
463.5199, 8759.795
464.0020, 8831.001
464.4842, 8902.691
464.9663, 8960.783
465.4484, 9026.759
465.9305, 9112.332
466.4126, 9224.813
466.8947, 9346.597
467.3769, 9478.709
467.8590, 9619.074
468.3411, 9765.883
468.8232, 9916.137
469.3053, 10077.92
469.7874, 10255.03
470.2696, 10447.10
470.7517, 10649.96
471.2338, 10866.03
471.7159, 11083.63
472.1980, 11290.90
472.6801, 11488.78
473.1623, 11688.51
473.6444, 11906.47
474.1265, 12101.25
474.6086, 12204.90
475.0907, 12221.23
475.5728, 12175.04
476.0550, 12073.00
476.5371, 11918.28
477.0192, 11702.82
477.5013, 11424.87
477.9834, 11141.63
478.4655, 10881.19
478.9477, 10645.99
479.4298, 10442.91
479.9119, 10279.45
480.3940, 10137.86
480.8761, 10005.60
481.3582, 9888.058
481.8404, 9802.818
482.3225, 9790.659
482.8046, 9783.313
483.2867, 9751.682
483.7688, 9692.293
484.2509, 9611.988
484.7331, 9503.729
485.2152, 9378.823
485.6973, 9243.214
486.1794, 9083.036
486.6615, 8934.633
487.1436, 8797.712
487.6258, 8675.403
488.1079, 8583.954
488.5900, 8528.194
489.0721, 8491.746
489.5542, 8471.523
490.0363, 8467.625
490.5185, 8452.438
491.0006, 8421.310
491.4827, 8392.513
491.9648, 8392.151
492.4470, 8416.536
492.9291, 8445.406
493.4112, 8465.864
493.8933, 8491.730
494.3754, 8549.218
494.8575, 8634.709
495.3397, 8721.939
495.8218, 8782.327
496.3039, 8842.307
496.7860, 8930.944
497.2681, 9057.584
497.7502, 9197.599
498.2324, 9342.783
498.7145, 9492.743
499.1966, 9649.785
499.6787, 9793.350
500.1608, 9963.936
500.6429, 10178.98
501.1251, 10436.77
501.6072, 10704.97
502.0893, 10973.83
502.5714, 11262.60
503.0535, 11581.03
503.5356, 11931.21
504.0178, 12304.59
504.4999, 12704.10
504.9820, 13121.25
505.4641, 13544.72
505.9462, 13966.44
506.4283, 14429.69
506.9105, 14952.31
507.3926, 15521.45
507.8747, 16078.07
508.3568, 16622.27
508.8389, 17192.70
509.3210, 17866.13
509.8032, 18596.78
510.2853, 19281.42
510.7674, 19918.78
511.2495, 20459.80
511.7316, 20907.39
512.2137, 21219.59
512.6959, 21307.22
513.1780, 21106.79
513.6601, 20695.36
514.1422, 20073.31
514.6243, 19260.71
515.1064, 18386.16
515.5886, 17425.84
516.0707, 16467.32
516.5528, 15569.32
517.0349, 14723.40
517.5170, 13953.89
517.9991, 13276.95
518.4813, 12677.87
518.9634, 12146.03
519.4455, 11692.81
519.9276, 11287.23
520.4097, 10919.06
520.8918, 10596.12
521.3740, 10335.04
521.8561, 10145.63
522.3382, 9985.653
522.8203, 9828.617
523.3024, 9676.606
523.7845, 9544.537
524.2667, 9434.104
524.7488, 9337.891
525.2309, 9245.467
525.7130, 9156.741
526.1951, 9073.167
526.6772, 8992.860
527.1594, 8918.843
527.6415, 8859.095
528.1236, 8811.026
528.6057, 8761.719
529.0878, 8697.517
529.5699, 8633.947
530.0521, 8585.721
530.5342, 8558.104
531.0163, 8528.147
531.4984, 8479.307
531.9805, 8428.005
532.4626, 8391.468
532.9448, 8380.589
533.4269, 8374.803
533.9090, 8377.021
534.3911, 8383.241
534.8732, 8376.885
535.3553, 8351.705
535.8375, 8325.353
536.3196, 8305.513
536.8017, 8292.169
537.2838, 8279.765
537.7659, 8267.646
538.2480, 8258.256
538.7302, 8256.768
539.2123, 8261.594
539.6944, 8261.930
540.1765, 8255.276
540.6586, 8243.420
541.1407, 8223.537
541.6229, 8199.113
542.1050, 8182.291
542.5871, 8185.280
543.0692, 8195.038
543.5513, 8204.263
544.0334, 8212.271
544.5156, 8207.667
544.9977, 8166.182
545.4798, 8120.757
545.9619, 8098.867
546.4440, 8128.859
546.9261, 8147.963
547.4083, 8138.841
547.8904, 8115.208
548.3725, 8101.544
548.8546, 8099.387
549.3367, 8105.204
549.8188, 8123.519
550.3010, 8151.821
550.7831, 8158.311
551.2652, 8138.331
551.7473, 8111.990
552.2294, 8087.635
552.7115, 8066.712
553.1937, 8071.173
553.6758, 8108.152
554.1579, 8148.078
554.6400, 8146.795
555.1221, 8117.917
555.6042, 8101.204
556.0864, 8123.406
556.5685, 8150.959
557.0506, 8145.043
557.5327, 8115.068
558.0148, 8096.119
558.4969, 8113.725
558.9791, 8141.333
559.4612, 8164.448
559.9433, 8181.718
560.4254, 8193.057
560.9075, 8198.340
561.3896, 8197.506
561.8718, 8190.319
562.3539, 8169.512
562.8360, 8154.284
563.3181, 8144.417
563.8002, 8141.850
564.2823, 8155.118
564.7645, 8188.992
565.2466, 8216.487
565.7287, 8223.376
566.2108, 8214.771
566.6929, 8218.527
567.1750, 8235.336
567.6572, 8248.191
568.1393, 8234.978
568.6214, 8208.718
569.1035, 8195.739
569.5856, 8200.845
570.0677, 8216.135
570.5499, 8245.579
571.0320, 8278.790
571.5141, 8299.575
571.9962, 8282.337
572.4783, 8271.124
572.9604, 8292.683
573.4426, 8338.990
573.9247, 8368.342
574.4068, 8354.342
574.8889, 8339.913
575.3710, 8342.717
575.8531, 8367.276
576.3353, 8383.933
576.8174, 8387.256
577.2995, 8390.496
577.7816, 8408.775
578.2637, 8443.922
578.7458, 8473.433
579.2280, 8493.165
579.7101, 8507.520
580.1922, 8521.084
580.6743, 8534.968
581.1564, 8555.434
581.6385, 8599.307
582.1207, 8644.008
582.6028, 8656.493
583.0849, 8639.506
583.5670, 8615.525
584.0491, 8595.713
584.5313, 8575.512
585.0134, 8550.437
585.4955, 8517.536
585.9776, 8487.510
586.4597, 8457.390
586.9418, 8434.181
587.4240, 8427.041
587.9061, 8453.126
588.3882, 8468.609
588.8703, 8469.166
589.3524, 8456.042
589.8345, 8428.141
590.3167, 8378.765
590.7988, 8340.529
591.2809, 8333.020
591.7630, 8349.359
592.2451, 8352.938
592.7272, 8343.153
593.2094, 8335.330
593.6915, 8347.411
594.1736, 8369.473
594.6557, 8381.151
595.1378, 8376.638
595.6199, 8371.598
596.1021, 8381.591
596.5842, 8397.416
597.0663, 8405.982
597.5485, 8399.452
598.0306, 8388.514
598.5127, 8367.237
598.9948, 8341.840
599.4769, 8339.071
599.9590, 8379.621
600.4412, 8419.644
600.9233, 8447.555
601.4054, 8463.896
601.8875, 8458.517
602.3696, 8423.248
602.8517, 8386.384
603.3339, 8373.759
603.8160, 8383.555
604.2981, 8395.132
604.7802, 8406.456
605.2623, 8417.918
605.7444, 8428.511
606.2266, 8439.514
606.7087, 8454.117
607.1908, 8480.212
607.6729, 8503.700
608.1550, 8512.999
608.6371, 8510.438
609.1193, 8503.915
609.6014, 8488.593
610.0835, 8476.899
610.5656, 8476.669
611.0477, 8490.141
611.5298, 8500.763
612.0120, 8505.208
612.4941, 8509.305
612.9762, 8518.262
613.4583, 8536.118
613.9404, 8542.739
614.4225, 8533.538
614.9047, 8519.511
615.3868, 8516.537
615.8689, 8523.923
616.3510, 8532.525
616.8331, 8538.675
617.3152, 8545.932
617.7974, 8567.305
618.2795, 8596.678
618.7616, 8611.596
619.2437, 8568.831
619.7258, 8529.809
620.2079, 8551.597
620.6901, 8636.334
621.1722, 8708.507
621.6543, 8740.479
622.1364, 8752.479
622.6185, 8755.137
623.1006, 8740.964
623.5828, 8736.617
624.0649, 8745.956
624.5470, 8761.579
625.0291, 8773.682
625.5112, 8780.352
625.9933, 8795.781
626.4755, 8827.381
626.9576, 8862.270
627.4397, 8872.498
627.9218, 8860.059
628.4039, 8840.156
628.8860, 8801.917
629.3682, 8770.126
629.8503, 8793.300
630.3324, 8863.230
630.8145, 8917.693
631.2966, 8902.816
631.7787, 8871.218
632.2609, 8859.526
632.7430, 8876.053
633.2251, 8898.453
633.7072, 8934.590
634.1893, 8967.194
634.6714, 8980.283
635.1536, 8958.585
635.6357, 8952.284
636.1178, 8970.539
636.5999, 8999.965
637.0820, 9014.034
637.5641, 9011.854
638.0463, 9014.925
638.5284, 9031.985
639.0105, 9057.053
639.4926, 9077.975
639.9747, 9095.944
