##NAMES=Microcline
##RRUFFID=R050150
##IDEAL CHEMISTRY=KAlSi_3_O_8_
##LOCALITY=Crystal Peak area, Park/Teller Counties, Colorado, USA
##OWNER=RRUFF
##SOURCE=Dave Bunk Minerals
##DESCRIPTION=Pale blue prismatic crystals
##STATUS=The identification of this mineral has been confirmed by X-ray diffraction and chemical analysis
##URL=rruff.info/R050150
##MEASURED CHEMISTRY=(K_0.95_Na_0.05_)_Î£=1_Al_1.00_Si_3.00_O_8_
93.74609, 255.7302
94.22821, 245.4447
94.71033, 250.1951
95.19244, 267.7086
95.67456, 289.8192
96.15668, 314.3151
96.63879, 341.0828
97.12091, 369.7383
97.60303, 400.2523
98.08514, 433.4447
98.56726, 469.9730
99.04938, 509.9922
99.53149, 553.1398
100.0136, 598.5859
100.4957, 646.0780
100.9778, 698.3893
101.4600, 755.6714
101.9421, 817.3466
102.4242, 880.9073
102.9063, 947.3348
103.3884, 1014.281
103.8705, 1079.429
104.3527, 1142.884
104.8348, 1206.642
105.3169, 1272.540
105.7990, 1339.483
106.2811, 1403.857
106.7632, 1462.717
107.2454, 1521.485
107.7275, 1583.315
108.2096, 1650.031
108.6917, 1718.379
109.1738, 1787.291
109.6559, 1856.925
110.1381, 1931.310
110.6202, 2010.916
111.1023, 2095.721
111.5844, 2185.747
112.0665, 2284.168
112.5486, 2385.930
113.0308, 2490.418
113.5129, 2598.777
113.9950, 2709.245
114.4771, 2823.698
114.9592, 2939.294
115.4413, 3053.622
115.9235, 3165.044
116.4056, 3275.272
116.8877, 3384.226
117.3698, 3495.889
117.8519, 3601.786
118.3340, 3697.406
118.8162, 3785.024
119.2983, 3869.705
119.7804, 3952.878
120.2625, 4035.551
120.7446, 4117.851
121.2267, 4200.755
121.7089, 4283.087
122.1910, 4363.913
122.6731, 4443.438
123.1552, 4522.631
123.6373, 4600.450
124.1194, 4678.367
124.6016, 4759.681
125.0837, 4844.189
125.5658, 4931.655
126.0479, 5021.886
126.5300, 5114.838
127.0121, 5209.538
127.4943, 5307.076
127.9764, 5405.444
128.4585, 5502.750
128.9406, 5599.287
129.4227, 5693.175
129.9048, 5778.541
130.3869, 5854.634
130.8691, 5928.191
131.3512, 6006.649
131.8333, 6069.558
132.3154, 6101.564
132.7975, 6124.538
133.2796, 6147.312
133.7618, 6171.221
134.2439, 6196.625
134.7260, 6223.479
135.2081, 6250.810
135.6902, 6278.805
136.1723, 6309.375
136.6545, 6344.044
137.1366, 6382.717
137.6187, 6423.611
138.1008, 6468.575
138.5829, 6513.914
139.0650, 6551.411
139.5472, 6579.774
140.0293, 6604.821
140.5114, 6631.221
140.9935, 6660.749
141.4756, 6682.127
141.9577, 6692.388
142.4399, 6693.832
142.9220, 6697.006
143.4041, 6700.505
143.8862, 6707.579
144.3683, 6721.236
144.8504, 6743.947
145.3326, 6767.411
145.8147, 6790.467
146.2968, 6813.519
146.7789, 6836.075
147.2610, 6856.568
147.7431, 6878.515
148.2253, 6905.613
148.7074, 6942.781
149.1895, 6978.425
149.6716, 7011.168
150.1537, 7041.478
150.6358, 7065.803
151.1180, 7078.859
151.6001, 7088.045
152.0822, 7100.836
152.5643, 7117.810
153.0464, 7137.302
153.5285, 7159.310
154.0107, 7184.100
154.4928, 7208.701
154.9749, 7233.821
155.4570, 7258.474
155.9391, 7281.480
156.4212, 7307.438
156.9034, 7328.024
157.3855, 7341.370
157.8676, 7348.200
158.3497, 7345.456
158.8318, 7328.714
159.3139, 7302.827
159.7961, 7275.881
160.2782, 7247.459
160.7603, 7220.548
161.2424, 7196.317
161.7245, 7174.415
162.2066, 7156.431
162.6888, 7142.913
163.1709, 7133.589
163.6530, 7127.924
164.1351, 7128.507
164.6172, 7130.685
165.0993, 7130.763
165.5815, 7124.917
166.0636, 7121.872
166.5457, 7127.435
167.0278, 7139.349
167.5099, 7150.946
167.9921, 7156.766
168.4742, 7161.609
168.9563, 7170.255
169.4384, 7187.441
169.9205, 7204.070
170.4026, 7212.858
170.8848, 7215.388
171.3669, 7217.916
171.8490, 7224.855
172.3311, 7233.897
172.8132, 7242.023
173.2953, 7246.061
173.7775, 7251.620
174.2596, 7263.541
174.7417, 7281.665
175.2238, 7304.440
175.7059, 7332.723
176.1880, 7364.487
176.6702, 7396.405
177.1523, 7428.846
177.6344, 7459.940
178.1165, 7490.062
178.5986, 7519.091
179.0807, 7539.572
179.5629, 7544.258
180.0450, 7535.820
180.5271, 7520.373
181.0092, 7495.664
181.4913, 7466.875
181.9734, 7442.013
182.4556, 7420.956
182.9377, 7404.259
183.4198, 7394.711
183.9019, 7390.362
184.3840, 7384.646
184.8661, 7372.338
185.3483, 7357.318
185.8304, 7348.951
186.3125, 7347.701
186.7946, 7349.664
187.2767, 7351.786
187.7588, 7353.940
188.2409, 7354.985
188.7231, 7353.029
189.2052, 7349.602
189.6873, 7351.153
190.1694, 7358.719
190.6515, 7367.052
191.1336, 7367.530
191.6158, 7360.977
192.0979, 7358.067
192.5800, 7364.063
193.0621, 7378.011
193.5442, 7394.459
194.0263, 7414.379
194.5085, 7434.353
194.9906, 7447.950
195.4727, 7455.097
195.9548, 7463.782
196.4369, 7477.726
196.9190, 7496.599
197.4012, 7516.756
197.8833, 7538.916
198.3654, 7560.447
198.8475, 7578.100
199.3296, 7592.342
199.8117, 7598.427
200.2939, 7593.069
200.7760, 7576.236
201.2581, 7554.221
201.7402, 7525.034
202.2223, 7494.195
202.7044, 7471.362
203.1866, 7457.517
203.6687, 7447.563
204.1508, 7440.649
204.6329, 7437.336
205.1150, 7430.896
205.5971, 7419.739
206.0793, 7407.462
206.5614, 7401.303
207.0435, 7402.375
207.5256, 7405.569
208.0077, 7409.065
208.4898, 7413.022
208.9720, 7415.783
209.4541, 7416.238
209.9362, 7416.359
210.4183, 7421.292
210.9004, 7432.979
211.3825, 7443.320
211.8647, 7447.711
212.3468, 7444.048
212.8289, 7443.788
213.3110, 7447.773
213.7931, 7454.611
214.2752, 7461.282
214.7574, 7467.896
215.2395, 7474.220
215.7216, 7479.977
216.2037, 7484.625
216.6858, 7491.103
217.1679, 7501.000
217.6501, 7511.960
218.1322, 7517.554
218.6143, 7515.103
219.0964, 7513.112
219.5785, 7516.121
220.0606, 7526.896
220.5428, 7533.914
221.0249, 7536.030
221.5070, 7534.838
221.9891, 7533.797
222.4712, 7532.415
222.9533, 7532.001
223.4355, 7533.058
223.9176, 7535.560
224.3997, 7539.580
224.8818, 7545.660
225.3639, 7552.988
225.8460, 7560.086
226.3282, 7567.466
226.8103, 7573.714
227.2924, 7577.946
227.7745, 7579.467
228.2566, 7581.107
228.7387, 7582.795
229.2209, 7584.724
229.7030, 7586.987
230.1851, 7588.566
230.6672, 7592.377
231.1493, 7600.461
231.6314, 7616.021
232.1136, 7627.175
232.5957, 7632.202
233.0778, 7633.651
233.5599, 7636.782
234.0420, 7641.792
234.5241, 7648.064
235.0063, 7655.238
235.4884, 7662.867
235.9705, 7672.356
236.4526, 7685.026
236.9347, 7698.893
237.4168, 7709.621
237.8990, 7714.442
238.3811, 7720.264
238.8632, 7729.709
239.3453, 7743.836
239.8274, 7758.458
240.3095, 7774.472
240.7917, 7790.616
241.2738, 7804.431
241.7559, 7815.066
242.2380, 7824.907
242.7201, 7834.817
243.2022, 7845.250
243.6844, 7854.439
244.1665, 7861.089
244.6486, 7867.475
245.1307, 7877.818
245.6128, 7894.594
246.0949, 7911.208
246.5771, 7924.813
247.0592, 7933.505
247.5413, 7946.990
248.0234, 7967.264
248.5055, 7990.753
248.9876, 8011.501
249.4697, 8028.312
249.9519, 8044.688
250.4340, 8062.360
250.9161, 8082.503
251.3982, 8097.100
251.8803, 8101.869
252.3624, 8104.579
252.8446, 8115.920
253.3267, 8138.475
253.8088, 8165.011
254.2909, 8195.385
254.7730, 8231.058
255.2551, 8259.851
255.7373, 8278.930
256.2194, 8294.037
256.7015, 8312.196
257.1836, 8336.217
257.6657, 8357.099
258.1479, 8373.051
258.6300, 8383.874
259.1121, 8388.120
259.5942, 8381.971
260.0763, 8373.335
260.5584, 8370.111
261.0406, 8372.374
261.5227, 8380.083
262.0048, 8395.368
262.4869, 8417.902
262.9690, 8434.621
263.4511, 8442.258
263.9333, 8448.955
264.4154, 8464.137
264.8975, 8493.368
265.3796, 8515.157
265.8617, 8525.303
266.3438, 8524.543
266.8260, 8519.459
267.3081, 8508.566
267.7902, 8496.381
268.2723, 8487.683
268.7544, 8484.041
269.2365, 8477.021
269.7187, 8463.257
270.2008, 8444.894
270.6829, 8435.205
271.1650, 8436.146
271.6471, 8440.883
272.1292, 8444.982
272.6114, 8448.618
273.0935, 8449.601
273.5756, 8445.869
274.0577, 8439.681
274.5398, 8439.196
275.0219, 8444.804
275.5041, 8454.314
275.9862, 8466.902
276.4683, 8482.769
276.9504, 8499.229
277.4325, 8516.423
277.9146, 8533.670
278.3968, 8548.530
278.8788, 8560.256
279.3610, 8573.608
279.8431, 8591.241
280.3252, 8613.201
280.8073, 8639.003
281.2894, 8669.714
281.7715, 8703.175
282.2537, 8736.124
282.7358, 8768.938
283.2179, 8799.035
283.7000, 8826.075
284.1821, 8850.009
284.6642, 8867.844
285.1464, 8879.909
285.6285, 8884.877
286.1106, 8879.119
286.5927, 8862.427
287.0748, 8841.931
287.5569, 8821.666
288.0391, 8800.408
288.5212, 8769.495
289.0033, 8726.852
289.4854, 8682.476
289.9675, 8649.015
290.4496, 8625.717
290.9318, 8605.255
291.4139, 8585.941
291.8960, 8567.219
292.3781, 8546.741
292.8602, 8524.113
293.3423, 8502.828
293.8245, 8485.660
294.3066, 8472.509
294.7887, 8463.041
295.2708, 8458.907
295.7529, 8457.413
296.2350, 8451.777
296.7172, 8442.043
297.1993, 8434.073
297.6814, 8434.987
298.1635, 8441.713
298.6456, 8445.527
299.1277, 8443.955
299.6099, 8439.040
300.0920, 8431.748
300.5741, 8422.803
301.0562, 8417.577
301.5383, 8422.824
302.0204, 8434.077
302.5026, 8443.123
302.9847, 8448.901
303.4668, 8451.354
303.9489, 8447.901
304.4310, 8440.269
304.9131, 8434.672
305.3953, 8434.944
305.8774, 8439.235
306.3595, 8445.538
306.8416, 8453.718
307.3237, 8462.569
307.8058, 8471.971
308.2880, 8481.098
308.7701, 8488.208
309.2522, 8490.018
309.7343, 8490.865
310.2164, 8495.926
310.6985, 8506.341
311.1807, 8515.238
311.6628, 8517.436
312.1449, 8515.438
312.6270, 8512.930
313.1091, 8509.925
313.5912, 8508.299
314.0734, 8508.755
314.5555, 8511.424
315.0376, 8517.541
315.5197, 8532.688
316.0018, 8549.791
316.4839, 8561.109
316.9661, 8555.922
317.4482, 8552.131
317.9303, 8558.502
318.4124, 8573.548
318.8945, 8588.415
319.3766, 8599.140
319.8588, 8608.448
320.3409, 8618.223
320.8230, 8630.027
321.3051, 8640.735
321.7872, 8651.104
322.2693, 8659.989
322.7515, 8663.933
323.2336, 8653.830
323.7157, 8644.856
324.1978, 8645.204
324.6799, 8662.199
325.1620, 8676.027
325.6442, 8682.273
326.1263, 8683.989
326.6084, 8686.557
327.0905, 8688.715
327.5726, 8693.513
328.0547, 8702.568
328.5369, 8717.520
329.0190, 8731.479
329.5011, 8745.905
329.9832, 8758.668
330.4653, 8767.173
330.9474, 8767.583
331.4296, 8768.756
331.9117, 8774.394
332.3938, 8785.139
332.8759, 8787.265
333.3580, 8776.161
333.8401, 8760.951
334.3223, 8748.396
334.8044, 8736.880
335.2865, 8731.412
335.7686, 8735.323
336.2507, 8746.191
336.7328, 8749.688
337.2150, 8740.911
337.6971, 8733.174
338.1792, 8735.830
338.6613, 8752.620
339.1434, 8763.781
339.6255, 8766.690
340.1077, 8764.396
340.5898, 8763.327
341.0719, 8763.234
341.5540, 8765.423
342.0361, 8772.976
342.5182, 8786.521
343.0004, 8790.042
343.4825, 8780.829
343.9646, 8768.339
344.4467, 8767.031
344.9288, 8777.080
345.4109, 8787.325
345.8931, 8794.297
346.3752, 8798.415
346.8573, 8800.238
347.3394, 8799.506
347.8215, 8798.682
348.3036, 8800.118
348.7858, 8803.456
349.2679, 8807.374
349.7500, 8811.700
350.2321, 8816.017
350.7142, 8818.267
351.1964, 8818.808
351.6785, 8821.840
352.1606, 8834.734
352.6427, 8851.606
353.1248, 8860.250
353.6069, 8857.011
354.0891, 8850.455
354.5712, 8848.924
355.0533, 8851.649
355.5354, 8856.307
356.0175, 8862.618
356.4996, 8869.879
356.9818, 8877.756
357.4639, 8886.393
357.9460, 8894.521
358.4281, 8902.830
358.9102, 8909.735
359.3923, 8912.756
359.8745, 8904.269
360.3566, 8896.770
360.8387, 8899.835
361.3208, 8912.671
361.8029, 8924.019
362.2850, 8926.283
362.7672, 8926.034
363.2493, 8928.720
363.7314, 8937.408
364.2135, 8947.135
364.6956, 8957.345
365.1777, 8967.561
365.6599, 8976.115
366.1420, 8981.560
366.6241, 8986.131
367.1062, 8990.093
367.5883, 8990.609
368.0704, 8996.976
368.5526, 9016.479
369.0347, 9040.908
369.5168, 9057.856
369.9989, 9059.753
370.4810, 9061.224
370.9631, 9065.543
371.4453, 9073.127
371.9274, 9079.574
372.4095, 9084.615
372.8916, 9088.528
373.3737, 9091.505
373.8558, 9093.215
374.3380, 9094.809
374.8201, 9097.864
375.3022, 9101.206
375.7843, 9096.912
376.2664, 9081.170
376.7485, 9066.063
377.2307, 9059.928
377.7128, 9064.753
378.1949, 9066.592
378.6770, 9063.890
379.1591, 9059.421
379.6412, 9058.166
380.1234, 9060.355
380.6055, 9064.771
381.0876, 9072.155
381.5697, 9081.834
382.0518, 9088.980
382.5339, 9093.327
383.0161, 9096.270
383.4982, 9098.462
383.9803, 9100.124
384.4624, 9102.766
384.9445, 9107.043
385.4266, 9112.015
385.9088, 9115.346
386.3909, 9117.213
386.8730, 9120.598
387.3551, 9129.046
387.8372, 9140.025
388.3193, 9149.281
388.8015, 9155.878
389.2836, 9161.176
389.7657, 9165.649
390.2478, 9169.855
390.7299, 9174.942
391.2120, 9187.061
391.6942, 9196.854
392.1763, 9192.486
392.6584, 9172.374
393.1405, 9158.470
393.6226, 9169.485
394.1047, 9190.223
394.5869, 9204.314
395.0690, 9200.470
395.5511, 9195.343
396.0332, 9194.535
396.5153, 9197.531
396.9974, 9201.184
397.4796, 9204.451
397.9617, 9208.309
398.4438, 9213.190
398.9259, 9218.653
399.4080, 9226.005
399.8901, 9236.741
400.3723, 9249.344
400.8544, 9260.754
401.3365, 9268.501
401.8186, 9278.299
402.3007, 9293.768
402.7828, 9316.646
403.2649, 9329.406
403.7470, 9327.178
404.2292, 9319.979
404.7113, 9316.669
405.1934, 9318.271
405.6755, 9320.091
406.1576, 9320.153
406.6397, 9320.229
407.1219, 9328.697
407.6040, 9348.083
408.0861, 9365.576
408.5682, 9371.537
409.0503, 9366.029
409.5324, 9365.990
410.0146, 9373.016
410.4967, 9382.699
410.9788, 9389.132
411.4609, 9392.504
411.9430, 9395.122
412.4251, 9398.118
412.9073, 9400.937
413.3894, 9402.725
413.8715, 9403.519
414.3536, 9402.662
414.8357, 9398.464
415.3178, 9392.466
415.8000, 9387.712
416.2821, 9385.318
416.7642, 9383.520
417.2463, 9379.668
417.7284, 9374.950
418.2105, 9372.559
418.6927, 9378.272
419.1748, 9384.169
419.6569, 9382.574
420.1390, 9371.678
420.6211, 9363.551
421.1032, 9366.771
421.5854, 9374.514
422.0675, 9379.371
422.5496, 9373.779
423.0317, 9370.996
423.5138, 9376.527
423.9959, 9389.015
424.4781, 9399.928
424.9602, 9405.205
425.4423, 9410.306
425.9244, 9418.107
426.4065, 9431.431
426.8886, 9441.645
427.3708, 9446.006
427.8529, 9448.300
428.3350, 9454.926
428.8171, 9469.205
429.2992, 9481.453
429.7813, 9488.326
430.2635, 9490.007
430.7456, 9494.854
431.2277, 9504.623
431.7098, 9513.681
432.1919, 9516.233
432.6740, 9511.576
433.1562, 9509.891
433.6383, 9512.767
434.1204, 9518.791
434.6025, 9525.265
435.0846, 9532.196
435.5667, 9540.101
436.0489, 9548.274
436.5310, 9557.700
437.0131, 9572.835
437.4952, 9594.264
437.9773, 9615.386
438.4594, 9631.324
438.9416, 9642.266
439.4237, 9647.770
439.9058, 9642.972
440.3879, 9638.848
440.8700, 9649.118
441.3521, 9669.970
441.8343, 9687.763
442.3164, 9689.410
442.7985, 9688.729
443.2806, 9696.432
443.7627, 9714.755
444.2448, 9737.380
444.7270, 9769.376
445.2091, 9801.284
445.6912, 9821.713
446.1733, 9810.799
446.6554, 9805.466
447.1375, 9817.356
447.6197, 9845.168
448.1018, 9872.733
448.5839, 9897.470
449.0660, 9922.739
449.5481, 9949.815
450.0302, 9979.380
450.5124, 10010.42
450.9945, 10045.29
451.4766, 10079.99
451.9587, 10107.79
452.4408, 10128.25
452.9229, 10143.86
453.4051, 10156.06
453.8872, 10164.50
454.3693, 10165.99
454.8514, 10160.03
455.3335, 10149.38
455.8156, 10136.81
456.2978, 10121.85
456.7799, 10098.94
457.2620, 10064.95
457.7441, 10028.01
458.2262, 9997.688
458.7083, 9974.045
459.1905, 9956.544
459.6726, 9947.072
460.1547, 9942.690
460.6368, 9939.623
461.1189, 9937.755
461.6010, 9937.683
462.0832, 9940.731
462.5653, 9945.472
463.0474, 9950.372
463.5295, 9955.576
464.0116, 9960.358
464.4937, 9963.538
464.9759, 9966.288
465.4580, 9970.777
465.9401, 9977.294
466.4222, 9986.391
466.9043, 9998.600
467.3864, 10014.24
467.8686, 10031.40
468.3507, 10052.23
468.8328, 10073.02
469.3149, 10090.67
469.7970, 10099.31
470.2791, 10114.15
470.7613, 10137.07
471.2434, 10166.25
471.7255, 10198.13
472.2076, 10235.13
472.6897, 10268.24
473.1718, 10293.75
473.6540, 10311.49
474.1361, 10329.64
474.6182, 10349.28
475.1003, 10365.69
475.5824, 10375.02
476.0645, 10377.29
476.5467, 10371.41
477.0288, 10356.25
477.5109, 10334.86
477.9930, 10309.14
478.4751, 10280.40
478.9572, 10254.83
479.4394, 10238.26
479.9215, 10225.59
480.4036, 10209.68
480.8857, 10189.90
481.3678, 10172.17
481.8499, 10161.97
482.3321, 10155.17
482.8142, 10147.13
483.2963, 10133.72
483.7784, 10122.20
484.2605, 10117.75
484.7426, 10117.45
485.2248, 10114.14
485.7069, 10104.51
486.1890, 10093.27
486.6711, 10081.34
487.1532, 10068.14
487.6353, 10058.25
488.1175, 10053.51
488.5996, 10050.92
489.0817, 10048.01
489.5638, 10043.80
490.0459, 10041.80
490.5280, 10042.18
491.0102, 10044.99
491.4923, 10050.86
491.9744, 10060.27
492.4565, 10070.11
492.9386, 10079.06
493.4207, 10087.32
493.9029, 10095.01
494.3850, 10101.80
494.8671, 10111.90
495.3492, 10130.57
495.8313, 10155.95
496.3134, 10183.24
496.7956, 10212.08
497.2777, 10241.15
497.7598, 10269.42
498.2419, 10296.78
498.7240, 10321.90
499.2061, 10339.52
499.6883, 10358.66
500.1704, 10386.63
500.6525, 10423.58
501.1346, 10462.41
501.6167, 10503.00
502.0988, 10543.01
502.5810, 10580.33
503.0631, 10610.48
503.5452, 10644.97
504.0273, 10683.12
504.5094, 10726.77
504.9915, 10778.42
505.4737, 10842.61
505.9558, 10907.52
506.4379, 10968.27
506.9200, 11025.44
507.4021, 11092.03
507.8842, 11172.08
508.3664, 11253.80
508.8485, 11329.67
509.3306, 11399.52
509.8127, 11472.16
510.2948, 11550.45
510.7769, 11624.43
511.2591, 11678.76
511.7412, 11714.89
512.2233, 11740.13
512.7054, 11760.60
513.1875, 11769.33
513.6696, 11758.78
514.1517, 11728.42
514.6339, 11674.92
515.1160, 11588.37
515.5981, 11482.44
516.0802, 11364.72
516.5623, 11233.08
517.0444, 11107.86
517.5266, 10999.60
518.0087, 10902.36
518.4908, 10809.64
518.9729, 10715.88
519.4550, 10630.75
519.9371, 10554.86
520.4193, 10489.16
520.9014, 10439.11
521.3835, 10410.52
521.8656, 10389.80
522.3477, 10374.42
522.8298, 10365.95
523.3120, 10348.61
523.7941, 10318.87
524.2762, 10288.14
524.7583, 10268.11
525.2404, 10259.06
525.7225, 10250.88
526.2047, 10242.13
526.6868, 10233.18
527.1689, 10223.38
527.6510, 10213.33
528.1331, 10206.58
528.6152, 10206.28
529.0974, 10209.49
529.5795, 10213.36
530.0616, 10217.61
530.5437, 10219.54
531.0258, 10217.94
531.5079, 10212.94
531.9901, 10203.11
532.4722, 10184.48
532.9543, 10171.64
533.4364, 10175.91
533.9185, 10187.61
534.4006, 10193.65
534.8828, 10182.82
535.3649, 10175.76
535.8470, 10178.81
536.3291, 10189.83
536.8112, 10196.88
537.2933, 10197.87
537.7755, 10197.91
538.2576, 10198.58
538.7397, 10199.46
539.2218, 10205.03
539.7039, 10216.96
540.1860, 10228.56
540.6682, 10231.40
541.1503, 10226.18
541.6324, 10220.98
542.1145, 10217.30
542.5966, 10214.64
543.0787, 10211.21
543.5609, 10207.90
544.0430, 10207.85
544.5251, 10215.94
545.0072, 10226.09
545.4893, 10232.86
545.9714, 10236.09
546.4536, 10236.22
546.9357, 10230.75
547.4178, 10223.88
547.8999, 10218.00
548.3820, 10211.05
548.8641, 10210.61
549.3463, 10222.87
549.8284, 10240.67
550.3105, 10254.78
550.7926, 10265.69
551.2747, 10271.60
551.7568, 10270.67
552.2390, 10264.62
552.7211, 10260.68
553.2032, 10259.33
553.6853, 10259.07
554.1674, 10260.71
554.6495, 10263.95
555.1317, 10260.59
555.6138, 10249.94
556.0959, 10239.64
556.5780, 10238.26
557.0601, 10243.15
557.5422, 10246.86
558.0244, 10247.58
558.5065, 10247.89
558.9886, 10251.15
559.4707, 10255.87
559.9528, 10259.03
560.4349, 10252.42
560.9171, 10250.06
561.3992, 10263.42
561.8813, 10289.88
562.3634, 10310.58
562.8455, 10316.93
563.3276, 10319.27
563.8098, 10322.63
564.2919, 10327.97
564.7740, 10330.82
565.2561, 10329.14
565.7382, 10326.79
566.2203, 10327.20
566.7025, 10330.43
567.1846, 10336.80
567.6667, 10347.92
568.1488, 10360.24
568.6309, 10366.01
569.1130, 10365.53
569.5952, 10362.94
570.0773, 10357.89
570.5594, 10353.17
571.0415, 10356.28
571.5236, 10366.26
572.0057, 10373.40
572.4879, 10366.42
572.9700, 10355.96
573.4521, 10353.79
573.9342, 10362.93
574.4163, 10372.66
574.8984, 10378.35
575.3806, 10381.98
575.8627, 10385.60
576.3448, 10390.93
576.8269, 10394.34
577.3090, 10392.44
577.7911, 10388.60
578.2733, 10391.59
578.7554, 10406.88
579.2375, 10417.44
579.7196, 10416.04
580.2017, 10404.50
580.6838, 10400.33
581.1660, 10404.37
581.6481, 10410.59
582.1302, 10414.57
582.6123, 10417.12
583.0944, 10422.75
583.5765, 10432.54
584.0587, 10439.76
584.5408, 10433.42
585.0229, 10420.72
585.5050, 10414.58
585.9871, 10423.46
586.4692, 10432.59
586.9514, 10431.27
587.4335, 10423.90
587.9156, 10419.53
588.3977, 10419.39
588.8798, 10424.17
589.3619, 10438.42
589.8441, 10461.73
