##NAMES=Microcline
##RRUFFID=R040154
##IDEAL CHEMISTRY=KAlSi_3_O_8_
##LOCALITY=Mitchell County, North Carolina, USA
##OWNER=RRUFF
##SOURCE=University of Arizona Mineral Museum
##DESCRIPTION=White cleavage fragment with some perthitic character
##STATUS=The identification of this mineral has been confirmed by X-ray diffraction and chemical analysis
##URL=rruff.info/R040154
##MEASURED CHEMISTRY=(K_0.90_Na_0.09_Ba_0.01_)Al_1.00_(Si_2.99_Al_0.01_)_Î£=3_O_8_
141.2683, 2211.923
141.7504, 2252.298
142.2325, 2314.225
142.7147, 2385.622
143.1968, 2457.687
143.6789, 2530.486
144.1610, 2613.985
144.6431, 2701.225
145.1252, 2802.924
145.6074, 2931.524
146.0895, 3084.040
146.5716, 3241.093
147.0537, 3387.988
147.5358, 3524.141
148.0179, 3661.940
148.5001, 3810.518
148.9822, 3953.948
149.4643, 4080.964
149.9464, 4191.833
150.4285, 4292.698
150.9106, 4389.799
151.3928, 4481.188
151.8749, 4559.814
152.3570, 4616.776
152.8391, 4665.814
153.3212, 4716.107
153.8033, 4767.893
154.2855, 4828.543
154.7676, 4908.209
155.2497, 5003.467
155.7318, 5098.232
156.2139, 5203.561
156.6960, 5300.577
157.1782, 5368.163
157.6603, 5404.547
158.1424, 5416.950
158.6245, 5411.341
159.1066, 5385.587
159.5887, 5327.139
160.0709, 5221.023
160.5530, 5084.821
161.0351, 4938.577
161.5172, 4779.088
161.9993, 4625.842
162.4814, 4492.802
162.9636, 4376.242
163.4457, 4270.595
163.9278, 4176.305
164.4099, 4091.912
164.8920, 4013.848
165.3741, 3939.090
165.8563, 3880.239
166.3384, 3851.232
166.8205, 3842.020
167.3026, 3837.484
167.7847, 3830.537
168.2668, 3824.692
168.7490, 3827.047
169.2311, 3837.342
169.7132, 3857.310
170.1953, 3890.486
170.6774, 3932.521
171.1595, 3977.395
171.6417, 4022.846
172.1238, 4069.177
172.6059, 4114.350
173.0880, 4149.975
173.5701, 4202.935
174.0522, 4293.215
174.5344, 4404.961
175.0165, 4515.331
175.4986, 4614.974
175.9807, 4705.636
176.4628, 4796.714
176.9449, 4901.881
177.4271, 4979.640
177.9092, 5024.632
178.3913, 5035.318
178.8734, 5005.572
179.3555, 4925.215
179.8376, 4808.659
180.3197, 4697.706
180.8019, 4597.996
181.2840, 4493.728
181.7661, 4367.078
182.2482, 4237.079
182.7303, 4128.925
183.2124, 4056.410
183.6946, 4010.616
184.1767, 3965.711
184.6588, 3916.206
185.1409, 3878.918
185.6230, 3858.949
186.1051, 3851.118
186.5873, 3850.191
187.0694, 3854.306
187.5515, 3862.417
188.0336, 3872.590
188.5157, 3888.178
188.9978, 3899.580
189.4800, 3900.274
189.9621, 3898.205
190.4442, 3900.469
190.9263, 3909.879
191.4084, 3927.195
191.8905, 3953.692
192.3727, 3987.167
192.8548, 4036.035
193.3369, 4104.843
193.8190, 4185.313
194.3011, 4269.151
194.7832, 4353.016
195.2654, 4440.923
195.7475, 4542.889
196.2296, 4674.292
196.7117, 4791.925
197.1938, 4900.638
197.6759, 4990.849
198.1581, 5057.933
198.6402, 5100.094
199.1223, 5110.107
199.6044, 5071.944
200.0865, 4968.995
200.5686, 4846.028
201.0508, 4690.618
201.5329, 4530.668
202.0150, 4387.693
202.4971, 4267.261
202.9792, 4163.951
203.4613, 4068.345
203.9435, 3977.381
204.4256, 3903.101
204.9077, 3850.207
205.3898, 3807.969
205.8719, 3770.567
206.3540, 3736.240
206.8362, 3705.156
207.3183, 3677.891
207.8004, 3656.679
208.2825, 3634.186
208.7646, 3608.023
209.2467, 3582.465
209.7289, 3559.984
210.2110, 3540.970
210.6931, 3524.180
211.1752, 3508.097
211.6573, 3492.318
212.1395, 3479.199
212.6216, 3471.080
213.1037, 3463.485
213.5858, 3453.111
214.0679, 3440.753
214.5500, 3430.261
215.0322, 3425.901
215.5143, 3428.747
215.9964, 3430.757
216.4785, 3426.710
216.9606, 3426.654
217.4427, 3440.732
217.9249, 3463.362
218.4070, 3478.354
218.8891, 3469.045
219.3712, 3434.233
219.8533, 3419.096
220.3354, 3447.899
220.8176, 3473.754
221.2997, 3480.818
221.7818, 3475.167
222.2639, 3471.566
222.7460, 3481.425
223.2281, 3502.707
223.7103, 3512.350
224.1924, 3490.083
224.6745, 3478.203
225.1566, 3492.660
225.6387, 3521.558
226.1208, 3547.357
226.6030, 3559.968
227.0851, 3561.713
227.5672, 3561.807
228.0493, 3554.932
228.5314, 3554.036
229.0135, 3565.507
229.4957, 3582.142
229.9778, 3595.781
230.4599, 3602.721
230.9420, 3605.238
231.4241, 3608.573
231.9062, 3611.091
232.3884, 3617.685
232.8705, 3631.346
233.3526, 3647.342
233.8347, 3661.241
234.3168, 3671.624
234.7989, 3681.257
235.2811, 3695.093
235.7632, 3715.290
236.2453, 3734.766
236.7274, 3750.907
237.2095, 3767.725
237.6916, 3789.132
238.1738, 3815.347
238.6559, 3842.287
239.1380, 3863.966
239.6201, 3877.712
240.1022, 3896.362
240.5843, 3918.851
241.0665, 3947.533
241.5486, 3990.700
242.0307, 4044.502
242.5128, 4092.064
242.9949, 4110.301
243.4770, 4094.634
243.9592, 4105.771
244.4413, 4171.984
244.9234, 4240.162
245.4055, 4290.708
245.8876, 4326.932
246.3697, 4359.875
246.8519, 4393.513
247.3340, 4429.966
247.8161, 4487.116
248.2982, 4579.842
248.7803, 4675.051
249.2624, 4758.849
249.7446, 4837.842
250.2267, 4922.119
250.7088, 5017.270
251.1909, 5121.838
251.6730, 5231.119
252.1551, 5342.076
252.6373, 5465.788
253.1194, 5608.276
253.6015, 5762.241
254.0836, 5923.591
254.5657, 6093.382
255.0478, 6260.040
255.5300, 6411.675
256.0121, 6553.734
256.4942, 6657.603
256.9763, 6695.727
257.4584, 6702.291
257.9406, 6697.054
258.4227, 6683.758
258.9048, 6662.929
259.3869, 6628.164
259.8690, 6578.063
260.3511, 6544.935
260.8333, 6526.757
261.3154, 6537.598
261.7975, 6590.874
262.2796, 6685.211
262.7617, 6796.253
263.2438, 6919.058
263.7260, 7048.814
264.2081, 7157.613
264.6902, 7246.917
265.1723, 7305.516
265.6544, 7328.915
266.1365, 7319.801
266.6187, 7283.010
267.1008, 7215.369
267.5829, 7122.588
268.0650, 7012.107
268.5471, 6878.902
269.0292, 6745.605
269.5114, 6621.949
269.9935, 6509.931
270.4756, 6415.494
270.9577, 6341.825
271.4398, 6285.095
271.9219, 6241.049
272.4041, 6209.598
272.8862, 6193.048
273.3683, 6194.127
273.8504, 6211.751
274.3325, 6240.094
274.8146, 6278.195
275.2968, 6328.620
275.7789, 6391.205
276.2610, 6466.838
276.7431, 6561.027
277.2252, 6678.427
277.7073, 6812.557
278.1895, 6950.497
278.6716, 7087.635
279.1537, 7243.846
279.6358, 7430.655
280.1179, 7640.117
280.6000, 7860.357
281.0822, 8090.742
281.5643, 8323.765
282.0464, 8559.783
282.5285, 8800.824
283.0106, 9003.081
283.4927, 9174.043
283.9749, 9295.829
284.4570, 9357.758
284.9391, 9357.617
285.4212, 9287.377
285.9033, 9134.112
286.3854, 8895.704
286.8676, 8632.009
287.3497, 8335.842
287.8318, 8023.792
288.3139, 7684.263
288.7960, 7332.519
289.2781, 7009.105
289.7603, 6736.728
290.2424, 6508.550
290.7245, 6303.055
291.2066, 6093.521
291.6887, 5936.690
292.1708, 5892.367
292.6530, 5887.442
293.1351, 5823.636
293.6172, 5667.353
294.0993, 5469.153
294.5814, 5318.952
295.0635, 5240.588
295.5457, 5169.403
296.0278, 5098.906
296.5099, 5039.913
296.9920, 5006.337
297.4741, 4995.877
297.9562, 4990.369
298.4384, 4970.038
298.9205, 4931.434
299.4026, 4901.833
299.8847, 4885.671
300.3668, 4873.755
300.8489, 4866.072
301.3310, 4860.125
301.8131, 4851.931
302.2953, 4838.859
302.7774, 4821.431
303.2595, 4801.197
303.7416, 4767.733
304.2237, 4747.936
304.7058, 4759.231
305.1880, 4780.259
305.6701, 4785.671
306.1522, 4765.611
306.6343, 4736.836
307.1164, 4728.265
307.5985, 4745.964
308.0807, 4761.390
308.5628, 4766.588
309.0449, 4770.063
309.5270, 4776.127
310.0091, 4785.387
310.4912, 4796.695
310.9734, 4812.808
311.4555, 4832.441
311.9376, 4839.540
312.4197, 4825.134
312.9018, 4809.115
313.3839, 4801.894
313.8661, 4802.594
314.3482, 4809.550
314.8303, 4826.365
315.3124, 4847.067
315.7945, 4860.048
316.2766, 4863.873
316.7588, 4868.213
317.2409, 4877.116
317.7230, 4890.326
318.2051, 4908.083
318.6872, 4933.510
319.1693, 4957.898
319.6515, 4971.881
320.1336, 4978.183
320.6157, 4989.375
321.0978, 5009.905
321.5799, 5036.703
322.0620, 5065.940
322.5442, 5097.478
323.0263, 5130.151
323.5084, 5168.248
323.9905, 5205.479
324.4726, 5232.225
324.9547, 5247.023
325.4369, 5257.495
325.9190, 5267.619
326.4011, 5277.007
326.8832, 5307.106
327.3653, 5372.268
327.8474, 5444.182
328.3296, 5517.017
328.8117, 5584.685
329.2938, 5631.309
329.7759, 5645.859
330.2580, 5635.824
330.7401, 5634.638
331.2223, 5658.809
331.7044, 5671.333
332.1865, 5669.679
332.6686, 5653.961
333.1507, 5622.819
333.6328, 5576.371
334.1150, 5518.488
334.5971, 5449.624
335.0792, 5350.572
335.5613, 5295.631
336.0434, 5316.111
336.5255, 5347.437
337.0077, 5361.858
337.4898, 5357.804
337.9719, 5343.584
338.4540, 5323.116
338.9361, 5297.958
339.4182, 5282.562
339.9004, 5282.200
340.3825, 5284.571
340.8646, 5285.168
341.3467, 5286.299
341.8288, 5291.506
342.3109, 5302.619
342.7931, 5315.876
343.2752, 5324.133
343.7573, 5325.878
344.2394, 5334.129
344.7215, 5362.333
345.2036, 5389.714
345.6858, 5395.557
346.1679, 5379.679
346.6500, 5367.947
347.1321, 5379.020
347.6142, 5406.605
348.0963, 5435.246
348.5785, 5465.339
349.0606, 5490.715
349.5427, 5504.676
350.0248, 5509.763
350.5069, 5512.556
350.9890, 5508.057
351.4712, 5506.549
351.9533, 5518.401
352.4354, 5541.615
352.9175, 5566.357
353.3996, 5589.327
353.8817, 5609.452
354.3639, 5622.376
354.8460, 5622.247
355.3281, 5628.458
355.8102, 5654.905
356.2923, 5685.622
356.7744, 5698.660
357.2566, 5690.237
357.7387, 5676.521
358.2208, 5675.964
358.7029, 5691.901
359.1850, 5702.746
359.6671, 5700.887
360.1493, 5702.170
360.6314, 5717.584
361.1135, 5741.576
361.5956, 5761.518
362.0777, 5769.876
362.5598, 5769.343
363.0420, 5769.361
363.5241, 5766.997
364.0062, 5770.400
364.4883, 5783.068
364.9704, 5799.548
365.4525, 5815.972
365.9347, 5831.215
366.4168, 5845.626
366.8989, 5856.020
367.3810, 5861.389
367.8631, 5882.466
368.3452, 5935.177
368.8274, 5985.918
369.3095, 6012.655
369.7916, 6024.520
370.2737, 6044.242
370.7558, 6088.209
371.2379, 6141.419
371.7201, 6179.234
372.2022, 6201.013
372.6843, 6213.344
373.1664, 6219.344
373.6485, 6215.992
374.1306, 6197.269
374.6128, 6157.190
375.0949, 6122.672
375.5770, 6115.509
376.0591, 6122.641
376.5412, 6116.428
377.0233, 6090.137
377.5055, 6058.875
377.9876, 6036.208
378.4697, 6023.138
378.9518, 6018.641
379.4339, 6032.432
379.9160, 6046.107
380.3982, 6044.607
380.8803, 6033.448
381.3624, 6029.275
381.8445, 6041.460
382.3266, 6065.400
382.8087, 6087.573
383.2909, 6109.012
383.7730, 6126.681
384.2551, 6139.412
384.7372, 6149.114
385.2193, 6157.487
385.7014, 6164.705
386.1836, 6169.382
386.6657, 6167.900
387.1478, 6159.294
387.6299, 6163.611
388.1120, 6194.203
388.5941, 6222.813
389.0763, 6235.479
389.5584, 6241.278
390.0405, 6256.159
390.5226, 6289.445
391.0047, 6327.691
391.4868, 6343.831
391.9690, 6333.471
392.4511, 6344.015
392.9332, 6406.299
393.4153, 6477.860
393.8974, 6515.518
394.3795, 6519.239
394.8617, 6522.745
395.3438, 6541.948
395.8259, 6571.611
396.3080, 6604.851
396.7901, 6641.275
397.2722, 6676.278
397.7544, 6702.945
398.2365, 6725.630
398.7186, 6765.229
399.2007, 6841.146
399.6828, 6911.443
400.1649, 6955.587
400.6471, 6984.349
401.1292, 7018.625
401.6113, 7065.533
402.0934, 7110.309
402.5755, 7130.234
403.0576, 7114.094
403.5398, 7106.206
404.0219, 7121.702
404.5040, 7130.244
404.9861, 7112.153
405.4682, 7073.801
405.9503, 7031.718
406.4325, 6994.813
406.9146, 6965.382
407.3967, 6953.210
407.8788, 6964.797
408.3609, 6980.856
408.8430, 6994.336
409.3252, 7012.583
409.8073, 7045.461
410.2894, 7093.210
410.7715, 7139.834
411.2536, 7172.133
411.7357, 7191.645
412.2179, 7206.955
412.7000, 7222.728
413.1821, 7224.191
413.6642, 7188.934
414.1463, 7132.641
414.6284, 7086.469
415.1106, 7060.904
415.5927, 7040.858
416.0748, 7009.679
416.5569, 6974.230
417.0390, 6959.689
417.5211, 6977.980
418.0033, 7008.002
418.4854, 7017.986
418.9675, 7000.768
419.4496, 6986.629
419.9317, 6975.665
420.4138, 6968.847
420.8960, 6967.255
421.3781, 6970.425
421.8602, 6975.030
422.3423, 6977.594
422.8244, 6983.020
423.3065, 7015.379
423.7887, 7121.237
424.2708, 7179.567
424.7529, 7143.051
425.2350, 7082.185
425.7171, 7053.564
426.1992, 7065.106
426.6814, 7088.399
427.1635, 7092.621
427.6456, 7080.946
428.1277, 7094.955
428.6098, 7151.614
429.0919, 7201.247
429.5741, 7211.649
430.0562, 7200.893
430.5383, 7193.526
431.0204, 7193.261
431.5025, 7201.927
431.9846, 7225.671
432.4668, 7260.406
432.9489, 7289.280
433.4310, 7305.382
433.9131, 7323.771
434.3952, 7366.180
434.8773, 7435.886
435.3595, 7491.803
435.8416, 7527.381
436.3237, 7552.314
436.8058, 7561.540
437.2879, 7564.944
437.7701, 7586.711
438.2522, 7640.029
438.7343, 7713.856
439.2164, 7779.876
439.6985, 7831.882
440.1806, 7886.716
440.6628, 7945.234
441.1449, 8006.372
441.6270, 8070.188
442.1091, 8136.108
442.5912, 8202.639
443.0733, 8265.951
443.5555, 8329.682
444.0376, 8409.783
444.5197, 8511.807
445.0018, 8614.701
445.4839, 8700.947
445.9660, 8790.327
446.4482, 8903.551
446.9303, 9043.822
447.4124, 9198.906
447.8945, 9363.542
448.3766, 9537.491
448.8587, 9719.261
449.3409, 9909.509
449.8230, 10106.75
450.3051, 10312.15
450.7872, 10525.42
451.2693, 10738.32
451.7514, 10988.43
452.2336, 11194.89
452.7157, 11333.50
453.1978, 11411.02
453.6799, 11432.84
454.1620, 11401.72
454.6441, 11324.40
455.1263, 11206.80
455.6084, 11045.05
456.0905, 10865.85
456.5726, 10654.15
457.0547, 10441.17
457.5368, 10218.92
458.0190, 10005.87
458.5011, 9829.792
458.9832, 9703.098
459.4653, 9612.998
459.9474, 9544.380
460.4295, 9497.635
460.9117, 9462.792
461.3938, 9438.021
461.8759, 9425.275
462.3580, 9425.530
462.8401, 9438.154
463.3222, 9462.736
463.8044, 9492.367
464.2865, 9539.365
464.7686, 9625.111
465.2507, 9740.338
465.7328, 9846.527
466.2149, 9924.676
466.6971, 9992.902
467.1792, 10084.58
467.6613, 10207.08
468.1434, 10341.16
468.6255, 10475.24
469.1076, 10630.67
469.5898, 10832.67
470.0719, 11068.12
470.5540, 11297.30
471.0361, 11495.40
471.5182, 11673.19
472.0003, 11870.67
472.4825, 12101.12
472.9646, 12311.47
473.4467, 12511.99
473.9288, 12670.40
474.4109, 12766.33
474.8930, 12797.46
475.3752, 12766.78
475.8573, 12652.31
476.3394, 12486.72
476.8215, 12325.69
477.3036, 12170.93
477.7857, 11993.94
478.2679, 11768.52
478.7500, 11522.05
479.2321, 11318.08
479.7142, 11158.18
480.1963, 11029.75
480.6784, 10948.41
481.1606, 10885.57
481.6427, 10815.16
482.1248, 10736.09
482.6069, 10663.93
483.0890, 10611.99
483.5711, 10574.22
484.0533, 10514.60
484.5354, 10415.52
485.0175, 10322.87
485.4996, 10251.83
485.9817, 10183.01
486.4638, 10097.97
486.9460, 9996.437
487.4281, 9897.933
487.9102, 9812.189
488.3923, 9741.310
488.8744, 9692.867
489.3565, 9668.200
489.8387, 9659.411
490.3208, 9668.087
490.8029, 9688.240
491.2850, 9703.768
491.7671, 9706.950
492.2492, 9727.529
492.7314, 9792.940
493.2135, 9871.082
493.6956, 9922.109
494.1777, 9944.575
494.6598, 9963.422
495.1419, 9994.383
495.6241, 10040.12
496.1062, 10119.66
496.5883, 10252.50
497.0704, 10393.55
497.5525, 10536.23
498.0346, 10686.79
498.5168, 10847.91
498.9989, 11021.14
499.4810, 11210.11
499.9631, 11423.49
500.4452, 11655.17
500.9273, 11871.21
501.4095, 12061.25
501.8916, 12282.12
502.3737, 12572.33
502.8558, 12902.57
503.3379, 13216.14
503.8200, 13499.02
504.3022, 13816.20
504.7843, 14201.59
505.2664, 14627.72
505.7485, 15050.64
506.2306, 15473.81
506.7127, 15934.90
507.1949, 16463.27
507.6770, 17049.19
508.1591, 17644.18
508.6412, 18260.61
509.1233, 18872.50
509.6054, 19515.08
510.0876, 20125.10
510.5697, 20677.57
511.0518, 21155.13
511.5339, 21526.00
512.0161, 21781.79
512.4982, 21905.29
512.9803, 21851.11
513.4624, 21618.52
513.9445, 21204.69
514.4266, 20548.87
514.9088, 19754.06
515.3909, 18945.97
515.8730, 18120.59
516.3551, 17318.82
516.8372, 16512.99
517.3193, 15763.52
517.8015, 15129.23
518.2836, 14601.40
518.7657, 14115.13
519.2478, 13636.87
519.7299, 13187.29
520.2120, 12818.88
520.6942, 12567.07
521.1763, 12329.70
521.6584, 12094.48
522.1405, 11883.28
522.6226, 11713.75
523.1047, 11577.36
523.5869, 11454.16
524.0690, 11331.52
524.5511, 11219.46
525.0332, 11139.48
525.5153, 11091.38
525.9974, 11041.73
526.4796, 10981.31
526.9617, 10919.01
527.4438, 10861.48
527.9259, 10808.79
528.4080, 10769.10
528.8901, 10752.90
529.3723, 10740.78
529.8544, 10722.49
530.3365, 10699.69
530.8186, 10676.55
531.3007, 10654.38
531.7828, 10631.11
532.2650, 10600.29
532.7471, 10555.71
533.2292, 10542.40
533.7113, 10595.58
534.1934, 10640.26
534.6755, 10652.83
535.1577, 10643.88
535.6398, 10625.06
536.1219, 10598.16
536.6040, 10575.89
537.0861, 10571.69
537.5682, 10581.70
538.0504, 10595.47
538.5325, 10612.62
539.0146, 10627.16
539.4967, 10636.43
539.9788, 10639.24
540.4609, 10630.12
540.9431, 10586.29
541.4252, 10562.77
541.9073, 10587.41
542.3894, 10626.42
542.8715, 10649.06
543.3536, 10652.01
543.8358, 10647.03
544.3179, 10642.09
544.8000, 10638.22
545.2821, 10639.74
545.7642, 10646.49
546.2463, 10659.24
546.7285, 10690.77
547.2106, 10718.74
547.6926, 10718.40
548.1747, 10692.57
548.6569, 10679.57
549.1390, 10707.54
549.6211, 10748.58
550.1032, 10772.63
550.5853, 10782.30
551.0674, 10790.69
551.5496, 10802.79
552.0317, 10817.87
552.5138, 10835.24
552.9959, 10856.69
553.4780, 10874.46
553.9601, 10887.75
554.4423, 10898.88
554.9244, 10903.59
555.4065, 10908.37
555.8886, 10926.73
556.3707, 10964.25
556.8528, 11000.09
557.3350, 10999.83
557.8171, 10970.21
558.2992, 10971.05
558.7813, 11017.16
559.2634, 11064.08
559.7455, 11081.56
560.2277, 11077.29
560.7098, 11077.59
561.1919, 11080.03
561.6740, 11091.60
562.1561, 11116.98
562.6382, 11151.07
563.1204, 11198.03
563.6025, 11251.56
564.0846, 11285.79
564.5667, 11279.32
565.0488, 11243.96
565.5309, 11225.12
566.0131, 11223.49
566.4952, 11236.74
566.9773, 11286.14
567.4594, 11333.02
567.9415, 11345.59
568.4236, 11331.20
568.9058, 11327.77
569.3879, 11358.59
569.8700, 11400.79
570.3521, 11431.16
570.8342, 11453.42
571.3163, 11482.67
571.7985, 11524.52
572.2806, 11564.00
572.7627, 11581.22
573.2448, 11572.87
573.7269, 11574.10
574.2090, 11585.90
574.6912, 11605.61
575.1733, 11641.66
575.6554, 11680.53
576.1375, 11702.80
576.6196, 11706.20
577.1017, 11714.32
577.5839, 11751.57
578.0660, 11810.61
578.5481, 11871.66
579.0302, 11936.45
579.5123, 11982.43
579.9944, 11989.90
580.4766, 11980.57
580.9587, 11999.42
581.4408, 12054.81
581.9229, 12097.94
582.4050, 12121.11
582.8871, 12130.71
583.3693, 12126.02
583.8514, 12111.69
584.3335, 12094.71
584.8156, 12078.27
585.2977, 12064.45
585.7798, 12057.66
586.2620, 12058.69
586.7441, 12056.58
587.2262, 12044.96
587.7083, 12039.87
588.1904, 12055.24
588.6725, 12081.81
589.1547, 12105.87
589.6368, 12127.27
590.1189, 12141.83
590.6010, 12135.69
591.0831, 12127.99
591.5652, 12149.21
592.0474, 12196.85
592.5295, 12241.01
593.0116, 12261.72
593.4937, 12265.07
593.9758, 12269.67
594.4579, 12275.91
594.9401, 12282.41
595.4222, 12286.39
595.9043, 12293.07
596.3864, 12309.01
596.8685, 12329.67
597.3506, 12342.61
597.8328, 12338.49
598.3149, 12334.54
598.7970, 12347.26
599.2791, 12372.26
599.7612, 12399.18
600.2433, 12426.13
600.7255, 12452.34
601.2076, 12476.61
601.6897, 12499.62
602.1718, 12526.89
602.6539, 12567.04
603.1360, 12599.51
603.6182, 12623.49
604.1003, 12638.85
604.5824, 12635.39
605.0645, 12621.22
605.5466, 12625.86
606.0287, 12675.83
606.5109, 12740.79
606.9930, 12771.69
607.4751, 12773.18
607.9572, 12784.87
608.4393, 12820.25
608.9214, 12853.00
609.4036, 12850.90
609.8857, 12813.85
610.3678, 12809.89
610.8499, 12867.50
611.3320, 12918.73
611.8141, 12947.01
612.2963, 12962.08
612.7784, 12969.87
613.2605, 12973.79
613.7426, 12980.34
614.2247, 12995.57
614.7068, 13015.96
615.1890, 13030.09
615.6711, 13037.21
616.1532, 13056.74
616.6353, 13098.72
617.1174, 13146.97
617.5995, 13183.78
618.0817, 13208.95
618.5638, 13232.65
619.0459, 13254.31
619.5280, 13275.61
620.0101, 13298.16
620.4922, 13320.20
620.9744, 13338.77
621.4565, 13353.82
621.9386, 13368.30
622.4207, 13381.62
622.9028, 13397.85
623.3849, 13439.31
623.8671, 13513.49
624.3492, 13567.18
624.8313, 13572.21
625.3134, 13563.87
625.7955, 13588.39
626.2776, 13643.56
626.7598, 13685.67
627.2419, 13699.71
627.7240, 13708.97
628.2061, 13716.89
628.6882, 13730.59
629.1703, 13766.79
629.6525, 13825.22
630.1346, 13877.99
630.6167, 13894.49
631.0988, 13882.23
631.5809, 13881.86
632.0630, 13892.91
632.5452, 13918.45
633.0273, 13965.87
633.5094, 14022.46
633.9915, 14080.64
634.4736, 14139.60
634.9557, 14177.08
635.4379, 14173.09
635.9200, 14162.48
636.4021, 14156.46
