##NAMES=Microcline
##RRUFFID=R120005
##IDEAL CHEMISTRY=KAlSi_3_O_8_
##LOCALITY=Mount Malosa, Zomba District, Malawi
##OWNER=RRUFF
##SOURCE=Marcus Origlieri
##DESCRIPTION=Tan colored euhedral crystals associated with black arfvedsonite
##STATUS=The identification of this mineral has been confirmed by single-crystal X-ray diffraction.
##URL=rruff.info/R120005
9.112140e+001, 0.000000e+000
9.160352e+001, 9.791986e+002
9.208563e+001, 9.641151e+002
9.256775e+001, 9.623975e+002
9.304987e+001, 9.816439e+002
9.353198e+001, 1.004123e+003
9.401410e+001, 1.013460e+003
9.449622e+001, 1.010273e+003
9.497833e+001, 9.993832e+002
9.546045e+001, 9.841963e+002
9.594257e+001, 9.645329e+002
9.642468e+001, 9.480051e+002
9.690680e+001, 9.362377e+002
9.738892e+001, 9.262916e+002
9.787103e+001, 9.174604e+002
9.835315e+001, 9.084877e+002
9.883527e+001, 8.989123e+002
9.931738e+001, 8.908536e+002
9.979950e+001, 8.849196e+002
1.002816e+002, 8.796495e+002
1.007637e+002, 8.736830e+002
1.012458e+002, 8.686008e+002
1.017280e+002, 8.658298e+002
1.022101e+002, 8.656494e+002
1.026922e+002, 8.675166e+002
1.031743e+002, 8.708724e+002
1.036564e+002, 8.752734e+002
1.041385e+002, 8.812113e+002
1.046207e+002, 8.885018e+002
1.051028e+002, 8.972861e+002
1.055849e+002, 9.086433e+002
1.060670e+002, 9.245680e+002
1.065491e+002, 9.413059e+002
1.070313e+002, 9.557664e+002
1.075134e+002, 9.681461e+002
1.079955e+002, 9.766581e+002
1.084776e+002, 9.797766e+002
1.089597e+002, 9.776451e+002
1.094418e+002, 9.691074e+002
1.099240e+002, 9.504260e+002
1.104061e+002, 9.273910e+002
1.108882e+002, 9.032484e+002
1.113703e+002, 8.790334e+002
1.118524e+002, 8.556071e+002
1.123345e+002, 8.352396e+002
1.128167e+002, 8.180929e+002
1.132988e+002, 8.045038e+002
1.137809e+002, 7.950463e+002
1.142630e+002, 7.887346e+002
1.147451e+002, 7.844303e+002
1.152272e+002, 7.815217e+002
1.157094e+002, 7.799480e+002
1.161915e+002, 7.791858e+002
1.166736e+002, 7.796897e+002
1.171557e+002, 7.803874e+002
1.176378e+002, 7.804866e+002
1.181199e+002, 7.803073e+002
1.186021e+002, 7.809521e+002
1.190842e+002, 7.833166e+002
1.195663e+002, 7.876459e+002
1.200484e+002, 7.929335e+002
1.205305e+002, 7.994024e+002
1.210126e+002, 8.066628e+002
1.214948e+002, 8.144727e+002
1.219769e+002, 8.228317e+002
1.224590e+002, 8.314889e+002
1.229411e+002, 8.405530e+002
1.234232e+002, 8.498216e+002
1.239053e+002, 8.583209e+002
1.243875e+002, 8.660060e+002
1.248696e+002, 8.726837e+002
1.253517e+002, 8.777962e+002
1.258338e+002, 8.813497e+002
1.263159e+002, 8.829400e+002
1.267980e+002, 8.830487e+002
1.272802e+002, 8.815593e+002
1.277623e+002, 8.779610e+002
1.282444e+002, 8.714781e+002
1.287265e+002, 8.619517e+002
1.292086e+002, 8.515463e+002
1.296907e+002, 8.389631e+002
1.301729e+002, 8.265422e+002
1.306550e+002, 8.154937e+002
1.311371e+002, 8.059162e+002
1.316192e+002, 7.970417e+002
1.321013e+002, 7.875657e+002
1.325834e+002, 7.756412e+002
1.330656e+002, 7.669210e+002
1.335477e+002, 7.617059e+002
1.340298e+002, 7.589151e+002
1.345119e+002, 7.581413e+002
1.349940e+002, 7.591497e+002
1.354761e+002, 7.614039e+002
1.359583e+002, 7.637025e+002
1.364404e+002, 7.653093e+002
1.369225e+002, 7.679161e+002
1.374046e+002, 7.718517e+002
1.378867e+002, 7.768094e+002
1.383688e+002, 7.827012e+002
1.388510e+002, 7.898121e+002
1.393331e+002, 7.971971e+002
1.398152e+002, 8.016964e+002
1.402973e+002, 8.028953e+002
1.407794e+002, 8.027062e+002
1.412615e+002, 8.010857e+002
1.417437e+002, 7.984102e+002
1.422258e+002, 7.963136e+002
1.427079e+002, 7.955256e+002
1.431900e+002, 7.960790e+002
1.436721e+002, 7.975172e+002
1.441542e+002, 7.995809e+002
1.446364e+002, 8.028380e+002
1.451185e+002, 8.082703e+002
1.456006e+002, 8.162078e+002
1.460827e+002, 8.242966e+002
1.465648e+002, 8.315026e+002
1.470469e+002, 8.381960e+002
1.475291e+002, 8.447924e+002
1.480112e+002, 8.516540e+002
1.484933e+002, 8.582825e+002
1.489754e+002, 8.637344e+002
1.494575e+002, 8.686476e+002
1.499396e+002, 8.709427e+002
1.504218e+002, 8.697772e+002
1.509039e+002, 8.662160e+002
1.513860e+002, 8.614413e+002
1.518681e+002, 8.558858e+002
1.523502e+002, 8.497308e+002
1.528323e+002, 8.448596e+002
1.533145e+002, 8.418467e+002
1.537966e+002, 8.397451e+002
1.542787e+002, 8.387077e+002
1.547608e+002, 8.384485e+002
1.552429e+002, 8.386364e+002
1.557250e+002, 8.391722e+002
1.562072e+002, 8.401966e+002
1.566893e+002, 8.391768e+002
1.571714e+002, 8.356790e+002
1.576535e+002, 8.310058e+002
1.581356e+002, 8.256635e+002
1.586177e+002, 8.196449e+002
1.590999e+002, 8.125922e+002
1.595820e+002, 8.041044e+002
1.600641e+002, 7.938775e+002
1.605462e+002, 7.834465e+002
1.610283e+002, 7.719420e+002
1.615104e+002, 7.608702e+002
1.619926e+002, 7.515663e+002
1.624747e+002, 7.442090e+002
1.629568e+002, 7.376268e+002
1.634389e+002, 7.304995e+002
1.639210e+002, 7.228884e+002
1.644031e+002, 7.167025e+002
1.648853e+002, 7.129471e+002
1.653674e+002, 7.106190e+002
1.658495e+002, 7.083351e+002
1.663316e+002, 7.058232e+002
1.668137e+002, 7.035596e+002
1.672958e+002, 7.020510e+002
1.677780e+002, 7.011549e+002
1.682601e+002, 7.004960e+002
1.687422e+002, 6.995936e+002
1.692243e+002, 6.987059e+002
1.697064e+002, 6.989432e+002
1.701885e+002, 7.008210e+002
1.706707e+002, 7.034601e+002
1.711528e+002, 7.061509e+002
1.716349e+002, 7.089595e+002
1.721170e+002, 7.122186e+002
1.725991e+002, 7.161071e+002
1.730812e+002, 7.206166e+002
1.735634e+002, 7.259159e+002
1.740455e+002, 7.324089e+002
1.745276e+002, 7.395244e+002
1.750097e+002, 7.471661e+002
1.754918e+002, 7.552658e+002
1.759739e+002, 7.636721e+002
1.764561e+002, 7.726208e+002
1.769382e+002, 7.831757e+002
1.774203e+002, 7.906789e+002
1.779024e+002, 7.955829e+002
1.783845e+002, 7.975362e+002
1.788666e+002, 7.960080e+002
1.793488e+002, 7.910799e+002
1.798309e+002, 7.832605e+002
1.803130e+002, 7.730611e+002
1.807951e+002, 7.590440e+002
1.812772e+002, 7.457809e+002
1.817593e+002, 7.326179e+002
1.822415e+002, 7.205192e+002
1.827236e+002, 7.105869e+002
1.832057e+002, 7.029684e+002
1.836878e+002, 6.965726e+002
1.841699e+002, 6.897322e+002
1.846520e+002, 6.817322e+002
1.851342e+002, 6.748515e+002
1.856163e+002, 6.692113e+002
1.860984e+002, 6.646985e+002
1.865805e+002, 6.613755e+002
1.870626e+002, 6.593001e+002
1.875447e+002, 6.579892e+002
1.880269e+002, 6.567231e+002
1.885090e+002, 6.554664e+002
1.889911e+002, 6.543565e+002
1.894732e+002, 6.534178e+002
1.899553e+002, 6.526465e+002
1.904374e+002, 6.520142e+002
1.909196e+002, 6.514605e+002
1.914017e+002, 6.511514e+002
1.918838e+002, 6.512133e+002
1.923659e+002, 6.515544e+002
1.928480e+002, 6.525330e+002
1.933301e+002, 6.546273e+002
1.938123e+002, 6.575657e+002
1.942944e+002, 6.603787e+002
1.947765e+002, 6.628092e+002
1.952586e+002, 6.650243e+002
1.957407e+002, 6.673267e+002
1.962228e+002, 6.697165e+002
1.967050e+002, 6.718261e+002
1.971871e+002, 6.735348e+002
1.976692e+002, 6.748281e+002
1.981513e+002, 6.753736e+002
1.986334e+002, 6.753024e+002
1.991155e+002, 6.741476e+002
1.995977e+002, 6.715435e+002
2.000798e+002, 6.674938e+002
2.005619e+002, 6.625432e+002
2.010440e+002, 6.570069e+002
2.015261e+002, 6.507500e+002
2.020082e+002, 6.446098e+002
2.024904e+002, 6.384028e+002
2.029725e+002, 6.325351e+002
2.034546e+002, 6.271451e+002
2.039367e+002, 6.222789e+002
2.044188e+002, 6.179684e+002
2.049009e+002, 6.142566e+002
2.053831e+002, 6.111218e+002
2.058652e+002, 6.087320e+002
2.063473e+002, 6.077093e+002
2.068294e+002, 6.068925e+002
2.073115e+002, 6.055492e+002
2.077936e+002, 6.036053e+002
2.082758e+002, 6.015470e+002
2.087579e+002, 6.001075e+002
2.092400e+002, 5.997198e+002
2.097221e+002, 5.990155e+002
2.102042e+002, 5.975947e+002
2.106863e+002, 5.961906e+002
2.111685e+002, 5.953481e+002
2.116506e+002, 5.951488e+002
2.121327e+002, 5.952367e+002
2.126148e+002, 5.950914e+002
2.130969e+002, 5.945131e+002
2.135790e+002, 5.941219e+002
2.140612e+002, 5.940930e+002
2.145433e+002, 5.941287e+002
2.150254e+002, 5.939178e+002
2.155075e+002, 5.934100e+002
2.159896e+002, 5.929024e+002
2.164717e+002, 5.928691e+002
2.169539e+002, 5.937306e+002
2.174360e+002, 5.940098e+002
2.179181e+002, 5.932168e+002
2.184002e+002, 5.920634e+002
2.188823e+002, 5.911624e+002
2.193644e+002, 5.906634e+002
2.198466e+002, 5.905263e+002
2.203287e+002, 5.908461e+002
2.208108e+002, 5.917789e+002
2.212929e+002, 5.922762e+002
2.217750e+002, 5.919323e+002
2.222571e+002, 5.911819e+002
2.227393e+002, 5.905873e+002
2.232214e+002, 5.902906e+002
2.237035e+002, 5.900048e+002
2.241856e+002, 5.892346e+002
2.246677e+002, 5.880202e+002
2.251498e+002, 5.871160e+002
2.256320e+002, 5.869301e+002
2.261141e+002, 5.871228e+002
2.265962e+002, 5.871198e+002
2.270783e+002, 5.867828e+002
2.275604e+002, 5.863889e+002
2.280425e+002, 5.862183e+002
2.285247e+002, 5.862269e+002
2.290068e+002, 5.862698e+002
2.294889e+002, 5.863086e+002
2.299710e+002, 5.863416e+002
2.304531e+002, 5.863572e+002
2.309352e+002, 5.863349e+002
2.314174e+002, 5.863359e+002
2.318995e+002, 5.863400e+002
2.323816e+002, 5.863842e+002
2.328637e+002, 5.865999e+002
2.333458e+002, 5.870273e+002
2.338279e+002, 5.876707e+002
2.343101e+002, 5.885779e+002
2.347922e+002, 5.898242e+002
2.352743e+002, 5.912166e+002
2.357564e+002, 5.926533e+002
2.362385e+002, 5.941285e+002
2.367206e+002, 5.956543e+002
2.372028e+002, 5.973124e+002
2.376849e+002, 5.990234e+002
2.381670e+002, 6.004672e+002
2.386491e+002, 6.015445e+002
2.391312e+002, 6.024728e+002
2.396133e+002, 6.033097e+002
2.400955e+002, 6.040932e+002
2.405776e+002, 6.048519e+002
2.410597e+002, 6.054818e+002
2.415418e+002, 6.061287e+002
2.420239e+002, 6.075333e+002
2.425060e+002, 6.103151e+002
2.429882e+002, 6.130586e+002
2.434703e+002, 6.152473e+002
2.439524e+002, 6.171592e+002
2.444345e+002, 6.191063e+002
2.449166e+002, 6.211544e+002
2.453987e+002, 6.235011e+002
2.458809e+002, 6.271403e+002
2.463630e+002, 6.336949e+002
2.468451e+002, 6.394650e+002
2.473272e+002, 6.430997e+002
2.478093e+002, 6.457233e+002
2.482914e+002, 6.488563e+002
2.487736e+002, 6.533735e+002
2.492557e+002, 6.588168e+002
2.497378e+002, 6.632213e+002
2.502199e+002, 6.648117e+002
2.507020e+002, 6.676108e+002
2.511841e+002, 6.726596e+002
2.516663e+002, 6.789739e+002
2.521484e+002, 6.852816e+002
2.526305e+002, 6.909949e+002
2.531126e+002, 6.964647e+002
2.535947e+002, 7.029841e+002
2.540768e+002, 7.122699e+002
2.545590e+002, 7.204822e+002
2.550411e+002, 7.267624e+002
2.555232e+002, 7.321195e+002
2.560053e+002, 7.380030e+002
2.564874e+002, 7.449899e+002
2.569695e+002, 7.521261e+002
2.574517e+002, 7.570964e+002
2.579338e+002, 7.580518e+002
2.584159e+002, 7.588209e+002
2.588980e+002, 7.592136e+002
2.593801e+002, 7.595260e+002
2.598622e+002, 7.598219e+002
2.603444e+002, 7.601491e+002
2.608265e+002, 7.610077e+002
2.613086e+002, 7.633676e+002
2.617907e+002, 7.683381e+002
2.622728e+002, 7.732420e+002
2.627549e+002, 7.778263e+002
2.632371e+002, 7.824537e+002
2.637192e+002, 7.880953e+002
2.642013e+002, 7.949293e+002
2.646834e+002, 8.011232e+002
2.651655e+002, 8.039534e+002
2.656476e+002, 8.024103e+002
2.661298e+002, 7.991666e+002
2.666119e+002, 7.942062e+002
2.670940e+002, 7.875939e+002
2.675761e+002, 7.791010e+002
2.680582e+002, 7.687065e+002
2.685403e+002, 7.573088e+002
2.690225e+002, 7.458251e+002
2.695046e+002, 7.342333e+002
2.699867e+002, 7.227364e+002
2.704688e+002, 7.102643e+002
2.709509e+002, 6.986000e+002
2.714330e+002, 6.894015e+002
2.719152e+002, 6.828387e+002
2.723973e+002, 6.777452e+002
2.728794e+002, 6.730900e+002
2.733615e+002, 6.689513e+002
2.738436e+002, 6.661006e+002
2.743257e+002, 6.650223e+002
2.748079e+002, 6.648806e+002
2.752900e+002, 6.650998e+002
2.757721e+002, 6.656395e+002
2.762542e+002, 6.666217e+002
2.767363e+002, 6.681009e+002
2.772184e+002, 6.701726e+002
2.777006e+002, 6.729041e+002
2.781827e+002, 6.759606e+002
2.786648e+002, 6.799261e+002
2.791469e+002, 6.855366e+002
2.796290e+002, 6.926196e+002
2.801111e+002, 6.999347e+002
2.805933e+002, 7.067280e+002
2.810754e+002, 7.132231e+002
2.815575e+002, 7.202852e+002
2.820396e+002, 7.288310e+002
2.825217e+002, 7.368222e+002
2.830038e+002, 7.431813e+002
2.834860e+002, 7.479680e+002
2.839681e+002, 7.517259e+002
2.844502e+002, 7.552044e+002
2.849323e+002, 7.571510e+002
2.854144e+002, 7.555784e+002
2.858965e+002, 7.500610e+002
2.863787e+002, 7.424189e+002
2.868608e+002, 7.332372e+002
2.873429e+002, 7.226713e+002
2.878250e+002, 7.108821e+002
2.883071e+002, 6.972695e+002
2.887892e+002, 6.833571e+002
2.892714e+002, 6.712444e+002
2.897535e+002, 6.610041e+002
2.902356e+002, 6.515851e+002
2.907177e+002, 6.425078e+002
2.911998e+002, 6.338716e+002
2.916819e+002, 6.257858e+002
2.921641e+002, 6.181805e+002
2.926462e+002, 6.113445e+002
2.931283e+002, 6.054158e+002
2.936104e+002, 6.003376e+002
2.940925e+002, 5.964492e+002
2.945746e+002, 5.947081e+002
2.950568e+002, 5.941307e+002
2.955389e+002, 5.926794e+002
2.960210e+002, 5.899138e+002
2.965031e+002, 5.868954e+002
2.969852e+002, 5.844017e+002
2.974673e+002, 5.823450e+002
2.979495e+002, 5.805976e+002
2.984316e+002, 5.794841e+002
2.989137e+002, 5.785237e+002
2.993958e+002, 5.768328e+002
2.998779e+002, 5.742064e+002
3.003600e+002, 5.717610e+002
3.008422e+002, 5.705818e+002
3.013243e+002, 5.700485e+002
3.018064e+002, 5.691282e+002
3.022885e+002, 5.674676e+002
3.027706e+002, 5.654406e+002
3.032527e+002, 5.633150e+002
3.037349e+002, 5.610518e+002
3.042170e+002, 5.591318e+002
3.046991e+002, 5.578793e+002
3.051812e+002, 5.570868e+002
3.056633e+002, 5.565064e+002
3.061454e+002, 5.561864e+002
3.066276e+002, 5.558976e+002
3.071097e+002, 5.554633e+002
3.075918e+002, 5.548879e+002
3.080739e+002, 5.542098e+002
3.085560e+002, 5.534242e+002
3.090381e+002, 5.525522e+002
3.095203e+002, 5.515391e+002
3.100024e+002, 5.503427e+002
3.104845e+002, 5.493826e+002
3.109666e+002, 5.491222e+002
3.114487e+002, 5.494033e+002
3.119308e+002, 5.494228e+002
3.124130e+002, 5.488861e+002
3.128951e+002, 5.482461e+002
3.133772e+002, 5.479791e+002
3.138593e+002, 5.480219e+002
3.143414e+002, 5.479775e+002
3.148235e+002, 5.473230e+002
3.153057e+002, 5.464452e+002
3.157878e+002, 5.465505e+002
3.162699e+002, 5.482071e+002
3.167520e+002, 5.497086e+002
3.172341e+002, 5.493885e+002
3.177162e+002, 5.479645e+002
3.181984e+002, 5.469746e+002
3.186805e+002, 5.473626e+002
3.191626e+002, 5.483239e+002
3.196447e+002, 5.484609e+002
3.201268e+002, 5.475779e+002
3.206089e+002, 5.468725e+002
3.210911e+002, 5.473555e+002
3.215732e+002, 5.483518e+002
3.220553e+002, 5.488897e+002
3.225374e+002, 5.485479e+002
3.230195e+002, 5.480771e+002
3.235016e+002, 5.483295e+002
3.239838e+002, 5.493121e+002
3.244659e+002, 5.502158e+002
3.249480e+002, 5.505133e+002
3.254301e+002, 5.507482e+002
3.259122e+002, 5.516446e+002
3.263943e+002, 5.533675e+002
3.268765e+002, 5.551151e+002
3.273586e+002, 5.561877e+002
3.278407e+002, 5.567335e+002
3.283228e+002, 5.576227e+002
3.288049e+002, 5.593311e+002
3.292870e+002, 5.610401e+002
3.297692e+002, 5.618598e+002
3.302513e+002, 5.618617e+002
3.307334e+002, 5.617711e+002
3.312155e+002, 5.622570e+002
3.316976e+002, 5.628697e+002
3.321797e+002, 5.624802e+002
3.326619e+002, 5.607964e+002
3.331440e+002, 5.585975e+002
3.336261e+002, 5.563330e+002
3.341082e+002, 5.540353e+002
3.345903e+002, 5.517585e+002
3.350724e+002, 5.493312e+002
3.355546e+002, 5.470458e+002
3.360367e+002, 5.454127e+002
3.365188e+002, 5.445021e+002
3.370009e+002, 5.435746e+002
3.374830e+002, 5.420993e+002
3.379651e+002, 5.403647e+002
3.384473e+002, 5.389106e+002
3.389294e+002, 5.378144e+002
3.394115e+002, 5.369811e+002
3.398936e+002, 5.364553e+002
3.403757e+002, 5.361912e+002
3.408578e+002, 5.358438e+002
3.413400e+002, 5.352104e+002
3.418221e+002, 5.345096e+002
3.423042e+002, 5.341027e+002
3.427863e+002, 5.340453e+002
3.432684e+002, 5.339384e+002
3.437505e+002, 5.335619e+002
3.442327e+002, 5.329915e+002
3.447148e+002, 5.324139e+002
3.451969e+002, 5.318792e+002
3.456790e+002, 5.313129e+002
3.461611e+002, 5.303943e+002
3.466432e+002, 5.292056e+002
3.471254e+002, 5.286403e+002
3.476075e+002, 5.293475e+002
3.480896e+002, 5.306005e+002
3.485717e+002, 5.316075e+002
3.490538e+002, 5.323112e+002
3.495359e+002, 5.326511e+002
3.500181e+002, 5.323338e+002
3.505002e+002, 5.315889e+002
3.509823e+002, 5.314345e+002
3.514644e+002, 5.324240e+002
3.519465e+002, 5.335928e+002
3.524286e+002, 5.342766e+002
3.529108e+002, 5.345609e+002
3.533929e+002, 5.348649e+002
3.538750e+002, 5.353710e+002
3.543571e+002, 5.360394e+002
3.548392e+002, 5.368006e+002
3.553214e+002, 5.377890e+002
3.558035e+002, 5.385687e+002
3.562856e+002, 5.389514e+002
3.567677e+002, 5.390241e+002
3.572498e+002, 5.389371e+002
3.577319e+002, 5.387318e+002
3.582141e+002, 5.383751e+002
3.586962e+002, 5.377275e+002
3.591783e+002, 5.366964e+002
3.596604e+002, 5.359741e+002
3.601425e+002, 5.357801e+002
3.606246e+002, 5.358412e+002
3.611068e+002, 5.360184e+002
3.615889e+002, 5.362645e+002
3.620710e+002, 5.363363e+002
3.625531e+002, 5.359537e+002
3.630352e+002, 5.351349e+002
3.635173e+002, 5.347405e+002
3.639995e+002, 5.346750e+002
3.644816e+002, 5.350727e+002
3.649637e+002, 5.361893e+002
3.654458e+002, 5.378329e+002
3.659279e+002, 5.395094e+002
3.664100e+002, 5.409384e+002
3.668922e+002, 5.422755e+002
3.673743e+002, 5.440253e+002
3.678564e+002, 5.464221e+002
3.683385e+002, 5.488632e+002
3.688206e+002, 5.514707e+002
3.693027e+002, 5.539995e+002
3.697849e+002, 5.562839e+002
3.702670e+002, 5.582429e+002
3.707491e+002, 5.596349e+002
3.712312e+002, 5.601213e+002
3.717133e+002, 5.595753e+002
3.721954e+002, 5.582802e+002
3.726776e+002, 5.554593e+002
3.731597e+002, 5.526061e+002
3.736418e+002, 5.510107e+002
3.741239e+002, 5.503739e+002
3.746060e+002, 5.491529e+002
3.750881e+002, 5.459384e+002
3.755703e+002, 5.408383e+002
3.760524e+002, 5.372043e+002
3.765345e+002, 5.365072e+002
3.770166e+002, 5.355386e+002
3.774987e+002, 5.330937e+002
3.779808e+002, 5.300527e+002
3.784630e+002, 5.277703e+002
3.789451e+002, 5.268740e+002
3.794272e+002, 5.268718e+002
3.799093e+002, 5.265922e+002
3.803914e+002, 5.256883e+002
3.808735e+002, 5.250918e+002
3.813557e+002, 5.249312e+002
3.818378e+002, 5.249820e+002
3.823199e+002, 5.251402e+002
3.828020e+002, 5.253548e+002
3.832841e+002, 5.255433e+002
3.837662e+002, 5.255482e+002
3.842484e+002, 5.252789e+002
3.847305e+002, 5.254517e+002
3.852126e+002, 5.265152e+002
3.856947e+002, 5.276047e+002
3.861768e+002, 5.286003e+002
3.866589e+002, 5.294023e+002
3.871411e+002, 5.298495e+002
3.876232e+002, 5.297952e+002
3.881053e+002, 5.293956e+002
3.885874e+002, 5.292426e+002
3.890695e+002, 5.295627e+002
3.895516e+002, 5.296956e+002
3.900338e+002, 5.290710e+002
3.905159e+002, 5.284423e+002
3.909980e+002, 5.285807e+002
3.914801e+002, 5.296949e+002
3.919622e+002, 5.312164e+002
3.924443e+002, 5.324852e+002
3.929265e+002, 5.334755e+002
3.934086e+002, 5.344738e+002
3.938907e+002, 5.356507e+002
3.943728e+002, 5.367028e+002
3.948549e+002, 5.373048e+002
3.953370e+002, 5.375882e+002
3.958192e+002, 5.380466e+002
3.963013e+002, 5.390463e+002
3.967834e+002, 5.404640e+002
3.972655e+002, 5.419012e+002
3.977476e+002, 5.433661e+002
3.982297e+002, 5.448219e+002
3.987119e+002, 5.457341e+002
3.991940e+002, 5.467783e+002
3.996761e+002, 5.491028e+002
4.001582e+002, 5.535229e+002
4.006403e+002, 5.581102e+002
4.011224e+002, 5.609418e+002
4.016046e+002, 5.620958e+002
4.020867e+002, 5.625546e+002
4.025688e+002, 5.625651e+002
4.030509e+002, 5.619869e+002
4.035330e+002, 5.606860e+002
4.040151e+002, 5.586654e+002
4.044973e+002, 5.563338e+002
4.049794e+002, 5.537000e+002
4.054615e+002, 5.509183e+002
4.059436e+002, 5.482900e+002
4.064257e+002, 5.458904e+002
4.069078e+002, 5.434025e+002
4.073900e+002, 5.401495e+002
4.078721e+002, 5.365432e+002
4.083542e+002, 5.344890e+002
4.088363e+002, 5.352385e+002
4.093184e+002, 5.365833e+002
4.098005e+002, 5.371479e+002
4.102827e+002, 5.371274e+002
4.107648e+002, 5.373272e+002
4.112469e+002, 5.382385e+002
4.117290e+002, 5.393040e+002
4.122111e+002, 5.392101e+002
4.126932e+002, 5.378798e+002
4.131754e+002, 5.358533e+002
4.136575e+002, 5.329123e+002
4.141396e+002, 5.294842e+002
4.146217e+002, 5.258080e+002
4.151038e+002, 5.219960e+002
4.155859e+002, 5.184032e+002
4.160681e+002, 5.153768e+002
4.165502e+002, 5.129483e+002
4.170323e+002, 5.108727e+002
