##NAMES=Miguelromeroite
##RRUFFID=R070064
##IDEAL CHEMISTRY=Mn^2+^_5_(As^5+^O_3_OH)_2_(As^5+^O_4_)_2_(H_2_O)_4_
##LOCALITY=Veta Negra mine, Pampa Larga Mining District, Tierra Amarilla, Chile
##OWNER=RRUFF
##SOURCE=Bob Jenkins
##DESCRIPTION=Sprays of pink thin prismatic crystals associated with siderite and cuproadamite
##STATUS=The identification of this mineral is confirmed by single-crystal X-ray diffraction and chemical analysis.
##URL=rruff.info/R070064
##MEASURED CHEMISTRY=(Mn^2+^_4.64_Ca_0.25_Zn_0.07_Mg_0.04_)_Σ=5_(As_1.00_O_3_OH)_2_(As_1.00_O_4_)_2_·3.98H_2_O; OH estimated by charge balance; H_2_O by difference
129.9881, 844.7950
130.4702, 893.6901
130.9524, 943.3358
131.4345, 993.5766
131.9166, 1044.180
132.3987, 1095.869
132.8808, 1154.906
133.3629, 1205.846
133.8451, 1236.017
134.3272, 1249.426
134.8093, 1262.519
135.2914, 1292.956
135.7735, 1339.800
136.2556, 1367.492
136.7378, 1352.923
137.2199, 1338.275
137.7020, 1343.103
138.1841, 1366.634
138.6662, 1398.996
139.1483, 1432.305
139.6305, 1466.611
140.1126, 1502.465
140.5947, 1536.461
141.0768, 1575.504
141.5589, 1623.282
142.0410, 1679.686
142.5232, 1741.580
143.0053, 1806.388
143.4874, 1875.121
143.9695, 1943.906
144.4516, 2012.991
144.9337, 2081.996
145.4159, 2150.786
145.8980, 2219.533
146.3801, 2287.939
146.8622, 2356.698
147.3443, 2428.716
147.8264, 2491.578
148.3086, 2548.941
148.7907, 2596.440
149.2728, 2630.025
149.7549, 2650.028
150.2370, 2660.583
150.7191, 2665.821
151.2013, 2660.821
151.6834, 2663.835
152.1655, 2683.399
152.6476, 2703.534
153.1297, 2715.092
153.6118, 2716.058
154.0940, 2708.434
154.5761, 2694.110
155.0582, 2669.328
155.5403, 2646.688
156.0224, 2625.102
156.5045, 2606.038
156.9867, 2591.253
157.4688, 2580.856
157.9509, 2572.294
158.4330, 2561.802
158.9151, 2546.167
159.3972, 2537.738
159.8794, 2544.356
160.3615, 2553.309
160.8436, 2551.924
161.3257, 2537.997
161.8078, 2521.307
162.2899, 2515.071
162.7721, 2524.674
163.2542, 2529.437
163.7363, 2522.121
164.2184, 2513.123
164.7005, 2512.898
165.1826, 2523.615
165.6648, 2539.800
166.1469, 2554.897
166.6290, 2568.577
167.1111, 2583.171
167.5932, 2597.328
168.0753, 2613.279
168.5575, 2634.691
169.0396, 2662.472
169.5217, 2691.737
170.0038, 2715.399
170.4859, 2732.733
170.9680, 2754.138
171.4502, 2781.849
171.9323, 2814.171
172.4144, 2852.018
172.8965, 2896.709
173.3786, 2938.048
173.8607, 2959.517
174.3429, 2962.273
174.8250, 2973.821
175.3071, 3006.629
175.7892, 3048.744
176.2713, 3085.650
176.7534, 3115.420
177.2356, 3138.501
177.7177, 3152.709
178.1998, 3159.453
178.6819, 3164.157
179.1640, 3160.583
179.6461, 3158.288
180.1283, 3172.416
180.6104, 3206.499
181.0925, 3249.151
181.5746, 3294.676
182.0567, 3341.679
182.5388, 3384.630
183.0210, 3423.397
183.5031, 3456.776
183.9852, 3481.666
184.4673, 3496.901
184.9494, 3508.014
185.4315, 3517.938
185.9137, 3527.019
186.3958, 3536.050
186.8779, 3549.867
187.3600, 3562.278
187.8421, 3561.582
188.3242, 3544.500
188.8064, 3525.161
189.2885, 3517.191
189.7706, 3514.091
190.2527, 3503.636
190.7348, 3479.453
191.2169, 3446.711
191.6991, 3411.635
192.1812, 3372.613
192.6633, 3337.566
193.1454, 3314.934
193.6275, 3299.133
194.1096, 3282.674
194.5918, 3262.984
195.0739, 3241.753
195.5560, 3220.792
196.0381, 3199.784
196.5202, 3180.601
197.0023, 3162.805
197.4845, 3147.847
197.9666, 3138.444
198.4487, 3136.473
198.9308, 3139.020
199.4129, 3141.703
199.8950, 3143.883
200.3772, 3149.336
200.8593, 3158.408
201.3414, 3172.480
201.8235, 3196.035
202.3056, 3234.154
202.7877, 3273.530
203.2699, 3295.575
203.7520, 3297.644
204.2341, 3299.761
204.7162, 3306.797
205.1983, 3318.942
205.6804, 3338.480
206.1626, 3367.478
206.6447, 3397.716
207.1268, 3418.618
207.6089, 3428.951
208.0910, 3441.960
208.5731, 3464.544
209.0553, 3489.695
209.5374, 3512.622
210.0195, 3532.620
210.5016, 3549.070
210.9837, 3558.101
211.4658, 3559.052
211.9480, 3567.325
212.4301, 3586.016
212.9122, 3614.587
213.3943, 3656.068
213.8764, 3710.616
214.3585, 3764.630
214.8407, 3805.688
215.3228, 3834.233
215.8049, 3861.735
216.2870, 3886.516
216.7691, 3914.370
217.2512, 3953.996
217.7334, 4003.158
218.2155, 4044.794
218.6976, 4062.365
219.1797, 4058.460
219.6618, 4057.025
220.1439, 4062.164
220.6261, 4067.542
221.1082, 4070.111
221.5903, 4069.795
222.0724, 4066.544
222.5545, 4060.809
223.0366, 4052.229
223.5188, 4037.675
224.0009, 4010.442
224.4830, 3988.209
224.9651, 3981.471
225.4472, 3986.463
225.9293, 3995.271
226.4115, 4007.417
226.8936, 4019.919
227.3757, 4022.208
227.8578, 4007.632
228.3399, 3997.591
228.8220, 4007.116
229.3041, 4027.118
229.7863, 4044.101
230.2684, 4051.670
230.7505, 4054.451
231.2326, 4061.590
231.7147, 4075.027
232.1968, 4086.202
232.6790, 4090.212
233.1611, 4090.183
233.6432, 4089.977
234.1253, 4092.615
234.6074, 4091.365
235.0895, 4075.113
235.5717, 4041.733
236.0538, 4009.449
236.5359, 3993.457
237.0180, 3976.643
237.5001, 3940.330
237.9822, 3879.247
238.4644, 3811.321
238.9465, 3752.858
239.4286, 3703.884
239.9107, 3658.629
240.3928, 3619.338
240.8749, 3580.347
241.3571, 3533.332
241.8392, 3477.428
242.3213, 3427.487
242.8034, 3402.559
243.2855, 3396.449
243.7676, 3370.405
244.2498, 3304.625
244.7319, 3234.414
245.2140, 3192.380
245.6961, 3175.441
246.1782, 3160.979
246.6603, 3135.404
247.1425, 3103.486
247.6246, 3079.200
248.1067, 3066.255
248.5888, 3055.282
249.0709, 3038.155
249.5530, 3016.823
250.0352, 2996.504
250.5173, 2976.216
250.9994, 2959.152
251.4815, 2951.310
251.9636, 2954.022
252.4457, 2959.804
252.9279, 2965.858
253.4100, 2971.244
253.8921, 2973.450
254.3742, 2966.974
254.8563, 2961.427
255.3384, 2968.548
255.8206, 2988.108
256.3027, 3006.503
256.7848, 3015.569
257.2669, 3019.616
257.7490, 3029.079
258.2311, 3050.083
258.7133, 3066.281
259.1954, 3064.267
259.6775, 3047.633
260.1596, 3030.975
260.6417, 3018.286
261.1238, 3009.961
261.6060, 3007.884
262.0881, 3014.502
262.5702, 3017.034
263.0523, 3006.287
263.5344, 2988.524
264.0165, 2975.959
264.4987, 2971.841
264.9808, 2972.412
265.4629, 2974.823
265.9450, 2979.663
266.4271, 2979.249
266.9092, 2968.264
267.3914, 2953.265
267.8735, 2941.331
268.3556, 2933.377
268.8377, 2926.677
269.3198, 2917.713
269.8019, 2906.610
270.2841, 2902.817
270.7662, 2910.451
271.2483, 2922.054
271.7304, 2932.831
272.2125, 2942.983
272.6946, 2955.594
273.1768, 2974.097
273.6589, 2996.654
274.1410, 3009.893
274.6231, 3000.038
275.1052, 2997.400
275.5873, 3015.643
276.0695, 3048.272
276.5516, 3082.937
277.0337, 3114.309
277.5158, 3143.075
277.9979, 3170.840
278.4800, 3193.636
278.9622, 3221.186
279.4443, 3257.894
279.9264, 3298.052
280.4085, 3336.461
280.8906, 3371.497
281.3727, 3402.857
281.8549, 3429.553
282.3370, 3446.502
282.8191, 3471.798
283.3012, 3517.087
283.7833, 3560.723
284.2654, 3587.457
284.7476, 3597.730
285.2297, 3603.285
285.7118, 3614.594
286.1939, 3632.069
286.6760, 3650.978
287.1581, 3669.172
287.6403, 3690.992
288.1224, 3723.706
288.6045, 3760.702
289.0866, 3788.329
289.5687, 3797.038
290.0508, 3792.466
290.5330, 3801.147
291.0151, 3834.221
291.4972, 3866.389
291.9793, 3890.355
292.4614, 3913.305
292.9435, 3945.500
293.4257, 3990.446
293.9078, 4037.458
294.3899, 4065.159
294.8720, 4063.251
295.3541, 4070.052
295.8362, 4092.542
296.3184, 4121.679
296.8005, 4157.777
297.2826, 4197.977
297.7647, 4230.665
298.2468, 4242.898
298.7289, 4233.838
299.2111, 4220.693
299.6932, 4203.208
300.1753, 4181.496
300.6574, 4153.137
301.1395, 4120.800
301.6216, 4090.832
302.1038, 4068.621
302.5859, 4050.726
303.0680, 4027.667
303.5501, 3999.569
304.0322, 3965.891
304.5143, 3926.004
304.9964, 3880.794
305.4785, 3828.287
305.9607, 3764.540
306.4428, 3702.527
306.9249, 3658.988
307.4070, 3634.152
307.8891, 3610.040
308.3712, 3580.848
308.8534, 3550.183
309.3355, 3522.643
309.8176, 3498.474
310.2997, 3474.766
310.7818, 3445.215
311.2639, 3414.825
311.7461, 3396.862
312.2282, 3394.762
312.7103, 3401.824
313.1924, 3415.614
313.6745, 3434.789
314.1566, 3449.511
314.6388, 3454.577
315.1209, 3456.342
315.6030, 3458.972
316.0851, 3463.114
316.5672, 3473.023
317.0493, 3493.301
317.5315, 3521.621
318.0136, 3544.910
318.4957, 3552.929
318.9778, 3567.224
319.4599, 3604.865
319.9420, 3653.906
320.4242, 3688.570
320.9063, 3697.107
321.3884, 3693.654
321.8705, 3706.182
322.3526, 3739.739
322.8347, 3781.355
323.3169, 3835.458
323.7990, 3894.218
324.2811, 3950.863
324.7632, 4004.652
325.2453, 4059.237
325.7274, 4118.534
326.2096, 4182.955
326.6917, 4249.299
327.1738, 4313.882
327.6559, 4384.167
328.1380, 4466.493
328.6201, 4556.448
329.1023, 4647.264
329.5844, 4735.348
330.0665, 4819.455
330.5486, 4892.274
331.0307, 4952.907
331.5128, 5002.479
331.9950, 5045.715
332.4771, 5076.903
332.9592, 5085.787
333.4413, 5070.846
333.9234, 5047.680
334.4055, 5037.289
334.8877, 5042.137
335.3698, 5044.626
335.8519, 5028.891
336.3340, 5024.300
336.8161, 5048.350
337.2982, 5097.257
337.7804, 5155.148
338.2625, 5212.580
338.7446, 5270.738
339.2267, 5335.942
339.7088, 5413.513
340.1909, 5484.332
340.6731, 5542.345
341.1552, 5586.864
341.6373, 5614.464
342.1194, 5623.341
342.6015, 5617.378
343.0836, 5598.552
343.5658, 5567.214
344.0479, 5525.606
344.5300, 5467.630
345.0121, 5407.874
345.4942, 5366.585
345.9763, 5345.012
346.4585, 5327.041
346.9406, 5294.217
347.4227, 5266.587
347.9048, 5278.728
348.3869, 5336.139
348.8690, 5404.376
349.3512, 5453.200
349.8333, 5482.525
350.3154, 5523.721
350.7975, 5577.838
351.2796, 5642.374
351.7617, 5720.917
352.2439, 5808.990
352.7260, 5897.125
353.2081, 5980.207
353.6902, 6059.784
354.1723, 6138.697
354.6544, 6202.730
355.1366, 6284.837
355.6187, 6393.044
356.1008, 6514.400
356.5829, 6638.932
357.0650, 6764.318
357.5471, 6894.252
358.0293, 7036.521
358.5114, 7194.765
358.9935, 7332.536
359.4756, 7438.607
359.9577, 7533.924
360.4398, 7629.162
360.9220, 7716.722
361.4041, 7785.346
361.8862, 7830.240
362.3683, 7847.799
362.8504, 7825.668
363.3326, 7753.913
363.8147, 7669.264
364.2968, 7577.034
364.7789, 7477.079
365.2610, 7364.644
365.7431, 7239.964
366.2253, 7116.707
366.7074, 7001.486
367.1895, 6895.991
367.6716, 6807.511
368.1537, 6732.343
368.6358, 6684.622
369.1180, 6682.306
369.6001, 6715.707
370.0822, 6765.034
370.5643, 6820.719
371.0464, 6892.811
371.5285, 7000.005
372.0107, 7137.749
372.4928, 7270.568
372.9749, 7377.938
373.4570, 7474.178
373.9391, 7594.507
374.4212, 7738.668
374.9034, 7899.031
375.3855, 8085.294
375.8676, 8280.896
376.3497, 8471.331
376.8318, 8652.728
377.3139, 8816.039
377.7961, 8953.485
378.2782, 9062.502
378.7603, 9156.616
379.2424, 9246.582
379.7245, 9313.654
380.2066, 9347.580
380.6888, 9354.175
381.1709, 9345.075
381.6530, 9326.517
382.1351, 9293.699
382.6172, 9233.278
383.0993, 9133.573
383.5815, 9027.653
384.0636, 8933.410
384.5457, 8823.966
385.0278, 8671.884
385.5099, 8480.149
385.9920, 8283.627
386.4742, 8111.345
386.9563, 7961.189
387.4384, 7812.629
387.9205, 7661.604
388.4026, 7518.378
388.8847, 7383.527
389.3669, 7259.974
389.8490, 7154.735
390.3311, 7069.998
390.8132, 7001.448
391.2953, 6945.509
391.7774, 6901.986
392.2596, 6871.056
392.7417, 6852.718
393.2238, 6847.292
393.7059, 6859.573
394.1880, 6889.575
394.6701, 6917.805
395.1523, 6938.167
395.6344, 6955.296
396.1165, 6974.349
396.5986, 6995.213
397.0807, 7014.084
397.5628, 7029.300
398.0450, 7040.050
398.5271, 7040.543
399.0092, 7020.335
399.4913, 7004.130
399.9734, 6994.722
400.4555, 6992.587
400.9377, 7001.076
401.4197, 7020.080
401.9019, 7040.959
402.3840, 7053.365
402.8661, 7057.754
403.3482, 7051.150
403.8303, 7022.652
404.3124, 6993.744
404.7946, 6979.863
405.2767, 6970.408
405.7588, 6944.568
406.2409, 6890.598
406.7230, 6814.816
407.2051, 6725.713
407.6873, 6617.824
408.1694, 6520.675
408.6515, 6453.189
409.1336, 6391.874
409.6157, 6317.854
410.0978, 6229.727
410.5800, 6138.086
411.0621, 6043.732
411.5442, 5951.099
412.0263, 5866.679
412.5084, 5790.922
412.9905, 5729.987
413.4727, 5694.634
413.9548, 5678.854
414.4369, 5650.147
414.9190, 5587.219
415.4011, 5536.146
415.8832, 5519.330
416.3654, 5526.328
416.8475, 5540.099
417.3296, 5555.503
417.8117, 5575.345
418.2938, 5604.217
418.7759, 5645.369
419.2581, 5683.948
419.7402, 5710.071
420.2223, 5743.722
420.7044, 5791.948
421.1865, 5855.250
421.6686, 5936.278
422.1508, 6038.722
422.6329, 6150.403
423.1150, 6234.871
423.5971, 6274.323
424.0792, 6331.826
424.5613, 6433.927
425.0435, 6545.499
425.5256, 6638.929
426.0077, 6715.347
426.4898, 6800.470
426.9719, 6928.578
427.4540, 7079.479
427.9362, 7187.353
428.4183, 7240.916
428.9004, 7296.475
429.3825, 7386.444
429.8646, 7500.450
430.3467, 7617.159
430.8289, 7745.760
431.3110, 7856.549
431.7931, 7926.625
432.2752, 7970.670
432.7573, 8017.479
433.2394, 8074.088
433.7216, 8120.358
434.2037, 8132.405
434.6858, 8105.414
435.1679, 8083.018
435.6500, 8069.458
436.1321, 8055.512
436.6143, 8046.703
437.0964, 8032.923
437.5785, 7995.003
438.0606, 7924.601
438.5427, 7837.056
439.0248, 7763.506
439.5070, 7712.276
439.9891, 7649.352
440.4712, 7554.331
440.9533, 7462.905
441.4354, 7388.973
441.9175, 7333.171
442.3997, 7293.720
442.8818, 7278.563
443.3639, 7271.966
443.8460, 7237.984
444.3281, 7173.126
444.8102, 7114.978
445.2924, 7080.067
445.7745, 7057.393
446.2566, 7031.988
446.7387, 7004.555
447.2208, 6970.894
447.7029, 6923.776
448.1851, 6872.545
448.6672, 6833.450
449.1493, 6806.085
449.6314, 6769.546
450.1135, 6708.908
450.5956, 6626.839
451.0778, 6537.452
451.5599, 6431.590
452.0420, 6331.093
452.5241, 6245.782
453.0062, 6163.569
453.4883, 6069.848
453.9705, 5962.955
454.4526, 5855.321
454.9347, 5760.919
455.4168, 5680.287
455.8989, 5594.923
456.3810, 5503.348
456.8632, 5408.125
457.3453, 5302.853
457.8274, 5197.795
458.3095, 5107.743
458.7916, 5038.436
459.2737, 4974.166
459.7559, 4894.106
460.2380, 4803.747
460.7201, 4728.173
461.2022, 4671.415
461.6843, 4632.534
462.1664, 4619.710
462.6486, 4628.764
463.1307, 4626.802
463.6128, 4600.026
464.0949, 4572.387
464.5770, 4556.766
465.0591, 4550.311
465.5413, 4545.982
466.0234, 4541.149
466.5055, 4539.260
466.9876, 4544.891
467.4697, 4555.484
467.9518, 4582.670
468.4340, 4640.470
468.9161, 4698.757
469.3982, 4744.526
469.8803, 4781.091
470.3624, 4816.574
470.8445, 4855.159
471.3267, 4894.865
471.8088, 4931.820
472.2909, 4965.678
472.7730, 4999.859
473.2551, 5035.183
473.7372, 5070.799
474.2194, 5112.584
474.7015, 5156.919
475.1836, 5182.448
475.6657, 5172.064
476.1478, 5145.796
476.6299, 5123.940
477.1121, 5105.409
477.5942, 5083.965
478.0763, 5058.521
478.5584, 5024.513
479.0405, 4972.668
479.5226, 4893.656
480.0048, 4815.464
480.4869, 4738.909
480.9690, 4662.831
481.4511, 4593.615
481.9332, 4524.582
482.4153, 4438.344
482.8975, 4321.443
483.3796, 4187.637
483.8617, 4074.493
484.3438, 3987.399
484.8259, 3907.789
485.3080, 3841.613
485.7902, 3775.765
486.2723, 3697.284
486.7544, 3609.328
487.2365, 3531.740
487.7186, 3480.794
488.2007, 3444.976
488.6829, 3408.206
489.1650, 3370.352
489.6471, 3328.145
490.1292, 3278.578
490.6113, 3225.218
491.0934, 3173.996
491.5756, 3121.976
492.0577, 3080.269
492.5398, 3053.293
493.0219, 3035.063
493.5040, 3025.305
493.9861, 3020.627
494.4683, 3011.719
494.9504, 2992.273
495.4325, 2966.394
495.9146, 2948.797
496.3967, 2946.131
496.8788, 2937.708
497.3610, 2910.994
497.8431, 2886.671
498.3252, 2880.620
498.8073, 2890.282
499.2894, 2899.925
499.7715, 2900.963
500.2536, 2895.524
500.7357, 2885.044
501.2179, 2869.278
501.7000, 2859.334
502.1821, 2861.967
502.6642, 2869.729
503.1463, 2870.701
503.6284, 2864.604
504.1106, 2856.223
504.5927, 2843.019
505.0748, 2830.614
505.5569, 2825.586
506.0390, 2825.565
506.5211, 2821.266
507.0033, 2807.055
507.4854, 2788.243
507.9675, 2778.883
508.4496, 2785.677
508.9317, 2787.342
509.4138, 2783.750
509.8960, 2774.307
510.3781, 2753.525
510.8602, 2726.112
511.3423, 2705.091
511.8244, 2700.052
512.3066, 2701.448
512.7887, 2695.505
513.2708, 2682.241
513.7529, 2661.615
514.2350, 2629.772
514.7172, 2596.677
515.1993, 2576.260
515.6814, 2568.213
516.1635, 2559.708
516.6456, 2548.820
517.1277, 2537.259
517.6099, 2528.353
518.0920, 2519.432
518.5741, 2501.796
519.0562, 2471.780
519.5383, 2441.260
520.0204, 2431.862
520.5026, 2451.636
520.9847, 2464.594
521.4668, 2469.686
521.9489, 2468.342
522.4310, 2457.865
522.9131, 2441.910
523.3953, 2425.290
523.8774, 2408.396
524.3595, 2396.489
524.8416, 2402.304
525.3237, 2420.352
525.8058, 2419.541
526.2880, 2390.052
526.7701, 2356.725
527.2522, 2341.454
527.7343, 2343.599
528.2164, 2344.382
528.6985, 2342.593
529.1807, 2349.951
529.6628, 2352.313
530.1449, 2349.945
530.6270, 2328.682
531.1091, 2331.818
531.5912, 2325.176
532.0734, 2318.132
532.5555, 2324.702
533.0376, 2306.188
533.5197, 2312.542
534.0018, 2308.969
534.4839, 2309.940
534.9661, 2286.085
535.4482, 2277.338
535.9303, 2264.459
536.4124, 2252.633
536.8945, 2244.341
537.3766, 2239.754
537.8588, 2241.734
538.3409, 2250.038
538.8230, 2254.196
539.3051, 2246.996
539.7872, 2232.664
540.2693, 2223.771
540.7515, 2226.075
541.2336, 2224.000
541.7157, 2212.490
542.1978, 2200.012
542.6799, 2191.818
543.1620, 2188.068
543.6442, 2187.807
544.1263, 2191.353
544.6084, 2195.271
545.0905, 2189.614
545.5726, 2171.873
546.0547, 2161.005
546.5369, 2165.368
547.0190, 2172.026
547.5011, 2166.904
547.9832, 2153.556
548.4653, 2148.793
548.9474, 2166.173
549.4296, 2185.104
549.9116, 2191.340
550.3937, 2187.787
550.8759, 2179.029
551.3580, 2166.538
551.8401, 2155.526
552.3222, 2152.621
552.8043, 2158.615
553.2864, 2164.917
553.7686, 2174.455
554.2507, 2180.890
554.7328, 2181.218
555.2149, 2178.498
555.6970, 2176.267
556.1791, 2175.340
556.6613, 2173.857
557.1434, 2168.648
557.6255, 2161.666
558.1076, 2159.597
558.5897, 2163.249
559.0718, 2167.110
559.5540, 2168.178
560.0361, 2167.611
560.5182, 2169.010
561.0003, 2175.442
561.4824, 2175.929
561.9645, 2163.370
562.4467, 2148.667
562.9288, 2137.493
563.4109, 2131.624
563.8930, 2134.060
564.3751, 2147.132
564.8572, 2165.358
565.3394, 2177.755
565.8215, 2184.579
566.3036, 2183.570
566.7857, 2165.732
567.2678, 2150.627
567.7499, 2154.670
568.2321, 2171.011
568.7142, 2181.240
569.1963, 2178.253
569.6784, 2171.448
570.1605, 2166.594
570.6426, 2162.684
571.1248, 2156.366
571.6069, 2147.273
572.0890, 2141.684
572.5711, 2146.713
573.0532, 2161.208
573.5353, 2166.517
574.0175, 2155.481
574.4996, 2144.902
574.9817, 2134.402
575.4638, 2126.959
575.9459, 2129.302
576.4280, 2139.137
576.9102, 2141.522
577.3923, 2111.495
577.8744, 2122.273
578.3565, 2128.053
578.8386, 2129.104
579.3207, 2111.260
579.8029, 2117.815
580.2850, 2114.592
580.7671, 2110.968
581.2492, 2120.957
581.7313, 2105.861
582.2134, 2115.634
582.6956, 2115.480
583.1777, 2119.869
583.6598, 2114.420
584.1419, 2112.010
584.6240, 2119.441
585.1061, 2121.423
585.5883, 2103.771
586.0704, 2125.095
586.5525, 2130.854
587.0346, 2114.816
587.5167, 2101.466
587.9988, 2104.455
588.4810, 2115.680
588.9631, 2122.712
589.4452, 2125.573
589.9273, 2123.171
590.4094, 2105.414
590.8915, 2089.796
591.3737, 2097.833
591.8558, 2122.309
592.3379, 2138.005
592.8200, 2132.167
593.3021, 2115.514
593.7842, 2108.772
594.2664, 2115.165
594.7485, 2117.398
595.2306, 2108.144
595.7127, 2103.575
596.1948, 2116.822
596.6769, 2137.550
597.1591, 2147.536
597.6412, 2140.241
598.1233, 2130.971
598.6054, 2131.208
599.0875, 2135.234
599.5696, 2131.750
600.0518, 2120.784
600.5339, 2114.219
601.0160, 2120.848
601.4981, 2135.446
601.9802, 2141.041
602.4623, 2132.187
602.9445, 2124.565
603.4266, 2114.531
603.9087, 2109.671
604.3908, 2120.400
604.8729, 2138.968
605.3550, 2146.173
605.8372, 2130.007
606.3193, 2111.737
606.8014, 2119.935
607.2835, 2144.593
607.7656, 2150.981
608.2477, 2132.243
608.7299, 2111.651
609.2120, 2107.091
609.6941, 2115.933
610.1762, 2122.662
610.6583, 2126.592
611.1404, 2129.307
611.6226, 2131.563
612.1047, 2132.080
612.5868, 2128.699
613.0689, 2122.620
613.5510, 2117.159
614.0331, 2113.395
614.5153, 2112.881
614.9974, 2119.177
615.4795, 2131.580
615.9616, 2144.925
616.4437, 2159.096
616.9258, 2170.296
617.4080, 2174.877
617.8901, 2173.225
618.3722, 2170.000
618.8543, 2163.812
619.3364, 2158.025
619.8185, 2148.849
620.3007, 2135.531
620.7828, 2149.420
