##NAMES=Miguelromeroite
##RRUFFID=R070064
##IDEAL CHEMISTRY=Mn^2+^_5_(As^5+^O_3_OH)_2_(As^5+^O_4_)_2_(H_2_O)_4_
##LOCALITY=Veta Negra mine, Pampa Larga Mining District, Tierra Amarilla, Chile
##OWNER=RRUFF
##SOURCE=Bob Jenkins
##DESCRIPTION=Sprays of pink thin prismatic crystals associated with siderite and cuproadamite
##STATUS=The identification of this mineral is confirmed by single-crystal X-ray diffraction and chemical analysis.
##URL=rruff.info/R070064
##MEASURED CHEMISTRY=(Mn^2+^_4.64_Ca_0.25_Zn_0.07_Mg_0.04_)_Σ=5_(As_1.00_O_3_OH)_2_(As_1.00_O_4_)_2_·3.98H_2_O; OH estimated by charge balance; H_2_O by difference
125.5937, 1530.859
126.0758, 1612.436
126.5579, 1696.952
127.0400, 1783.480
127.5221, 1871.344
128.0043, 1960.519
128.4864, 2052.785
128.9685, 2153.906
129.4506, 2262.702
129.9327, 2370.920
130.4148, 2473.290
130.8969, 2571.419
131.3791, 2670.236
131.8612, 2769.369
132.3433, 2870.057
132.8254, 2974.547
133.3075, 3083.102
133.7896, 3193.326
134.2718, 3300.893
134.7539, 3406.104
135.2360, 3517.438
135.7181, 3636.800
136.2002, 3762.684
136.6823, 3878.950
137.1645, 3982.066
137.6466, 4084.246
138.1287, 4202.024
138.6108, 4340.513
139.0929, 4478.140
139.5750, 4611.944
140.0572, 4742.765
140.5393, 4854.544
141.0214, 4939.992
141.5035, 5011.875
141.9856, 5097.487
142.4677, 5209.092
142.9499, 5312.347
143.4320, 5392.600
143.9141, 5451.487
144.3962, 5483.311
144.8783, 5459.544
145.3604, 5405.533
145.8425, 5431.400
146.3247, 5656.822
146.8068, 5851.546
147.2889, 5877.151
147.7710, 5571.205
148.2531, 5311.839
148.7352, 5139.005
149.2174, 5052.784
149.6995, 4981.917
150.1816, 4921.601
150.6637, 4878.762
151.1458, 4859.802
151.6279, 4894.025
152.1101, 4923.978
152.5922, 4936.138
153.0743, 4925.064
153.5564, 4919.909
154.0385, 4926.527
154.5206, 4940.040
155.0028, 4953.794
155.4849, 4977.421
155.9670, 4992.450
156.4491, 4992.531
156.9312, 4977.385
157.4133, 4946.196
157.8955, 4889.649
158.3776, 4816.504
158.8597, 4746.038
159.3418, 4684.780
159.8239, 4628.484
160.3060, 4573.833
160.7882, 4517.505
161.2703, 4466.016
161.7524, 4421.540
162.2345, 4383.900
162.7166, 4352.192
163.1987, 4320.432
163.6808, 4296.804
164.1630, 4288.414
164.6451, 4309.326
165.1272, 4336.891
165.6093, 4357.512
166.0914, 4371.192
166.5735, 4389.248
167.0557, 4416.849
167.5378, 4453.373
168.0199, 4497.390
168.5020, 4554.261
168.9841, 4615.224
169.4662, 4672.291
169.9484, 4723.428
170.4305, 4776.778
170.9126, 4839.936
171.3947, 4910.331
171.8768, 4980.802
172.3589, 5051.270
172.8411, 5118.898
173.3232, 5181.343
173.8053, 5238.047
174.2874, 5290.241
174.7695, 5338.627
175.2516, 5383.233
175.7338, 5423.379
176.2159, 5451.461
176.6980, 5475.374
177.1801, 5509.763
177.6622, 5560.920
178.1443, 5619.777
178.6264, 5675.280
179.1086, 5727.974
179.5907, 5781.621
180.0728, 5842.235
180.5549, 5906.395
181.0370, 5966.124
181.5191, 6017.911
182.0013, 6063.772
182.4834, 6109.080
182.9655, 6153.816
183.4476, 6191.290
183.9297, 6210.667
184.4118, 6214.804
184.8940, 6217.780
185.3761, 6229.307
185.8582, 6243.995
186.3403, 6242.373
186.8224, 6222.165
187.3046, 6195.528
187.7867, 6182.160
188.2688, 6180.569
188.7509, 6167.167
189.2330, 6126.569
189.7151, 6062.960
190.1973, 5997.967
190.6794, 5932.057
191.1615, 5867.119
191.6436, 5804.735
192.1257, 5744.902
192.6078, 5689.311
193.0900, 5636.270
193.5721, 5586.330
194.0542, 5545.526
194.5363, 5515.225
195.0184, 5493.430
195.5005, 5475.391
195.9826, 5460.475
196.4648, 5453.271
196.9469, 5459.790
197.4290, 5480.391
197.9111, 5498.805
198.3932, 5508.845
198.8753, 5516.049
199.3575, 5544.014
199.8396, 5596.688
200.3217, 5656.753
200.8038, 5709.396
201.2859, 5754.181
201.7680, 5796.888
202.2502, 5837.513
202.7323, 5876.756
203.2144, 5924.288
203.6965, 5984.454
204.1786, 6043.676
204.6607, 6083.181
205.1429, 6097.319
205.6250, 6119.221
206.1071, 6161.014
206.5892, 6222.737
207.0713, 6270.545
207.5534, 6298.803
208.0356, 6321.518
208.5177, 6357.757
208.9998, 6410.082
209.4819, 6466.451
209.9640, 6521.765
210.4461, 6574.787
210.9282, 6640.152
211.4104, 6725.559
211.8925, 6816.193
212.3746, 6885.050
212.8567, 6923.292
213.3388, 6959.744
213.8209, 7005.694
214.3031, 7063.573
214.7852, 7123.633
215.2673, 7190.983
215.7494, 7257.046
216.2315, 7298.707
216.7136, 7302.966
217.1958, 7307.351
217.6779, 7334.158
218.1600, 7400.793
218.6421, 7436.379
219.1242, 7426.472
219.6063, 7387.029
220.0885, 7368.942
220.5706, 7380.778
221.0527, 7400.391
221.5348, 7416.833
222.0169, 7429.866
222.4990, 7440.028
222.9812, 7447.614
223.4633, 7452.370
223.9454, 7450.753
224.4275, 7433.438
224.9096, 7422.439
225.3917, 7434.718
225.8739, 7486.724
226.3560, 7524.926
226.8381, 7537.614
227.3202, 7528.733
227.8023, 7536.332
228.2844, 7568.278
228.7665, 7607.620
229.2487, 7642.985
229.7308, 7681.822
230.2129, 7701.706
230.6950, 7696.152
231.1771, 7665.980
231.6592, 7631.855
232.1414, 7597.023
232.6235, 7554.938
233.1056, 7496.815
233.5877, 7400.620
234.0698, 7329.789
234.5519, 7313.554
235.0341, 7356.459
235.5162, 7329.802
235.9983, 7203.821
236.4804, 7034.423
236.9625, 6876.268
237.4446, 6731.841
237.9268, 6598.002
238.4089, 6475.593
238.8910, 6366.972
239.3731, 6253.130
239.8552, 6126.081
240.3373, 6000.190
240.8195, 5893.440
241.3016, 5817.729
241.7837, 5742.239
242.2658, 5657.308
242.7479, 5559.178
243.2300, 5475.045
243.7122, 5410.144
244.1943, 5355.460
244.6764, 5298.604
245.1585, 5237.958
245.6406, 5178.825
246.1227, 5120.688
246.6048, 5060.621
247.0870, 5016.417
247.5691, 4994.662
248.0512, 4984.550
248.5333, 4968.830
249.0154, 4943.005
249.4975, 4919.548
249.9797, 4902.722
250.4618, 4894.500
250.9439, 4884.923
251.4260, 4871.674
251.9081, 4858.497
252.3902, 4852.088
252.8724, 4855.572
253.3545, 4860.424
253.8366, 4863.809
254.3187, 4865.351
254.8008, 4866.592
255.2829, 4866.397
255.7651, 4866.556
256.2472, 4871.665
256.7293, 4886.601
257.2114, 4897.565
257.6935, 4898.609
258.1756, 4886.792
258.6577, 4874.482
259.1399, 4859.840
259.6220, 4845.744
260.1041, 4839.426
260.5862, 4846.689
261.0683, 4850.138
261.5504, 4840.361
262.0326, 4811.070
262.5147, 4791.248
262.9968, 4783.963
263.4789, 4784.391
263.9610, 4782.101
264.4431, 4775.947
264.9253, 4769.601
265.4074, 4763.230
265.8895, 4754.596
266.3716, 4755.977
266.8537, 4771.211
267.3358, 4793.958
267.8180, 4809.954
268.3001, 4817.187
268.7822, 4822.664
269.2643, 4829.073
269.7464, 4836.033
270.2285, 4844.635
270.7107, 4852.696
271.1928, 4864.197
271.6749, 4889.582
272.1570, 4932.130
272.6391, 4978.697
273.1212, 5024.464
273.6034, 5070.109
274.0855, 5108.749
274.5676, 5137.165
275.0497, 5161.384
275.5318, 5194.541
276.0139, 5237.838
276.4961, 5286.319
276.9782, 5338.853
277.4603, 5396.065
277.9424, 5450.378
278.4245, 5499.067
278.9066, 5548.240
279.3888, 5615.812
279.8709, 5706.511
280.3530, 5788.696
280.8351, 5837.990
281.3172, 5854.435
281.7993, 5887.602
282.2815, 5943.810
282.7636, 6012.884
283.2457, 6074.878
283.7278, 6129.129
284.2099, 6185.352
284.6920, 6252.531
285.1741, 6329.475
285.6563, 6394.839
286.1384, 6444.485
286.6205, 6489.026
287.1026, 6548.897
287.5847, 6623.982
288.0668, 6700.746
288.5490, 6772.477
289.0311, 6839.655
289.5132, 6903.982
289.9953, 6962.724
290.4774, 7022.659
290.9595, 7093.896
291.4417, 7175.853
291.9238, 7262.223
292.4059, 7352.938
292.8880, 7445.312
293.3701, 7530.519
293.8522, 7608.107
294.3344, 7675.748
294.8165, 7728.045
295.2986, 7766.891
295.7807, 7801.891
296.2628, 7844.423
296.7449, 7886.774
297.2271, 7910.232
297.7092, 7912.441
298.1913, 7900.303
298.6734, 7881.896
299.1555, 7855.873
299.6376, 7818.221
300.1198, 7765.241
300.6019, 7699.270
301.0840, 7622.241
301.5661, 7532.897
302.0482, 7441.306
302.5303, 7358.163
303.0125, 7280.381
303.4946, 7197.674
303.9767, 7106.230
304.4588, 7007.187
304.9409, 6897.626
305.4230, 6776.692
305.9052, 6663.710
306.3873, 6578.769
306.8694, 6513.834
307.3515, 6455.598
307.8336, 6396.621
308.3157, 6342.308
308.7979, 6298.495
309.2800, 6265.733
309.7621, 6239.824
310.2442, 6222.648
310.7263, 6209.727
311.2084, 6194.413
311.6906, 6166.030
312.1727, 6140.452
312.6548, 6128.277
313.1369, 6130.051
313.6190, 6138.110
314.1011, 6147.784
314.5833, 6161.747
315.0654, 6182.970
315.5475, 6220.566
316.0296, 6258.921
316.5117, 6285.820
316.9938, 6301.326
317.4760, 6330.225
317.9580, 6397.625
318.4402, 6475.325
318.9223, 6537.506
319.4044, 6560.412
319.8865, 6584.512
320.3686, 6604.916
320.8507, 6625.121
321.3329, 6699.802
321.8150, 6915.992
322.2971, 7149.763
322.7792, 7311.367
323.2613, 7299.906
323.7434, 7308.731
324.2256, 7370.816
324.7077, 7482.917
325.1898, 7616.498
325.6719, 7792.717
326.1540, 7972.498
326.6361, 8133.770
327.1183, 8238.476
327.6004, 8368.900
328.0825, 8542.567
328.5646, 8749.963
329.0467, 8940.471
329.5288, 9110.543
330.0110, 9268.607
330.4931, 9420.649
330.9752, 9575.805
331.4573, 9708.889
331.9394, 9810.064
332.4215, 9890.531
332.9037, 9983.699
333.3858, 10091.81
333.8679, 10207.90
334.3500, 10330.73
334.8321, 10460.25
335.3142, 10592.84
335.7964, 10727.87
336.2785, 10866.21
336.7606, 11014.43
337.2427, 11177.58
337.7248, 11338.99
338.2069, 11491.30
338.6891, 11632.78
339.1712, 11781.64
339.6533, 11948.69
340.1354, 12103.67
340.6175, 12199.02
341.0996, 12233.80
341.5818, 12221.17
342.0639, 12159.59
342.5460, 12052.22
343.0281, 11915.51
343.5102, 11742.68
343.9923, 11569.12
344.4745, 11442.64
344.9566, 11360.23
345.4387, 11289.05
345.9208, 11212.48
346.4029, 11140.11
346.8850, 11103.59
347.3672, 11103.11
347.8493, 11131.56
348.3314, 11190.40
348.8135, 11274.46
349.2956, 11363.56
349.7777, 11446.25
350.2599, 11534.32
350.7419, 11649.56
351.2241, 11790.25
351.7062, 11940.59
352.1883, 12086.16
352.6704, 12234.21
353.1525, 12395.47
353.6346, 12573.32
354.1168, 12761.33
354.5989, 12950.49
355.0810, 13144.21
355.5631, 13348.78
356.0452, 13584.23
356.5273, 13825.22
357.0095, 14045.75
357.4916, 14237.69
357.9737, 14417.06
358.4558, 14603.88
358.9379, 14787.30
359.4200, 14943.31
359.9022, 15047.34
360.3843, 15130.81
360.8664, 15213.17
361.3485, 15300.01
361.8306, 15375.03
362.3127, 15452.29
362.7949, 15510.70
363.2770, 15519.67
363.7591, 15431.69
364.2412, 15328.73
364.7233, 15233.40
365.2054, 15145.29
365.6876, 15076.55
366.1697, 15015.17
366.6518, 14979.00
367.1339, 14986.29
367.6160, 15020.33
368.0981, 15117.37
368.5803, 15294.91
369.0624, 15554.63
369.5445, 15828.67
370.0266, 16107.76
370.5087, 16407.88
370.9908, 16739.10
371.4730, 17089.43
371.9551, 17491.55
372.4372, 17984.89
372.9193, 18538.70
373.4014, 18983.53
373.8835, 19274.63
374.3657, 19540.37
374.8478, 19858.03
375.3299, 20252.18
375.8120, 20595.56
376.2941, 20875.22
376.7762, 21111.37
377.2584, 21349.23
377.7405, 21598.11
378.2226, 21810.37
378.7047, 21968.98
379.1868, 22073.29
379.6689, 22134.72
380.1511, 22152.86
380.6332, 22128.04
381.1153, 22058.94
381.5974, 21944.99
382.0795, 21794.42
382.5616, 21612.27
383.0438, 21394.41
383.5259, 21116.79
384.0080, 20778.74
384.4901, 20414.67
384.9722, 20028.85
385.4543, 19641.70
385.9364, 19282.80
386.4185, 18982.10
386.9007, 18700.86
387.3828, 18394.30
387.8649, 18065.58
388.3470, 17727.89
388.8291, 17360.64
389.3112, 16998.49
389.7934, 16690.83
390.2755, 16454.29
390.7576, 16258.39
391.2397, 16088.74
391.7218, 15944.94
392.2039, 15823.68
392.6861, 15738.78
393.1682, 15665.04
393.6503, 15586.98
394.1324, 15499.20
394.6145, 15417.94
395.0966, 15341.81
395.5788, 15276.42
396.0609, 15229.74
396.5430, 15228.85
397.0251, 15222.31
397.5072, 15191.32
397.9893, 15130.71
398.4715, 15080.12
398.9536, 15049.75
399.4357, 15024.36
399.9178, 14992.86
400.3999, 14966.21
400.8820, 14916.06
401.3642, 14829.91
401.8463, 14714.58
402.3284, 14612.13
402.8105, 14528.91
403.2926, 14448.38
403.7747, 14361.71
404.2569, 14269.33
404.7390, 14170.75
405.2211, 14069.99
405.7032, 13959.19
406.1853, 13810.63
406.6674, 13619.23
407.1496, 13423.43
407.6317, 13235.78
408.1138, 13058.53
408.5959, 12903.15
409.0780, 12773.64
409.5602, 12650.12
410.0423, 12502.18
410.5244, 12335.94
411.0065, 12191.13
411.4886, 12089.85
411.9707, 12016.16
412.4529, 11933.00
412.9350, 11840.53
413.4171, 11768.29
413.8992, 11757.60
414.3813, 11777.16
414.8634, 11771.68
415.3456, 11700.19
415.8277, 11638.82
416.3098, 11659.95
416.7919, 11746.11
417.2740, 11841.01
417.7561, 11915.09
418.2382, 11985.08
418.7203, 12056.15
419.2025, 12120.61
419.6846, 12215.89
420.1667, 12386.14
420.6488, 12589.90
421.1309, 12769.58
421.6130, 12867.03
422.0952, 12974.58
422.5773, 13122.81
423.0594, 13315.95
423.5415, 13518.24
424.0236, 13741.77
424.5057, 13963.75
424.9879, 14163.06
425.4700, 14303.85
425.9521, 14473.10
426.4342, 14689.84
426.9163, 14942.80
427.3984, 15177.51
427.8806, 15393.64
428.3627, 15596.30
428.8448, 15789.68
429.3269, 15975.57
429.8090, 16141.19
430.2911, 16280.96
430.7733, 16407.73
431.2554, 16545.20
431.7375, 16694.02
432.2196, 16837.42
432.7017, 16971.98
433.1838, 17095.67
433.6660, 17191.47
434.1481, 17258.19
434.6302, 17314.04
435.1123, 17382.12
435.5944, 17454.79
436.0765, 17506.99
436.5587, 17525.05
437.0408, 17527.42
437.5229, 17537.09
438.0050, 17552.18
438.4871, 17563.78
438.9692, 17561.01
439.4514, 17554.45
439.9335, 17554.96
440.4156, 17564.88
440.8977, 17580.21
441.3798, 17604.22
441.8619, 17631.15
442.3441, 17651.51
442.8262, 17666.08
443.3083, 17669.70
443.7904, 17657.33
444.2725, 17627.99
444.7546, 17596.76
445.2368, 17602.36
445.7189, 17587.65
446.2010, 17507.63
446.6831, 17282.83
447.1652, 17086.52
447.6473, 16944.32
448.1295, 16841.12
448.6116, 16718.67
449.0937, 16585.19
449.5758, 16417.94
450.0579, 16201.79
450.5400, 15923.83
451.0221, 15644.94
451.5042, 15365.45
451.9864, 15089.03
452.4685, 14821.86
452.9506, 14565.46
453.4327, 14316.65
453.9148, 14082.43
454.3969, 13853.08
454.8791, 13590.98
455.3612, 13292.81
455.8433, 13002.17
456.3254, 12763.66
456.8075, 12563.30
457.2896, 12372.57
457.7718, 12182.01
458.2539, 11999.36
458.7360, 11820.42
459.2181, 11652.55
459.7002, 11516.95
460.1823, 11447.55
460.6645, 11400.35
461.1466, 11329.81
461.6287, 11227.41
462.1108, 11144.20
462.5929, 11110.69
463.0750, 11107.94
463.5572, 11114.44
464.0393, 11118.61
464.5214, 11137.18
465.0035, 11172.58
465.4856, 11225.59
465.9677, 11299.37
466.4499, 11407.26
466.9320, 11525.45
467.4141, 11644.39
467.8962, 11763.83
468.3783, 11882.72
468.8604, 11998.83
469.3426, 12115.01
469.8247, 12240.61
470.3068, 12378.15
470.7889, 12517.51
471.2710, 12661.48
471.7531, 12807.61
472.2353, 12922.75
472.7174, 13003.23
473.1995, 13068.58
473.6816, 13144.92
474.1637, 13227.94
474.6458, 13272.79
475.1280, 13267.34
475.6101, 13228.80
476.0922, 13185.87
476.5743, 13135.04
477.0564, 13060.42
477.5385, 12960.84
478.0207, 12828.57
478.5028, 12645.00
478.9849, 12407.07
479.4670, 12150.74
479.9491, 11886.90
480.4312, 11622.74
480.9134, 11370.58
481.3955, 11153.50
481.8776, 10926.35
482.3597, 10664.60
482.8418, 10376.44
483.3239, 10099.28
483.8060, 9844.127
484.2881, 9598.643
484.7703, 9360.862
485.2524, 9121.557
485.7345, 8904.622
486.2166, 8719.394
486.6987, 8551.992
487.1808, 8381.837
487.6630, 8203.092
488.1451, 8032.918
488.6272, 7875.735
489.1093, 7731.658
489.5914, 7595.470
490.0735, 7467.227
490.5557, 7350.755
491.0378, 7253.471
491.5199, 7173.889
492.0020, 7096.551
492.4841, 7020.346
492.9662, 6946.257
493.4484, 6878.025
493.9305, 6813.565
494.4126, 6746.905
494.8947, 6663.770
495.3768, 6582.085
495.8589, 6529.523
496.3411, 6504.762
496.8232, 6480.380
497.3053, 6434.323
497.7874, 6380.973
498.2695, 6334.808
498.7516, 6297.357
499.2338, 6270.924
499.7159, 6269.004
500.1980, 6278.314
500.6801, 6271.732
501.1622, 6220.712
501.6443, 6173.817
502.1265, 6153.244
502.6086, 6166.277
503.0907, 6156.722
503.5728, 6106.298
504.0549, 6049.424
504.5370, 6013.941
505.0192, 6010.649
505.5013, 5999.882
505.9834, 5977.541
506.4655, 5945.928
506.9476, 5910.000
507.4297, 5869.176
507.9119, 5825.750
508.3940, 5775.657
508.8761, 5722.669
509.3582, 5688.619
509.8403, 5675.172
510.3224, 5662.941
510.8046, 5631.475
511.2867, 5587.163
511.7688, 5542.785
512.2509, 5499.454
512.7330, 5462.493
513.2151, 5440.694
513.6973, 5430.071
514.1794, 5419.231
514.6615, 5405.513
515.1436, 5387.540
515.6257, 5364.479
516.1078, 5335.972
516.5900, 5302.850
517.0721, 5256.957
517.5542, 5210.410
518.0363, 5173.914
518.5184, 5156.667
519.0005, 5139.746
519.4827, 5121.010
519.9648, 5101.610
520.4469, 5086.684
520.9290, 5079.098
521.4111, 5069.796
521.8932, 5055.127
522.3754, 5034.868
522.8575, 5011.741
523.3396, 4985.083
523.8217, 4957.330
524.3038, 4928.062
524.7859, 4898.868
525.2681, 4879.332
525.7502, 4874.808
526.2323, 4875.974
526.7144, 4870.088
527.1965, 4857.615
527.6786, 4840.846
528.1608, 4815.575
528.6429, 4789.818
529.1250, 4772.758
529.6071, 4765.162
530.0892, 4759.777
530.5714, 4756.771
531.0535, 4752.079
531.5356, 4741.792
532.0176, 4716.250
532.4998, 4695.111
532.9819, 4680.921
533.4640, 4673.795
533.9461, 4674.246
534.4282, 4697.659
534.9103, 4709.473
535.3925, 4694.003
535.8746, 4646.809
536.3567, 4619.501
536.8388, 4617.355
537.3209, 4624.929
537.8030, 4629.419
538.2852, 4630.764
538.7673, 4630.181
539.2494, 4627.314
539.7315, 4623.514
540.2136, 4622.656
540.6957, 4623.852
541.1779, 4621.486
541.6600, 4602.480
542.1421, 4582.770
542.6242, 4592.584
543.1063, 4631.095
543.5884, 4663.028
544.0706, 4657.525
544.5527, 4637.225
545.0348, 4624.229
545.5169, 4626.063
545.9990, 4630.750
546.4811, 4636.820
546.9633, 4642.712
547.4454, 4645.524
547.9275, 4634.417
548.4096, 4631.532
548.8917, 4646.861
549.3738, 4679.607
549.8560, 4696.963
550.3381, 4691.285
550.8202, 4682.571
551.3023, 4684.470
551.7844, 4698.547
552.2665, 4710.752
552.7487, 4721.155
553.2308, 4727.575
553.7129, 4721.469
554.1950, 4705.464
554.6771, 4700.135
555.1592, 4717.814
555.6414, 4746.330
556.1235, 4769.069
556.6056, 4786.285
557.0877, 4798.658
557.5698, 4807.107
558.0519, 4810.625
558.5341, 4806.266
559.0162, 4791.400
559.4983, 4779.783
559.9804, 4774.632
560.4625, 4776.402
560.9446, 4785.619
561.4268, 4819.314
561.9089, 4840.258
562.3910, 4838.078
562.8731, 4819.222
563.3552, 4805.474
563.8373, 4794.892
564.3195, 4793.438
564.8016, 4808.966
565.2837, 4842.374
565.7658, 4852.712
566.2479, 4836.737
566.7300, 4810.700
567.2122, 4785.954
567.6943, 4763.806
568.1764, 4752.598
568.6585, 4756.450
569.1406, 4765.040
569.6227, 4768.701
570.1049, 4766.970
570.5870, 4758.567
571.0691, 4738.316
571.5512, 4714.871
572.0333, 4691.597
572.5154, 4669.161
572.9976, 4654.979
573.4797, 4658.466
573.9618, 4666.185
574.4439, 4670.271
574.9260, 4669.907
575.4081, 4665.425
575.8903, 4656.078
576.3724, 4643.164
576.8545, 4627.562
577.3366, 4606.994
577.8187, 4589.013
578.3008, 4573.761
578.7830, 4562.655
579.2651, 4563.547
579.7472, 4577.338
580.2293, 4589.134
580.7114, 4587.194
581.1935, 4576.847
581.6757, 4576.559
582.1578, 4587.535
582.6399, 4592.990
583.1220, 4565.294
583.6041, 4527.376
584.0862, 4513.252
584.5684, 4545.455
585.0505, 4577.313
585.5326, 4580.493
586.0147, 4567.067
586.4968, 4559.726
586.9789, 4571.823
587.4611, 4583.027
587.9432, 4585.342
588.4253, 4579.519
588.9074, 4581.877
589.3895, 4600.478
589.8716, 4615.406
590.3538, 4612.203
590.8359, 4586.634
591.3180, 4573.013
591.8001, 4572.746
592.2822, 4581.839
592.7643, 4601.748
593.2465, 4629.264
593.7286, 4644.102
594.2107, 4636.289
594.6928, 4620.141
595.1749, 4610.481
595.6570, 4607.445
596.1392, 4611.466
596.6213, 4629.481
597.1034, 4649.508
597.5854, 4663.267
598.0676, 4670.257
598.5497, 4676.205
599.0318, 4683.696
599.5139, 4690.272
599.9960, 4693.908
600.4781, 4689.409
600.9603, 4691.973
601.4424, 4707.461
601.9245, 4725.615
602.4066, 4729.829
602.8887, 4716.207
603.3708, 4706.679
603.8530, 4707.532
604.3351, 4714.980
604.8172, 4718.457
605.2993, 4718.200
605.7814, 4718.377
606.2635, 4716.811
606.7457, 4718.974
607.2278, 4739.007
607.7099, 4777.491
608.1920, 4810.376
608.6741, 4817.630
609.1563, 4813.307
609.6384, 4811.111
610.1205, 4814.952
610.6026, 4819.245
611.0847, 4823.704
611.5668, 4827.423
612.0490, 4828.873
612.5311, 4825.570
613.0132, 4823.280
613.4953, 4820.279
613.9774, 4818.911
614.4595, 4833.055
614.9417, 4867.126
615.4238, 4899.534
615.9059, 4918.158
616.3880, 4924.833
