##NAMES=Milarite
##RRUFFID=R070373
##IDEAL CHEMISTRY=KCa_2_(Be_2_AlSi_12_O_30_)&#183;H_2_O
##LOCALITY=Guanajuato, Mexico
##OWNER=RRUFF
##SOURCE=Royal Ontario Museum
##DESCRIPTION=Pale yellow-green hexagonal fragment associated with calcite
##STATUS=The identification of this mineral is confirmed by single-crystal X-ray diffraction and chemical analysis.
##URL=rruff.info/R070373
##MEASURED CHEMISTRY=(K_1.00_Na_0.03_)_Σ=1.03_(Ca_1.98_Mn_0.02_)_Σ=2_(Be_2.00_Al_1.00_)_Σ=3_(Si_11.97_Al_0.03_)_Σ=12_O_30_·H_2_O; H_2_O assumed ideal from stoichiometry; BeO estimated by difference
154.7676, 8276.523
155.2497, 8255.400
155.7318, 8254.405
156.2139, 8290.192
156.6960, 8343.894
157.1782, 8392.091
157.6603, 8431.605
158.1424, 8479.559
158.6245, 8563.864
159.1066, 8668.108
159.5887, 8750.649
160.0709, 8797.264
160.5530, 8817.524
161.0351, 8821.018
161.5172, 8805.246
161.9993, 8782.764
162.4814, 8757.943
162.9636, 8732.902
163.4457, 8711.679
163.9278, 8692.811
164.4099, 8679.556
164.8920, 8679.188
165.3741, 8694.231
165.8563, 8715.352
166.3384, 8734.989
166.8205, 8756.424
167.3026, 8786.796
167.7847, 8836.730
168.2668, 8895.119
168.7490, 8935.841
169.2311, 8951.471
169.7132, 8966.408
170.1953, 8994.888
170.6774, 9031.062
171.1595, 9067.198
171.6417, 9106.157
172.1238, 9140.180
172.6059, 9144.046
173.0880, 9097.458
173.5701, 9061.736
174.0522, 9072.222
174.5344, 9107.834
175.0165, 9139.126
175.4986, 9151.923
175.9807, 9151.235
176.4628, 9150.549
176.9449, 9149.859
177.4271, 9149.170
177.9092, 9151.567
178.3913, 9153.319
178.8734, 9147.615
179.3555, 9127.263
179.8376, 9100.808
180.3197, 9095.609
180.8019, 9126.793
181.2840, 9152.862
181.7661, 9158.067
182.2482, 9152.271
182.7303, 9145.761
183.2124, 9141.567
183.6946, 9142.937
184.1767, 9161.136
184.6588, 9207.518
185.1409, 9251.229
185.6230, 9290.957
186.1051, 9321.545
186.5873, 9333.149
187.0694, 9317.813
187.5515, 9290.415
188.0336, 9292.947
188.5157, 9347.860
188.9978, 9394.826
189.4800, 9417.396
189.9621, 9427.898
190.4442, 9439.005
190.9263, 9456.174
191.4084, 9476.576
191.8905, 9493.144
192.3727, 9503.354
192.8548, 9514.160
193.3369, 9525.902
193.8190, 9539.104
194.3011, 9554.068
194.7832, 9570.905
195.2654, 9590.017
195.7475, 9612.737
196.2296, 9643.079
196.7117, 9669.690
197.1938, 9690.180
197.6759, 9707.580
198.1581, 9724.575
198.6402, 9742.111
199.1223, 9758.775
199.6044, 9772.285
200.0865, 9783.696
200.5686, 9789.120
201.0508, 9781.315
201.5329, 9772.777
202.0150, 9774.733
202.4971, 9789.774
202.9792, 9809.840
203.4613, 9821.901
203.9435, 9822.432
204.4256, 9822.440
204.9077, 9824.449
205.3898, 9824.923
205.8719, 9815.859
206.3540, 9798.166
206.8362, 9786.096
207.3183, 9804.630
207.8004, 9876.708
208.2825, 9919.669
208.7646, 9918.609
209.2467, 9903.617
209.7289, 9886.851
210.2110, 9872.319
210.6931, 9861.645
211.1752, 9856.768
211.6573, 9858.075
212.1395, 9864.256
212.6216, 9878.501
213.1037, 9894.458
213.5858, 9907.075
214.0679, 9917.621
214.5500, 9932.746
215.0322, 9961.762
215.5143, 10009.08
215.9964, 10039.95
216.4785, 10036.49
216.9606, 10033.57
217.4427, 10047.50
217.9249, 10074.22
218.4070, 10097.84
218.8891, 10101.97
219.3712, 10085.42
219.8533, 10092.95
220.3354, 10155.34
220.8176, 10213.08
221.2997, 10249.42
221.7818, 10268.64
222.2639, 10281.32
222.7460, 10293.62
223.2281, 10306.11
223.7103, 10323.83
224.1924, 10358.53
224.6745, 10385.52
225.1566, 10392.28
225.6387, 10389.63
226.1208, 10394.24
226.6030, 10416.32
227.0851, 10451.44
227.5672, 10481.73
228.0493, 10513.29
228.5314, 10530.16
229.0135, 10524.22
229.4957, 10505.27
229.9778, 10481.32
230.4599, 10455.46
230.9420, 10432.72
231.4241, 10427.77
231.9062, 10459.74
232.3884, 10476.25
232.8705, 10461.75
233.3526, 10436.25
233.8347, 10415.68
234.3168, 10405.58
234.7989, 10402.89
235.2811, 10403.27
235.7632, 10408.74
236.2453, 10412.49
236.7274, 10406.02
237.2095, 10403.24
237.6916, 10415.90
238.1738, 10445.17
238.6559, 10480.43
239.1380, 10509.81
239.6201, 10533.21
240.1022, 10550.88
240.5843, 10555.84
241.0665, 10560.80
241.5486, 10572.16
242.0307, 10589.91
242.5128, 10609.96
242.9949, 10631.51
243.4770, 10655.87
243.9592, 10665.49
244.4413, 10634.90
244.9234, 10613.64
245.4055, 10629.67
245.8876, 10671.50
246.3697, 10707.81
246.8519, 10715.75
247.3340, 10697.95
247.8161, 10676.38
248.2982, 10638.59
248.7803, 10614.79
249.2624, 10621.12
249.7446, 10645.81
250.2267, 10669.13
250.7088, 10678.81
251.1909, 10682.28
251.6730, 10704.15
252.1551, 10759.22
252.6373, 10802.43
253.1194, 10811.69
253.6015, 10806.20
254.0836, 10804.28
254.5657, 10811.37
255.0478, 10828.67
255.5300, 10860.93
256.0121, 10912.25
256.4942, 10962.69
256.9763, 11007.67
257.4584, 11048.83
257.9406, 11087.57
258.4227, 11124.11
258.9048, 11157.52
259.3869, 11183.68
259.8690, 11201.94
260.3511, 11229.02
260.8333, 11268.49
261.3154, 11318.90
261.7975, 11383.07
262.2796, 11459.75
262.7617, 11535.16
263.2438, 11598.96
263.7260, 11652.98
264.2081, 11706.18
264.6902, 11756.16
265.1723, 11810.88
265.6544, 11881.48
266.1365, 11962.62
266.6187, 12035.13
267.1008, 12080.37
267.5829, 12112.67
268.0650, 12166.07
268.5471, 12248.36
269.0292, 12328.66
269.5114, 12389.84
269.9935, 12433.81
270.4756, 12458.57
270.9577, 12441.16
271.4398, 12422.67
271.9219, 12457.84
272.4041, 12548.42
272.8862, 12635.86
273.3683, 12690.92
273.8504, 12723.99
274.3325, 12756.31
274.8146, 12785.96
275.2968, 12820.24
275.7789, 12855.73
276.2610, 12897.35
276.7431, 12969.97
277.2252, 13092.44
277.7073, 13236.91
278.1895, 13351.77
278.6716, 13426.77
279.1537, 13523.02
279.6358, 13662.59
280.1179, 13837.64
280.6000, 14040.03
281.0822, 14271.56
281.5643, 14510.81
282.0464, 14729.24
282.5285, 14922.13
283.0106, 15140.32
283.4927, 15411.29
283.9749, 15696.03
284.4570, 15970.08
284.9391, 16228.68
285.4212, 16466.85
285.9033, 16695.46
286.3854, 16905.76
286.8676, 16976.78
287.3497, 16867.18
287.8318, 16673.51
288.3139, 16426.67
288.7960, 16131.82
289.2781, 15791.64
289.7603, 15403.19
290.2424, 14977.69
290.7245, 14569.13
291.2066, 14145.16
291.6887, 13775.28
292.1708, 13498.62
292.6530, 13271.78
293.1351, 13038.13
293.6172, 12778.13
294.0993, 12516.80
294.5814, 12300.08
295.0635, 12145.18
295.5457, 12006.99
296.0278, 11880.01
296.5099, 11772.88
296.9920, 11702.93
297.4741, 11665.29
297.9562, 11630.85
298.4384, 11565.73
298.9205, 11461.12
299.4026, 11387.25
299.8847, 11362.34
300.3668, 11348.85
300.8489, 11338.45
301.3311, 11329.40
301.8131, 11321.65
302.2953, 11315.37
302.7774, 11310.12
303.2595, 11303.44
303.7416, 11293.52
304.2237, 11284.88
304.7058, 11284.21
305.1880, 11282.73
305.6701, 11266.87
306.1522, 11230.94
306.6343, 11192.40
307.1164, 11181.69
307.5985, 11205.59
308.0807, 11232.26
308.5628, 11268.23
309.0449, 11296.68
309.5270, 11299.94
310.0091, 11279.16
310.4912, 11260.36
310.9734, 11271.85
311.4555, 11309.92
311.9376, 11331.14
312.4197, 11318.43
312.9018, 11309.09
313.3839, 11335.44
313.8661, 11383.80
314.3482, 11417.54
314.8303, 11404.23
315.3124, 11373.24
315.7945, 11380.72
316.2766, 11432.87
316.7588, 11486.92
317.2409, 11515.72
317.7230, 11533.10
318.2051, 11562.91
318.6872, 11614.35
319.1693, 11666.91
319.6515, 11700.62
320.1336, 11720.53
320.6157, 11752.79
321.0978, 11812.02
321.5799, 11877.76
322.0620, 11917.34
322.5442, 11929.74
323.0263, 11933.37
323.5084, 11930.58
323.9905, 11923.15
324.4726, 11914.19
324.9547, 11904.16
325.4369, 11889.56
325.9190, 11867.09
326.4011, 11835.92
326.8832, 11799.20
327.3653, 11745.61
327.8474, 11696.78
328.3296, 11666.81
328.8117, 11652.12
329.2938, 11640.55
329.7759, 11624.81
330.2580, 11606.82
330.7401, 11595.88
331.2223, 11626.39
331.7044, 11620.91
332.1865, 11526.02
332.6686, 11411.83
333.1507, 11361.73
333.6328, 11398.38
334.1150, 11470.35
334.5971, 11499.91
335.0792, 11465.37
335.5613, 11446.44
336.0434, 11467.87
336.5255, 11481.33
337.0077, 11449.65
337.4898, 11384.84
337.9719, 11330.12
338.4540, 11322.98
338.9361, 11357.25
339.4182, 11376.62
339.9004, 11369.38
340.3825, 11363.92
340.8646, 11370.32
341.3467, 11382.48
341.8288, 11393.14
342.3109, 11399.80
342.7931, 11403.16
343.2752, 11404.45
343.7573, 11403.92
344.2394, 11399.57
344.7215, 11390.62
345.2036, 11377.49
345.6858, 11355.33
346.1679, 11324.73
346.6500, 11305.11
347.1321, 11315.52
347.6142, 11346.10
348.0963, 11371.73
348.5785, 11391.66
349.0606, 11401.08
349.5427, 11383.75
350.0248, 11351.18
350.5069, 11339.15
350.9890, 11375.05
351.4712, 11416.97
351.9533, 11429.65
352.4354, 11417.18
352.9175, 11400.90
353.3996, 11389.31
353.8817, 11381.88
354.3639, 11377.89
354.8460, 11378.39
355.3281, 11379.22
355.8102, 11385.15
356.2923, 11388.38
356.7744, 11373.09
357.2566, 11337.64
357.7387, 11306.22
358.2208, 11308.45
358.7029, 11353.92
359.1850, 11379.62
359.6671, 11374.27
360.1493, 11363.50
360.6314, 11354.79
361.1135, 11349.81
361.5956, 11349.95
362.0777, 11356.38
362.5598, 11367.37
363.0420, 11376.44
363.5241, 11380.26
364.0062, 11387.73
364.4883, 11403.49
364.9704, 11420.67
365.4525, 11433.13
365.9347, 11439.72
366.4168, 11444.45
366.8989, 11453.40
367.3810, 11467.35
367.8631, 11471.61
368.3452, 11446.61
368.8274, 11435.61
369.3095, 11470.33
369.7916, 11534.78
370.2737, 11589.55
370.7558, 11609.26
371.2379, 11614.51
371.7201, 11642.13
372.2022, 11694.62
372.6843, 11744.80
373.1664, 11778.42
373.6485, 11804.78
374.1306, 11836.62
374.6128, 11873.07
375.0949, 11919.39
375.5770, 11992.92
376.0591, 12075.54
376.5412, 12121.52
377.0233, 12116.85
377.5055, 12112.98
377.9876, 12169.70
378.4697, 12295.12
378.9518, 12386.44
379.4339, 12427.77
379.9160, 12447.66
380.3982, 12449.39
380.8803, 12442.25
381.3624, 12451.65
381.8445, 12494.31
382.3266, 12552.42
382.8087, 12572.18
383.2909, 12528.13
383.7730, 12475.00
384.2551, 12404.82
384.7372, 12332.33
385.2193, 12271.09
385.7014, 12222.13
386.1836, 12174.34
386.6657, 12115.25
387.1478, 12044.29
387.6299, 11976.87
388.1120, 11909.05
388.5941, 11849.66
389.0763, 11795.12
389.5584, 11752.03
390.0405, 11734.30
390.5226, 11752.27
391.0047, 11784.19
391.4868, 11796.46
391.9690, 11787.61
392.4511, 11771.87
392.9332, 11747.34
393.4153, 11722.18
393.8974, 11703.81
394.3795, 11692.24
394.8617, 11684.42
395.3438, 11679.16
395.8259, 11676.55
396.3080, 11680.11
396.7901, 11690.90
397.2722, 11693.56
397.7544, 11672.36
398.2365, 11633.70
398.7186, 11611.98
399.2007, 11615.41
399.6828, 11626.24
400.1649, 11643.96
400.6471, 11663.14
401.1292, 11674.93
401.6113, 11676.42
402.0934, 11670.42
402.5755, 11660.62
403.0576, 11645.78
403.5398, 11630.82
404.0219, 11607.79
404.5040, 11591.81
404.9861, 11596.83
405.4682, 11615.57
405.9503, 11629.30
406.4325, 11625.60
406.9146, 11609.59
407.3967, 11599.95
407.8788, 11601.79
408.3609, 11599.47
408.8430, 11584.03
409.3252, 11567.45
409.8073, 11560.65
410.2894, 11564.78
410.7715, 11569.79
411.2536, 11563.24
411.7357, 11548.95
412.2179, 11549.29
412.7000, 11571.77
413.1821, 11594.24
413.6642, 11594.43
414.1463, 11584.14
414.6284, 11588.07
415.1106, 11623.03
415.5927, 11658.49
416.0748, 11667.31
416.5569, 11657.82
417.0390, 11619.73
417.5211, 11670.30
418.0033, 11702.05
418.4854, 11715.99
418.9675, 11658.80
419.4496, 11693.46
419.9317, 11691.31
420.4138, 11687.66
420.8960, 11735.25
421.3781, 11688.40
421.8602, 11735.18
422.3423, 11744.59
422.8244, 11771.10
423.3065, 11760.57
423.7887, 11761.49
424.2708, 11799.45
424.7529, 11794.52
425.2350, 11826.30
425.7171, 11839.27
426.1992, 11831.03
426.6814, 11821.76
427.1635, 11833.25
427.6456, 11863.34
428.1277, 11884.60
428.6098, 11892.51
429.0919, 11900.14
429.5741, 11915.25
430.0562, 11934.19
430.5383, 11951.39
431.0204, 11964.73
431.5025, 11977.89
431.9846, 11996.66
432.4668, 12018.25
432.9489, 12031.48
433.4310, 12032.07
433.9131, 12028.27
434.3952, 12027.53
434.8773, 12029.48
435.3595, 12042.34
435.8416, 12084.70
436.3237, 12121.75
436.8058, 12123.71
437.2879, 12102.63
437.7701, 12089.76
438.2522, 12100.78
438.7343, 12131.76
439.2164, 12174.50
439.6985, 12245.94
440.1806, 12298.15
440.6628, 12327.86
441.1449, 12343.13
441.6270, 12337.82
442.1091, 12320.46
442.5912, 12317.03
443.0733, 12352.77
443.5555, 12415.44
444.0376, 12456.02
444.5197, 12467.37
445.0018, 12476.63
445.4839, 12485.28
445.9660, 12501.95
446.4482, 12540.22
446.9303, 12604.51
447.4124, 12667.28
447.8945, 12705.13
448.3766, 12730.84
448.8587, 12774.88
449.3409, 12842.98
449.8230, 12906.87
450.3051, 12939.73
450.7872, 12946.67
451.2693, 12978.78
451.7514, 13053.87
452.2336, 13131.23
452.7157, 13204.58
453.1978, 13269.53
453.6799, 13315.06
454.1620, 13339.56
454.6441, 13360.19
455.1263, 13400.28
455.6084, 13464.28
456.0905, 13522.10
456.5726, 13559.96
457.0547, 13605.33
457.5368, 13678.21
458.0190, 13761.34
458.5011, 13823.41
458.9832, 13847.97
459.4653, 13863.32
459.9474, 13914.15
460.4295, 14000.89
460.9117, 14080.25
461.3938, 14141.29
461.8759, 14196.33
462.3580, 14245.49
462.8401, 14293.82
463.3222, 14373.86
463.8044, 14503.09
464.2865, 14661.42
464.7686, 14841.81
465.2507, 15037.89
465.7328, 15222.60
466.2149, 15379.86
466.6971, 15534.45
467.1792, 15732.35
467.6613, 15995.66
468.1434, 16260.58
468.6255, 16520.03
469.1076, 16787.49
469.5898, 17064.48
470.0719, 17355.41
470.5540, 17665.17
471.0361, 17998.98
471.5182, 18352.59
472.0003, 18722.21
472.4825, 19106.19
472.9646, 19504.34
473.4467, 19932.20
473.9288, 20361.57
474.4109, 20800.87
474.8930, 21237.62
475.3752, 21597.06
475.8573, 21825.36
476.3394, 21953.26
476.8215, 22039.03
477.3036, 22083.88
477.7857, 22048.37
478.2679, 21916.48
478.7500, 21688.44
479.2321, 21348.49
479.7142, 20871.72
480.1963, 20375.20
480.6784, 19889.95
481.1606, 19388.55
481.6427, 18825.33
482.1248, 18211.49
482.6069, 17615.06
483.0890, 17081.24
483.5711, 16608.21
484.0533, 16175.84
484.5354, 15798.07
485.0175, 15439.75
485.4996, 15086.74
485.9817, 14754.30
486.4638, 14452.63
486.9460, 14183.61
487.4281, 13953.30
487.9102, 13781.61
488.3923, 13651.28
488.8744, 13506.17
489.3565, 13341.08
489.8387, 13190.37
490.3208, 13074.31
490.8029, 12983.72
491.2850, 12895.27
491.7671, 12803.45
492.2492, 12728.83
492.7314, 12690.80
493.2135, 12667.34
493.6956, 12634.09
494.1777, 12589.00
494.6598, 12542.89
495.1419, 12504.99
495.6241, 12472.61
496.1062, 12426.34
496.5883, 12342.53
497.0704, 12278.91
497.5525, 12245.98
498.0346, 12230.75
498.5168, 12229.69
498.9989, 12238.19
499.4810, 12241.44
499.9631, 12223.94
500.4452, 12191.53
500.9273, 12167.46
501.4095, 12154.04
501.8916, 12139.15
502.3737, 12117.60
502.8558, 12091.19
503.3379, 12059.01
503.8200, 12015.06
504.3022, 11991.36
504.7843, 12013.91
505.2664, 12055.08
505.7485, 12091.58
506.2306, 12117.69
506.7127, 12117.57
507.1949, 12075.52
507.6770, 12006.03
508.1591, 11973.04
508.6412, 12003.21
509.1233, 12032.65
509.6054, 12063.78
510.0876, 12088.51
510.5697, 12094.11
511.0518, 12085.31
511.5339, 12084.35
512.0161, 12112.62
512.4982, 12156.70
512.9803, 12177.64
513.4624, 12171.34
513.9445, 12164.97
514.4266, 12162.17
514.9088, 12169.24
515.3909, 12198.30
515.8730, 12251.88
516.3551, 12294.67
516.8372, 12303.71
517.3193, 12306.47
517.8015, 12330.07
518.2836, 12371.74
518.7657, 12414.72
519.2478, 12450.27
519.7299, 12480.49
520.2120, 12510.72
520.6942, 12545.79
521.1763, 12571.37
521.6584, 12571.00
522.1405, 12577.48
522.6226, 12606.09
523.1047, 12656.39
523.5869, 12725.24
524.0690, 12817.10
524.5511, 12913.72
525.0332, 12980.01
525.5153, 13016.23
525.9974, 13063.88
526.4796, 13135.27
526.9617, 13217.05
527.4438, 13292.36
527.9259, 13363.03
528.4080, 13448.28
528.8901, 13572.19
529.3723, 13690.46
529.8544, 13771.81
530.3365, 13829.79
530.8186, 13894.31
531.3007, 13975.42
531.7828, 14051.14
532.2650, 14087.36
532.7471, 14074.71
533.2292, 14082.09
533.7113, 14133.62
534.1934, 14177.94
534.6755, 14203.73
535.1577, 14211.60
535.6398, 14197.69
536.1219, 14158.30
536.6040, 14121.58
537.0861, 14125.96
537.5682, 14154.53
538.0504, 14144.79
538.5325, 14084.20
539.0146, 14028.78
539.4967, 14029.16
539.9788, 14066.84
540.4609, 14050.16
540.9431, 13928.99
541.4252, 13828.26
541.9073, 13782.90
542.3894, 13762.85
542.8715, 13746.62
543.3536, 13727.39
543.8358, 13700.39
544.3179, 13662.33
544.8000, 13612.90
545.2821, 13545.14
545.7642, 13442.87
546.2463, 13367.23
546.7285, 13364.19
547.2106, 13371.36
547.6927, 13337.41
548.1748, 13263.81
548.6569, 13191.49
549.1390, 13134.48
549.6211, 13090.69
550.1032, 13063.43
550.5853, 13048.95
551.0674, 13032.69
551.5496, 13008.65
552.0317, 12980.17
552.5138, 12952.68
552.9959, 12927.35
553.4780, 12898.58
553.9601, 12857.96
554.4423, 12823.21
554.9244, 12812.33
555.4065, 12808.61
555.8886, 12782.85
556.3707, 12723.65
556.8528, 12656.45
557.3350, 12610.33
557.8171, 12583.64
558.2992, 12564.78
558.7813, 12555.74
559.2634, 12545.37
559.7455, 12530.93
560.2277, 12508.22
560.7098, 12466.70
561.1919, 12394.78
561.6740, 12324.12
562.1561, 12257.94
562.6382, 12201.99
563.1204, 12166.00
563.6025, 12147.90
564.0846, 12132.83
564.5667, 12108.88
565.0488, 12080.94
565.5309, 12071.57
566.0131, 12096.48
566.4952, 12100.23
566.9773, 12050.55
567.4594, 11994.77
567.9415, 11960.18
568.4236, 11945.84
568.9058, 11939.96
569.3879, 11941.45
569.8700, 11945.70
570.3521, 11948.67
570.8342, 11950.49
571.3163, 11953.18
571.7985, 11957.93
572.2806, 11957.23
572.7627, 11939.64
573.2448, 11901.58
573.7269, 11880.23
574.2090, 11885.73
574.6912, 11894.67
575.1733, 11907.50
575.6554, 11917.48
576.1375, 11914.87
576.6196, 11898.68
577.1017, 11882.15
577.5839, 11878.23
578.0660, 11883.58
578.5481, 11887.69
579.0302, 11890.58
579.5123, 11890.95
579.9944, 11888.73
580.4766, 11883.17
580.9587, 11871.23
581.4408, 11850.35
581.9229, 11834.57
582.4050, 11825.86
582.8871, 11822.91
583.3693, 11833.15
583.8514, 11847.46
584.3335, 11842.27
584.8156, 11806.52
585.2977, 11766.34
585.7798, 11769.08
586.2620, 11819.89
586.7441, 11853.42
587.2262, 11863.52
587.7083, 11861.40
588.1904, 11847.23
588.6725, 11826.78
589.1547, 11808.80
589.6368, 11793.70
590.1189, 11782.89
590.6010, 11778.57
591.0831, 11778.07
591.5652, 11779.18
592.0474, 11781.04
592.5295, 11782.57
593.0116, 11783.70
593.4937, 11782.01
593.9758, 11767.94
594.4579, 11730.62
594.9401, 11706.93
595.4222, 11707.19
595.9043, 11715.58
596.3864, 11726.81
596.8685, 11740.01
597.3506, 11755.16
597.8328, 11775.50
598.3149, 11791.29
598.7970, 11792.95
599.2791, 11783.28
599.7612, 11766.19
600.2433, 11742.32
600.7255, 11723.56
601.2076, 11720.37
601.6897, 11731.25
602.1718, 11743.80
602.6539, 11759.42
603.1360, 11774.88
603.6182, 11797.60
604.1003, 11814.05
604.5824, 11812.83
605.0645, 11795.31
605.5466, 11770.10
606.0287, 11736.33
606.5109, 11705.23
606.9930, 11695.01
607.4751, 11703.86
607.9572, 11719.96
608.4393, 11743.15
608.9214, 11762.19
609.4036, 11764.17
609.8857, 11748.99
610.3678, 11739.03
610.8499, 11730.35
611.3320, 11731.30
611.8141, 11754.92
612.2963, 11782.15
612.7784, 11790.87
613.2605, 11781.14
613.7426, 11772.33
614.2247, 11781.17
614.7068, 11799.52
615.1890, 11811.01
615.6711, 11816.16
616.1532, 11797.73
616.6353, 11736.55
617.1174, 11675.80
617.5995, 11671.80
618.0817, 11725.98
618.5638, 11757.79
619.0459, 11743.69
619.5280, 11730.42
620.0101, 11740.85
620.4922, 11759.82
620.9744, 11768.81
621.4565, 11763.90
621.9386, 11750.03
622.4207, 11725.09
622.9028, 11697.54
623.3849, 11707.25
623.8671, 11762.12
624.3492, 11808.38
624.8313, 11830.09
625.3134, 11836.14
625.7955, 11830.47
626.2776, 11813.90
626.7598, 11809.45
627.2419, 11839.13
627.7240, 11861.29
628.2061, 11846.11
628.6882, 11813.63
629.1703, 11789.82
629.6525, 11782.53
630.1346, 11792.11
630.6167, 11825.15
631.0988, 11874.42
631.5809, 11899.46
632.0630, 11897.44
632.5452, 11880.80
633.0273, 11839.01
633.5094, 11797.79
633.9915, 11792.31
634.4736, 11820.17
634.9557, 11832.67
635.4379, 11796.67
635.9200, 11767.69
636.4021, 11787.00
636.8842, 11830.02
637.3663, 11856.16
637.8484, 11856.71
638.3306, 11853.55
638.8127, 11870.59
639.2948, 11902.46
639.7769, 11914.88
640.2590, 11903.87
640.7411, 11886.93
641.2233, 11862.23
641.7054, 11840.26
642.1875, 11834.24
642.6696, 11842.68
643.1517, 11847.55
643.6339, 11834.70
644.1160, 11828.51
644.5981, 11847.18
645.0802, 11879.28
645.5623, 11909.22
646.0444, 11932.67
646.5266, 11950.61
647.0087, 11963.52
