##NAMES=Milarite
##RRUFFID=R070464
##IDEAL CHEMISTRY=KCa_2_(Be_2_AlSi_12_O_30_)&#183;H_2_O
##LOCALITY=Rössing Mine, Arandis, Swakopmund District, Namibia
##OWNER=RRUFF
##SOURCE=Michael Scott
##DESCRIPTION=Fragments from a pale yellow green hexagonal prism
##STATUS=The identification of this mineral has been confirmed by X-ray diffraction and chemical analysis
##URL=rruff.info/R070464
##MEASURED CHEMISTRY=(K_1.11_Na_0.21_)_Σ=1.32_Ca_2.00_(Be_2.36_Al_0.64_)_Σ=3_Si_12.00_O_30_·H_2_O; H_2_O assumed ideal from stoichiometry; BeO estimated by difference
141.6486, 7955.371
142.1307, 8202.620
142.6128, 8460.462
143.0949, 8722.853
143.5770, 8991.134
144.0591, 9269.233
144.5413, 9548.813
145.0234, 9853.684
145.5055, 10205.44
145.9876, 10579.59
146.4697, 10938.42
146.9518, 11268.29
147.4340, 11589.17
147.9161, 11951.11
148.3982, 12381.72
148.8803, 12774.58
149.3624, 13087.97
149.8445, 13349.43
150.3267, 13612.70
150.8088, 13902.01
151.2909, 14191.32
151.7730, 14436.66
152.2551, 14644.00
152.7372, 14810.95
153.2194, 14917.31
153.7015, 14980.30
154.1836, 15047.85
154.6657, 15142.77
155.1478, 15238.00
155.6299, 15288.40
156.1121, 15288.33
156.5942, 15275.19
157.0763, 15246.51
157.5584, 15214.19
158.0405, 15230.60
158.5226, 15335.82
159.0048, 15474.17
159.4869, 15564.51
159.9690, 15598.15
160.4511, 15626.47
160.9332, 15679.89
161.4153, 15721.56
161.8975, 15676.91
162.3796, 15601.56
162.8617, 15515.89
163.3438, 15450.33
163.8259, 15412.19
164.3080, 15356.06
164.7902, 15248.97
165.2723, 15094.28
165.7544, 14917.92
166.2365, 14701.88
166.7186, 14490.81
167.2007, 14325.97
167.6829, 14211.96
168.1650, 14118.08
168.6471, 14027.55
169.1292, 13940.67
169.6113, 13840.92
170.0934, 13716.65
170.5756, 13585.89
171.0577, 13457.39
171.5398, 13332.27
172.0219, 13217.97
172.5040, 13124.43
172.9861, 13052.16
173.4683, 12980.65
173.9504, 12903.39
174.4325, 12825.99
174.9146, 12750.41
175.3967, 12676.44
175.8788, 12607.54
176.3610, 12547.63
176.8431, 12496.97
177.3252, 12446.89
177.8073, 12394.27
178.2894, 12342.34
178.7715, 12288.24
179.2537, 12232.73
179.7358, 12187.07
180.2179, 12171.93
180.7000, 12194.51
181.1821, 12191.28
181.6642, 12129.11
182.1464, 12056.81
182.6285, 11996.03
183.1106, 11949.30
183.5927, 11908.49
184.0748, 11863.22
184.5569, 11810.86
185.0391, 11772.11
185.5212, 11770.18
186.0033, 11766.33
186.4854, 11735.07
186.9675, 11679.34
187.4496, 11627.81
187.9318, 11617.91
188.4139, 11661.53
188.8960, 11673.68
189.3781, 11610.84
189.8602, 11548.20
190.3423, 11520.59
190.8245, 11525.83
191.3066, 11537.38
191.7887, 11522.91
192.2708, 11473.83
192.7529, 11458.73
193.2350, 11541.66
193.7172, 11604.65
194.1993, 11583.99
194.6814, 11495.23
195.1635, 11403.69
195.6456, 11370.27
196.1277, 11400.62
196.6099, 11426.20
197.0920, 11455.04
197.5741, 11471.51
198.0562, 11467.42
198.5383, 11445.73
199.0204, 11414.70
199.5026, 11378.05
199.9847, 11335.16
200.4668, 11305.51
200.9489, 11305.16
201.4310, 11304.26
201.9131, 11294.98
202.3953, 11278.47
202.8774, 11258.89
203.3595, 11238.56
203.8416, 11217.56
204.3237, 11200.19
204.8058, 11181.04
205.2880, 11171.88
205.7701, 11190.86
206.2522, 11221.07
206.7343, 11231.03
207.2164, 11195.54
207.6985, 11121.19
208.1807, 11067.38
208.6628, 11042.11
209.1449, 11030.86
209.6270, 11044.56
210.1091, 11067.21
210.5912, 11073.46
211.0734, 11045.61
211.5555, 10993.48
212.0376, 10965.25
212.5197, 10982.52
213.0018, 10997.75
213.4839, 10998.98
213.9661, 10994.04
214.4482, 10993.72
214.9303, 11003.66
215.4124, 11020.20
215.8945, 11031.38
216.3766, 11035.66
216.8587, 11036.35
217.3409, 11034.58
217.8230, 11029.83
218.3051, 11019.24
218.7872, 11001.60
219.2693, 10983.06
219.7514, 10977.94
220.2336, 10993.45
220.7157, 11010.55
221.1978, 11027.34
221.6799, 11044.45
222.1620, 11064.07
222.6441, 11086.63
223.1263, 11107.56
223.6084, 11117.87
224.0905, 11111.40
224.5726, 11108.20
225.0547, 11107.61
225.5368, 11111.58
226.0190, 11125.64
226.5011, 11149.12
226.9832, 11171.48
227.4653, 11177.04
227.9474, 11159.66
228.4296, 11144.29
228.9117, 11136.42
229.3938, 11126.87
229.8759, 11106.90
230.3580, 11078.05
230.8401, 11051.90
231.3223, 11044.13
231.8044, 11060.83
232.2865, 11062.46
232.7686, 11036.13
233.2507, 11005.11
233.7328, 10977.38
234.2150, 10952.62
234.6971, 10926.09
235.1792, 10890.54
235.6613, 10845.52
236.1434, 10817.53
236.6255, 10826.25
237.1077, 10832.29
237.5898, 10815.86
238.0719, 10787.19
238.5540, 10769.51
239.0361, 10783.06
239.5182, 10820.28
240.0004, 10831.90
240.4825, 10793.21
240.9646, 10762.37
241.4467, 10767.59
241.9288, 10788.21
242.4109, 10792.09
242.8931, 10758.60
243.3752, 10705.65
243.8573, 10685.81
244.3394, 10718.60
244.8215, 10746.96
245.3036, 10754.08
245.7858, 10750.51
246.2679, 10745.30
246.7500, 10741.22
247.2321, 10739.77
247.7142, 10745.58
248.1963, 10763.03
248.6785, 10773.45
249.1606, 10769.53
249.6427, 10758.90
250.1248, 10744.41
250.6069, 10726.79
251.0890, 10710.88
251.5712, 10700.96
252.0533, 10696.72
252.5354, 10701.29
253.0175, 10723.01
253.4996, 10748.09
253.9817, 10767.50
254.4639, 10780.98
254.9460, 10794.78
255.4281, 10818.87
255.9102, 10851.74
256.3923, 10866.12
256.8745, 10837.82
257.3566, 10818.41
257.8387, 10843.08
258.3208, 10904.04
258.8029, 10971.17
259.2850, 11031.16
259.7672, 11084.23
260.2493, 11128.57
260.7314, 11159.06
261.2135, 11191.78
261.6956, 11237.97
262.1777, 11292.94
262.6599, 11348.90
263.1420, 11402.24
263.6241, 11455.09
264.1062, 11508.69
264.5883, 11561.41
265.0704, 11624.38
265.5526, 11713.67
266.0347, 11814.10
266.5168, 11903.56
266.9989, 11971.99
267.4810, 12037.71
267.9631, 12118.60
268.4453, 12214.07
268.9274, 12312.35
269.4095, 12414.38
269.8916, 12512.73
270.3737, 12596.16
270.8558, 12659.24
271.3380, 12724.75
271.8201, 12814.61
272.3022, 12919.19
272.7843, 13002.66
273.2664, 13047.03
273.7485, 13082.96
274.2307, 13155.88
274.7128, 13265.86
275.1949, 13376.47
275.6770, 13478.55
276.1591, 13573.63
276.6412, 13658.45
277.1234, 13731.12
277.6055, 13808.98
278.0876, 13913.28
278.5697, 14044.15
279.0518, 14168.27
279.5339, 14265.25
280.0161, 14367.45
280.4982, 14500.49
280.9803, 14665.28
281.4624, 14853.78
281.9445, 15065.79
282.4266, 15298.43
282.9088, 15519.33
283.3909, 15698.61
283.8730, 15897.66
284.3551, 16159.97
284.8372, 16462.75
285.3193, 16763.81
285.8015, 17043.82
286.2836, 17296.18
286.7657, 17492.36
287.2478, 17622.27
287.7299, 17714.69
288.2120, 17795.22
288.6942, 17830.30
289.1763, 17779.60
289.6584, 17630.66
290.1405, 17399.05
290.6226, 17105.40
291.1047, 16735.13
291.5869, 16324.45
292.0690, 15849.34
292.5511, 15356.50
293.0332, 14857.20
293.5153, 14364.13
293.9974, 13903.68
294.4796, 13508.22
294.9617, 13184.46
295.4438, 12862.36
295.9259, 12516.32
296.4080, 12196.04
296.8901, 11917.76
297.3723, 11679.35
297.8544, 11479.59
298.3365, 11319.94
298.8186, 11192.54
299.3007, 11056.53
299.7828, 10889.72
300.2650, 10746.84
300.7471, 10644.07
301.2292, 10565.57
301.7113, 10499.36
302.1934, 10441.04
302.6755, 10382.48
303.1577, 10303.30
303.6398, 10187.29
304.1219, 10102.52
304.6040, 10083.08
305.0861, 10080.47
305.5682, 10068.47
306.0504, 10043.38
306.5325, 10013.45
307.0146, 9980.882
307.4967, 9946.351
307.9788, 9932.999
308.4609, 9967.679
308.9431, 9990.813
309.4252, 9958.937
309.9073, 9888.603
310.3894, 9826.600
310.8715, 9800.768
311.3536, 9798.210
311.8358, 9789.907
312.3179, 9772.444
312.8000, 9761.742
313.2821, 9772.822
313.7642, 9794.628
314.2463, 9811.160
314.7285, 9815.071
315.2106, 9820.177
315.6927, 9844.173
316.1748, 9883.817
316.6569, 9913.369
317.1390, 9921.858
317.6212, 9917.341
318.1033, 9909.286
318.5854, 9893.388
319.0675, 9892.533
319.5496, 9927.077
320.0317, 9979.242
320.5139, 10017.06
320.9960, 10032.63
321.4781, 10046.19
321.9602, 10082.14
322.4423, 10143.49
322.9244, 10190.95
323.4066, 10213.45
323.8887, 10228.31
324.3708, 10252.20
324.8529, 10281.79
325.3350, 10296.81
325.8171, 10280.37
326.2993, 10238.04
326.7814, 10214.45
327.2635, 10239.20
327.7456, 10245.24
328.2277, 10205.52
328.7098, 10141.13
329.1920, 10081.91
329.6741, 10039.53
330.1562, 10004.30
330.6383, 9956.808
331.1204, 9884.338
331.6025, 9822.333
332.0847, 9774.021
332.5668, 9732.332
333.0489, 9690.786
333.5310, 9650.096
334.0131, 9616.789
334.4952, 9601.200
334.9774, 9605.126
335.4595, 9589.130
335.9416, 9522.079
336.4237, 9468.101
336.9058, 9460.006
337.3879, 9475.599
337.8701, 9475.042
338.3522, 9434.323
338.8343, 9372.690
339.3164, 9336.684
339.7985, 9335.305
340.2806, 9332.836
340.7627, 9306.380
341.2448, 9281.354
341.7270, 9287.542
342.2091, 9331.786
342.6912, 9368.338
343.1733, 9341.845
343.6554, 9262.872
344.1375, 9215.811
344.6197, 9227.160
345.1018, 9252.646
345.5839, 9258.818
346.0660, 9247.369
346.5481, 9222.400
347.0302, 9166.521
347.5124, 9107.278
347.9945, 9085.037
348.4766, 9101.603
348.9587, 9125.246
349.4408, 9142.894
349.9229, 9151.051
350.4051, 9141.085
350.8872, 9091.504
351.3693, 9051.932
351.8514, 9052.182
352.3335, 9076.546
352.8156, 9094.572
353.2978, 9095.778
353.7799, 9086.372
354.2620, 9075.669
354.7441, 9062.261
355.2262, 9050.924
355.7083, 9045.749
356.1905, 9039.606
356.6726, 9024.431
357.1547, 9001.852
357.6368, 8983.311
358.1189, 8981.152
358.6010, 8994.521
359.0832, 8981.062
359.5653, 8896.390
360.0474, 8833.365
360.5295, 8825.320
361.0116, 8845.531
361.4937, 8858.270
361.9759, 8848.365
362.4580, 8826.084
362.9401, 8807.667
363.4222, 8788.882
363.9043, 8787.131
364.3864, 8817.856
364.8686, 8855.875
365.3507, 8891.618
365.8328, 8922.327
366.3149, 8944.794
366.7970, 8952.084
367.2791, 8947.639
367.7613, 8949.000
368.2434, 8956.804
368.7255, 8969.532
369.2076, 8988.319
369.6897, 9010.962
370.1718, 9035.403
370.6540, 9066.259
371.1361, 9091.590
371.6182, 9089.872
372.1003, 9067.017
372.5824, 9066.413
373.0645, 9109.809
373.5467, 9173.817
374.0288, 9217.774
374.5109, 9236.793
374.9930, 9267.514
375.4751, 9337.547
375.9572, 9414.585
376.4394, 9453.690
376.9215, 9452.467
377.4036, 9454.882
377.8857, 9500.212
378.3678, 9588.643
378.8499, 9662.033
379.3321, 9716.894
379.8142, 9763.313
380.2963, 9799.803
380.7784, 9831.003
381.2605, 9866.402
381.7426, 9910.022
382.2248, 9950.547
382.7069, 9963.905
383.1890, 9939.658
383.6711, 9908.758
384.1532, 9870.653
384.6353, 9828.296
385.1175, 9786.972
385.5996, 9744.174
386.0817, 9688.696
386.5638, 9603.247
387.0459, 9496.092
387.5280, 9424.405
388.0102, 9405.735
388.4923, 9390.072
388.9744, 9364.239
389.4565, 9326.989
389.9386, 9272.977
390.4207, 9196.322
390.9029, 9117.440
391.3850, 9058.729
391.8671, 9017.595
392.3492, 8973.353
392.8313, 8915.833
393.3134, 8862.777
393.7956, 8838.570
394.2777, 8840.552
394.7598, 8843.835
395.2419, 8851.304
395.7240, 8851.284
396.2061, 8827.881
396.6883, 8783.189
397.1704, 8735.437
397.6525, 8694.563
398.1346, 8660.904
398.6167, 8635.764
399.0988, 8624.650
399.5810, 8614.043
400.0631, 8604.365
400.5452, 8592.985
401.0273, 8576.543
401.5094, 8554.372
401.9915, 8528.584
402.4737, 8499.446
402.9558, 8463.612
403.4379, 8443.432
403.9200, 8452.505
404.4021, 8463.577
404.8842, 8474.234
405.3664, 8479.395
405.8485, 8469.065
406.3306, 8434.871
406.8127, 8391.641
407.2948, 8373.080
407.7769, 8385.662
408.2591, 8394.376
408.7412, 8388.615
409.2233, 8376.680
409.7054, 8363.534
410.1875, 8349.629
410.6696, 8337.689
411.1518, 8333.144
411.6339, 8330.815
412.1160, 8315.415
412.5981, 8283.471
413.0802, 8260.419
413.5623, 8269.369
414.0445, 8302.396
414.5266, 8319.716
415.0087, 8312.778
415.4908, 8300.461
415.9729, 8286.836
416.4550, 8273.967
416.9372, 8264.823
417.4193, 8260.280
417.9014, 8261.267
418.3835, 8270.301
418.8656, 8292.454
419.3477, 8304.782
419.8299, 8292.768
420.3120, 8286.377
420.7941, 8303.832
421.2762, 8338.166
421.7583, 8372.923
422.2404, 8399.070
422.7226, 8417.562
423.2047, 8431.062
423.6868, 8438.761
424.1689, 8443.443
424.6510, 8439.652
425.1331, 8437.450
425.6153, 8445.961
426.0974, 8465.109
426.5795, 8484.089
427.0616, 8492.338
427.5437, 8494.467
428.0258, 8505.579
428.5080, 8528.349
428.9901, 8551.728
429.4722, 8568.149
429.9543, 8580.317
430.4364, 8595.038
430.9185, 8613.146
431.4007, 8633.028
431.8828, 8656.620
432.3649, 8680.776
432.8470, 8699.722
433.3291, 8711.845
433.8112, 8718.765
434.2934, 8722.016
434.7755, 8721.007
435.2576, 8718.729
435.7397, 8702.053
436.2218, 8697.489
436.7039, 8726.763
437.1861, 8775.175
437.6682, 8815.831
438.1503, 8835.256
438.6324, 8839.999
439.1145, 8842.146
439.5966, 8838.723
440.0788, 8841.625
440.5609, 8847.132
441.0430, 8863.933
441.5251, 8906.311
442.0072, 8967.822
442.4893, 9021.139
442.9715, 9046.688
443.4536, 9053.801
443.9357, 9057.226
444.4178, 9054.389
444.8999, 9070.480
445.3820, 9128.251
445.8642, 9205.807
446.3463, 9260.396
446.8284, 9287.218
447.3105, 9307.743
447.7926, 9316.722
448.2747, 9329.925
448.7569, 9373.767
449.2390, 9449.698
449.7211, 9531.191
450.2032, 9596.780
450.6853, 9646.636
451.1674, 9689.482
451.6496, 9721.002
452.1317, 9751.646
452.6138, 9784.210
453.0959, 9816.718
453.5780, 9841.888
454.0602, 9859.413
454.5423, 9884.885
455.0244, 9944.752
455.5065, 10044.19
455.9886, 10123.76
456.4707, 10168.47
456.9529, 10211.59
457.4350, 10273.10
457.9171, 10343.33
458.3992, 10404.41
458.8813, 10447.63
459.3634, 10484.65
459.8456, 10518.90
460.3277, 10554.38
460.8098, 10617.58
461.2919, 10720.34
461.7740, 10840.89
462.2561, 10952.50
462.7383, 11054.50
463.2204, 11162.78
463.7025, 11270.75
464.1846, 11392.25
464.6667, 11535.61
465.1488, 11700.13
465.6310, 11883.18
466.1131, 12084.22
466.5952, 12297.89
467.0773, 12509.61
467.5594, 12700.70
468.0415, 12929.42
468.5237, 13230.00
469.0058, 13534.62
469.4879, 13788.83
469.9700, 14012.03
470.4521, 14272.82
470.9342, 14626.44
471.4164, 15034.54
471.8985, 15393.19
472.3806, 15686.97
472.8627, 16027.61
473.3448, 16478.81
473.8269, 16971.90
474.3091, 17412.81
474.7912, 17795.18
475.2733, 18188.82
475.7554, 18652.52
476.2375, 19120.62
476.7196, 19519.91
477.2018, 19845.57
477.6839, 20117.65
478.1660, 20353.31
478.6481, 20541.40
479.1302, 20639.06
479.6123, 20643.90
480.0945, 20553.16
480.5766, 20355.94
481.0587, 20069.69
481.5408, 19701.54
482.0229, 19255.36
482.5050, 18738.25
482.9872, 18142.47
483.4693, 17481.31
483.9514, 16823.12
484.4335, 16166.39
484.9156, 15522.35
485.3977, 14876.04
485.8799, 14251.60
486.3620, 13677.45
486.8441, 13159.19
487.3262, 12673.82
487.8083, 12208.33
488.2904, 11768.38
488.7726, 11368.21
489.2547, 11009.11
489.7368, 10687.04
490.2189, 10402.84
490.7010, 10153.47
491.1831, 9916.194
491.6653, 9674.050
492.1474, 9464.179
492.6295, 9315.718
493.1116, 9189.102
493.5937, 9040.560
494.0758, 8868.711
494.5580, 8706.028
495.0401, 8584.172
495.5222, 8499.625
496.0043, 8422.200
496.4864, 8356.235
496.9685, 8289.059
497.4507, 8208.248
497.9328, 8129.398
498.4149, 8070.519
498.8970, 8034.895
499.3791, 8003.189
499.8612, 7962.805
500.3434, 7916.423
500.8255, 7867.977
501.3076, 7817.558
501.7897, 7771.489
502.2718, 7734.635
502.7539, 7705.521
503.2361, 7677.567
503.7182, 7653.107
504.2003, 7626.486
504.6824, 7589.094
505.1645, 7553.688
505.6466, 7536.230
506.1288, 7536.179
506.6109, 7537.431
507.0930, 7525.580
507.5751, 7502.595
508.0572, 7482.979
508.5393, 7464.449
509.0215, 7454.140
509.5036, 7457.014
509.9857, 7466.443
510.4678, 7480.079
510.9499, 7497.140
511.4320, 7507.743
511.9142, 7500.360
512.3963, 7483.746
512.8784, 7475.031
513.3605, 7475.253
513.8427, 7477.352
514.3248, 7474.258
514.8069, 7472.396
515.2890, 7493.899
515.7711, 7556.730
516.2532, 7607.410
516.7354, 7631.338
517.2175, 7646.453
517.6996, 7660.022
518.1817, 7677.825
518.6638, 7714.148
519.1459, 7783.186
519.6281, 7871.693
520.1102, 7927.525
520.5923, 7929.937
521.0744, 7952.562
521.5565, 8032.317
522.0386, 8123.463
522.5208, 8190.925
523.0029, 8235.946
523.4850, 8289.390
523.9671, 8369.382
524.4492, 8464.468
524.9313, 8560.154
525.4135, 8656.725
525.8956, 8758.543
526.3777, 8869.211
526.8598, 8983.255
527.3419, 9092.190
527.8240, 9203.451
528.3062, 9288.630
528.7883, 9315.981
529.2704, 9347.498
529.7525, 9427.814
530.2346, 9539.818
530.7167, 9642.790
531.1989, 9717.031
531.6810, 9768.679
532.1631, 9810.102
532.6452, 9842.742
533.1273, 9854.286
533.6094, 9838.050
534.0916, 9806.036
534.5737, 9765.266
535.0558, 9716.539
535.5379, 9662.456
536.0200, 9608.638
536.5021, 9544.057
536.9843, 9453.144
537.4664, 9346.764
537.9485, 9248.222
538.4306, 9164.775
538.9127, 9088.611
539.3948, 9010.695
539.8770, 8929.567
540.3591, 8861.384
540.8412, 8820.870
541.3233, 8775.995
541.8054, 8717.056
542.2875, 8651.103
542.7697, 8583.841
543.2518, 8517.613
543.7339, 8458.372
544.2160, 8419.558
544.6981, 8394.224
545.1802, 8347.221
545.6624, 8272.279
546.1445, 8197.053
546.6266, 8133.368
547.1087, 8081.702
547.5908, 8042.597
548.0729, 8022.237
548.5551, 7998.872
549.0372, 7970.886
549.5193, 7934.074
550.0014, 7871.557
550.4835, 7792.295
550.9656, 7737.011
551.4478, 7735.594
551.9299, 7770.246
552.4120, 7782.627
552.8941, 7767.559
553.3762, 7742.987
553.8583, 7694.449
554.3405, 7650.944
554.8226, 7635.442
555.3047, 7641.754
555.7868, 7642.114
556.2689, 7618.379
556.7510, 7588.546
557.2332, 7571.487
557.7153, 7565.450
558.1974, 7567.342
558.6795, 7578.870
559.1616, 7582.620
559.6437, 7554.299
560.1259, 7487.070
560.6080, 7434.057
561.0901, 7411.349
561.5722, 7381.896
562.0543, 7324.422
562.5364, 7257.630
563.0186, 7205.777
563.5007, 7175.480
563.9828, 7154.727
564.4649, 7135.507
564.9470, 7116.139
565.4291, 7083.253
565.9113, 7032.605
566.3934, 6982.179
566.8755, 6941.173
567.3576, 6906.664
567.8397, 6872.304
568.3218, 6838.555
568.8040, 6803.491
569.2861, 6760.630
569.7682, 6720.734
570.2503, 6698.860
570.7324, 6690.417
571.2145, 6677.620
571.6967, 6650.183
572.1788, 6609.728
572.6609, 6555.728
573.1430, 6475.318
573.6251, 6422.686
574.1072, 6423.881
574.5894, 6433.960
575.0715, 6432.160
575.5536, 6419.776
576.0357, 6401.610
576.5178, 6376.336
576.9999, 6350.514
577.4821, 6326.266
577.9642, 6305.996
578.4463, 6299.112
578.9284, 6307.724
579.4105, 6316.853
579.8926, 6312.471
580.3748, 6295.136
580.8569, 6276.441
581.3390, 6256.294
581.8211, 6234.687
582.3032, 6207.021
582.7853, 6181.127
583.2675, 6166.110
583.7496, 6161.238
584.2317, 6155.626
584.7138, 6139.160
585.1959, 6117.976
585.6780, 6103.470
586.1602, 6095.653
586.6422, 6098.341
587.1243, 6117.174
587.6064, 6139.265
588.0886, 6147.096
588.5707, 6138.564
589.0528, 6125.559
589.5349, 6104.615
590.0170, 6083.080
590.4991, 6066.135
590.9813, 6050.351
591.4634, 6025.606
591.9455, 5990.273
592.4276, 5962.618
592.9097, 5977.230
593.3918, 6028.521
593.8740, 6029.645
594.3561, 5958.685
594.8382, 5900.865
595.3203, 5907.440
595.8024, 5945.417
596.2845, 5955.482
596.7667, 5928.212
597.2488, 5910.887
597.7309, 5923.576
598.2130, 5946.726
598.6951, 5972.990
599.1772, 5994.996
599.6594, 5992.841
600.1415, 5955.708
600.6236, 5905.333
601.1057, 5884.511
601.5878, 5900.513
602.0699, 5908.062
602.5521, 5901.960
603.0342, 5891.973
603.5163, 5880.690
603.9984, 5869.844
604.4805, 5862.449
604.9626, 5859.856
605.4448, 5858.655
605.9269, 5858.515
606.4090, 5857.814
606.8911, 5856.346
607.3732, 5852.921
607.8553, 5840.092
608.3375, 5811.371
608.8196, 5774.292
609.3017, 5752.542
609.7838, 5753.972
610.2659, 5753.149
610.7480, 5750.140
611.2302, 5742.944
611.7123, 5724.808
612.1944, 5702.042
612.6765, 5690.041
613.1586, 5697.629
613.6407, 5710.035
614.1229, 5714.943
614.6050, 5714.935
615.0871, 5717.076
615.5692, 5722.416
616.0513, 5724.365
616.5334, 5717.490
617.0156, 5702.957
617.4977, 5686.876
617.9798, 5661.150
618.4619, 5646.823
618.9440, 5655.721
619.4261, 5666.568
619.9083, 5666.951
620.3904, 5656.741
620.8725, 5639.068
621.3546, 5610.524
621.8367, 5583.535
622.3188, 5573.590
622.8010, 5578.120
623.2831, 5589.491
623.7652, 5606.811
624.2473, 5622.806
624.7294, 5631.420
625.2115, 5632.889
625.6937, 5630.305
626.1758, 5620.263
626.6579, 5610.617
627.1400, 5598.217
627.6221, 5589.471
628.1042, 5592.225
628.5864, 5604.102
629.0685, 5614.218
629.5506, 5615.829
630.0327, 5613.402
630.5148, 5612.941
630.9969, 5614.277
631.4791, 5617.336
631.9612, 5622.917
632.4433, 5625.391
632.9254, 5617.859
633.4075, 5601.021
633.8896, 5591.511
634.3718, 5594.972
