##NAMES=Milarite
##RRUFFID=R070464
##IDEAL CHEMISTRY=KCa_2_(Be_2_AlSi_12_O_30_)&#183;H_2_O
##LOCALITY=Rössing Mine, Arandis, Swakopmund District, Namibia
##OWNER=RRUFF
##SOURCE=Michael Scott
##DESCRIPTION=Fragments from a pale yellow green hexagonal prism
##STATUS=The identification of this mineral has been confirmed by X-ray diffraction and chemical analysis
##URL=rruff.info/R070464
##MEASURED CHEMISTRY=(K_1.11_Na_0.21_)_Σ=1.32_Ca_2.00_(Be_2.36_Al_0.64_)_Σ=3_Si_12.00_O_30_·H_2_O; H_2_O assumed ideal from stoichiometry; BeO estimated by difference
142.9236, 31762.95
143.4057, 32289.21
143.8878, 32774.00
144.3699, 33156.65
144.8521, 33409.57
145.3342, 33554.20
145.8163, 33683.86
146.2984, 33821.61
146.7805, 33920.61
147.2626, 33943.71
147.7448, 33787.55
148.2269, 33713.54
148.7090, 33759.23
149.1911, 33926.45
149.6732, 34127.34
150.1553, 34347.40
150.6375, 34610.90
151.1196, 34930.51
151.6017, 35317.80
152.0838, 35756.38
152.5659, 36253.44
153.0480, 36824.53
153.5302, 37395.96
154.0123, 37936.67
154.4944, 38483.90
154.9765, 39082.53
155.4586, 39808.13
155.9408, 40524.17
156.4229, 41195.05
156.9050, 41663.84
157.3871, 41863.73
157.8692, 41935.12
158.3513, 41932.19
158.8335, 41908.93
159.3156, 41904.05
159.7977, 41869.22
160.2798, 41777.77
160.7619, 41596.46
161.2440, 41417.00
161.7262, 41300.95
162.2083, 41215.45
162.6904, 41063.84
163.1725, 40726.61
163.6546, 40360.35
164.1367, 40075.66
164.6189, 39935.61
165.1010, 39830.98
165.5831, 39706.88
166.0652, 39568.86
166.5473, 39453.65
167.0294, 39386.04
167.5116, 39347.54
167.9937, 39321.04
168.4758, 39309.85
168.9579, 39299.39
169.4400, 39268.79
169.9221, 39218.62
170.4043, 39190.09
170.8864, 39226.38
171.3685, 39297.65
171.8506, 39360.82
172.3327, 39381.67
172.8148, 39395.12
173.2970, 39435.38
173.7791, 39505.38
174.2612, 39583.27
174.7433, 39680.61
175.2254, 39774.05
175.7076, 39813.55
176.1897, 39732.26
176.6718, 39600.91
177.1539, 39510.95
177.6360, 39474.64
178.1181, 39458.82
178.6003, 39441.10
179.0824, 39418.64
179.5645, 39380.84
180.0466, 39297.30
180.5287, 39197.54
181.0108, 39141.58
181.4930, 39143.13
181.9751, 39172.74
182.4572, 39197.34
182.9393, 39216.77
183.4214, 39230.01
183.9035, 39235.89
184.3857, 39234.34
184.8678, 39220.93
185.3499, 39182.81
185.8320, 39147.13
186.3141, 39181.98
186.7962, 39284.96
187.2784, 39374.38
187.7605, 39363.02
188.2426, 39274.17
188.7247, 39219.80
189.2068, 39236.77
189.6889, 39294.85
190.1711, 39320.78
190.6532, 39312.39
191.1353, 39294.82
191.6174, 39289.17
192.0995, 39294.86
192.5816, 39305.41
193.0638, 39319.68
193.5459, 39337.76
194.0280, 39366.61
194.5101, 39411.65
194.9922, 39444.81
195.4743, 39432.04
195.9565, 39374.43
196.4386, 39303.75
196.9207, 39214.91
197.4028, 39117.05
197.8849, 39082.14
198.3671, 39119.95
198.8492, 39194.13
199.3313, 39269.86
199.8134, 39350.46
200.2955, 39402.62
200.7776, 39400.72
201.2598, 39345.70
201.7419, 39325.41
202.2240, 39347.64
202.7061, 39387.59
203.1882, 39409.27
203.6703, 39410.55
204.1525, 39399.34
204.6346, 39368.50
205.1167, 39312.38
205.5988, 39291.24
206.0809, 39311.41
206.5630, 39357.78
207.0452, 39411.49
207.5273, 39482.39
208.0094, 39528.40
208.4915, 39517.45
208.9736, 39433.41
209.4557, 39395.86
209.9379, 39422.70
210.4200, 39486.05
210.9021, 39522.61
211.3842, 39528.84
211.8663, 39519.79
212.3484, 39499.01
212.8306, 39461.41
213.3127, 39437.10
213.7948, 39429.45
214.2769, 39435.61
214.7590, 39450.18
215.2411, 39480.52
215.7233, 39503.52
216.2054, 39496.99
216.6875, 39439.68
217.1696, 39426.17
217.6517, 39478.72
218.1338, 39577.12
218.6160, 39639.91
219.0981, 39653.59
219.5802, 39654.82
220.0623, 39665.65
220.5444, 39688.50
221.0265, 39714.48
221.5087, 39751.54
221.9908, 39792.61
222.4729, 39790.95
222.9550, 39715.99
223.4371, 39645.09
223.9192, 39634.33
224.4014, 39708.98
224.8835, 39785.33
225.3656, 39861.61
225.8477, 39935.00
226.3298, 39972.47
226.8119, 39951.30
227.2941, 39923.34
227.7762, 39928.04
228.2583, 39978.81
228.7404, 40028.54
229.2225, 40068.22
229.7046, 40098.09
230.1868, 40136.54
230.6689, 40197.65
231.1510, 40248.36
231.6331, 40260.38
232.1152, 40216.71
232.5973, 40168.15
233.0795, 40117.06
233.5616, 40065.25
234.0437, 40035.12
234.5258, 40044.33
235.0079, 40059.87
235.4900, 40050.90
235.9722, 39999.06
236.4543, 39964.61
236.9364, 39966.09
237.4185, 40003.77
237.9006, 40020.04
238.3828, 40005.82
238.8649, 39979.44
239.3470, 39952.80
239.8291, 39907.59
240.3112, 39894.10
240.7933, 39927.54
241.2755, 40008.01
241.7576, 40081.62
242.2397, 40151.56
242.7218, 40208.91
243.2039, 40243.61
243.6860, 40245.49
244.1682, 40241.63
244.6503, 40230.88
245.1324, 40212.18
245.6145, 40223.33
246.0966, 40284.78
246.5787, 40356.73
247.0609, 40398.23
247.5430, 40394.96
248.0251, 40389.52
248.5072, 40385.76
248.9893, 40382.73
249.4714, 40406.38
249.9536, 40481.30
250.4357, 40557.62
250.9178, 40576.32
251.3999, 40496.25
251.8820, 40442.89
252.3641, 40454.13
252.8463, 40534.21
253.3284, 40577.07
253.8105, 40567.76
254.2926, 40537.95
254.7747, 40517.69
255.2568, 40503.20
255.7390, 40508.89
256.2211, 40549.84
256.7032, 40628.43
257.1853, 40659.94
257.6674, 40616.60
258.1495, 40558.84
258.6317, 40557.41
259.1138, 40645.56
259.5959, 40708.38
260.0780, 40705.13
260.5601, 40632.86
261.0422, 40621.53
261.5244, 40695.68
262.0065, 40797.54
262.4886, 40866.22
262.9707, 40895.54
263.4528, 40908.27
263.9349, 40898.21
264.4171, 40865.58
264.8992, 40881.48
265.3813, 40960.43
265.8634, 41065.91
266.3455, 41168.15
266.8276, 41278.52
267.3098, 41349.49
267.7919, 41356.70
268.2740, 41304.18
268.7561, 41292.02
269.2382, 41332.32
269.7203, 41391.19
270.2025, 41435.20
270.6846, 41459.59
271.1667, 41485.77
271.6488, 41517.88
272.1309, 41555.54
272.6130, 41603.75
273.0952, 41674.20
273.5773, 41729.48
274.0594, 41717.25
274.5415, 41620.24
275.0236, 41563.82
275.5057, 41590.80
275.9879, 41685.93
276.4700, 41735.48
276.9521, 41726.38
277.4342, 41712.24
277.9163, 41751.63
278.3984, 41852.15
278.8806, 41930.58
279.3627, 41959.68
279.8448, 41954.41
280.3269, 41987.61
280.8090, 42065.34
281.2911, 42156.99
281.7733, 42237.45
282.2554, 42305.67
282.7375, 42371.93
283.2196, 42434.43
283.7017, 42496.35
284.1838, 42576.00
284.6660, 42676.87
285.1481, 42770.82
285.6302, 42834.02
286.1123, 42867.91
286.5944, 42896.63
287.0765, 42928.65
287.5587, 42956.16
288.0408, 42957.41
288.5229, 42932.23
289.0050, 42891.31
289.4871, 42847.75
289.9692, 42798.71
290.4514, 42721.21
290.9335, 42603.93
291.4156, 42465.81
291.8977, 42344.66
292.3798, 42239.50
292.8619, 42142.16
293.3441, 42043.05
293.8262, 41945.68
294.3083, 41868.71
294.7904, 41816.34
295.2725, 41780.60
295.7546, 41754.28
296.2368, 41736.32
296.7189, 41715.80
297.2010, 41681.91
297.6831, 41640.94
298.1652, 41609.22
298.6474, 41592.63
299.1295, 41576.72
299.6116, 41533.53
300.0937, 41470.81
300.5758, 41421.09
301.0580, 41414.89
301.5401, 41432.17
302.0222, 41437.55
302.5043, 41423.55
302.9864, 41410.29
303.4685, 41432.24
303.9507, 41474.99
304.4328, 41496.13
304.9149, 41440.20
305.3970, 41364.93
305.8791, 41344.16
306.3612, 41391.02
306.8434, 41455.85
307.3255, 41496.86
307.8076, 41524.48
308.2897, 41560.26
308.7718, 41620.13
309.2539, 41688.27
309.7361, 41755.01
310.2182, 41820.11
310.7003, 41870.18
311.1824, 41891.58
311.6645, 41891.54
312.1466, 41881.32
312.6288, 41825.39
313.1109, 41790.12
313.5930, 41842.40
314.0751, 41986.61
314.5572, 42101.05
315.0393, 42094.11
315.5215, 42033.96
316.0036, 41996.59
316.4857, 42030.75
316.9678, 42073.26
317.4499, 42089.86
317.9320, 42082.61
318.4142, 42092.59
318.8963, 42157.06
319.3784, 42234.34
319.8605, 42290.76
320.3426, 42280.75
320.8247, 42284.46
321.3069, 42339.52
321.7890, 42435.35
322.2711, 42505.99
322.7532, 42509.38
323.2353, 42497.17
323.7174, 42500.71
324.1996, 42540.57
324.6817, 42577.16
325.1638, 42612.81
325.6459, 42642.70
326.1280, 42648.22
326.6101, 42597.13
327.0923, 42544.96
327.5744, 42520.10
328.0565, 42578.22
328.5386, 42583.43
329.0207, 42486.87
329.5028, 42340.16
329.9850, 42263.26
330.4671, 42334.07
330.9492, 42395.66
331.4313, 42386.73
331.9134, 42253.79
332.3955, 42192.08
332.8777, 42245.79
333.3598, 42349.68
333.8419, 42398.26
334.3240, 42361.94
334.8061, 42316.53
335.2882, 42276.01
335.7704, 42234.23
336.2525, 42235.48
336.7346, 42295.10
337.2167, 42378.02
337.6988, 42443.29
338.1809, 42489.13
338.6631, 42521.66
339.1452, 42543.18
339.6273, 42553.16
340.1094, 42534.63
340.5915, 42474.90
341.0736, 42418.00
341.5558, 42421.02
342.0379, 42492.54
342.5200, 42534.77
343.0021, 42517.25
343.4842, 42460.76
343.9663, 42444.52
344.4485, 42474.18
344.9306, 42509.64
345.4127, 42521.83
345.8948, 42512.77
346.3769, 42489.13
346.8590, 42446.63
347.3412, 42399.82
347.8233, 42375.60
348.3054, 42373.79
348.7875, 42388.30
349.2696, 42419.82
349.7517, 42463.78
350.2339, 42504.41
350.7160, 42532.69
351.1981, 42575.55
351.6802, 42698.46
352.1623, 42873.93
352.6444, 43002.45
353.1266, 42998.59
353.6087, 42925.13
354.0908, 42859.42
354.5729, 42803.82
355.0550, 42773.05
355.5371, 42805.92
356.0193, 42871.23
356.5014, 42911.11
356.9835, 42880.11
357.4656, 42829.70
357.9477, 42803.13
358.4298, 42801.79
358.9120, 42800.73
359.3941, 42784.50
359.8762, 42763.14
360.3583, 42746.80
360.8404, 42728.90
361.3225, 42727.29
361.8047, 42760.22
362.2868, 42820.75
362.7689, 42871.71
363.2510, 42900.29
363.7331, 42911.89
364.2152, 42908.27
364.6974, 42873.37
365.1795, 42844.48
365.6616, 42825.66
366.1437, 42817.52
366.6258, 42822.52
367.1079, 42851.75
367.5901, 42886.24
368.0722, 42924.39
368.5543, 42989.21
369.0364, 43009.21
369.5185, 42924.75
370.0006, 42813.06
370.4828, 42789.23
370.9649, 42947.05
371.4470, 43079.42
371.9291, 43130.18
372.4112, 43086.43
372.8933, 43054.84
373.3755, 43019.96
373.8576, 43011.03
374.3397, 43070.89
374.8218, 43243.40
375.3039, 43362.86
375.7860, 43384.39
376.2682, 43321.44
376.7503, 43271.20
377.2324, 43228.28
377.7145, 43211.18
378.1966, 43255.29
378.6787, 43370.70
379.1609, 43417.56
379.6430, 43357.12
380.1251, 43246.35
380.6072, 43228.28
381.0894, 43310.09
381.5715, 43384.94
382.0536, 43381.93
382.5357, 43317.80
383.0178, 43274.05
383.4999, 43257.43
383.9821, 43254.06
384.4642, 43240.30
384.9463, 43220.63
385.4284, 43218.25
385.9105, 43259.88
386.3926, 43317.74
386.8748, 43343.56
387.3569, 43335.88
387.8390, 43316.07
388.3211, 43285.84
388.8032, 43257.39
389.2853, 43254.18
389.7675, 43303.77
390.2496, 43360.49
390.7317, 43387.99
391.2138, 43390.13
391.6959, 43383.71
392.1780, 43384.80
392.6602, 43379.45
393.1423, 43350.98
393.6244, 43274.96
394.1065, 43220.57
394.5886, 43226.30
395.0707, 43273.89
395.5529, 43324.32
396.0350, 43387.16
396.5171, 43431.56
396.9992, 43436.14
397.4813, 43385.36
397.9634, 43348.67
398.4456, 43346.88
398.9277, 43358.66
399.4098, 43359.85
399.8919, 43320.71
400.3740, 43301.07
400.8561, 43324.53
401.3383, 43390.26
401.8204, 43417.52
402.3025, 43374.82
402.7846, 43327.36
403.2667, 43327.61
403.7488, 43418.17
404.2310, 43448.93
404.7131, 43372.54
405.1952, 43242.71
405.6773, 43235.25
406.1594, 43395.80
406.6415, 43539.18
407.1237, 43533.58
407.6058, 43362.95
408.0879, 43353.35
408.5700, 43550.78
409.0521, 43810.38
409.5342, 43917.68
410.0164, 43877.65
410.4985, 43816.07
410.9806, 43775.70
411.4627, 43747.42
411.9448, 43698.27
412.4269, 43627.05
412.9091, 43567.83
413.3912, 43558.97
413.8733, 43585.77
414.3554, 43618.24
414.8375, 43655.82
415.3196, 43685.76
415.8018, 43693.41
416.2839, 43681.18
416.7660, 43657.25
417.2481, 43606.93
417.7302, 43558.94
418.2123, 43546.43
418.6945, 43582.99
419.1766, 43618.32
419.6587, 43614.53
420.1408, 43593.58
420.6229, 43588.19
421.1050, 43616.96
421.5872, 43657.75
422.0693, 43719.59
422.5514, 43802.75
423.0335, 43837.02
423.5156, 43747.73
423.9977, 43638.13
424.4799, 43581.79
424.9620, 43623.27
425.4441, 43675.14
425.9262, 43737.31
426.4083, 43805.18
426.8904, 43867.49
427.3726, 43945.20
427.8547, 43990.45
428.3368, 43976.93
428.8189, 43880.18
429.3010, 43806.55
429.7831, 43754.89
430.2653, 43728.59
430.7474, 43736.48
431.2295, 43785.31
431.7116, 43846.79
432.1937, 43924.99
432.6758, 44012.04
433.1580, 44055.11
433.6401, 44051.81
434.1222, 44020.92
434.6043, 43944.23
435.0864, 43839.23
435.5685, 43821.91
436.0507, 43933.71
436.5328, 44094.02
437.0149, 44187.73
437.4970, 44220.82
437.9791, 44223.36
438.4612, 44189.95
438.9434, 44143.85
439.4255, 44120.88
439.9076, 44125.90
440.3897, 44133.42
440.8718, 44121.34
441.3539, 44101.79
441.8361, 44091.06
442.3182, 44106.93
442.8003, 44125.79
443.2824, 44140.89
443.7645, 44151.92
444.2466, 44152.28
444.7288, 44114.38
445.2109, 44082.48
445.6930, 44086.08
446.1751, 44153.81
446.6572, 44211.73
447.1393, 44244.93
447.6215, 44261.43
448.1036, 44276.29
448.5857, 44280.50
449.0678, 44293.16
449.5499, 44324.77
450.0320, 44378.60
450.5142, 44409.69
450.9963, 44404.20
451.4784, 44395.41
451.9605, 44419.62
452.4426, 44493.16
452.9247, 44532.89
453.4069, 44514.91
453.8890, 44465.65
454.3711, 44464.49
454.8532, 44514.76
455.3353, 44571.26
455.8174, 44606.98
456.2996, 44624.53
456.7817, 44637.45
457.2638, 44643.13
457.7459, 44652.50
458.2280, 44686.32
458.7101, 44734.40
459.1923, 44769.30
459.6744, 44775.59
460.1565, 44767.93
460.6386, 44771.05
461.1207, 44781.53
461.6028, 44771.61
462.0850, 44712.50
462.5671, 44634.21
463.0492, 44557.32
463.5313, 44466.27
464.0135, 44428.76
464.4956, 44522.08
464.9777, 44682.53
465.4598, 44804.67
465.9419, 44830.30
466.4240, 44841.40
466.9062, 44858.87
467.3883, 44882.40
467.8704, 44913.89
468.3525, 44942.16
468.8346, 44982.29
469.3167, 45046.01
469.7989, 45149.96
470.2810, 45238.78
470.7631, 45296.44
471.2452, 45340.40
471.7273, 45430.62
472.2094, 45595.39
472.6916, 45725.39
473.1737, 45756.20
473.6558, 45693.02
474.1379, 45697.66
474.6200, 45781.26
475.1021, 45897.55
475.5843, 46014.88
476.0664, 46128.98
476.5485, 46197.48
477.0306, 46183.15
477.5127, 46151.84
477.9948, 46230.11
478.4770, 46397.04
478.9591, 46543.07
479.4412, 46608.28
479.9233, 46608.16
480.4054, 46548.96
480.8875, 46423.59
481.3697, 46285.66
481.8518, 46162.50
482.3339, 46047.70
482.8160, 45933.41
483.2981, 45798.07
483.7802, 45679.86
484.2624, 45611.07
484.7445, 45581.13
485.2266, 45526.30
485.7087, 45413.34
486.1908, 45289.27
486.6729, 45179.70
487.1551, 45098.38
487.6372, 45002.06
488.1193, 44871.26
488.6014, 44738.93
489.0835, 44652.90
489.5656, 44637.93
490.0478, 44608.80
490.5299, 44544.00
491.0120, 44447.93
491.4941, 44340.98
491.9762, 44215.05
492.4583, 44115.34
492.9405, 44094.39
493.4226, 44139.18
493.9047, 44148.82
494.3868, 44104.82
494.8689, 44048.28
495.3510, 44031.11
495.8332, 44046.16
496.3153, 44070.11
496.7974, 44100.76
497.2795, 44128.46
497.7616, 44143.30
498.2437, 44144.80
498.7259, 44133.45
499.2080, 44091.61
499.6901, 44046.00
500.1722, 44024.84
500.6543, 44054.52
501.1364, 44067.36
501.6186, 44030.52
502.1007, 43965.66
502.5828, 43909.95
503.0649, 43877.82
503.5470, 43848.88
504.0291, 43812.18
504.5113, 43767.00
504.9934, 43757.99
505.4755, 43813.00
505.9576, 43871.91
506.4397, 43889.62
506.9218, 43846.09
507.4040, 43833.18
507.8861, 43861.16
508.3682, 43914.88
508.8503, 43976.27
509.3324, 44045.93
509.8145, 44089.13
510.2967, 44072.99
510.7788, 44022.31
511.2609, 44020.13
511.7430, 44065.63
512.2252, 44117.37
512.7073, 44149.05
513.1894, 44161.86
513.6715, 44153.83
514.1536, 44116.69
514.6357, 44081.11
515.1179, 44074.25
515.6000, 44086.65
516.0821, 44100.27
516.5642, 44120.31
517.0463, 44129.86
517.5284, 44109.65
518.0106, 44061.32
518.4927, 44037.93
518.9748, 44070.11
519.4569, 44118.41
519.9390, 44159.95
520.4211, 44201.03
520.9033, 44223.89
521.3854, 44224.37
521.8675, 44208.97
522.3496, 44186.69
522.8317, 44153.83
523.3138, 44125.36
523.7960, 44105.83
524.2781, 44094.91
524.7602, 44089.02
525.2423, 44088.10
525.7244, 44096.63
526.2065, 44119.43
526.6887, 44155.21
527.1708, 44202.15
527.6529, 44263.21
528.1350, 44321.82
528.6171, 44365.82
529.0992, 44393.30
529.5814, 44399.63
530.0635, 44336.50
530.5456, 44286.51
531.0277, 44331.79
531.5098, 44454.26
531.9919, 44553.40
532.4741, 44551.15
532.9562, 44535.22
533.4383, 44568.13
533.9204, 44696.23
534.4025, 44769.95
534.8846, 44726.13
535.3668, 44635.28
535.8489, 44580.41
536.3310, 44589.46
536.8131, 44588.66
537.2952, 44567.86
537.7773, 44530.34
538.2595, 44487.83
538.7416, 44442.55
539.2237, 44388.69
539.7058, 44312.38
540.1879, 44217.52
540.6700, 44165.18
541.1522, 44159.20
541.6343, 44177.88
542.1164, 44206.91
542.5985, 44241.24
543.0806, 44268.46
543.5627, 44286.75
544.0449, 44291.09
544.5270, 44264.09
545.0091, 44216.30
545.4912, 44179.80
545.9733, 44172.11
546.4554, 44178.64
546.9376, 44198.16
547.4197, 44231.98
547.9018, 44247.38
548.3839, 44225.47
548.8660, 44188.43
549.3481, 44152.99
549.8303, 44126.70
550.3124, 44094.52
550.7945, 44045.10
551.2766, 43996.25
551.7587, 43992.88
552.2408, 44067.20
552.7230, 44090.91
553.2051, 43994.09
553.6872, 43807.11
554.1693, 43748.27
554.6514, 43829.94
555.1335, 43924.51
555.6157, 43923.02
556.0978, 43853.73
556.5799, 43806.42
557.0620, 43795.76
557.5441, 43785.68
558.0262, 43720.77
558.5084, 43631.79
558.9905, 43575.96
559.4726, 43608.00
559.9547, 43649.34
560.4368, 43654.34
560.9189, 43630.80
561.4011, 43609.70
561.8832, 43615.91
562.3653, 43615.40
562.8474, 43584.36
563.3295, 43502.37
563.8116, 43463.56
564.2938, 43500.69
564.7759, 43553.31
565.2580, 43565.09
565.7401, 43519.17
566.2222, 43484.41
566.7043, 43469.36
567.1865, 43467.96
567.6686, 43466.18
568.1507, 43463.46
568.6328, 43467.61
569.1149, 43487.88
569.5970, 43515.43
570.0792, 43520.72
570.5613, 43504.86
571.0434, 43499.42
571.5255, 43547.96
572.0076, 43611.59
572.4897, 43640.61
572.9719, 43618.35
573.4540, 43586.16
573.9361, 43554.51
574.4182, 43529.95
574.9003, 43521.30
575.3824, 43567.11
575.8646, 43589.19
576.3467, 43563.96
576.8288, 43498.56
577.3109, 43423.10
577.7930, 43322.85
578.2751, 43235.90
578.7573, 43179.99
579.2394, 43157.70
579.7215, 43144.13
580.2036, 43145.86
580.6857, 43138.37
581.1678, 43085.00
581.6500, 42994.61
582.1321, 42930.06
582.6142, 42905.93
583.0963, 42905.22
583.5784, 42916.11
584.0605, 42933.17
584.5427, 42941.26
585.0248, 42918.86
585.5069, 42895.98
585.9890, 42906.43
586.4711, 42943.38
586.9532, 42959.28
587.4354, 42905.45
587.9175, 42847.44
588.3996, 42822.30
588.8817, 42841.45
589.3638, 42870.77
589.8459, 42914.61
590.3281, 42962.26
590.8102, 43007.45
591.2923, 43057.67
591.7744, 43075.05
592.2565, 43041.98
592.7386, 42983.63
593.2208, 42961.91
593.7029, 42977.27
594.1850, 42997.55
594.6671, 43015.83
595.1492, 43026.76
595.6313, 43008.03
596.1135, 42962.45
596.5956, 42927.66
597.0777, 42955.01
597.5598, 42997.16
598.0419, 42996.88
598.5240, 42937.02
599.0062, 42873.24
599.4883, 42823.25
599.9704, 42786.37
600.4525, 42761.55
600.9346, 42747.54
601.4167, 42746.29
601.8989, 42754.62
602.3810, 42774.20
602.8631, 42816.64
603.3452, 42899.31
603.8273, 42963.29
604.3094, 42980.94
604.7916, 42956.77
605.2737, 42952.13
605.7558, 42970.23
606.2379, 42982.65
606.7200, 42964.26
607.2021, 42922.91
607.6843, 42878.73
608.1664, 42832.34
608.6485, 42795.07
609.1306, 42774.75
609.6127, 42771.53
610.0948, 42785.21
610.5770, 42840.87
611.0591, 42885.61
611.5412, 42900.93
612.0233, 42888.00
612.5054, 42849.59
612.9875, 42748.87
613.4697, 42660.80
613.9518, 42611.94
614.4339, 42602.08
614.9160, 42585.61
615.3981, 42558.82
615.8802, 42532.89
616.3624, 42510.62
616.8445, 42491.71
617.3266, 42503.86
617.8087, 42556.88
618.2908, 42605.02
618.7729, 42572.15
619.2551, 42488.41
619.7372, 42446.76
620.2193, 42495.59
620.7014, 42557.17
621.1835, 42561.08
621.6656, 42521.01
622.1478, 42469.46
622.6299, 42393.19
623.1120, 42333.96
623.5941, 42320.14
624.0762, 42351.10
624.5583, 42373.92
625.0405, 42381.02
625.5226, 42381.94
626.0047, 42376.89
626.4868, 42359.09
626.9689, 42370.36
627.4510, 42422.46
627.9332, 42476.70
628.4153, 42486.21
628.8974, 42453.29
629.3795, 42419.91
629.8616, 42386.56
630.3438, 42369.46
630.8259, 42412.17
631.3080, 42490.89
631.7901, 42542.05
632.2722, 42516.71
632.7543, 42470.46
633.2365, 42440.86
633.7186, 42425.40
634.2007, 42410.46
634.6828, 42391.77
635.1649, 42374.59
635.6470, 42363.06
