##NAMES=Millerite
##RRUFFID=R060898
##IDEAL CHEMISTRY=NiS
##LOCALITY=Orford, Quebec, Canada
##OWNER=RRUFF
##SOURCE=Royal Ontario Museum
##DESCRIPTION=Pale brass-yellow prismatic crystal with pronounced striations, associated with calcite and green grossular
##STATUS=The identification of this mineral is confirmed by single-crystal X-ray diffraction and chemical analysis.
##URL=rruff.info/R060898
##MEASURED CHEMISTRY=(Ni_0.97_Co_0.02_Fe_0.01_)_Î£=1_S_1.00_ ; trace amounts of As
179.8591, 12943.51
180.3412, 12952.92
180.8233, 12983.27
181.3055, 13012.13
181.7876, 13016.59
182.2697, 13001.88
182.7518, 12985.43
183.2339, 12969.18
183.7160, 12956.31
184.1981, 12953.18
184.6803, 12959.20
185.1624, 12978.22
185.6445, 13028.81
186.1266, 13103.56
186.6087, 13159.86
187.0908, 13163.43
187.5730, 13129.61
188.0551, 13120.87
188.5372, 13142.72
189.0193, 13175.83
189.5014, 13194.05
189.9835, 13198.00
190.4657, 13198.00
190.9478, 13194.79
191.4299, 13190.16
191.9120, 13200.50
192.3941, 13232.00
192.8762, 13269.21
193.3584, 13280.92
193.8405, 13266.07
194.3226, 13248.93
194.8047, 13246.45
195.2868, 13258.02
195.7689, 13262.21
196.2511, 13254.84
196.7332, 13241.45
197.2153, 13234.38
197.6974, 13233.52
198.1795, 13240.35
198.6616, 13260.44
199.1437, 13295.28
199.6259, 13319.93
200.1080, 13326.76
200.5901, 13322.94
201.0722, 13336.92
201.5543, 13373.26
202.0364, 13410.67
202.5186, 13429.02
203.0007, 13424.64
203.4828, 13425.52
203.9649, 13435.61
204.4470, 13454.39
204.9291, 13482.90
205.4113, 13525.92
205.8934, 13565.90
206.3755, 13582.09
206.8576, 13567.27
207.3397, 13560.89
207.8218, 13572.64
208.3040, 13601.57
208.7861, 13635.28
209.2682, 13680.62
209.7503, 13719.21
210.2324, 13728.61
210.7145, 13701.90
211.1967, 13670.80
211.6788, 13637.57
212.1609, 13601.56
212.6430, 13597.75
213.1251, 13638.92
213.6072, 13696.63
214.0893, 13736.18
214.5715, 13753.36
215.0536, 13762.97
215.5357, 13765.04
216.0178, 13756.55
216.4999, 13764.45
216.9820, 13795.63
217.4642, 13835.24
217.9463, 13862.59
218.4284, 13874.60
218.9105, 13879.02
219.3926, 13877.74
219.8747, 13870.45
220.3569, 13857.37
220.8390, 13835.19
221.3211, 13809.78
221.8032, 13788.92
222.2853, 13769.52
222.7674, 13762.13
223.2496, 13775.36
223.7317, 13822.04
224.2138, 13847.44
224.6959, 13842.91
225.1780, 13822.39
225.6601, 13811.19
226.1423, 13803.88
226.6244, 13815.58
227.1065, 13858.07
227.5886, 13955.76
228.0707, 14021.14
228.5528, 14045.40
229.0349, 14039.79
229.5171, 14031.22
229.9992, 14012.62
230.4813, 14000.93
230.9634, 14003.39
231.4455, 14022.37
231.9276, 14052.22
232.4098, 14105.01
232.8919, 14166.95
233.3740, 14191.14
233.8561, 14151.94
234.3382, 14113.05
234.8203, 14107.29
235.3025, 14159.21
235.7846, 14191.03
236.2667, 14188.09
236.7488, 14164.46
237.2309, 14172.19
237.7130, 14232.75
238.1952, 14295.49
238.6773, 14331.11
239.1594, 14315.20
239.6415, 14324.22
240.1236, 14366.04
240.6057, 14435.95
241.0879, 14516.76
241.5700, 14617.64
242.0521, 14716.17
242.5342, 14797.29
243.0163, 14844.35
243.4984, 14909.62
243.9805, 15006.90
244.4627, 15125.91
244.9448, 15213.28
245.4269, 15233.59
245.9090, 15266.77
246.3911, 15363.98
246.8732, 15560.71
247.3554, 15744.62
247.8375, 15902.19
248.3196, 16038.92
248.8017, 16194.15
249.2838, 16414.98
249.7659, 16589.09
250.2481, 16650.94
250.7302, 16589.03
251.2123, 16436.60
251.6944, 16157.71
252.1765, 15785.01
252.6586, 15481.58
253.1408, 15267.41
253.6229, 15095.75
254.1050, 14932.84
254.5871, 14767.48
255.0692, 14644.23
255.5513, 14578.87
256.0334, 14561.77
256.5156, 14533.61
256.9977, 14483.28
257.4798, 14437.63
257.9619, 14417.01
258.4440, 14433.69
258.9261, 14441.34
259.4083, 14431.93
259.8904, 14408.57
260.3725, 14388.77
260.8546, 14366.42
261.3367, 14356.29
261.8188, 14373.99
262.3010, 14436.41
262.7831, 14474.98
263.2652, 14474.07
263.7473, 14443.19
264.2294, 14432.09
264.7115, 14450.39
265.1937, 14470.52
265.6758, 14471.34
266.1579, 14446.12
266.6400, 14427.00
267.1221, 14419.46
267.6042, 14420.90
268.0864, 14420.79
268.5685, 14421.29
269.0506, 14416.26
269.5327, 14398.12
270.0148, 14361.79
270.4969, 14335.75
270.9791, 14321.55
271.4612, 14320.63
271.9433, 14345.33
272.4254, 14406.65
272.9075, 14463.33
273.3896, 14480.11
273.8718, 14448.56
274.3539, 14433.37
274.8360, 14446.88
275.3181, 14479.01
275.8002, 14490.92
276.2823, 14474.48
276.7645, 14466.70
277.2466, 14501.74
277.7287, 14586.03
278.2108, 14645.67
278.6929, 14669.41
279.1750, 14666.28
279.6572, 14650.43
280.1393, 14614.98
280.6214, 14602.79
281.1035, 14660.81
281.5856, 14790.15
282.0677, 14880.70
282.5498, 14919.29
283.0320, 14914.64
283.5141, 14872.79
283.9962, 14788.94
284.4783, 14715.16
284.9604, 14692.79
285.4425, 14718.44
285.9247, 14733.05
286.4068, 14727.87
286.8889, 14714.74
287.3710, 14715.53
287.8531, 14730.41
288.3352, 14752.04
288.8174, 14779.68
289.2995, 14811.77
289.7816, 14836.38
290.2637, 14848.48
290.7458, 14860.11
291.2279, 14897.99
291.7101, 14959.65
292.1922, 15011.87
292.6743, 15026.95
293.1564, 15015.60
293.6385, 15014.06
294.1206, 15026.24
294.6028, 15046.29
295.0849, 15067.66
295.5670, 15090.72
296.0491, 15116.50
296.5312, 15151.39
297.0133, 15189.39
297.4955, 15211.83
297.9776, 15213.92
298.4597, 15217.46
298.9418, 15256.35
299.4239, 15320.44
299.9060, 15373.81
300.3882, 15377.37
300.8703, 15363.80
301.3524, 15393.51
301.8345, 15474.27
302.3166, 15559.74
302.7987, 15612.22
303.2809, 15634.94
303.7630, 15637.91
304.2451, 15609.19
304.7272, 15569.51
305.2093, 15544.97
305.6914, 15536.72
306.1736, 15531.14
306.6557, 15521.33
307.1378, 15506.06
307.6199, 15483.41
308.1020, 15443.19
308.5841, 15401.70
309.0663, 15377.29
309.5484, 15370.26
310.0305, 15359.56
310.5126, 15330.37
310.9947, 15289.91
311.4768, 15247.54
311.9590, 15194.90
312.4411, 15150.74
312.9232, 15135.22
313.4053, 15145.81
313.8874, 15148.95
314.3695, 15117.32
314.8516, 15074.35
315.3337, 15042.52
315.8159, 15043.30
316.2980, 15043.10
316.7801, 15028.46
317.2622, 15000.61
317.7443, 14966.86
318.2264, 14909.58
318.7086, 14859.74
319.1907, 14840.52
319.6728, 14881.14
320.1549, 14924.94
320.6370, 14963.78
321.1191, 14995.47
321.6013, 15011.45
322.0834, 14992.07
322.5655, 14967.94
323.0476, 14954.58
323.5297, 14951.52
324.0118, 14962.45
324.4940, 15004.42
324.9761, 15062.14
325.4582, 15094.57
325.9403, 15069.19
326.4224, 15040.06
326.9045, 15028.04
327.3867, 15040.90
327.8688, 15058.10
328.3509, 15088.65
328.8330, 15121.76
329.3151, 15137.88
329.7972, 15117.74
330.2794, 15101.44
330.7615, 15099.91
331.2436, 15114.67
331.7257, 15141.43
332.2078, 15190.85
332.6899, 15246.76
333.1721, 15285.93
333.6542, 15301.73
334.1363, 15312.06
334.6184, 15323.75
335.1005, 15338.52
335.5826, 15332.90
336.0648, 15290.00
336.5469, 15247.21
337.0290, 15251.09
337.5111, 15321.82
337.9932, 15376.53
338.4753, 15388.69
338.9575, 15364.41
339.4396, 15369.34
339.9217, 15411.03
340.4038, 15462.62
340.8859, 15500.38
341.3680, 15522.37
341.8502, 15545.74
342.3323, 15571.76
342.8144, 15602.21
343.2965, 15643.99
343.7786, 15699.33
344.2607, 15754.75
344.7428, 15801.86
345.2249, 15841.27
345.7071, 15876.29
346.1892, 15906.04
346.6713, 15935.33
347.1534, 15978.09
347.6355, 16033.09
348.1176, 16082.33
348.5998, 16103.44
349.0819, 16109.27
349.5640, 16141.42
350.0461, 16208.47
350.5282, 16285.30
351.0103, 16345.96
351.4925, 16391.43
351.9746, 16427.24
352.4567, 16459.01
352.9388, 16480.95
353.4209, 16480.92
353.9030, 16456.81
354.3852, 16427.79
354.8673, 16418.60
355.3494, 16415.95
355.8315, 16395.64
356.3136, 16322.03
356.7957, 16244.77
357.2779, 16217.62
357.7600, 16239.61
358.2421, 16247.94
358.7242, 16184.81
359.2063, 16096.13
359.6884, 16030.84
360.1706, 16025.31
360.6527, 16026.30
361.1348, 16000.12
361.6169, 15954.32
362.0990, 15931.60
362.5811, 15962.47
363.0633, 16012.13
363.5454, 16057.80
364.0275, 16092.94
364.5096, 16126.39
364.9917, 16159.80
365.4738, 16192.93
365.9560, 16225.32
366.4381, 16253.08
366.9202, 16283.25
367.4023, 16316.08
367.8844, 16339.89
368.3665, 16393.03
368.8487, 16520.28
369.3308, 16668.22
369.8129, 16751.69
370.2950, 16706.37
370.7771, 16676.22
371.2592, 16709.12
371.7414, 16820.87
372.2235, 16878.77
372.7056, 16852.06
373.1877, 16798.86
373.6698, 16782.81
374.1519, 16821.09
374.6340, 16852.06
375.1161, 16860.34
375.5983, 16849.22
376.0804, 16850.56
376.5625, 16870.07
377.0446, 16887.57
377.5267, 16893.59
378.0089, 16890.65
378.4910, 16848.65
378.9731, 16753.11
379.4552, 16627.98
379.9373, 16531.27
380.4194, 16463.16
380.9016, 16414.60
381.3837, 16387.23
381.8658, 16377.54
382.3479, 16360.54
382.8300, 16332.06
383.3121, 16305.75
383.7943, 16311.39
384.2764, 16340.48
384.7585, 16352.71
385.2406, 16302.84
385.7227, 16229.49
386.2048, 16203.80
386.6870, 16227.07
387.1691, 16277.81
387.6512, 16363.57
388.1333, 16459.22
388.6154, 16521.48
389.0975, 16504.09
389.5797, 16471.16
390.0618, 16483.25
390.5439, 16533.06
391.0260, 16575.99
391.5081, 16605.16
391.9902, 16606.99
392.4724, 16564.08
392.9545, 16438.66
393.4366, 16325.46
393.9187, 16274.78
394.4008, 16268.59
394.8829, 16261.06
395.3651, 16227.98
395.8472, 16198.63
396.3293, 16190.57
396.8114, 16216.20
397.2935, 16230.00
397.7756, 16217.55
398.2578, 16190.98
398.7399, 16166.32
399.2220, 16127.60
399.7041, 16108.40
400.1862, 16123.86
400.6683, 16177.10
401.1505, 16210.00
401.6326, 16217.60
402.1147, 16209.46
402.5968, 16189.20
403.0789, 16141.81
403.5610, 16118.22
404.0432, 16132.00
404.5253, 16173.29
405.0074, 16203.03
405.4895, 16220.56
405.9716, 16228.66
406.4537, 16225.04
406.9358, 16208.28
407.4179, 16201.87
407.9001, 16210.17
408.3822, 16222.59
408.8643, 16218.56
409.3464, 16198.21
409.8285, 16183.34
410.3106, 16186.41
410.7928, 16202.47
411.2749, 16216.05
411.7570, 16227.23
412.2391, 16236.20
412.7212, 16237.90
413.2033, 16237.21
413.6855, 16248.00
414.1676, 16280.71
414.6497, 16319.82
415.1318, 16350.39
415.6139, 16372.02
416.0960, 16381.74
416.5782, 16362.09
417.0603, 16336.60
417.5424, 16333.06
418.0245, 16364.66
418.5066, 16396.13
418.9887, 16409.22
419.4709, 16408.02
419.9530, 16400.57
420.4351, 16367.54
420.9172, 16347.99
421.3993, 16374.29
421.8814, 16458.14
422.3636, 16509.77
422.8457, 16486.03
423.3278, 16432.91
423.8099, 16391.80
424.2920, 16376.27
424.7741, 16362.88
425.2563, 16345.78
425.7384, 16326.78
426.2205, 16319.64
426.7026, 16325.76
427.1847, 16341.81
427.6668, 16368.34
428.1490, 16414.75
428.6311, 16445.40
429.1132, 16451.78
429.5953, 16448.31
430.0774, 16464.95
430.5595, 16506.76
431.0417, 16546.72
431.5238, 16577.29
432.0059, 16597.98
432.4880, 16600.56
432.9701, 16583.10
433.4522, 16556.38
433.9344, 16522.48
434.4165, 16485.13
434.8986, 16465.86
435.3807, 16464.14
435.8628, 16490.55
436.3449, 16594.80
436.8270, 16763.40
437.3091, 16895.97
437.7913, 16897.52
438.2734, 16829.15
438.7555, 16779.15
439.2376, 16761.90
439.7197, 16750.96
440.2018, 16712.74
440.6840, 16666.73
441.1661, 16647.95
441.6482, 16700.82
442.1303, 16761.36
442.6124, 16792.90
443.0945, 16794.26
443.5767, 16787.10
444.0588, 16763.30
444.5409, 16743.39
445.0230, 16742.92
445.5051, 16795.29
445.9872, 16832.44
446.4694, 16839.61
446.9515, 16824.09
447.4336, 16807.92
447.9157, 16778.40
448.3978, 16762.80
448.8799, 16775.31
449.3621, 16828.42
449.8442, 16862.90
450.3263, 16876.15
450.8084, 16873.49
451.2905, 16854.10
451.7726, 16806.61
452.2548, 16785.06
452.7369, 16809.07
453.2190, 16867.64
453.7011, 16911.47
454.1832, 16939.56
454.6653, 16956.37
455.1475, 16962.15
455.6296, 16958.33
456.1117, 16954.53
456.5938, 16952.77
457.0759, 16948.97
457.5580, 16925.35
458.0402, 16891.38
458.5223, 16882.72
459.0044, 16948.45
459.4865, 17033.06
459.9686, 17061.87
460.4507, 17034.17
460.9329, 17000.32
461.4150, 16991.57
461.8971, 16998.03
462.3792, 17009.31
462.8613, 17024.81
463.3434, 17041.39
463.8256, 17056.15
464.3077, 17070.56
464.7898, 17088.97
465.2719, 17128.76
465.7540, 17159.15
466.2361, 17159.83
466.7183, 17112.13
467.2004, 17093.11
467.6825, 17132.22
468.1646, 17189.35
468.6467, 17225.14
469.1288, 17225.36
469.6109, 17225.95
470.0930, 17230.29
470.5752, 17238.59
471.0573, 17258.17
471.5394, 17299.20
472.0215, 17325.93
472.5036, 17301.94
472.9857, 17221.28
473.4679, 17193.12
473.9500, 17232.56
474.4321, 17300.87
474.9142, 17349.51
475.3963, 17378.97
475.8784, 17390.61
476.3606, 17372.13
476.8427, 17343.30
477.3248, 17350.15
477.8069, 17390.35
478.2890, 17427.07
478.7711, 17429.59
479.2533, 17413.28
479.7354, 17397.82
480.2175, 17385.99
480.6996, 17379.10
481.1817, 17373.98
481.6638, 17374.40
482.1460, 17387.92
482.6281, 17435.83
483.1102, 17480.11
483.5923, 17496.02
484.0744, 17479.12
484.5565, 17476.64
485.0387, 17515.26
485.5208, 17560.24
486.0029, 17586.04
486.4850, 17594.40
486.9671, 17578.39
487.4492, 17519.40
487.9314, 17439.67
488.4135, 17401.52
488.8956, 17424.41
489.3777, 17449.92
489.8598, 17456.75
490.3419, 17444.89
490.8241, 17433.26
491.3062, 17421.93
491.7883, 17412.38
492.2704, 17408.28
492.7525, 17408.97
493.2346, 17402.31
493.7168, 17379.95
494.1989, 17357.09
494.6810, 17363.38
495.1631, 17394.48
495.6452, 17428.23
496.1273, 17458.97
496.6095, 17480.64
497.0916, 17480.90
497.5737, 17457.45
498.0558, 17431.50
498.5379, 17407.76
499.0200, 17393.29
499.5021, 17396.70
499.9843, 17446.70
500.4664, 17488.95
500.9485, 17499.55
501.4306, 17486.03
501.9127, 17474.85
502.3948, 17470.66
502.8770, 17470.26
503.3591, 17467.29
503.8412, 17448.91
504.3233, 17471.61
504.8054, 17555.83
505.2875, 17663.34
505.7697, 17759.50
506.2518, 17852.91
506.7339, 17906.23
507.2160, 17899.58
507.6981, 17853.32
508.1802, 17840.94
508.6624, 17865.98
509.1445, 17893.96
509.6266, 17904.47
510.1087, 17900.80
510.5908, 17893.56
511.0729, 17882.32
511.5551, 17875.84
512.0372, 17895.61
512.5193, 17927.16
513.0014, 17937.62
513.4835, 17912.30
513.9656, 17866.49
514.4478, 17789.28
514.9299, 17695.80
515.4120, 17642.15
515.8941, 17698.24
516.3762, 17770.86
516.8583, 17798.15
517.3405, 17761.40
517.8226, 17727.71
518.3047, 17709.01
518.7868, 17700.96
519.2689, 17699.29
519.7510, 17704.04
520.2332, 17714.97
520.7153, 17735.80
521.1974, 17762.84
521.6795, 17781.98
522.1616, 17795.21
522.6437, 17796.24
523.1259, 17773.46
523.6080, 17725.08
524.0901, 17712.94
524.5722, 17744.55
525.0543, 17786.88
525.5364, 17800.74
526.0186, 17791.83
526.5007, 17792.12
526.9828, 17814.41
527.4649, 17842.48
527.9470, 17855.80
528.4291, 17855.26
528.9113, 17845.48
529.3934, 17807.23
529.8755, 17774.64
530.3576, 17791.52
530.8397, 17865.65
531.3218, 17917.23
531.8040, 17883.12
532.2861, 17820.88
532.7682, 17784.14
533.2503, 17819.44
533.7324, 17838.57
534.2145, 17813.53
534.6967, 17763.71
535.1788, 17740.59
535.6609, 17761.81
536.1430, 17785.74
536.6251, 17798.85
537.1072, 17800.93
537.5894, 17806.16
538.0715, 17814.64
538.5536, 17826.24
539.0357, 17841.85
539.5178, 17861.18
539.9999, 17878.98
540.4821, 17893.93
540.9642, 17906.78
541.4463, 17916.84
541.9284, 17924.92
542.4105, 17935.68
542.8926, 17950.17
543.3748, 17968.70
543.8569, 17998.24
544.3390, 18036.35
544.8210, 18060.36
545.3032, 18039.49
545.7853, 18008.87
546.2674, 18000.16
546.7495, 18031.28
547.2316, 18057.34
547.7137, 18068.71
548.1959, 18067.41
548.6780, 18056.15
549.1601, 18007.69
549.6422, 17984.00
550.1243, 18004.33
550.6064, 18061.94
551.0886, 18105.56
551.5707, 18133.61
552.0528, 18151.30
552.5349, 18157.31
553.0170, 18150.88
553.4991, 18154.83
553.9813, 18171.13
554.4634, 18191.84
554.9455, 18208.14
555.4276, 18220.75
555.9097, 18232.06
556.3918, 18240.51
556.8740, 18251.31
557.3561, 18271.36
557.8382, 18299.48
558.3203, 18331.42
558.8024, 18367.51
559.2845, 18404.99
559.7667, 18438.40
560.2488, 18465.98
560.7309, 18508.53
561.2130, 18598.56
561.6951, 18691.02
562.1772, 18752.40
562.6594, 18726.44
563.1415, 18737.46
563.6236, 18806.94
564.1057, 18906.69
564.5878, 18984.71
565.0699, 19035.68
565.5521, 19075.30
566.0342, 19105.88
566.5163, 19128.30
566.9984, 19147.38
567.4805, 19161.82
567.9626, 19183.00
568.4448, 19226.35
568.9269, 19283.67
569.4090, 19330.46
569.8911, 19363.52
570.3732, 19388.28
570.8553, 19435.53
571.3375, 19474.16
571.8196, 19446.65
572.3017, 19266.17
572.7838, 19085.25
573.2659, 18995.23
573.7480, 18973.63
574.2302, 18944.62
574.7123, 18878.19
575.1944, 18806.77
575.6765, 18740.06
576.1586, 18676.17
576.6407, 18633.70
577.1229, 18628.83
577.6050, 18628.40
578.0871, 18604.42
578.5692, 18548.92
579.0513, 18500.44
579.5334, 18458.64
580.0156, 18431.23
580.4977, 18443.75
580.9798, 18493.25
581.4619, 18526.49
581.9440, 18515.78
582.4261, 18480.52
582.9083, 18446.36
583.3904, 18415.83
583.8725, 18405.44
584.3546, 18451.80
584.8367, 18507.99
585.3188, 18524.98
585.8010, 18488.71
586.2831, 18454.44
586.7652, 18441.80
587.2473, 18444.69
587.7294, 18456.79
588.2115, 18501.32
588.6937, 18524.43
589.1758, 18507.79
589.6579, 18469.63
590.1400, 18457.72
590.6221, 18487.96
591.1042, 18508.02
591.5864, 18495.22
592.0685, 18455.01
592.5506, 18432.71
593.0327, 18428.86
593.5148, 18439.94
593.9969, 18473.17
594.4791, 18519.63
594.9612, 18552.78
595.4433, 18569.92
595.9254, 18574.43
596.4075, 18557.50
596.8896, 18532.58
597.3718, 18522.18
597.8539, 18555.37
598.3360, 18581.27
598.8181, 18554.02
599.3002, 18497.93
599.7823, 18484.92
600.2645, 18598.92
600.7466, 18691.27
601.2287, 18697.92
601.7108, 18611.19
602.1929, 18566.02
602.6750, 18579.35
603.1572, 18608.05
603.6393, 18623.72
604.1214, 18625.32
604.6035, 18621.98
605.0856, 18611.25
605.5677, 18603.89
606.0498, 18618.64
606.5319, 18650.76
607.0140, 18679.76
607.4962, 18698.84
607.9783, 18712.08
608.4604, 18727.33
608.9425, 18741.03
609.4246, 18741.66
609.9067, 18687.04
610.3889, 18647.19
610.8710, 18681.52
611.3531, 18798.06
611.8352, 18877.95
612.3173, 18870.55
612.7994, 18840.26
613.2816, 18826.35
613.7637, 18839.33
614.2458, 18844.56
614.7279, 18833.61
615.2100, 18825.77
615.6921, 18859.85
616.1743, 18942.46
616.6564, 18981.58
617.1385, 18939.42
617.6206, 18863.73
618.1027, 18852.13
618.5848, 18895.36
619.0670, 18939.79
619.5491, 18951.82
620.0312, 18952.42
620.5133, 18960.21
620.9954, 18975.87
621.4775, 19001.49
621.9597, 19063.36
622.4418, 19117.92
622.9239, 19129.10
623.4060, 19062.02
623.8881, 19024.83
624.3702, 19057.56
624.8524, 19107.56
625.3345, 19119.89
625.8166, 19075.88
626.2987, 19040.91
626.7808, 19022.21
627.2629, 19018.61
627.7451, 19033.29
628.2272, 19066.58
628.7093, 19093.82
629.1914, 19104.74
629.6735, 19102.54
630.1556, 19087.99
630.6378, 19063.40
631.1199, 19045.44
631.6020, 19052.92
632.0841, 19067.73
632.5662, 19070.59
633.0483, 19056.09
633.5305, 19050.27
634.0126, 19077.58
634.4947, 19110.16
634.9768, 19123.04
635.4589, 19086.48
635.9410, 19070.18
636.4232, 19082.19
636.9053, 19110.84
637.3874, 19139.00
637.8695, 19168.61
638.3516, 19185.58
638.8337, 19182.89
639.3159, 19167.03
639.7980, 19157.32
640.2801, 19152.82
640.7622, 19142.97
641.2443, 19106.12
641.7264, 19067.78
642.2086, 19071.63
642.6907, 19118.17
643.1728, 19157.11
643.6549, 19140.54
644.1370, 19117.28
644.6191, 19129.78
645.1013, 19209.21
645.5834, 19270.42
646.0655, 19292.16
646.5476, 19294.73
647.0297, 19296.87
647.5118, 19298.47
647.9940, 19294.25
648.4761, 19268.75
648.9582, 19249.01
649.4403, 19325.31
649.9224, 19496.91
650.4045, 19615.11
650.8867, 19583.77
651.3688, 19479.99
651.8509, 19455.19
652.3330, 19498.86
652.8151, 19544.53
653.2972, 19530.33
653.7794, 19513.43
654.2615, 19558.47
654.7436, 19681.55
655.2257, 19758.91
655.7078, 19698.31
656.1899, 19614.05
656.6721, 19593.02
657.1542, 19675.71
657.6363, 19750.40
658.1184, 19816.26
658.6005, 19875.38
659.0826, 19933.76
659.5648, 19993.25
660.0469, 20026.07
660.5290, 20019.77
661.0111, 19993.07
661.4932, 19970.90
661.9753, 19956.75
662.4575, 19965.31
662.9396, 20013.63
663.4217, 20081.88
663.9038, 20162.57
664.3859, 20252.23
664.8680, 20326.60
665.3502, 20362.95
665.8323, 20393.32
666.3144, 20436.87
666.7965, 20501.19
667.2786, 20548.35
667.7607, 20573.88
668.2428, 20585.55
668.7249, 20585.44
669.2070, 20569.88
669.6891, 20561.98
670.1713, 20566.30
670.6534, 20565.41
671.1355, 20533.82
671.6176, 20476.39
672.0997, 20414.84
672.5818, 20358.71
673.0640, 20295.50
673.5461, 20196.29
674.0282, 20083.06
674.5103, 20000.09
