##NAMES=Millerite
##RRUFFID=R070323
##IDEAL CHEMISTRY=NiS
##LOCALITY=Keokuk area, Lee County, Iowa, USA
##OWNER=RRUFF
##SOURCE=James Shigley
##DESCRIPTION=Bronze colored metallic fibers associated with chalcopyrite and quartz
##STATUS=The identification of this mineral is confirmed by single-crystal X-ray diffraction and chemical analysis.
##URL=rruff.info/R070323
##MEASURED CHEMISTRY=(Ni_0.97_Fe_0.02_Co_0.01_)_Î£=1_S_1.00_
167.7847, 1122.177
168.2668, 1114.999
168.7490, 1113.960
169.2311, 1120.943
169.7132, 1130.033
170.1953, 1139.361
170.6774, 1148.388
171.1595, 1155.992
171.6417, 1160.482
172.1238, 1163.708
172.6059, 1171.231
173.0880, 1186.490
173.5701, 1199.009
174.0522, 1203.383
174.5344, 1202.669
175.0165, 1200.964
175.4986, 1200.308
175.9807, 1199.929
176.4628, 1198.145
176.9449, 1196.438
177.4271, 1190.074
177.9092, 1175.429
178.3913, 1156.288
178.8734, 1137.196
179.3555, 1119.143
179.8376, 1103.462
180.3197, 1094.488
180.8019, 1095.909
181.2840, 1097.854
181.7661, 1096.090
182.2482, 1093.199
182.7303, 1092.463
183.2124, 1095.658
183.6946, 1101.706
184.1767, 1107.148
184.6588, 1109.453
185.1409, 1115.902
185.6230, 1132.468
186.1051, 1152.043
186.5873, 1166.872
187.0694, 1173.388
187.5515, 1172.967
188.0336, 1168.249
188.5157, 1154.001
188.9978, 1144.850
189.4800, 1148.033
189.9621, 1155.386
190.4442, 1157.750
190.9263, 1150.702
191.4084, 1138.890
191.8905, 1134.093
192.3727, 1141.715
192.8548, 1146.879
193.3369, 1145.392
193.8190, 1141.455
194.3011, 1139.769
194.7832, 1142.260
195.2654, 1145.825
195.7475, 1143.065
196.2296, 1128.370
196.7117, 1117.857
197.1938, 1116.684
197.6759, 1118.170
198.1581, 1115.258
198.6402, 1105.747
199.1223, 1095.108
199.6044, 1094.650
200.0865, 1112.633
200.5686, 1124.319
201.0508, 1125.714
201.5329, 1122.424
202.0150, 1117.200
202.4971, 1111.230
202.9792, 1106.376
203.4613, 1106.144
203.9435, 1113.527
204.4256, 1118.850
204.9077, 1121.147
205.3898, 1121.971
205.8719, 1123.087
206.3540, 1124.520
206.8362, 1124.079
207.3183, 1117.322
207.8004, 1098.781
208.2825, 1088.329
208.7646, 1091.838
209.2467, 1097.910
209.7289, 1101.426
210.2110, 1101.059
210.6931, 1097.008
211.1752, 1087.652
211.6573, 1068.741
212.1395, 1060.786
212.6216, 1072.696
213.1037, 1087.127
213.5858, 1097.952
214.0679, 1103.752
214.5500, 1104.481
215.0322, 1098.754
215.5143, 1084.801
215.9964, 1076.415
216.4785, 1077.239
216.9606, 1080.117
217.4427, 1082.568
217.9249, 1084.771
218.4070, 1088.169
218.8891, 1094.113
219.3712, 1102.673
219.8533, 1111.232
220.3354, 1124.018
220.8176, 1132.530
221.2997, 1128.515
221.7818, 1118.403
222.2639, 1115.544
222.7460, 1130.722
223.2281, 1161.645
223.7103, 1182.171
224.1924, 1181.258
224.6745, 1181.285
225.1566, 1188.800
225.6387, 1199.833
226.1208, 1207.742
226.6030, 1208.332
227.0851, 1203.722
227.5672, 1202.781
228.0493, 1207.197
228.5314, 1213.475
229.0135, 1221.632
229.4957, 1230.928
229.9778, 1241.132
230.4599, 1252.232
230.9420, 1262.975
231.4241, 1270.016
231.9062, 1270.396
232.3884, 1272.001
232.8705, 1276.875
233.3526, 1282.650
233.8347, 1286.863
234.3168, 1288.768
234.7989, 1290.321
235.2811, 1295.052
235.7632, 1304.445
236.2453, 1313.630
236.7274, 1321.719
237.2095, 1329.877
237.6916, 1338.243
238.1738, 1347.127
238.6559, 1357.883
239.1380, 1370.810
239.6201, 1383.640
240.1022, 1407.672
240.5843, 1456.512
241.0665, 1505.792
241.5486, 1543.137
242.0307, 1568.898
242.5128, 1591.814
242.9949, 1622.778
243.4770, 1663.629
243.9592, 1690.851
244.4413, 1704.869
244.9234, 1702.950
245.4055, 1678.601
245.8876, 1636.711
246.3697, 1589.034
246.8519, 1542.688
247.3340, 1497.375
247.8161, 1452.855
248.2982, 1406.970
248.7803, 1364.964
249.2624, 1328.371
249.7446, 1296.251
250.2267, 1266.981
250.7088, 1238.910
251.1909, 1213.685
251.6730, 1196.955
252.1551, 1193.232
252.6373, 1188.888
253.1194, 1180.144
253.6015, 1168.392
254.0836, 1154.324
254.5657, 1137.656
255.0478, 1120.831
255.5300, 1107.842
256.0121, 1099.476
256.4942, 1092.131
256.9763, 1082.096
257.4584, 1074.347
257.9406, 1074.594
258.4227, 1084.326
258.9048, 1094.750
259.3869, 1096.080
259.8690, 1087.911
260.3511, 1079.632
260.8333, 1070.475
261.3154, 1064.133
261.7975, 1065.210
262.2796, 1073.162
262.7617, 1079.342
263.2438, 1074.325
263.7260, 1060.860
264.2081, 1056.037
264.6902, 1066.450
265.1723, 1078.345
265.6544, 1082.318
266.1365, 1079.683
266.6187, 1074.256
267.1008, 1063.516
267.5829, 1051.972
268.0650, 1050.505
268.5471, 1061.811
269.0292, 1075.177
269.5114, 1083.041
269.9935, 1087.915
270.4756, 1093.981
270.9577, 1102.176
271.4398, 1112.109
271.9219, 1125.766
272.4041, 1143.430
272.8862, 1154.913
273.3683, 1151.043
273.8504, 1139.482
274.3325, 1135.554
274.8146, 1143.172
275.2968, 1152.596
275.7789, 1157.560
276.2610, 1158.895
276.7431, 1160.475
277.2252, 1164.716
277.7073, 1168.245
278.1895, 1162.743
278.6716, 1144.346
279.1537, 1135.537
279.6358, 1153.906
280.1179, 1185.048
280.6000, 1202.804
281.0822, 1200.349
281.5643, 1191.204
282.0464, 1191.374
282.5285, 1201.737
283.0106, 1210.109
283.4927, 1214.487
283.9749, 1216.718
284.4570, 1219.372
284.9391, 1222.345
285.4212, 1221.706
285.9033, 1212.839
286.3854, 1196.070
286.8676, 1186.268
287.3497, 1185.913
287.8318, 1189.361
288.3139, 1194.334
288.7960, 1200.930
289.2781, 1211.066
289.7603, 1226.915
290.2424, 1245.294
290.7245, 1252.125
291.2066, 1233.910
291.6887, 1221.646
292.1708, 1224.088
292.6530, 1233.524
293.1351, 1240.957
293.6172, 1243.168
294.0993, 1241.565
294.5814, 1238.195
295.0635, 1229.137
295.5457, 1226.191
296.0278, 1234.193
296.5099, 1244.339
296.9920, 1251.513
297.4741, 1254.587
297.9562, 1253.971
298.4384, 1249.688
298.9205, 1241.108
299.4026, 1233.115
299.8847, 1223.759
300.3668, 1216.897
300.8489, 1215.501
301.3311, 1217.645
301.8131, 1219.564
302.2953, 1219.029
302.7774, 1216.012
303.2595, 1210.212
303.7416, 1199.999
304.2237, 1189.195
304.7058, 1177.872
305.1880, 1166.755
305.6701, 1156.382
306.1522, 1146.925
306.6343, 1138.790
307.1164, 1133.525
307.5985, 1132.734
308.0807, 1128.891
308.5628, 1114.530
309.0449, 1101.033
309.5270, 1096.774
310.0091, 1101.897
310.4912, 1108.370
310.9734, 1110.890
311.4555, 1109.347
311.9376, 1100.714
312.4197, 1076.792
312.9018, 1057.645
313.3839, 1059.387
313.8661, 1075.337
314.3482, 1088.202
314.8303, 1089.715
315.3124, 1083.612
315.7945, 1075.451
316.2766, 1064.852
316.7588, 1054.381
317.2409, 1043.988
317.7230, 1035.294
318.2051, 1031.203
318.6872, 1033.496
319.1693, 1037.968
319.6515, 1042.851
320.1336, 1047.673
320.6157, 1049.963
321.0978, 1047.923
321.5799, 1044.472
322.0620, 1044.780
322.5442, 1049.483
323.0263, 1053.023
323.5084, 1053.550
323.9905, 1052.171
324.4726, 1049.596
324.9547, 1045.958
325.4369, 1043.354
325.9190, 1044.553
326.4011, 1050.083
326.8832, 1051.286
327.3653, 1042.821
327.8474, 1035.090
328.3296, 1034.388
328.8117, 1039.441
329.2938, 1046.319
329.7759, 1053.306
330.2580, 1059.373
330.7401, 1059.591
331.2223, 1046.997
331.7044, 1037.147
332.1865, 1031.380
332.6686, 1029.228
333.1507, 1031.036
333.6328, 1036.635
334.1150, 1043.812
334.5971, 1049.593
335.0792, 1054.440
335.5613, 1056.349
336.0434, 1050.955
336.5255, 1046.807
337.0077, 1049.848
337.4898, 1058.474
337.9719, 1066.178
338.4540, 1066.596
338.9361, 1061.279
339.4182, 1065.090
339.9004, 1087.005
340.3825, 1104.763
340.8646, 1111.019
341.3467, 1110.272
341.8288, 1107.232
342.3109, 1103.058
342.7931, 1100.104
343.2752, 1102.771
343.7573, 1111.975
344.2394, 1120.354
344.7215, 1126.059
345.2036, 1130.349
345.6858, 1134.315
346.1679, 1138.004
346.6500, 1140.834
347.1321, 1142.479
347.6142, 1142.989
348.0963, 1142.228
348.5785, 1139.799
349.0606, 1137.291
349.5427, 1136.387
350.0248, 1136.462
350.5069, 1135.616
350.9890, 1131.562
351.4712, 1128.014
351.9533, 1130.376
352.4354, 1136.958
352.9175, 1138.365
353.3996, 1129.006
353.8817, 1113.097
354.3639, 1101.490
354.8460, 1094.724
355.3281, 1089.931
355.8102, 1087.648
356.2923, 1086.502
356.7744, 1085.075
357.2566, 1083.019
357.7387, 1080.450
358.2208, 1077.331
358.7029, 1073.329
359.1850, 1070.738
359.6671, 1070.977
360.1493, 1071.011
360.6314, 1068.510
361.1135, 1064.772
361.5956, 1062.670
362.0777, 1063.928
362.5598, 1067.940
363.0420, 1072.665
363.5241, 1079.471
364.0062, 1084.701
364.4883, 1089.353
364.9704, 1091.608
365.4525, 1088.198
365.9347, 1079.152
366.4168, 1070.215
366.8989, 1068.563
367.3810, 1074.683
367.8631, 1079.996
368.3452, 1085.999
368.8274, 1088.718
369.3095, 1084.371
369.7916, 1075.483
370.2737, 1068.286
370.7558, 1067.401
371.2379, 1068.461
371.7201, 1061.971
372.2022, 1046.613
372.6843, 1036.761
373.1664, 1041.938
373.6485, 1054.241
374.1306, 1061.485
374.6128, 1062.508
375.0949, 1061.389
375.5770, 1059.800
376.0591, 1057.617
376.5412, 1054.875
377.0233, 1051.706
377.5055, 1046.931
377.9876, 1038.704
378.4697, 1026.577
378.9518, 1016.413
379.4339, 1006.556
379.9160, 1000.262
380.3982, 1001.326
380.8803, 1007.807
381.3624, 1014.907
381.8445, 1020.314
382.3266, 1023.586
382.8087, 1023.310
383.2909, 1013.796
383.7730, 1008.203
384.2551, 1009.786
384.7372, 1013.406
385.2193, 1014.369
385.7014, 1012.269
386.1836, 1010.791
386.6657, 1015.682
387.1478, 1027.865
387.6299, 1027.774
388.1120, 1000.784
388.5941, 978.1631
389.0763, 969.7212
389.5584, 972.2144
390.0405, 981.4084
390.5226, 997.1190
391.0047, 1014.090
391.4868, 1024.651
391.9690, 1028.594
392.4511, 1027.243
392.9332, 1016.190
393.4153, 1004.131
393.8974, 999.2442
394.3795, 1001.585
394.8617, 1006.365
395.3438, 1015.959
395.8259, 1024.903
396.3080, 1021.010
396.7901, 1002.435
397.2722, 985.7653
397.7544, 984.1447
398.2365, 994.3633
398.7186, 997.7190
399.2007, 990.2574
399.6828, 980.5572
400.1649, 968.3824
400.6471, 956.9652
401.1292, 951.8039
401.6113, 954.7175
402.0934, 963.3567
402.5755, 974.8422
403.0576, 991.0355
403.5398, 1004.152
404.0219, 1019.019
404.5040, 1027.003
404.9861, 1017.885
405.4682, 998.0218
405.9503, 983.7376
406.4325, 986.4912
406.9146, 999.8576
407.3967, 999.3320
407.8788, 973.4795
408.3609, 957.4191
408.8430, 964.5420
409.3252, 978.8168
409.8073, 988.6347
410.2894, 992.0234
410.7715, 992.8786
411.2536, 993.8342
411.7357, 994.9255
412.2179, 996.6595
412.7000, 999.8252
413.1821, 1001.789
413.6642, 998.6859
414.1463, 993.1963
414.6284, 991.1226
415.1106, 997.6502
415.5927, 1002.828
416.0748, 998.1639
416.5569, 986.0685
417.0390, 972.0096
417.5211, 956.2417
418.0033, 945.4768
418.4854, 952.1802
418.9675, 985.0992
419.4496, 1005.289
419.9317, 1003.347
420.4138, 994.7906
420.8960, 986.8504
421.3781, 981.3345
421.8602, 980.6620
422.3423, 987.1279
422.8244, 998.0339
423.3065, 1001.467
423.7887, 991.2715
424.2708, 982.9750
424.7529, 979.0100
425.2350, 976.8459
425.7171, 973.3096
426.1992, 968.5325
426.6814, 966.8007
427.1635, 975.2000
427.6456, 992.3782
428.1277, 1000.862
428.6098, 997.7632
429.0919, 991.3723
429.5741, 983.1933
430.0562, 975.2559
430.5383, 971.4178
431.0204, 974.5923
431.5025, 977.6753
431.9846, 971.9197
432.4668, 960.6911
432.9489, 956.8164
433.4310, 964.5950
433.9131, 977.1146
434.3952, 987.0319
434.8773, 994.1295
435.3595, 999.5725
435.8416, 1003.380
436.3237, 1005.535
436.8058, 1006.527
437.2879, 1005.881
437.7701, 1002.110
438.2522, 994.3024
438.7343, 983.8641
439.2164, 973.9972
439.6985, 961.4997
440.1806, 955.7592
440.6628, 959.8351
441.1449, 967.3528
441.6270, 976.5557
442.1091, 985.7670
442.5912, 991.5823
443.0733, 990.5458
443.5555, 984.4207
444.0376, 980.3565
444.5197, 979.6208
445.0018, 977.3167
445.4839, 964.0873
445.9660, 952.3866
446.4482, 959.1573
446.9303, 989.5270
447.4124, 1013.690
447.8945, 1005.982
448.3766, 980.5734
448.8587, 967.6895
449.3409, 971.8438
449.8230, 980.3427
450.3051, 984.0892
450.7872, 983.3988
451.2693, 982.7078
451.7514, 982.4756
452.2336, 981.7167
452.7157, 977.7005
453.1978, 973.8315
453.6799, 976.9930
454.1620, 988.4921
454.6441, 999.8019
455.1263, 998.6547
455.6084, 981.5210
456.0905, 971.9702
456.5726, 977.0435
457.0547, 982.9144
457.5368, 986.2820
458.0190, 987.5198
458.5011, 988.0715
458.9832, 988.8311
459.4653, 987.6920
459.9474, 977.4657
460.4295, 957.8638
460.9117, 953.1928
461.3938, 977.6407
461.8759, 1005.333
462.3580, 1011.697
462.8401, 1000.411
463.3222, 989.8776
463.8044, 986.6846
464.2865, 985.0316
464.7686, 977.6985
465.2507, 966.8697
465.7328, 962.4576
466.2149, 969.7207
466.6971, 982.1949
467.1792, 986.8916
467.6613, 977.0536
468.1434, 973.7263
468.6255, 981.6146
469.1076, 991.7835
469.5898, 1002.383
470.0719, 1010.550
470.5540, 1009.448
471.0361, 993.2393
471.5182, 969.0393
472.0003, 958.0986
472.4825, 964.9457
472.9646, 972.9333
473.4467, 982.3818
473.9288, 989.0390
474.4109, 987.8552
474.8930, 979.6589
475.3752, 973.0402
475.8573, 975.6767
476.3394, 981.9296
476.8215, 980.4842
477.3036, 971.0183
477.7857, 964.8432
478.2679, 969.1915
478.7500, 979.0980
479.2321, 982.1616
479.7142, 975.9050
480.1963, 970.2547
480.6784, 967.2324
481.1606, 965.5223
481.6427, 963.3292
482.1248, 960.9882
482.6069, 961.0652
483.0890, 965.8994
483.5711, 974.2906
484.0533, 979.4441
484.5354, 978.1671
485.0175, 978.9120
485.4996, 986.8743
485.9817, 994.3131
486.4638, 993.2841
486.9460, 983.9378
487.4281, 975.1002
487.9102, 975.0777
488.3923, 980.7947
488.8744, 982.4118
489.3565, 979.0878
489.8387, 976.1938
490.3208, 977.1812
490.8029, 979.8932
491.2850, 979.7730
491.7671, 975.9824
492.2492, 971.8646
492.7314, 966.5518
493.2135, 962.6348
493.6956, 964.1757
494.1777, 970.8887
494.6598, 978.1942
495.1419, 982.6780
495.6241, 984.7046
496.1062, 986.7794
496.5883, 989.9903
497.0704, 991.6103
497.5525, 991.0096
498.0346, 989.0612
498.5168, 985.1758
498.9989, 980.0782
499.4810, 977.2679
499.9631, 982.1568
500.4452, 991.5518
500.9273, 992.4918
501.4095, 983.2786
501.8916, 972.5252
502.3737, 961.9154
502.8558, 953.1777
503.3379, 949.1063
503.8200, 950.7098
504.3022, 952.9914
504.7843, 953.9084
505.2664, 954.6288
505.7485, 956.7651
506.2306, 960.2451
506.7127, 963.7626
507.1949, 966.6678
507.6770, 968.6350
508.1591, 968.1713
508.6412, 962.9260
509.1233, 958.6076
509.6054, 956.3344
510.0876, 954.4254
510.5697, 951.4023
511.0518, 947.4391
511.5339, 943.7962
512.0161, 940.6060
512.4982, 938.8750
512.9803, 942.8729
513.4624, 954.0417
513.9445, 961.8186
514.4266, 960.5640
514.9088, 955.7552
515.3909, 955.5032
515.8730, 960.4166
516.3551, 962.0308
516.8372, 954.2750
517.3193, 944.7030
517.8015, 938.9891
518.2836, 937.6977
518.7657, 941.8533
519.2478, 952.7248
519.7299, 966.0659
520.2120, 971.2635
520.6942, 961.4681
521.1763, 956.5988
521.6584, 959.7636
522.1405, 964.3325
522.6226, 969.5333
523.1047, 973.1489
523.5869, 969.7159
524.0690, 953.7825
524.5511, 935.1501
525.0332, 932.2573
525.5153, 944.9782
525.9974, 952.6357
526.4796, 948.3191
526.9617, 940.7629
527.4438, 939.0514
527.9259, 942.5178
528.4080, 946.6875
528.8901, 949.8494
529.3723, 954.6494
529.8544, 967.5923
530.3365, 982.3892
530.8186, 985.1053
531.3007, 971.2867
531.7828, 951.4597
532.2650, 939.6979
532.7471, 936.6762
533.2292, 937.3503
533.7113, 944.1606
534.1934, 952.0848
534.6755, 961.2460
535.1577, 969.9543
535.6398, 976.4150
536.1219, 980.2337
536.6040, 980.8213
537.0861, 975.9757
537.5682, 967.4075
538.0504, 960.4636
538.5325, 955.7791
539.0146, 952.6599
539.4967, 950.0284
539.9788, 948.6965
540.4609, 952.5463
540.9431, 970.9710
541.4252, 981.2427
541.9073, 973.2296
542.3894, 958.6312
542.8715, 945.3318
543.3536, 936.2042
543.8358, 935.7880
544.3179, 950.2767
544.8000, 973.8475
545.2821, 978.3857
545.7642, 954.2446
546.2463, 937.5829
546.7285, 944.8554
547.2106, 957.6730
547.6927, 961.2576
548.1748, 955.9085
548.6569, 952.6342
549.1390, 960.2196
549.6211, 969.4404
550.1032, 967.9044
550.5853, 958.2625
551.0674, 953.7618
551.5496, 960.4446
552.0317, 970.4731
552.5138, 970.5800
552.9959, 955.9819
553.4780, 947.6577
553.9601, 948.2341
554.4423, 951.2654
554.9244, 957.4100
555.4065, 963.2975
555.8886, 963.2243
556.3707, 954.9440
556.8528, 944.7513
557.3350, 939.7673
557.8171, 939.6302
558.2992, 941.8931
558.7813, 947.1314
559.2634, 952.3997
559.7455, 957.2751
560.2277, 960.3332
560.7098, 957.4929
561.1919, 943.5930
561.6740, 932.7874
562.1561, 928.1627
562.6382, 929.6287
563.1204, 942.9923
563.6025, 964.5044
564.0846, 975.7032
564.5667, 960.8076
565.0488, 929.3680
565.5309, 921.5709
566.0131, 951.5577
566.4952, 969.3986
566.9773, 953.2759
567.4594, 932.9698
567.9415, 927.6855
568.4236, 935.3856
568.9058, 942.3434
569.3879, 941.7385
569.8700, 938.8334
570.3521, 939.3164
570.8342, 942.0632
571.3163, 942.5243
571.7985, 939.0146
572.2806, 936.0230
572.7627, 939.7237
573.2448, 951.4382
573.7269, 957.3606
574.2090, 951.0170
574.6912, 946.9844
575.1733, 950.5037
575.6554, 957.3741
576.1375, 962.8788
576.6196, 965.9710
577.1017, 968.6115
577.5839, 974.2200
578.0660, 980.7926
578.5481, 980.7298
579.0302, 973.2897
579.5123, 964.7589
579.9944, 957.3671
580.4766, 951.1063
580.9587, 946.6624
581.4408, 945.0607
581.9229, 940.8137
582.4050, 926.5553
582.8871, 915.4527
583.3693, 920.0924
583.8514, 934.4070
584.3335, 944.1684
584.8156, 942.7950
585.2977, 936.2558
585.7798, 933.0779
586.2620, 933.2441
586.7441, 938.2254
587.2262, 953.7350
587.7083, 964.7830
588.1904, 957.1467
588.6725, 940.9791
589.1547, 933.1610
589.6368, 938.3997
590.1189, 945.3970
590.6010, 949.6641
591.0831, 952.1270
591.5652, 952.5701
592.0474, 951.8566
592.5295, 954.8215
593.0116, 965.7197
593.4937, 979.4595
593.9758, 978.4738
594.4579, 951.5563
594.9401, 936.6015
595.4222, 949.7626
595.9043, 963.8317
596.3864, 963.7314
596.8685, 953.7542
597.3506, 946.4821
597.8328, 947.9762
598.3149, 950.8441
598.7970, 948.3950
599.2791, 942.1025
599.7612, 935.6205
600.2433, 929.6265
600.7255, 922.9481
601.2076, 913.2425
601.6897, 902.0332
602.1718, 901.9464
602.6539, 928.0601
603.1360, 944.7334
603.6182, 940.9605
604.1003, 933.5405
604.5824, 935.5959
605.0645, 946.2803
605.5466, 956.6437
606.0287, 962.7054
606.5109, 964.1630
606.9930, 957.6813
607.4751, 944.7144
607.9572, 937.6961
608.4393, 940.6849
608.9214, 946.4293
609.4036, 947.8558
609.8857, 944.9334
610.3678, 942.3552
610.8499, 937.5344
611.3320, 936.2706
611.8141, 946.4646
612.2963, 956.7454
612.7784, 951.9373
613.2605, 933.2476
613.7426, 918.2889
614.2247, 922.8394
614.7068, 938.4850
615.1890, 943.4575
615.6711, 937.1866
616.1532, 933.0656
616.6353, 935.0289
617.1174, 940.4374
617.5995, 948.7480
618.0817, 960.0436
618.5638, 962.2634
619.0459, 941.7338
619.5280, 927.3207
620.0101, 936.7719
620.4922, 955.3386
620.9744, 965.8591
621.4565, 964.3505
621.9386, 954.2013
622.4207, 933.7625
622.9028, 909.0995
623.3849, 908.7054
623.8671, 938.1844
624.3492, 958.7347
624.8313, 955.0817
625.3134, 941.6791
625.7955, 935.2201
626.2776, 935.2319
626.7598, 934.0442
627.2419, 927.4250
627.7240, 922.8294
628.2061, 924.7098
628.6882, 930.7449
629.1703, 939.6638
629.6525, 949.9688
630.1346, 955.5588
630.6167, 947.9795
631.0988, 930.9175
631.5809, 927.1902
632.0630, 941.7556
632.5452, 949.5867
633.0273, 936.5737
633.5094, 919.9939
633.9915, 922.1280
634.4736, 941.7097
634.9557, 953.3454
635.4379, 946.8203
635.9200, 936.5318
636.4021, 926.4351
636.8842, 919.3840
637.3663, 921.0507
637.8484, 917.3507
638.3306, 935.1581
638.8127, 945.0660
639.2948, 947.4987
639.7769, 920.0673
640.2590, 931.1992
640.7411, 926.8766
641.2233, 921.9203
641.7054, 938.4798
642.1875, 915.3920
642.6696, 931.6103
643.1517, 932.1384
643.6339, 939.8474
644.1160, 932.0066
644.5981, 928.9687
645.0802, 941.4856
645.5623, 945.3896
646.0444, 935.7589
646.5266, 943.9243
647.0087, 920.2933
647.4908, 924.5643
647.9729, 940.8736
648.4550, 932.0246
648.9371, 940.4744
649.4193, 942.3359
649.9014, 914.2560
650.3835, 938.2472
650.8656, 939.7194
651.3477, 918.0694
651.8298, 940.2764
652.3120, 921.8140
652.7941, 917.8682
653.2762, 924.8469
653.7583, 920.4371
654.2404, 933.9825
654.7225, 930.2305
655.2047, 924.9329
655.6868, 926.3798
656.1689, 908.7150
656.6510, 926.5062
657.1331, 920.0779
657.6152, 925.6887
658.0974, 934.0281
658.5795, 921.4734
659.0616, 931.0390
659.5437, 906.3011
660.0258, 910.2662
660.5079, 911.1405
660.9901, 930.3611
661.4722, 905.7904
661.9543, 917.7585
662.4364, 909.1215
662.9185, 908.3001
663.4006, 926.3262
663.8828, 952.6120
