##NAMES=Millerite
##RRUFFID=R060898
##IDEAL CHEMISTRY=NiS
##LOCALITY=Orford, Quebec, Canada
##OWNER=RRUFF
##SOURCE=Royal Ontario Museum
##DESCRIPTION=Pale brass-yellow prismatic crystal with pronounced striations, associated with calcite and green grossular
##STATUS=The identification of this mineral is confirmed by single-crystal X-ray diffraction and chemical analysis.
##URL=rruff.info/R060898
##MEASURED CHEMISTRY=(Ni_0.97_Co_0.02_Fe_0.01_)_Î£=1_S_1.00_ ; trace amounts of As
180.8278, 17768.81
181.3099, 17744.76
181.7920, 17735.20
182.2741, 17746.29
182.7562, 17769.25
183.2384, 17791.63
183.7205, 17803.69
184.2026, 17816.63
184.6847, 17853.45
185.1668, 17921.94
185.6489, 17980.92
186.1311, 18000.46
186.6132, 17994.82
187.0953, 17979.62
187.5774, 17949.04
188.0595, 17917.98
188.5416, 17910.30
189.0238, 17929.38
189.5059, 17958.79
189.9880, 17999.22
190.4701, 18042.71
190.9522, 18077.91
191.4343, 18103.63
191.9165, 18118.06
192.3986, 18114.19
192.8807, 18086.79
193.3628, 18062.10
193.8449, 18052.74
194.3270, 18055.28
194.8092, 18068.45
195.2913, 18097.13
195.7734, 18131.79
196.2555, 18158.61
196.7376, 18177.08
197.2197, 18190.75
197.7019, 18192.00
198.1840, 18192.06
198.6661, 18206.65
199.1482, 18247.96
199.6303, 18297.04
200.1124, 18323.70
200.5946, 18322.46
201.0767, 18324.95
201.5588, 18356.77
202.0409, 18397.67
202.5230, 18426.01
203.0051, 18434.02
203.4873, 18429.97
203.9694, 18422.92
204.4515, 18412.42
204.9336, 18400.66
205.4157, 18386.98
205.8978, 18372.87
206.3800, 18360.14
206.8621, 18349.28
207.3442, 18339.30
207.8263, 18328.24
208.3084, 18315.51
208.7905, 18305.79
209.2727, 18301.78
209.7548, 18301.55
210.2369, 18302.70
210.7190, 18303.64
211.2011, 18308.65
211.6832, 18326.46
212.1654, 18358.28
212.6475, 18381.62
213.1296, 18373.68
213.6117, 18362.07
214.0938, 18380.95
214.5760, 18443.78
215.0581, 18506.73
215.5402, 18522.74
216.0223, 18491.99
216.5044, 18470.65
216.9865, 18483.53
217.4687, 18509.31
217.9508, 18520.70
218.4329, 18510.95
218.9150, 18511.88
219.3971, 18561.16
219.8792, 18654.10
220.3614, 18726.32
220.8435, 18750.17
221.3256, 18754.51
221.8077, 18772.72
222.2898, 18807.15
222.7719, 18841.61
223.2541, 18866.07
223.7362, 18881.23
224.2183, 18888.43
224.7004, 18877.95
225.1825, 18872.08
225.6646, 18897.16
226.1468, 18953.79
226.6289, 19009.70
227.1110, 19047.53
227.5931, 19070.38
228.0752, 19086.59
228.5573, 19093.22
229.0395, 19100.64
229.5216, 19123.66
230.0037, 19160.67
230.4858, 19189.51
230.9679, 19191.23
231.4500, 19178.61
231.9322, 19183.63
232.4143, 19217.51
232.8964, 19252.13
233.3785, 19250.15
233.8606, 19219.53
234.3427, 19205.80
234.8249, 19231.93
235.3070, 19280.98
235.7891, 19327.03
236.2712, 19367.13
236.7533, 19407.81
237.2354, 19449.35
237.7176, 19494.40
238.1997, 19558.39
238.6818, 19643.86
239.1639, 19750.68
239.6460, 19880.85
240.1281, 20035.37
240.6103, 20205.83
241.0924, 20388.17
241.5745, 20583.48
242.0566, 20788.01
242.5387, 20993.08
243.0208, 21213.92
243.5030, 21471.77
243.9851, 21763.08
244.4672, 22052.99
244.9493, 22312.35
245.4314, 22552.87
245.9135, 22827.29
246.3957, 23150.92
246.8778, 23493.74
247.3599, 23871.10
247.8420, 24262.82
248.3241, 24607.19
248.8062, 24909.75
249.2884, 25109.72
249.7705, 25006.95
250.2526, 24493.03
250.7347, 23872.47
251.2168, 23174.46
251.6989, 22448.86
252.1811, 21795.71
252.6632, 21256.72
253.1453, 20819.79
253.6274, 20464.14
254.1095, 20200.39
254.5916, 19984.77
255.0738, 19820.87
255.5559, 19698.22
256.0380, 19602.32
256.5201, 19528.46
257.0022, 19484.41
257.4843, 19490.58
257.9665, 19612.61
258.4486, 19648.08
258.9307, 19510.63
259.4128, 19330.35
259.8949, 19213.10
260.3770, 19182.84
260.8592, 19221.19
261.3413, 19318.38
261.8234, 19519.99
262.3055, 19619.89
262.7876, 19572.19
263.2697, 19472.73
263.7519, 19358.28
264.2340, 19243.53
264.7161, 19147.65
265.1982, 19091.25
265.6803, 19078.69
266.1624, 19062.72
266.6446, 19033.02
267.1267, 19010.53
267.6088, 19008.36
268.0909, 19020.21
268.5730, 19031.75
269.0551, 19033.53
269.5373, 19025.80
270.0194, 19011.21
270.5015, 18977.86
270.9836, 18950.02
271.4657, 18931.23
271.9478, 18920.57
272.4300, 18916.06
272.9121, 18916.48
273.3942, 18922.87
273.8763, 18938.39
274.3584, 18963.13
274.8405, 18998.08
275.3227, 19055.54
275.8048, 19115.11
276.2869, 19151.94
276.7690, 19157.84
277.2511, 19159.38
277.7332, 19209.32
278.2154, 19337.03
278.6975, 19421.14
279.1796, 19414.28
279.6617, 19383.14
280.1438, 19363.44
280.6259, 19361.58
281.1081, 19368.27
281.5902, 19372.85
282.0723, 19374.59
282.5544, 19387.08
283.0365, 19413.10
283.5186, 19449.66
284.0008, 19508.83
284.4829, 19581.25
284.9650, 19632.10
285.4471, 19622.69
285.9292, 19568.70
286.4113, 19540.50
286.8935, 19545.84
287.3756, 19565.13
287.8577, 19597.83
288.3398, 19634.99
288.8219, 19656.76
289.3040, 19639.38
289.7862, 19612.54
290.2683, 19626.17
290.7504, 19686.39
291.2325, 19749.90
291.7146, 19790.34
292.1967, 19821.01
292.6789, 19865.59
293.1610, 19936.19
293.6431, 20007.46
294.1252, 20063.91
294.6073, 20105.09
295.0894, 20123.56
295.5716, 20101.94
296.0537, 20070.73
296.5358, 20088.44
297.0179, 20166.26
297.5000, 20249.93
297.9821, 20312.79
298.4643, 20366.91
298.9464, 20441.21
299.4285, 20546.79
299.9106, 20652.83
300.3927, 20716.11
300.8748, 20728.13
301.3570, 20736.49
301.8391, 20735.83
302.3212, 20739.51
302.8033, 20772.66
303.2854, 20833.12
303.7675, 20875.76
304.2497, 20855.19
304.7318, 20764.17
305.2139, 20700.46
305.6960, 20691.81
306.1781, 20679.47
306.6602, 20639.10
307.1424, 20573.36
307.6245, 20489.82
308.1066, 20390.54
308.5887, 20281.35
309.0708, 20195.23
309.5529, 20171.89
310.0351, 20126.61
310.5172, 20038.78
310.9993, 19928.34
311.4814, 19811.21
311.9635, 19694.65
312.4456, 19590.83
312.9278, 19526.55
313.4099, 19528.56
313.8920, 19515.16
314.3741, 19462.82
314.8562, 19410.34
315.3383, 19388.75
315.8205, 19398.72
316.3026, 19412.96
316.7847, 19399.40
317.2668, 19354.18
317.7489, 19323.95
318.2310, 19319.30
318.7132, 19319.55
319.1953, 19317.52
319.6774, 19312.97
320.1595, 19306.67
320.6416, 19299.44
321.1237, 19290.41
321.6059, 19273.80
322.0880, 19241.10
322.5701, 19221.78
323.0522, 19240.77
323.5343, 19277.47
324.0164, 19306.47
324.4986, 19317.93
324.9807, 19326.09
325.4628, 19346.24
325.9449, 19377.69
326.4270, 19411.24
326.9091, 19450.39
327.3913, 19482.94
327.8734, 19485.42
328.3555, 19448.20
328.8376, 19429.67
329.3197, 19490.16
329.8018, 19579.97
330.2840, 19594.41
330.7661, 19502.74
331.2482, 19391.96
331.7303, 19360.78
332.2124, 19418.40
332.6945, 19457.77
333.1767, 19468.02
333.6588, 19461.13
334.1409, 19442.80
334.6230, 19414.91
335.1051, 19379.27
335.5872, 19333.33
336.0694, 19280.41
336.5515, 19255.47
337.0336, 19290.53
337.5157, 19312.75
337.9979, 19287.15
338.4800, 19242.84
338.9621, 19225.16
339.4442, 19253.12
339.9263, 19306.49
340.4084, 19343.18
340.8906, 19357.06
341.3727, 19363.85
341.8548, 19365.84
342.3369, 19360.43
342.8190, 19331.09
343.3011, 19284.46
343.7833, 19259.10
344.2654, 19308.31
344.7475, 19439.63
345.2296, 19516.41
345.7117, 19482.05
346.1938, 19454.82
346.6760, 19489.13
347.1581, 19563.09
347.6402, 19631.46
348.1223, 19672.29
348.6044, 19692.22
349.0865, 19700.87
349.5687, 19692.84
350.0508, 19695.13
350.5329, 19728.12
351.0150, 19772.85
351.4971, 19812.05
351.9792, 19845.03
352.4614, 19865.07
352.9435, 19870.78
353.4256, 19860.29
353.9077, 19818.40
354.3898, 19728.43
354.8719, 19633.12
355.3541, 19596.60
355.8362, 19616.18
356.3183, 19617.47
356.8004, 19565.55
357.2825, 19498.56
357.7646, 19458.23
358.2468, 19445.75
358.7289, 19434.44
359.2110, 19404.33
359.6931, 19357.15
360.1752, 19314.81
360.6573, 19264.59
361.1395, 19232.70
361.6216, 19244.17
362.1037, 19275.83
362.5858, 19283.92
363.0679, 19249.75
363.5500, 19202.85
364.0322, 19205.91
364.5143, 19302.58
364.9964, 19375.08
365.4785, 19425.99
365.9606, 19453.89
366.4427, 19438.01
366.9249, 19389.83
367.4070, 19359.19
367.8891, 19402.00
368.3712, 19516.79
368.8533, 19598.11
369.3354, 19627.14
369.8176, 19645.43
370.2997, 19671.30
370.7818, 19696.77
371.2639, 19704.04
371.7460, 19676.07
372.2281, 19646.54
372.7103, 19678.59
373.1924, 19780.36
373.6745, 19858.48
374.1566, 19876.94
374.6387, 19861.49
375.1208, 19842.40
375.6030, 19820.42
376.0851, 19794.51
376.5672, 19758.44
377.0493, 19719.17
377.5314, 19693.45
378.0135, 19685.56
378.4957, 19676.81
378.9778, 19650.00
379.4599, 19604.37
379.9420, 19558.60
380.4241, 19511.62
380.9063, 19465.70
381.3884, 19412.01
381.8705, 19360.20
382.3526, 19380.86
382.8347, 19397.20
383.3168, 19397.96
383.7990, 19383.97
384.2811, 19311.08
384.7632, 19314.25
385.2453, 19286.94
385.7274, 19258.38
386.2095, 19272.26
386.6917, 19207.93
387.1738, 19221.14
387.6559, 19203.40
388.1380, 19166.20
388.6201, 19194.71
389.1022, 19192.88
389.5844, 19182.84
390.0665, 19164.05
390.5486, 19143.88
391.0307, 19134.98
391.5128, 19145.04
391.9949, 19164.77
392.4771, 19176.69
392.9592, 19178.63
393.4413, 19191.52
393.9234, 19230.44
394.4055, 19276.51
394.8876, 19311.99
395.3698, 19336.56
395.8519, 19347.04
396.3340, 19330.41
396.8161, 19301.45
397.2982, 19281.77
397.7803, 19273.43
398.2625, 19288.38
398.7446, 19352.22
399.2267, 19459.10
399.7088, 19500.62
400.1909, 19426.63
400.6730, 19342.47
401.1552, 19289.57
401.6373, 19260.76
402.1194, 19240.27
402.6015, 19221.88
403.0836, 19203.40
403.5657, 19179.66
404.0479, 19138.95
404.5300, 19115.26
405.0121, 19124.96
405.4942, 19136.58
405.9763, 19128.90
406.4584, 19103.48
406.9406, 19075.85
407.4227, 19058.38
407.9048, 19049.92
408.3869, 19041.01
408.8690, 19028.81
409.3511, 19022.07
409.8333, 19026.46
410.3154, 19036.46
410.7975, 19046.21
411.2796, 19054.22
411.7617, 19061.10
412.2438, 19065.12
412.7260, 19067.34
413.2081, 19075.33
413.6902, 19091.02
414.1723, 19111.44
414.6544, 19141.31
415.1365, 19178.86
415.6187, 19193.22
416.1008, 19151.57
416.5829, 19104.79
417.0650, 19100.25
417.5471, 19131.45
418.0292, 19162.65
418.5114, 19175.98
418.9935, 19171.12
419.4756, 19146.65
419.9577, 19062.22
420.4398, 19010.60
420.9219, 19020.96
421.4041, 19050.81
421.8862, 19065.68
422.3683, 19059.07
422.8504, 19041.84
423.3325, 19024.13
423.8146, 19006.08
424.2968, 18986.65
424.7789, 18957.90
425.2610, 18938.82
425.7431, 18943.73
426.2252, 18959.27
426.7073, 18966.14
427.1895, 18957.11
427.6716, 18938.11
428.1537, 18912.89
428.6358, 18881.84
429.1179, 18856.43
429.6000, 18839.87
430.0822, 18829.44
430.5643, 18824.08
431.0464, 18823.47
431.5285, 18820.17
432.0106, 18816.23
432.4927, 18806.00
432.9749, 18770.94
433.4570, 18718.48
433.9391, 18694.22
434.4212, 18731.46
434.9033, 18810.02
435.3854, 18851.38
435.8676, 18821.81
436.3497, 18798.34
436.8318, 18789.90
437.3139, 18787.83
437.7960, 18781.46
438.2781, 18770.73
438.7603, 18767.29
439.2424, 18786.95
439.7245, 18829.91
440.2066, 18855.68
440.6887, 18849.07
441.1708, 18845.60
441.6530, 18864.79
442.1351, 18891.90
442.6172, 18905.44
443.0993, 18896.65
443.5814, 18878.71
444.0635, 18860.02
444.5457, 18842.14
445.0278, 18841.83
445.5099, 18869.73
445.9920, 18902.45
446.4741, 18914.36
446.9562, 18907.24
447.4384, 18892.67
447.9205, 18863.58
448.4026, 18835.11
448.8847, 18818.58
449.3668, 18812.91
449.8489, 18816.13
450.3311, 18829.39
450.8132, 18843.23
451.2953, 18832.47
451.7774, 18775.88
452.2595, 18726.48
452.7416, 18673.10
453.2238, 18635.89
453.7059, 18642.43
454.1880, 18683.08
454.6701, 18712.93
455.1522, 18688.83
455.6343, 18626.48
456.1165, 18603.30
456.5986, 18630.44
457.0807, 18670.03
457.5628, 18732.20
458.0449, 18787.48
458.5270, 18797.16
459.0092, 18748.03
459.4913, 18700.16
459.9734, 18700.49
460.4555, 18729.07
460.9376, 18742.08
461.4197, 18732.41
461.9019, 18713.66
462.3840, 18694.30
462.8661, 18675.12
463.3482, 18665.00
463.8303, 18664.13
464.3124, 18671.61
464.7946, 18691.69
465.2767, 18718.66
465.7588, 18749.53
466.2409, 18782.25
466.7230, 18804.76
467.2051, 18795.63
467.6873, 18744.47
468.1694, 18712.30
468.6515, 18710.59
469.1336, 18717.45
469.6157, 18744.12
470.0978, 18770.63
470.5800, 18753.94
471.0621, 18657.63
471.5442, 18553.62
472.0263, 18553.82
472.5084, 18651.70
472.9905, 18721.98
473.4727, 18729.30
473.9548, 18702.48
474.4369, 18667.34
474.9190, 18624.18
475.4011, 18586.41
475.8832, 18550.03
476.3654, 18525.07
476.8475, 18526.28
477.3296, 18546.35
477.8117, 18563.42
478.2938, 18566.83
478.7759, 18558.97
479.2581, 18542.97
479.7402, 18493.21
480.2223, 18483.37
480.7044, 18570.81
481.1865, 18645.34
481.6686, 18621.96
482.1508, 18521.67
482.6329, 18431.83
483.1150, 18412.86
483.5971, 18441.45
484.0792, 18458.46
484.5613, 18460.90
485.0435, 18468.98
485.5256, 18498.71
486.0077, 18530.05
486.4898, 18535.11
486.9719, 18510.31
487.4540, 18489.43
487.9362, 18483.33
488.4183, 18488.59
488.9004, 18510.66
489.3825, 18544.85
489.8646, 18562.48
490.3467, 18543.11
490.8289, 18495.30
491.3110, 18455.16
491.7931, 18420.77
492.2752, 18397.63
492.7573, 18378.62
493.2394, 18375.76
493.7216, 18418.60
494.2037, 18495.63
494.6858, 18546.24
495.1679, 18508.77
495.6500, 18406.55
496.1321, 18344.60
496.6143, 18332.94
497.0964, 18331.79
497.5785, 18330.10
498.0606, 18328.50
498.5427, 18325.55
499.0248, 18319.08
499.5070, 18322.96
499.9891, 18367.01
500.4712, 18414.77
500.9533, 18403.01
501.4355, 18330.30
501.9176, 18257.03
502.3997, 18224.38
502.8818, 18228.23
503.3639, 18245.78
503.8460, 18315.19
504.3282, 18349.22
504.8103, 18297.43
505.2924, 18236.18
505.7745, 18240.80
506.2566, 18313.54
506.7387, 18392.82
507.2209, 18426.22
507.7030, 18420.89
508.1851, 18410.78
508.6672, 18390.80
509.1493, 18381.71
509.6314, 18406.15
510.1136, 18438.99
510.5957, 18443.26
511.0778, 18408.54
511.5599, 18383.85
512.0420, 18404.90
512.5241, 18442.20
513.0062, 18444.28
513.4883, 18318.66
513.9705, 18385.88
514.4526, 18421.80
514.9347, 18428.09
515.4168, 18316.06
515.8989, 18356.82
516.3810, 18336.35
516.8632, 18313.37
517.3453, 18375.64
517.8274, 18280.82
518.3095, 18341.74
518.7916, 18340.49
519.2737, 18357.99
519.7559, 18311.20
520.2380, 18295.15
520.7201, 18318.07
521.2022, 18330.78
521.6843, 18303.67
522.1664, 18262.24
522.6486, 18247.92
523.1307, 18266.75
523.6128, 18279.89
524.0949, 18271.86
524.5770, 18254.28
525.0591, 18233.92
525.5413, 18214.03
526.0234, 18202.68
526.5055, 18205.05
526.9876, 18219.15
527.4697, 18239.92
527.9518, 18280.08
528.4340, 18303.06
528.9161, 18306.75
529.3982, 18295.22
529.8803, 18254.89
530.3624, 18198.59
530.8445, 18170.41
531.3267, 18218.08
531.8088, 18289.70
532.2909, 18274.77
532.7730, 18175.21
533.2551, 18119.94
533.7372, 18166.70
534.2194, 18253.57
534.7015, 18290.41
535.1836, 18270.69
535.6657, 18258.62
536.1478, 18263.66
536.6299, 18274.86
537.1121, 18286.84
537.5942, 18299.21
538.0763, 18314.42
538.5584, 18333.73
539.0405, 18350.18
539.5226, 18347.99
540.0048, 18319.88
540.4869, 18304.73
540.9690, 18316.26
541.4511, 18327.55
541.9332, 18322.13
542.4153, 18306.88
542.8975, 18295.62
543.3796, 18287.26
543.8617, 18294.33
544.3438, 18348.91
544.8259, 18427.71
545.3080, 18460.83
545.7902, 18430.51
546.2723, 18375.01
546.7544, 18328.40
547.2365, 18290.29
547.7186, 18269.50
548.2007, 18283.46
548.6829, 18291.79
549.1650, 18274.94
549.6471, 18252.65
550.1292, 18248.65
550.6113, 18267.56
551.0934, 18293.83
551.5756, 18319.19
552.0577, 18340.47
552.5398, 18335.62
553.0219, 18297.69
553.5040, 18256.22
553.9861, 18209.04
554.4683, 18176.57
554.9504, 18200.84
555.4325, 18309.68
555.9146, 18389.86
556.3967, 18381.89
556.8788, 18346.27
557.3610, 18344.49
557.8431, 18374.41
558.3252, 18396.43
558.8073, 18384.09
559.2894, 18351.22
559.7715, 18337.05
560.2537, 18336.35
560.7358, 18367.15
561.2179, 18480.84
561.7000, 18584.67
562.1821, 18617.72
562.6642, 18594.62
563.1464, 18574.58
563.6285, 18580.44
564.1106, 18603.56
564.5927, 18640.06
565.0748, 18686.81
565.5569, 18732.94
566.0391, 18776.24
566.5212, 18812.86
567.0033, 18838.94
567.4854, 18854.89
567.9675, 18856.71
568.4496, 18830.39
568.9318, 18808.37
569.4139, 18801.41
569.8960, 18803.77
570.3781, 18820.83
570.8602, 18850.06
571.3423, 18849.90
571.8245, 18748.44
572.3066, 18574.77
572.7887, 18479.21
573.2708, 18482.52
573.7529, 18491.81
574.2350, 18460.55
574.7172, 18403.21
575.1993, 18352.83
575.6814, 18313.36
576.1635, 18269.54
576.6456, 18195.13
577.1277, 18132.58
577.6099, 18128.66
578.0920, 18171.03
578.5741, 18210.78
579.0562, 18219.36
579.5383, 18206.30
580.0204, 18193.33
580.5026, 18181.35
580.9847, 18163.34
581.4668, 18124.32
581.9489, 18095.83
582.4310, 18104.17
582.9132, 18138.98
583.3953, 18168.53
583.8774, 18179.67
584.3596, 18189.33
584.8417, 18221.36
585.3238, 18257.06
585.8059, 18254.43
586.2880, 18205.89
586.7701, 18146.62
587.2523, 18109.65
587.7344, 18094.38
588.2165, 18089.31
588.6986, 18107.83
589.1807, 18116.53
589.6628, 18103.08
590.1450, 18082.71
590.6271, 18063.68
591.1092, 18048.91
591.5913, 18047.24
592.0734, 18078.99
592.5555, 18119.02
593.0377, 18126.14
593.5198, 18104.02
594.0019, 18082.28
594.4840, 18071.79
594.9661, 18070.19
595.4482, 18075.91
595.9304, 18095.09
596.4125, 18097.71
596.8946, 18070.38
597.3767, 18043.13
597.8588, 18025.15
598.3409, 18015.09
598.8231, 18010.75
599.3052, 18011.42
599.7873, 18016.06
600.2694, 18028.40
600.7515, 18044.38
601.2336, 18047.93
601.7158, 18037.47
602.1979, 18017.85
602.6800, 17985.63
603.1621, 17950.22
603.6442, 17937.83
604.1263, 17959.56
604.6085, 17978.36
605.0906, 17983.93
605.5727, 17991.16
606.0548, 18013.34
606.5369, 18045.57
607.0190, 18075.69
607.5012, 18097.90
607.9833, 18110.81
608.4654, 18108.71
608.9475, 18091.64
609.4296, 18078.82
609.9117, 18074.78
610.3939, 18070.14
610.8760, 18059.70
611.3581, 18042.70
611.8402, 18017.66
612.3223, 17974.29
612.8044, 17937.68
613.2866, 17920.72
613.7687, 17910.18
614.2508, 17887.08
614.7329, 17854.90
615.2150, 17838.27
615.6971, 17858.03
616.1793, 17898.09
616.6614, 17911.28
617.1435, 17892.25
617.6256, 17879.43
618.1077, 17885.67
618.5898, 17893.21
619.0720, 17880.09
619.5541, 17852.92
620.0362, 17842.35
620.5183, 17876.56
621.0004, 17902.21
621.4825, 17881.14
621.9647, 17841.11
622.4468, 17819.94
622.9289, 17824.51
623.4110, 17841.25
623.8931, 17860.84
624.3752, 17880.89
624.8574, 17889.78
625.3395, 17887.46
625.8216, 17873.14
626.3037, 17831.52
626.7858, 17791.77
627.2679, 17785.32
627.7501, 17808.62
628.2322, 17823.64
628.7143, 17811.19
629.1964, 17797.21
629.6785, 17797.94
630.1606, 17809.35
630.6428, 17830.66
631.1249, 17858.95
631.6070, 17872.21
632.0891, 17841.76
632.5712, 17772.95
633.0533, 17731.54
633.5355, 17730.07
634.0176, 17725.47
634.4997, 17687.62
634.9818, 17654.13
635.4639, 17669.44
635.9460, 17732.44
636.4282, 17778.24
636.9103, 17784.08
637.3924, 17766.77
637.8745, 17714.06
638.3566, 17652.35
638.8387, 17644.77
639.3209, 17707.31
639.8030, 17780.75
640.2851, 17793.73
640.7672, 17748.12
641.2493, 17710.21
641.7314, 17681.80
642.2136, 17656.25
642.6957, 17621.63
643.1778, 17595.82
643.6599, 17608.41
644.1420, 17661.07
644.6241, 17684.97
645.1063, 17633.55
645.5884, 17566.93
646.0705, 17525.52
646.5526, 17506.35
647.0347, 17503.51
647.5168, 17513.98
647.9990, 17525.16
648.4811, 17517.79
648.9632, 17492.91
649.4453, 17501.01
649.9274, 17568.05
650.4095, 17607.91
650.8917, 17561.57
651.3738, 17492.65
651.8559, 17469.46
652.3380, 17495.06
652.8201, 17535.27
653.3022, 17609.46
653.7844, 17667.08
654.2665, 17652.48
654.7486, 17597.58
655.2307, 17569.12
655.7128, 17586.93
656.1949, 17616.81
656.6771, 17616.41
657.1592, 17589.09
657.6413, 17587.99
658.1234, 17626.26
658.6055, 17650.52
659.0876, 17623.67
659.5698, 17588.93
660.0519, 17606.19
660.5340, 17677.81
661.0161, 17735.52
661.4982, 17765.56
661.9803, 17777.98
662.4625, 17767.78
662.9446, 17747.85
663.4267, 17735.91
663.9088, 17737.49
664.3909, 17751.06
664.8730, 17776.23
665.3552, 17812.09
665.8373, 17863.85
666.3194, 17943.04
666.8015, 17970.88
667.2836, 17892.48
667.7657, 17784.84
668.2479, 17750.67
668.7300, 17791.62
669.2121, 17815.14
669.6942, 17801.30
670.1763, 17782.85
670.6584, 17755.01
671.1406, 17739.88
671.6227, 17783.99
672.1048, 17883.40
672.5869, 17961.31
673.0690, 17952.08
673.5511, 17873.90
674.0333, 17755.12
674.5154, 17594.48
674.9975, 17483.28
675.4796, 17460.77
