##NAMES=Millerite
##RRUFFID=R070323
##IDEAL CHEMISTRY=NiS
##LOCALITY=Keokuk area, Lee County, Iowa, USA
##OWNER=RRUFF
##SOURCE=James Shigley
##DESCRIPTION=Bronze colored metallic fibers associated with chalcopyrite and quartz
##STATUS=The identification of this mineral is confirmed by single-crystal X-ray diffraction and chemical analysis.
##URL=rruff.info/R070323
##MEASURED CHEMISTRY=(Ni_0.97_Fe_0.02_Co_0.01_)_Î£=1_S_1.00_
155.9293, 1095.494
156.4115, 1093.717
156.8936, 1095.898
157.3757, 1101.202
157.8578, 1106.726
158.3399, 1112.618
158.8221, 1117.888
159.3042, 1121.945
159.7863, 1123.569
160.2684, 1125.009
160.7505, 1127.338
161.2326, 1130.374
161.7148, 1132.534
162.1969, 1133.470
162.6790, 1133.089
163.1611, 1131.310
163.6432, 1110.227
164.1253, 1135.314
164.6075, 1150.313
165.0896, 1155.768
165.5717, 1123.090
166.0538, 1139.652
166.5359, 1136.481
167.0180, 1132.501
167.5002, 1155.994
167.9823, 1128.862
168.4644, 1152.142
168.9465, 1146.635
169.4286, 1143.591
169.9107, 1157.620
170.3929, 1180.788
170.8750, 1196.734
171.3571, 1190.387
171.8392, 1175.305
172.3213, 1165.895
172.8034, 1164.772
173.2856, 1166.939
173.7677, 1168.763
174.2498, 1170.310
174.7319, 1171.772
175.2140, 1171.798
175.6961, 1172.137
176.1783, 1176.902
176.6604, 1190.084
177.1425, 1201.952
177.6246, 1195.000
178.1067, 1172.472
178.5888, 1155.010
179.0710, 1164.984
179.5531, 1191.182
180.0352, 1208.321
180.5173, 1207.456
180.9994, 1197.541
181.4815, 1191.477
181.9637, 1189.194
182.4458, 1190.145
182.9279, 1196.844
183.4100, 1207.197
183.8921, 1212.793
184.3742, 1206.579
184.8564, 1196.118
185.3385, 1203.478
185.8206, 1230.262
186.3027, 1256.139
186.7848, 1256.659
187.2669, 1235.114
187.7491, 1216.696
188.2312, 1210.315
188.7133, 1213.882
189.1954, 1222.044
189.6775, 1236.121
190.1596, 1248.603
190.6418, 1245.917
191.1239, 1228.615
191.6060, 1218.358
192.0881, 1228.810
192.5702, 1256.897
193.0524, 1275.547
193.5345, 1283.828
194.0166, 1285.063
194.4987, 1282.177
194.9808, 1274.816
195.4629, 1268.667
195.9451, 1267.509
196.4272, 1271.188
196.9093, 1271.823
197.3914, 1267.893
197.8735, 1262.924
198.3556, 1265.317
198.8378, 1276.579
199.3199, 1285.609
199.8020, 1284.330
200.2841, 1271.754
200.7662, 1263.708
201.2483, 1261.117
201.7305, 1263.524
202.2126, 1271.568
202.6947, 1287.171
203.1768, 1301.248
203.6589, 1308.182
204.1410, 1307.263
204.6232, 1303.413
205.1053, 1295.902
205.5874, 1286.236
206.0695, 1278.793
206.5516, 1272.920
207.0337, 1270.989
207.5159, 1276.540
207.9980, 1291.964
208.4801, 1303.021
208.9622, 1307.740
209.4443, 1306.765
209.9264, 1302.209
210.4086, 1291.957
210.8907, 1282.347
211.3728, 1278.938
211.8549, 1283.646
212.3370, 1288.185
212.8191, 1292.531
213.3013, 1296.094
213.7834, 1292.541
214.2655, 1277.016
214.7476, 1262.165
215.2297, 1260.574
215.7118, 1278.224
216.1940, 1292.252
216.6761, 1296.891
217.1582, 1292.809
217.6403, 1295.360
218.1224, 1308.203
218.6045, 1322.745
219.0867, 1329.932
219.5688, 1325.628
220.0509, 1323.794
220.5330, 1328.635
221.0151, 1340.459
221.4972, 1346.711
221.9794, 1344.262
222.4615, 1339.800
222.9436, 1340.830
223.4257, 1350.241
223.9078, 1359.317
224.3899, 1366.109
224.8721, 1370.604
225.3542, 1374.197
225.8363, 1377.097
226.3184, 1378.931
226.8005, 1379.162
227.2827, 1377.143
227.7648, 1374.713
228.2469, 1372.121
228.7290, 1369.250
229.2111, 1366.801
229.6932, 1362.911
230.1754, 1360.974
230.6575, 1366.354
231.1396, 1384.163
231.6217, 1400.130
232.1038, 1409.464
232.5859, 1410.266
233.0681, 1414.788
233.5502, 1424.481
234.0323, 1436.809
234.5144, 1448.279
234.9965, 1458.237
235.4786, 1468.309
235.9608, 1479.071
236.4429, 1490.553
236.9250, 1502.242
237.4071, 1515.764
237.8892, 1528.384
238.3713, 1534.683
238.8535, 1528.342
239.3356, 1526.290
239.8177, 1534.742
240.2998, 1556.747
240.7819, 1577.643
241.2640, 1596.866
241.7462, 1615.644
242.2283, 1636.680
242.7104, 1662.668
243.1925, 1686.535
243.6746, 1706.637
244.1567, 1724.114
244.6389, 1733.543
245.1210, 1732.146
245.6031, 1724.390
246.0852, 1718.967
246.5673, 1721.039
247.0494, 1716.553
247.5316, 1698.737
248.0137, 1661.841
248.4958, 1631.039
248.9779, 1608.268
249.4600, 1590.676
249.9421, 1573.159
250.4243, 1553.495
250.9064, 1537.672
251.3885, 1528.689
251.8706, 1529.099
252.3527, 1527.692
252.8348, 1523.563
253.3170, 1518.190
253.7991, 1514.883
254.2812, 1515.835
254.7633, 1514.696
255.2454, 1508.167
255.7275, 1493.893
256.2097, 1483.217
256.6918, 1476.865
257.1739, 1473.727
257.6560, 1471.792
258.1381, 1471.061
258.6202, 1471.566
259.1024, 1474.027
259.5845, 1479.686
260.0666, 1481.661
260.5487, 1478.112
261.0308, 1472.271
261.5129, 1470.233
261.9951, 1473.464
262.4772, 1477.025
262.9593, 1478.379
263.4414, 1476.326
263.9235, 1478.309
264.4056, 1486.124
264.8878, 1496.335
265.3699, 1502.627
265.8520, 1503.521
266.3341, 1504.888
266.8162, 1509.795
267.2983, 1519.268
267.7805, 1525.183
268.2626, 1526.555
268.7447, 1525.392
269.2268, 1524.927
269.7089, 1525.192
270.1910, 1526.032
270.6732, 1527.216
271.1553, 1528.626
271.6374, 1531.506
272.1195, 1535.803
272.6016, 1541.663
273.0837, 1549.988
273.5659, 1561.613
274.0480, 1571.615
274.5301, 1577.326
275.0122, 1578.495
275.4943, 1581.524
275.9764, 1586.120
276.4586, 1593.123
276.9407, 1606.207
277.4228, 1626.487
277.9049, 1641.805
278.3870, 1644.252
278.8691, 1634.686
279.3513, 1634.132
279.8334, 1644.721
280.3155, 1658.846
280.7976, 1665.223
281.2798, 1663.383
281.7619, 1663.523
282.2440, 1670.355
282.7261, 1682.915
283.2082, 1694.449
283.6903, 1705.246
284.1725, 1713.944
284.6546, 1719.058
285.1367, 1720.558
285.6188, 1718.488
286.1009, 1709.822
286.5830, 1697.297
287.0652, 1693.996
287.5473, 1700.991
288.0294, 1710.959
288.5115, 1714.354
288.9936, 1712.368
289.4757, 1714.829
289.9579, 1728.027
290.4400, 1747.294
290.9221, 1760.363
291.4042, 1767.065
291.8863, 1769.660
292.3684, 1766.416
292.8506, 1759.690
293.3327, 1760.115
293.8148, 1776.118
294.2969, 1798.406
294.7790, 1807.189
295.2611, 1802.460
295.7433, 1796.572
296.2254, 1801.243
296.7075, 1813.454
297.1896, 1824.668
297.6717, 1833.382
298.1538, 1839.278
298.6360, 1841.262
299.1181, 1839.508
299.6002, 1835.888
300.0823, 1830.719
300.5644, 1824.800
301.0465, 1819.879
301.5287, 1817.773
302.0108, 1815.147
302.4929, 1807.857
302.9750, 1796.384
303.4571, 1783.921
303.9392, 1774.746
304.4214, 1765.178
304.9035, 1748.744
305.3856, 1719.365
305.8677, 1690.681
306.3498, 1676.394
306.8319, 1673.684
307.3141, 1672.357
307.7962, 1667.471
308.2783, 1660.640
308.7604, 1653.510
309.2425, 1647.075
309.7246, 1639.221
310.2068, 1627.279
310.6889, 1612.662
311.1710, 1598.913
311.6531, 1587.734
312.1352, 1578.064
312.6173, 1568.752
313.0995, 1558.738
313.5816, 1551.961
314.0637, 1553.699
314.5458, 1559.740
315.0279, 1562.166
315.5100, 1554.930
315.9922, 1545.555
316.4743, 1536.398
316.9564, 1526.056
317.4385, 1522.942
317.9206, 1537.766
318.4027, 1559.684
318.8849, 1573.536
319.3670, 1571.242
319.8491, 1563.725
320.3312, 1552.026
320.8133, 1534.166
321.2954, 1524.949
321.7776, 1535.852
322.2597, 1553.402
322.7418, 1563.240
323.2239, 1550.297
323.7060, 1542.438
324.1881, 1549.462
324.6703, 1573.321
325.1524, 1590.327
325.6345, 1597.361
326.1166, 1597.526
326.5987, 1593.262
327.0808, 1575.635
327.5630, 1564.178
328.0451, 1563.533
328.5272, 1573.098
329.0093, 1579.971
329.4914, 1584.470
329.9735, 1585.869
330.4557, 1583.066
330.9378, 1571.068
331.4199, 1563.479
331.9020, 1561.089
332.3841, 1563.836
332.8662, 1572.453
333.3484, 1591.405
333.8305, 1609.328
334.3126, 1619.514
334.7947, 1618.964
335.2768, 1619.352
335.7589, 1620.440
336.2411, 1623.230
336.7232, 1632.211
337.2053, 1650.873
337.6874, 1665.315
338.1695, 1664.069
338.6516, 1643.241
339.1338, 1644.224
339.6159, 1675.129
340.0980, 1716.216
340.5801, 1730.494
341.0622, 1715.020
341.5443, 1701.258
342.0265, 1701.929
342.5086, 1715.908
342.9907, 1735.978
343.4728, 1764.353
343.9549, 1789.443
344.4370, 1790.355
344.9192, 1770.181
345.4013, 1758.974
345.8834, 1772.128
346.3655, 1800.557
346.8476, 1821.062
347.3297, 1833.496
347.8119, 1840.764
348.2940, 1843.320
348.7761, 1842.462
349.2582, 1842.171
349.7403, 1844.484
350.2225, 1846.957
350.7046, 1845.136
351.1867, 1839.578
351.6688, 1834.701
352.1509, 1836.448
352.6331, 1840.199
353.1152, 1839.060
353.5973, 1831.222
354.0794, 1818.663
354.5615, 1797.592
355.0436, 1772.057
355.5258, 1754.377
356.0079, 1758.036
356.4900, 1768.788
356.9721, 1773.888
357.4542, 1769.828
357.9363, 1765.378
358.4185, 1765.786
358.9006, 1769.093
359.3827, 1771.914
359.8648, 1768.514
360.3469, 1767.785
360.8290, 1777.433
361.3112, 1800.456
361.7933, 1816.458
362.2754, 1809.195
362.7575, 1795.354
363.2396, 1793.062
363.7217, 1817.689
364.2039, 1843.007
364.6860, 1864.355
365.1681, 1881.588
365.6502, 1891.355
366.1323, 1885.343
366.6144, 1876.661
367.0966, 1874.372
367.5787, 1886.525
368.0608, 1895.549
368.5429, 1898.680
369.0250, 1897.301
369.5071, 1898.634
369.9893, 1905.646
370.4714, 1911.911
370.9535, 1914.068
371.4356, 1909.863
371.9177, 1906.893
372.3998, 1906.797
372.8820, 1907.181
373.3641, 1902.807
373.8462, 1893.221
374.3283, 1880.112
374.8104, 1863.623
375.2925, 1843.302
375.7747, 1822.884
376.2568, 1801.708
376.7389, 1781.396
377.2210, 1765.128
377.7031, 1753.240
378.1852, 1740.272
378.6674, 1721.942
379.1495, 1701.292
379.6316, 1691.752
380.1137, 1694.105
380.5958, 1701.211
381.0779, 1710.477
381.5601, 1720.215
382.0422, 1720.741
382.5243, 1706.901
383.0064, 1686.761
383.4885, 1673.232
383.9706, 1665.616
384.4528, 1659.711
384.9349, 1652.801
385.4170, 1645.626
385.8991, 1638.789
386.3812, 1631.728
386.8633, 1626.933
387.3455, 1630.820
387.8276, 1638.941
388.3097, 1641.130
388.7918, 1621.269
389.2739, 1600.425
389.7560, 1598.693
390.2382, 1619.292
390.7203, 1638.541
391.2024, 1642.125
391.6845, 1637.840
392.1666, 1634.691
392.6487, 1638.411
393.1309, 1641.194
393.6130, 1636.066
394.0951, 1624.405
394.5772, 1622.440
395.0593, 1650.096
395.5414, 1678.764
396.0236, 1690.246
396.5057, 1661.045
396.9878, 1639.480
397.4699, 1632.422
397.9520, 1636.581
398.4341, 1641.823
398.9163, 1654.166
399.3984, 1661.269
399.8805, 1656.811
400.3626, 1633.595
400.8447, 1620.785
401.3268, 1623.851
401.8090, 1633.298
402.2911, 1634.839
402.7732, 1624.110
403.2553, 1617.105
403.7374, 1620.058
404.2195, 1632.080
404.7017, 1635.283
405.1838, 1626.436
405.6659, 1617.513
406.1480, 1622.769
406.6301, 1642.564
407.1122, 1652.755
407.5944, 1645.953
408.0765, 1630.204
408.5586, 1626.977
409.0407, 1635.966
409.5228, 1641.840
410.0049, 1626.598
410.4871, 1600.221
410.9692, 1593.478
411.4513, 1612.831
411.9334, 1638.328
412.4155, 1647.047
412.8976, 1643.476
413.3798, 1640.358
413.8619, 1646.371
414.3440, 1654.143
414.8261, 1654.806
415.3082, 1648.213
415.7903, 1642.310
416.2725, 1644.843
416.7546, 1649.959
417.2367, 1650.855
417.7188, 1638.413
418.2009, 1629.012
418.6830, 1632.025
419.1652, 1644.813
419.6473, 1657.573
420.1294, 1671.166
420.6115, 1680.914
421.0937, 1683.924
421.5758, 1676.959
422.0579, 1669.225
422.5400, 1658.722
423.0221, 1648.793
423.5042, 1644.803
423.9864, 1651.639
424.4685, 1659.145
424.9506, 1665.544
425.4327, 1670.755
425.9148, 1674.784
426.3969, 1677.463
426.8791, 1679.154
427.3612, 1680.513
427.8433, 1682.483
428.3254, 1680.803
428.8075, 1673.384
429.2896, 1662.471
429.7718, 1655.155
430.2539, 1651.199
430.7360, 1651.732
431.2181, 1660.526
431.7002, 1676.626
432.1823, 1685.226
432.6645, 1684.518
433.1466, 1679.901
433.6287, 1680.290
434.1108, 1684.042
434.5929, 1682.500
435.0750, 1664.607
435.5572, 1642.450
436.0393, 1640.743
436.5214, 1658.576
437.0035, 1676.684
437.4856, 1676.310
437.9677, 1667.808
438.4499, 1666.178
438.9320, 1679.026
439.4141, 1693.149
439.8962, 1700.553
440.3783, 1702.005
440.8604, 1699.690
441.3426, 1687.728
441.8247, 1677.467
442.3068, 1676.957
442.7889, 1689.580
443.2710, 1699.790
443.7531, 1702.782
444.2353, 1701.495
444.7174, 1699.228
445.1995, 1694.415
445.6816, 1690.870
446.1637, 1688.465
446.6458, 1687.415
447.1280, 1690.637
447.6101, 1703.375
448.0922, 1714.621
448.5743, 1717.863
449.0564, 1710.030
449.5385, 1702.095
450.0207, 1693.634
450.5028, 1685.868
450.9849, 1681.318
451.4670, 1680.340
451.9491, 1680.822
452.4312, 1680.370
452.9134, 1680.104
453.3955, 1691.445
453.8776, 1715.983
454.3597, 1740.444
454.8418, 1752.056
455.3239, 1752.451
455.8061, 1746.787
456.2882, 1732.966
456.7703, 1718.646
457.2524, 1716.835
457.7345, 1724.837
458.2166, 1731.631
458.6988, 1727.603
459.1809, 1720.438
459.6630, 1719.812
460.1451, 1727.833
460.6272, 1733.930
461.1093, 1728.672
461.5915, 1718.427
462.0736, 1711.203
462.5557, 1710.802
463.0378, 1712.725
463.5199, 1715.893
464.0020, 1720.173
464.4842, 1724.981
464.9663, 1733.392
465.4484, 1739.886
465.9305, 1741.037
466.4126, 1729.887
466.8947, 1725.846
467.3769, 1735.641
467.8590, 1749.605
468.3411, 1750.411
468.8232, 1728.254
469.3053, 1712.730
469.7874, 1713.911
470.2696, 1730.610
470.7517, 1740.431
471.2338, 1741.984
471.7159, 1740.912
472.1980, 1743.092
472.6801, 1748.330
473.1623, 1747.670
473.6444, 1738.290
474.1265, 1725.563
474.6086, 1717.254
475.0907, 1713.365
475.5728, 1713.897
476.0550, 1722.863
476.5371, 1734.886
477.0192, 1739.642
477.5013, 1736.704
477.9834, 1734.922
478.4655, 1743.107
478.9477, 1755.961
479.4298, 1766.437
479.9119, 1771.642
480.3940, 1775.169
480.8761, 1776.349
481.3582, 1776.939
481.8404, 1782.032
482.3225, 1801.003
482.8046, 1818.485
483.2867, 1827.515
483.7688, 1826.096
484.2509, 1821.068
484.7331, 1806.906
485.2152, 1792.563
485.6973, 1786.504
486.1794, 1793.945
486.6615, 1800.893
487.1436, 1805.877
487.6258, 1808.929
488.1079, 1809.920
488.5900, 1808.285
489.0721, 1806.117
489.5542, 1804.507
490.0363, 1803.450
490.5185, 1802.539
491.0006, 1801.920
491.4827, 1800.943
491.9648, 1798.000
492.4470, 1793.617
492.9291, 1790.717
493.4112, 1790.235
493.8933, 1791.888
494.3754, 1795.987
494.8575, 1802.249
495.3397, 1808.633
495.8218, 1815.689
496.3039, 1821.339
496.7860, 1822.965
497.2681, 1819.611
497.7502, 1814.717
498.2324, 1808.336
498.7145, 1802.006
499.1966, 1797.695
499.6787, 1799.053
500.1608, 1799.483
500.6429, 1796.231
501.1251, 1789.556
501.6072, 1784.233
502.0893, 1781.121
502.5714, 1778.896
503.0535, 1777.123
503.5356, 1776.577
504.0178, 1774.106
504.4999, 1767.065
504.9820, 1760.567
505.4641, 1763.594
505.9462, 1778.126
506.4283, 1792.070
506.9105, 1803.161
507.3926, 1810.667
507.8747, 1808.976
508.3568, 1797.484
508.8389, 1787.895
509.3210, 1791.652
509.8032, 1803.933
510.2853, 1811.667
510.7674, 1813.092
511.2495, 1810.500
511.7316, 1803.580
512.2137, 1794.486
512.6959, 1787.704
513.1780, 1789.516
513.6601, 1790.513
514.1422, 1782.163
514.6243, 1766.106
515.1064, 1753.828
515.5886, 1750.204
516.0707, 1751.478
516.5528, 1755.756
517.0349, 1764.256
517.5170, 1772.745
517.9991, 1780.328
518.4813, 1787.830
518.9634, 1796.734
519.4455, 1810.903
519.9276, 1819.525
520.4097, 1818.115
520.8918, 1808.787
521.3740, 1806.697
521.8561, 1814.513
522.3382, 1820.727
522.8203, 1815.562
523.3024, 1799.992
523.7845, 1789.588
524.2667, 1784.990
524.7488, 1786.364
525.2309, 1802.120
525.7130, 1825.656
526.1951, 1832.687
526.6772, 1801.388
527.1594, 1762.412
527.6415, 1753.460
528.1236, 1769.430
528.6057, 1787.882
529.0878, 1800.582
529.5699, 1807.784
530.0521, 1808.916
530.5342, 1803.201
531.0163, 1794.832
531.4984, 1778.741
531.9805, 1763.342
532.4626, 1757.480
532.9448, 1769.048
533.4269, 1782.476
533.9090, 1798.882
534.3911, 1816.201
534.8732, 1825.373
535.3553, 1823.530
535.8375, 1818.915
536.3196, 1813.223
536.8017, 1805.929
537.2838, 1809.605
537.7659, 1827.792
538.2480, 1845.369
538.7302, 1840.954
539.2123, 1818.597
539.6944, 1808.185
540.1765, 1820.770
540.6586, 1839.661
541.1407, 1840.758
541.6229, 1827.890
542.1050, 1814.926
542.5871, 1805.731
543.0692, 1802.098
543.5513, 1808.477
544.0334, 1824.903
544.5156, 1839.505
544.9977, 1844.751
545.4798, 1847.024
545.9619, 1851.624
546.4440, 1866.024
546.9261, 1873.144
547.4083, 1863.124
547.8904, 1845.832
548.3725, 1839.712
548.8546, 1853.363
549.3367, 1863.899
549.8188, 1864.811
550.3010, 1857.049
550.7831, 1851.170
551.2652, 1846.823
551.7473, 1845.540
552.2294, 1850.392
552.7115, 1860.490
553.1937, 1866.383
553.6758, 1866.879
554.1579, 1865.017
554.6400, 1865.168
555.1221, 1866.069
555.6042, 1864.000
556.0864, 1855.457
556.5685, 1845.548
557.0506, 1835.492
557.5327, 1827.237
558.0148, 1828.350
558.4969, 1858.860
558.9791, 1887.596
559.4612, 1892.201
559.9433, 1864.898
560.4254, 1842.315
560.9075, 1829.993
561.3896, 1826.032
561.8718, 1828.558
562.3539, 1841.979
562.8360, 1854.897
563.3181, 1868.707
563.8002, 1880.350
564.2823, 1879.609
564.7645, 1862.475
565.2466, 1851.441
565.7287, 1860.020
566.2108, 1882.366
566.6929, 1887.124
567.1750, 1873.580
567.6572, 1857.742
568.1393, 1853.690
568.6214, 1857.015
569.1035, 1859.408
569.5856, 1859.668
570.0677, 1858.552
570.5499, 1854.052
571.0320, 1849.137
571.5141, 1848.454
571.9962, 1857.082
572.4783, 1866.898
572.9604, 1877.189
573.4426, 1886.747
573.9247, 1889.924
574.4068, 1877.627
574.8889, 1866.197
575.3710, 1862.324
575.8531, 1867.699
576.3353, 1872.152
576.8174, 1876.166
577.2995, 1878.477
577.7816, 1877.533
578.2637, 1873.080
578.7458, 1867.451
579.2280, 1859.876
579.7101, 1853.297
580.1922, 1853.188
580.6743, 1858.974
581.1564, 1867.391
581.6385, 1879.887
582.1207, 1892.595
582.6028, 1900.760
583.0849, 1904.410
583.5670, 1904.367
584.0491, 1897.601
584.5313, 1889.556
585.0134, 1884.442
585.4955, 1883.384
585.9776, 1883.685
586.4597, 1885.524
586.9418, 1888.042
587.4240, 1890.175
587.9061, 1890.304
588.3882, 1892.657
588.8703, 1899.028
589.3524, 1907.546
589.8345, 1911.877
590.3167, 1910.434
590.7988, 1911.153
591.2809, 1920.271
591.7630, 1934.791
592.2451, 1935.892
592.7272, 1922.988
593.2094, 1910.942
593.6915, 1916.521
594.1736, 1930.861
594.6557, 1935.405
595.1378, 1924.652
595.6199, 1914.472
596.1021, 1919.952
596.5842, 1932.664
597.0663, 1940.621
597.5485, 1934.959
598.0306, 1928.933
598.5127, 1926.666
598.9948, 1927.495
599.4769, 1928.400
599.9590, 1932.056
600.4412, 1932.189
600.9233, 1924.531
601.4054, 1907.944
601.8875, 1901.929
602.3696, 1909.290
602.8517, 1920.487
603.3339, 1927.690
603.8160, 1931.234
604.2981, 1934.922
604.7802, 1939.541
605.2623, 1942.948
605.7444, 1940.083
606.2266, 1933.572
606.7087, 1930.735
607.1908, 1938.298
607.6729, 1946.294
608.1550, 1945.044
608.6371, 1937.363
609.1193, 1932.359
609.6014, 1936.414
610.0835, 1941.695
610.5656, 1944.697
611.0477, 1945.018
611.5298, 1944.170
612.0120, 1939.640
612.4941, 1936.534
612.9762, 1939.996
613.4583, 1954.757
613.9404, 1956.845
614.4225, 1939.961
614.9047, 1919.613
615.3868, 1920.401
615.8689, 1940.701
616.3510, 1959.463
616.8331, 1972.084
617.3152, 1978.005
617.7974, 1971.429
618.2795, 1956.033
618.7616, 1945.738
619.2437, 1955.239
619.7258, 1967.545
620.2079, 1968.143
620.6901, 1956.401
621.1722, 1947.866
621.6543, 1950.630
622.1364, 1956.469
622.6185, 1959.620
623.1006, 1955.866
623.5828, 1958.616
624.0649, 1972.715
624.5470, 1988.874
625.0291, 1994.695
625.5112, 1987.672
625.9933, 1984.324
626.4755, 1989.260
626.9576, 1997.270
627.4397, 1996.339
627.9218, 1987.617
628.4039, 1979.871
628.8860, 1977.366
629.3682, 1978.350
629.8503, 1980.935
630.3324, 1985.033
630.8145, 1990.134
631.2966, 2000.961
631.7787, 2009.130
632.2609, 2006.680
632.7430, 1988.652
633.2251, 1975.719
633.7072, 1974.472
634.1893, 1978.506
634.6714, 1983.464
635.1536, 1993.814
635.6357, 1993.953
636.1178, 1977.984
636.5999, 1956.339
637.0820, 1949.331
637.5641, 1957.581
638.0463, 1966.578
638.5284, 1971.538
639.0105, 1974.485
639.4926, 1981.061
639.9747, 1990.207
640.4568, 1995.667
640.9390, 1992.732
641.4211, 1985.026
641.9032, 1972.909
642.3853, 1956.500
642.8674, 1947.124
643.3495, 1953.479
643.8317, 1965.701
644.3138, 1977.521
644.7959, 1990.514
645.2780, 1998.422
645.7601, 2000.052
646.2422, 1997.656
646.7244, 1992.726
647.2065, 1984.143
647.6886, 1979.068
648.1707, 1979.022
648.6528, 1982.790
649.1349, 1988.525
649.6171, 1996.116
650.0992, 2004.923
650.5813, 2019.109
651.0634, 2031.574
651.5455, 2031.745
652.0276, 2021.436
