##NAMES=Mimetite-M
##RRUFFID=R070146
##IDEAL CHEMISTRY=Pb_5_(AsO_4_)_3_Cl
##LOCALITY=Treue Freundschaft Mine, Johanngeorgenstadt, Erzgebirge, Saxony, Germany
##OWNER=RRUFF
##SOURCE=Michael Scott
##DESCRIPTION=Yellowish green crystals coated with white feathery hydroxylapatite.
##STATUS=The identification of this mineral has been confirmed by single-crystal X-ray diffraction.
##URL=rruff.info/R070146
90.52570, 0.0000000E+00
91.00781, 55.11334
91.48993, 54.54558
91.97205, 54.32026
92.45416, 54.64409
92.93628, 55.30013
93.41840, 55.80870
93.90051, 56.06547
94.38263, 56.19465
94.86475, 56.27218
95.34686, 56.30146
95.82898, 56.60567
96.31110, 57.64750
96.79321, 59.34501
97.27533, 60.71000
97.75745, 61.16686
98.23956, 61.14986
98.72168, 62.61113
99.20380, 65.75736
99.68591, 69.68352
100.1680, 72.89439
100.6501, 74.74616
101.1323, 78.95492
101.6144, 87.15994
102.0965, 99.74731
102.5786, 111.3478
103.0607, 121.0818
103.5428, 130.6863
104.0250, 143.2881
104.5071, 159.3111
104.9892, 177.4476
105.4713, 197.1189
105.9534, 218.2433
106.4355, 240.9537
106.9177, 265.1908
107.3998, 290.9853
107.8819, 319.2430
108.3640, 346.5369
108.8461, 378.7002
109.3282, 419.0208
109.8104, 468.2773
110.2925, 523.7441
110.7746, 586.7414
111.2567, 656.3092
111.7388, 727.7601
112.2209, 804.3989
112.7031, 879.9232
113.1852, 950.8447
113.6673, 1012.488
114.1494, 1072.519
114.6315, 1135.628
115.1136, 1202.819
115.5958, 1261.606
116.0779, 1304.383
116.5600, 1337.863
117.0421, 1369.442
117.5242, 1400.879
118.0063, 1431.961
118.4885, 1461.536
118.9706, 1488.449
119.4527, 1519.755
119.9348, 1558.753
120.4169, 1604.644
120.8990, 1656.715
121.3812, 1717.876
121.8633, 1783.352
122.3454, 1848.183
122.8275, 1912.223
123.3096, 1975.158
123.7917, 2035.909
124.2739, 2095.038
124.7560, 2154.605
125.2381, 2218.239
125.7202, 2283.105
126.2023, 2343.072
126.6844, 2395.840
127.1666, 2445.220
127.6487, 2496.161
128.1308, 2548.805
128.6129, 2601.427
129.0950, 2653.292
129.5771, 2704.513
130.0593, 2756.004
130.5414, 2809.221
131.0235, 2861.962
131.5056, 2904.413
131.9877, 2925.080
132.4698, 2929.057
132.9520, 2934.982
133.4341, 2942.937
133.9162, 2955.257
134.3983, 2973.866
134.8804, 2997.883
135.3625, 3020.676
135.8447, 3041.451
136.3268, 3063.380
136.8089, 3091.543
137.2910, 3126.663
137.7731, 3164.154
138.2552, 3202.999
138.7374, 3243.115
139.2195, 3283.297
139.7016, 3323.257
140.1837, 3363.944
140.6658, 3407.268
141.1479, 3455.234
141.6301, 3501.836
142.1122, 3543.775
142.5943, 3577.969
143.0764, 3616.752
143.5585, 3663.788
144.0406, 3715.402
144.5228, 3760.444
145.0049, 3796.962
145.4870, 3829.027
145.9691, 3858.389
146.4512, 3885.590
146.9333, 3909.979
147.4155, 3931.225
147.8976, 3949.758
148.3797, 3967.268
148.8618, 3985.553
149.3439, 4001.824
149.8260, 4014.297
150.3082, 4020.823
150.7903, 4026.060
151.2724, 4029.223
151.7545, 4030.128
152.2366, 4034.105
152.7188, 4044.857
153.2009, 4056.864
153.6830, 4065.561
154.1651, 4069.559
154.6472, 4071.069
155.1293, 4068.837
155.6115, 4061.965
156.0936, 4058.889
156.5757, 4065.094
157.0578, 4074.455
157.5399, 4080.198
158.0220, 4079.132
158.5042, 4075.841
158.9863, 4071.160
159.4684, 4064.489
159.9505, 4060.249
160.4326, 4059.984
160.9147, 4063.070
161.3969, 4068.544
161.8790, 4079.568
162.3611, 4090.426
162.8432, 4097.068
163.3253, 4096.790
163.8074, 4098.814
164.2896, 4109.351
164.7717, 4125.075
165.2538, 4139.400
165.7359, 4146.545
166.2180, 4152.638
166.7001, 4162.987
167.1823, 4180.527
167.6644, 4197.456
168.1465, 4207.574
168.6286, 4212.847
169.1107, 4218.848
169.5928, 4230.485
170.0750, 4243.623
170.5571, 4253.899
171.0392, 4258.923
171.5213, 4263.099
172.0034, 4271.791
172.4855, 4283.644
172.9677, 4292.328
173.4498, 4290.344
173.9319, 4283.665
174.4140, 4281.125
174.8961, 4287.526
175.3782, 4296.121
175.8604, 4299.837
176.3425, 4299.006
176.8246, 4296.324
177.3067, 4295.926
177.7888, 4295.046
178.2709, 4287.758
178.7531, 4269.281
179.2352, 4245.806
179.7173, 4227.630
180.1994, 4214.404
180.6815, 4199.207
181.1636, 4175.258
181.6458, 4144.292
182.1279, 4112.123
182.6100, 4078.893
183.0921, 4046.206
183.5742, 4017.788
184.0563, 3994.375
184.5385, 3970.132
185.0206, 3938.859
185.5027, 3901.510
185.9848, 3864.312
186.4669, 3829.122
186.9490, 3795.549
187.4312, 3760.756
187.9133, 3725.083
188.3954, 3689.887
188.8775, 3658.826
189.3596, 3631.426
189.8417, 3601.523
190.3239, 3565.621
190.8060, 3524.941
191.2881, 3487.718
191.7702, 3454.978
192.2523, 3423.360
192.7344, 3388.429
193.2166, 3350.365
193.6987, 3311.255
194.1808, 3271.441
194.6629, 3231.091
195.1450, 3189.344
195.6271, 3145.409
196.1093, 3102.074
196.5914, 3064.553
197.0735, 3033.361
197.5556, 3001.313
198.0377, 2963.863
198.5198, 2920.597
199.0020, 2883.597
199.4841, 2854.540
199.9662, 2828.597
200.4483, 2796.393
200.9304, 2756.645
201.4125, 2718.339
201.8947, 2686.843
202.3768, 2663.015
202.8589, 2634.431
203.3410, 2599.348
203.8231, 2561.605
204.3052, 2529.186
204.7874, 2502.893
205.2695, 2477.816
205.7516, 2451.783
206.2337, 2424.573
206.7158, 2397.931
207.1979, 2371.775
207.6801, 2346.191
208.1622, 2321.805
208.6443, 2298.573
209.1264, 2276.232
209.6085, 2254.823
210.0906, 2234.558
210.5728, 2214.154
211.0549, 2193.721
211.5370, 2173.178
212.0191, 2152.714
212.5012, 2131.847
212.9833, 2111.879
213.4655, 2093.896
213.9476, 2078.466
214.4297, 2062.493
214.9118, 2045.438
215.3939, 2028.104
215.8760, 2012.097
216.3581, 1998.042
216.8403, 1984.280
217.3224, 1970.081
217.8045, 1954.921
218.2866, 1940.586
218.7687, 1927.507
219.2508, 1915.119
219.7330, 1902.387
220.2151, 1889.480
220.6972, 1875.859
221.1793, 1861.092
221.6614, 1843.911
222.1435, 1828.689
222.6257, 1816.131
223.1078, 1805.328
223.5899, 1793.216
224.0720, 1778.488
224.5541, 1764.532
225.0362, 1752.970
225.5184, 1745.493
226.0005, 1736.378
226.4826, 1724.396
226.9647, 1711.043
227.4468, 1700.427
227.9289, 1694.674
228.4111, 1688.589
228.8932, 1679.601
229.3753, 1666.222
229.8574, 1653.464
230.3395, 1640.701
230.8216, 1628.881
231.3038, 1620.911
231.7859, 1619.665
232.2680, 1618.101
232.7501, 1612.708
233.2322, 1600.842
233.7143, 1591.135
234.1965, 1584.195
234.6786, 1579.243
235.1607, 1574.033
235.6428, 1568.196
236.1249, 1562.581
236.6070, 1557.754
237.0892, 1554.825
237.5713, 1550.120
238.0534, 1543.120
238.5355, 1534.460
239.0176, 1525.573
239.4997, 1515.248
239.9819, 1506.268
240.4640, 1500.285
240.9461, 1499.425
241.4282, 1496.317
241.9103, 1489.812
242.3924, 1481.439
242.8746, 1475.150
243.3567, 1473.152
243.8388, 1469.903
244.3209, 1462.379
244.8030, 1447.206
245.2851, 1437.273
245.7673, 1434.877
246.2494, 1436.801
246.7315, 1436.048
247.2136, 1431.244
247.6957, 1425.958
248.1778, 1421.441
248.6600, 1417.763
249.1421, 1414.794
249.6242, 1412.775
250.1063, 1411.307
250.5884, 1409.820
251.0705, 1409.123
251.5527, 1406.964
252.0348, 1402.078
252.5169, 1393.156
252.9990, 1386.049
253.4811, 1380.840
253.9632, 1377.301
254.4454, 1375.548
254.9275, 1377.309
255.4096, 1377.480
255.8917, 1373.605
256.3738, 1364.180
256.8560, 1357.979
257.3381, 1356.325
257.8202, 1356.737
258.3023, 1355.163
258.7844, 1350.308
259.2665, 1346.381
259.7487, 1345.219
260.2308, 1347.552
260.7129, 1347.443
261.1950, 1343.975
261.6771, 1339.080
262.1592, 1335.192
262.6414, 1332.268
263.1235, 1330.620
263.6056, 1331.028
264.0877, 1333.799
264.5698, 1333.689
265.0519, 1329.454
265.5341, 1324.056
266.0162, 1321.042
266.4983, 1321.158
266.9804, 1321.438
267.4625, 1321.078
267.9446, 1320.103
268.4268, 1319.889
268.9089, 1320.951
269.3910, 1321.880
269.8731, 1320.870
270.3552, 1317.250
270.8373, 1314.419
271.3195, 1313.148
271.8016, 1313.339
272.2837, 1314.093
272.7658, 1315.662
273.2479, 1317.222
273.7300, 1317.512
274.2122, 1316.018
274.6943, 1316.702
275.1764, 1321.419
275.6585, 1328.948
276.1406, 1331.974
276.6227, 1329.153
277.1049, 1326.306
277.5870, 1328.469
278.0691, 1336.037
278.5512, 1344.168
279.0333, 1352.305
279.5154, 1360.377
279.9976, 1368.116
280.4797, 1375.521
280.9618, 1382.688
281.4439, 1389.563
281.9260, 1396.101
282.4081, 1403.269
282.8903, 1410.732
283.3724, 1419.374
283.8545, 1431.636
284.3366, 1447.701
284.8187, 1465.503
285.3008, 1483.166
285.7830, 1501.047
286.2651, 1521.819
286.7472, 1546.509
287.2293, 1572.939
287.7114, 1596.251
288.1935, 1616.480
288.6757, 1638.746
289.1578, 1666.646
289.6399, 1699.354
290.1220, 1730.824
290.6041, 1760.317
291.0862, 1790.390
291.5684, 1824.454
292.0505, 1862.545
292.5326, 1903.209
293.0147, 1946.226
293.4968, 1991.358
293.9789, 2039.606
294.4611, 2090.709
294.9432, 2143.925
295.4253, 2197.412
295.9074, 2252.039
296.3895, 2310.008
296.8716, 2373.386
297.3538, 2441.028
297.8359, 2510.902
298.3180, 2583.597
298.8001, 2658.612
299.2822, 2738.057
299.7643, 2820.712
300.2465, 2902.048
300.7286, 2978.643
301.2107, 3054.091
301.6928, 3135.383
302.1749, 3221.509
302.6570, 3308.073
303.1392, 3393.463
303.6213, 3476.098
304.1034, 3551.095
304.5855, 3616.525
305.0676, 3675.588
305.5497, 3733.277
306.0319, 3788.814
306.5140, 3841.132
306.9961, 3887.754
307.4782, 3930.593
307.9603, 3972.866
308.4424, 4016.298
308.9246, 4056.603
309.4067, 4089.667
309.8888, 4116.595
310.3709, 4141.208
310.8530, 4167.042
311.3351, 4190.269
311.8173, 4208.289
312.2994, 4221.789
312.7815, 4227.235
313.2636, 4224.814
313.7457, 4212.880
314.2278, 4188.101
314.7100, 4145.269
315.1921, 4092.115
315.6742, 4031.620
316.1563, 3963.501
316.6384, 3893.376
317.1205, 3821.374
317.6027, 3750.492
318.0848, 3684.935
318.5669, 3627.343
319.0490, 3574.102
319.5311, 3524.023
320.0132, 3477.016
320.4954, 3432.780
320.9775, 3389.522
321.4596, 3350.075
321.9417, 3317.557
322.4238, 3293.212
322.9059, 3275.132
323.3881, 3264.241
323.8702, 3260.224
324.3523, 3258.291
324.8344, 3254.714
325.3165, 3255.073
325.7986, 3262.614
326.2808, 3283.020
326.7629, 3304.269
327.2450, 3325.448
327.7271, 3346.880
328.2092, 3369.887
328.6913, 3396.297
329.1735, 3422.643
329.6556, 3447.613
330.1377, 3468.174
330.6198, 3493.241
331.1019, 3525.944
331.5840, 3562.079
332.0662, 3594.574
332.5483, 3623.597
333.0304, 3648.723
333.5125, 3668.273
333.9946, 3680.831
334.4767, 3696.779
334.9589, 3718.960
335.4410, 3741.522
335.9231, 3757.473
336.4052, 3766.705
336.8873, 3769.097
337.3694, 3763.225
337.8515, 3749.626
338.3336, 3737.120
338.8158, 3727.525
339.2979, 3715.255
339.7800, 3695.425
340.2621, 3668.140
340.7442, 3633.863
341.2263, 3592.766
341.7085, 3545.235
342.1906, 3493.678
342.6727, 3437.210
343.1548, 3379.514
343.6369, 3322.373
344.1190, 3266.126
344.6012, 3208.218
345.0833, 3148.360
345.5654, 3087.471
346.0475, 3027.396
346.5296, 2968.271
347.0117, 2908.112
347.4939, 2845.047
347.9760, 2780.710
348.4581, 2718.217
348.9402, 2657.396
349.4223, 2601.243
349.9044, 2553.752
350.3866, 2513.110
350.8687, 2472.490
351.3508, 2425.768
351.8329, 2378.490
352.3150, 2339.213
352.7971, 2307.689
353.2793, 2280.496
353.7614, 2254.211
354.2435, 2230.015
354.7256, 2209.706
355.2077, 2194.570
355.6898, 2182.575
356.1720, 2172.145
356.6541, 2163.300
357.1362, 2156.128
357.6183, 2148.596
358.1004, 2143.738
358.5826, 2144.919
359.0647, 2154.504
359.5468, 2165.649
360.0289, 2172.811
360.5110, 2179.043
360.9931, 2190.226
361.4753, 2211.140
361.9574, 2235.440
362.4395, 2259.716
362.9216, 2283.244
363.4037, 2309.389
363.8858, 2339.416
364.3680, 2372.474
364.8501, 2407.816
365.3322, 2444.676
365.8143, 2484.005
366.2964, 2527.874
366.7785, 2576.292
367.2607, 2620.986
367.7428, 2659.476
368.2249, 2695.584
368.7070, 2731.846
369.1891, 2775.494
369.6712, 2809.393
370.1534, 2832.161
370.6355, 2844.956
371.1176, 2851.732
371.5997, 2855.848
372.0818, 2849.392
372.5639, 2828.083
373.0461, 2787.752
373.5282, 2745.142
374.0103, 2700.305
374.4924, 2652.215
374.9745, 2599.176
375.4566, 2539.049
375.9388, 2479.621
376.4209, 2423.875
376.9030, 2370.952
377.3851, 2318.152
377.8672, 2264.461
378.3493, 2212.183
378.8315, 2163.626
379.3136, 2118.402
379.7957, 2077.722
380.2778, 2041.259
380.7599, 2009.569
381.2420, 1983.892
381.7242, 1964.640
382.2063, 1947.701
382.6884, 1930.052
383.1705, 1912.558
383.6526, 1898.964
384.1347, 1889.807
384.6169, 1883.689
385.0990, 1880.252
385.5811, 1878.789
386.0632, 1877.252
386.5453, 1873.830
387.0274, 1870.146
387.5096, 1868.514
387.9917, 1868.962
388.4738, 1870.332
388.9559, 1872.799
389.4380, 1875.360
389.9201, 1876.714
390.4023, 1876.630
390.8844, 1875.042
391.3665, 1871.065
391.8486, 1865.297
392.3307, 1860.050
392.8128, 1855.448
393.2950, 1852.374
393.7771, 1851.638
394.2592, 1854.127
394.7413, 1856.814
395.2234, 1857.810
395.7055, 1858.536
396.1877, 1861.209
396.6698, 1867.921
397.1519, 1875.098
397.6340, 1881.630
398.1161, 1887.350
398.5982, 1893.624
399.0804, 1899.155
399.5625, 1906.174
400.0446, 1916.457
400.5267, 1933.618
401.0088, 1948.838
401.4909, 1960.069
401.9731, 1968.692
402.4552, 1980.031
402.9373, 1994.832
403.4194, 2011.175
403.9015, 2028.513
404.3836, 2047.390
404.8658, 2065.306
405.3479, 2082.510
405.8300, 2098.118
406.3121, 2110.097
406.7942, 2117.732
407.2763, 2126.589
407.7585, 2138.942
408.2406, 2154.066
408.7227, 2167.922
409.2048, 2180.448
409.6869, 2191.586
410.1690, 2200.408
410.6512, 2207.412
411.1333, 2215.763
411.6154, 2226.787
412.0975, 2238.090
412.5796, 2245.418
413.0617, 2249.552
413.5439, 2254.460
414.0260, 2262.418
414.5081, 2272.622
414.9902, 2284.428
415.4723, 2298.049
415.9544, 2311.225
416.4366, 2321.010
416.9187, 2329.313
417.4008, 2338.939
417.8829, 2353.048
418.3650, 2367.059
418.8471, 2378.484
419.3293, 2387.458
419.8114, 2395.559
420.2935, 2405.891
420.7756, 2413.949
421.2577, 2416.603
421.7398, 2413.277
422.2220, 2404.972
422.7041, 2392.166
423.1862, 2374.458
423.6683, 2351.196
424.1504, 2321.706
424.6325, 2286.741
425.1147, 2245.745
425.5968, 2197.468
426.0789, 2150.021
426.5610, 2104.385
427.0431, 2058.666
427.5252, 2011.800
428.0074, 1963.576
428.4895, 1914.420
428.9716, 1863.675
429.4537, 1812.905
429.9358, 1768.580
430.4179, 1732.382
430.9001, 1697.054
431.3822, 1658.259
431.8643, 1615.877
432.3464, 1578.458
432.8285, 1546.476
433.3106, 1517.991
433.7928, 1491.708
434.2749, 1467.316
434.7570, 1441.909
435.2391, 1413.155
435.7212, 1383.986
436.2033, 1360.419
436.6855, 1342.317
437.1676, 1326.187
437.6497, 1309.729
438.1318, 1293.666
438.6139, 1279.625
439.0960, 1268.561
439.5782, 1256.960
440.0603, 1241.153
440.5424, 1222.740
441.0245, 1204.982
441.5066, 1187.187
441.9887, 1171.947
442.4709, 1162.529
442.9530, 1158.672
443.4351, 1152.684
443.9172, 1139.719
444.3993, 1124.673
444.8814, 1111.274
445.3636, 1101.266
445.8457, 1091.261
446.3278, 1079.958
446.8099, 1068.384
447.2920, 1058.838
447.7741, 1053.651
448.2563, 1047.882
448.7384, 1039.962
449.2205, 1029.430
449.7026, 1019.681
450.1847, 1009.964
450.6668, 1002.122
451.1490, 998.9698
451.6311, 1002.614
452.1132, 1002.535
452.5953, 996.2527
453.0774, 986.0200
453.5595, 977.0463
454.0417, 969.2449
454.5238, 963.2410
455.0059, 960.1241
455.4880, 959.2948
455.9701, 957.6085
456.4522, 954.9788
456.9344, 951.4556
457.4165, 945.8302
457.8986, 939.2106
458.3807, 935.0760
458.8628, 936.0446
459.3449, 938.2155
459.8271, 937.1110
460.3092, 933.2497
460.7913, 928.8716
461.2734, 924.8835
461.7555, 921.2116
462.2376, 917.5143
462.7198, 913.5251
463.2019, 910.7426
463.6840, 911.0428
464.1661, 912.5736
464.6482, 913.0930
465.1303, 911.4849
465.6125, 909.3380
466.0946, 906.8429
466.5767, 904.0405
467.0588, 901.4357
467.5409, 899.0498
468.0230, 896.8839
468.5052, 894.9704
468.9873, 893.4407
469.4694, 891.8528
469.9515, 890.1595
470.4336, 888.4715
470.9157, 886.8889
471.3979, 885.3815
471.8800, 884.1428
472.3621, 883.1779
472.8442, 882.5355
473.3263, 882.6751
473.8084, 883.7455
474.2906, 884.4313
474.7727, 883.6764
475.2548, 881.6748
475.7369, 879.1932
476.2190, 876.1276
476.7011, 873.2480
477.1833, 871.4009
477.6654, 870.4520
478.1475, 870.0530
478.6296, 871.0656
479.1117, 871.8615
479.5938, 870.1707
480.0760, 866.3882
480.5581, 863.2134
481.0402, 862.4992
481.5223, 862.8245
482.0044, 863.2473
482.4865, 863.9886
482.9687, 863.7653
483.4508, 861.0490
483.9329, 857.3869
484.4150, 855.0182
484.8971, 854.8228
485.3792, 855.4162
485.8614, 857.4144
486.3435, 860.5812
486.8256, 861.1483
487.3077, 857.2512
487.7898, 852.9486
488.2719, 850.2604
488.7541, 849.3290
489.2362, 849.9695
489.7183, 852.9852
490.2004, 856.5081
490.6825, 857.5020
491.1646, 855.7047
491.6468, 854.0596
492.1289, 853.6940
492.6110, 853.9456
493.0931, 852.3073
493.5752, 848.8066
494.0573, 846.0345
494.5395, 846.5983
495.0216, 849.0835
495.5037, 850.8505
495.9858, 851.6893
496.4679, 851.0538
496.9500, 846.4841
497.4322, 840.3986
497.9143, 836.8931
498.3964, 840.2844
498.8785, 844.2741
499.3606, 845.6478
499.8427, 844.6617
500.3249, 842.4906
500.8070, 837.2122
501.2891, 832.6797
501.7712, 831.2267
502.2533, 834.3039
502.7354, 836.9727
503.2176, 839.4677
503.6997, 841.0472
504.1818, 840.7744
504.6639, 837.2660
505.1460, 834.4665
505.6281, 833.1328
506.1103, 832.8713
506.5924, 832.0072
507.0745, 830.1247
507.5566, 829.0684
508.0387, 830.7235
508.5208, 834.8236
509.0030, 835.4318
509.4851, 832.0565
509.9672, 827.9588
510.4493, 827.1660
510.9314, 828.6429
511.4135, 828.5780
511.8957, 825.0701
512.3778, 821.3309
512.8599, 822.1409
513.3420, 826.0031
513.8242, 828.5060
514.3063, 825.9343
514.7884, 822.1613
515.2705, 820.2061
515.7526, 820.2879
516.2347, 820.5749
516.7169, 820.5459
517.1990, 820.3047
517.6811, 819.9147
518.1632, 819.0530
518.6453, 818.4694
519.1274, 818.3954
519.6096, 818.5990
520.0917, 818.6140
520.5738, 817.9261
521.0559, 817.9549
521.5380, 819.6712
522.0201, 822.8511
522.5023, 823.2365
522.9844, 820.1420
523.4665, 816.1958
523.9486, 812.6724
524.4307, 809.6300
524.9128, 809.0903
525.3950, 811.6457
525.8771, 815.1943
526.3592, 817.0958
526.8413, 817.6321
527.3234, 817.9052
527.8055, 818.3614
528.2877, 818.6841
528.7698, 818.5694
529.2519, 818.0173
529.7340, 817.0403
530.2161, 814.1822
530.6982, 811.8975
531.1804, 812.8203
531.6625, 818.0677
532.1446, 821.4811
532.6267, 819.2819
533.1088, 815.1810
533.5909, 812.6353
534.0731, 811.6931
534.5552, 812.9222
535.0373, 818.2079
535.5194, 825.3882
536.0015, 828.9965
536.4836, 827.3807
536.9658, 825.4771
537.4479, 825.0140
537.9300, 825.9049
538.4121, 825.4371
538.8942, 822.6751
539.3763, 822.5079
539.8585, 833.0032
540.3406, 851.2147
540.8227, 859.1049
541.3048, 852.9429
541.7869, 841.5762
542.2690, 834.3408
542.7512, 830.5043
543.2333, 828.2321
543.7154, 826.5544
544.1975, 826.3070
544.6796, 829.6240
545.1617, 835.4956
545.6439, 839.3296
546.1260, 836.5824
546.6081, 833.0514
547.0902, 832.4091
547.5723, 835.9171
548.0544, 838.6852
548.5366, 839.0297
549.0187, 838.9451
549.5008, 840.2363
549.9829, 843.9631
550.4650, 847.1780
550.9471, 849.7301
551.4293, 851.5840
551.9114, 852.5614
552.3935, 852.5002
552.8756, 852.4115
553.3577, 853.0656
553.8398, 854.0076
554.3220, 852.5389
554.8041, 848.5628
555.2862, 844.8827
555.7683, 844.0882
556.2504, 845.0598
556.7325, 845.5487
557.2147, 845.2179
557.6968, 844.6198
558.1789, 844.1644
558.6610, 843.7477
559.1431, 843.2225
559.6252, 843.1199
560.1074, 842.2969
560.5895, 839.4407
561.0716, 835.3309
561.5537, 832.6353
562.0358, 833.5909
562.5179, 834.3546
563.0001, 833.4080
563.4822, 830.5498
563.9643, 828.0936
564.4464, 825.4980
564.9285, 824.0747
565.4106, 825.1285
565.8928, 829.1019
566.3749, 832.8337
566.8570, 836.2769
567.3391, 839.0806
567.8212, 840.6530
568.3033, 841.0795
568.7855, 840.8729
569.2676, 840.1779
569.7497, 838.9785
570.2318, 836.4824
570.7139, 833.2041
571.1960, 831.1930
571.6782, 833.1985
572.1603, 835.9584
572.6424, 836.2310
573.1245, 833.5155
573.6066, 832.2267
574.0887, 836.8984
574.5709, 841.9674
575.0530, 843.0258
575.5351, 833.7941
576.0172, 828.8887
576.4993, 830.5897
576.9814, 835.8762
577.4636, 840.1246
577.9457, 843.4779
578.4278, 845.3078
578.9099, 844.9503
579.3920, 843.0920
579.8741, 842.2632
580.3563, 842.5026
580.8384, 843.3089
581.3205, 844.6632
581.8026, 846.3451
582.2847, 847.4209
582.7668, 847.8454
583.2490, 848.7389
583.7311, 852.5329
584.2131, 856.7872
584.6953, 857.9173
585.1774, 853.4979
585.6595, 849.6371
586.1416, 849.2614
586.6237, 851.5270
587.1058, 855.1341
