##NAMES=Mimetite
##RRUFFID=R040123
##IDEAL CHEMISTRY=Pb^2+^_5_(As^5+^O_4_)_3_Cl
##LOCALITY=San Pedro Corralitos, Chihuahua, Mexico
##OWNER=RRUFF
##SOURCE=University of Arizona Mineral Museum
##DESCRIPTION=Yellow botryoidal group
##STATUS=The identification of this mineral has been confirmed by X-ray diffraction and chemical analysis
##URL=rruff.info/R040123
##MEASURED CHEMISTRY=Pb_5.00_((As_0.96_P_0.04_)O_4_)_3_Cl_1.00_
114.9494, 158.6895
115.4315, 167.9965
115.9136, 178.9607
116.3958, 192.8934
116.8779, 209.0190
117.3600, 226.5661
117.8421, 246.8403
118.3242, 267.3102
118.8063, 285.9101
119.2885, 302.2492
119.7706, 319.7316
120.2527, 340.2585
120.7348, 363.4244
121.2169, 388.5993
121.6990, 413.0326
122.1812, 440.1482
122.6633, 474.0854
123.1454, 516.6029
123.6275, 562.4734
124.1096, 607.1951
124.5917, 651.0950
125.0739, 695.5093
125.5560, 740.7578
126.0381, 786.9955
126.5202, 835.5762
127.0023, 887.1143
127.4844, 940.7084
127.9666, 995.4332
128.4487, 1051.276
128.9308, 1107.451
129.4129, 1163.491
129.8950, 1219.457
130.3772, 1272.509
130.8593, 1320.141
131.3414, 1364.655
131.8235, 1414.754
132.3056, 1470.555
132.7877, 1529.334
133.2699, 1588.024
133.7520, 1646.880
134.2341, 1705.528
134.7162, 1764.051
135.1983, 1822.710
135.6804, 1879.995
136.1626, 1935.466
136.6447, 1989.251
137.1268, 2042.498
137.6089, 2096.169
138.0910, 2144.455
138.5731, 2181.459
139.0553, 2204.674
139.5374, 2230.653
140.0195, 2260.820
140.5016, 2294.314
140.9837, 2327.282
141.4658, 2361.952
141.9480, 2393.102
142.4301, 2415.880
142.9122, 2424.863
143.3943, 2437.183
143.8764, 2457.298
144.3585, 2484.750
144.8407, 2503.888
145.3228, 2502.443
145.8049, 2501.917
146.2870, 2523.736
146.7691, 2591.869
147.2512, 2650.479
147.7334, 2685.542
148.2155, 2690.195
148.6976, 2703.690
149.1797, 2733.406
149.6618, 2769.924
150.1439, 2800.525
150.6261, 2817.285
151.1082, 2834.886
151.5903, 2857.311
152.0724, 2887.416
152.5545, 2916.026
153.0366, 2945.378
153.5188, 2972.556
154.0009, 2991.750
154.4830, 2998.218
154.9651, 2999.635
155.4472, 2998.857
155.9293, 2991.323
156.4115, 2988.949
156.8936, 2997.761
157.3757, 3014.519
157.8578, 3028.084
158.3399, 3033.320
158.8221, 3035.427
159.3042, 3037.843
159.7863, 3040.414
160.2684, 3044.353
160.7505, 3051.552
161.2326, 3061.434
161.7148, 3069.010
162.1969, 3068.805
162.6790, 3066.597
163.1611, 3067.960
163.6432, 3071.693
164.1253, 3081.838
164.6075, 3102.502
165.0896, 3133.901
165.5717, 3167.330
166.0538, 3202.746
166.5359, 3236.302
167.0180, 3262.656
167.5002, 3275.087
167.9823, 3282.577
168.4644, 3290.728
168.9465, 3299.618
169.4286, 3311.475
169.9107, 3335.752
170.3929, 3364.465
170.8750, 3381.404
171.3571, 3365.145
171.8392, 3338.377
172.3213, 3326.185
172.8034, 3334.109
173.2856, 3349.052
173.7677, 3363.500
174.2498, 3376.223
174.7319, 3382.835
175.2140, 3377.426
175.6961, 3365.046
176.1783, 3353.391
176.6604, 3344.414
177.1425, 3335.790
177.6246, 3326.174
178.1067, 3315.237
178.5888, 3300.122
179.0710, 3275.972
179.5531, 3246.356
180.0352, 3219.195
180.5173, 3195.949
180.9994, 3176.777
181.4815, 3165.775
181.9637, 3162.509
182.4458, 3156.422
182.9279, 3135.775
183.4100, 3103.957
183.8921, 3073.267
184.3742, 3046.484
184.8564, 3023.334
185.3385, 3005.819
185.8206, 2994.284
186.3027, 2982.320
186.7848, 2963.194
187.2669, 2937.475
187.7491, 2908.776
188.2312, 2874.564
188.7133, 2838.302
189.1954, 2815.302
189.6775, 2808.282
190.1596, 2802.999
190.6418, 2777.564
191.1239, 2732.721
191.6060, 2694.252
192.0881, 2677.721
192.5702, 2679.785
193.0524, 2670.187
193.5345, 2647.090
194.0166, 2617.245
194.4987, 2590.979
194.9808, 2568.540
195.4629, 2545.820
195.9451, 2520.999
196.4272, 2493.812
196.9093, 2466.579
197.3914, 2438.485
197.8735, 2411.735
198.3556, 2392.145
198.8378, 2381.100
199.3199, 2368.859
199.8020, 2349.591
200.2841, 2322.979
200.7662, 2296.129
201.2483, 2268.379
201.7305, 2241.591
202.2126, 2220.923
202.6947, 2207.382
203.1768, 2196.212
203.6589, 2184.842
204.1410, 2173.349
204.6232, 2162.096
205.1053, 2151.852
205.5874, 2141.555
206.0695, 2127.029
206.5516, 2106.909
207.0337, 2086.139
207.5159, 2069.065
207.9980, 2057.804
208.4801, 2041.155
208.9622, 2015.433
209.4443, 1983.335
209.9264, 1959.053
210.4086, 1945.697
210.8907, 1933.846
211.3728, 1914.994
211.8549, 1885.109
212.3370, 1861.911
212.8191, 1850.146
213.3013, 1848.089
213.7834, 1839.938
214.2655, 1823.682
214.7476, 1804.487
215.2297, 1787.270
215.7118, 1773.352
216.1940, 1756.910
216.6761, 1735.061
217.1582, 1708.257
217.6403, 1689.995
218.1224, 1685.038
218.6045, 1682.536
219.0867, 1670.633
219.5688, 1643.000
220.0509, 1621.627
220.5330, 1614.928
221.0151, 1623.393
221.4972, 1617.523
221.9794, 1589.441
222.4615, 1555.777
222.9436, 1535.236
223.4257, 1536.136
223.9078, 1532.657
224.3899, 1517.025
224.8721, 1487.537
225.3542, 1465.809
225.8363, 1454.121
226.3184, 1447.834
226.8005, 1441.836
227.2827, 1437.488
227.7648, 1430.867
228.2469, 1420.785
228.7290, 1406.987
229.2111, 1391.351
229.6932, 1370.232
230.1754, 1350.407
230.6575, 1341.886
231.1396, 1352.739
231.6217, 1360.766
232.1038, 1359.853
232.5859, 1348.844
233.0681, 1334.678
233.5502, 1315.360
234.0323, 1294.390
234.5144, 1276.341
234.9965, 1261.118
235.4786, 1249.257
235.9608, 1241.240
236.4429, 1237.724
236.9250, 1235.617
237.4071, 1236.246
237.8892, 1237.469
238.3713, 1235.977
238.8535, 1231.526
239.3356, 1224.683
239.8177, 1214.521
240.2998, 1198.761
240.7819, 1188.682
241.2640, 1186.452
241.7462, 1188.479
242.2283, 1188.763
242.7104, 1187.244
243.1925, 1184.052
243.6746, 1178.831
244.1567, 1170.595
244.6389, 1163.845
245.1210, 1160.064
245.6031, 1156.906
246.0852, 1149.601
246.5673, 1134.474
247.0494, 1121.472
247.5316, 1114.500
248.0137, 1115.445
248.4958, 1116.166
248.9779, 1116.867
249.4600, 1117.221
249.9421, 1117.172
250.4243, 1118.920
250.9064, 1116.296
251.3885, 1105.416
251.8706, 1081.608
252.3527, 1065.307
252.8348, 1058.861
253.3170, 1058.453
253.7991, 1056.903
254.2812, 1053.038
254.7633, 1050.349
255.2454, 1051.251
255.7275, 1058.368
256.2097, 1058.729
256.6918, 1049.263
257.1739, 1035.152
257.6560, 1025.951
258.1381, 1023.196
258.6202, 1022.191
259.1024, 1021.519
259.5845, 1021.530
260.0666, 1020.313
260.5487, 1017.238
261.0308, 1013.414
261.5129, 1010.915
261.9951, 1010.402
262.4772, 1009.676
262.9593, 1007.657
263.4414, 1003.821
263.9235, 1001.308
264.4056, 1000.841
264.8878, 1000.993
265.3699, 999.0736
265.8520, 994.4292
266.3341, 989.5370
266.8162, 985.6121
267.2983, 983.1215
267.7805, 978.1784
268.2626, 969.0025
268.7447, 959.4119
269.2268, 956.8309
269.7089, 963.1426
270.1910, 969.6907
270.6732, 972.7211
271.1553, 971.6445
271.6374, 973.1347
272.1195, 978.2868
272.6016, 984.4051
273.0837, 986.2573
273.5659, 982.8086
274.0480, 980.4698
274.5301, 982.8030
275.0122, 990.0828
275.4943, 993.2111
275.9764, 991.1304
276.4586, 986.8869
276.9407, 984.5087
277.4228, 983.9951
277.9049, 985.5032
278.3870, 989.7575
278.8691, 996.6124
279.3513, 1002.587
279.8334, 1007.431
280.3155, 1012.039
280.7976, 1018.763
281.2798, 1027.773
281.7619, 1033.419
282.2440, 1030.073
282.7261, 1019.995
283.2082, 1021.422
283.6903, 1035.774
284.1725, 1056.405
284.6546, 1077.454
285.1367, 1098.603
285.6188, 1116.000
286.1009, 1126.173
286.5830, 1131.264
287.0652, 1139.926
287.5473, 1152.005
288.0294, 1168.073
288.5115, 1190.910
288.9936, 1219.697
289.4757, 1246.546
289.9579, 1267.525
290.4400, 1285.118
290.9221, 1306.556
291.4042, 1331.922
291.8863, 1360.100
292.3684, 1389.523
292.8506, 1420.624
293.3327, 1455.604
293.8148, 1495.926
294.2969, 1540.315
294.7790, 1587.980
295.2611, 1639.137
295.7433, 1691.071
296.2254, 1740.364
296.7075, 1789.320
297.1896, 1842.210
297.6717, 1900.904
298.1538, 1964.972
298.6360, 2033.313
299.1181, 2106.417
299.6002, 2182.602
300.0823, 2264.828
300.5644, 2349.534
301.0465, 2429.561
301.5287, 2497.332
302.0108, 2566.742
302.4929, 2656.906
302.9750, 2764.967
303.4571, 2869.393
303.9392, 2952.056
304.4214, 3024.181
304.9035, 3103.287
305.3856, 3194.466
305.8677, 3289.240
306.3498, 3379.756
306.8319, 3466.318
307.3141, 3552.068
307.7962, 3637.173
308.2783, 3721.827
308.7604, 3808.706
309.2425, 3899.818
309.7246, 3985.907
310.2068, 4060.888
310.6889, 4126.428
311.1710, 4187.789
311.6531, 4249.420
312.1352, 4306.796
312.6173, 4358.467
313.0995, 4407.896
313.5816, 4439.092
314.0637, 4436.971
314.5458, 4411.901
315.0279, 4383.563
315.5100, 4366.971
315.9922, 4343.456
316.4743, 4300.194
316.9564, 4230.827
317.4385, 4162.020
317.9206, 4106.457
318.4027, 4055.830
318.8849, 3998.529
319.3670, 3926.457
319.8491, 3851.564
320.3312, 3776.686
320.8133, 3700.917
321.2954, 3630.692
321.7776, 3566.116
322.2597, 3507.563
322.7418, 3455.431
323.2239, 3411.312
323.7060, 3372.093
324.1881, 3336.650
324.6703, 3304.752
325.1524, 3279.112
325.6345, 3263.644
326.1166, 3252.857
326.5987, 3242.134
327.0808, 3225.280
327.5630, 3215.799
328.0451, 3217.859
328.5272, 3230.850
329.0093, 3241.441
329.4914, 3245.893
329.9735, 3251.080
330.4557, 3261.360
330.9378, 3277.825
331.4199, 3297.809
331.9020, 3323.103
332.3841, 3352.161
332.8662, 3376.858
333.3484, 3393.226
333.8305, 3410.888
334.3126, 3437.913
334.7947, 3481.828
335.2768, 3509.944
335.7589, 3515.349
336.2411, 3506.937
336.7232, 3508.035
337.2053, 3521.975
337.6874, 3535.673
338.1695, 3542.964
338.6516, 3543.197
339.1338, 3542.389
339.6159, 3541.146
340.0980, 3538.074
340.5801, 3532.288
341.0622, 3524.202
341.5443, 3508.382
342.0265, 3480.612
342.5086, 3442.134
342.9907, 3401.500
343.4728, 3358.784
343.9549, 3314.950
344.4370, 3273.317
344.9192, 3233.440
345.4013, 3188.497
345.8834, 3135.616
346.3655, 3076.670
346.8476, 3017.058
347.3297, 2956.908
347.8119, 2899.012
348.2940, 2848.900
348.7761, 2803.862
349.2582, 2756.871
349.7403, 2703.848
350.2225, 2648.831
350.7046, 2597.194
351.1867, 2548.306
351.6688, 2500.883
352.1509, 2453.510
352.6331, 2406.996
353.1152, 2361.951
353.5973, 2316.822
354.0794, 2276.392
354.5615, 2245.696
355.0436, 2223.377
355.5258, 2205.304
356.0079, 2190.960
356.4900, 2178.897
356.9721, 2166.819
357.4542, 2152.678
357.9363, 2144.277
358.4185, 2146.016
358.9006, 2156.452
359.3827, 2173.083
359.8648, 2195.949
360.3469, 2223.958
360.8290, 2256.433
361.3112, 2293.366
361.7933, 2335.462
362.2754, 2392.927
362.7575, 2452.255
363.2396, 2498.958
363.7217, 2501.440
364.2039, 2518.662
364.6860, 2575.134
365.1681, 2671.861
365.6502, 2753.910
366.1323, 2805.334
366.6144, 2846.670
367.0966, 2892.229
367.5787, 2952.067
368.0608, 3003.943
368.5429, 3049.252
369.0250, 3086.487
369.5071, 3106.958
369.9893, 3105.974
370.4714, 3093.789
370.9535, 3076.646
371.4356, 3063.367
371.9177, 3023.890
372.3998, 2948.056
372.8820, 2850.456
373.3641, 2765.194
373.8462, 2697.890
374.3283, 2628.855
374.8104, 2550.095
375.2925, 2459.805
375.7747, 2373.465
376.2568, 2291.554
376.7389, 2211.191
377.2210, 2125.123
377.7031, 2031.922
378.1852, 1954.749
378.6674, 1905.859
379.1495, 1878.233
379.6316, 1838.228
380.1137, 1784.943
380.5958, 1730.484
381.0779, 1684.351
381.5601, 1646.165
382.0422, 1618.219
382.5243, 1603.484
383.0064, 1595.024
383.4885, 1582.015
383.9706, 1564.711
384.4528, 1545.905
384.9349, 1525.428
385.4170, 1505.069
385.8991, 1486.967
386.3812, 1470.911
386.8633, 1458.323
387.3455, 1452.615
387.8276, 1451.463
388.3097, 1449.468
388.7918, 1440.647
389.2739, 1432.020
389.7560, 1430.625
390.2382, 1437.678
390.7203, 1443.706
391.2024, 1441.386
391.6845, 1435.981
392.1666, 1433.533
392.6487, 1440.519
393.1309, 1446.656
393.6130, 1445.552
394.0951, 1438.143
394.5772, 1435.748
395.0593, 1446.886
395.5414, 1460.379
396.0236, 1469.137
396.5057, 1469.158
396.9878, 1468.017
397.4699, 1463.919
397.9520, 1458.808
398.4341, 1458.810
398.9163, 1467.197
399.3984, 1477.332
399.8805, 1487.263
400.3626, 1497.649
400.8447, 1505.392
401.3268, 1507.268
401.8090, 1508.883
402.2911, 1519.157
402.7732, 1541.537
403.2553, 1563.284
403.7374, 1580.782
404.2195, 1594.296
404.7017, 1608.958
405.1838, 1625.490
405.6659, 1641.370
406.1480, 1653.602
406.6301, 1662.169
407.1122, 1671.773
407.5944, 1683.050
408.0765, 1696.120
408.5586, 1714.003
409.0407, 1736.594
409.5228, 1753.214
410.0049, 1749.268
410.4871, 1733.603
410.9692, 1732.835
411.4513, 1751.923
411.9334, 1776.859
412.4155, 1791.604
412.8976, 1799.405
413.3798, 1809.050
413.8619, 1829.004
414.3440, 1850.472
414.8261, 1863.016
415.3082, 1866.512
415.7903, 1870.385
416.2725, 1881.176
416.7546, 1895.671
417.2367, 1910.477
417.7188, 1923.156
418.2009, 1937.077
418.6830, 1957.230
419.1652, 1980.847
419.6473, 1996.974
420.1294, 1992.788
420.6115, 1987.074
421.0937, 1991.504
421.5758, 2016.144
422.0579, 2032.237
422.5400, 2031.079
423.0221, 2020.247
423.5042, 2012.172
423.9864, 2014.136
424.4685, 2011.323
424.9506, 2000.214
425.4327, 1980.641
425.9148, 1955.719
426.3969, 1919.848
426.8791, 1885.013
427.3612, 1863.198
427.8433, 1859.272
428.3254, 1853.722
428.8075, 1845.506
429.2896, 1833.207
429.7718, 1810.382
430.2539, 1775.137
430.7360, 1739.349
431.2181, 1710.423
431.7002, 1687.954
432.1823, 1666.545
432.6645, 1646.415
433.1466, 1625.638
433.6287, 1599.731
434.1108, 1570.224
434.5929, 1544.812
435.0750, 1531.248
435.5572, 1522.026
436.0393, 1502.925
436.5214, 1474.333
437.0035, 1444.396
437.4856, 1419.962
437.9677, 1398.267
438.4499, 1375.425
438.9320, 1349.312
439.4141, 1323.765
439.8962, 1301.068
440.3783, 1281.130
440.8604, 1263.047
441.3426, 1249.551
441.8247, 1235.697
442.3068, 1218.538
442.7889, 1197.250
443.2710, 1175.094
443.7531, 1150.081
444.2353, 1125.814
444.7174, 1105.845
445.1995, 1093.231
445.6816, 1082.489
446.1637, 1074.422
446.6458, 1068.540
447.1280, 1058.517
447.6101, 1041.983
448.0922, 1023.849
448.5743, 1007.102
449.0564, 992.7439
449.5385, 976.1760
450.0207, 955.5161
450.5028, 934.2584
450.9849, 920.4744
451.4670, 916.1336
451.9491, 909.8812
452.4312, 896.7105
452.9134, 877.5607
453.3955, 858.7449
453.8776, 840.1276
454.3597, 823.2175
454.8418, 811.8746
455.3239, 804.2249
455.8061, 792.3572
456.2882, 772.3129
456.7703, 750.4131
457.2524, 735.9724
457.7345, 727.7194
458.2166, 720.1567
458.6988, 710.6811
459.1809, 699.9446
459.6630, 688.3518
460.1451, 675.6016
460.6272, 663.7075
461.1093, 654.9644
461.5915, 647.5468
462.0736, 639.3620
462.5557, 626.4645
463.0378, 615.8513
463.5199, 612.0469
464.0020, 613.9816
464.4842, 613.3643
464.9663, 608.2122
465.4484, 600.2686
465.9305, 590.0461
466.4126, 573.6276
466.8947, 561.7702
467.3769, 556.5461
467.8590, 554.9941
468.3411, 552.1471
468.8232, 546.8380
469.3053, 542.5742
469.7874, 540.2161
470.2696, 539.7255
470.7517, 541.2661
471.2338, 546.0225
471.7159, 549.1765
472.1980, 544.9174
472.6801, 533.4606
473.1623, 524.9532
473.6444, 520.6024
474.1265, 520.0966
474.6086, 526.2393
475.0907, 537.4896
475.5728, 543.8853
476.0550, 535.3441
476.5371, 520.2350
477.0192, 512.9227
477.5013, 513.9290
477.9834, 515.8225
478.4655, 512.7750
478.9477, 507.1881
479.4298, 502.2578
479.9119, 499.3727
480.3940, 496.7317
480.8761, 491.7229
481.3582, 485.9908
481.8404, 484.3703
482.3225, 493.8857
482.8046, 503.3799
483.2867, 507.4573
483.7688, 504.0442
484.2509, 500.8231
484.7331, 498.8088
485.2152, 497.0813
485.6973, 494.7070
486.1794, 491.1933
486.6615, 487.8601
487.1436, 484.8648
487.6258, 482.1734
488.1079, 479.5049
488.5900, 476.6510
489.0721, 474.4487
489.5542, 474.1274
490.0363, 475.7253
490.5185, 473.9503
491.0006, 467.7235
491.4827, 461.3251
491.9648, 460.9681
492.4470, 465.7292
492.9291, 470.8191
493.4112, 475.4902
493.8933, 478.7460
494.3754, 478.3776
494.8575, 474.7568
495.3397, 470.2525
495.8218, 466.0875
496.3039, 461.9516
496.7860, 457.1045
497.2681, 450.7305
497.7502, 446.1543
498.2324, 445.5207
498.7145, 447.6003
499.1966, 450.7131
499.6787, 458.2524
500.1608, 462.8185
500.6429, 460.0531
501.1251, 450.5813
501.6072, 444.8176
502.0893, 445.0021
502.5714, 447.6263
503.0535, 451.7791
503.5356, 460.5742
504.0178, 462.8272
504.4999, 455.0495
504.9820, 443.8820
505.4641, 440.2638
505.9462, 446.0220
506.4283, 449.6263
506.9105, 446.4472
507.3926, 438.8830
507.8747, 437.2775
508.3568, 441.9347
508.8389, 446.9487
509.3210, 447.8948
509.8032, 445.8475
510.2853, 443.7006
510.7674, 441.7896
511.2495, 439.8962
511.7316, 438.0714
512.2137, 436.0753
512.6959, 433.4600
513.1780, 428.4349
513.6601, 424.0351
514.1422, 423.1239
514.6243, 425.1189
515.1064, 425.9597
515.5886, 423.3462
516.0707, 419.5762
516.5528, 415.7286
517.0349, 410.4186
517.5170, 408.1523
517.9991, 412.9778
518.4813, 419.6858
518.9634, 421.1053
519.4455, 411.1769
519.9276, 406.8596
520.4097, 415.2170
520.8918, 432.8483
521.3740, 436.1611
521.8561, 421.1503
522.3382, 405.0844
522.8203, 399.8875
523.3024, 404.9137
523.7845, 408.4450
524.2667, 409.8094
524.7488, 409.8501
525.2309, 409.3929
525.7130, 408.4708
526.1951, 407.1790
526.6772, 405.1462
527.1594, 403.1292
527.6415, 401.8257
528.1236, 401.2652
528.6057, 401.5656
529.0878, 405.1338
529.5699, 408.0529
530.0521, 406.0710
530.5342, 396.7679
531.0163, 391.1158
531.4984, 396.0287
531.9805, 404.8613
532.4626, 410.5581
532.9448, 409.5488
533.4269, 408.5169
533.9090, 408.6899
534.3911, 409.4344
534.8732, 407.9378
535.3553, 402.3835
535.8375, 397.9576
536.3196, 397.1201
536.8017, 400.0058
537.2838, 403.7382
537.7659, 408.8282
538.2480, 413.1884
538.7302, 414.6231
539.2123, 413.3178
539.6944, 409.8578
540.1765, 402.9040
540.6586, 396.5465
541.1407, 397.9860
541.6229, 405.2758
542.1050, 411.4180
542.5871, 411.4953
543.0692, 409.5097
543.5513, 408.5940
544.0334, 408.9390
544.5156, 410.3927
544.9977, 414.0761
545.4798, 418.1562
545.9619, 421.2198
546.4440, 423.6621
546.9261, 424.0983
547.4083, 420.6566
547.8904, 415.3971
548.3725, 412.0055
548.8546, 410.6122
549.3367, 410.9733
549.8188, 414.1261
550.3010, 419.5485
550.7831, 420.0689
551.2652, 413.9297
551.7473, 408.7494
552.2294, 411.7761
552.7115, 421.8871
553.1937, 427.5985
553.6758, 427.7010
554.1579, 424.6462
554.6400, 419.3298
555.1221, 413.0806
555.6042, 409.8977
556.0864, 413.1351
556.5685, 418.0416
557.0506, 419.7596
557.5327, 419.1586
558.0148, 419.4433
558.4969, 425.5612
558.9791, 430.4962
559.4612, 428.8644
559.9433, 418.5007
560.4254, 410.1301
560.9075, 404.7795
561.3896, 402.8656
561.8718, 404.7602
562.3539, 413.9008
562.8360, 421.2142
563.3181, 426.8101
563.8002, 429.7583
564.2823, 425.9618
564.7645, 413.0692
565.2466, 404.3594
565.7287, 407.5059
566.2108, 419.3480
566.6929, 423.7024
567.1750, 420.2837
567.6572, 415.0485
568.1393, 412.5984
568.6214, 412.0155
569.1035, 411.3930
569.5856, 410.1821
570.0677, 409.9097
570.5499, 413.7544
571.0320, 418.9782
571.5141, 421.2827
571.9962, 416.1277
572.4783, 410.7112
572.9604, 407.4001
573.4426, 406.1594
573.9247, 406.4949
574.4068, 409.1749
574.8889, 412.7164
575.3710, 417.0674
575.8531, 422.8484
576.3353, 425.6675
576.8174, 424.1678
577.2995, 421.6780
577.7816, 421.8218
578.2637, 425.0045
578.7458, 426.2255
579.2280, 424.2643
579.7101, 420.9482
580.1922, 419.2374
580.6743, 419.0162
581.1564, 419.6308
581.6385, 422.5524
582.1207, 425.1929
582.6028, 422.6759
583.0849, 415.8028
583.5670, 410.6662
584.0491, 412.4748
584.5313, 416.4334
585.0134, 418.9044
585.4955, 419.0574
585.9776, 418.6210
586.4597, 417.0363
586.9418, 415.5000
587.4240, 415.4100
587.9061, 417.5154
588.3882, 419.9546
588.8703, 422.8376
589.3524, 425.8442
589.8345, 427.5878
590.3167, 427.3564
590.7988, 428.7458
591.2809, 434.8206
591.7630, 444.0084
592.2451, 446.9344
592.7272, 443.3749
593.2094, 439.0165
593.6915, 437.9829
594.1736, 439.6386
594.6557, 443.5565
595.1378, 450.3941
595.6199, 456.0317
596.1021, 456.3372
596.5842, 453.7398
597.0663, 451.6964
597.5485, 452.6122
598.0306, 452.9690
598.5127, 450.0945
598.9948, 445.3166
599.4769, 444.4890
599.9590, 452.0532
600.4412, 458.6140
600.9233, 461.0849
601.4054, 459.2933
601.8875, 455.9721
602.3696, 450.3081
602.8517, 445.1717
603.3339, 442.7267
603.8160, 442.9254
604.2981, 446.8288
604.7802, 455.6465
605.2623, 464.1925
605.7444, 463.2885
606.2266, 456.4957
606.7087, 453.5179
607.1908, 461.4250
607.6729, 470.8130
608.1550, 474.8248
608.6371, 474.2492
609.1193, 471.7903
609.6014, 467.7190
610.0835, 462.6840
610.5656, 455.5914
611.0477, 445.3771
