##NAMES=Mimetite
##RRUFFID=R040123
##IDEAL CHEMISTRY=Pb^2+^_5_(As^5+^O_4_)_3_Cl
##LOCALITY=San Pedro Corralitos, Chihuahua, Mexico
##OWNER=RRUFF
##SOURCE=University of Arizona Mineral Museum
##DESCRIPTION=Yellow botryoidal group
##STATUS=The identification of this mineral has been confirmed by X-ray diffraction and chemical analysis
##URL=rruff.info/R040123
##MEASURED CHEMISTRY=Pb_5.00_((As_0.96_P_0.04_)O_4_)_3_Cl_1.00_
65.09387, 74.81015
65.57599, 72.15299
66.05811, 70.73045
66.54022, 71.80943
67.02234, 73.08652
67.50446, 73.78860
67.98657, 73.97916
68.46869, 74.22703
68.95081, 75.25694
69.43292, 77.66801
69.91504, 78.87910
70.39716, 78.28415
70.87927, 77.19473
71.36139, 76.21053
71.84351, 75.54286
72.32562, 75.32483
72.80774, 75.82343
73.28986, 77.92735
73.77197, 79.21422
74.25409, 78.95518
74.73621, 78.09096
75.21832, 77.84885
75.70044, 78.76051
76.18256, 80.10600
76.66467, 79.94560
77.14679, 77.42324
77.62891, 75.54617
78.11102, 75.86277
78.59314, 77.65884
79.07526, 78.87147
79.55737, 78.41572
80.03949, 76.92521
80.52161, 75.96307
81.00372, 75.64199
81.48584, 75.63914
81.96796, 75.67789
82.45007, 75.75552
82.93219, 76.18575
83.41431, 77.60106
83.89642, 79.31007
84.37854, 80.35038
84.86066, 80.24043
85.34277, 79.64181
85.82489, 79.63023
86.30701, 80.50172
86.78912, 81.13422
87.27124, 80.29073
87.75336, 79.06854
88.23547, 76.30803
88.71759, 80.22609
89.19971, 82.64157
89.68182, 83.63522
90.16394, 78.94846
90.64606, 81.59676
91.12817, 81.30550
91.61029, 80.89371
92.09241, 84.57439
92.57452, 80.71384
93.05664, 84.32963
93.53876, 84.96099
94.02087, 86.95824
94.50299, 85.99780
94.98511, 85.95089
95.46722, 88.86263
95.94934, 90.13615
96.43146, 86.58801
96.91357, 87.18349
97.39569, 87.63533
97.87781, 87.48495
98.35992, 87.57855
98.84204, 88.59930
99.32416, 90.49290
99.80627, 92.55954
100.2884, 93.97300
100.7705, 94.73042
101.2526, 94.57822
101.7347, 92.09859
102.2169, 89.57484
102.6990, 89.26817
103.1811, 91.67434
103.6632, 95.10397
104.1453, 96.80028
104.6274, 95.95425
105.1096, 95.41198
105.5917, 95.38506
106.0738, 95.84057
106.5559, 96.98873
107.0380, 99.07583
107.5201, 101.2792
108.0023, 101.5548
108.4844, 99.15250
108.9665, 97.93432
109.4486, 100.0922
109.9307, 104.5415
110.4128, 108.1654
110.8950, 109.2410
111.3771, 109.8217
111.8592, 113.4877
112.3413, 121.0813
112.8234, 128.8719
113.3055, 134.4701
113.7877, 138.0721
114.2698, 141.3731
114.7519, 145.1403
115.2340, 148.7561
115.7161, 151.1731
116.1982, 151.6650
116.6804, 152.6808
117.1625, 157.0462
117.6446, 165.1850
118.1267, 173.4211
118.6088, 180.0842
119.0909, 186.3224
119.5731, 193.1572
120.0552, 200.9581
120.5373, 209.0871
121.0194, 216.1268
121.5015, 221.0013
121.9836, 227.9434
122.4658, 239.3840
122.9479, 252.8810
123.4300, 266.0145
123.9121, 277.6644
124.3942, 289.0394
124.8763, 302.5900
125.3585, 317.5085
125.8406, 336.8549
126.3227, 363.0582
126.8048, 392.6544
127.2869, 422.0468
127.7690, 449.1595
128.2512, 474.7897
128.7333, 501.0992
129.2154, 527.1245
129.6975, 555.2856
130.1796, 587.0283
130.6617, 620.8134
131.1439, 654.2961
131.6260, 686.0303
132.1081, 716.3290
132.5902, 747.6395
133.0723, 787.2107
133.5544, 820.1682
134.0366, 841.0071
134.5187, 853.2000
135.0008, 862.5370
135.4829, 872.5786
135.9650, 883.3544
136.4471, 895.8793
136.9293, 910.4030
137.4114, 926.1677
137.8935, 941.9327
138.3756, 958.6688
138.8577, 978.7114
139.3398, 1003.826
139.8220, 1034.127
140.3041, 1067.094
140.7862, 1103.035
141.2683, 1140.613
141.7504, 1177.459
142.2325, 1214.711
142.7147, 1256.128
143.1968, 1304.930
143.6789, 1361.361
144.1610, 1421.449
144.6431, 1487.145
145.1252, 1554.125
145.6074, 1620.697
146.0895, 1686.555
146.5716, 1751.339
147.0537, 1815.226
147.5358, 1877.779
148.0179, 1936.165
148.5001, 1988.857
148.9822, 2038.574
149.4643, 2086.622
149.9464, 2133.501
150.4285, 2180.951
150.9106, 2234.810
151.3928, 2292.177
151.8749, 2331.683
152.3570, 2339.538
152.8391, 2336.552
153.3212, 2342.115
153.8033, 2357.788
154.2855, 2373.227
154.7676, 2378.167
155.2497, 2375.489
155.7318, 2377.610
156.2139, 2391.090
156.6960, 2408.028
157.1782, 2417.869
157.6603, 2418.879
158.1424, 2421.153
158.6245, 2433.491
159.1066, 2453.193
159.5887, 2474.695
160.0709, 2497.504
160.5530, 2520.971
161.0351, 2542.521
161.5172, 2560.382
161.9993, 2582.456
162.4814, 2619.345
162.9636, 2664.294
163.4457, 2705.902
163.9278, 2736.795
164.4099, 2762.671
164.8920, 2792.699
165.3741, 2826.386
165.8563, 2865.656
166.3384, 2916.274
166.8205, 2972.673
167.3026, 3025.608
167.7847, 3071.226
168.2668, 3111.255
168.7490, 3149.523
169.2311, 3186.405
169.7132, 3220.863
170.1953, 3253.760
170.6774, 3284.078
171.1595, 3309.359
171.6417, 3325.664
172.1238, 3337.374
172.6059, 3356.914
173.0880, 3390.192
173.5701, 3419.284
174.0522, 3435.742
174.5344, 3443.850
175.0165, 3448.404
175.4986, 3449.313
175.9807, 3449.695
176.4628, 3459.187
176.9449, 3482.915
177.4271, 3506.639
177.9092, 3526.200
178.3913, 3542.124
178.8734, 3554.521
179.3555, 3562.593
179.8376, 3568.138
180.3197, 3577.484
180.8019, 3595.722
181.2840, 3608.341
181.7661, 3604.831
182.2482, 3595.785
182.7303, 3595.406
183.2124, 3612.344
183.6946, 3639.451
184.1767, 3655.752
184.6588, 3654.729
185.1409, 3653.591
185.6230, 3653.739
186.1051, 3657.378
186.5873, 3668.714
187.0694, 3691.082
187.5515, 3718.349
188.0336, 3733.654
188.5157, 3728.138
188.9978, 3725.349
189.4800, 3729.438
189.9621, 3738.696
190.4442, 3752.750
190.9263, 3771.848
191.4084, 3792.729
191.8905, 3806.988
192.3727, 3810.133
192.8548, 3814.470
193.3369, 3820.601
193.8190, 3829.383
194.3011, 3843.061
194.7832, 3862.642
195.2654, 3884.046
195.7475, 3897.835
196.2296, 3899.180
196.7117, 3901.840
197.1938, 3905.725
197.6759, 3912.416
198.1581, 3924.447
198.6402, 3942.521
199.1223, 3963.031
199.6044, 3979.311
200.0865, 3989.947
200.5686, 3998.804
201.0508, 4003.736
201.5329, 4008.909
202.0150, 4017.073
202.4971, 4029.135
202.9792, 4044.650
203.4613, 4065.044
203.9435, 4098.983
204.4256, 4117.203
204.9077, 4103.710
205.3898, 4086.806
205.8719, 4088.578
206.3540, 4112.013
206.8362, 4140.975
207.3183, 4150.589
207.8004, 4125.649
208.2825, 4120.614
208.7646, 4148.355
209.2467, 4183.650
209.7289, 4214.613
210.2110, 4238.477
210.6931, 4257.266
211.1752, 4271.942
211.6573, 4279.627
212.1395, 4293.718
212.6216, 4320.386
213.1037, 4347.631
213.5858, 4368.272
214.0679, 4383.136
214.5500, 4398.684
215.0322, 4422.302
215.5143, 4456.050
215.9964, 4483.634
216.4785, 4496.791
216.9606, 4511.648
217.4427, 4532.424
217.9249, 4560.080
218.4070, 4595.760
218.8891, 4642.767
219.3712, 4701.770
219.8533, 4747.648
220.3354, 4771.081
220.8176, 4789.569
221.2997, 4803.007
221.7818, 4815.037
222.2639, 4831.505
222.7460, 4856.687
223.2281, 4890.053
223.7103, 4923.703
224.1924, 4960.938
224.6745, 4994.749
225.1566, 5023.632
225.6387, 5048.308
226.1208, 5068.850
226.6030, 5084.464
227.0851, 5097.667
227.5672, 5119.665
228.0493, 5162.270
228.5314, 5197.889
229.0135, 5215.511
229.4957, 5226.344
229.9778, 5244.223
230.4599, 5275.606
230.9420, 5314.085
231.4241, 5344.269
231.9062, 5363.704
232.3884, 5377.808
232.8705, 5377.956
233.3526, 5378.866
233.8347, 5394.562
234.3168, 5429.407
234.7989, 5475.380
235.2811, 5520.446
235.7632, 5569.189
236.2453, 5605.590
236.7274, 5620.639
237.2095, 5630.235
237.6916, 5643.942
238.1738, 5663.958
238.6559, 5687.838
239.1380, 5713.210
239.6201, 5740.662
240.1022, 5767.599
240.5843, 5798.108
241.0665, 5824.655
241.5486, 5839.032
242.0307, 5843.813
242.5128, 5851.574
242.9949, 5876.809
243.4770, 5921.610
243.9592, 5959.302
244.4413, 5987.306
244.9234, 6010.133
245.4055, 6024.660
245.8876, 6034.856
246.3697, 6049.974
246.8519, 6079.133
247.3340, 6120.176
247.8161, 6152.000
248.2982, 6171.365
248.7803, 6184.920
249.2624, 6188.514
249.7446, 6189.591
250.2267, 6200.756
250.7088, 6231.245
251.1909, 6273.580
251.6730, 6305.609
252.1551, 6321.955
252.6373, 6338.929
253.1194, 6358.747
253.6015, 6382.923
254.0836, 6415.387
254.5657, 6459.290
255.0478, 6505.216
255.5300, 6536.204
256.0121, 6547.186
256.4942, 6562.188
256.9763, 6591.016
257.4584, 6624.823
257.9406, 6659.171
258.4227, 6693.235
258.9048, 6724.695
259.3869, 6750.347
259.8690, 6769.971
260.3511, 6789.794
260.8333, 6811.232
261.3154, 6833.219
261.7975, 6853.371
262.2796, 6872.095
262.7617, 6895.183
263.2438, 6930.314
263.7260, 6974.940
264.2081, 7013.880
264.6902, 7045.249
265.1723, 7070.783
265.6544, 7091.645
266.1365, 7108.423
266.6187, 7122.393
267.1008, 7127.237
267.5829, 7130.924
268.0650, 7153.008
268.5471, 7198.636
269.0292, 7247.139
269.5114, 7286.620
269.9935, 7318.905
270.4756, 7345.663
270.9577, 7362.396
271.4398, 7377.785
271.9219, 7402.973
272.4041, 7438.315
272.8862, 7472.872
273.3683, 7499.386
273.8504, 7522.660
274.3325, 7551.983
274.8146, 7590.598
275.2968, 7630.272
275.7789, 7668.551
276.2610, 7704.129
276.7431, 7730.575
277.2252, 7742.392
277.7073, 7748.322
278.1895, 7761.273
278.6716, 7779.636
279.1537, 7808.289
279.6358, 7857.093
280.1179, 7915.562
280.6000, 7964.039
281.0822, 7997.328
281.5643, 8026.733
282.0464, 8067.238
282.5285, 8119.964
283.0106, 8166.669
283.4927, 8202.511
283.9749, 8233.207
284.4570, 8259.954
284.9391, 8284.173
285.4212, 8316.808
285.9033, 8369.854
286.3854, 8442.531
286.8676, 8499.638
287.3497, 8534.031
287.8318, 8561.481
288.3139, 8583.961
288.7960, 8605.227
289.2781, 8634.492
289.7603, 8677.944
290.2424, 8731.466
290.7245, 8776.897
291.2066, 8807.975
291.6887, 8839.396
292.1708, 8871.953
292.6530, 8906.522
293.1351, 8944.960
293.6172, 8987.828
294.0993, 9032.591
294.5814, 9074.113
295.0635, 9107.345
295.5457, 9147.544
296.0278, 9205.300
296.5099, 9261.659
296.9920, 9297.898
297.4741, 9315.365
297.9562, 9332.932
298.4384, 9370.456
298.9205, 9430.467
299.4026, 9494.191
299.8847, 9570.892
300.3668, 9641.947
300.8489, 9694.237
301.3310, 9736.129
301.8131, 9786.915
302.2953, 9861.788
302.7774, 9953.222
303.2595, 10021.11
303.7416, 10043.39
304.2237, 10074.02
304.7058, 10131.81
305.1880, 10199.35
305.6701, 10255.25
306.1522, 10291.12
306.6343, 10322.56
307.1164, 10380.62
307.5985, 10477.31
308.0807, 10554.86
308.5628, 10587.01
309.0449, 10607.49
309.5270, 10631.05
310.0091, 10660.64
310.4912, 10697.38
310.9734, 10746.67
311.4555, 10806.87
311.9376, 10859.15
312.4197, 10902.00
312.9018, 10936.03
313.3839, 10962.66
313.8661, 10982.19
314.3482, 10994.70
314.8303, 10999.91
315.3124, 10998.30
315.7945, 10990.94
316.2766, 10978.13
316.7588, 10957.58
317.2409, 10919.27
317.7230, 10875.52
318.2051, 10849.07
318.6872, 10854.36
319.1693, 10856.83
319.6515, 10821.77
320.1336, 10758.92
320.6157, 10715.27
321.0978, 10715.64
321.5799, 10728.22
322.0620, 10694.11
322.5442, 10604.54
323.0263, 10534.05
323.5084, 10521.47
323.9905, 10531.90
324.4726, 10517.02
324.9547, 10468.74
325.4369, 10415.60
325.9190, 10383.56
326.4011, 10375.03
326.8832, 10373.85
327.3653, 10397.62
327.8474, 10412.48
328.3296, 10388.75
328.8117, 10338.43
329.2938, 10300.02
329.7759, 10297.69
330.2580, 10321.55
330.7401, 10326.90
331.2223, 10293.32
331.7044, 10266.43
332.1865, 10250.75
332.6686, 10244.05
333.1507, 10245.90
333.6328, 10255.56
334.1150, 10268.18
334.5971, 10276.94
335.0792, 10281.50
335.5613, 10282.66
336.0434, 10283.65
336.5255, 10278.93
337.0077, 10263.69
337.4898, 10239.73
337.9719, 10212.86
338.4540, 10187.57
338.9361, 10163.54
339.4182, 10137.30
339.9004, 10104.03
340.3825, 10076.34
340.8646, 10068.98
341.3467, 10064.65
341.8288, 10039.14
342.3109, 9981.012
342.7931, 9909.929
343.2752, 9853.518
343.7573, 9812.640
344.2394, 9780.734
344.7215, 9769.093
345.2036, 9755.338
345.6858, 9716.668
346.1679, 9652.839
346.6500, 9593.315
347.1321, 9564.835
347.6142, 9554.767
348.0963, 9525.117
348.5785, 9466.769
349.0606, 9405.517
349.5427, 9363.620
350.0248, 9335.290
350.5069, 9304.102
350.9890, 9266.612
351.4712, 9225.524
351.9533, 9180.790
352.4354, 9133.381
352.9175, 9088.789
353.3996, 9050.696
353.8817, 9015.767
354.3639, 8972.718
354.8460, 8908.782
355.3281, 8864.394
355.8102, 8869.540
356.2923, 8889.577
356.7744, 8879.104
357.2566, 8829.791
357.7387, 8772.414
358.2208, 8742.689
358.7029, 8748.190
359.1850, 8738.944
359.6671, 8700.641
360.1493, 8664.126
360.6314, 8642.727
361.1135, 8633.985
361.5956, 8630.508
362.0777, 8628.093
362.5598, 8627.098
363.0420, 8629.044
363.5241, 8636.887
364.0062, 8642.945
364.4883, 8649.311
364.9704, 8651.949
365.4525, 8643.415
365.9347, 8623.814
366.4168, 8606.459
366.8989, 8606.290
367.3810, 8623.939
367.8631, 8650.096
368.3452, 8700.618
368.8274, 8739.613
369.3095, 8748.527
369.7916, 8733.211
370.2737, 8707.900
370.7558, 8677.391
371.2379, 8642.225
371.7201, 8603.926
372.2022, 8562.797
372.6843, 8516.890
373.1664, 8469.923
373.6485, 8414.063
374.1306, 8335.536
374.6128, 8226.032
375.0949, 8122.544
375.5770, 8051.557
376.0591, 7999.569
376.5412, 7940.276
377.0233, 7868.087
377.5055, 7790.259
377.9876, 7712.026
378.4697, 7633.439
378.9518, 7562.731
379.4339, 7497.774
379.9160, 7442.979
380.3982, 7409.419
380.8803, 7389.347
381.3624, 7362.782
381.8445, 7318.737
382.3266, 7261.528
382.8087, 7202.927
383.2909, 7129.018
383.7730, 7073.847
384.2551, 7049.408
384.7372, 7036.400
385.2193, 7019.919
385.7014, 6997.262
386.1836, 6973.791
386.6657, 6955.766
387.1478, 6943.764
387.6299, 6927.921
388.1120, 6914.408
388.5941, 6888.559
389.0763, 6830.947
389.5584, 6761.844
390.0405, 6714.756
390.5226, 6706.532
391.0047, 6717.265
391.4868, 6717.867
391.9690, 6708.097
392.4511, 6689.604
392.9332, 6654.597
393.4153, 6618.351
393.8974, 6598.951
394.3795, 6596.168
394.8617, 6586.944
395.3438, 6552.301
395.8259, 6506.683
396.3080, 6473.525
396.7901, 6455.146
397.2722, 6445.812
397.7544, 6447.748
398.2365, 6455.454
398.7186, 6442.772
399.2007, 6385.008
399.6828, 6335.085
400.1649, 6323.022
400.6471, 6330.100
401.1292, 6322.894
401.6113, 6290.264
402.0934, 6249.422
402.5755, 6226.051
403.0576, 6228.290
403.5398, 6223.995
404.0219, 6210.220
404.5040, 6193.587
404.9861, 6176.260
405.4682, 6158.891
405.9503, 6141.609
406.4325, 6124.060
406.9146, 6107.605
407.3967, 6098.630
407.8788, 6103.979
408.3609, 6102.598
408.8430, 6087.227
409.3252, 6066.239
409.8073, 6043.998
410.2894, 6021.791
410.7715, 6002.961
411.2536, 5991.481
411.7357, 5986.183
412.2179, 5980.868
412.7000, 5973.587
413.1821, 5970.121
413.6642, 5983.050
414.1463, 6002.126
414.6284, 6004.969
415.1106, 5977.363
415.5927, 5944.785
416.0748, 5924.705
416.5569, 5914.701
417.0390, 5907.556
417.5211, 5900.906
418.0033, 5896.325
418.4854, 5898.255
418.9675, 5912.813
419.4496, 5911.295
419.9317, 5875.149
420.4138, 5837.042
420.8960, 5819.069
421.3781, 5819.067
421.8602, 5824.645
422.3423, 5828.519
422.8244, 5830.133
423.3065, 5827.644
423.7887, 5826.153
424.2708, 5811.454
424.7529, 5769.287
425.2350, 5723.202
425.7171, 5694.124
426.1992, 5683.884
426.6814, 5677.568
427.1635, 5662.149
427.6456, 5637.980
428.1277, 5610.680
428.6098, 5579.948
429.0919, 5546.631
429.5741, 5505.604
430.0562, 5463.583
430.5383, 5432.854
431.0204, 5421.926
431.5025, 5410.592
431.9846, 5376.374
432.4668, 5326.860
432.9489, 5291.558
433.4310, 5280.951
433.9131, 5276.205
434.3952, 5253.016
434.8773, 5208.770
435.3595, 5175.875
435.8416, 5166.143
436.3237, 5159.244
436.8058, 5142.093
437.2879, 5117.417
437.7701, 5094.023
438.2522, 5076.546
438.7343, 5062.318
439.2164, 5044.931
439.6985, 5025.016
440.1806, 5000.455
440.6628, 4960.815
441.1449, 4925.372
441.6270, 4912.444
442.1091, 4917.097
442.5912, 4916.391
443.0733, 4889.671
443.5555, 4845.536
444.0376, 4818.576
444.5197, 4814.376
445.0018, 4811.719
445.4839, 4804.339
445.9660, 4793.482
446.4482, 4778.194
446.9303, 4757.340
447.4124, 4740.679
447.8945, 4743.065
448.3766, 4752.140
448.8587, 4737.692
449.3409, 4694.053
449.8230, 4649.528
450.3051, 4625.621
450.7872, 4621.089
451.2693, 4617.740
451.7514, 4619.052
452.2336, 4617.448
452.7157, 4607.915
453.1978, 4594.883
453.6799, 4585.326
454.1620, 4581.005
454.6441, 4577.308
455.1263, 4568.350
455.6084, 4553.619
456.0905, 4536.614
456.5726, 4509.871
457.0547, 4488.790
457.5368, 4484.726
458.0190, 4487.887
458.5011, 4481.375
458.9832, 4456.790
459.4653, 4426.276
459.9474, 4406.799
460.4295, 4398.560
460.9117, 4392.620
461.3938, 4387.878
461.8759, 4384.280
462.3580, 4383.016
462.8401, 4383.327
463.3222, 4380.804
463.8044, 4372.730
464.2865, 4362.498
464.7686, 4350.891
465.2507, 4339.250
465.7328, 4332.766
466.2149, 4334.053
466.6971, 4340.432
467.1792, 4346.995
467.6613, 4355.338
468.1434, 4360.194
468.6255, 4363.833
469.1076, 4362.151
469.5898, 4348.713
470.0719, 4327.394
470.5540, 4307.058
471.0361, 4291.825
471.5182, 4285.029
472.0003, 4300.518
472.4825, 4351.083
472.9646, 4388.708
473.4467, 4402.279
473.9288, 4399.477
474.4109, 4377.285
474.8930, 4338.714
475.3752, 4303.888
475.8573, 4283.518
476.3394, 4274.554
476.8215, 4274.685
477.3036, 4283.918
477.7857, 4291.670
478.2679, 4292.493
478.7500, 4288.629
479.2321, 4285.007
479.7142, 4280.594
480.1963, 4278.819
480.6784, 4282.190
481.1606, 4287.237
481.6427, 4291.533
482.1248, 4294.494
482.6069, 4296.048
483.0890, 4296.438
483.5711, 4295.075
484.0533, 4288.159
484.5354, 4270.043
485.0175, 4241.467
485.4996, 4271.624
485.9817, 4287.758
486.4638, 4290.621
486.9460, 4240.466
487.4281, 4258.772
487.9102, 4249.643
488.3923, 4239.389
488.8744, 4267.331
489.3565, 4224.888
489.8387, 4252.224
490.3208, 4251.706
490.8029, 4263.936
491.2850, 4248.560
491.7671, 4265.333
492.2492, 4291.430
492.7314, 4288.842
493.2135, 4275.157
493.6956, 4270.431
494.1777, 4276.167
494.6598, 4282.930
495.1419, 4284.095
495.6241, 4279.740
496.1062, 4269.842
496.5883, 4242.021
497.0704, 4226.595
497.5525, 4233.592
498.0346, 4248.583
498.5168, 4263.128
498.9989, 4274.324
499.4810, 4278.447
499.9631, 4267.692
500.4452, 4247.572
500.9273, 4240.262
501.4095, 4248.360
501.8916, 4258.255
502.3737, 4262.986
502.8558, 4266.935
503.3379, 4279.573
503.8200, 4305.814
504.3022, 4320.253
504.7843, 4304.440
505.2664, 4276.897
505.7485, 4256.926
506.2306, 4246.543
506.7127, 4243.114
507.1949, 4245.725
507.6770, 4252.600
508.1591, 4255.617
508.6412, 4244.253
509.1233, 4244.998
509.6054, 4274.862
510.0876, 4304.739
510.5697, 4310.286
511.0518, 4293.455
511.5339, 4274.736
512.0161, 4268.804
512.4982, 4271.572
512.9803, 4272.032
513.4624, 4269.797
513.9445, 4267.546
514.4266, 4266.021
514.9088, 4265.105
515.3909, 4266.002
515.8730, 4269.304
516.3551, 4267.212
516.8372, 4249.722
517.3193, 4231.448
517.8015, 4228.133
518.2836, 4237.190
518.7657, 4245.135
519.2478, 4244.825
519.7299, 4239.052
520.2120, 4234.575
520.6942, 4233.825
521.1763, 4229.575
521.6584, 4214.907
522.1405, 4203.580
522.6226, 4207.254
523.1047, 4220.385
523.5869, 4227.848
524.0690, 4220.417
524.5511, 4206.328
525.0332, 4198.627
525.5153, 4197.283
525.9974, 4197.908
526.4796, 4202.197
526.9617, 4203.693
527.4438, 4192.254
527.9259, 4169.721
528.4080, 4152.470
528.8901, 4140.162
529.3723, 4136.320
529.8544, 4152.190
530.3365, 4176.288
530.8186, 4182.886
531.3007, 4163.819
531.7828, 4140.379
532.2650, 4145.527
532.7471, 4188.124
533.2292, 4203.654
533.7113, 4160.509
534.1934, 4126.103
534.6755, 4130.416
535.1577, 4151.783
535.6398, 4158.743
536.1219, 4141.155
536.6040, 4119.769
537.0861, 4113.870
537.5682, 4119.710
538.0504, 4126.271
538.5325, 4132.615
539.0146, 4137.005
539.4967, 4138.203
539.9788, 4136.336
540.4609, 4132.245
540.9431, 4122.936
541.4252, 4115.693
541.9073, 4114.860
542.3894, 4114.897
542.8715, 4110.439
543.3536, 4101.110
543.8358, 4089.800
544.3179, 4078.766
544.8000, 4067.635
545.2821, 4053.740
545.7642, 4033.999
546.2463, 4019.990
546.7285, 4017.302
547.2106, 4019.775
547.6926, 4025.607
548.1747, 4033.751
548.6569, 4036.387
549.1390, 4028.764
549.6211, 4014.837
550.1032, 3994.037
550.5853, 3969.523
551.0674, 3955.925
551.5496, 3960.124
552.0317, 3971.798
552.5138, 3973.958
552.9959, 3962.514
553.4780, 3955.341
553.9601, 3954.465
554.4423, 3955.003
554.9244, 3958.485
555.4065, 3961.009
555.8886, 3954.870
556.3707, 3936.915
556.8528, 3918.537
557.3350, 3916.237
557.8171, 3927.504
558.2992, 3931.296
558.7813, 3924.241
559.2634, 3914.232
559.7455, 3905.362
560.2277, 3897.596
560.7098, 3890.663
561.1919, 3884.656
