##NAMES=Mimetite
##RRUFFID=R050527
##IDEAL CHEMISTRY=Pb^2+^_5_(As^5+^O_4_)_3_Cl
##LOCALITY=Tsumeb mine, Tsumeb, Otavi District, Oshikoto, Namibia
##OWNER=RRUFF
##SOURCE=University of Arizona Mineral Museum
##DESCRIPTION=Yellow hexagonal prisms, monoclinic polytype
##STATUS=The identification of this mineral has been confirmed by X-ray diffraction and chemical analysis
##URL=rruff.info/R050527
##MEASURED CHEMISTRY=Pb_5.00_(As_1.00_O_4_)_3_Cl_1.00_
92.37695, 1689.197
92.85907, 1674.014
93.34119, 1677.702
93.82330, 1685.894
94.30542, 1689.511
94.78754, 1688.759
95.26965, 1686.701
95.75177, 1683.832
96.23389, 1682.040
96.71600, 1679.679
97.19812, 1676.975
97.68024, 1674.810
98.16235, 1671.280
98.64447, 1664.165
99.12659, 1654.275
99.60870, 1635.202
100.0908, 1610.416
100.5729, 1581.970
101.0551, 1550.551
101.5372, 1515.909
102.0193, 1478.410
102.5014, 1441.665
102.9835, 1404.850
103.4656, 1368.675
103.9478, 1332.956
104.4299, 1297.626
104.9120, 1262.912
105.3941, 1229.009
105.8762, 1195.546
106.3583, 1163.289
106.8405, 1130.961
107.3226, 1100.066
107.8047, 1071.702
108.2868, 1045.913
108.7689, 1021.423
109.2510, 996.9039
109.7332, 972.2014
110.2153, 949.3211
110.6974, 929.2831
111.1795, 911.0375
111.6616, 892.7994
112.1437, 874.1497
112.6259, 855.9627
113.1080, 838.9221
113.5901, 823.0357
114.0722, 808.2191
114.5543, 794.8810
115.0364, 782.9073
115.5185, 771.1915
116.0007, 758.9876
116.4828, 747.4085
116.9649, 737.1847
117.4470, 728.4556
117.9291, 720.4545
118.4112, 711.9096
118.8934, 701.9836
119.3755, 693.7515
119.8576, 688.3107
120.3397, 683.9286
120.8218, 679.2518
121.3039, 673.7311
121.7861, 667.7750
122.2682, 662.5212
122.7503, 658.3922
123.2324, 654.6468
123.7145, 651.2350
124.1966, 648.1688
124.6788, 645.5588
125.1609, 643.4805
125.6430, 641.8590
126.1251, 640.0472
126.6072, 637.5449
127.0893, 635.3674
127.5715, 633.9374
128.0536, 633.2126
128.5357, 632.9462
129.0178, 633.0988
129.4999, 633.6102
129.9821, 633.9799
130.4642, 634.1278
130.9463, 634.1642
131.4284, 634.2372
131.9105, 634.3868
132.3926, 634.4160
132.8748, 633.9227
133.3569, 633.1943
133.8390, 632.7958
134.3211, 632.8182
134.8032, 633.3333
135.2853, 634.6871
135.7674, 637.4639
136.2496, 640.3441
136.7317, 642.3297
137.2138, 643.8122
137.6959, 645.7731
138.1780, 649.2906
138.6601, 654.5932
139.1423, 659.0491
139.6244, 661.9396
140.1065, 664.5521
140.5886, 667.2354
141.0707, 670.0723
141.5528, 673.0728
142.0350, 676.2467
142.5171, 679.6263
142.9992, 683.1437
143.4813, 687.0404
143.9634, 690.8680
144.4455, 694.0774
144.9277, 696.6072
145.4098, 699.2326
145.8919, 703.2781
146.3740, 709.8401
146.8561, 715.8793
147.3382, 721.0335
147.8204, 725.7011
148.3025, 730.3619
148.7846, 735.1885
149.2667, 740.0778
149.7488, 744.8424
150.2309, 749.4464
150.7131, 754.1414
151.1952, 759.2067
151.6773, 764.4837
152.1594, 769.2831
152.6415, 772.9899
153.1236, 776.4901
153.6058, 781.1905
154.0879, 787.3899
154.5700, 793.8104
155.0521, 799.3173
155.5342, 803.8450
156.0163, 808.4905
156.4985, 813.8186
156.9806, 819.3188
157.4627, 824.5858
157.9448, 829.5123
158.4269, 834.2191
158.9090, 838.7165
159.3912, 842.5170
159.8733, 847.3829
160.3554, 854.7350
160.8375, 862.7238
161.3196, 869.7518
161.8017, 875.0717
162.2839, 879.1752
162.7660, 883.4182
163.2481, 887.4290
163.7302, 892.1962
164.2123, 898.8549
164.6944, 906.0451
165.1766, 912.0134
165.6587, 915.7552
166.1408, 917.6020
166.6229, 919.8040
167.1050, 922.3018
167.5871, 925.2228
168.0693, 929.8494
168.5514, 934.9417
169.0335, 938.1240
169.5156, 937.7161
169.9977, 933.8909
170.4798, 930.0587
170.9620, 926.0208
171.4441, 922.1644
171.9262, 919.0880
172.4083, 916.5383
172.8904, 913.3790
173.3725, 908.7916
173.8547, 902.7260
174.3368, 896.1644
174.8189, 888.9420
175.3010, 881.3044
175.7831, 873.5013
176.2652, 865.5302
176.7474, 857.1996
177.2295, 848.3904
177.7116, 839.0774
178.1937, 829.4083
178.6758, 819.2119
179.1579, 808.7187
179.6401, 798.2791
180.1222, 788.1263
180.6043, 777.4293
181.0864, 765.4885
181.5685, 752.7244
182.0506, 739.8308
182.5328, 727.1047
183.0149, 714.4969
183.4970, 701.7726
183.9791, 689.1661
184.4612, 676.0844
184.9433, 661.9635
185.4255, 647.3295
185.9076, 632.9749
186.3897, 619.4724
186.8718, 606.7502
187.3539, 594.3577
187.8360, 582.6448
188.3182, 570.8639
188.8003, 558.5814
189.2824, 546.0612
189.7645, 533.8007
190.2466, 522.2538
190.7287, 511.3902
191.2109, 500.9047
191.6930, 490.6618
192.1751, 480.8419
192.6572, 471.6648
193.1393, 463.0375
193.6214, 454.6419
194.1036, 446.2506
194.5857, 437.7805
195.0678, 429.7575
195.5499, 422.2945
196.0320, 415.0468
196.5141, 407.8077
196.9963, 400.6207
197.4784, 393.6529
197.9605, 387.1107
198.4426, 381.0586
198.9247, 375.1441
199.4068, 369.2959
199.8890, 363.6226
200.3711, 358.2291
200.8532, 353.1018
201.3353, 348.1330
201.8174, 343.2093
202.2995, 338.3335
202.7817, 333.5350
203.2638, 328.8238
203.7459, 324.1812
204.2280, 319.4927
204.7101, 314.7115
205.1922, 310.2141
205.6744, 306.4948
206.1565, 303.3926
206.6386, 300.2147
207.1207, 296.7041
207.6028, 293.0919
208.0849, 289.7417
208.5671, 286.7296
209.0492, 283.7340
209.5313, 280.3954
210.0134, 276.8660
210.4955, 273.4818
210.9776, 270.2920
211.4598, 267.3294
211.9419, 264.7441
212.4240, 262.7939
212.9061, 260.6988
213.3882, 257.7491
213.8703, 254.3495
214.3525, 251.2601
214.8346, 249.1297
215.3167, 247.6086
215.7988, 245.3873
216.2809, 241.9248
216.7630, 238.5687
217.2451, 235.8906
217.7273, 233.6984
218.2094, 231.6523
218.6915, 229.5715
219.1736, 227.4651
219.6557, 225.4098
220.1378, 223.4284
220.6200, 221.4876
221.1021, 219.4803
221.5842, 217.5173
222.0663, 215.8113
222.5484, 214.5903
223.0305, 213.7585
223.5127, 212.3729
223.9948, 209.6471
224.4769, 207.1810
224.9590, 205.4377
225.4411, 204.1682
225.9232, 202.9148
226.4054, 201.3507
226.8875, 199.5278
227.3696, 197.9443
227.8517, 196.8382
228.3338, 195.7441
228.8159, 194.5455
229.2981, 193.2930
229.7802, 192.0890
230.2623, 190.9879
230.7444, 189.9920
231.2265, 189.1583
231.7086, 188.9724
232.1908, 188.4138
232.6729, 186.9463
233.1550, 184.9202
233.6371, 182.9715
234.1192, 181.4582
234.6013, 180.3741
235.0835, 179.7361
235.5656, 180.0110
236.0477, 180.1262
236.5298, 179.5813
237.0119, 178.6315
237.4940, 177.8559
237.9762, 177.5981
238.4583, 177.7425
238.9404, 177.7399
239.4225, 177.7317
239.9046, 177.4660
240.3867, 176.6496
240.8689, 175.4905
241.3510, 174.4998
241.8331, 173.9299
242.3152, 173.7037
242.7973, 173.5920
243.2794, 173.8014
243.7616, 173.7937
244.2437, 173.1487
244.7258, 172.0699
245.2079, 171.1664
245.6900, 170.6962
246.1721, 170.5502
246.6543, 170.5369
247.1364, 170.8001
247.6185, 170.8218
248.1006, 170.2246
248.5827, 169.1447
249.0648, 167.9952
249.5470, 166.7159
250.0291, 165.6867
250.5112, 165.5516
250.9933, 166.4695
251.4754, 167.2237
251.9576, 166.9630
252.4397, 165.9115
252.9218, 165.0376
253.4039, 164.5687
253.8860, 164.4120
254.3681, 164.5144
254.8503, 164.8758
255.3324, 165.1348
255.8145, 164.9944
256.2966, 164.5330
256.7787, 164.1302
257.2608, 163.7833
257.7430, 163.6192
258.2251, 163.8154
258.7072, 164.3126
259.1893, 164.7121
259.6714, 164.6552
260.1535, 164.2428
260.6357, 164.0514
261.1178, 164.2639
261.5999, 164.5407
262.0820, 164.5712
262.5641, 164.4594
263.0462, 164.5267
263.5284, 165.1531
264.0105, 166.2036
264.4926, 166.8582
264.9747, 166.8744
265.4568, 166.8123
265.9389, 166.8303
266.4211, 166.9802
266.9032, 167.3825
267.3853, 168.2418
267.8674, 169.4007
268.3495, 170.1450
268.8316, 170.1754
269.3138, 170.2276
269.7959, 170.4444
270.2780, 170.8780
270.7601, 171.6396
271.2422, 172.8545
271.7243, 174.3687
272.2065, 175.6234
272.6886, 176.3525
273.1707, 177.2678
273.6528, 178.6670
274.1349, 180.2911
274.6170, 181.7957
275.0992, 183.0120
275.5813, 184.1242
276.0634, 185.5885
276.5455, 187.5625
277.0276, 189.6281
277.5097, 191.5439
277.9919, 193.5733
278.4740, 195.9956
278.9561, 198.9199
279.4382, 202.1435
279.9203, 205.2386
280.4024, 207.7643
280.8846, 211.1381
281.3667, 215.9957
281.8488, 221.2756
282.3309, 226.0810
282.8130, 230.2321
283.2951, 234.3152
283.7773, 239.2246
284.2594, 245.2645
284.7415, 251.4160
285.2236, 257.4861
285.7057, 263.7696
286.1878, 270.3994
286.6700, 277.3972
287.1521, 284.8065
287.6342, 292.7598
288.1163, 301.3030
288.5984, 310.0382
289.0805, 318.3863
289.5627, 327.3663
290.0448, 337.5270
290.5269, 348.8137
291.0090, 360.7921
291.4911, 373.1454
291.9732, 385.8764
292.4554, 398.6201
292.9375, 410.8424
293.4196, 423.6407
293.9017, 437.4024
294.3838, 452.0432
294.8659, 467.3866
295.3481, 483.3524
295.8302, 499.9318
296.3123, 516.1315
296.7944, 531.2972
297.2765, 546.8273
297.7586, 563.0032
298.2408, 579.6934
298.7229, 596.6514
299.2050, 613.7050
299.6871, 630.7292
300.1692, 647.1248
300.6513, 661.8936
301.1335, 677.1322
301.6156, 693.4218
302.0977, 709.9703
302.5798, 726.1198
303.0619, 741.5409
303.5440, 756.1882
304.0262, 770.1671
304.5083, 783.0458
304.9904, 795.6739
305.4725, 807.7897
305.9546, 819.8185
306.4367, 832.2164
306.9189, 845.0328
307.4010, 858.0131
307.8831, 870.9034
308.3652, 884.1570
308.8473, 895.9346
309.3294, 906.2474
309.8116, 915.4310
310.2937, 923.8336
310.7758, 931.3754
311.2579, 937.6120
311.7400, 942.1879
312.2221, 945.3011
312.7043, 945.2484
313.1864, 942.2657
313.6685, 936.4677
314.1506, 926.9261
314.6327, 914.4992
315.1148, 901.0035
315.5970, 887.8054
316.0791, 874.8087
316.5612, 860.6531
317.0433, 844.1965
317.5254, 827.7513
318.0075, 811.1061
318.4897, 794.9592
318.9718, 780.1367
319.4539, 767.0457
319.9360, 755.7414
320.4181, 746.3107
320.9002, 740.0456
321.3824, 734.3673
321.8645, 728.4280
322.3466, 723.3418
322.8287, 720.3428
323.3108, 719.8190
323.7929, 720.9553
324.2751, 722.3598
324.7572, 723.6985
325.2393, 726.0772
325.7214, 729.6145
326.2035, 733.9464
326.6856, 738.9333
327.1678, 744.5033
327.6499, 750.6162
328.1320, 757.3622
328.6141, 765.0204
329.0962, 771.9617
329.5783, 777.6114
330.0605, 783.2018
330.5426, 789.7103
331.0247, 796.6709
331.5068, 802.7476
331.9889, 806.8815
332.4710, 809.1819
332.9532, 811.4171
333.4353, 814.5865
333.9174, 816.5798
334.3995, 816.9160
334.8816, 815.8294
335.3637, 813.5485
335.8459, 810.1875
336.3280, 805.9568
336.8101, 801.6269
337.2922, 797.9556
337.7743, 792.9000
338.2564, 786.4975
338.7386, 778.6702
339.2206, 769.2634
339.7028, 758.2423
340.1849, 745.9852
340.6670, 732.9282
341.1491, 718.8294
341.6312, 704.5824
342.1133, 690.2257
342.5955, 675.7879
343.0776, 661.3545
343.5597, 646.8753
344.0418, 632.1969
344.5239, 617.2412
345.0060, 602.0353
345.4882, 586.0752
345.9703, 567.4739
346.4524, 549.9523
346.9345, 535.0506
347.4166, 521.9139
347.8987, 508.8459
348.3809, 494.8154
348.8630, 480.2011
349.3451, 466.8956
349.8272, 455.5630
350.3093, 444.3933
350.7914, 432.6613
351.2736, 421.0504
351.7557, 410.4105
352.2378, 400.9931
352.7199, 392.2840
353.2020, 383.3386
353.6841, 373.6989
354.1663, 365.2626
354.6484, 359.0746
355.1305, 353.4573
355.6126, 347.3391
356.0947, 340.7326
356.5768, 334.5529
357.0590, 329.8922
357.5411, 326.8489
358.0232, 323.4464
358.5053, 319.1529
358.9874, 315.1105
359.4695, 311.7532
359.9517, 309.0020
360.4338, 306.6873
360.9159, 304.7698
361.3980, 303.1815
361.8801, 301.6392
362.3622, 299.9843
362.8444, 298.7663
363.3265, 298.2570
363.8086, 298.2027
364.2907, 298.3557
364.7728, 298.6329
365.2549, 299.1515
365.7371, 300.1220
366.2192, 301.5898
366.7013, 303.1254
367.1834, 304.7309
367.6655, 306.2905
368.1476, 307.7560
368.6298, 309.1214
369.1119, 310.3123
369.5940, 311.3706
370.0761, 312.2384
370.5582, 312.6099
371.0403, 312.4149
371.5225, 311.7773
372.0046, 310.9189
372.4867, 309.7386
372.9688, 307.8913
373.4509, 304.8463
373.9330, 301.3177
374.4152, 298.4001
374.8973, 296.1711
375.3794, 293.9708
375.8615, 291.2669
376.3436, 288.5231
376.8257, 286.4544
377.3079, 285.2871
377.7900, 284.3830
378.2721, 283.1622
378.7542, 281.7729
379.2363, 280.8659
379.7184, 280.6381
380.2006, 280.9390
380.6827, 281.6406
381.1648, 282.7163
381.6469, 283.9573
382.1290, 285.2005
382.6111, 286.6176
383.0933, 288.4582
383.5754, 290.7648
384.0575, 293.3685
384.5396, 296.2037
385.0217, 299.2690
385.5038, 302.4932
385.9860, 306.0122
386.4681, 309.5501
386.9502, 312.9128
387.4323, 316.1367
387.9144, 319.4938
388.3965, 323.2134
388.8787, 326.9550
389.3608, 329.7189
389.8429, 331.1978
390.3250, 332.6049
390.8071, 334.1134
391.2892, 335.7121
391.7714, 337.4707
392.2535, 339.3863
392.7356, 341.1979
393.2177, 342.5142
393.6998, 343.1300
394.1819, 344.3448
394.6641, 346.5491
395.1462, 348.9487
395.6283, 350.9453
396.1104, 352.7211
396.5925, 354.8575
397.0746, 357.7518
397.5568, 361.3079
398.0389, 365.1263
398.5210, 369.2833
399.0031, 373.5906
399.4852, 378.0389
399.9673, 382.6324
400.4495, 387.4052
400.9316, 392.3561
401.4137, 397.5032
401.8958, 402.9597
402.3779, 409.1030
402.8600, 414.4842
403.3422, 418.7686
403.8243, 422.7344
404.3064, 426.9111
404.7885, 431.1472
405.2706, 434.9275
405.7527, 437.8646
406.2349, 439.9889
406.7170, 441.4472
407.1991, 442.7277
407.6812, 442.4625
408.1633, 440.1090
408.6454, 436.3267
409.1276, 431.8675
409.6097, 427.0165
410.0918, 421.4118
410.5739, 414.3750
411.0560, 405.7709
411.5381, 396.6009
412.0203, 386.6305
412.5024, 376.4498
412.9845, 366.2328
413.4666, 356.1087
413.9487, 346.3745
414.4308, 337.2866
414.9130, 328.7943
415.3951, 320.5959
415.8772, 312.4235
416.3593, 305.2228
416.8414, 300.1182
417.3235, 296.1158
417.8057, 291.9493
418.2878, 287.2298
418.7699, 282.4260
419.2520, 277.8003
419.7341, 273.3880
420.2162, 269.5880
420.6984, 266.7404
421.1805, 264.3073
421.6626, 261.7598
422.1447, 259.1031
422.6268, 256.0145
423.1089, 251.9338
423.5911, 247.5520
424.0732, 243.9189
424.5553, 241.1677
425.0374, 238.4240
425.5195, 235.0823
426.0016, 231.1658
426.4838, 227.1042
426.9659, 222.6314
427.4480, 218.3012
427.9301, 214.4225
428.4122, 210.8730
428.8943, 207.4291
429.3765, 203.9963
429.8586, 200.6123
430.3407, 197.3316
430.8228, 194.0994
431.3049, 191.1324
431.7870, 188.4615
432.2692, 186.0499
432.7513, 184.0128
433.2334, 182.2654
433.7155, 180.4558
434.1976, 178.2957
434.6797, 175.8190
435.1619, 173.4624
435.6440, 171.2684
436.1261, 169.1418
436.6082, 167.0322
437.0903, 164.9987
437.5724, 163.1538
438.0546, 161.5292
438.5367, 159.9421
439.0188, 158.0761
439.5009, 155.8099
439.9830, 153.6575
440.4651, 151.7198
440.9473, 149.8022
441.4294, 147.8180
441.9115, 145.7813
442.3936, 143.7613
442.8757, 141.8276
443.3578, 139.9371
443.8400, 137.9948
444.3221, 135.9598
444.8042, 133.9568
445.2863, 131.8906
445.7684, 129.9440
446.2505, 128.4465
446.7327, 127.5039
447.2148, 126.4656
447.6969, 124.5796
448.1790, 122.0365
448.6611, 119.9266
449.1432, 118.5861
449.6254, 117.3804
450.1075, 115.7139
450.5896, 113.7279
451.0717, 111.8264
451.5538, 110.1010
452.0359, 108.5209
452.5181, 107.1011
453.0002, 105.8231
453.4823, 104.5959
453.9644, 103.4008
454.4465, 102.2051
454.9286, 100.9218
455.4108, 99.53974
455.8929, 98.14634
456.3750, 96.76438
456.8571, 95.38099
457.3392, 93.88963
457.8214, 92.31193
458.3035, 90.91970
458.7856, 89.98610
459.2677, 89.51663
459.7498, 88.87718
460.2319, 87.84901
460.7141, 86.92953
461.1962, 86.43448
461.6783, 86.07699
462.1604, 85.38820
462.6425, 84.20125
463.1246, 82.85017
463.6068, 81.92947
464.0889, 81.66369
464.5710, 81.25024
465.0531, 80.59889
465.5352, 79.89564
466.0173, 79.18768
466.4995, 78.49819
466.9816, 77.85326
467.4637, 77.26656
467.9458, 76.73945
468.4279, 76.28651
468.9100, 75.94347
469.3922, 75.57778
469.8743, 75.17809
470.3564, 74.71985
470.8385, 74.11213
471.3206, 73.34871
471.8027, 72.69852
472.2849, 72.50695
472.7670, 72.61974
473.2491, 72.42771
473.7312, 71.80901
474.2133, 71.07716
474.6954, 70.34999
475.1776, 69.68133
475.6597, 69.23344
476.1418, 69.16230
476.6239, 69.16087
477.1060, 69.00777
477.5881, 68.75227
478.0703, 68.56303
478.5524, 68.52078
479.0345, 68.47461
479.5166, 68.19073
479.9987, 67.60783
480.4808, 67.05901
480.9630, 66.54974
481.4451, 66.09113
481.9272, 65.70702
482.4093, 65.38490
482.8914, 65.08372
483.3735, 64.77517
483.8557, 64.47517
484.3378, 64.24020
484.8199, 64.14098
485.3020, 64.00790
485.7841, 63.81460
486.2662, 63.59943
486.7484, 63.41499
487.2305, 63.25036
487.7126, 63.02794
488.1947, 62.65670
488.6768, 62.14849
489.1589, 61.69700
489.6411, 61.30529
490.1232, 60.96856
490.6053, 60.64706
491.0874, 60.38615
491.5695, 60.25907
492.0516, 60.29294
492.5338, 60.37489
493.0159, 60.45189
493.4980, 60.50482
493.9801, 60.31147
494.4622, 59.70409
494.9443, 59.10478
495.4265, 58.91485
495.9086, 59.01418
496.3907, 59.09399
496.8728, 59.12539
497.3549, 59.07023
497.8370, 58.88080
498.3192, 58.57478
498.8013, 58.19112
499.2834, 57.71850
499.7655, 57.25016
500.2476, 56.93520
500.7297, 56.79454
501.2119, 56.74029
501.6940, 56.87919
502.1761, 57.01131
502.6582, 56.97196
503.1403, 56.79413
503.6224, 56.62628
504.1045, 56.56586
504.5866, 56.56670
505.0688, 56.45869
505.5509, 56.15027
506.0330, 55.87272
506.5151, 55.69097
506.9972, 55.50358
507.4793, 55.19584
507.9615, 54.78937
508.4436, 54.43189
508.9257, 54.26421
509.4078, 54.25216
509.8899, 54.18352
510.3720, 54.01011
510.8542, 53.88545
511.3363, 54.02031
511.8184, 54.15242
512.3005, 53.94663
512.7827, 53.30994
513.2648, 52.71046
513.7469, 52.55493
514.2290, 52.71049
514.7111, 52.78423
515.1932, 52.71529
515.6754, 52.62674
516.1575, 52.65060
516.6396, 52.73440
517.1217, 52.64857
517.6038, 52.19184
518.0859, 51.78951
518.5681, 51.67000
519.0502, 51.72303
519.5323, 51.80365
520.0144, 51.86776
520.4965, 51.83270
520.9786, 51.56928
521.4608, 51.00808
521.9429, 50.64517
522.4250, 50.53671
522.9071, 50.52670
523.3892, 50.67914
523.8713, 50.85986
524.3535, 50.85463
524.8356, 50.57821
525.3177, 50.18135
525.7998, 49.90350
526.2819, 49.75515
526.7640, 49.67483
527.2462, 49.69253
527.7283, 49.74760
528.2104, 49.88591
528.6925, 50.03452
529.1746, 50.01802
529.6567, 49.68911
530.1389, 49.27860
530.6210, 49.11286
531.1031, 49.17829
531.5852, 49.23823
532.0673, 49.23125
532.5494, 49.18464
533.0316, 49.11117
533.5137, 49.01316
533.9958, 48.95784
534.4779, 49.02198
534.9600, 49.08156
535.4421, 48.98069
535.9243, 48.78107
536.4064, 48.71544
536.8885, 48.90818
537.3706, 49.22834
537.8527, 49.39860
538.3348, 49.35186
538.8170, 49.27937
539.2991, 49.09785
539.7812, 48.96717
540.2633, 49.03613
540.7454, 49.23702
541.2275, 49.37746
541.7097, 49.33397
542.1918, 49.17648
542.6739, 49.08150
543.1560, 49.05463
543.6381, 49.07213
544.1202, 49.17365
544.6024, 49.28394
545.0845, 49.39229
545.5666, 49.47889
546.0487, 49.46216
546.5308, 49.18217
547.0129, 48.83337
547.4951, 48.77298
547.9772, 48.99208
548.4593, 49.14119
548.9414, 49.03340
549.4235, 48.82774
549.9056, 48.83976
550.3878, 49.11017
550.8699, 49.30260
551.3520, 49.33532
551.8341, 49.28023
552.3162, 49.11568
552.7983, 48.90349
553.2805, 48.84780
553.7626, 49.08437
554.2447, 49.48747
554.7268, 49.69014
555.2089, 49.58373
555.6910, 49.45992
556.1732, 49.28036
556.6553, 49.12775
557.1374, 49.10448
557.6195, 49.15905
558.1016, 49.12830
558.5837, 48.89395
559.0659, 48.53133
559.5480, 48.18541
560.0301, 47.83800
560.5122, 47.62745
560.9943, 47.64455
561.4764, 47.77321
561.9586, 47.92225
562.4407, 48.08598
562.9228, 48.19789
563.4049, 48.24101
563.8870, 48.21558
564.3691, 48.07537
564.8513, 47.84945
565.3334, 47.69590
565.8155, 47.70104
566.2976, 47.77092
566.7797, 47.71599
567.2618, 47.41723
567.7440, 47.27863
568.2261, 47.42275
568.7082, 47.61358
569.1903, 47.75572
569.6724, 47.82959
570.1545, 47.82185
570.6367, 47.72216
571.1188, 47.56462
571.6009, 47.40794
572.0830, 47.23020
572.5651, 47.13367
573.0472, 47.19102
573.5294, 47.27358
574.0115, 47.30313
574.4936, 47.30064
574.9757, 47.34211
575.4578, 47.53298
575.9399, 47.67961
576.4221, 47.44526
576.9042, 46.92067
577.3863, 46.68151
577.8684, 46.97792
578.3505, 47.34582
578.8326, 47.17943
579.3148, 46.42469
579.7969, 45.99327
580.2790, 46.09005
580.7611, 46.32685
581.2432, 46.66439
581.7253, 46.97373
582.2075, 47.01490
582.6896, 46.71785
583.1717, 46.32151
583.6538, 46.16439
584.1359, 46.28577
584.6180, 46.36367
585.1002, 46.32644
585.5823, 46.33284
586.0643, 46.53954
586.5464, 46.77462
587.0286, 46.75675
587.5107, 46.38507
