##NAMES=Mimetite
##RRUFFID=R050527
##IDEAL CHEMISTRY=Pb^2+^_5_(As^5+^O_4_)_3_Cl
##LOCALITY=Tsumeb mine, Tsumeb, Otavi District, Oshikoto, Namibia
##OWNER=RRUFF
##SOURCE=University of Arizona Mineral Museum
##DESCRIPTION=Yellow hexagonal prisms, monoclinic polytype
##STATUS=The identification of this mineral has been confirmed by X-ray diffraction and chemical analysis
##URL=rruff.info/R050527
##MEASURED CHEMISTRY=Pb_5.00_(As_1.00_O_4_)_3_Cl_1.00_
91.40820, 21.88203
91.89032, 22.06643
92.37244, 21.92426
92.85455, 21.52151
93.33667, 21.25212
93.81879, 21.50845
94.30090, 22.13797
94.78302, 22.69000
95.26514, 23.05429
95.74725, 23.28943
96.22937, 23.58467
96.71149, 23.95876
97.19360, 24.15197
97.67572, 23.70251
98.15784, 22.63332
98.63995, 21.92964
99.12207, 21.94918
99.60419, 22.61233
100.0863, 23.25076
100.5684, 23.89422
101.0505, 24.45513
101.5327, 24.78260
102.0148, 24.78659
102.4969, 24.84801
102.9790, 25.05260
103.4611, 25.36826
103.9432, 25.99945
104.4253, 26.97599
104.9075, 28.25095
105.3896, 29.70264
105.8717, 31.33856
106.3538, 33.16030
106.8359, 35.17029
107.3180, 37.09283
107.8002, 39.64768
108.2823, 42.85176
108.7644, 46.68115
109.2465, 51.19786
109.7286, 56.82218
110.2107, 62.77197
110.6929, 68.81368
111.1750, 73.62070
111.6571, 79.90937
112.1392, 88.32199
112.6213, 98.64821
113.1034, 109.4293
113.5856, 119.7816
114.0677, 131.0103
114.5498, 143.9396
115.0319, 158.1658
115.5140, 174.7538
115.9961, 194.0093
116.4783, 215.9317
116.9604, 239.9030
117.4425, 266.1639
117.9246, 294.5342
118.4067, 324.5488
118.8888, 357.9075
119.3710, 391.7837
119.8531, 425.0175
120.3352, 457.4883
120.8173, 488.4526
121.2994, 517.2126
121.7815, 543.8831
122.2637, 568.7674
122.7458, 591.6497
123.2279, 612.7328
123.7100, 631.3645
124.1921, 646.8132
124.6742, 662.5887
125.1564, 681.3655
125.6385, 703.0071
126.1206, 727.1899
126.6027, 753.2966
127.0848, 781.6918
127.5669, 813.1115
128.0491, 848.1258
128.5312, 885.2431
129.0133, 922.6127
129.4954, 959.9932
129.9775, 998.2798
130.4596, 1039.600
130.9418, 1082.480
131.4239, 1122.746
131.9060, 1159.567
132.3881, 1193.480
132.8702, 1224.550
133.3523, 1252.800
133.8345, 1279.921
134.3166, 1308.054
134.7987, 1337.385
135.2808, 1363.427
135.7629, 1384.930
136.2450, 1402.806
136.7272, 1420.714
137.2093, 1438.621
137.6914, 1456.975
138.1735, 1476.375
138.6556, 1496.833
139.1377, 1517.675
139.6199, 1538.887
140.1020, 1560.289
140.5841, 1582.379
141.0662, 1604.625
141.5483, 1627.915
142.0304, 1653.255
142.5126, 1680.261
142.9947, 1709.050
143.4768, 1734.278
143.9589, 1752.326
144.4410, 1770.521
144.9231, 1789.297
145.4053, 1808.102
145.8874, 1826.506
146.3695, 1844.436
146.8516, 1862.041
147.3337, 1878.780
147.8158, 1893.924
148.2980, 1910.947
148.7801, 1931.764
149.2622, 1954.218
149.7443, 1973.420
150.2264, 1988.213
150.7085, 2001.248
151.1907, 2013.324
151.6728, 2025.788
152.1549, 2035.583
152.6370, 2040.145
153.1191, 2041.878
153.6012, 2046.646
154.0834, 2059.539
154.5655, 2071.862
155.0476, 2079.918
155.5297, 2079.141
156.0118, 2079.474
156.4939, 2082.036
156.9761, 2086.646
157.4582, 2092.740
157.9403, 2100.323
158.4224, 2109.222
158.9045, 2119.470
159.3866, 2133.539
159.8688, 2145.979
160.3509, 2153.798
160.8330, 2158.119
161.3151, 2164.106
161.7972, 2174.246
162.2793, 2186.436
162.7615, 2199.071
163.2436, 2211.145
163.7257, 2224.109
164.2078, 2239.044
164.6899, 2255.716
165.1720, 2272.531
165.6541, 2289.827
166.1363, 2306.433
166.6184, 2321.195
167.1005, 2334.502
167.5826, 2345.221
168.0647, 2352.274
168.5468, 2355.819
169.0290, 2357.863
169.5111, 2360.026
169.9932, 2361.358
170.4753, 2360.597
170.9574, 2355.291
171.4395, 2348.997
171.9217, 2346.266
172.4038, 2347.094
172.8859, 2344.722
173.3680, 2331.569
173.8501, 2311.939
174.3322, 2293.153
174.8144, 2280.370
175.2965, 2268.960
175.7786, 2252.860
176.2607, 2231.679
176.7428, 2210.358
177.2249, 2193.914
177.7071, 2180.894
178.1892, 2167.347
178.6713, 2152.316
179.1534, 2135.397
179.6355, 2115.463
180.1176, 2092.098
180.5998, 2067.446
181.0819, 2043.310
181.5640, 2019.604
182.0461, 1995.105
182.5282, 1969.630
183.0103, 1943.114
183.4925, 1915.232
183.9746, 1885.911
184.4567, 1856.278
184.9388, 1828.341
185.4209, 1801.511
185.9030, 1773.844
186.3852, 1742.984
186.8673, 1710.326
187.3494, 1679.768
187.8315, 1651.818
188.3136, 1625.260
188.7957, 1597.347
189.2779, 1568.460
189.7600, 1540.240
190.2421, 1514.496
190.7242, 1490.764
191.2063, 1465.192
191.6884, 1437.126
192.1706, 1408.724
192.6527, 1382.672
193.1348, 1359.100
193.6169, 1335.894
194.0990, 1311.398
194.5811, 1285.848
195.0633, 1261.428
195.5454, 1238.315
196.0275, 1216.143
196.5096, 1195.156
196.9917, 1175.283
197.4738, 1156.227
197.9560, 1138.384
198.4381, 1121.849
198.9202, 1103.746
199.4023, 1083.507
199.8844, 1062.459
200.3665, 1043.396
200.8487, 1026.305
201.3308, 1010.702
201.8129, 996.6362
202.2950, 984.2123
202.7771, 972.0261
203.2592, 959.8936
203.7414, 947.9364
204.2235, 936.4899
204.7056, 925.9260
205.1877, 914.8060
205.6698, 901.8896
206.1519, 886.6101
206.6341, 873.2488
207.1162, 862.5587
207.5983, 853.4407
208.0804, 843.4966
208.5625, 832.5631
209.0446, 821.5970
209.5268, 810.9957
210.0089, 800.7127
210.4910, 791.0942
210.9731, 782.3652
211.4552, 774.1335
211.9373, 765.6030
212.4195, 756.7666
212.9016, 747.7748
213.3837, 738.6045
213.8658, 729.0141
214.3479, 720.0246
214.8300, 711.5740
215.3121, 703.7094
215.7943, 696.7189
216.2764, 691.1855
216.7585, 685.3949
217.2406, 678.2900
217.7227, 669.2250
218.2048, 661.1706
218.6870, 654.4811
219.1691, 648.6443
219.6512, 642.2938
220.1333, 635.1399
220.6154, 627.9483
221.0975, 620.8331
221.5797, 613.7087
222.0618, 607.1311
222.5439, 601.1427
223.0260, 595.7101
223.5081, 590.7283
223.9902, 586.7497
224.4724, 582.3439
224.9545, 576.9477
225.4366, 570.0751
225.9187, 563.3994
226.4008, 556.7325
226.8829, 550.3035
227.3651, 544.5027
227.8472, 539.1075
228.3293, 534.6147
228.8114, 531.5865
229.2935, 531.1644
229.7757, 528.5309
230.2578, 522.4418
230.7399, 514.7639
231.2220, 509.1242
231.7041, 506.3825
232.1862, 504.3610
232.6684, 502.3671
233.1505, 500.4297
233.6326, 498.4619
234.1147, 496.7905
234.5968, 494.9069
235.0789, 491.7419
235.5611, 486.1576
236.0432, 481.1671
236.5253, 477.8734
237.0074, 476.9198
237.4895, 475.5072
237.9716, 473.4420
238.4538, 471.0424
238.9359, 468.8409
239.4180, 466.9927
239.9001, 465.0573
240.3822, 462.8918
240.8643, 460.4937
241.3465, 457.9218
241.8286, 454.8318
242.3107, 451.8074
242.7928, 449.7921
243.2749, 449.5481
243.7570, 448.9850
244.2392, 447.4348
244.7213, 444.6825
245.2034, 442.1718
245.6855, 439.8031
246.1676, 437.7388
246.6497, 436.2867
247.1319, 436.0053
247.6140, 435.3145
248.0961, 433.6332
248.5782, 430.7741
249.0603, 428.7488
249.5424, 428.0810
250.0246, 427.7394
250.5067, 426.4916
250.9888, 423.7144
251.4709, 421.2620
251.9530, 419.5877
252.4351, 418.7161
252.9173, 417.8459
253.3994, 416.9819
253.8815, 416.0779
254.3636, 415.0094
254.8457, 413.4923
255.3278, 412.4669
255.8100, 412.3531
256.2921, 413.1040
256.7742, 412.9717
257.2563, 411.5342
257.7384, 409.7817
258.2205, 408.5195
258.7026, 407.7558
259.1848, 407.5222
259.6669, 408.2275
260.1490, 409.6400
260.6311, 409.4577
261.1132, 406.8060
261.5953, 404.0071
262.0775, 402.9771
262.5596, 404.4777
263.0417, 405.4783
263.5238, 405.5339
264.0059, 404.8225
264.4880, 404.1544
264.9702, 403.4427
265.4523, 402.9384
265.9344, 402.7890
266.4165, 402.9992
266.8986, 403.6070
267.3807, 404.9190
267.8629, 406.5243
268.3450, 406.9160
268.8271, 405.5871
269.3092, 404.3156
269.7913, 404.0156
270.2734, 404.7741
270.7556, 406.2222
271.2377, 408.6068
271.7198, 411.4940
272.2019, 413.9308
272.6840, 415.9018
273.1661, 417.5142
273.6483, 418.4756
274.1304, 418.5384
274.6125, 420.0295
275.0946, 423.2599
275.5767, 427.5323
276.0588, 431.6043
276.5410, 435.3469
277.0231, 439.4553
277.5052, 444.4297
277.9873, 450.3109
278.4694, 454.9780
278.9515, 458.0146
279.4337, 460.6864
279.9158, 464.7638
280.3979, 470.2981
280.8800, 476.4596
281.3621, 482.8530
281.8442, 489.5349
282.3264, 496.8494
282.8085, 504.8556
283.2906, 513.3190
283.7727, 521.7674
284.2548, 530.1965
284.7369, 539.6550
285.2191, 550.6044
285.7012, 562.7682
286.1833, 575.3882
286.6654, 588.4228
287.1475, 602.2649
287.6296, 617.2264
288.1118, 633.3036
288.5939, 649.7933
289.0760, 666.3152
289.5581, 683.2818
290.0402, 702.1439
290.5223, 722.9982
291.0045, 745.2283
291.4866, 768.2367
291.9687, 792.2862
292.4508, 818.7787
292.9329, 848.5016
293.4150, 880.0831
293.8972, 912.2665
294.3793, 945.1089
294.8614, 979.3738
295.3435, 1014.764
295.8256, 1051.735
296.3077, 1091.437
296.7899, 1133.809
297.2720, 1178.527
297.7541, 1224.640
298.2362, 1271.970
298.7183, 1320.802
299.2004, 1372.083
299.6826, 1424.545
300.1647, 1476.918
300.6468, 1528.725
301.1289, 1580.764
301.6110, 1636.067
302.0931, 1692.602
302.5753, 1746.719
303.0574, 1794.816
303.5395, 1839.921
304.0216, 1885.872
304.5037, 1933.233
304.9858, 1977.623
305.4680, 2013.897
305.9501, 2045.046
306.4322, 2076.014
306.9143, 2108.403
307.3964, 2141.857
307.8785, 2177.306
308.3607, 2214.392
308.8428, 2250.959
309.3249, 2285.258
309.8070, 2318.368
310.2891, 2351.642
310.7712, 2387.680
311.2534, 2421.654
311.7355, 2452.047
312.2176, 2478.320
312.6997, 2497.452
313.1818, 2508.949
313.6639, 2511.838
314.1461, 2504.821
314.6282, 2486.066
315.1103, 2460.682
315.5924, 2429.715
316.0745, 2394.118
316.5566, 2355.284
317.0388, 2313.067
317.5209, 2268.730
318.0030, 2221.604
318.4851, 2170.385
318.9672, 2121.731
319.4493, 2078.225
319.9315, 2038.719
320.4136, 2001.103
320.8957, 1959.458
321.3778, 1924.922
321.8599, 1903.052
322.3420, 1895.043
322.8242, 1888.267
323.3063, 1877.227
323.7884, 1867.642
324.2705, 1864.501
324.7526, 1871.404
325.2347, 1881.866
325.7169, 1894.514
326.1990, 1909.458
326.6811, 1927.684
327.1632, 1951.842
327.6453, 1977.536
328.1274, 2002.320
328.6096, 2023.741
329.0917, 2047.388
329.5738, 2073.958
330.0559, 2102.700
330.5380, 2131.902
331.0201, 2164.361
331.5023, 2194.247
331.9844, 2218.879
332.4665, 2235.323
332.9486, 2253.348
333.4307, 2274.443
333.9128, 2296.257
334.3950, 2314.629
334.8771, 2330.156
335.3592, 2341.371
335.8413, 2347.219
336.3234, 2347.343
336.8055, 2346.420
337.2877, 2345.648
337.7698, 2342.174
338.2519, 2332.605
338.7340, 2316.398
339.2161, 2296.384
339.6982, 2272.687
340.1803, 2245.602
340.6624, 2218.929
341.1446, 2193.127
341.6267, 2165.214
342.1088, 2131.828
342.5909, 2093.147
343.0730, 2052.286
343.5551, 2009.906
344.0373, 1965.742
344.5194, 1920.081
345.0015, 1872.482
345.4836, 1824.281
345.9657, 1776.564
346.4478, 1728.983
346.9300, 1679.202
347.4121, 1626.038
347.8942, 1572.951
348.3763, 1523.406
348.8584, 1477.362
349.3405, 1433.236
349.8227, 1390.826
350.3048, 1349.759
350.7869, 1308.915
351.2690, 1268.432
351.7511, 1229.310
352.2332, 1192.564
352.7154, 1158.273
353.1975, 1126.716
353.6796, 1098.757
354.1617, 1072.731
354.6438, 1046.411
355.1259, 1020.128
355.6081, 995.8361
356.0902, 974.6725
356.5723, 955.9664
357.0544, 938.8524
357.5365, 923.4570
358.0186, 909.3138
358.5008, 896.2335
358.9829, 884.2020
359.4650, 873.1959
359.9471, 862.9727
360.4292, 853.9468
360.9113, 846.2651
361.3935, 839.9832
361.8756, 835.3836
362.3577, 833.2449
362.8398, 832.6525
363.3219, 832.5657
363.8040, 833.0417
364.2862, 833.6727
364.7683, 833.1224
365.2504, 831.6652
365.7325, 834.0448
366.2146, 844.3903
366.6967, 856.8085
367.1789, 867.6379
367.6610, 874.7050
368.1431, 882.3015
368.6252, 892.1177
369.1073, 902.9230
369.5894, 910.7132
370.0716, 914.1608
370.5537, 916.0325
371.0358, 917.5628
371.5179, 919.7252
372.0000, 918.4949
372.4821, 913.1951
372.9643, 904.9835
373.4464, 895.2803
373.9285, 883.9966
374.4106, 871.5135
374.8927, 857.6750
375.3748, 842.4453
375.8570, 826.5734
376.3391, 809.1400
376.8212, 792.6850
377.3033, 779.5326
377.7854, 770.2311
378.2675, 760.6465
378.7497, 749.9212
379.2318, 738.7942
379.7139, 728.5051
380.1960, 719.0792
380.6781, 711.2518
381.1602, 705.9003
381.6424, 702.7618
382.1245, 699.8947
382.6066, 696.9600
383.0887, 695.2709
383.5708, 696.5707
384.0529, 700.6008
384.5351, 706.2301
385.0172, 713.7672
385.4993, 722.1768
385.9814, 729.8378
386.4635, 736.7218
386.9456, 743.6787
387.4278, 751.7096
387.9099, 760.0851
388.3920, 767.7253
388.8741, 774.1904
389.3562, 780.0129
389.8383, 786.1045
390.3205, 792.0854
390.8026, 796.7206
391.2847, 798.1933
391.7668, 798.8177
392.2489, 800.3058
392.7310, 802.9150
393.2132, 806.1132
393.6953, 809.4162
394.1774, 813.1891
394.6595, 817.9170
395.1416, 824.5076
395.6237, 831.3123
396.1059, 837.2697
396.5880, 842.5162
397.0701, 849.3871
397.5522, 859.0451
398.0343, 869.9454
398.5164, 881.1534
398.9986, 891.6163
399.4807, 903.6681
399.9628, 917.4608
400.4449, 932.8781
400.9270, 949.8107
401.4091, 968.7646
401.8913, 988.3192
402.3734, 1007.831
402.8555, 1027.005
403.3376, 1048.011
403.8197, 1071.763
404.3018, 1096.273
404.7840, 1119.655
405.2661, 1142.192
405.7482, 1162.878
406.2303, 1182.015
406.7124, 1199.120
407.1945, 1213.010
407.6767, 1223.702
408.1588, 1231.012
408.6409, 1235.130
409.1230, 1235.926
409.6051, 1232.140
410.0872, 1223.631
410.5694, 1210.615
411.0515, 1192.513
411.5336, 1169.797
412.0157, 1145.713
412.4978, 1121.744
412.9799, 1097.345
413.4621, 1070.332
413.9442, 1040.575
414.4263, 1012.171
414.9084, 988.1559
415.3905, 967.5545
415.8727, 948.4047
416.3548, 930.2388
416.8369, 913.2538
417.3190, 897.5037
417.8011, 883.0603
418.2832, 869.8395
418.7654, 857.9424
419.2475, 847.2873
419.7296, 837.8476
420.2117, 829.4266
420.6938, 822.7921
421.1759, 819.9595
421.6581, 818.3686
422.1402, 815.2687
422.6223, 809.7606
423.1044, 802.9658
423.5865, 795.0287
424.0686, 786.0298
424.5508, 776.1816
425.0329, 765.2828
425.5150, 753.7842
425.9971, 742.0403
426.4792, 731.0905
426.9613, 717.7090
427.4435, 700.5912
427.9256, 681.8629
428.4077, 664.9832
428.8898, 650.3747
429.3719, 636.2527
429.8540, 622.1497
430.3362, 608.1124
430.8183, 593.6888
431.3004, 578.7008
431.7825, 564.0721
432.2646, 550.4980
432.7467, 538.0267
433.2289, 526.3521
433.7110, 515.6439
434.1931, 505.7381
434.6752, 496.4848
435.1573, 487.8716
435.6394, 479.7963
436.1216, 472.4990
436.6037, 465.6183
437.0858, 458.3287
437.5679, 450.5635
438.0500, 443.0912
438.5321, 437.2423
439.0142, 432.0288
439.4963, 425.6631
439.9785, 416.8109
440.4606, 407.7381
440.9427, 400.5966
441.4248, 394.8282
441.9069, 388.8708
442.3890, 381.9603
442.8712, 374.6253
443.3533, 366.9258
443.8354, 358.6162
444.3175, 351.2531
444.7996, 346.2471
445.2817, 342.1519
445.7639, 337.4125
446.2460, 331.2427
446.7281, 324.9442
447.2102, 318.3047
447.6923, 311.5177
448.1744, 306.2129
448.6566, 303.8300
449.1387, 301.3936
449.6208, 297.5589
450.1029, 291.8400
450.5850, 286.0374
451.0671, 280.0323
451.5493, 274.1401
452.0314, 268.8955
452.5135, 264.4864
452.9956, 260.1132
453.4777, 255.6022
453.9598, 251.0128
454.4420, 246.4690
454.9241, 242.0099
455.4062, 237.5995
455.8883, 233.1665
456.3704, 228.7722
456.8525, 224.7945
457.3347, 221.3926
457.8168, 218.2398
458.2989, 215.1529
458.7810, 212.0518
459.2631, 208.8020
459.7452, 205.0928
460.2274, 201.2996
460.7095, 197.7258
461.1916, 194.3631
461.6737, 191.5434
462.1558, 189.9651
462.6379, 188.7151
463.1201, 186.8692
463.6022, 183.8622
464.0843, 181.1155
464.5664, 179.4853
465.0485, 178.4241
465.5306, 177.0595
466.0128, 175.1201
466.4949, 172.9155
466.9770, 170.1795
467.4591, 166.8755
467.9412, 164.7537
468.4233, 164.7701
468.9055, 165.1489
469.3876, 164.8914
469.8697, 163.8217
470.3518, 162.4973
470.8339, 160.8641
471.3160, 159.0229
471.7982, 157.0532
472.2803, 154.8346
472.7624, 152.9690
473.2445, 151.6927
473.7266, 150.9486
474.2087, 150.6152
474.6909, 150.7619
475.1730, 150.7284
475.6551, 149.7397
476.1372, 148.0408
476.6193, 146.7044
477.1014, 145.9824
477.5836, 145.4003
478.0657, 144.2965
478.5478, 142.8405
479.0299, 141.5428
479.5120, 140.5689
479.9941, 139.8937
480.4763, 139.7941
480.9584, 140.1690
481.4405, 140.0603
481.9226, 138.4394
482.4047, 136.4119
482.8868, 134.8867
483.3690, 134.2849
483.8511, 133.7248
484.3332, 133.0464
484.8153, 132.2410
485.2974, 131.2795
485.7795, 130.0374
486.2617, 128.7760
486.7438, 127.4296
487.2259, 126.0049
487.7080, 125.0866
488.1901, 124.9384
488.6722, 124.9442
489.1544, 124.7200
489.6365, 124.1825
490.1186, 123.7872
490.6007, 123.6479
491.0828, 123.5073
491.5649, 122.8562
492.0471, 121.6717
492.5292, 120.6055
493.0113, 119.8471
493.4934, 119.3758
493.9755, 119.3238
494.4576, 119.6613
494.9398, 119.7434
495.4219, 118.7287
495.9040, 117.2107
496.3861, 116.4454
496.8682, 116.7111
497.3503, 116.9209
497.8325, 115.8944
498.3146, 114.2776
498.7967, 113.0505
499.2788, 113.1156
499.7609, 113.1919
500.2430, 112.4550
500.7252, 111.1277
501.2073, 110.1892
501.6894, 110.4531
502.1715, 110.7639
502.6536, 110.5217
503.1357, 109.3993
503.6179, 108.5312
504.1000, 108.1752
504.5821, 107.9353
505.0642, 107.4147
505.5463, 106.5105
506.0284, 105.5211
506.5106, 104.3532
506.9927, 103.1786
507.4748, 102.7295
507.9569, 103.1987
508.4390, 103.4490
508.9211, 102.5789
509.4033, 100.8151
509.8854, 100.2194
510.3675, 100.8969
510.8496, 101.8542
511.3317, 102.2355
511.8138, 102.1230
512.2960, 101.7107
512.7781, 100.9749
513.2602, 100.0916
513.7423, 99.24125
514.2244, 98.38712
514.7065, 97.43884
515.1887, 95.80355
515.6708, 94.49052
516.1529, 94.50356
516.6350, 95.81123
517.1171, 96.67506
517.5992, 96.11648
518.0814, 95.15145
518.5635, 94.43253
519.0456, 94.14095
519.5277, 93.93533
520.0098, 93.96880
520.4919, 94.00920
520.9741, 93.66551
521.4562, 92.64087
521.9383, 91.85563
522.4204, 91.65421
522.9025, 91.88578
523.3846, 91.42947
523.8668, 90.06592
524.3489, 88.94724
524.8310, 89.07926
525.3131, 90.26063
525.7952, 90.63410
526.2773, 90.02809
526.7595, 89.17033
527.2416, 88.94198
527.7237, 89.12348
528.2058, 89.15397
528.6879, 88.86768
529.1700, 88.36585
529.6522, 87.54482
530.1343, 86.56334
530.6164, 85.85515
531.0985, 85.89964
531.5806, 86.08720
532.0627, 86.01334
532.5449, 85.62939
533.0270, 85.35512
533.5091, 85.40407
533.9912, 85.54350
534.4733, 85.61166
534.9554, 85.74339
535.4376, 85.56467
535.9197, 84.77414
536.4018, 83.81965
536.8839, 83.57359
537.3660, 84.35004
537.8481, 84.97065
538.3303, 85.05567
538.8124, 84.73151
539.2945, 84.72200
539.7766, 85.06373
540.2587, 85.40981
540.7408, 85.54432
541.2230, 85.49201
541.7051, 85.28320
542.1872, 84.89643
542.6693, 84.55483
543.1514, 84.60005
543.6335, 84.82915
544.1157, 84.84617
544.5978, 84.34949
545.0799, 83.86285
545.5620, 83.79875
546.0441, 84.03091
546.5262, 84.24696
547.0084, 84.44975
547.4905, 84.50254
547.9726, 84.19622
548.4547, 83.46834
548.9368, 83.19496
549.4189, 83.83768
549.9011, 84.63808
550.3832, 85.19192
550.8653, 85.50880
551.3474, 85.50253
551.8295, 84.99305
552.3116, 84.36934
552.7938, 84.24894
553.2759, 84.68184
553.7580, 85.14622
554.2401, 85.55556
554.7222, 85.86598
555.2043, 85.98745
555.6865, 85.91734
556.1686, 85.63101
556.6507, 84.93932
557.1328, 84.09313
557.6149, 83.41885
558.0970, 82.93517
558.5792, 82.66954
559.0613, 82.82105
559.5434, 83.11842
560.0255, 83.27599
560.5076, 83.11707
560.9897, 83.01108
561.4719, 83.20080
561.9540, 83.49534
562.4361, 83.57480
562.9182, 83.12711
563.4003, 82.77459
563.8824, 82.75711
564.3646, 82.97937
564.8467, 82.69173
565.3288, 81.61608
565.8109, 80.59818
566.2930, 80.04368
566.7751, 79.96383
567.2573, 80.17680
567.7394, 80.72531
568.2215, 81.37423
568.7036, 82.06594
569.1857, 82.68765
569.6678, 82.78280
570.1500, 82.13537
570.6321, 81.23003
571.1142, 80.39951
571.5963, 79.74301
572.0784, 79.48436
572.5605, 80.01302
573.0427, 80.71243
573.5248, 81.38058
574.0069, 81.95750
574.4890, 82.15803
574.9711, 81.45420
575.4532, 80.70554
575.9354, 80.36285
576.4175, 80.57700
576.8996, 80.75459
577.3817, 80.97301
577.8638, 81.07766
578.3459, 80.82500
578.8281, 80.01468
579.3102, 79.74150
579.7923, 80.28559
580.2744, 81.17606
580.7565, 81.39392
581.2386, 80.98830
581.7208, 80.85825
582.2029, 81.60833
582.6850, 82.66194
583.1671, 82.92051
583.6492, 82.49052
584.1313, 82.00625
584.6135, 81.72169
585.0956, 81.65655
585.5776, 81.97051
586.0598, 82.73931
586.5419, 83.20679
