##NAMES=Mimetite
##RRUFFID=R060920
##IDEAL CHEMISTRY=Pb^2+^_5_(As^5+^O_4_)_3_Cl
##LOCALITY=Tsumeb mine, Tsumeb, Otavi District, Oshikoto, Namibia
##OWNER=RRUFF
##SOURCE=Marcus Origlieri
##DESCRIPTION=Yellow to brownish hexagonal prism, monoclinic polytype
##STATUS=The identification of this mineral has been made only by X-ray diffraction.
##URL=rruff.info/R060920
114.2913, 1467.707
114.7734, 1636.376
115.2555, 1804.860
115.7376, 1964.598
116.2198, 2107.331
116.7019, 2227.014
117.1840, 2332.662
117.6661, 2424.622
118.1482, 2502.661
118.6303, 2579.841
119.1124, 2651.711
119.5946, 2728.147
120.0767, 2821.380
120.5588, 2944.709
121.0409, 3080.880
121.5230, 3222.175
122.0051, 3368.951
122.4873, 3511.613
122.9694, 3642.317
123.4515, 3762.338
123.9336, 3873.337
124.4157, 3984.437
124.8979, 4084.836
125.3800, 4159.600
125.8621, 4204.969
126.3442, 4226.357
126.8263, 4221.961
127.3084, 4194.458
127.7905, 4163.468
128.2727, 4148.864
128.7548, 4143.220
129.2369, 4124.750
129.7190, 4078.864
130.2011, 4021.020
130.6832, 3986.249
131.1654, 3975.690
131.6475, 3976.628
132.1296, 3973.454
132.6117, 3967.408
133.0938, 3973.479
133.5759, 4000.483
134.0581, 4046.298
134.5402, 4091.474
135.0223, 4134.536
135.5044, 4180.830
135.9865, 4239.411
136.4686, 4310.971
136.9508, 4387.267
137.4329, 4465.871
137.9150, 4546.506
138.3971, 4625.389
138.8792, 4702.012
139.3613, 4777.301
139.8434, 4855.866
140.3256, 4941.690
140.8077, 5023.630
141.2898, 5094.892
141.7719, 5151.487
142.2540, 5207.880
142.7361, 5265.033
143.2183, 5323.356
143.7004, 5383.237
144.1825, 5452.994
144.6646, 5515.000
145.1467, 5549.880
145.6288, 5530.078
146.1110, 5527.691
146.5931, 5561.361
147.0752, 5638.775
147.5573, 5698.494
148.0394, 5728.421
148.5215, 5745.774
149.0037, 5772.155
149.4858, 5821.696
149.9679, 5865.496
150.4500, 5894.314
150.9321, 5895.663
151.4142, 5911.009
151.8964, 5944.277
152.3785, 5991.787
152.8606, 6046.266
153.3427, 6121.331
153.8248, 6193.652
154.3069, 6253.297
154.7890, 6283.574
155.2712, 6326.161
155.7533, 6398.149
156.2354, 6489.531
156.7175, 6567.594
157.1996, 6605.827
157.6817, 6641.787
158.1639, 6697.854
158.6460, 6798.765
159.1281, 6900.041
159.6102, 6985.772
160.0923, 7058.005
160.5744, 7138.108
161.0566, 7248.080
161.5387, 7362.438
162.0208, 7458.191
162.5029, 7504.120
162.9850, 7549.009
163.4671, 7617.224
163.9493, 7709.800
164.4314, 7803.506
164.9135, 7881.637
165.3956, 7955.377
165.8777, 8039.566
166.3598, 8170.835
166.8420, 8294.761
167.3241, 8368.479
167.8062, 8381.303
168.2883, 8383.882
168.7704, 8410.049
169.2525, 8450.163
169.7346, 8484.758
170.2168, 8508.376
170.6989, 8519.833
171.1810, 8516.654
171.6631, 8496.413
172.1452, 8467.144
172.6273, 8435.638
173.1095, 8400.831
173.5916, 8358.194
174.0737, 8300.874
174.5558, 8234.792
175.0379, 8169.849
175.5201, 8110.300
176.0022, 8047.916
176.4843, 7967.798
176.9664, 7873.385
177.4485, 7785.111
177.9306, 7724.900
178.4128, 7681.876
178.8949, 7632.260
179.3770, 7566.394
179.8591, 7492.619
180.3412, 7426.313
180.8233, 7366.694
181.3055, 7301.602
181.7876, 7214.781
182.2697, 7112.282
182.7518, 7010.651
183.2339, 6919.515
183.7160, 6832.567
184.1982, 6736.570
184.6803, 6630.720
185.1624, 6523.110
185.6445, 6422.960
186.1266, 6329.391
186.6087, 6231.477
187.0908, 6123.412
187.5730, 6007.032
188.0551, 5893.501
188.5372, 5781.438
189.0193, 5672.319
189.5014, 5569.009
189.9835, 5470.182
190.4657, 5366.632
190.9478, 5247.205
191.4299, 5114.969
191.9120, 5002.471
192.3941, 4915.643
192.8762, 4839.473
193.3584, 4748.233
193.8405, 4641.953
194.3226, 4530.729
194.8047, 4415.360
195.2868, 4296.642
195.7689, 4197.341
196.2511, 4122.593
196.7332, 4062.905
197.2153, 3996.926
197.6974, 3923.750
198.1795, 3848.577
198.6616, 3773.728
199.1438, 3698.351
199.6259, 3627.026
200.1080, 3559.925
200.5901, 3497.124
201.0722, 3441.773
201.5543, 3395.195
202.0364, 3349.677
202.5186, 3296.254
203.0007, 3232.346
203.4828, 3180.678
203.9649, 3149.306
204.4470, 3132.963
204.9291, 3103.106
205.4113, 3056.119
205.8934, 3004.160
206.3755, 2957.492
206.8576, 2916.840
207.3397, 2877.866
207.8218, 2839.274
208.3040, 2801.367
208.7861, 2767.847
209.2682, 2739.853
209.7503, 2715.051
210.2324, 2692.265
210.7145, 2673.410
211.1967, 2651.004
211.6788, 2621.764
212.1609, 2585.557
212.6430, 2555.801
213.1251, 2536.757
213.6072, 2519.047
214.0894, 2489.468
214.5715, 2442.196
215.0536, 2398.262
215.5357, 2364.400
216.0178, 2341.313
216.4999, 2319.221
216.9820, 2299.017
217.4642, 2278.988
217.9463, 2255.947
218.4284, 2228.260
218.9105, 2201.491
219.3926, 2177.361
219.8747, 2156.414
220.3569, 2137.068
220.8390, 2122.386
221.3211, 2107.166
221.8032, 2080.351
222.2853, 2035.144
222.7674, 1992.007
223.2496, 1958.588
223.7317, 1936.448
224.2138, 1918.383
224.6959, 1906.470
225.1780, 1897.522
225.6601, 1884.063
226.1423, 1862.731
226.6244, 1842.849
227.1065, 1828.696
227.5886, 1822.904
228.0707, 1815.380
228.5528, 1805.036
229.0350, 1793.140
229.5171, 1783.317
229.9992, 1777.622
230.4813, 1770.457
230.9634, 1759.333
231.4455, 1742.684
231.9276, 1725.144
232.4098, 1706.261
232.8919, 1686.437
233.3740, 1667.463
233.8561, 1647.759
234.3382, 1631.068
234.8203, 1619.652
235.3025, 1617.348
235.7846, 1612.089
236.2667, 1601.369
236.7488, 1587.556
237.2309, 1579.692
237.7130, 1581.161
238.1952, 1584.091
238.6773, 1584.783
239.1594, 1583.605
239.6415, 1579.374
240.1236, 1571.181
240.6057, 1559.820
241.0879, 1548.214
241.5700, 1535.510
242.0521, 1523.874
242.5342, 1514.977
243.0163, 1511.480
243.4984, 1504.804
243.9806, 1491.937
244.4627, 1475.062
244.9448, 1465.099
245.4269, 1465.409
245.9090, 1468.238
246.3911, 1469.334
246.8732, 1469.005
247.3554, 1466.002
247.8375, 1459.300
248.3196, 1449.609
248.8017, 1440.569
249.2838, 1431.197
249.7659, 1423.928
250.2481, 1420.577
250.7302, 1423.127
251.2123, 1425.416
251.6944, 1427.346
252.1765, 1428.758
252.6586, 1428.740
253.1408, 1427.819
253.6229, 1424.910
254.1050, 1418.694
254.5871, 1406.970
255.0692, 1397.546
255.5513, 1391.774
256.0334, 1389.101
256.5156, 1385.640
256.9977, 1380.092
257.4798, 1375.598
257.9619, 1374.563
258.4440, 1378.412
258.9261, 1382.012
259.4083, 1385.277
259.8904, 1387.907
260.3725, 1387.361
260.8546, 1380.386
261.3367, 1375.336
261.8188, 1380.126
262.3010, 1401.316
262.7831, 1412.545
263.2652, 1406.652
263.7473, 1387.923
264.2294, 1380.970
264.7115, 1391.100
265.1937, 1403.440
265.6758, 1406.384
266.1579, 1396.498
266.6400, 1389.662
267.1221, 1388.430
267.6042, 1391.764
268.0864, 1393.941
268.5685, 1393.281
269.0506, 1395.201
269.5327, 1405.567
270.0148, 1427.674
270.4969, 1443.136
270.9791, 1447.333
271.4612, 1443.708
271.9433, 1448.364
272.4254, 1464.921
272.9075, 1479.886
273.3896, 1480.476
273.8718, 1463.094
274.3539, 1455.051
274.8360, 1461.900
275.3181, 1479.470
275.8002, 1493.457
276.2823, 1503.663
276.7645, 1510.888
277.2466, 1513.995
277.7287, 1512.098
278.2108, 1514.900
278.6929, 1524.454
279.1750, 1538.794
279.6572, 1551.280
280.1393, 1560.939
280.6214, 1573.662
281.1035, 1596.334
281.5856, 1629.182
282.0677, 1654.952
282.5499, 1669.833
283.0320, 1678.233
283.5141, 1688.291
283.9962, 1699.284
284.4783, 1718.541
284.9604, 1755.561
285.4425, 1809.235
285.9247, 1855.517
286.4068, 1889.334
286.8889, 1918.008
287.3710, 1955.219
287.8531, 2001.047
288.3352, 2051.927
288.8174, 2107.300
289.2995, 2166.485
289.7816, 2224.292
290.2637, 2276.987
290.7458, 2331.906
291.2279, 2401.854
291.7101, 2486.235
292.1922, 2576.157
292.6743, 2662.684
293.1564, 2749.355
293.6385, 2847.611
294.1206, 2958.148
294.6028, 3079.575
295.0849, 3212.906
295.5670, 3357.484
296.0491, 3509.581
296.5312, 3661.447
297.0133, 3818.757
297.4955, 3995.224
297.9776, 4189.721
298.4597, 4400.351
298.9418, 4625.417
299.4239, 4863.201
299.9060, 5104.556
300.3882, 5341.883
300.8703, 5579.440
301.3524, 5823.976
301.8345, 6078.445
302.3166, 6323.055
302.7987, 6539.675
303.2809, 6731.503
303.7630, 6913.407
304.2451, 7086.143
304.7272, 7253.611
305.2093, 7414.887
305.6914, 7571.092
306.1736, 7728.232
306.6557, 7896.200
307.1378, 8071.309
307.6199, 8247.342
308.1020, 8408.869
308.5841, 8580.247
309.0663, 8788.392
309.5484, 9037.895
310.0305, 9293.776
310.5126, 9547.739
310.9947, 9794.410
311.4768, 10022.38
311.9590, 10254.81
312.4411, 10446.88
312.9232, 10564.43
313.4053, 10608.25
313.8874, 10607.18
314.3695, 10592.32
314.8517, 10534.72
315.3337, 10404.71
315.8159, 10154.12
316.2980, 9865.786
316.7801, 9561.675
317.2622, 9244.851
317.7443, 8926.582
318.2264, 8600.652
318.7086, 8284.032
319.1907, 7990.680
319.6728, 7725.240
320.1549, 7482.193
320.6370, 7254.245
321.1191, 7044.960
321.6013, 6871.789
322.0834, 6748.034
322.5655, 6657.441
323.0476, 6591.555
323.5297, 6558.069
324.0118, 6537.570
324.4940, 6516.729
324.9761, 6504.588
325.4582, 6531.366
325.9403, 6619.174
326.4224, 6731.996
326.9045, 6855.304
327.3867, 6987.342
327.8688, 7131.363
328.3509, 7284.687
328.8330, 7449.478
329.3151, 7635.208
329.7972, 7863.323
330.2794, 8090.260
330.7615, 8303.684
331.2436, 8500.976
331.7257, 8693.208
332.2078, 8881.451
332.6899, 9065.507
333.1721, 9247.485
333.6542, 9436.717
334.1363, 9606.040
334.6184, 9748.681
335.1005, 9862.196
335.5826, 9959.129
336.0648, 10041.16
336.5469, 10104.86
337.0290, 10149.07
337.5111, 10177.55
337.9932, 10174.69
338.4753, 10135.43
338.9575, 10060.52
339.4396, 9956.919
339.9217, 9819.604
340.4038, 9663.703
340.8859, 9498.314
341.3680, 9323.868
341.8502, 9150.013
342.3323, 8989.260
342.8144, 8830.008
343.2965, 8630.410
343.7786, 8383.988
344.2607, 8129.456
344.7429, 7897.146
345.2250, 7685.771
345.7071, 7467.389
346.1892, 7233.032
346.6713, 6991.897
347.1534, 6747.643
347.6355, 6501.542
348.1176, 6263.203
348.5998, 6039.551
349.0819, 5827.202
349.5640, 5613.073
350.0461, 5390.552
350.5282, 5170.858
351.0103, 4961.420
351.4925, 4763.379
351.9746, 4576.631
352.4567, 4400.845
352.9388, 4238.476
353.4209, 4096.562
353.9030, 3977.886
354.3852, 3866.055
354.8673, 3745.418
355.3494, 3621.131
355.8315, 3503.399
356.3136, 3399.082
356.7957, 3301.846
357.2779, 3205.656
357.7600, 3109.825
358.2421, 3024.752
358.7242, 2960.994
359.2063, 2909.168
359.6884, 2858.256
360.1706, 2798.547
360.6527, 2744.026
361.1348, 2701.974
361.6169, 2671.600
362.0990, 2646.824
362.5811, 2626.474
363.0633, 2609.761
363.5454, 2596.162
364.0275, 2587.579
364.5096, 2579.631
364.9917, 2564.262
365.4738, 2546.979
365.9560, 2547.753
366.4381, 2585.225
366.9202, 2630.060
367.4023, 2669.393
367.8844, 2698.713
368.3665, 2728.833
368.8487, 2759.562
369.3308, 2791.653
369.8129, 2826.709
370.2950, 2876.945
370.7771, 2915.670
371.2592, 2932.616
371.7414, 2921.638
372.2235, 2915.613
372.7056, 2921.569
373.1877, 2926.703
373.6698, 2913.975
374.1519, 2876.842
374.6341, 2837.131
375.1162, 2799.337
375.5983, 2763.242
376.0804, 2729.526
376.5625, 2700.709
377.0446, 2669.272
377.5267, 2626.287
378.0089, 2569.345
378.4910, 2518.822
378.9731, 2477.807
379.4552, 2445.656
379.9373, 2423.692
380.4194, 2412.479
380.9016, 2403.899
381.3837, 2388.041
381.8658, 2368.099
382.3479, 2364.425
382.8300, 2381.423
383.3121, 2409.478
383.7943, 2436.052
384.2764, 2461.215
384.7585, 2486.115
385.2406, 2508.637
385.7227, 2531.820
386.2048, 2561.183
386.6870, 2597.261
387.1691, 2635.944
387.6512, 2681.855
388.1333, 2726.492
388.6154, 2754.131
389.0975, 2745.283
389.5797, 2724.640
390.0618, 2714.328
390.5439, 2713.238
391.0260, 2709.364
391.5081, 2696.271
391.9902, 2676.779
392.4724, 2652.184
392.9545, 2607.684
393.4366, 2577.939
393.9187, 2585.651
394.4008, 2621.783
394.8829, 2657.225
395.3651, 2675.046
395.8472, 2694.987
396.3293, 2727.030
396.8114, 2772.558
397.2935, 2830.009
397.7756, 2904.879
398.2578, 2990.304
398.7399, 3075.923
399.2220, 3147.877
399.7041, 3233.126
400.1862, 3341.307
400.6683, 3476.699
401.1505, 3607.121
401.6326, 3722.730
402.1147, 3841.301
402.5968, 3983.186
403.0789, 4161.039
403.5610, 4334.055
404.0432, 4490.895
404.5253, 4636.572
405.0074, 4807.760
405.4895, 5017.977
405.9716, 5222.801
406.4537, 5395.694
406.9359, 5537.364
407.4180, 5649.503
407.9001, 5731.240
408.3822, 5784.942
408.8643, 5821.797
409.3464, 5842.021
409.8285, 5823.450
410.3106, 5751.747
410.7928, 5632.081
411.2749, 5474.540
411.7570, 5275.434
412.2391, 5060.270
412.7212, 4848.552
413.2033, 4639.327
413.6855, 4432.787
414.1676, 4221.702
414.6497, 4017.814
415.1318, 3836.438
415.6139, 3676.286
416.0960, 3540.828
416.5782, 3438.543
417.0603, 3357.569
417.5424, 3284.843
418.0245, 3214.352
418.5066, 3156.927
418.9887, 3120.730
419.4709, 3102.218
419.9530, 3091.874
420.4351, 3101.919
420.9172, 3107.042
421.3993, 3090.290
421.8814, 3043.191
422.3636, 3003.178
422.8457, 2983.471
423.3278, 2973.263
423.8099, 2960.859
424.2920, 2958.113
424.7741, 2938.720
425.2563, 2895.347
425.7384, 2827.784
426.2205, 2754.510
426.7026, 2670.926
427.1847, 2585.769
427.6668, 2505.090
428.1490, 2429.478
428.6311, 2357.655
429.1132, 2291.448
429.5953, 2227.012
430.0774, 2153.368
430.5595, 2067.309
431.0417, 1983.330
431.5238, 1905.799
432.0059, 1834.778
432.4880, 1782.127
432.9701, 1750.626
433.4522, 1728.306
433.9344, 1699.908
434.4165, 1666.803
434.8986, 1638.398
435.3807, 1620.850
435.8628, 1607.626
436.3449, 1584.907
436.8271, 1553.269
437.3092, 1519.842
437.7913, 1488.043
438.2734, 1458.721
438.7555, 1435.091
439.2376, 1420.922
439.7197, 1404.054
440.2018, 1367.785
440.6840, 1320.933
441.1661, 1282.837
441.6482, 1274.929
442.1303, 1269.877
442.6124, 1249.159
443.0945, 1210.002
443.5767, 1170.684
444.0588, 1135.725
444.5409, 1104.502
445.0230, 1076.436
445.5051, 1055.030
445.9872, 1032.730
446.4694, 1005.092
446.9515, 973.9944
447.4336, 951.4100
447.9157, 947.3534
448.3978, 942.4609
448.8799, 927.6245
449.3621, 895.7153
449.8442, 871.2833
450.3263, 857.8962
450.8084, 849.0977
451.2905, 833.9682
451.7726, 809.8580
452.2548, 788.9286
452.7369, 775.8839
453.2190, 769.6581
453.7011, 759.4418
454.1832, 744.1367
454.6653, 730.3729
455.1475, 726.6181
455.6296, 730.9755
456.1117, 729.2322
456.5938, 717.7509
457.0759, 701.5104
457.5580, 686.8285
458.0402, 673.9347
458.5223, 663.9473
459.0044, 660.4003
459.4865, 658.7913
459.9686, 652.6198
460.4507, 641.2709
460.9329, 628.9750
461.4150, 616.3612
461.8971, 605.6827
462.3792, 599.7466
462.8613, 603.9482
463.3434, 609.0514
463.8256, 612.6184
464.3077, 614.1071
464.7898, 611.1299
465.2719, 597.6469
465.7540, 583.4610
466.2361, 574.0475
466.7183, 573.1961
467.2004, 569.9327
467.6825, 559.6319
468.1646, 547.9788
468.6467, 542.9035
469.1288, 550.4968
469.6110, 555.2504
470.0930, 552.8960
470.5752, 543.9340
471.0573, 537.6858
471.5394, 535.4550
472.0215, 533.2511
472.5036, 527.5607
472.9857, 518.0228
473.4679, 509.7985
473.9500, 503.6466
474.4321, 498.7826
474.9142, 493.3276
475.3963, 487.4846
475.8784, 483.7311
476.3606, 485.7152
476.8427, 490.1783
477.3248, 489.2690
477.8069, 482.9242
478.2890, 475.5997
478.7711, 469.3090
479.2533, 464.8962
479.7354, 464.2505
480.2175, 471.5597
480.6996, 477.2746
481.1817, 472.5970
481.6638, 460.8338
482.1460, 450.6672
482.6281, 444.8456
483.1102, 442.3612
483.5923, 444.2446
484.0744, 452.2232
484.5565, 456.1553
485.0387, 452.3034
485.5208, 444.2424
486.0029, 435.2928
486.4850, 421.0092
486.9671, 412.1106
487.4492, 412.3536
487.9314, 419.3028
488.4135, 421.5026
488.8956, 416.7092
489.3777, 411.4971
489.8598, 409.4549
490.3419, 411.2359
490.8241, 411.1558
491.3062, 408.8876
491.7883, 405.5652
492.2704, 401.6516
492.7525, 397.3738
493.2346, 396.1460
493.7168, 401.5133
494.1989, 408.4547
494.6810, 405.3046
495.1631, 393.1735
495.6452, 381.4643
496.1273, 376.4619
496.6095, 375.9817
497.0916, 378.5092
497.5737, 385.0303
498.0558, 388.7182
498.5379, 380.3478
499.0201, 367.1040
499.5022, 359.6564
499.9843, 369.4862
500.4664, 378.4458
500.9485, 377.0872
501.4306, 366.5931
501.9127, 359.7084
502.3948, 363.5932
502.8770, 368.1168
503.3591, 367.6397
503.8412, 358.5771
504.3233, 351.6735
504.8054, 347.5969
505.2875, 345.3226
505.7697, 343.1102
506.2518, 340.3194
506.7339, 339.5836
507.2160, 342.9538
507.6981, 349.0675
508.1802, 349.1312
508.6624, 342.4016
509.1445, 334.4225
509.6266, 328.0475
510.1087, 323.6463
510.5908, 323.7399
511.0729, 329.4321
511.5551, 336.5177
512.0372, 341.4919
512.5193, 343.9455
513.0014, 342.7693
513.4835, 334.8174
513.9656, 324.9742
514.4478, 315.9034
514.9299, 308.0273
515.4120, 304.1437
515.8941, 310.5439
516.3762, 318.3929
516.8583, 320.8868
517.3405, 314.3493
517.8226, 308.1716
518.3047, 302.8850
518.7868, 299.4561
519.2689, 299.5516
519.7510, 308.6412
520.2332, 314.2451
520.7153, 312.3656
521.1974, 304.0059
521.6795, 300.1338
522.1616, 302.3136
522.6437, 305.8398
523.1259, 308.5347
523.6080, 310.5945
524.0901, 309.0486
524.5722, 303.0516
525.0543, 295.1502
525.5364, 287.4532
526.0186, 280.3171
526.5007, 276.2170
526.9828, 277.1920
527.4649, 280.8116
527.9470, 284.0416
528.4291, 286.7302
528.9113, 288.3006
529.3934, 287.2353
529.8755, 285.4540
530.3576, 285.3271
530.8397, 287.9038
531.3218, 288.9251
531.8040, 284.6482
532.2861, 278.2429
532.7682, 273.6774
533.2503, 272.8891
533.7324, 272.7630
534.2145, 272.5532
534.6967, 272.4048
535.1788, 273.3788
535.6609, 277.4914
536.1430, 280.1244
536.6251, 278.6625
537.1072, 271.8945
537.5894, 267.5464
538.0715, 265.8213
538.5536, 266.1040
539.0357, 268.6750
539.5178, 273.4970
539.9999, 276.3662
540.4821, 275.7534
540.9642, 273.3730
541.4463, 272.4440
541.9284, 272.7061
542.4105, 272.5491
542.8926, 270.7739
543.3748, 268.1692
543.8569, 265.4443
544.3390, 262.6476
544.8211, 260.5859
545.3032, 259.5733
545.7853, 259.6215
546.2675, 260.7729
546.7495, 263.7427
547.2316, 266.8578
547.7137, 271.2430
548.1959, 275.4003
548.6780, 275.9322
549.1601, 267.7918
549.6422, 261.3382
550.1243, 259.9017
550.6064, 263.6552
551.0886, 264.7332
551.5707, 261.5577
552.0528, 258.6523
552.5349, 260.1390
553.0170, 266.3647
553.4991, 270.6458
553.9813, 272.2047
554.4634, 272.1723
554.9455, 271.5978
555.4276, 270.7007
555.9097, 270.7904
556.3918, 273.7578
556.8740, 276.9577
557.3561, 276.2462
557.8382, 272.2290
558.3203, 268.2885
558.8024, 265.8907
559.2845, 264.8073
559.7667, 264.6433
560.2488, 265.0905
560.7309, 267.5629
561.2130, 276.1458
561.6951, 285.4489
562.1772, 289.7622
562.6594, 283.0284
563.1415, 277.6777
563.6236, 275.6809
564.1057, 275.9130
564.5878, 274.0947
565.0699, 268.2969
565.5521, 265.0849
566.0342, 269.0311
566.5163, 279.6676
566.9984, 282.9919
567.4805, 278.1466
567.9626, 270.3535
568.4448, 262.8518
568.9269, 256.1990
569.4090, 252.1721
569.8911, 251.2459
570.3732, 252.7414
570.8553, 257.2227
571.3375, 263.5989
571.8196, 269.2275
572.3017, 274.1725
572.7838, 277.1001
573.2659, 276.7350
573.7480, 273.3407
574.2302, 269.2000
574.7123, 262.4435
575.1944, 257.1454
575.6765, 256.0242
576.1586, 261.6607
576.6407, 264.9371
577.1229, 264.3386
577.6050, 262.7129
578.0871, 263.4697
578.5692, 267.6335
579.0513, 270.3279
579.5334, 270.2573
580.0156, 268.6960
580.4977, 269.3443
580.9798, 272.1466
581.4619, 274.0038
581.9440, 272.8949
582.4261, 269.8254
582.9083, 266.0793
583.3904, 261.7791
583.8725, 259.2503
584.3546, 262.4197
584.8367, 267.2523
585.3188, 268.6082
585.8010, 262.7340
586.2831, 260.0245
586.7652, 269.2449
587.2473, 283.1411
587.7294, 291.3463
588.2115, 287.3453
588.6937, 282.6984
589.1758, 278.2546
589.6579, 274.5151
590.1400, 274.4802
590.6221, 279.7516
591.1042, 285.5664
591.5864, 290.2835
592.0685, 293.9489
592.5506, 293.9070
593.0327, 289.5641
593.5148, 284.4175
593.9969, 280.8475
594.4791, 279.2615
594.9612, 281.6737
595.4433, 289.7602
595.9254, 298.4665
596.4075, 302.0810
596.8896, 302.3435
597.3718, 302.8942
597.8539, 307.4818
598.3360, 310.8143
598.8181, 308.1365
599.3002, 300.5303
599.7823, 296.6696
600.2645, 301.4177
600.7466, 307.8820
601.2287, 313.5993
601.7108, 319.6027
602.1929, 320.0653
602.6750, 311.0104
603.1572, 301.5692
603.6393, 302.3230
604.1214, 314.8076
604.6035, 322.6607
605.0856, 322.3767
605.5677, 318.4485
606.0499, 318.6287
606.5320, 322.3932
607.0141, 326.6857
607.4962, 331.3161
607.9783, 334.9869
608.4604, 335.5938
608.9425, 333.4956
609.4246, 330.8162
609.9067, 327.7716
610.3889, 325.2216
610.8710, 323.6811
611.3531, 323.1640
611.8352, 323.8708
