##NAMES=Mimetite-M
##RRUFFID=R070146
##IDEAL CHEMISTRY=Pb_5_(AsO_4_)_3_Cl
##LOCALITY=Treue Freundschaft Mine, Johanngeorgenstadt, Erzgebirge, Saxony, Germany
##OWNER=RRUFF
##SOURCE=Michael Scott
##DESCRIPTION=Yellowish green crystals coated with white feathery hydroxylapatite.
##STATUS=The identification of this mineral has been confirmed by single-crystal X-ray diffraction.
##URL=rruff.info/R070146
93.30109, 0.0000000E+00
93.78320, 4933.089
94.26532, 4901.946
94.74744, 4916.958
95.22955, 4966.185
95.71167, 5043.492
96.19379, 5113.752
96.67590, 5186.480
97.15802, 5257.572
97.64014, 5332.797
98.12225, 5405.283
98.60437, 5466.786
99.08649, 5521.727
99.56860, 5556.729
100.0507, 5557.325
100.5328, 5515.764
101.0150, 5447.416
101.4971, 5362.046
101.9792, 5259.725
102.4613, 5145.683
102.9434, 5009.860
103.4255, 4866.359
103.9077, 4723.068
104.3898, 4581.051
104.8719, 4441.832
105.3540, 4308.124
105.8361, 4177.615
106.3182, 4055.339
106.8004, 3942.582
107.2825, 3836.044
107.7646, 3730.851
108.2467, 3623.497
108.7288, 3514.521
109.2109, 3414.226
109.6931, 3323.390
110.1752, 3239.003
110.6573, 3162.284
111.1394, 3091.675
111.6215, 3023.581
112.1036, 2955.107
112.5858, 2885.348
113.0679, 2821.430
113.5500, 2762.805
114.0321, 2709.769
114.5142, 2664.969
114.9964, 2628.761
115.4785, 2594.022
115.9606, 2550.852
116.4427, 2499.786
116.9248, 2453.541
117.4069, 2417.136
117.8891, 2387.494
118.3712, 2357.632
118.8533, 2325.339
119.3354, 2294.413
119.8175, 2268.477
120.2996, 2247.057
120.7818, 2226.921
121.2639, 2205.428
121.7460, 2182.468
122.2281, 2161.044
122.7102, 2141.961
123.1923, 2124.542
123.6745, 2108.697
124.1566, 2094.367
124.6387, 2081.607
125.1208, 2070.677
125.6029, 2062.790
126.0850, 2054.211
126.5672, 2043.271
127.0493, 2032.333
127.5314, 2023.049
128.0135, 2016.068
128.4956, 2011.418
128.9777, 2009.120
129.4599, 2012.982
129.9420, 2015.118
130.4241, 2014.085
130.9062, 2011.130
131.3883, 2007.707
131.8704, 2004.304
132.3526, 2001.469
132.8347, 2002.211
133.3168, 2009.727
133.7989, 2016.799
134.2810, 2019.454
134.7632, 2018.523
135.2453, 2018.455
135.7274, 2022.207
136.2095, 2029.278
136.6916, 2036.709
137.1737, 2045.391
137.6559, 2053.779
138.1380, 2059.573
138.6201, 2062.007
139.1022, 2065.517
139.5843, 2074.612
140.0664, 2086.502
140.5486, 2097.179
141.0307, 2104.173
141.5128, 2108.935
141.9949, 2115.958
142.4770, 2127.600
142.9591, 2137.992
143.4413, 2143.906
143.9234, 2146.945
144.4055, 2150.114
144.8876, 2155.650
145.3697, 2163.560
145.8518, 2170.932
146.3340, 2176.583
146.8161, 2182.706
147.2982, 2191.324
147.7803, 2201.364
148.2624, 2209.662
148.7445, 2212.491
149.2267, 2207.256
149.7088, 2207.544
150.1909, 2218.603
150.6730, 2229.746
151.1551, 2234.283
151.6372, 2231.688
152.1194, 2226.588
152.6015, 2224.537
153.0836, 2226.719
153.5657, 2229.611
154.0478, 2234.318
154.5299, 2239.210
155.0121, 2242.290
155.4942, 2242.945
155.9763, 2242.910
156.4584, 2244.858
156.9405, 2248.777
157.4226, 2253.202
157.9048, 2258.486
158.3869, 2263.971
158.8690, 2268.021
159.3511, 2269.603
159.8332, 2270.584
160.3153, 2273.073
160.7975, 2277.018
161.2796, 2281.933
161.7617, 2288.420
162.2438, 2296.280
162.7259, 2302.190
163.2081, 2302.909
163.6902, 2303.465
164.1723, 2307.180
164.6544, 2314.435
165.1365, 2324.384
165.6186, 2337.466
166.1008, 2355.044
166.5829, 2369.312
167.0650, 2376.265
167.5471, 2381.350
168.0292, 2387.465
168.5113, 2395.420
168.9935, 2404.430
169.4756, 2413.487
169.9577, 2423.875
170.4398, 2431.636
170.9219, 2433.853
171.4040, 2435.170
171.8862, 2440.148
172.3683, 2450.332
172.8504, 2462.930
173.3325, 2471.374
173.8146, 2470.900
174.2967, 2471.433
174.7789, 2474.630
175.2610, 2478.521
175.7431, 2480.576
176.2252, 2479.609
176.7073, 2476.588
177.1894, 2474.717
177.6716, 2477.147
178.1537, 2476.814
178.6358, 2470.617
179.1179, 2460.789
179.6000, 2451.663
180.0821, 2445.622
180.5643, 2441.376
181.0464, 2435.071
181.5285, 2427.260
182.0106, 2417.110
182.4927, 2402.656
182.9748, 2384.893
183.4570, 2368.503
183.9391, 2356.640
184.4212, 2347.028
184.9033, 2334.787
185.3854, 2318.872
185.8675, 2301.942
186.3497, 2285.825
186.8318, 2270.521
187.3139, 2256.006
187.7960, 2243.157
188.2781, 2230.684
188.7602, 2217.076
189.2424, 2201.596
189.7245, 2185.801
190.2066, 2172.044
190.6887, 2161.035
191.1708, 2149.359
191.6530, 2134.154
192.1351, 2118.483
192.6172, 2105.411
193.0993, 2096.384
193.5814, 2089.187
194.0635, 2079.296
194.5457, 2065.064
195.0278, 2051.365
195.5099, 2039.460
195.9920, 2028.440
196.4741, 2017.360
196.9562, 2005.780
197.4384, 1994.100
197.9205, 1983.235
198.4026, 1971.805
198.8847, 1963.583
199.3668, 1961.349
199.8489, 1961.534
200.3311, 1960.171
200.8132, 1955.240
201.2953, 1947.565
201.7774, 1940.472
202.2595, 1935.421
202.7416, 1929.296
203.2238, 1919.853
203.7059, 1909.526
204.1880, 1901.768
204.6701, 1898.553
205.1522, 1898.911
205.6343, 1898.608
206.1165, 1899.062
206.5986, 1897.366
207.0807, 1890.294
207.5628, 1880.759
208.0449, 1874.548
208.5270, 1875.156
209.0092, 1880.616
209.4913, 1882.786
209.9734, 1879.428
210.4555, 1876.243
210.9376, 1875.485
211.4197, 1876.505
211.9019, 1877.724
212.3840, 1878.760
212.8661, 1879.026
213.3482, 1876.976
213.8303, 1870.740
214.3124, 1865.335
214.7946, 1864.370
215.2767, 1867.082
215.7588, 1869.224
216.2409, 1868.270
216.7230, 1866.159
217.2052, 1866.469
217.6873, 1869.982
218.1694, 1874.336
218.6515, 1877.968
219.1336, 1880.905
219.6157, 1883.411
220.0979, 1885.058
220.5800, 1886.690
221.0621, 1889.318
221.5442, 1893.221
222.0263, 1897.444
222.5084, 1900.541
222.9906, 1902.264
223.4727, 1905.790
223.9548, 1915.384
224.4369, 1925.156
224.9190, 1929.904
225.4011, 1928.494
225.8833, 1925.708
226.3654, 1927.355
226.8475, 1934.267
227.3296, 1941.582
227.8117, 1947.687
228.2938, 1954.269
228.7760, 1963.302
229.2581, 1975.012
229.7402, 1986.298
230.2223, 1991.947
230.7044, 1988.897
231.1865, 1990.155
231.6687, 2002.276
232.1508, 2015.148
232.6329, 2021.419
233.1150, 2020.243
233.5971, 2017.280
234.0792, 2020.852
234.5614, 2034.335
235.0435, 2046.197
235.5256, 2055.642
236.0077, 2064.066
236.4898, 2071.685
236.9719, 2078.807
237.4541, 2086.375
237.9362, 2095.789
238.4183, 2107.906
238.9004, 2119.748
239.3825, 2133.048
239.8646, 2144.824
240.3468, 2151.704
240.8289, 2154.003
241.3110, 2155.859
241.7931, 2162.696
242.2752, 2176.877
242.7573, 2189.362
243.2395, 2199.267
243.7216, 2208.378
244.2037, 2218.189
244.6858, 2228.661
245.1679, 2238.262
245.6501, 2245.054
246.1322, 2247.892
246.6143, 2252.519
247.0964, 2259.815
247.5785, 2268.045
248.0606, 2276.449
248.5428, 2284.776
249.0249, 2292.771
249.5070, 2300.169
249.9891, 2306.936
250.4712, 2313.239
250.9533, 2319.095
251.4355, 2324.545
251.9176, 2329.555
252.3997, 2334.167
252.8818, 2338.617
253.3639, 2343.100
253.8460, 2347.617
254.3282, 2351.864
254.8103, 2354.920
255.2924, 2358.432
255.7745, 2364.328
256.2566, 2372.308
256.7387, 2379.308
257.2209, 2382.967
257.7030, 2383.526
258.1851, 2384.350
258.6672, 2385.865
259.1493, 2387.279
259.6314, 2387.721
260.1136, 2387.324
260.5957, 2387.412
261.0778, 2388.905
261.5599, 2391.459
262.0420, 2393.908
262.5241, 2397.417
263.0063, 2399.417
263.4884, 2396.895
263.9705, 2390.426
264.4526, 2385.138
264.9347, 2384.019
265.4168, 2385.260
265.8990, 2385.443
266.3811, 2384.908
266.8632, 2382.504
267.3453, 2375.686
267.8274, 2365.264
268.3095, 2357.804
268.7917, 2357.555
269.2738, 2359.861
269.7559, 2358.187
270.2380, 2351.807
270.7201, 2344.963
271.2022, 2340.397
271.6844, 2337.907
272.1665, 2336.025
272.6486, 2334.349
273.1307, 2333.345
273.6128, 2333.726
274.0949, 2335.469
274.5771, 2336.745
275.0592, 2335.955
275.5413, 2333.483
276.0234, 2331.263
276.5055, 2328.185
276.9876, 2327.529
277.4698, 2332.555
277.9519, 2342.243
278.4340, 2351.467
278.9161, 2356.865
279.3982, 2359.157
279.8803, 2361.468
280.3625, 2363.174
280.8446, 2366.250
281.3267, 2371.612
281.8088, 2378.961
282.2909, 2387.769
282.7730, 2398.213
283.2552, 2409.844
283.7373, 2421.143
284.2194, 2431.778
284.7015, 2442.690
285.1836, 2454.320
285.6658, 2466.532
286.1479, 2479.253
286.6300, 2492.458
287.1121, 2506.042
287.5942, 2519.310
288.0764, 2531.153
288.5585, 2545.484
289.0406, 2564.124
289.5227, 2585.535
290.0048, 2608.355
290.4869, 2632.510
290.9691, 2657.341
291.4512, 2681.783
291.9333, 2705.489
292.4154, 2729.873
292.8975, 2753.888
293.3796, 2779.480
293.8618, 2808.935
294.3439, 2842.835
294.8260, 2878.023
295.3081, 2909.959
295.7902, 2937.548
296.2723, 2966.871
296.7545, 2998.417
297.2366, 3032.392
297.7187, 3070.498
298.2008, 3112.183
298.6829, 3153.455
299.1650, 3187.980
299.6472, 3214.474
300.1293, 3247.005
300.6114, 3292.870
301.0935, 3339.138
301.5756, 3380.544
302.0577, 3417.182
302.5399, 3451.768
303.0220, 3485.799
303.5041, 3519.252
303.9862, 3553.202
304.4683, 3588.573
304.9504, 3623.466
305.4326, 3658.692
305.9147, 3692.916
306.3968, 3723.429
306.8789, 3747.631
307.3610, 3767.488
307.8431, 3791.680
308.3253, 3826.291
308.8074, 3855.383
309.2895, 3871.913
309.7716, 3882.316
310.2537, 3894.159
310.7358, 3910.980
311.2180, 3930.166
311.7001, 3946.669
312.1822, 3962.772
312.6643, 3970.659
313.1464, 3966.672
313.6285, 3956.375
314.1107, 3943.753
314.5928, 3929.927
315.0749, 3913.885
315.5570, 3893.871
316.0391, 3868.953
316.5212, 3843.398
317.0034, 3817.418
317.4855, 3790.917
317.9676, 3763.724
318.4497, 3735.925
318.9318, 3707.957
319.4139, 3678.977
319.8961, 3648.337
320.3782, 3623.671
320.8603, 3610.370
321.3424, 3598.599
321.8245, 3584.104
322.3066, 3568.003
322.7888, 3553.395
323.2709, 3542.392
323.7530, 3534.887
324.2351, 3530.518
324.7172, 3530.217
325.1993, 3532.107
325.6815, 3535.000
326.1636, 3539.545
326.6457, 3546.744
327.1278, 3557.136
327.6099, 3570.208
328.0920, 3585.418
328.5742, 3604.846
329.0563, 3621.830
329.5384, 3632.024
330.0205, 3640.949
330.5026, 3654.603
330.9847, 3674.713
331.4669, 3695.230
331.9490, 3705.727
332.4311, 3702.366
332.9132, 3705.939
333.3953, 3727.333
333.8774, 3750.917
334.3596, 3767.868
334.8417, 3777.979
335.3238, 3786.949
335.8059, 3801.883
336.2880, 3823.018
336.7701, 3836.153
337.2523, 3835.310
337.7344, 3832.278
338.2165, 3832.415
338.6986, 3834.719
339.1807, 3836.550
339.6628, 3837.104
340.1450, 3835.724
340.6271, 3829.497
341.1092, 3816.251
341.5913, 3802.186
342.0735, 3789.733
342.5556, 3777.895
343.0377, 3765.723
343.5198, 3753.150
344.0019, 3739.225
344.4840, 3721.494
344.9662, 3698.389
345.4483, 3677.877
345.9304, 3666.313
346.4125, 3655.930
346.8946, 3640.549
347.3767, 3619.135
347.8589, 3597.348
348.3410, 3581.753
348.8231, 3572.069
349.3052, 3559.234
349.7873, 3539.346
350.2694, 3518.860
350.7516, 3500.899
351.2337, 3485.756
351.7158, 3474.575
352.1979, 3470.869
352.6800, 3471.788
353.1621, 3466.861
353.6443, 3452.549
354.1264, 3440.182
354.6085, 3438.920
355.0906, 3443.418
355.5727, 3445.201
356.0548, 3439.473
356.5370, 3432.298
357.0191, 3433.225
357.5012, 3443.179
357.9833, 3450.939
358.4654, 3450.144
358.9475, 3445.698
359.4297, 3442.903
359.9118, 3442.004
360.3939, 3443.734
360.8760, 3449.828
361.3581, 3459.440
361.8402, 3468.123
362.3224, 3473.852
362.8045, 3479.912
363.2866, 3489.570
363.7687, 3502.503
364.2508, 3517.190
364.7329, 3535.679
365.2151, 3554.768
365.6972, 3567.904
366.1793, 3573.600
366.6614, 3579.431
367.1435, 3591.713
367.6256, 3608.767
368.1078, 3625.279
368.5899, 3640.696
369.0720, 3655.385
369.5541, 3669.897
370.0362, 3684.107
370.5183, 3697.113
371.0005, 3709.084
371.4826, 3718.912
371.9647, 3724.563
372.4468, 3725.893
372.9289, 3724.196
373.4110, 3719.397
373.8932, 3711.982
374.3753, 3701.818
374.8574, 3688.327
375.3395, 3675.499
375.8216, 3669.551
376.3037, 3671.561
376.7859, 3670.443
377.2680, 3661.715
377.7501, 3651.762
378.2322, 3646.207
378.7143, 3645.141
379.1964, 3645.221
379.6786, 3644.024
380.1607, 3641.721
380.6428, 3640.324
381.1249, 3637.878
381.6070, 3638.278
382.0891, 3644.612
382.5713, 3654.593
383.0534, 3664.221
383.5355, 3671.925
384.0176, 3677.748
384.4997, 3681.657
384.9818, 3680.188
385.4640, 3682.700
385.9461, 3691.911
386.4282, 3703.632
386.9103, 3714.584
387.3924, 3724.111
387.8745, 3733.198
388.3567, 3742.855
388.8388, 3753.325
389.3209, 3762.545
389.8030, 3770.695
390.2851, 3777.718
390.7672, 3783.559
391.2494, 3788.259
391.7315, 3791.964
392.2136, 3794.793
392.6957, 3796.556
393.1778, 3796.289
393.6599, 3790.162
394.1421, 3787.562
394.6242, 3789.714
395.1063, 3795.227
395.5884, 3804.036
396.0706, 3815.640
396.5527, 3827.295
397.0348, 3835.479
397.5169, 3839.615
397.9990, 3842.311
398.4811, 3842.458
398.9633, 3842.081
399.4454, 3841.589
399.9275, 3841.205
400.4096, 3841.196
400.8917, 3841.699
401.3738, 3842.755
401.8560, 3844.417
402.3381, 3846.252
402.8202, 3849.670
403.3023, 3856.166
403.7844, 3863.792
404.2665, 3870.604
404.7487, 3876.028
405.2308, 3880.822
405.7129, 3886.688
406.1950, 3893.923
406.6771, 3897.277
407.1592, 3891.737
407.6414, 3886.260
408.1235, 3889.010
408.6056, 3898.413
409.0877, 3905.390
409.5698, 3902.734
410.0519, 3894.240
410.5341, 3888.454
411.0162, 3885.628
411.4983, 3885.399
411.9804, 3890.532
412.4625, 3897.423
412.9446, 3899.479
413.4268, 3893.038
413.9089, 3885.973
414.3910, 3885.482
414.8731, 3890.180
415.3552, 3892.917
415.8373, 3890.292
416.3195, 3886.667
416.8016, 3889.686
417.2837, 3899.731
417.7658, 3907.413
418.2479, 3907.377
418.7300, 3905.207
419.2122, 3908.675
419.6943, 3918.268
420.1764, 3926.268
420.6585, 3925.447
421.1406, 3917.020
421.6227, 3915.191
422.1049, 3926.891
422.5870, 3936.878
423.0691, 3939.688
423.5512, 3936.557
424.0333, 3929.548
424.5154, 3919.439
424.9976, 3906.763
425.4797, 3892.495
425.9618, 3875.694
426.4439, 3859.134
426.9260, 3840.762
427.4081, 3824.162
427.8903, 3814.158
428.3724, 3809.216
428.8545, 3802.061
429.3366, 3786.188
429.8187, 3762.048
430.3008, 3741.424
430.7830, 3727.437
431.2651, 3713.689
431.7472, 3699.430
432.2293, 3684.800
432.7114, 3670.548
433.1935, 3656.905
433.6757, 3642.741
434.1578, 3626.273
434.6399, 3607.180
435.1220, 3586.952
435.6041, 3563.855
436.0862, 3541.223
436.5684, 3520.746
437.0505, 3502.202
437.5326, 3484.339
438.0147, 3466.823
438.4968, 3449.273
438.9789, 3430.375
439.4611, 3410.023
439.9432, 3388.618
440.4253, 3365.033
440.9074, 3340.948
441.3895, 3318.334
441.8716, 3297.712
442.3538, 3277.586
442.8359, 3257.158
443.3180, 3236.213
443.8001, 3214.551
444.2822, 3192.331
444.7643, 3168.797
445.2465, 3142.261
445.7286, 3113.298
446.2107, 3085.428
446.6928, 3060.348
447.1749, 3036.244
447.6570, 3010.418
448.1392, 2983.349
448.6213, 2959.613
449.1034, 2942.880
449.5855, 2930.140
450.0677, 2912.597
450.5498, 2887.804
451.0319, 2864.361
451.5140, 2846.386
451.9961, 2830.073
452.4782, 2810.689
452.9604, 2787.374
453.4425, 2762.707
453.9246, 2739.325
454.4067, 2717.445
454.8888, 2694.589
455.3709, 2667.016
455.8531, 2642.788
456.3352, 2627.140
456.8173, 2616.396
457.2994, 2604.300
457.7815, 2588.010
458.2636, 2569.040
458.7458, 2550.298
459.2279, 2531.415
459.7100, 2513.553
460.1921, 2495.119
460.6742, 2478.889
461.1563, 2468.884
461.6385, 2463.162
462.1206, 2454.813
462.6027, 2437.146
463.0848, 2412.687
463.5669, 2395.018
464.0490, 2387.150
464.5312, 2380.225
465.0133, 2373.113
465.4954, 2364.482
465.9775, 2351.938
466.4596, 2334.560
466.9417, 2317.226
467.4239, 2305.470
467.9060, 2298.267
468.3881, 2288.041
468.8702, 2272.071
469.3523, 2256.052
469.8344, 2245.380
470.3166, 2238.592
470.7987, 2231.955
471.2808, 2226.140
471.7629, 2218.888
472.2450, 2206.091
472.7271, 2189.266
473.2093, 2176.598
473.6914, 2172.403
474.1735, 2172.543
474.6556, 2169.019
475.1377, 2161.080
475.6198, 2152.779
476.1020, 2143.934
476.5841, 2135.475
477.0662, 2128.574
477.5483, 2123.073
478.0304, 2117.436
478.5125, 2110.582
478.9947, 2102.535
479.4768, 2093.895
479.9589, 2081.456
480.4410, 2072.245
480.9231, 2069.302
481.4052, 2068.895
481.8874, 2067.869
482.3695, 2065.165
482.8516, 2060.601
483.3337, 2053.198
483.8158, 2042.252
484.2979, 2034.610
484.7801, 2034.448
485.2622, 2032.919
485.7443, 2025.524
486.2264, 2015.152
486.7085, 2006.411
487.1906, 2001.196
487.6728, 1998.426
488.1549, 1997.527
488.6370, 1998.762
489.1191, 1997.272
489.6012, 1990.615
490.0833, 1982.333
490.5655, 1975.134
491.0476, 1969.033
491.5297, 1964.234
492.0118, 1962.073
492.4939, 1960.557
492.9760, 1956.924
493.4582, 1951.212
493.9403, 1945.543
494.4224, 1941.014
494.9045, 1937.204
495.3866, 1932.762
495.8687, 1926.213
496.3509, 1922.554
496.8330, 1926.904
497.3151, 1932.435
497.7972, 1930.461
498.2793, 1920.838
498.7614, 1911.250
499.2436, 1908.658
499.7257, 1912.513
500.2078, 1912.657
500.6899, 1905.122
501.1720, 1898.644
501.6541, 1895.065
502.1363, 1893.005
502.6184, 1890.985
503.1005, 1888.582
503.5826, 1886.164
504.0647, 1884.217
504.5468, 1882.791
505.0290, 1881.323
505.5111, 1878.683
505.9932, 1877.531
506.4753, 1881.179
506.9575, 1886.320
507.4396, 1887.439
507.9217, 1881.969
508.4038, 1873.748
508.8859, 1866.694
509.3680, 1860.829
509.8502, 1856.744
510.3323, 1854.431
510.8144, 1854.150
511.2965, 1858.196
511.7786, 1865.376
512.2607, 1868.527
512.7429, 1861.688
513.2250, 1853.432
513.7071, 1852.167
514.1892, 1856.335
514.6713, 1858.276
515.1534, 1854.139
515.6356, 1847.366
516.1177, 1844.842
516.5998, 1848.956
517.0819, 1852.139
517.5640, 1854.674
518.0461, 1855.853
518.5283, 1854.215
519.0104, 1850.647
519.4925, 1847.833
519.9746, 1847.608
520.4567, 1849.262
520.9388, 1849.940
521.4210, 1847.700
521.9031, 1848.214
522.3852, 1854.146
522.8673, 1861.145
523.3494, 1866.798
523.8315, 1870.592
524.3137, 1872.384
524.7958, 1871.093
525.2779, 1867.797
525.7600, 1866.328
526.2421, 1866.926
526.7242, 1868.441
527.2064, 1870.865
527.6885, 1873.708
528.1706, 1876.573
528.6527, 1879.591
529.1348, 1881.738
529.6169, 1881.285
530.0991, 1880.072
530.5812, 1881.641
531.0633, 1886.378
531.5454, 1891.094
532.0275, 1893.361
532.5096, 1893.594
532.9918, 1894.639
533.4739, 1895.790
533.9560, 1898.470
534.4381, 1904.574
534.9202, 1911.495
535.4023, 1916.185
535.8845, 1918.215
536.3666, 1919.492
536.8487, 1921.806
537.3308, 1925.157
537.8129, 1929.322
538.2950, 1936.420
538.7772, 1941.446
539.2593, 1941.523
539.7414, 1939.971
540.2235, 1940.469
540.7056, 1943.929
541.1877, 1948.144
541.6699, 1950.502
542.1520, 1951.432
542.6341, 1954.522
543.1162, 1961.304
543.5983, 1967.043
544.0804, 1966.177
544.5626, 1962.630
545.0447, 1964.172
545.5268, 1974.217
546.0089, 1984.879
546.4910, 1992.391
546.9731, 1997.200
547.4553, 1999.239
547.9374, 1998.499
548.4195, 1998.185
548.9016, 2001.858
549.3837, 2009.685
549.8658, 2014.081
550.3480, 2012.019
550.8301, 2010.799
551.3122, 2012.424
551.7943, 2015.995
552.2764, 2021.010
552.7585, 2027.015
553.2407, 2032.395
553.7228, 2034.613
554.2049, 2033.361
554.6870, 2034.896
555.1691, 2042.855
555.6512, 2048.349
556.1334, 2045.571
556.6155, 2039.813
557.0976, 2038.220
557.5797, 2043.022
558.0618, 2049.402
558.5439, 2053.566
559.0261, 2055.763
559.5082, 2056.447
559.9903, 2055.139
560.4724, 2054.768
560.9545, 2058.469
561.4366, 2065.148
561.9188, 2069.113
562.4009, 2068.578
562.8830, 2067.491
563.3651, 2067.077
563.8472, 2067.087
564.3293, 2067.549
564.8115, 2068.319
565.2936, 2068.256
565.7757, 2065.917
566.2578, 2061.280
566.7399, 2058.958
567.2220, 2062.849
567.7042, 2064.352
568.1863, 2059.183
568.6684, 2052.541
569.1505, 2050.126
569.6326, 2052.962
570.1147, 2057.167
570.5969, 2059.306
571.0790, 2059.582
571.5611, 2059.133
572.0432, 2057.787
572.5253, 2056.241
573.0074, 2055.372
573.4896, 2054.254
573.9717, 2051.240
574.4538, 2045.626
574.9359, 2040.256
575.4180, 2037.177
575.9001, 2034.828
576.3823, 2029.819
576.8644, 2022.264
577.3465, 2017.759
577.8286, 2021.156
578.3107, 2030.179
578.7928, 2033.572
579.2750, 2027.532
579.7571, 2020.578
580.2392, 2010.301
580.7213, 2001.351
581.2034, 1999.158
581.6855, 2002.472
582.1677, 2004.297
582.6498, 1998.937
583.1319, 1988.562
583.6140, 1981.095
584.0961, 1977.765
584.5782, 1972.924
585.0604, 1962.461
585.5425, 1951.910
586.0246, 1946.590
586.5067, 1946.223
586.9889, 1945.627
587.4710, 1942.321
587.9531, 1937.792
588.4352, 1934.251
588.9174, 1931.328
589.3995, 1926.126
589.8816, 1916.874
