##NAMES=Mimetite
##RRUFFID=R130731
##IDEAL CHEMISTRY=Pb^2+^_5_(As^5+^O_4_)_3_Cl
##LOCALITY=Tsumeb mine, Tsumeb, Otavi District, Oshikoto, Namibia
##OWNER=RRUFF
##SOURCE=Bob Downs
##DESCRIPTION=Pale yellow transparent hexagonal prisms, monoclinic polytype
##STATUS=The identification of this mineral has been confirmed by single-crystal X-ray diffraction.
##URL=rruff.info/R130731
121.0409, 3192.173
121.5230, 3318.552
122.0051, 3452.176
122.4873, 3591.796
122.9694, 3740.338
123.4515, 3896.148
123.9336, 4044.604
124.4157, 4179.117
124.8979, 4298.947
125.3800, 4403.053
125.8621, 4496.341
126.3442, 4571.390
126.8263, 4614.608
127.3084, 4624.969
127.7905, 4616.991
128.2727, 4601.906
128.7548, 4579.662
129.2369, 4550.043
129.7190, 4508.269
130.2011, 4458.676
130.6832, 4412.151
131.1654, 4367.472
131.6475, 4330.223
132.1296, 4309.368
132.6117, 4304.505
133.0938, 4308.394
133.5759, 4313.828
134.0581, 4321.876
134.5402, 4347.622
135.0223, 4393.572
135.5044, 4457.216
135.9865, 4534.311
136.4686, 4626.467
136.9508, 4722.180
137.4329, 4812.488
137.9150, 4895.410
138.3971, 4981.938
138.8792, 5074.974
139.3613, 5173.390
139.8434, 5271.367
140.3256, 5370.746
140.8077, 5468.299
141.2898, 5563.722
141.7719, 5658.661
142.2540, 5745.452
142.7361, 5821.404
143.2183, 5886.879
143.7004, 5944.719
144.1825, 5994.318
144.6646, 6036.589
145.1467, 6071.784
145.6288, 6099.437
146.1110, 6120.560
146.5931, 6135.044
147.0752, 6142.000
147.5573, 6144.019
148.0394, 6140.565
148.5215, 6132.021
149.0037, 6119.156
149.4858, 6101.974
149.9679, 6080.609
150.4500, 6054.547
150.9321, 6014.925
151.4142, 5983.271
151.8964, 5959.059
152.3785, 5943.093
152.8606, 5937.835
153.3427, 5947.979
153.8248, 5966.370
154.3069, 5989.354
154.7890, 6026.679
155.2712, 6058.792
155.7533, 6078.236
156.2354, 6086.752
156.7175, 6103.303
157.1996, 6124.106
157.6817, 6158.138
158.1639, 6212.343
158.6460, 6316.624
159.1281, 6414.877
159.6102, 6486.854
160.0923, 6530.739
160.5744, 6570.219
161.0566, 6607.306
161.5387, 6645.374
162.0208, 6688.300
162.5029, 6734.621
162.9850, 6787.663
163.4671, 6852.787
163.9493, 6932.369
164.4314, 7007.459
164.9135, 7064.365
165.3956, 7111.122
165.8777, 7161.011
166.3598, 7229.366
166.8420, 7297.549
167.3241, 7351.277
167.8062, 7386.372
168.2883, 7415.409
168.7704, 7449.260
169.2525, 7484.381
169.7346, 7511.742
170.2168, 7531.246
170.6989, 7538.598
171.1810, 7527.166
171.6631, 7489.520
172.1452, 7444.530
172.6273, 7408.247
173.1095, 7378.763
173.5916, 7346.686
174.0737, 7308.126
174.5558, 7262.503
175.0379, 7208.951
175.5201, 7143.395
176.0022, 7073.103
176.4843, 7004.845
176.9664, 6939.123
177.4485, 6878.339
177.9306, 6828.647
178.4128, 6785.649
178.8949, 6738.272
179.3770, 6676.916
179.8591, 6612.813
180.3412, 6566.300
180.8233, 6537.103
181.3055, 6511.067
181.7876, 6480.927
182.2697, 6444.415
182.7518, 6392.322
183.2339, 6308.776
183.7160, 6209.149
184.1982, 6133.539
184.6803, 6083.745
185.1624, 6044.060
185.6445, 5998.383
186.1266, 5947.718
186.6087, 5895.603
187.0908, 5846.936
187.5730, 5798.688
188.0551, 5739.173
188.5372, 5665.182
189.0193, 5587.966
189.5014, 5521.968
189.9835, 5466.233
190.4657, 5412.613
190.9478, 5357.101
191.4299, 5299.781
191.9120, 5245.716
192.3941, 5196.639
192.8762, 5147.745
193.3584, 5091.474
193.8405, 5028.115
194.3226, 4958.505
194.8047, 4878.305
195.2868, 4788.452
195.7689, 4714.305
196.2511, 4662.321
196.7332, 4620.059
197.2153, 4555.021
197.6974, 4463.031
198.1795, 4375.734
198.6616, 4321.232
199.1438, 4301.596
199.6259, 4259.392
200.1080, 4181.433
200.5901, 4081.431
201.0722, 4003.570
201.5543, 3951.067
202.0364, 3905.616
202.5186, 3853.024
203.0007, 3791.423
203.4828, 3737.346
203.9649, 3694.718
204.4470, 3660.647
204.9291, 3624.098
205.4113, 3584.556
205.8934, 3543.017
206.3755, 3497.666
206.8576, 3445.668
207.3397, 3404.736
207.8218, 3382.421
208.3040, 3374.892
208.7861, 3352.028
209.2682, 3308.405
209.7503, 3261.143
210.2324, 3227.282
210.7145, 3212.139
211.1967, 3193.067
211.6788, 3167.209
212.1609, 3134.487
212.6430, 3087.779
213.1251, 3017.053
213.6072, 2948.646
214.0894, 2912.267
214.5715, 2921.334
215.0536, 2924.262
215.5357, 2907.605
216.0178, 2870.859
216.4999, 2839.850
216.9820, 2816.914
217.4642, 2796.994
217.9463, 2774.790
218.4284, 2751.133
218.9105, 2723.170
219.3926, 2688.027
219.8747, 2644.888
220.3569, 2608.923
220.8390, 2582.588
221.3211, 2561.115
221.8032, 2537.704
222.2853, 2511.269
222.7674, 2485.756
223.2496, 2462.105
223.7317, 2439.905
224.2138, 2421.750
224.6959, 2408.744
225.1780, 2398.853
225.6601, 2389.858
226.1423, 2385.527
226.6244, 2374.985
227.1065, 2353.152
227.5886, 2316.004
228.0707, 2285.786
228.5528, 2263.648
229.0350, 2247.225
229.5171, 2233.769
229.9992, 2226.007
230.4813, 2215.893
230.9634, 2200.004
231.4455, 2175.592
231.9276, 2155.623
232.4098, 2142.038
232.8919, 2131.694
233.3740, 2118.838
233.8561, 2098.131
234.3382, 2083.931
234.8203, 2084.618
235.3025, 2110.410
235.7846, 2114.875
236.2667, 2087.995
236.7488, 2044.882
237.2309, 2013.923
237.7130, 2001.202
238.1952, 1991.479
238.6773, 1979.197
239.1594, 1961.853
239.6415, 1949.948
240.1236, 1944.992
240.6057, 1944.754
241.0879, 1945.757
241.5700, 1952.348
242.0521, 1953.308
242.5342, 1942.367
243.0163, 1911.272
243.4984, 1892.670
243.9806, 1892.947
244.4627, 1902.948
244.9448, 1903.786
245.4269, 1890.749
245.9090, 1875.552
246.3911, 1862.061
246.8732, 1850.347
247.3554, 1840.084
247.8375, 1832.096
248.3196, 1825.140
248.8017, 1816.180
249.2838, 1802.672
249.7659, 1791.481
250.2481, 1786.454
250.7302, 1792.545
251.2123, 1790.057
251.6944, 1773.815
252.1765, 1751.665
252.6586, 1740.276
253.1408, 1746.644
253.6229, 1751.994
254.1050, 1747.785
254.5871, 1728.576
255.0692, 1717.817
255.5513, 1719.391
256.0334, 1727.395
256.5156, 1729.803
256.9977, 1724.947
257.4798, 1717.406
257.9619, 1708.066
258.4440, 1694.960
258.9261, 1686.213
259.4083, 1682.132
259.8904, 1682.037
260.3725, 1685.317
260.8546, 1694.086
261.3367, 1701.842
261.8188, 1705.984
262.3010, 1705.952
262.7831, 1704.394
263.2652, 1701.235
263.7473, 1696.554
264.2294, 1689.349
264.7115, 1677.075
265.1937, 1668.545
265.6758, 1669.676
266.1579, 1683.999
266.6400, 1688.226
267.1221, 1678.364
267.6042, 1662.242
268.0864, 1654.942
268.5685, 1659.594
269.0506, 1663.964
269.5327, 1661.705
270.0148, 1650.782
270.4969, 1649.229
270.9791, 1661.085
271.4612, 1677.296
271.9433, 1681.367
272.4254, 1670.282
272.9075, 1658.689
273.3896, 1651.033
273.8718, 1647.206
274.3539, 1650.677
274.8360, 1663.691
275.3181, 1680.535
275.8002, 1692.344
276.2823, 1698.302
276.7645, 1703.488
277.2466, 1710.159
277.7287, 1718.331
278.2108, 1723.918
278.6929, 1726.246
279.1750, 1727.462
279.6572, 1729.575
280.1393, 1732.288
280.6214, 1738.719
281.1035, 1751.484
281.5856, 1769.885
282.0677, 1785.352
282.5499, 1797.432
283.0320, 1807.883
283.5141, 1817.752
283.9962, 1826.955
284.4783, 1839.249
284.9604, 1856.674
285.4425, 1878.602
285.9247, 1900.685
286.4068, 1922.812
286.8889, 1945.284
287.3710, 1966.346
287.8531, 1986.480
288.3352, 2012.911
288.8174, 2048.955
289.2995, 2092.959
289.7816, 2139.859
290.2637, 2188.839
290.7458, 2240.389
291.2279, 2294.608
291.7101, 2351.460
292.1922, 2410.660
292.6743, 2468.731
293.1564, 2530.116
293.6385, 2604.736
294.1206, 2692.387
294.6028, 2790.839
295.0849, 2899.607
295.5670, 3018.416
296.0491, 3147.277
296.5312, 3287.282
297.0133, 3434.924
297.4955, 3581.843
297.9776, 3726.324
298.4597, 3880.890
298.9418, 4056.103
299.4239, 4247.177
299.9060, 4443.243
300.3882, 4642.106
300.8703, 4841.860
301.3524, 5043.453
301.8345, 5244.324
302.3166, 5426.935
302.7987, 5579.666
303.2809, 5706.502
303.7630, 5818.220
304.2451, 5919.095
304.7272, 5998.861
305.2093, 6033.743
305.6914, 6032.944
306.1736, 6031.757
306.6557, 6043.793
307.1378, 6070.546
307.6199, 6116.466
308.1020, 6189.151
308.5841, 6266.181
309.0663, 6319.249
309.5484, 6361.754
310.0305, 6426.623
310.5126, 6554.648
310.9947, 6700.101
311.4768, 6826.092
311.9590, 6928.610
312.4411, 7006.274
312.9232, 7059.636
313.4053, 7086.707
313.8874, 7083.275
314.3695, 7036.297
314.8517, 6966.808
315.3337, 6889.799
315.8159, 6809.549
316.2980, 6707.407
316.7801, 6564.132
317.2622, 6395.808
317.7443, 6223.605
318.2264, 6050.407
318.7086, 5880.747
319.1907, 5712.001
319.6728, 5541.922
320.1549, 5394.070
320.6370, 5279.224
321.1191, 5188.436
321.6013, 5112.186
322.0834, 5048.733
322.5655, 5000.075
323.0476, 4966.914
323.5297, 4949.224
324.0118, 4945.897
324.4940, 4953.635
324.9761, 4977.259
325.4582, 5020.468
325.9403, 5086.452
326.4224, 5169.006
326.9045, 5268.973
327.3867, 5385.968
327.8688, 5515.161
328.3509, 5670.969
328.8330, 5828.499
329.3151, 5974.857
329.7972, 6085.950
330.2794, 6219.912
330.7615, 6392.925
331.2436, 6594.659
331.7257, 6776.370
332.2078, 6929.889
332.6899, 7074.958
333.1721, 7222.784
333.6542, 7382.878
334.1363, 7523.029
334.6184, 7642.688
335.1005, 7743.130
335.5826, 7832.258
336.0648, 7918.567
336.5469, 7976.597
337.0290, 7992.395
337.5111, 7957.937
337.9932, 7919.323
338.4753, 7877.963
338.9575, 7830.476
339.4396, 7772.564
339.9217, 7704.917
340.4038, 7621.887
340.8859, 7519.790
341.3680, 7399.748
341.8502, 7264.962
342.3323, 7116.300
342.8144, 6958.015
343.2965, 6800.609
343.7786, 6643.031
344.2607, 6472.053
344.7429, 6272.426
345.2250, 6057.589
345.7071, 5878.468
346.1892, 5735.620
346.6713, 5603.195
347.1534, 5454.895
347.6355, 5293.599
348.1176, 5130.185
348.5998, 4960.898
349.0819, 4795.047
349.5640, 4653.378
350.0461, 4532.269
350.5282, 4412.702
351.0103, 4271.548
351.4925, 4122.235
351.9746, 3991.261
352.4567, 3888.310
352.9388, 3795.529
353.4209, 3691.881
353.9030, 3581.318
354.3852, 3476.890
354.8673, 3384.330
355.3494, 3302.777
355.8315, 3232.792
356.3136, 3175.958
356.7957, 3124.284
357.2779, 3072.717
357.7600, 3022.571
358.2421, 2976.908
358.7242, 2937.164
359.2063, 2901.685
359.6884, 2868.234
360.1706, 2836.453
360.6527, 2811.914
361.1348, 2798.288
361.6169, 2792.799
362.0990, 2792.551
362.5811, 2797.254
363.0633, 2806.308
363.5454, 2818.669
364.0275, 2834.576
364.5096, 2857.016
364.9917, 2882.091
365.4738, 2916.795
365.9560, 2965.879
366.4381, 3041.373
366.9202, 3117.709
367.4023, 3189.309
367.8844, 3259.210
368.3665, 3338.987
368.8487, 3443.375
369.3308, 3546.448
369.8129, 3638.946
370.2950, 3726.104
370.7771, 3792.222
371.2592, 3841.740
371.7414, 3868.393
372.2235, 3859.836
372.7056, 3803.177
373.1877, 3731.853
373.6698, 3655.876
374.1519, 3576.282
374.6341, 3483.135
375.1162, 3371.101
375.5983, 3254.217
376.0804, 3147.499
376.5625, 3052.052
377.0446, 2966.327
377.5267, 2892.783
378.0089, 2829.180
378.4910, 2764.920
378.9731, 2699.141
379.4552, 2637.727
379.9373, 2584.477
380.4194, 2539.250
380.9016, 2509.339
381.3837, 2499.441
381.8658, 2500.237
382.3479, 2490.952
382.8300, 2472.467
383.3121, 2457.701
383.7943, 2456.286
384.2764, 2464.828
384.7585, 2472.685
385.2406, 2476.933
385.7227, 2488.454
386.2048, 2528.534
386.6870, 2586.979
387.1691, 2636.337
387.6512, 2661.627
388.1333, 2670.975
388.6154, 2671.646
389.0975, 2663.704
389.5797, 2651.037
390.0618, 2634.730
390.5439, 2615.938
391.0260, 2596.471
391.5081, 2578.499
391.9902, 2558.764
392.4724, 2531.815
392.9545, 2499.939
393.4366, 2474.616
393.9187, 2463.066
394.4008, 2458.552
394.8829, 2455.196
395.3651, 2443.701
395.8472, 2447.485
396.3293, 2481.237
396.8114, 2534.078
397.2935, 2582.556
397.7756, 2612.124
398.2578, 2646.056
398.7399, 2692.757
399.2220, 2754.972
399.7041, 2822.270
400.1862, 2895.146
400.6683, 2972.623
401.1505, 3053.415
401.6326, 3135.455
402.1147, 3224.517
402.5968, 3324.354
403.0789, 3434.317
403.5610, 3539.251
404.0432, 3631.995
404.5253, 3731.513
405.0074, 3856.324
405.4895, 4015.314
405.9716, 4163.322
406.4537, 4297.091
406.9359, 4415.619
407.4180, 4516.866
407.9001, 4602.090
408.3822, 4661.982
408.8643, 4692.830
409.3464, 4694.747
409.8285, 4667.860
410.3106, 4611.340
410.7928, 4529.437
411.2749, 4414.502
411.7570, 4272.901
412.2391, 4139.312
412.7212, 4029.292
413.2033, 3932.884
413.6855, 3831.728
414.1676, 3726.963
414.6497, 3631.019
415.1318, 3549.384
415.6139, 3484.664
416.0960, 3442.948
416.5782, 3428.587
417.0603, 3431.912
417.5424, 3449.686
418.0245, 3479.830
418.5066, 3516.203
418.9887, 3558.577
419.4709, 3604.483
419.9530, 3653.443
420.4351, 3705.546
420.9172, 3758.296
421.3993, 3821.221
421.8814, 3880.903
422.3636, 3920.114
422.8457, 3933.547
423.3278, 3928.095
423.8099, 3900.774
424.2920, 3851.038
424.7741, 3800.081
425.2563, 3763.288
425.7384, 3714.684
426.2205, 3638.072
426.7026, 3515.457
427.1847, 3395.782
427.6668, 3283.010
428.1490, 3174.956
428.6311, 3065.353
429.1132, 2950.494
429.5953, 2839.076
430.0774, 2735.403
430.5595, 2639.478
431.0417, 2549.377
431.5238, 2465.900
432.0059, 2387.769
432.4880, 2311.626
432.9701, 2237.441
433.4522, 2174.443
433.9344, 2127.507
434.4165, 2092.173
434.8986, 2053.230
435.3807, 2010.757
435.8628, 1972.177
436.3449, 1944.264
436.8271, 1924.570
437.3092, 1908.658
437.7913, 1897.838
438.2734, 1885.382
438.7555, 1864.734
439.2376, 1836.896
439.7197, 1804.488
440.2018, 1764.431
440.6840, 1723.190
441.1661, 1685.951
441.6482, 1653.490
442.1303, 1622.900
442.6124, 1593.029
443.0945, 1564.078
443.5767, 1536.619
444.0588, 1508.689
444.5409, 1484.170
445.0230, 1467.840
445.5051, 1457.176
445.9872, 1440.094
446.4694, 1406.981
446.9515, 1373.408
447.4336, 1346.267
447.9157, 1327.670
448.3978, 1311.216
448.8799, 1298.076
449.3621, 1286.561
449.8442, 1274.418
450.3263, 1261.399
450.8084, 1248.322
451.2905, 1234.907
451.7726, 1221.415
452.2548, 1209.997
452.7369, 1200.607
453.2190, 1193.317
453.7011, 1190.571
454.1832, 1192.369
454.6653, 1184.015
455.1475, 1158.245
455.6296, 1130.769
456.1117, 1134.583
456.5938, 1166.436
457.0759, 1197.398
457.5580, 1219.778
458.0402, 1228.562
458.5223, 1205.645
459.0044, 1148.717
459.4865, 1094.399
459.9686, 1077.059
460.4507, 1081.755
460.9329, 1084.863
461.4150, 1075.968
461.8971, 1066.062
462.3792, 1063.456
462.8613, 1066.128
463.3434, 1066.582
463.8256, 1059.652
464.3077, 1050.945
464.7898, 1043.246
465.2719, 1036.422
465.7540, 1032.280
466.2361, 1034.334
466.7183, 1038.167
467.2004, 1038.159
467.6825, 1032.465
468.1646, 1024.501
468.6467, 1012.953
469.1288, 998.2480
469.6110, 988.4416
470.0930, 984.4219
470.5752, 983.7933
471.0573, 986.4034
471.5394, 994.1732
472.0215, 996.1085
472.5036, 990.0328
472.9857, 980.0843
473.4679, 973.2942
473.9500, 969.7896
474.4321, 967.6788
474.9142, 966.2524
475.3963, 965.6700
475.8784, 967.2740
476.3606, 971.1664
476.8427, 974.1755
477.3248, 972.5621
477.8069, 968.1951
478.2890, 965.1785
478.7711, 965.5540
479.2533, 965.1647
479.7354, 958.7458
480.2175, 948.4017
480.6996, 939.2819
481.1817, 934.4232
481.6638, 931.3130
482.1460, 928.0150
482.6281, 924.2336
483.1102, 922.4844
483.5923, 928.1997
484.0744, 933.9271
484.5565, 933.2717
485.0387, 914.9474
485.5208, 901.9363
486.0029, 899.8381
486.4850, 905.2468
486.9671, 908.0308
487.4492, 907.4979
487.9314, 905.2438
488.4135, 901.4879
488.8956, 895.9293
489.3777, 890.7935
489.8598, 885.3195
490.3419, 881.6149
490.8241, 883.4639
491.3062, 891.5844
491.7883, 896.0074
492.2704, 893.6494
492.7525, 887.3964
493.2346, 883.0507
493.7168, 880.7240
494.1989, 881.2092
494.6810, 889.1772
495.1631, 899.4221
495.6452, 900.6000
496.1273, 891.1245
496.6095, 879.2801
497.0916, 870.1913
497.5737, 864.1892
498.0558, 861.8655
498.5379, 867.5365
499.0201, 872.9993
499.5022, 873.7555
499.9843, 870.4838
500.4664, 865.7673
500.9485, 856.0040
501.4306, 848.6302
501.9127, 848.6935
502.3948, 860.7202
502.8770, 868.7377
503.3591, 869.4977
503.8412, 866.6425
504.3233, 863.8029
504.8054, 860.8869
505.2875, 858.1306
505.7697, 855.6161
506.2518, 853.2402
506.7339, 850.8035
507.2160, 848.4904
507.6981, 845.4694
508.1802, 840.3464
508.6624, 833.3103
509.1445, 829.7133
509.6266, 830.3241
510.1087, 831.9478
510.5908, 830.9763
511.0729, 827.7681
511.5551, 823.2269
512.0372, 814.6486
512.5193, 807.9885
513.0014, 814.5980
513.4835, 831.3398
513.9656, 844.4289
514.4478, 842.3980
514.9299, 835.2863
515.4120, 832.0721
515.8941, 835.1360
516.3762, 835.8123
516.8583, 827.1692
517.3405, 815.6140
517.8226, 808.1474
518.3047, 808.4914
518.7868, 810.3843
519.2689, 814.9669
519.7510, 820.8883
520.2332, 821.1631
520.7153, 810.2915
521.1974, 801.5726
521.6795, 802.2927
522.1616, 815.2235
522.6437, 819.7886
523.1259, 813.6086
523.6080, 803.8689
524.0901, 798.2113
524.5722, 796.6458
525.0543, 798.0248
525.5364, 804.2530
526.0186, 810.5176
526.5007, 803.7006
526.9828, 786.1020
527.4649, 772.7851
527.9470, 778.4035
528.4291, 791.0891
528.9113, 793.2945
529.3934, 783.3973
529.8755, 775.1266
530.3576, 779.9423
530.8397, 790.3359
531.3218, 798.3068
531.8040, 802.6525
532.2861, 802.8262
532.7682, 795.5117
533.2503, 783.7051
533.7324, 775.2968
534.2145, 771.7246
534.6967, 771.4492
535.1788, 775.3026
535.6609, 784.1213
536.1430, 788.6061
536.6251, 786.0555
537.1072, 782.8671
537.5894, 785.6993
538.0715, 796.5018
538.5536, 800.2285
539.0357, 793.3183
539.5178, 781.8028
539.9999, 775.4310
540.4821, 774.2349
540.9642, 777.3524
541.4463, 789.1657
541.9284, 803.2377
542.4105, 805.3677
542.8926, 796.3459
543.3748, 786.0973
543.8569, 780.6887
544.3390, 778.6479
544.8211, 778.6215
545.3032, 781.0117
545.7853, 783.4125
546.2675, 785.2534
546.7495, 786.1995
547.2316, 785.7745
547.7137, 782.1026
548.1959, 778.9352
548.6780, 776.0097
549.1601, 773.7885
549.6422, 776.3124
550.1243, 787.7366
550.6064, 798.6368
551.0886, 804.8058
551.5707, 805.8809
552.0528, 803.2896
552.5349, 795.6364
553.0170, 787.2963
553.4991, 783.9642
553.9813, 785.4618
554.4634, 786.8780
554.9455, 787.1278
555.4276, 786.6132
555.9097, 785.0357
556.3918, 782.9498
556.8740, 782.9416
557.3561, 788.1084
557.8382, 795.1979
558.3203, 802.0033
558.8024, 808.4077
559.2845, 810.7183
559.7667, 802.7625
560.2488, 792.1161
560.7309, 785.4841
561.2130, 787.7725
561.6951, 788.7635
562.1772, 784.2559
562.6594, 777.5975
563.1415, 775.4153
563.6236, 781.5980
564.1057, 786.5867
564.5878, 787.8101
565.0699, 785.6908
565.5521, 784.7045
566.0342, 784.9824
566.5163, 785.9863
566.9984, 787.5863
567.4805, 789.7233
567.9626, 791.8944
568.4448, 794.2540
568.9269, 795.8657
569.4090, 795.1661
569.8911, 792.8500
570.3732, 790.6422
570.8553, 788.5834
571.3375, 787.5526
571.8196, 789.9177
572.3017, 794.2358
572.7838, 796.2532
573.2659, 789.1870
573.7480, 783.3640
574.2302, 786.3691
574.7123, 800.0889
575.1944, 808.5251
575.6765, 805.6757
576.1586, 798.9119
576.6407, 792.7922
577.1229, 786.0491
577.6050, 782.6343
578.0871, 783.7987
578.5692, 787.3317
579.0513, 789.0800
579.5334, 788.6196
580.0156, 789.6103
580.4977, 794.0419
580.9798, 800.2444
581.4619, 802.5739
581.9440, 801.3207
582.4261, 800.8782
582.9083, 806.4078
583.3904, 813.8038
583.8725, 817.0821
584.3546, 815.5823
584.8367, 811.2153
585.3188, 801.4073
585.8010, 790.9827
586.2831, 785.2442
586.7652, 788.4741
587.2473, 792.9008
587.7294, 796.8890
588.2115, 800.6896
588.6937, 805.0430
589.1758, 812.5121
589.6579, 817.1031
590.1400, 816.4171
590.6221, 810.8385
591.1042, 806.9246
591.5864, 804.6710
592.0685, 804.2005
592.5506, 806.0786
593.0327, 810.1434
593.5148, 814.5784
593.9969, 819.5243
594.4791, 823.7085
594.9612, 825.8562
595.4433, 826.1532
595.9254, 824.5540
596.4075, 818.5875
596.8896, 814.3320
597.3718, 819.1157
597.8539, 829.7173
598.3360, 838.1920
598.8181, 838.6980
599.3002, 838.7462
599.7823, 842.6221
600.2645, 850.7604
600.7466, 855.6208
601.2287, 851.6698
601.7108, 848.9944
602.1929, 854.2439
602.6750, 872.8089
603.1572, 882.3527
603.6393, 880.8392
604.1214, 873.8810
604.6035, 866.8151
605.0856, 859.6968
605.5677, 857.9102
606.0499, 864.5367
606.5320, 874.4825
607.0141, 879.9767
607.4962, 881.3582
607.9783, 880.0188
608.4604, 872.9210
608.9425, 865.9830
609.4246, 865.0346
609.9067, 870.0364
610.3889, 876.5283
610.8710, 884.7545
611.3531, 892.2331
611.8352, 897.5067
612.3173, 901.0281
612.7994, 900.7840
613.2816, 892.6010
613.7637, 883.5244
614.2458, 882.6848
614.7279, 894.7713
615.2100, 900.2102
615.6921, 894.1429
616.1743, 881.5131
616.6564, 873.3926
617.1385, 869.7834
617.6206, 870.5975
618.1027, 879.6765
