##NAMES=Mimetite
##RRUFFID=R070309
##IDEAL CHEMISTRY=Pb^2+^_5_(As^5+^O_4_)_3_Cl
##LOCALITY=Vrancice, Czechoslovakia
##OWNER=RRUFF
##SOURCE=Michael Scott
##DESCRIPTION=Creamy white massive associated with white calcite. Crystal structure analysis demonstrated full occupancy by Pb with no ordering of Ca.
##STATUS=The identification of this mineral has been confirmed by single-crystal X-ray diffraction.
##URL=rruff.info/R070309
134.7162, 4305.178
135.1983, 4479.239
135.6804, 4650.267
136.1626, 4817.323
136.6447, 4979.914
137.1268, 5134.027
137.6089, 5275.280
138.0910, 5419.504
138.5731, 5574.785
139.0553, 5748.055
139.5374, 5907.937
140.0195, 6049.709
140.5016, 6176.942
140.9837, 6297.446
141.4658, 6411.883
141.9480, 6520.412
142.4301, 6623.139
142.9122, 6723.285
143.3943, 6809.869
143.8764, 6877.565
144.3585, 6926.336
144.8407, 6983.979
145.3228, 7056.333
145.8049, 7132.755
146.2870, 7202.994
146.7691, 7265.336
147.2512, 7322.620
147.7334, 7374.047
148.2155, 7419.168
148.6976, 7462.513
149.1797, 7498.267
149.6618, 7534.050
150.1439, 7579.504
150.6261, 7631.233
151.1082, 7695.166
151.5903, 7776.102
152.0724, 7887.545
152.5545, 7985.145
153.0366, 8056.264
153.5188, 8111.270
154.0009, 8170.286
154.4830, 8241.480
154.9651, 8313.911
155.4472, 8384.354
155.9293, 8459.528
156.4115, 8521.743
156.8936, 8560.287
157.3757, 8581.421
157.8578, 8607.542
158.3399, 8643.766
158.8221, 8687.755
159.3042, 8738.451
159.7863, 8816.938
160.2684, 8881.183
160.7505, 8905.080
161.2326, 8894.921
161.7148, 8897.611
162.1969, 8940.426
162.6790, 9002.930
163.1611, 9064.754
163.6432, 9130.540
164.1253, 9185.548
164.6075, 9213.976
165.0896, 9214.975
165.5717, 9223.395
166.0538, 9266.999
166.5359, 9328.887
167.0180, 9384.888
167.5002, 9407.663
167.9823, 9432.025
168.4644, 9491.962
168.9465, 9595.460
169.4286, 9696.229
169.9107, 9759.305
170.3929, 9794.328
170.8750, 9823.229
171.3571, 9861.834
171.8392, 9897.570
172.3213, 9913.562
172.8034, 9902.889
173.2856, 9887.803
173.7677, 9888.711
174.2498, 9902.533
174.7319, 9918.597
175.2140, 9936.048
175.6961, 9950.430
176.1783, 9954.670
176.6604, 9946.909
177.1425, 9929.616
177.6246, 9905.215
178.1067, 9873.868
178.5888, 9834.840
179.0710, 9789.553
179.5531, 9736.804
180.0352, 9671.651
180.5173, 9583.916
180.9994, 9493.190
181.4815, 9439.839
181.9637, 9422.320
182.4458, 9407.137
182.9279, 9363.589
183.4100, 9297.668
183.8921, 9231.254
184.3742, 9170.405
184.8564, 9112.997
185.3385, 9054.852
185.8206, 8995.136
186.3027, 8938.721
186.7848, 8893.761
187.2669, 8858.355
187.7491, 8816.487
188.2312, 8759.162
188.7133, 8691.140
189.1954, 8626.661
189.6775, 8565.273
190.1596, 8511.420
190.6418, 8475.521
191.1239, 8457.150
191.6060, 8432.738
192.0881, 8390.976
192.5702, 8333.597
193.0524, 8275.445
193.5345, 8216.794
194.0166, 8157.068
194.4987, 8093.409
194.9808, 8025.041
195.4629, 7964.242
195.9451, 7923.268
196.4272, 7900.999
196.9093, 7864.016
197.3914, 7807.328
197.8735, 7742.119
198.3556, 7689.509
198.8378, 7650.994
199.3199, 7616.548
199.8020, 7580.335
200.2841, 7542.162
200.7662, 7511.506
201.2483, 7492.813
201.7305, 7478.381
202.2126, 7446.951
202.6947, 7394.457
203.1768, 7340.137
203.6589, 7295.664
204.1410, 7262.741
204.6232, 7230.142
205.1053, 7195.879
205.5874, 7161.765
206.0695, 7134.414
206.5516, 7115.271
207.0337, 7099.098
207.5159, 7080.612
207.9980, 7057.710
208.4801, 7046.407
208.9622, 7057.612
209.4443, 7081.763
209.9264, 7065.838
210.4086, 6992.884
210.8907, 6913.658
211.3728, 6870.447
211.8549, 6874.079
212.3370, 6875.771
212.8191, 6869.176
213.3013, 6854.811
213.7834, 6835.082
214.2655, 6806.521
214.7476, 6778.081
215.2297, 6759.827
215.7118, 6758.159
216.1940, 6747.657
216.6761, 6719.734
217.1582, 6675.584
217.6403, 6645.681
218.1224, 6635.376
218.6045, 6632.592
219.0867, 6626.431
219.5688, 6616.595
220.0509, 6604.124
220.5330, 6589.404
221.0151, 6572.248
221.4972, 6552.354
221.9794, 6526.711
222.4615, 6501.503
222.9436, 6483.008
223.4257, 6472.457
223.9078, 6466.076
224.3899, 6463.236
224.8721, 6463.918
225.3542, 6469.675
225.8363, 6489.525
226.3184, 6505.991
226.8005, 6495.295
227.2827, 6439.928
227.7648, 6390.899
228.2469, 6361.754
228.7290, 6354.922
229.2111, 6349.632
229.6932, 6345.456
230.1754, 6343.225
230.6575, 6344.826
231.1396, 6354.291
231.6217, 6360.286
232.1038, 6358.126
232.5859, 6345.128
233.0681, 6338.701
233.5502, 6341.367
234.0323, 6348.778
234.5144, 6355.647
234.9965, 6365.366
235.4786, 6368.426
235.9608, 6358.799
236.4429, 6331.025
236.9250, 6317.139
237.4071, 6323.349
237.8892, 6339.733
238.3713, 6350.882
238.8535, 6355.232
239.3356, 6356.944
239.8177, 6357.193
240.2998, 6355.966
240.7819, 6352.517
241.2640, 6342.284
241.7462, 6332.419
242.2283, 6337.029
242.7104, 6367.922
243.1925, 6393.843
243.6746, 6403.623
244.1567, 6392.542
244.6389, 6379.954
245.1210, 6359.565
245.6031, 6341.363
246.0852, 6346.567
246.5673, 6393.648
247.0494, 6432.518
247.5316, 6442.149
248.0137, 6409.724
248.4958, 6392.033
248.9779, 6395.258
249.4600, 6409.872
249.9421, 6417.504
250.4243, 6412.788
250.9064, 6410.821
251.3885, 6418.217
251.8706, 6439.112
252.3527, 6455.836
252.8348, 6468.073
253.3170, 6476.344
253.7991, 6480.401
254.2812, 6476.345
254.7633, 6475.531
255.2454, 6484.375
255.7275, 6508.246
256.2097, 6520.057
256.6918, 6512.212
257.1739, 6497.394
257.6560, 6501.455
258.1381, 6535.154
258.6202, 6565.510
259.1024, 6577.707
259.5845, 6564.595
260.0666, 6563.026
260.5487, 6576.611
261.0308, 6599.023
261.5129, 6618.289
261.9951, 6630.427
262.4772, 6648.707
262.9593, 6682.686
263.4414, 6740.457
263.9235, 6774.550
264.4056, 6776.773
264.8878, 6763.280
265.3699, 6759.308
265.8520, 6761.826
266.3341, 6782.662
266.8162, 6833.895
267.2983, 6922.984
267.7805, 6991.010
268.2626, 7033.308
268.7447, 7058.975
269.2268, 7081.201
269.7089, 7098.095
270.1910, 7118.154
270.6732, 7143.537
271.1553, 7173.637
271.6374, 7215.639
272.1195, 7272.138
272.6016, 7336.854
273.0837, 7396.842
273.5659, 7450.619
274.0480, 7508.514
274.5301, 7577.292
275.0122, 7657.210
275.4943, 7731.576
275.9764, 7799.169
276.4586, 7863.505
276.9407, 7925.121
277.4228, 7980.902
277.9049, 8053.616
278.3870, 8158.351
278.8691, 8293.271
279.3513, 8413.345
279.8334, 8513.876
280.3155, 8611.633
280.7976, 8731.396
281.2798, 8872.947
281.7619, 9017.539
282.2440, 9160.986
282.7261, 9302.390
283.2082, 9430.946
283.6903, 9542.953
284.1725, 9655.749
284.6546, 9792.506
285.1367, 9951.437
285.6188, 10116.54
286.1009, 10280.94
286.5830, 10446.68
287.0652, 10624.02
287.5473, 10812.12
288.0294, 11007.16
288.5115, 11205.29
288.9936, 11407.25
289.4757, 11611.20
289.9579, 11827.08
290.4400, 12042.94
290.9221, 12225.97
291.4042, 12374.13
291.8863, 12515.00
292.3684, 12676.55
292.8506, 12854.59
293.3327, 13032.86
293.8148, 13206.42
294.2969, 13378.09
294.7790, 13561.29
295.2611, 13756.82
295.7433, 13945.84
296.2254, 14113.03
296.7075, 14263.79
297.1896, 14404.79
297.6717, 14526.83
298.1538, 14653.64
298.6360, 14822.90
299.1181, 15033.74
299.6002, 15257.45
300.0823, 15479.33
300.5644, 15699.86
301.0465, 15919.21
301.5287, 16124.81
302.0108, 16344.81
302.4929, 16609.08
302.9750, 16916.23
303.4571, 17243.07
303.9392, 17577.47
304.4214, 17923.25
304.9035, 18296.37
305.3856, 18703.05
305.8677, 19120.46
306.3498, 19500.49
306.8319, 19860.63
307.3141, 20272.47
307.7962, 20812.63
308.2783, 21402.71
308.7604, 21976.91
309.2425, 22511.94
309.7246, 23025.19
310.2068, 23521.92
310.6889, 24006.37
311.1710, 24494.99
311.6531, 24994.54
312.1352, 25502.81
312.6173, 26019.28
313.0995, 26547.08
313.5816, 27056.54
314.0637, 27540.64
314.5458, 27998.64
315.0279, 28433.34
315.5100, 28853.24
315.9922, 29244.52
316.4743, 29603.98
316.9564, 29935.77
317.4385, 30216.74
317.9206, 30426.06
318.4027, 30582.93
318.8849, 30714.24
319.3670, 30869.97
319.8491, 30963.72
320.3312, 30957.71
320.8133, 30840.45
321.2954, 30674.91
321.7776, 30450.15
322.2597, 30191.33
322.7418, 29925.25
323.2239, 29722.65
323.7060, 29446.37
324.1881, 29033.41
324.6703, 28468.48
325.1524, 27942.83
325.6345, 27507.94
326.1166, 27102.81
326.5987, 26674.49
327.0808, 26201.58
327.5630, 25730.37
328.0451, 25254.09
328.5272, 24774.92
329.0093, 24338.83
329.4914, 23989.65
329.9735, 23653.85
330.4557, 23283.59
330.9378, 22842.49
331.4199, 22428.54
331.9020, 22045.92
332.3841, 21694.06
332.8662, 21370.12
333.3484, 21080.98
333.8305, 20814.14
334.3126, 20561.25
334.7947, 20326.15
335.2768, 20100.12
335.7589, 19880.14
336.2411, 19670.95
336.7232, 19479.60
337.2053, 19310.13
337.6874, 19150.82
338.1695, 18990.96
338.6516, 18828.98
339.1338, 18691.75
339.6159, 18581.87
340.0980, 18495.36
340.5801, 18434.34
341.0622, 18400.96
341.5443, 18366.13
342.0265, 18305.61
342.5086, 18226.30
342.9907, 18194.90
343.4728, 18218.97
343.9549, 18262.34
344.4370, 18277.99
344.9192, 18269.32
345.4013, 18269.03
345.8834, 18282.86
346.3655, 18314.81
346.8476, 18383.49
347.3297, 18489.60
347.8119, 18602.29
348.2940, 18694.87
348.7761, 18770.61
349.2582, 18835.89
349.7403, 18886.61
350.2225, 18935.63
350.7046, 19006.87
351.1867, 19097.77
351.6688, 19183.65
352.1509, 19262.84
352.6331, 19321.81
353.1152, 19334.64
353.5973, 19277.77
354.0794, 19207.05
354.5615, 19186.01
355.0436, 19195.08
355.5258, 19174.77
356.0079, 19085.01
356.4900, 18955.65
356.9721, 18809.59
357.4542, 18647.80
357.9363, 18477.99
358.4185, 18300.87
358.9006, 18119.03
359.3827, 17937.01
359.8648, 17746.62
360.3469, 17564.39
360.8290, 17407.73
361.3112, 17283.69
361.7933, 17138.77
362.2754, 16921.93
362.7575, 16687.01
363.2396, 16491.68
363.7217, 16410.97
364.2039, 16311.76
364.6860, 16153.08
365.1681, 15932.76
365.6502, 15712.50
366.1323, 15484.59
366.6144, 15266.16
367.0966, 15068.48
367.5787, 14908.73
368.0608, 14751.78
368.5429, 14601.20
369.0250, 14452.89
369.5071, 14289.35
369.9893, 14101.31
370.4714, 13909.71
370.9535, 13721.60
371.4356, 13529.04
371.9177, 13365.71
372.3998, 13250.70
372.8820, 13155.09
373.3641, 13009.60
373.8462, 12791.70
374.3283, 12583.50
374.8104, 12423.09
375.2925, 12313.46
375.7747, 12202.46
376.2568, 12091.18
376.7389, 11974.54
377.2210, 11842.12
377.7031, 11692.17
378.1852, 11552.59
378.6674, 11436.05
379.1495, 11336.26
379.6316, 11217.91
380.1137, 11080.11
380.5958, 10940.78
381.0779, 10816.40
381.5601, 10704.66
382.0422, 10604.71
382.5243, 10518.21
383.0064, 10437.61
383.4885, 10351.69
383.9706, 10259.85
384.4528, 10163.71
384.9349, 10050.22
385.4170, 9935.942
385.8991, 9849.158
386.3812, 9798.975
386.8633, 9757.814
387.3455, 9701.610
387.8276, 9634.854
388.3097, 9566.741
388.7918, 9496.764
389.2739, 9431.323
389.7560, 9379.049
390.2382, 9341.975
390.7203, 9301.223
391.2024, 9235.339
391.6845, 9164.191
392.1666, 9109.904
392.6487, 9096.630
393.1309, 9086.352
393.6130, 9067.322
394.0951, 9039.196
394.5772, 9002.538
395.0593, 8945.108
395.5414, 8886.968
396.0236, 8841.192
396.5057, 8803.899
396.9878, 8785.666
397.4699, 8803.943
397.9520, 8844.422
398.4341, 8861.711
398.9163, 8833.890
399.3984, 8805.598
399.8805, 8794.405
400.3626, 8809.764
400.8447, 8812.975
401.3268, 8794.197
401.8090, 8770.551
402.2911, 8770.022
402.7732, 8806.888
403.2553, 8828.547
403.7374, 8813.495
404.2195, 8764.978
404.7017, 8745.172
405.1838, 8760.998
405.6659, 8786.924
406.1480, 8800.261
406.6301, 8800.917
407.1122, 8799.969
407.5944, 8797.757
408.0765, 8796.794
408.5586, 8802.668
409.0407, 8815.351
409.5228, 8833.775
410.0049, 8861.630
410.4871, 8894.589
410.9692, 8920.509
411.4513, 8937.577
411.9334, 8950.170
412.4155, 8964.548
412.8976, 8978.987
413.3798, 8988.116
413.8619, 8984.055
414.3440, 8976.835
414.8261, 8976.955
415.3082, 8984.675
415.7903, 8995.134
416.2725, 9010.821
416.7546, 9025.418
417.2367, 9031.854
417.7188, 9021.599
418.2009, 9009.481
418.6830, 9006.617
419.1652, 9008.654
419.6473, 8999.733
420.1294, 8972.908
420.6115, 8934.941
421.0937, 8884.289
421.5758, 8802.254
422.0579, 8749.927
422.5400, 8767.615
423.0221, 8812.911
423.5042, 8816.138
423.9864, 8737.268
424.4685, 8658.848
424.9506, 8599.713
425.4327, 8562.688
425.9148, 8518.063
426.3969, 8460.796
426.8791, 8401.706
427.3612, 8349.587
427.8433, 8303.448
428.3254, 8269.564
428.8075, 8256.065
429.2896, 8252.773
429.7718, 8222.687
430.2539, 8161.700
430.7360, 8095.947
431.2181, 8040.884
431.7002, 7995.827
432.1823, 7950.417
432.6645, 7903.667
433.1466, 7857.973
433.6287, 7815.911
434.1108, 7777.828
434.5929, 7745.750
435.0750, 7728.112
435.5572, 7714.052
436.0393, 7680.063
436.5214, 7627.170
437.0035, 7576.852
437.4856, 7554.803
437.9677, 7543.597
438.4499, 7517.626
438.9320, 7462.015
439.4141, 7404.428
439.8962, 7365.237
440.3783, 7339.681
440.8604, 7314.324
441.3426, 7273.156
441.8247, 7238.556
442.3068, 7229.629
442.7889, 7256.986
443.2710, 7268.509
443.7531, 7237.233
444.2353, 7188.157
444.7174, 7148.374
445.1995, 7126.455
445.6816, 7109.414
446.1637, 7098.289
446.6458, 7092.165
447.1280, 7079.451
447.6101, 7051.869
448.0922, 7026.771
448.5743, 7016.664
449.0564, 7034.360
449.5385, 7029.750
450.0207, 6990.165
450.5028, 6938.169
450.9849, 6922.068
451.4670, 6950.634
451.9491, 6971.284
452.4312, 6961.948
452.9134, 6926.154
453.3955, 6886.468
453.8776, 6840.938
454.3597, 6806.027
454.8418, 6808.561
455.3239, 6838.698
455.8061, 6854.869
456.2882, 6844.732
456.7703, 6821.356
457.2524, 6801.264
457.7345, 6783.737
458.2166, 6765.338
458.6988, 6738.594
459.1809, 6712.822
459.6630, 6699.681
460.1451, 6701.357
460.6272, 6707.153
461.1093, 6715.816
461.5915, 6722.955
462.0736, 6722.873
462.5557, 6709.113
463.0378, 6692.328
463.5199, 6674.037
464.0020, 6655.116
464.4842, 6640.704
464.9663, 6633.761
465.4484, 6630.394
465.9305, 6628.598
466.4126, 6628.471
466.8947, 6629.490
467.3769, 6631.180
467.8590, 6634.203
468.3411, 6640.715
468.8232, 6655.425
469.3053, 6663.789
469.7874, 6659.553
470.2696, 6643.729
470.7517, 6637.314
471.2338, 6644.209
471.7159, 6648.606
472.1980, 6632.687
472.6801, 6597.030
473.1623, 6570.296
473.6444, 6556.850
474.1265, 6552.947
474.6086, 6555.059
475.0907, 6562.295
475.5728, 6568.881
476.0550, 6573.146
476.5371, 6574.333
477.0192, 6567.910
477.5013, 6553.528
477.9834, 6544.290
478.4655, 6555.744
478.9477, 6576.765
479.4298, 6592.655
479.9119, 6597.483
480.3940, 6598.408
480.8761, 6597.851
481.3582, 6596.133
481.8404, 6594.169
482.3225, 6591.763
482.8046, 6589.591
483.2867, 6587.569
483.7688, 6584.997
484.2509, 6584.998
484.7331, 6591.933
485.2152, 6599.429
485.6973, 6601.192
486.1794, 6591.689
486.6615, 6586.040
487.1436, 6587.489
487.6258, 6594.432
488.1079, 6599.055
488.5900, 6600.391
489.0721, 6602.002
489.5542, 6605.671
490.0363, 6611.411
490.5185, 6620.096
491.0006, 6633.340
491.4827, 6643.969
491.9648, 6640.277
492.4470, 6624.540
492.9291, 6608.598
493.4112, 6594.068
493.8933, 6583.931
494.3754, 6585.431
494.8575, 6597.164
495.3397, 6610.204
495.8218, 6622.988
496.3039, 6632.067
496.7860, 6632.492
497.2681, 6621.718
497.7502, 6609.783
498.2324, 6601.993
498.7145, 6596.225
499.1966, 6589.439
499.6787, 6576.190
500.1608, 6566.469
500.6429, 6563.154
501.1251, 6566.196
501.6072, 6573.668
502.0893, 6591.485
502.5714, 6608.437
503.0535, 6619.844
503.5356, 6626.720
504.0178, 6623.777
504.4999, 6602.131
504.9820, 6578.856
505.4641, 6585.245
505.9462, 6629.333
506.4283, 6660.253
506.9105, 6657.950
507.3926, 6632.405
507.8747, 6624.651
508.3568, 6635.526
508.8389, 6648.578
509.3210, 6652.022
509.8032, 6648.281
510.2853, 6642.509
510.7674, 6633.970
511.2495, 6629.355
511.7316, 6639.995
512.2137, 6659.452
512.6959, 6674.458
513.1780, 6680.802
513.6601, 6679.921
514.1422, 6665.130
514.6243, 6640.033
515.1064, 6628.494
515.5886, 6656.564
516.0707, 6689.413
516.5528, 6704.270
517.0349, 6686.249
517.5170, 6675.676
517.9991, 6680.788
518.4813, 6693.706
518.9634, 6704.978
519.4455, 6714.643
519.9276, 6722.415
520.4097, 6727.074
520.8918, 6729.457
521.3740, 6738.729
521.8561, 6759.682
522.3382, 6771.652
522.8203, 6750.835
523.3024, 6700.701
523.7845, 6682.344
524.2667, 6703.989
524.7488, 6738.858
525.2309, 6759.443
525.7130, 6766.904
526.1951, 6764.368
526.6772, 6745.923
527.1594, 6724.757
527.6415, 6717.776
528.1236, 6722.392
528.6057, 6727.114
529.0878, 6720.250
529.5699, 6714.375
530.0521, 6720.246
530.5342, 6741.751
531.0163, 6763.665
531.4984, 6787.733
531.9805, 6807.118
532.4626, 6814.717
532.9448, 6794.900
533.4269, 6780.907
533.9090, 6780.447
534.3911, 6788.940
534.8732, 6786.960
535.3553, 6765.447
535.8375, 6750.481
536.3196, 6755.557
536.8017, 6781.847
537.2838, 6806.470
537.7659, 6831.701
538.2480, 6848.461
538.7302, 6837.130
539.2123, 6803.659
539.6944, 6793.143
540.1765, 6824.277
540.6586, 6866.136
541.1407, 6876.830
541.6229, 6861.515
542.1050, 6839.173
542.5871, 6802.631
543.0692, 6774.946
543.5513, 6786.757
544.0334, 6839.029
544.5156, 6881.764
544.9977, 6883.279
545.4798, 6870.380
545.9619, 6864.266
546.4440, 6876.875
546.9261, 6884.557
547.4083, 6880.499
547.8904, 6870.182
548.3725, 6863.415
548.8546, 6860.798
549.3367, 6860.583
549.8188, 6861.961
550.3010, 6865.154
550.7831, 6873.769
551.2652, 6889.330
551.7473, 6905.283
552.2294, 6921.166
552.7115, 6935.591
553.1937, 6928.600
553.6758, 6894.012
554.1579, 6857.134
554.6400, 6851.348
555.1221, 6868.956
555.6042, 6887.962
556.0864, 6900.161
556.5685, 6910.940
557.0506, 6928.542
557.5327, 6949.959
558.0148, 6963.636
558.4969, 6956.275
558.9791, 6945.209
559.4612, 6941.097
559.9433, 6946.240
560.4254, 6952.185
560.9075, 6961.470
561.3896, 6968.535
561.8718, 6968.083
562.3539, 6949.967
562.8360, 6942.391
563.3181, 6953.089
563.8002, 6972.916
564.2823, 6977.503
564.7645, 6962.384
565.2466, 6952.107
565.7287, 6958.544
566.2108, 6977.941
566.6929, 6993.264
567.1750, 7004.439
567.6572, 7010.398
568.1393, 7000.872
568.6214, 6986.892
569.1035, 6995.244
569.5856, 7035.977
570.0677, 7075.285
570.5499, 7083.984
571.0320, 7073.276
571.5141, 7061.057
571.9962, 7044.493
572.4783, 7036.981
572.9604, 7050.959
573.4426, 7081.336
573.9247, 7102.213
574.4068, 7101.090
574.8889, 7097.074
575.3710, 7097.610
575.8531, 7104.157
576.3353, 7107.575
576.8174, 7107.310
577.2995, 7104.692
577.7816, 7098.163
578.2637, 7086.408
578.7458, 7087.391
579.2280, 7107.523
579.7101, 7134.493
580.1922, 7147.323
580.6743, 7147.354
581.1564, 7142.163
581.6385, 7125.082
582.1207, 7110.184
582.6028, 7123.770
583.0849, 7161.581
583.5670, 7191.208
584.0491, 7179.104
584.5313, 7160.352
585.0134, 7166.711
585.4955, 7215.505
585.9776, 7247.986
586.4597, 7233.992
586.9418, 7202.225
587.4240, 7185.407
587.9061, 7193.667
588.3882, 7202.597
588.8703, 7210.163
589.3524, 7216.582
589.8345, 7221.808
590.3167, 7224.886
590.7988, 7230.696
591.2809, 7243.665
591.7630, 7261.399
592.2451, 7267.964
592.7272, 7262.786
593.2094, 7260.437
593.6915, 7282.120
594.1736, 7313.418
594.6557, 7324.599
595.1378, 7307.209
595.6199, 7284.438
596.1021, 7266.209
596.5842, 7255.495
597.0663, 7256.547
597.5485, 7275.236
598.0306, 7301.214
598.5127, 7342.214
598.9948, 7390.760
599.4769, 7415.022
599.9590, 7396.647
600.4412, 7374.368
600.9233, 7358.021
601.4054, 7347.055
601.8875, 7351.715
602.3696, 7377.696
602.8517, 7405.271
603.3339, 7415.963
603.8160, 7411.182
604.2981, 7406.351
604.7802, 7402.085
605.2623, 7402.120
605.7444, 7414.936
606.2266, 7436.305
606.7087, 7454.257
607.1908, 7463.157
607.6729, 7468.646
608.1550, 7476.256
608.6371, 7484.417
609.1193, 7488.285
609.6014, 7478.044
610.0835, 7469.772
610.5656, 7473.120
611.0477, 7490.743
611.5298, 7503.405
612.0120, 7508.641
612.4941, 7510.514
612.9762, 7511.864
613.4583, 7513.692
613.9404, 7509.070
614.4225, 7492.394
614.9047, 7478.722
615.3868, 7496.268
615.8689, 7542.268
616.3510, 7577.856
616.8331, 7589.438
617.3152, 7587.793
617.7974, 7588.252
618.2795, 7589.700
618.7616, 7587.875
619.2437, 7571.689
619.7258, 7557.853
620.2079, 7559.932
620.6901, 7578.599
621.1722, 7601.440
621.6543, 7633.728
622.1364, 7662.162
622.6185, 7677.321
623.1006, 7674.655
623.5828, 7668.108
624.0649, 7656.428
624.5470, 7642.017
625.0291, 7623.522
625.5112, 7596.261
625.9933, 7592.641
626.4755, 7625.167
626.9576, 7675.374
627.4397, 7707.292
627.9218, 7722.088
628.4039, 7728.682
628.8860, 7724.401
629.3682, 7718.149
629.8503, 7727.284
630.3324, 7748.892
630.8145, 7760.622
