##NAMES=Mimetite
##RRUFFID=R050007
##IDEAL CHEMISTRY=Pb^2+^_5_(As^5+^O_4_)_3_Cl
##LOCALITY=Pingtouling, Guangdong, China
##OWNER=RRUFF
##SOURCE=Eugene Schlepp
##DESCRIPTION=Reddish orange colored hexagonal prisms
##STATUS=The identification of this mineral has been confirmed by X-ray diffraction and chemical analysis
##URL=rruff.info/R050007
##MEASURED CHEMISTRY=Pb_5.00_((As_0.99_P_0.01_)O_4_)_3_Cl_1.00_
107.5201, 92.20428
108.0023, 94.65967
108.4844, 99.11131
108.9665, 103.0286
109.4486, 105.1448
109.9307, 106.0281
110.4128, 107.0934
110.8950, 108.7071
111.3771, 110.9511
111.8592, 113.5801
112.3413, 116.2010
112.8234, 120.1903
113.3055, 127.4766
113.7877, 137.6247
114.2698, 146.3817
114.7519, 151.1532
115.2340, 154.3270
115.7161, 158.7058
116.1982, 164.4928
116.6804, 171.5767
117.1625, 180.4416
117.6446, 191.4526
118.1267, 201.5886
118.6088, 207.0473
119.0909, 212.2937
119.5731, 221.4835
120.0552, 236.2545
120.5373, 253.7256
121.0194, 269.2718
121.5015, 281.6302
121.9836, 295.6905
122.4658, 312.4869
122.9479, 331.7882
123.4300, 353.4916
123.9121, 377.6222
124.3942, 404.2309
124.8763, 433.3485
125.3585, 466.3545
125.8406, 500.2234
126.3227, 532.9502
126.8048, 566.4028
127.2869, 603.3194
127.7690, 645.0711
128.2512, 690.7364
128.7333, 734.7982
129.2154, 771.5623
129.6975, 814.1898
130.1796, 867.9805
130.6617, 928.1591
131.1439, 989.0345
131.6260, 1047.919
132.1081, 1103.855
132.5902, 1149.139
133.0723, 1173.647
133.5544, 1197.170
134.0366, 1222.082
134.5187, 1248.541
135.0008, 1276.125
135.4829, 1304.401
135.9650, 1333.380
136.4471, 1363.654
136.9293, 1393.091
137.4114, 1425.706
137.8935, 1460.244
138.3756, 1498.729
138.8577, 1545.621
139.3398, 1604.285
139.8220, 1674.982
140.3041, 1753.294
140.7862, 1842.052
141.2683, 1933.717
141.7504, 2022.851
142.2325, 2110.879
142.7147, 2203.661
143.1968, 2307.044
143.6789, 2420.964
144.1610, 2532.188
144.6431, 2636.971
145.1252, 2742.081
145.6074, 2855.878
146.0895, 2976.244
146.5716, 3089.184
147.0537, 3182.571
147.5358, 3255.123
148.0179, 3328.017
148.5001, 3410.089
148.9822, 3486.052
149.4643, 3545.932
149.9464, 3589.443
150.4285, 3619.477
150.9106, 3636.089
151.3928, 3639.247
151.8749, 3639.064
152.3570, 3635.982
152.8391, 3629.805
153.3212, 3619.969
153.8033, 3606.407
154.2855, 3590.123
154.7676, 3567.710
155.2497, 3542.250
155.7318, 3527.313
156.2139, 3532.482
156.6960, 3545.569
157.1782, 3550.586
157.6603, 3545.042
158.1424, 3543.287
158.6245, 3559.568
159.1066, 3588.521
159.5887, 3618.486
160.0709, 3644.863
160.5530, 3671.200
161.0351, 3701.928
161.5172, 3736.898
161.9993, 3776.718
162.4814, 3823.279
162.9636, 3874.704
163.4457, 3929.655
163.9278, 3992.978
164.4099, 4057.802
164.8920, 4108.707
165.3741, 4140.396
165.8563, 4172.729
166.3384, 4222.212
166.8205, 4280.430
167.3026, 4333.434
167.7847, 4376.648
168.2668, 4410.943
168.7490, 4436.167
169.2311, 4447.343
169.7132, 4461.072
170.1953, 4492.719
170.6774, 4531.697
171.1595, 4561.095
171.6417, 4571.952
172.1238, 4568.798
172.6059, 4560.702
173.0880, 4542.046
173.5701, 4530.221
174.0522, 4538.137
174.5344, 4555.886
175.0165, 4569.417
175.4986, 4571.865
175.9807, 4565.795
176.4628, 4557.604
176.9449, 4545.493
177.4271, 4534.603
177.9092, 4528.103
178.3913, 4523.561
178.8734, 4516.453
179.3555, 4501.657
179.8376, 4485.473
180.3197, 4488.481
180.8019, 4523.995
181.2840, 4555.567
181.7661, 4572.718
182.2482, 4579.771
182.7303, 4581.231
183.2124, 4578.641
183.6946, 4572.904
184.1767, 4567.276
184.6588, 4565.706
185.1409, 4556.670
185.6230, 4525.666
186.1051, 4490.813
186.5873, 4475.464
187.0694, 4493.062
187.5515, 4529.026
188.0336, 4543.662
188.5157, 4521.992
188.9978, 4503.776
189.4800, 4501.570
189.9621, 4505.156
190.4442, 4504.305
190.9263, 4494.547
191.4084, 4477.899
191.8905, 4458.578
192.3727, 4433.543
192.8548, 4411.225
193.3369, 4394.118
193.8190, 4379.330
194.3011, 4365.163
194.7832, 4351.027
195.2654, 4334.838
195.7475, 4311.846
196.2296, 4278.221
196.7117, 4244.191
197.1938, 4207.645
197.6759, 4173.087
198.1581, 4144.979
198.6402, 4124.655
199.1223, 4109.604
199.6044, 4096.345
200.0865, 4089.627
200.5686, 4074.461
201.0508, 4044.326
201.5329, 4010.111
202.0150, 3979.912
202.4971, 3955.951
202.9792, 3935.990
203.4613, 3915.874
203.9435, 3892.803
204.4256, 3876.491
204.9077, 3878.079
205.3898, 3878.167
205.8719, 3858.334
206.3540, 3817.319
206.8362, 3773.812
207.3183, 3756.578
207.8004, 3783.299
208.2825, 3791.253
208.7646, 3768.944
209.2467, 3738.954
209.7289, 3711.355
210.2110, 3688.864
210.6931, 3670.868
211.1752, 3657.701
211.6573, 3651.692
212.1395, 3642.147
212.6216, 3623.719
213.1037, 3606.591
213.5858, 3598.148
214.0679, 3596.862
214.5500, 3594.512
215.0322, 3581.749
215.5143, 3555.979
215.9964, 3537.393
216.4785, 3531.128
216.9606, 3527.078
217.4427, 3521.582
217.9249, 3514.981
218.4070, 3509.630
218.8891, 3507.952
219.3712, 3510.122
219.8533, 3509.550
220.3354, 3504.339
220.8176, 3498.029
221.2997, 3492.128
221.7818, 3485.823
222.2639, 3477.064
222.7460, 3464.051
223.2281, 3447.274
223.7103, 3433.127
224.1924, 3420.743
224.6745, 3412.429
225.1566, 3410.054
225.6387, 3411.712
226.1208, 3415.861
226.6030, 3422.383
227.0851, 3428.950
227.5672, 3424.918
228.0493, 3395.812
228.5314, 3375.636
229.0135, 3375.510
229.4957, 3384.829
229.9778, 3391.071
230.4599, 3388.488
230.9420, 3381.417
231.4241, 3381.972
231.9062, 3402.187
232.3884, 3408.423
232.8705, 3381.385
233.3526, 3348.831
233.8347, 3338.603
234.3168, 3359.200
234.7989, 3391.135
235.2811, 3399.242
235.7632, 3370.446
236.2453, 3348.539
236.7274, 3338.502
237.2095, 3334.539
237.6916, 3334.449
238.1738, 3337.155
238.6559, 3340.434
239.1380, 3342.669
239.6201, 3345.443
240.1022, 3340.982
240.5843, 3319.494
241.0665, 3298.517
241.5486, 3287.492
242.0307, 3285.938
242.5128, 3286.597
242.9949, 3282.812
243.4770, 3274.267
243.9592, 3264.802
244.4413, 3250.558
244.9234, 3239.127
245.4055, 3236.382
245.8876, 3239.154
246.3697, 3239.285
246.8519, 3230.310
247.3340, 3213.185
247.8161, 3196.323
248.2982, 3173.532
248.7803, 3160.163
249.2624, 3168.166
249.7446, 3186.961
250.2267, 3199.062
250.7088, 3193.671
251.1909, 3177.174
251.6730, 3168.052
252.1551, 3168.984
252.6373, 3172.138
253.1194, 3176.645
253.6015, 3181.106
254.0836, 3183.895
254.5657, 3184.303
255.0478, 3183.299
255.5300, 3181.738
256.0121, 3178.819
256.4942, 3178.457
256.9763, 3182.207
257.4584, 3188.783
257.9406, 3197.439
258.4227, 3208.014
258.9048, 3221.169
259.3869, 3239.659
259.8690, 3263.936
260.3511, 3283.718
260.8333, 3296.992
261.3154, 3304.846
261.7975, 3304.861
262.2796, 3298.004
262.7617, 3295.502
263.2438, 3305.916
263.7260, 3327.916
264.2081, 3355.031
264.6902, 3392.206
265.1723, 3425.530
265.6544, 3441.710
266.1365, 3445.476
266.6187, 3452.167
267.1008, 3473.104
267.5829, 3501.131
268.0650, 3520.009
268.5471, 3526.838
269.0292, 3532.703
269.5114, 3545.183
269.9935, 3561.856
270.4756, 3579.225
270.9577, 3596.042
271.4398, 3613.475
271.9219, 3633.587
272.4041, 3656.521
272.8862, 3678.814
273.3683, 3700.868
273.8504, 3719.815
274.3325, 3730.415
274.8146, 3728.204
275.2968, 3725.319
275.7789, 3729.316
276.2610, 3739.313
276.7431, 3751.681
277.2252, 3764.938
277.7073, 3780.492
278.1895, 3802.835
278.6716, 3834.776
279.1537, 3859.745
279.6358, 3867.875
280.1179, 3865.956
280.6000, 3863.686
281.0822, 3862.409
281.5643, 3865.823
282.0464, 3880.889
282.5285, 3908.796
283.0106, 3932.104
283.4927, 3943.400
283.9749, 3952.735
284.4570, 3971.617
284.9391, 4000.071
285.4212, 4026.186
285.9033, 4038.909
286.3854, 4038.493
286.8676, 4045.712
287.3497, 4064.090
287.8318, 4085.888
288.3139, 4108.702
288.7960, 4132.071
289.2781, 4155.725
289.7603, 4179.974
290.2424, 4203.674
290.7245, 4221.296
291.2066, 4215.440
291.6887, 4225.238
292.1708, 4269.585
292.6530, 4328.188
293.1351, 4374.688
293.6172, 4399.978
294.0993, 4415.582
294.5814, 4441.777
295.0635, 4486.059
295.5457, 4527.543
296.0278, 4563.351
296.5099, 4598.399
296.9920, 4633.669
297.4741, 4670.734
297.9562, 4713.071
298.4384, 4764.733
298.9205, 4826.620
299.4026, 4892.805
299.8847, 4970.120
300.3668, 5044.748
300.8489, 5115.113
301.3311, 5179.260
301.8131, 5233.424
302.2953, 5274.316
302.7774, 5304.283
303.2595, 5335.303
303.7416, 5368.920
304.2237, 5401.246
304.7058, 5436.885
305.1880, 5468.703
305.6701, 5486.184
306.1522, 5484.971
306.6343, 5477.609
307.1164, 5486.569
307.5985, 5517.665
308.0807, 5543.259
308.5628, 5561.943
309.0449, 5570.814
309.5270, 5562.147
310.0091, 5537.229
310.4912, 5512.501
310.9734, 5505.127
311.4555, 5513.010
311.9376, 5512.209
312.4197, 5494.954
312.9018, 5477.710
313.3839, 5472.997
313.8661, 5476.477
314.3482, 5476.928
314.8303, 5468.577
315.3124, 5454.427
315.7945, 5437.818
316.2766, 5417.604
316.7588, 5402.074
317.2409, 5401.938
317.7230, 5407.372
318.2051, 5401.506
318.6872, 5377.930
319.1693, 5350.695
319.6515, 5325.035
320.1336, 5303.078
320.6157, 5295.831
321.0978, 5311.234
321.5799, 5336.509
322.0620, 5349.217
322.5442, 5346.009
323.0263, 5352.023
323.5084, 5381.187
323.9905, 5420.669
324.4726, 5453.191
324.9547, 5476.010
325.4369, 5497.578
325.9190, 5524.359
326.4011, 5556.775
326.8832, 5600.870
327.3653, 5671.747
327.8474, 5740.230
328.3296, 5784.927
328.8117, 5812.746
329.2938, 5845.260
329.7759, 5895.138
330.2580, 5959.809
330.7401, 6026.093
331.2223, 6101.161
331.7044, 6169.302
332.1865, 6223.585
332.6686, 6272.776
333.1507, 6328.627
333.6328, 6393.854
334.1150, 6458.682
334.5971, 6507.595
335.0792, 6531.865
335.5613, 6563.232
336.0434, 6614.499
336.5255, 6660.731
337.0077, 6685.001
337.4898, 6691.480
337.9719, 6698.641
338.4540, 6726.015
338.9361, 6767.838
339.4182, 6769.631
339.9004, 6703.978
340.3825, 6637.098
340.8646, 6583.443
341.3467, 6541.504
341.8288, 6513.261
342.3109, 6502.193
342.7931, 6491.241
343.2752, 6450.485
343.7573, 6374.674
344.2394, 6306.324
344.7215, 6265.407
345.2036, 6227.266
345.6858, 6170.794
346.1679, 6095.198
346.6500, 6016.920
347.1321, 5945.107
347.6142, 5878.602
348.0963, 5812.574
348.5785, 5744.730
349.0606, 5682.847
349.5427, 5637.374
350.0248, 5603.308
350.5069, 5566.429
350.9890, 5519.481
351.4712, 5472.425
351.9533, 5434.068
352.4354, 5403.057
352.9175, 5370.657
353.3996, 5329.957
353.8817, 5288.579
354.3639, 5269.178
354.8460, 5280.964
355.3281, 5290.003
355.8102, 5281.042
356.2923, 5268.909
356.7744, 5272.837
357.2566, 5296.420
357.7387, 5327.569
358.2208, 5352.763
358.7029, 5370.249
359.1850, 5391.960
359.6671, 5416.648
360.1493, 5445.917
360.6314, 5479.654
361.1135, 5518.566
361.5956, 5564.142
362.0777, 5617.691
362.5598, 5677.986
363.0420, 5740.333
363.5241, 5798.950
364.0062, 5870.018
364.4883, 5956.275
364.9704, 6053.443
365.4525, 6161.625
365.9347, 6279.018
366.4168, 6397.745
366.8989, 6504.563
367.3810, 6598.825
367.8631, 6708.508
368.3452, 6863.466
368.8274, 6998.673
369.3095, 7082.583
369.7916, 7123.957
370.2737, 7144.749
370.7558, 7157.804
371.2379, 7154.187
371.7201, 7120.556
372.2022, 7057.317
372.6843, 6960.212
373.1664, 6813.828
373.6485, 6638.883
374.1306, 6468.673
374.6128, 6305.580
375.0949, 6142.493
375.5770, 5975.776
376.0591, 5807.667
376.5412, 5643.099
377.0233, 5483.082
377.5055, 5326.171
377.9876, 5168.025
378.4697, 5008.640
378.9518, 4868.167
379.4339, 4755.795
379.9160, 4654.852
380.3982, 4555.895
380.8803, 4460.774
381.3624, 4377.850
381.8445, 4311.994
382.3266, 4259.951
382.8087, 4210.944
383.2909, 4168.942
383.7730, 4125.354
384.2551, 4076.578
384.7372, 4028.482
385.2193, 3985.637
385.7014, 3948.818
386.1836, 3915.663
386.6657, 3883.790
387.1478, 3853.284
387.6299, 3824.898
388.1120, 3799.591
388.5941, 3775.263
389.0763, 3754.219
389.5584, 3733.015
390.0405, 3705.256
390.5226, 3666.005
391.0047, 3624.753
391.4868, 3596.459
391.9690, 3582.190
392.4511, 3572.379
392.9332, 3570.577
393.4153, 3566.814
393.8974, 3549.723
394.3795, 3519.361
394.8617, 3491.336
395.3438, 3475.860
395.8259, 3466.721
396.3080, 3452.741
396.7901, 3432.701
397.2722, 3413.071
397.7544, 3396.646
398.2365, 3384.753
398.7186, 3381.066
399.2007, 3388.951
399.6828, 3401.011
400.1649, 3417.819
400.6471, 3436.131
401.1292, 3449.313
401.6113, 3455.214
402.0934, 3459.926
402.5755, 3472.961
403.0576, 3498.172
403.5398, 3520.038
404.0219, 3534.936
404.5040, 3550.532
404.9861, 3571.433
405.4682, 3596.454
405.9503, 3621.432
406.4325, 3643.470
406.9146, 3664.134
407.3967, 3689.241
407.8788, 3722.425
408.3609, 3752.470
408.8430, 3778.985
409.3252, 3800.835
409.8073, 3814.897
410.2894, 3821.375
410.7715, 3827.873
411.2536, 3841.102
411.7357, 3860.051
412.2179, 3877.874
412.7000, 3890.943
413.1821, 3910.427
413.6642, 3950.070
414.1463, 4001.348
414.6284, 4046.612
415.1106, 4077.260
415.5927, 4107.917
416.0748, 4146.030
416.5569, 4192.499
417.0390, 4257.322
417.5211, 4349.954
418.0033, 4438.698
418.4854, 4471.786
418.9675, 4427.143
419.4496, 4399.647
419.9317, 4400.699
420.4138, 4413.081
420.8960, 4433.938
421.3781, 4456.868
421.8602, 4468.035
422.3423, 4458.393
422.8244, 4430.229
423.3065, 4394.246
423.7887, 4356.611
424.2708, 4299.610
424.7529, 4207.939
425.2350, 4107.160
425.7171, 4016.105
426.1992, 3938.130
426.6814, 3868.879
427.1635, 3810.725
427.6456, 3761.055
428.1277, 3690.388
428.6098, 3583.606
429.0919, 3485.175
429.5741, 3418.942
430.0562, 3374.554
430.5383, 3340.609
431.0204, 3319.421
431.5025, 3297.279
431.9846, 3263.681
432.4668, 3219.843
432.9489, 3166.633
433.4310, 3100.584
433.9131, 3037.919
434.3952, 2999.866
434.8773, 2989.381
435.3595, 2976.854
435.8416, 2959.736
436.3237, 2941.216
436.8058, 2925.430
437.2879, 2909.878
437.7701, 2885.815
438.2522, 2847.912
438.7343, 2804.547
439.2164, 2777.811
439.6985, 2779.551
440.1806, 2777.403
440.6628, 2769.637
441.1449, 2759.088
441.6270, 2748.594
442.1091, 2737.355
442.5912, 2720.896
443.0733, 2692.374
443.5555, 2657.444
444.0376, 2640.936
444.5197, 2651.266
445.0018, 2656.362
445.4839, 2636.053
445.9660, 2608.466
446.4482, 2591.730
446.9303, 2589.198
447.4124, 2588.884
447.8945, 2583.056
448.3766, 2574.342
448.8587, 2568.137
449.3409, 2565.173
449.8230, 2564.459
450.3051, 2567.006
450.7872, 2571.630
451.2693, 2568.184
451.7514, 2547.347
452.2336, 2529.923
452.7157, 2524.925
453.1978, 2526.673
453.6799, 2528.644
454.1620, 2528.525
454.6441, 2524.844
455.1263, 2514.476
455.6084, 2494.985
456.0905, 2482.686
456.5726, 2486.446
457.0547, 2488.648
457.5368, 2481.057
458.0190, 2469.095
458.5011, 2462.849
458.9832, 2467.568
459.4653, 2474.537
459.9474, 2469.728
460.4295, 2452.940
460.9117, 2439.115
461.3938, 2430.665
461.8759, 2426.682
462.3580, 2428.506
462.8401, 2434.751
463.3222, 2437.888
463.8044, 2434.063
464.2865, 2427.708
464.7686, 2421.807
465.2507, 2416.616
465.7328, 2413.238
466.2149, 2412.587
466.6971, 2412.434
467.1792, 2408.273
467.6613, 2396.846
468.1434, 2388.208
468.6255, 2382.200
469.1076, 2379.021
469.5898, 2380.422
470.0719, 2384.907
470.5540, 2389.695
471.0361, 2393.860
471.5182, 2394.967
472.0003, 2383.073
472.4825, 2349.617
472.9646, 2326.786
473.4467, 2332.005
473.9288, 2342.727
474.4109, 2344.483
474.8930, 2337.072
475.3752, 2329.576
475.8573, 2328.735
476.3394, 2330.510
476.8215, 2328.002
477.3036, 2321.031
477.7857, 2311.247
478.2679, 2296.583
478.7500, 2282.008
479.2321, 2281.283
479.7142, 2300.995
480.1963, 2315.740
480.6784, 2323.252
481.1606, 2322.034
481.6427, 2303.447
482.1248, 2272.041
482.6069, 2249.341
483.0890, 2253.061
483.5711, 2277.016
484.0533, 2286.458
484.5354, 2272.112
485.0175, 2257.936
485.4996, 2246.457
485.9817, 2237.130
486.4638, 2229.144
486.9460, 2222.612
487.4281, 2219.134
487.9102, 2222.271
488.3923, 2229.312
488.8744, 2231.330
489.3565, 2227.368
489.8387, 2223.980
490.3208, 2227.908
490.8029, 2232.419
491.2850, 2222.306
491.7671, 2189.563
492.2492, 2165.434
492.7314, 2167.896
493.2135, 2180.454
493.6956, 2185.638
494.1777, 2181.415
494.6598, 2172.889
495.1419, 2163.604
495.6241, 2153.569
496.1062, 2142.362
496.5883, 2124.493
497.0704, 2113.614
497.5525, 2118.010
498.0346, 2124.755
498.5168, 2122.270
498.9989, 2109.979
499.4810, 2096.303
499.9631, 2086.186
500.4452, 2080.286
500.9273, 2084.695
501.4095, 2103.999
501.8916, 2113.576
502.3737, 2095.244
502.8558, 2065.157
503.3379, 2050.386
503.8200, 2055.665
504.3022, 2058.345
504.7843, 2047.539
505.2664, 2031.089
505.7485, 2017.334
506.2306, 2007.054
506.7127, 1998.038
507.1949, 1988.279
507.6770, 1979.232
508.1591, 1977.568
508.6412, 1992.449
509.1233, 2001.334
509.6054, 1998.881
510.0876, 1993.518
510.5697, 1992.712
511.0518, 1995.588
511.5339, 1994.756
512.0161, 1983.325
512.4982, 1965.411
512.9803, 1952.023
513.4624, 1943.699
513.9445, 1937.391
514.4266, 1933.495
514.9088, 1929.911
515.3909, 1923.518
515.8730, 1914.022
516.3551, 1905.516
516.8372, 1898.944
517.3193, 1894.090
517.8015, 1891.733
518.2836, 1891.105
518.7657, 1890.261
519.2478, 1888.641
519.7299, 1884.061
520.2120, 1870.301
520.6942, 1836.454
521.1763, 1814.406
521.6584, 1807.890
522.1405, 1808.141
522.6226, 1816.185
523.1047, 1827.031
523.5869, 1827.615
524.0690, 1805.389
524.5511, 1782.188
525.0332, 1807.159
525.5153, 1879.778
525.9974, 1912.061
526.4796, 1866.998
526.9617, 1801.646
527.4438, 1778.322
527.9259, 1791.642
528.4080, 1800.409
528.8901, 1796.413
529.3723, 1788.843
529.8544, 1783.514
530.3365, 1778.467
530.8186, 1767.415
531.3007, 1748.496
531.7828, 1730.974
532.2650, 1729.558
532.7471, 1748.739
533.2292, 1755.855
533.7113, 1739.959
534.1934, 1724.124
534.6755, 1712.423
535.1577, 1706.059
535.6398, 1709.131
536.1219, 1724.179
536.6040, 1735.641
537.0861, 1723.175
537.5682, 1695.275
538.0504, 1681.367
538.5325, 1686.496
539.0146, 1693.548
539.4967, 1690.896
539.9788, 1680.168
540.4609, 1669.862
540.9431, 1657.558
541.4252, 1648.758
541.9073, 1647.781
542.3894, 1648.731
542.8715, 1646.435
543.3536, 1640.166
543.8358, 1630.689
544.3179, 1617.035
544.8000, 1602.193
545.2821, 1600.995
545.7642, 1619.551
546.2463, 1635.063
546.7285, 1643.321
547.2106, 1644.945
547.6927, 1638.145
548.1748, 1623.751
548.6569, 1609.677
549.1390, 1595.692
549.6211, 1586.424
550.1032, 1591.832
550.5853, 1607.886
551.0674, 1616.062
551.5496, 1608.153
552.0317, 1593.654
552.5138, 1588.545
552.9959, 1598.084
553.4780, 1599.011
553.9601, 1581.281
554.4423, 1566.947
554.9244, 1569.775
555.4065, 1580.314
555.8886, 1582.145
556.3707, 1569.027
556.8528, 1552.385
557.3350, 1546.781
557.8171, 1550.722
558.2992, 1551.528
558.7813, 1546.933
559.2634, 1542.708
559.7455, 1542.441
560.2277, 1545.596
560.7098, 1550.120
561.1919, 1558.730
561.6740, 1563.945
562.1561, 1561.516
562.6382, 1555.702
563.1204, 1549.432
563.6025, 1544.009
564.0846, 1542.373
564.5667, 1547.548
565.0488, 1556.573
565.5309, 1556.766
566.0131, 1542.791
566.4952, 1533.501
566.9773, 1539.851
567.4594, 1545.558
567.9415, 1536.782
568.4236, 1516.939
568.9058, 1503.465
569.3879, 1508.562
569.8700, 1518.802
570.3521, 1520.026
570.8342, 1514.814
571.3163, 1512.161
571.7985, 1514.967
572.2806, 1519.530
572.7627, 1521.503
573.2448, 1520.665
573.7269, 1519.323
574.2090, 1517.009
574.6912, 1514.757
575.1733, 1511.385
575.6554, 1508.964
576.1375, 1510.452
576.6196, 1516.210
577.1017, 1522.677
577.5839, 1529.038
578.0660, 1533.513
578.5481, 1527.318
579.0302, 1508.637
579.5123, 1494.844
579.9944, 1495.875
580.4766, 1504.658
580.9587, 1507.969
581.4408, 1505.469
581.9229, 1500.632
582.4050, 1489.097
582.8871, 1479.743
583.3693, 1480.770
583.8514, 1488.418
584.3335, 1493.949
584.8156, 1493.340
585.2977, 1489.575
585.7798, 1487.088
586.2620, 1485.958
586.7441, 1485.272
587.2262, 1485.033
587.7083, 1485.161
588.1904, 1488.324
588.6725, 1491.118
589.1547, 1486.884
589.6368, 1471.918
590.1189, 1457.381
590.6010, 1445.811
591.0831, 1439.201
591.5652, 1443.748
592.0474, 1457.429
592.5295, 1467.684
593.0116, 1465.724
593.4937, 1455.736
593.9758, 1450.850
594.4579, 1453.854
594.9401, 1455.384
595.4222, 1453.343
595.9043, 1450.870
596.3864, 1450.344
596.8685, 1450.603
597.3506, 1448.083
597.8328, 1439.333
598.3149, 1431.620
598.7970, 1432.758
599.2791, 1439.945
599.7612, 1446.982
600.2433, 1452.711
600.7255, 1454.659
601.2076, 1449.599
601.6897, 1438.966
602.1718, 1434.549
602.6539, 1443.708
603.1360, 1449.126
603.6182, 1445.516
604.1003, 1440.914
