##NAMES=Mimetite-M
##RRUFFID=R070138
##IDEAL CHEMISTRY=Pb_5_(AsO_4_)_3_Cl
##LOCALITY=Eureka Hill Mine, Tintic District, East Tintic Mts, Juab County, Utah, USA
##OWNER=RRUFF
##SOURCE=Michael Scott
##DESCRIPTION=Colorless thin hexagonal prisms associated with quartz and anglesite
##STATUS=The identification of this mineral is confirmed by single-crystal X-ray diffraction and chemical analysis.
##URL=rruff.info/R070138
##MEASURED CHEMISTRY=Pb_5.00_(As_1.00_O_4_)_3_Cl_1.00_
114.0229, 298.3367
114.5050, 310.1679
114.9871, 323.0939
115.4692, 342.8588
115.9513, 370.6230
116.4335, 400.1719
116.9156, 426.9298
117.3977, 453.8235
117.8798, 485.7638
118.3619, 529.8438
118.8440, 576.8390
119.3262, 619.4016
119.8083, 652.9275
120.2904, 688.9166
120.7725, 736.3941
121.2546, 793.5903
121.7367, 853.3198
122.2189, 906.6005
122.7010, 960.5363
123.1831, 1025.867
123.6652, 1111.620
124.1473, 1206.381
124.6294, 1298.368
125.1115, 1387.573
125.5937, 1475.659
126.0758, 1565.187
126.5579, 1655.417
127.0400, 1742.272
127.5221, 1822.937
128.0043, 1900.036
128.4864, 1976.508
128.9685, 2051.670
129.4506, 2130.578
129.9327, 2223.594
130.4148, 2329.784
130.8969, 2435.652
131.3791, 2530.441
131.8612, 2615.570
132.3433, 2702.852
132.8254, 2793.348
133.3075, 2887.248
133.7896, 2986.769
134.2718, 3091.867
134.7539, 3197.630
135.2360, 3303.393
135.7181, 3408.172
136.2002, 3501.300
136.6823, 3579.190
137.1645, 3642.736
137.6466, 3698.792
138.1287, 3746.587
138.6108, 3789.110
139.0929, 3828.304
139.5750, 3861.996
140.0572, 3898.807
140.5393, 3943.078
141.0214, 3997.672
141.5035, 4047.373
141.9856, 4091.130
142.4677, 4130.713
142.9499, 4171.110
143.4320, 4210.710
143.9141, 4252.300
144.3962, 4295.887
144.8783, 4337.733
145.3604, 4389.095
145.8425, 4452.076
146.3247, 4525.387
146.8068, 4604.963
147.2889, 4697.511
147.7710, 4790.216
148.2531, 4876.525
148.7352, 4949.752
149.2174, 5023.414
149.6995, 5099.788
150.1816, 5179.156
150.6637, 5254.723
151.1458, 5327.474
151.6279, 5394.988
152.1101, 5456.734
152.5922, 5503.054
153.0743, 5551.770
153.5564, 5608.929
154.0385, 5679.990
154.5206, 5744.899
155.0028, 5798.855
155.4849, 5845.163
155.9670, 5889.414
156.4491, 5927.479
156.9312, 5967.630
157.4133, 6014.658
157.8955, 6076.861
158.3776, 6132.983
158.8597, 6173.836
159.3418, 6203.586
159.8239, 6236.005
160.3060, 6274.521
160.7882, 6318.398
161.2703, 6367.180
161.7524, 6423.987
162.2345, 6482.585
162.7166, 6544.272
163.1987, 6608.220
163.6808, 6663.556
164.1630, 6694.779
164.6451, 6718.655
165.1272, 6753.204
165.6093, 6821.257
166.0914, 6890.289
166.5735, 6937.784
167.0557, 6961.844
167.5378, 6982.257
168.0199, 7016.977
168.5020, 7056.048
168.9841, 7082.539
169.4662, 7087.437
169.9484, 7076.720
170.4305, 7053.366
170.9126, 7015.381
171.3947, 6973.728
171.8768, 6940.167
172.3589, 6910.920
172.8411, 6876.547
173.3232, 6834.364
173.8053, 6782.829
174.2874, 6717.345
174.7695, 6632.422
175.2516, 6543.500
175.7338, 6466.736
176.2159, 6401.407
176.6980, 6341.215
177.1801, 6288.914
177.6622, 6237.643
178.1443, 6172.809
178.6264, 6081.179
179.1086, 5981.546
179.5907, 5908.229
180.0728, 5860.624
180.5549, 5813.817
181.0370, 5744.433
181.5191, 5657.790
182.0013, 5568.281
182.4834, 5473.132
182.9655, 5380.613
183.4476, 5312.610
183.9297, 5272.288
184.4118, 5235.855
184.8940, 5175.768
185.3761, 5094.408
185.8582, 5010.828
186.3403, 4929.978
186.8224, 4852.538
187.3046, 4780.396
187.7867, 4713.330
188.2688, 4650.137
188.7509, 4591.928
189.2330, 4538.364
189.7151, 4479.509
190.1973, 4401.518
190.6794, 4308.802
191.1615, 4237.479
191.6436, 4195.116
192.1257, 4166.061
192.6078, 4118.101
193.0900, 4049.338
193.5721, 3978.269
194.0542, 3917.660
194.5363, 3867.425
195.0184, 3814.442
195.5005, 3755.405
195.9826, 3694.089
196.4648, 3642.903
196.9469, 3603.948
197.4290, 3567.164
197.9111, 3521.905
198.3932, 3467.182
198.8753, 3421.416
199.3575, 3392.650
199.8396, 3375.702
200.3217, 3339.116
200.8038, 3277.131
201.2859, 3213.505
201.7680, 3174.086
202.2502, 3162.688
202.7323, 3150.253
203.2144, 3130.164
203.6965, 3102.646
204.1786, 3071.790
204.6607, 3037.632
205.1429, 3000.710
205.6250, 2959.232
206.1071, 2910.566
206.5892, 2869.675
207.0713, 2843.180
207.5534, 2832.253
208.0356, 2819.877
208.5177, 2807.967
208.9998, 2792.281
209.4819, 2763.378
209.9640, 2715.356
210.4461, 2670.555
210.9282, 2638.549
211.4104, 2621.701
211.8925, 2605.945
212.3746, 2593.398
212.8567, 2580.374
213.3388, 2557.519
213.8209, 2519.685
214.3031, 2483.262
214.7852, 2456.134
215.2673, 2441.657
215.7494, 2426.517
216.2315, 2410.180
216.7136, 2393.061
217.1958, 2376.561
217.6779, 2361.633
218.1600, 2345.366
218.6421, 2325.323
219.1242, 2298.687
219.6063, 2275.733
220.0885, 2258.154
220.5706, 2244.677
221.0527, 2229.511
221.5348, 2212.397
222.0169, 2193.791
222.4990, 2173.061
222.9812, 2147.990
223.4633, 2126.385
223.9454, 2109.534
224.4275, 2096.963
224.9096, 2087.125
225.3917, 2082.664
225.8739, 2077.367
226.3560, 2066.507
226.8381, 2048.541
227.3202, 2027.679
227.8023, 2001.902
228.2844, 1971.842
228.7665, 1950.149
229.2487, 1940.702
229.7308, 1935.977
230.2129, 1929.760
230.6950, 1922.319
231.1771, 1912.899
231.6592, 1900.596
232.1414, 1885.280
232.6235, 1871.509
233.1056, 1861.060
233.5877, 1850.669
234.0698, 1835.886
234.5519, 1809.738
235.0341, 1792.103
235.5162, 1790.901
235.9983, 1809.529
236.4804, 1814.821
236.9625, 1799.998
237.4446, 1777.154
237.9268, 1760.774
238.4089, 1754.671
238.8910, 1748.267
239.3731, 1737.747
239.8552, 1721.134
240.3373, 1711.490
240.8195, 1712.609
241.3016, 1718.164
241.7837, 1719.513
242.2658, 1716.529
242.7479, 1709.421
243.2300, 1696.686
243.7122, 1675.396
244.1943, 1660.795
244.6764, 1655.641
245.1585, 1655.589
245.6406, 1653.632
246.1227, 1649.532
246.6048, 1643.847
247.0870, 1635.634
247.5691, 1622.096
248.0512, 1616.232
248.5333, 1624.195
249.0154, 1636.746
249.4975, 1635.541
249.9797, 1612.753
250.4618, 1589.361
250.9439, 1572.507
251.4260, 1562.409
251.9081, 1558.793
252.3902, 1564.736
252.8724, 1575.792
253.3545, 1582.015
253.8366, 1581.816
254.3187, 1579.587
254.8008, 1576.862
255.2829, 1573.320
255.7651, 1569.973
256.2472, 1566.053
256.7293, 1562.615
257.2114, 1562.933
257.6935, 1569.778
258.1756, 1575.286
258.6577, 1574.796
259.1399, 1564.370
259.6220, 1559.972
260.1041, 1564.919
260.5862, 1574.784
261.0683, 1577.024
261.5504, 1568.413
262.0326, 1558.656
262.5147, 1551.804
262.9968, 1547.589
263.4789, 1548.020
263.9610, 1555.639
264.4431, 1566.908
264.9253, 1571.344
265.4074, 1566.949
265.8895, 1560.252
266.3716, 1553.138
266.8537, 1543.773
267.3358, 1542.202
267.8180, 1551.314
268.3001, 1567.247
268.7822, 1580.470
269.2643, 1591.666
269.7464, 1598.147
270.2285, 1595.848
270.7107, 1581.396
271.1928, 1576.609
271.6749, 1586.002
272.1570, 1603.978
272.6391, 1613.532
273.1212, 1612.065
273.6034, 1610.644
274.0855, 1617.475
274.5676, 1634.322
275.0497, 1644.731
275.5318, 1645.851
276.0139, 1641.079
276.4961, 1637.173
276.9782, 1632.596
277.4603, 1635.500
277.9424, 1655.005
278.4245, 1692.400
278.9066, 1721.109
279.3888, 1736.649
279.8709, 1744.504
280.3530, 1757.157
280.8351, 1774.900
281.3172, 1795.669
281.7993, 1818.937
282.2815, 1844.732
282.7636, 1869.245
283.2457, 1891.396
283.7278, 1913.002
284.2099, 1936.949
284.6920, 1963.034
285.1741, 1994.236
285.6563, 2034.740
286.1384, 2083.734
286.6205, 2128.094
287.1026, 2164.508
287.5847, 2199.697
288.0668, 2245.978
288.5490, 2303.344
289.0311, 2367.734
289.5132, 2438.813
289.9953, 2514.679
290.4774, 2591.815
290.9595, 2668.730
291.4417, 2749.010
291.9238, 2838.557
292.4059, 2936.490
292.8880, 3041.691
293.3701, 3154.224
293.8522, 3273.418
294.3344, 3398.340
294.8165, 3529.879
295.2986, 3667.072
295.7807, 3810.260
296.2628, 3958.458
296.7449, 4102.968
297.2271, 4223.914
297.7092, 4337.543
298.1913, 4485.534
298.6734, 4678.034
299.1555, 4882.494
299.6376, 5059.110
300.1198, 5212.896
300.6019, 5359.957
301.0840, 5506.324
301.5661, 5651.441
302.0482, 5795.376
302.5303, 5940.790
303.0125, 6079.289
303.4946, 6207.356
303.9767, 6323.316
304.4588, 6426.571
304.9409, 6509.848
305.4230, 6581.624
305.9052, 6653.152
306.3873, 6725.033
306.8694, 6795.375
307.3515, 6858.289
307.8336, 6917.626
308.3157, 6982.173
308.7979, 7065.701
309.2800, 7149.906
309.7621, 7220.688
310.2442, 7276.883
310.7263, 7319.082
311.2084, 7351.415
311.6906, 7369.774
312.1727, 7367.974
312.6548, 7335.624
313.1369, 7287.751
313.6190, 7232.887
314.1011, 7171.207
314.5833, 7104.963
315.0654, 7047.817
315.5475, 6983.184
316.0296, 6890.960
316.5117, 6722.077
316.9938, 6559.661
317.4760, 6447.039
317.9580, 6390.550
318.4402, 6333.815
318.9223, 6244.879
319.4044, 6151.914
319.8865, 6084.384
320.3686, 6058.371
320.8507, 6050.429
321.3329, 6056.078
321.8150, 6075.167
322.2971, 6102.056
322.7792, 6134.771
323.2613, 6175.295
323.7434, 6225.250
324.2256, 6275.424
324.7077, 6345.083
325.1898, 6445.107
325.6719, 6574.134
326.1540, 6700.417
326.6361, 6818.662
327.1183, 6935.801
327.6004, 7056.494
328.0825, 7184.613
328.5646, 7311.950
329.0467, 7435.146
329.5288, 7556.119
330.0110, 7681.973
330.4931, 7827.924
330.9752, 7965.701
331.4573, 8077.297
331.9394, 8153.511
332.4215, 8222.065
332.9037, 8287.235
333.3858, 8345.867
333.8679, 8386.165
334.3500, 8403.750
334.8321, 8410.578
335.3142, 8414.760
335.7964, 8422.038
336.2785, 8408.087
336.7606, 8368.997
337.2427, 8309.672
337.7248, 8245.613
338.2069, 8181.712
338.6891, 8098.567
339.1712, 7980.456
339.6533, 7824.302
340.1354, 7672.304
340.6175, 7529.232
341.0996, 7386.350
341.5818, 7229.836
342.0639, 7058.575
342.5460, 6885.975
343.0281, 6713.999
343.5102, 6544.505
343.9923, 6382.979
344.4745, 6232.899
344.9566, 6083.556
345.4387, 5923.583
345.9208, 5755.352
346.4029, 5579.430
346.8850, 5391.148
347.3672, 5196.437
347.8493, 5016.728
348.3314, 4852.757
348.8135, 4702.225
349.2956, 4570.394
349.7777, 4453.568
350.2599, 4336.682
350.7419, 4208.725
351.2241, 4080.451
351.7062, 3967.006
352.1883, 3868.445
352.6704, 3778.198
353.1525, 3691.452
353.6346, 3610.927
354.1168, 3540.585
354.5989, 3490.075
355.0810, 3440.256
355.5631, 3365.098
356.0452, 3271.820
356.5273, 3195.349
357.0095, 3169.785
357.4916, 3164.890
357.9737, 3150.649
358.4558, 3114.206
358.9379, 3078.406
359.4200, 3053.888
359.9022, 3039.321
360.3843, 3031.195
360.8664, 3033.228
361.3485, 3037.697
361.8306, 3038.626
362.3127, 3030.823
362.7949, 3030.737
363.2770, 3046.500
363.7591, 3072.554
364.2412, 3099.562
364.7233, 3123.642
365.2054, 3150.050
365.6876, 3181.929
366.1697, 3222.333
366.6518, 3257.718
367.1339, 3275.224
367.6160, 3291.003
368.0981, 3323.927
368.5803, 3408.658
369.0624, 3472.197
369.5445, 3495.353
370.0266, 3475.425
370.5087, 3459.703
370.9908, 3452.815
371.4730, 3446.006
371.9551, 3432.562
372.4372, 3413.940
372.9193, 3385.023
373.4014, 3342.321
373.8835, 3288.408
374.3657, 3237.323
374.8478, 3190.210
375.3299, 3144.404
375.8120, 3098.203
376.2941, 3050.729
376.7762, 3006.698
377.2584, 2966.944
377.7405, 2930.772
378.2226, 2897.120
378.7047, 2864.998
379.1868, 2839.938
379.6689, 2825.223
380.1511, 2820.504
380.6332, 2822.941
381.1153, 2833.783
381.5974, 2847.561
382.0795, 2854.511
382.5616, 2856.058
383.0438, 2860.876
383.5259, 2872.517
384.0080, 2890.371
384.4901, 2915.722
384.9722, 2949.596
385.4543, 2981.576
385.9364, 2998.380
386.4185, 3006.766
386.9007, 3021.347
387.3828, 3054.947
387.8649, 3091.830
388.3470, 3116.828
388.8291, 3130.507
389.3112, 3138.486
389.7934, 3137.766
390.2755, 3135.735
390.7576, 3140.556
391.2397, 3159.604
391.7218, 3178.707
392.2039, 3186.718
392.6861, 3188.100
393.1682, 3196.700
393.6503, 3226.272
394.1324, 3258.656
394.6145, 3281.343
395.0966, 3282.858
395.5788, 3296.884
396.0609, 3331.087
396.5430, 3382.364
397.0251, 3445.484
397.5072, 3526.311
397.9893, 3612.703
398.4715, 3703.325
398.9536, 3799.761
399.4357, 3892.644
399.9178, 3975.953
400.3999, 4059.543
400.8820, 4153.965
401.3642, 4268.701
401.8463, 4378.171
402.3284, 4477.477
402.8105, 4567.546
403.2926, 4660.343
403.7747, 4759.430
404.2569, 4854.696
404.7390, 4940.535
405.2211, 5018.621
405.7032, 5079.196
406.1853, 5118.883
406.6674, 5144.292
407.1496, 5176.259
407.6317, 5217.449
408.1138, 5239.730
408.5959, 5225.312
409.0780, 5177.349
409.5602, 5115.373
410.0423, 5041.433
410.5244, 4954.021
411.0065, 4847.771
411.4886, 4724.866
411.9707, 4598.383
412.4529, 4466.428
412.9350, 4334.955
413.4171, 4216.312
413.8992, 4108.939
414.3813, 4014.229
414.8634, 3937.560
415.3456, 3871.758
415.8277, 3806.718
416.3098, 3732.365
416.7919, 3665.089
417.2740, 3619.928
417.7561, 3593.103
418.2382, 3565.513
418.7203, 3524.353
419.2025, 3481.893
419.6846, 3447.199
420.1667, 3422.937
420.6488, 3403.075
421.1309, 3389.797
421.6130, 3379.161
422.0952, 3363.575
422.5773, 3347.409
423.0594, 3320.875
423.5415, 3278.217
424.0236, 3215.882
424.5057, 3154.994
424.9879, 3098.181
425.4700, 3042.246
425.9521, 2983.052
426.4342, 2920.907
426.9163, 2855.231
427.3984, 2783.724
427.8806, 2707.558
428.3627, 2640.209
428.8448, 2585.089
429.3269, 2531.592
429.8090, 2470.897
430.2911, 2400.957
430.7733, 2340.562
431.2554, 2291.606
431.7375, 2252.031
432.2196, 2220.589
432.7017, 2197.667
433.1838, 2171.924
433.6660, 2133.928
434.1481, 2088.438
434.6302, 2054.790
435.1123, 2034.099
435.5944, 2016.300
436.0765, 1990.909
436.5587, 1960.364
437.0408, 1930.843
437.5229, 1906.149
438.0050, 1882.157
438.4871, 1854.719
438.9692, 1824.121
439.4514, 1791.949
439.9335, 1756.719
440.4156, 1721.615
440.8977, 1689.469
441.3798, 1661.358
441.8619, 1635.910
442.3441, 1614.581
442.8262, 1595.344
443.3083, 1574.342
443.7904, 1550.045
444.2725, 1524.334
444.7546, 1497.173
445.2368, 1468.283
445.7189, 1441.187
446.2010, 1418.077
446.6831, 1396.233
447.1652, 1373.196
447.6473, 1344.404
448.1295, 1320.990
448.6116, 1306.051
449.0937, 1297.952
449.5758, 1288.970
450.0579, 1280.153
450.5400, 1268.605
451.0221, 1250.943
451.5042, 1225.252
451.9864, 1206.348
452.4685, 1196.186
452.9506, 1190.527
453.4327, 1183.436
453.9148, 1174.974
454.3969, 1163.584
454.8791, 1147.219
455.3612, 1127.663
455.8433, 1110.030
456.3254, 1094.406
456.8075, 1082.108
457.2896, 1077.386
457.7718, 1076.938
458.2539, 1073.354
458.7360, 1062.815
459.2181, 1051.560
459.7002, 1047.809
460.1823, 1049.017
460.6645, 1047.119
461.1466, 1031.033
461.6287, 1014.504
462.1108, 1010.345
462.5929, 1023.267
463.0750, 1032.213
463.5572, 1024.391
464.0393, 1009.331
464.5214, 998.2603
465.0035, 1000.284
465.4856, 999.9609
465.9677, 990.7650
466.4499, 973.2765
466.9320, 963.1286
467.4141, 966.9191
467.8962, 972.4075
468.3783, 972.8622
468.8604, 964.8188
469.3426, 959.2769
469.8247, 957.6807
470.3068, 957.7056
470.7889, 954.2776
471.2710, 946.3177
471.7531, 939.0236
472.2353, 934.8842
472.7174, 933.4255
473.1995, 930.0471
473.6816, 924.7173
474.1637, 917.7514
474.6458, 907.1229
475.1280, 894.3873
475.6101, 887.8447
476.0922, 891.9230
476.5743, 898.9428
477.0564, 896.6469
477.5385, 886.9483
478.0207, 878.1390
478.5028, 876.6020
478.9849, 877.5246
479.4670, 874.7654
479.9491, 866.9007
480.4312, 861.9164
480.9134, 869.5818
481.3955, 881.1915
481.8776, 886.3622
482.3597, 875.3706
482.8418, 863.9480
483.3239, 858.0727
483.8060, 856.8550
484.2881, 853.0574
484.7703, 839.7870
485.2524, 828.4278
485.7345, 824.9329
486.2166, 835.9888
486.6987, 840.8710
487.1808, 836.7491
487.6630, 828.3252
488.1451, 823.1764
488.6272, 822.8982
489.1093, 821.3630
489.5914, 815.8911
490.0735, 807.4507
490.5557, 803.6993
491.0378, 805.4020
491.5199, 807.8144
492.0020, 806.8499
492.4841, 803.0554
492.9662, 799.5444
493.4484, 796.5426
493.9305, 794.5336
494.4126, 794.8210
494.8947, 796.8481
495.3768, 798.7039
495.8589, 799.4637
496.3411, 799.5709
496.8232, 800.0511
497.3053, 800.8755
497.7874, 799.7523
498.2695, 793.5957
498.7516, 785.6999
499.2338, 778.9459
499.7159, 772.8030
500.1980, 769.6811
500.6801, 773.2907
501.1622, 780.6095
501.6443, 784.0652
502.1265, 779.5783
502.6086, 773.8711
503.0907, 768.5751
503.5728, 763.4249
504.0549, 760.0609
504.5370, 758.9138
505.0192, 759.0715
505.5013, 760.2311
505.9834, 763.1794
506.4655, 763.4924
506.9476, 759.3038
507.4297, 753.1019
507.9119, 753.1124
508.3940, 759.7990
508.8761, 764.0789
509.3582, 758.9446
509.8403, 747.4338
510.3224, 738.3087
510.8046, 731.7514
511.2867, 728.7995
511.7688, 734.7733
512.2509, 744.4622
512.7330, 747.8220
513.2151, 736.9225
513.6973, 724.5535
514.1794, 720.0225
514.6615, 721.8547
515.1436, 725.2889
515.6257, 732.6754
516.1078, 737.7145
516.5900, 735.0913
517.0721, 721.3954
517.5542, 712.4218
518.0363, 715.4520
518.5184, 722.0596
519.0005, 723.6749
519.4827, 715.9138
519.9648, 709.7108
520.4469, 706.3455
520.9290, 705.4793
521.4111, 706.7167
521.8932, 711.4542
522.3754, 714.4514
522.8575, 711.5908
523.3396, 702.8464
523.8217, 698.8787
524.3038, 700.4967
524.7859, 703.8395
525.2681, 704.6309
525.7502, 703.4067
526.2323, 702.6121
526.7144, 703.7606
527.1965, 704.5611
527.6786, 700.6232
528.1608, 693.3196
528.6429, 687.7720
529.1250, 687.9698
529.6071, 690.5414
530.0892, 693.1039
530.5714, 695.4921
531.0535, 697.3157
531.5356, 698.7161
532.0176, 699.3167
532.4998, 698.7481
532.9819, 693.6989
533.4640, 691.2708
533.9461, 694.7808
534.4282, 701.8903
534.9103, 704.4271
535.3925, 699.1749
535.8746, 694.3834
536.3567, 693.5724
536.8388, 697.1414
537.3209, 700.2473
537.8030, 703.5562
538.2852, 704.6038
538.7673, 698.2802
539.2494, 685.3885
539.7315, 678.7281
540.2136, 683.0112
540.6957, 691.0509
541.1779, 689.7524
541.6600, 681.3649
542.1421, 675.3153
542.6242, 679.9885
543.1063, 687.9575
543.5884, 691.1005
544.0706, 688.9713
544.5527, 686.1140
545.0348, 682.6386
545.5169, 680.8583
545.9990, 683.0467
546.4811, 693.7823
546.9633, 702.9064
547.4454, 709.0981
547.9275, 712.0950
548.4096, 711.3508
548.8917, 703.4736
549.3738, 696.3823
549.8560, 692.1984
550.3381, 690.9315
550.8202, 689.9345
551.3023, 689.1296
551.7844, 688.7708
552.2665, 689.3056
552.7487, 690.7289
553.2308, 691.2800
553.7129, 690.3028
554.1950, 689.6882
554.6771, 692.9423
555.1592, 699.2689
555.6414, 705.2052
556.1235, 710.7040
556.6056, 714.1144
557.0877, 711.3995
557.5698, 703.7149
558.0519, 698.3895
558.5341, 703.2346
559.0162, 709.8949
559.4983, 710.7382
559.9804, 701.5727
560.4625, 696.2990
560.9446, 702.6250
561.4268, 713.2237
561.9089, 719.1458
562.3910, 716.4913
562.8731, 713.7604
563.3552, 712.1063
563.8373, 711.2122
564.3195, 709.3159
564.8016, 705.6104
565.2837, 703.1508
565.7658, 704.0126
566.2479, 708.0792
566.7300, 711.3828
567.2122, 713.8975
567.6943, 715.6763
568.1764, 718.5968
568.6585, 720.9990
569.1406, 716.5012
569.6227, 699.5573
570.1049, 682.9947
570.5870, 681.9382
571.0691, 692.0558
571.5512, 702.7679
572.0333, 710.8619
572.5154, 716.6425
572.9976, 719.4897
573.4797, 719.4525
573.9618, 719.4552
574.4439, 719.7853
574.9260, 720.6837
575.4081, 722.3796
575.8903, 725.9390
576.3724, 728.3903
576.8545, 730.0215
577.3366, 730.3197
577.8187, 727.3068
578.3008, 719.4196
578.7830, 715.8941
579.2651, 720.4776
579.7472, 730.2900
580.2293, 737.0743
580.7114, 740.8386
581.1935, 742.2359
581.6757, 739.7785
582.1578, 735.7247
582.6399, 734.8766
583.1220, 737.8112
583.6041, 740.2129
584.0862, 737.2606
584.5684, 732.5172
585.0505, 730.0935
585.5326, 730.2762
586.0147, 734.1337
586.4968, 746.4241
586.9789, 762.5083
587.4611, 771.9052
587.9432, 764.8602
588.4253, 760.3610
588.9074, 764.7959
589.3895, 777.9659
589.8716, 783.1236
590.3538, 776.8221
590.8359, 769.8679
591.3180, 770.8551
591.8001, 779.7971
592.2822, 784.2238
592.7643, 782.7224
593.2465, 778.9796
593.7286, 776.1027
594.2107, 774.6499
594.6928, 776.9211
595.1749, 786.7807
595.6570, 796.9378
596.1392, 797.1298
596.6213, 790.8906
597.1034, 789.8870
597.5854, 807.6580
598.0676, 825.6448
598.5497, 831.7972
599.0318, 823.8369
599.5139, 818.7236
599.9960, 821.0880
600.4781, 825.7795
600.9603, 829.6246
601.4424, 832.7935
601.9245, 834.5894
602.4066, 834.1425
602.8887, 833.1954
603.3708, 835.2352
603.8530, 840.5539
604.3351, 844.4238
604.8172, 844.6653
605.2993, 843.0923
605.7814, 845.2661
606.2635, 850.3999
606.7457, 852.5961
607.2278, 843.1675
607.7099, 831.2208
608.1920, 828.9629
608.6741, 837.9059
