##NAMES=Mimetite
##RRUFFID=R070309
##IDEAL CHEMISTRY=Pb^2+^_5_(As^5+^O_4_)_3_Cl
##LOCALITY=Vrancice, Czechoslovakia
##OWNER=RRUFF
##SOURCE=Michael Scott
##DESCRIPTION=Creamy white massive associated with white calcite. Crystal structure analysis demonstrated full occupancy by Pb with no ordering of Ca.
##STATUS=The identification of this mineral has been confirmed by single-crystal X-ray diffraction.
##URL=rruff.info/R070309
145.6074, 1307.288
146.0895, 1352.646
146.5716, 1401.355
147.0537, 1455.988
147.5358, 1515.916
148.0179, 1564.147
148.5001, 1591.905
148.9822, 1614.676
149.4643, 1644.469
149.9464, 1681.825
150.4285, 1718.348
150.9106, 1747.762
151.3928, 1769.891
151.8749, 1789.548
152.3570, 1809.914
152.8391, 1826.094
153.3212, 1831.529
153.8033, 1825.439
154.2855, 1817.788
154.7676, 1817.576
155.2497, 1822.671
155.7318, 1823.844
156.2139, 1813.168
156.6960, 1801.071
157.1782, 1800.107
157.6603, 1811.723
158.1424, 1828.406
158.6245, 1844.403
159.1066, 1861.049
159.5887, 1882.421
160.0709, 1914.831
160.5530, 1950.543
161.0351, 1976.998
161.5172, 1991.729
161.9993, 2004.984
162.4814, 2021.863
162.9636, 2042.340
163.4457, 2068.053
163.9278, 2103.830
164.4099, 2143.917
164.8920, 2177.142
165.3741, 2201.678
165.8563, 2224.190
166.3384, 2247.586
166.8205, 2271.943
167.3026, 2297.798
167.7847, 2327.400
168.2668, 2358.100
168.7490, 2384.778
169.2311, 2408.209
169.7132, 2425.611
170.1953, 2430.485
170.6774, 2429.627
171.1595, 2434.098
171.6417, 2451.788
172.1238, 2476.866
172.6059, 2494.706
173.0880, 2503.431
173.5701, 2508.169
174.0522, 2509.953
174.5344, 2510.055
175.0165, 2510.328
175.4986, 2512.108
175.9807, 2514.384
176.4628, 2514.124
176.9449, 2509.902
177.4271, 2505.676
177.9092, 2504.813
178.3913, 2504.492
178.8734, 2500.169
179.3555, 2487.938
179.8376, 2471.773
180.3197, 2464.667
180.8019, 2474.932
181.2840, 2479.344
181.7661, 2468.732
182.2482, 2449.677
182.7303, 2430.148
183.2124, 2414.003
183.6946, 2399.796
184.1767, 2382.722
184.6588, 2358.966
185.1409, 2339.481
185.6230, 2329.735
186.1051, 2324.264
186.5873, 2316.987
187.0694, 2305.131
187.5515, 2289.742
188.0336, 2272.586
188.5157, 2250.359
188.9978, 2232.673
189.4800, 2225.099
189.9621, 2220.981
190.4442, 2212.416
190.9263, 2195.570
191.4084, 2175.141
191.8905, 2163.590
192.3727, 2169.478
192.8548, 2168.809
193.3369, 2152.463
193.8190, 2131.127
194.3011, 2115.616
194.7832, 2110.292
195.2654, 2110.185
195.7475, 2104.693
196.2296, 2091.462
196.7117, 2076.710
197.1938, 2058.668
197.6759, 2041.093
198.1581, 2027.688
198.6402, 2019.592
199.1223, 2014.605
199.6044, 2008.022
200.0865, 1995.714
200.5686, 1990.626
201.0508, 2000.052
201.5329, 2011.932
202.0150, 2016.914
202.4971, 2012.482
202.9792, 2002.713
203.4613, 1994.462
203.9435, 1990.552
204.4256, 1981.519
204.9077, 1959.963
205.3898, 1938.710
205.8719, 1928.617
206.3540, 1930.827
206.8362, 1936.045
207.3183, 1929.570
207.8004, 1901.773
208.2825, 1887.470
208.7646, 1899.069
209.2467, 1913.036
209.7289, 1915.142
210.2110, 1904.254
210.6931, 1889.090
211.1752, 1879.299
211.6573, 1875.640
212.1395, 1875.046
212.6216, 1883.087
213.1037, 1889.280
213.5858, 1887.156
214.0679, 1877.594
214.5500, 1866.399
215.0322, 1859.298
215.5143, 1856.988
215.9964, 1854.336
216.4785, 1849.670
216.9606, 1846.197
217.4427, 1844.184
217.9249, 1844.303
218.4070, 1848.205
218.8891, 1858.447
219.3712, 1875.387
219.8533, 1885.567
220.3354, 1882.451
220.8176, 1878.529
221.2997, 1877.036
221.7818, 1877.304
222.2639, 1877.256
222.7460, 1875.321
223.2281, 1871.751
223.7103, 1869.453
224.1924, 1869.348
224.6745, 1869.641
225.1566, 1871.029
225.6387, 1872.377
226.1208, 1872.432
226.6030, 1870.656
227.0851, 1866.619
227.5672, 1857.862
228.0493, 1834.733
228.5314, 1820.331
229.0135, 1822.835
229.4957, 1833.964
229.9778, 1844.734
230.4599, 1851.147
230.9420, 1854.577
231.4241, 1858.585
231.9062, 1864.788
232.3884, 1868.559
232.8705, 1866.323
233.3526, 1863.381
233.8347, 1865.476
234.3168, 1874.287
234.7989, 1885.055
235.2811, 1888.653
235.7632, 1880.008
236.2453, 1876.346
236.7274, 1885.258
237.2095, 1894.750
237.6916, 1894.619
238.1738, 1883.922
238.6559, 1872.156
239.1380, 1872.141
239.6201, 1887.809
240.1022, 1900.761
240.5843, 1911.044
241.0665, 1917.928
241.5486, 1917.772
242.0307, 1912.404
242.5128, 1909.478
242.9949, 1918.740
243.4770, 1941.923
243.9592, 1956.566
244.4413, 1957.748
244.9234, 1954.277
245.4055, 1944.981
245.8876, 1933.202
246.3697, 1926.519
246.8519, 1932.594
247.3340, 1949.394
247.8161, 1957.851
248.2982, 1951.432
248.7803, 1944.995
249.2624, 1943.471
249.7446, 1945.412
250.2267, 1948.479
250.7088, 1951.773
251.1909, 1955.015
251.6730, 1957.215
252.1551, 1957.514
252.6373, 1958.562
253.1194, 1960.986
253.6015, 1964.572
254.0836, 1969.803
254.5657, 1977.390
255.0478, 1984.603
255.5300, 1985.760
256.0121, 1978.370
256.4942, 1974.432
256.9763, 1979.742
257.4584, 1988.534
257.9406, 1998.398
258.4227, 2008.986
258.9048, 2016.623
259.3869, 2015.602
259.8690, 2005.421
260.3511, 1998.059
260.8333, 1995.488
261.3154, 1997.002
261.7975, 2003.285
262.2796, 2013.931
262.7617, 2024.398
263.2438, 2029.808
263.7260, 2031.593
264.2081, 2038.616
264.6902, 2054.664
265.1723, 2071.706
265.6544, 2086.784
266.1365, 2098.860
266.6187, 2103.468
267.1008, 2089.351
267.5829, 2067.990
268.0650, 2065.867
268.5471, 2088.163
269.0292, 2114.715
269.5114, 2133.026
269.9935, 2145.958
270.4756, 2157.846
270.9577, 2169.840
271.4398, 2181.203
271.9219, 2190.015
272.4041, 2196.159
272.8862, 2204.481
273.3683, 2217.371
273.8504, 2234.260
274.3325, 2254.128
274.8146, 2280.418
275.2968, 2303.388
275.7789, 2312.252
276.2610, 2310.997
276.7431, 2316.125
277.2252, 2333.722
277.7073, 2360.245
278.1895, 2391.972
278.6716, 2431.241
279.1537, 2464.333
279.6358, 2479.039
280.1179, 2485.906
280.6000, 2504.474
281.0822, 2540.218
281.5643, 2580.749
282.0464, 2609.983
282.5285, 2626.211
283.0106, 2651.167
283.4927, 2692.303
283.9749, 2740.005
284.4570, 2787.381
284.9391, 2833.440
285.4212, 2877.648
285.9033, 2919.025
286.3854, 2957.494
286.8676, 2996.867
287.3497, 3033.330
287.8318, 3074.274
288.3139, 3128.628
288.7960, 3191.053
289.2781, 3245.851
289.7603, 3283.145
290.2424, 3308.289
290.7245, 3343.184
291.2066, 3398.995
291.6887, 3450.114
292.1708, 3486.183
292.6530, 3517.811
293.1351, 3562.122
293.6172, 3624.705
294.0993, 3690.643
294.5814, 3732.097
295.0635, 3728.359
295.5457, 3738.816
296.0278, 3774.101
296.5099, 3814.681
296.9920, 3844.396
297.4741, 3863.125
297.9562, 3883.885
298.4384, 3922.423
298.9205, 3983.663
299.4026, 4028.511
299.8847, 4038.117
300.3668, 4050.641
300.8489, 4079.729
301.3310, 4122.217
301.8131, 4168.620
302.2953, 4212.541
302.7774, 4255.580
303.2595, 4305.915
303.7416, 4364.975
304.2237, 4430.196
304.7058, 4503.685
305.1880, 4581.078
305.6701, 4657.400
306.1522, 4730.734
306.6343, 4803.992
307.1164, 4882.239
307.5985, 4966.038
308.0807, 5051.621
308.5628, 5138.973
309.0449, 5227.395
309.5270, 5313.691
310.0091, 5398.721
310.4912, 5488.536
310.9734, 5590.577
311.4555, 5703.813
311.9376, 5816.102
312.4197, 5930.964
312.9018, 6037.217
313.3839, 6122.830
313.8661, 6195.249
314.3482, 6273.236
314.8303, 6374.348
315.3124, 6482.276
315.7945, 6566.982
316.2766, 6625.721
316.7588, 6676.778
317.2409, 6728.699
317.7230, 6778.536
318.2051, 6821.122
318.6872, 6853.984
319.1693, 6882.331
319.6515, 6917.577
320.1336, 6953.916
320.6157, 6963.568
321.0978, 6931.818
321.5799, 6877.393
322.0620, 6829.705
322.5442, 6791.509
323.0263, 6744.873
323.5084, 6683.865
323.9905, 6611.773
324.4726, 6530.640
324.9547, 6440.536
325.4369, 6347.645
325.9190, 6257.727
326.4011, 6171.209
326.8832, 6082.605
327.3653, 5992.008
327.8474, 5898.953
328.3296, 5797.732
328.8117, 5692.812
329.2938, 5597.309
329.7759, 5518.822
330.2580, 5454.702
330.7401, 5395.534
331.2223, 5353.910
331.7044, 5301.202
332.1865, 5225.893
332.6686, 5141.775
333.1507, 5061.410
333.6328, 4989.411
334.1150, 4925.889
334.5971, 4871.280
335.0792, 4828.586
335.5613, 4787.681
336.0434, 4750.058
336.5255, 4712.759
337.0077, 4671.253
337.4898, 4628.299
337.9719, 4592.546
338.4540, 4573.720
338.9361, 4568.816
339.4182, 4549.387
339.9004, 4501.206
340.3825, 4459.691
340.8646, 4435.596
341.3467, 4422.948
341.8288, 4415.375
342.3109, 4411.164
342.7931, 4407.730
343.2752, 4402.392
343.7573, 4395.688
344.2394, 4382.321
344.7215, 4348.717
345.2036, 4318.137
345.6858, 4311.645
346.1679, 4329.682
346.6500, 4350.572
347.1321, 4359.293
347.6142, 4360.442
348.0963, 4367.086
348.5785, 4381.432
349.0606, 4398.494
349.5427, 4417.333
350.0248, 4436.156
350.5069, 4448.780
350.9890, 4449.142
351.4712, 4446.898
351.9533, 4450.139
352.4354, 4457.971
352.9175, 4465.354
353.3996, 4469.573
353.8817, 4472.273
354.3639, 4478.604
354.8460, 4492.804
355.3281, 4501.210
355.8102, 4499.942
356.2923, 4491.660
356.7744, 4477.929
357.2566, 4459.438
357.7387, 4439.474
358.2208, 4421.291
358.7029, 4404.518
359.1850, 4392.045
359.6671, 4389.459
360.1493, 4385.046
360.6314, 4375.765
361.1135, 4360.456
361.5956, 4337.145
362.0777, 4304.050
362.5598, 4263.736
363.0420, 4225.392
363.5241, 4190.904
364.0062, 4155.391
364.4883, 4114.261
364.9704, 4074.446
365.4525, 4045.125
365.9347, 4026.958
366.4168, 4007.139
366.8989, 3967.924
367.3810, 3907.217
367.8631, 3857.527
368.3452, 3826.407
368.8274, 3799.217
369.3095, 3771.249
369.7916, 3741.024
370.2737, 3705.171
370.7558, 3658.388
371.2379, 3608.086
371.7201, 3568.667
372.2022, 3541.464
372.6843, 3512.721
373.1664, 3474.636
373.6485, 3433.168
374.1306, 3397.552
374.6128, 3369.291
375.0949, 3342.531
375.5770, 3318.357
376.0591, 3293.085
376.5412, 3256.533
377.0233, 3205.225
377.5055, 3153.772
377.9876, 3118.952
378.4697, 3103.150
378.9518, 3077.945
379.4339, 3031.561
379.9160, 2986.089
380.3982, 2958.411
380.8803, 2943.141
381.3624, 2923.080
381.8445, 2888.069
382.3266, 2844.894
382.8087, 2813.730
383.2909, 2810.353
383.7730, 2798.968
384.2551, 2773.777
384.7372, 2743.733
385.2193, 2715.535
385.7014, 2690.521
386.1836, 2666.313
386.6657, 2639.975
387.1478, 2611.343
387.6299, 2585.757
388.1120, 2564.034
388.5941, 2544.553
389.0763, 2524.875
389.5584, 2507.445
390.0405, 2497.531
390.5226, 2498.974
391.0047, 2503.749
391.4868, 2497.586
391.9690, 2479.042
392.4511, 2463.837
392.9332, 2459.443
393.4153, 2456.971
393.8974, 2447.400
394.3795, 2430.668
394.8617, 2414.322
395.3438, 2401.045
395.8259, 2390.849
396.3080, 2384.398
396.7901, 2381.925
397.2722, 2380.810
397.7544, 2380.891
398.2365, 2380.714
398.7186, 2374.080
399.2007, 2348.024
399.6828, 2330.141
400.1649, 2340.125
400.6471, 2363.236
401.1292, 2374.324
401.6113, 2365.100
402.0934, 2345.449
402.5755, 2328.928
403.0576, 2314.206
403.5398, 2307.890
404.0219, 2320.339
404.5040, 2330.344
404.9861, 2323.396
405.4682, 2304.687
405.9503, 2289.120
406.4325, 2286.615
406.9146, 2293.072
407.3967, 2293.988
407.8788, 2287.150
408.3609, 2279.152
408.8430, 2267.661
409.3252, 2257.909
409.8073, 2255.902
410.2894, 2261.950
410.7715, 2267.762
411.2536, 2265.257
411.7357, 2256.074
412.2179, 2248.286
412.7000, 2241.979
413.1821, 2238.188
413.6642, 2241.053
414.1463, 2246.758
414.6284, 2246.989
415.1106, 2234.649
415.5927, 2223.236
416.0748, 2226.211
416.5569, 2238.616
417.0390, 2244.662
417.5211, 2238.495
418.0033, 2225.741
418.4854, 2214.035
418.9675, 2203.012
419.4496, 2194.851
419.9317, 2192.416
420.4138, 2190.661
420.8960, 2185.998
421.3781, 2178.883
421.8602, 2171.569
422.3423, 2165.359
422.8244, 2160.330
423.3065, 2157.409
423.7887, 2164.232
424.2708, 2160.609
424.7529, 2138.243
425.2350, 2109.843
425.7171, 2082.005
426.1992, 2057.479
426.6814, 2041.660
427.1635, 2046.294
427.6456, 2068.556
428.1277, 2072.243
428.6098, 2048.081
429.0919, 2023.052
429.5741, 2010.843
430.0562, 2006.611
430.5383, 2004.352
431.0204, 2004.020
431.5025, 2002.429
431.9846, 1995.083
432.4668, 1983.967
432.9489, 1977.612
433.4310, 1979.827
433.9131, 1981.598
434.3952, 1970.012
434.8773, 1943.103
435.3595, 1925.150
435.8416, 1927.735
436.3237, 1930.404
436.8058, 1917.390
437.2879, 1894.023
437.7701, 1875.479
438.2522, 1869.751
438.7343, 1872.150
439.2164, 1870.535
439.6985, 1859.315
440.1806, 1854.253
440.6628, 1862.689
441.1449, 1870.800
441.6270, 1868.765
442.1091, 1857.582
442.5912, 1844.594
443.0733, 1834.109
443.5555, 1826.631
444.0376, 1825.856
444.5197, 1835.932
445.0018, 1841.062
445.4839, 1830.952
445.9660, 1814.962
446.4482, 1801.928
446.9303, 1793.310
447.4124, 1784.950
447.8945, 1771.507
448.3766, 1757.068
448.8587, 1752.807
449.3409, 1761.027
449.8230, 1767.214
450.3051, 1758.261
450.7872, 1736.161
451.2693, 1722.512
451.7514, 1721.661
452.2336, 1723.463
452.7157, 1726.518
453.1978, 1729.566
453.6799, 1731.011
454.1620, 1730.390
454.6441, 1728.288
455.1263, 1725.732
455.6084, 1723.310
456.0905, 1717.131
456.5726, 1700.618
457.0547, 1687.110
457.5368, 1684.194
458.0190, 1686.135
458.5011, 1682.716
458.9832, 1668.755
459.4653, 1652.203
459.9474, 1645.042
460.4295, 1647.446
460.9117, 1649.107
461.3938, 1647.302
461.8759, 1645.304
462.3580, 1647.912
462.8401, 1653.716
463.3222, 1654.683
463.8044, 1643.475
464.2865, 1630.567
464.7686, 1625.429
465.2507, 1626.853
465.7328, 1629.949
466.2149, 1633.063
466.6971, 1635.064
467.1792, 1633.358
467.6613, 1623.825
468.1434, 1619.486
468.6255, 1625.687
469.1076, 1632.337
469.5898, 1631.947
470.0719, 1626.334
470.5540, 1622.808
471.0361, 1626.710
471.5182, 1633.822
472.0003, 1630.718
472.4825, 1612.897
472.9646, 1597.190
473.4467, 1582.940
473.9288, 1575.293
474.4109, 1582.794
474.8930, 1603.497
475.3752, 1619.669
475.8573, 1619.181
476.3394, 1608.500
476.8215, 1596.554
477.3036, 1583.559
477.7857, 1574.156
478.2679, 1570.872
478.7500, 1572.501
479.2321, 1577.201
479.7142, 1588.151
480.1963, 1593.930
480.6784, 1586.844
481.1606, 1577.365
481.6427, 1577.850
482.1248, 1586.861
482.6069, 1590.794
483.0890, 1578.084
483.5711, 1553.316
484.0533, 1542.282
484.5354, 1554.114
485.0175, 1565.150
485.4996, 1573.143
485.9817, 1578.307
486.4638, 1578.975
486.9460, 1575.915
487.4281, 1574.521
487.9102, 1583.873
488.3923, 1597.920
488.8744, 1595.065
489.3565, 1571.758
489.8387, 1551.443
490.3208, 1547.511
490.8029, 1553.406
491.2850, 1554.772
491.7671, 1550.240
492.2492, 1545.274
492.7314, 1540.135
493.2135, 1536.424
493.6956, 1537.865
494.1777, 1543.719
494.6598, 1547.204
495.1419, 1542.652
495.6241, 1531.627
496.1062, 1523.986
496.5883, 1517.808
497.0704, 1518.368
497.5525, 1533.538
498.0346, 1550.252
498.5168, 1556.935
498.9989, 1552.938
499.4810, 1546.437
499.9631, 1543.608
500.4452, 1543.680
500.9273, 1543.618
501.4095, 1543.051
501.8916, 1544.258
502.3737, 1551.754
502.8558, 1559.379
503.3379, 1555.313
503.8200, 1534.648
504.3022, 1522.397
504.7843, 1538.460
505.2664, 1561.842
505.7485, 1565.290
506.2306, 1549.154
506.7127, 1534.071
507.1949, 1534.292
507.6770, 1545.835
508.1591, 1551.306
508.6412, 1547.221
509.1233, 1541.778
509.6054, 1532.695
510.0876, 1524.571
510.5697, 1520.271
511.0518, 1520.187
511.5339, 1524.161
512.0161, 1534.653
512.4982, 1547.478
512.9803, 1549.705
513.4624, 1539.398
513.9445, 1530.150
514.4266, 1527.209
514.9088, 1527.175
515.3909, 1524.724
515.8730, 1519.384
516.3551, 1517.473
516.8372, 1523.710
517.3193, 1532.116
517.8015, 1538.053
518.2836, 1541.184
518.7657, 1541.104
519.2478, 1537.007
519.7299, 1532.211
520.2120, 1535.537
520.6942, 1557.379
521.1763, 1567.229
521.6584, 1558.505
522.1405, 1545.489
522.6226, 1533.568
523.1047, 1523.729
523.5869, 1516.040
524.0690, 1509.827
524.5511, 1507.190
525.0332, 1514.865
525.5153, 1532.741
525.9974, 1542.325
526.4796, 1535.970
526.9617, 1525.334
527.4438, 1523.842
527.9259, 1530.176
528.4080, 1532.852
528.8901, 1528.944
529.3723, 1522.264
529.8544, 1512.892
530.3365, 1502.776
530.8186, 1495.036
531.3007, 1490.763
531.7828, 1490.305
532.2650, 1494.794
532.7471, 1505.415
533.2292, 1513.661
533.7113, 1516.823
534.1934, 1520.717
534.6755, 1529.604
535.1577, 1539.297
535.6398, 1543.663
536.1219, 1540.635
536.6040, 1535.320
537.0861, 1532.041
537.5682, 1530.291
538.0504, 1527.884
538.5325, 1524.221
539.0146, 1522.977
539.4967, 1528.587
539.9788, 1538.663
540.4609, 1541.316
540.9431, 1531.972
541.4252, 1522.418
541.9073, 1514.008
542.3894, 1507.104
542.8715, 1501.431
543.3536, 1497.382
543.8358, 1496.792
544.3179, 1501.822
544.8000, 1510.792
545.2821, 1516.549
545.7642, 1519.037
546.2463, 1518.403
546.7285, 1511.282
547.2106, 1503.524
547.6926, 1498.535
548.1747, 1496.692
548.6569, 1499.196
549.1390, 1511.483
549.6211, 1524.939
550.1032, 1528.997
550.5853, 1525.382
551.0674, 1523.106
551.5496, 1526.348
552.0317, 1529.096
552.5138, 1519.832
552.9959, 1489.296
553.4780, 1478.606
553.9601, 1505.854
554.4423, 1530.588
554.9244, 1534.617
555.4065, 1526.029
555.8886, 1519.228
556.3707, 1519.562
556.8528, 1520.117
557.3350, 1507.909
557.8171, 1485.971
558.2992, 1482.612
558.7813, 1507.039
559.2634, 1528.802
559.7455, 1524.199
560.2277, 1501.846
560.7098, 1490.303
561.1919, 1491.557
561.6740, 1500.438
562.1561, 1526.553
562.6382, 1552.684
563.1204, 1557.211
563.6025, 1541.088
564.0846, 1522.960
564.5667, 1516.327
565.0488, 1518.218
565.5309, 1516.792
566.0131, 1510.871
566.4952, 1504.609
566.9773, 1497.151
567.4594, 1490.835
567.9415, 1486.874
568.4236, 1485.347
568.9058, 1486.234
569.3879, 1491.260
569.8700, 1497.142
570.3521, 1502.355
570.8342, 1505.856
571.3163, 1502.378
571.7985, 1489.658
572.2806, 1476.109
572.7627, 1472.161
573.2448, 1478.919
573.7269, 1484.806
574.2090, 1493.993
574.6912, 1497.464
575.1733, 1488.433
575.6554, 1474.886
576.1375, 1465.144
576.6196, 1461.188
577.1017, 1460.524
577.5839, 1460.607
578.0660, 1462.162
578.5481, 1470.502
579.0302, 1487.347
579.5123, 1495.223
579.9944, 1481.461
580.4766, 1458.188
580.9587, 1450.257
581.4408, 1461.551
581.9229, 1468.501
582.4050, 1464.191
582.8871, 1457.929
583.3693, 1455.588
583.8514, 1456.267
584.3335, 1457.073
584.8156, 1456.699
585.2977, 1455.430
585.7798, 1452.595
586.2620, 1447.646
586.7441, 1448.280
587.2262, 1458.149
587.7083, 1468.250
588.1904, 1475.751
588.6725, 1479.536
589.1547, 1476.186
589.6368, 1461.787
590.1189, 1449.445
590.6010, 1446.490
591.0831, 1448.570
591.5652, 1451.341
592.0474, 1453.833
592.5295, 1455.279
593.0116, 1455.305
593.4937, 1453.489
593.9758, 1447.552
594.4579, 1432.906
594.9401, 1425.136
595.4222, 1436.164
595.9043, 1444.666
596.3864, 1435.536
596.8685, 1415.437
597.3506, 1402.377
597.8328, 1405.306
598.3149, 1412.867
598.7970, 1413.793
599.2791, 1411.434
599.7612, 1417.190
600.2433, 1433.321
600.7255, 1444.843
601.2076, 1437.258
601.6897, 1413.864
602.1718, 1401.687
602.6539, 1411.635
603.1360, 1418.245
603.6182, 1417.830
604.1003, 1414.872
604.5824, 1410.954
605.0645, 1407.400
605.5466, 1407.759
606.0287, 1417.403
606.5109, 1427.520
606.9930, 1421.180
607.4751, 1401.012
607.9572, 1388.550
608.4393, 1389.881
608.9214, 1397.272
609.4036, 1404.553
609.8857, 1411.705
610.3678, 1412.993
610.8499, 1404.185
611.3320, 1395.484
611.8141, 1386.127
612.2963, 1379.939
612.7784, 1383.280
613.2605, 1394.946
613.7426, 1405.494
614.2247, 1408.261
614.7068, 1404.476
615.1890, 1395.353
615.6711, 1380.532
616.1532, 1368.191
616.6353, 1360.057
617.1174, 1356.502
617.5995, 1360.185
618.0817, 1371.293
618.5638, 1376.691
619.0459, 1369.896
619.5280, 1364.227
620.0101, 1367.756
620.4922, 1373.837
620.9744, 1372.533
621.4565, 1362.967
621.9386, 1354.041
622.4207, 1354.768
622.9028, 1362.105
623.3849, 1363.498
623.8671, 1357.758
624.3492, 1353.203
624.8313, 1353.508
625.3134, 1354.713
625.7955, 1351.672
626.2776, 1344.666
626.7598, 1338.266
627.2419, 1331.320
627.7240, 1327.057
628.2061, 1327.808
628.6882, 1332.045
629.1703, 1339.670
629.6525, 1349.496
630.1346, 1355.259
630.6167, 1348.812
631.0988, 1333.322
631.5809, 1327.523
632.0630, 1334.160
632.5452, 1339.740
633.0273, 1340.114
633.5094, 1337.783
633.9915, 1335.180
634.4736, 1332.331
634.9557, 1329.668
635.4379, 1327.830
635.9200, 1325.646
636.4021, 1320.793
636.8842, 1315.783
637.3663, 1315.039
637.8484, 1319.301
638.3306, 1325.407
638.8127, 1331.323
639.2948, 1336.142
639.7769, 1332.807
640.2590, 1318.188
640.7411, 1306.656
641.2233, 1304.543
641.7054, 1305.095
