##NAMES=Minium
##RRUFFID=R050426
##IDEAL CHEMISTRY=Pb^2+^_2_Pb^4+^O_4_
##LOCALITY=El Chichi mine, Culiacan, Sinalog, Mexico
##OWNER=RRUFF
##SOURCE=University of Arizona Mineral Museum
##DESCRIPTION=Orange earthy coating
##STATUS=The identification of this mineral has been confirmed by X-ray diffraction and chemical analysis
##URL=rruff.info/R050426
##MEASURED CHEMISTRY=Pb^2+^_2.00_Pb^4+^_1.00_O_4_
117.0610, 1595.507
117.5431, 1750.710
118.0252, 1931.383
118.5073, 2142.088
118.9894, 2398.552
119.4715, 2653.927
119.9537, 2945.132
120.4358, 3218.162
120.9179, 3425.406
121.4000, 3554.529
121.8821, 3606.421
122.3642, 3564.014
122.8464, 3393.050
123.3285, 3235.739
123.8106, 3116.242
124.2927, 3023.626
124.7748, 2939.398
125.2569, 2855.937
125.7391, 2784.897
126.2212, 2753.767
126.7033, 2766.925
127.1854, 2788.765
127.6675, 2807.153
128.1496, 2824.712
128.6317, 2847.260
129.1139, 2874.376
129.5960, 2911.758
130.0781, 2966.400
130.5602, 3038.275
131.0423, 3124.210
131.5244, 3217.993
132.0066, 3322.025
132.4887, 3453.873
132.9708, 3630.330
133.4529, 3833.884
133.9350, 4034.453
134.4171, 4232.363
134.8993, 4426.526
135.3814, 4616.324
135.8635, 4800.990
136.3456, 4982.272
136.8277, 5151.562
137.3098, 5322.726
137.7920, 5511.732
138.2741, 5724.384
138.7562, 5949.585
139.2383, 6171.342
139.7204, 6383.170
140.2025, 6620.556
140.6847, 6913.929
141.1668, 7232.979
141.6489, 7552.588
142.1310, 7859.803
142.6131, 8171.806
143.0952, 8511.449
143.5774, 8872.565
144.0595, 9284.780
144.5416, 9761.431
145.0237, 10288.27
145.5058, 10854.25
145.9879, 11446.35
146.4701, 12086.17
146.9522, 12809.87
147.4343, 13603.32
147.9164, 14526.25
148.3985, 15667.68
148.8806, 16910.43
149.3627, 18160.19
149.8449, 19438.18
150.3270, 20618.14
150.8091, 21303.64
151.2912, 21460.31
151.7733, 21077.78
152.2554, 20015.69
152.7376, 18532.09
153.2197, 16919.23
153.7018, 15298.54
154.1839, 13711.70
154.6660, 12344.54
155.1481, 11260.35
155.6303, 10356.25
156.1124, 9630.731
156.5945, 9052.711
157.0766, 8583.146
157.5587, 8203.924
158.0408, 7909.875
158.5230, 7662.049
159.0051, 7486.513
159.4872, 7334.791
159.9693, 7188.031
160.4514, 7029.755
160.9335, 6885.989
161.4157, 6792.247
161.8978, 6743.248
162.3799, 6675.160
162.8620, 6553.278
163.3441, 6449.322
163.8262, 6390.803
164.3084, 6360.396
164.7905, 6325.678
165.2726, 6263.754
165.7547, 6176.960
166.2368, 6099.185
166.7189, 6037.946
167.2011, 5978.622
167.6832, 5918.686
168.1653, 5858.314
168.6474, 5798.827
169.1295, 5740.916
169.6116, 5684.791
170.0938, 5632.427
170.5759, 5585.816
171.0580, 5540.589
171.5401, 5489.056
172.0222, 5437.334
172.5043, 5399.996
172.9865, 5389.952
173.4686, 5407.223
173.9507, 5403.442
174.4328, 5345.099
174.9149, 5302.111
175.3970, 5310.558
175.8792, 5355.325
176.3613, 5396.214
176.8434, 5403.337
177.3255, 5376.393
177.8076, 5351.384
178.2897, 5319.733
178.7719, 5297.082
179.2540, 5295.138
179.7361, 5307.836
180.2182, 5317.876
180.7003, 5310.783
181.1824, 5286.509
181.6646, 5286.208
182.1467, 5331.725
182.6288, 5373.526
183.1109, 5394.272
183.5930, 5395.459
184.0751, 5383.455
184.5573, 5360.433
185.0394, 5327.013
185.5215, 5307.669
186.0036, 5319.857
186.4857, 5325.297
186.9678, 5301.027
187.4500, 5255.763
187.9321, 5216.269
188.4142, 5201.602
188.8963, 5210.289
189.3784, 5210.239
189.8605, 5185.793
190.3427, 5170.041
190.8248, 5183.938
191.3069, 5218.308
191.7890, 5247.867
192.2711, 5255.839
192.7532, 5243.959
193.2354, 5232.432
193.7175, 5216.839
194.1996, 5205.963
194.6817, 5202.915
195.1638, 5207.277
195.6459, 5218.182
196.1281, 5235.757
196.6102, 5259.178
197.0923, 5282.133
197.5744, 5309.224
198.0565, 5331.357
198.5386, 5339.753
199.0207, 5340.544
199.5029, 5347.535
199.9850, 5368.529
200.4671, 5402.081
200.9492, 5441.924
201.4313, 5492.056
201.9134, 5542.207
202.3956, 5585.155
202.8777, 5625.699
203.3598, 5674.043
203.8419, 5735.091
204.3240, 5807.978
204.8061, 5890.334
205.2883, 5985.920
205.7704, 6084.821
206.2525, 6185.065
206.7346, 6286.530
207.2167, 6388.724
207.6988, 6490.289
208.1810, 6593.189
208.6631, 6702.278
209.1452, 6817.334
209.6273, 6937.432
210.1094, 7058.244
210.5915, 7184.574
211.0737, 7327.988
211.5558, 7494.410
212.0379, 7672.390
212.5200, 7831.238
213.0021, 7947.466
213.4842, 8080.651
213.9664, 8240.582
214.4485, 8422.003
214.9306, 8622.180
215.4127, 8840.176
215.8948, 9069.415
216.3769, 9298.872
216.8591, 9525.838
217.3412, 9756.874
217.8233, 9981.616
218.3054, 10214.50
218.7875, 10481.93
219.2696, 10793.30
219.7518, 11113.44
220.2339, 11385.37
220.7160, 11584.61
221.1981, 11777.92
221.6802, 11995.27
222.1623, 12194.39
222.6445, 12332.10
223.1266, 12399.75
223.6087, 12419.74
224.0908, 12422.78
224.5729, 12418.55
225.0550, 12360.20
225.5371, 12212.86
226.0193, 12036.47
226.5014, 11868.04
226.9835, 11716.94
227.4656, 11581.61
227.9477, 11461.96
228.4298, 11362.33
228.9120, 11261.49
229.3941, 11153.91
229.8762, 11048.97
230.3583, 10953.07
230.8404, 10866.01
231.3225, 10783.89
231.8047, 10704.71
232.2868, 10630.07
232.7689, 10541.21
233.2510, 10437.60
233.7331, 10323.12
234.2152, 10193.96
234.6974, 10053.38
235.1795, 9915.203
235.6616, 9792.269
236.1437, 9685.024
236.6258, 9541.773
237.1079, 9332.321
237.5901, 9123.333
238.0722, 8935.254
238.5543, 8764.904
239.0364, 8600.687
239.5185, 8434.017
240.0006, 8267.131
240.4828, 8112.591
240.9649, 7977.074
241.4470, 7847.181
241.9291, 7721.864
242.4112, 7600.304
242.8933, 7481.450
243.3755, 7363.445
243.8576, 7249.963
244.3397, 7151.490
244.8218, 7080.459
245.3039, 7010.729
245.7860, 6942.490
246.2682, 6873.152
246.7503, 6797.567
247.2324, 6713.718
247.7145, 6629.196
248.1966, 6562.069
248.6787, 6525.791
249.1608, 6484.322
249.6430, 6432.921
250.1251, 6377.857
250.6072, 6322.975
251.0893, 6269.543
251.5714, 6218.324
252.0535, 6172.008
252.5357, 6135.216
253.0178, 6091.056
253.4999, 6029.873
253.9820, 5969.322
254.4641, 5921.304
254.9462, 5886.005
255.4284, 5854.380
255.9105, 5814.981
256.3926, 5764.533
256.8747, 5725.415
257.3568, 5709.758
257.8390, 5695.406
258.3211, 5673.838
258.8032, 5645.935
259.2853, 5616.938
259.7674, 5590.893
260.2495, 5567.617
260.7316, 5544.073
261.2137, 5517.291
261.6959, 5494.019
262.1780, 5483.073
262.6601, 5476.651
263.1422, 5459.335
263.6243, 5417.371
264.1064, 5361.402
264.5886, 5327.944
265.0707, 5324.742
265.5528, 5330.961
266.0349, 5347.706
266.5170, 5365.637
266.9991, 5373.476
267.4813, 5366.298
267.9634, 5348.525
268.4455, 5322.029
268.9276, 5280.597
269.4097, 5255.668
269.8918, 5276.423
270.3740, 5309.718
270.8561, 5328.452
271.3382, 5325.712
271.8203, 5316.202
272.3024, 5311.994
272.7845, 5313.042
273.2667, 5321.458
273.7488, 5342.427
274.2309, 5366.957
274.7130, 5386.837
275.1951, 5401.786
275.6772, 5413.949
276.1594, 5421.676
276.6415, 5427.121
277.1236, 5438.239
277.6057, 5456.930
278.0878, 5480.683
278.5699, 5508.527
279.0521, 5539.794
279.5342, 5570.623
280.0163, 5597.313
280.4984, 5623.614
280.9805, 5656.306
281.4626, 5696.729
281.9448, 5738.222
282.4269, 5773.891
282.9090, 5805.693
283.3911, 5843.842
283.8732, 5892.475
284.3553, 5945.596
284.8375, 5997.305
285.3196, 6048.088
285.8017, 6106.072
286.2838, 6180.436
286.7659, 6264.050
287.2480, 6329.813
287.7302, 6364.539
288.2123, 6397.605
288.6944, 6434.187
289.1765, 6478.048
289.6586, 6539.400
290.1407, 6624.225
290.6229, 6723.698
291.1050, 6816.925
291.5871, 6892.698
292.0692, 6983.722
292.5513, 7100.247
293.0334, 7231.514
293.5156, 7368.732
293.9977, 7508.868
294.4798, 7649.791
294.9619, 7785.065
295.4440, 7905.953
295.9261, 8050.004
296.4083, 8221.575
296.8904, 8409.924
297.3725, 8613.338
297.8546, 8827.152
298.3367, 9040.981
298.8188, 9242.828
299.3010, 9433.097
299.7831, 9632.464
300.2652, 9848.903
300.7473, 10065.74
301.2294, 10277.69
301.7115, 10486.57
302.1937, 10694.06
302.6758, 10899.36
303.1579, 11106.65
303.6400, 11336.18
304.1221, 11624.11
304.6042, 11875.02
305.0864, 12037.57
305.5685, 12177.25
306.0506, 12363.69
306.5327, 12619.03
307.0148, 12901.24
307.4969, 13148.18
307.9791, 13350.12
308.4612, 13547.53
308.9433, 13744.61
309.4254, 13938.58
309.9075, 14140.08
310.3896, 14343.53
310.8717, 14516.62
311.3539, 14628.89
311.8360, 14683.01
312.3181, 14709.29
312.8002, 14715.36
313.2823, 14680.40
313.7644, 14605.84
314.2466, 14487.83
314.7287, 14313.88
315.2108, 14063.81
315.6929, 13759.43
316.1750, 13438.80
316.6571, 13103.03
317.1393, 12740.50
317.6214, 12331.40
318.1035, 11891.42
318.5856, 11448.12
319.0677, 10988.48
319.5498, 10553.63
320.0320, 10178.75
320.5141, 9857.640
320.9962, 9571.773
321.4783, 9325.556
321.9604, 9096.039
322.4425, 8830.459
322.9247, 8512.211
323.4068, 8229.536
323.8889, 8018.054
324.3710, 7852.625
324.8531, 7704.373
325.3352, 7567.376
325.8174, 7435.778
326.2995, 7301.946
326.7816, 7164.773
327.2637, 7036.489
327.7458, 6917.594
328.2279, 6807.084
328.7101, 6702.665
329.1922, 6605.798
329.6743, 6519.181
330.1564, 6445.019
330.6385, 6382.669
331.1206, 6328.226
331.6028, 6296.591
332.0849, 6254.795
332.5670, 6185.876
333.0491, 6107.997
333.5312, 6042.528
334.0133, 5998.188
334.4955, 5968.684
334.9776, 5943.525
335.4597, 5926.011
335.9418, 5905.828
336.4239, 5880.990
336.9060, 5854.712
337.3882, 5827.099
337.8703, 5799.261
338.3524, 5774.897
338.8345, 5759.265
339.3166, 5752.168
339.7987, 5739.972
340.2809, 5714.967
340.7630, 5695.011
341.2451, 5689.968
341.7272, 5694.562
342.2093, 5699.368
342.6914, 5701.891
343.1736, 5700.168
343.6557, 5686.931
344.1378, 5658.831
344.6199, 5639.428
345.1020, 5647.481
345.5841, 5664.654
346.0663, 5667.904
346.5484, 5652.711
347.0305, 5633.097
347.5126, 5615.474
347.9947, 5600.680
348.4768, 5592.859
348.9590, 5595.226
349.4411, 5599.002
349.9232, 5590.072
350.4053, 5568.203
350.8874, 5556.891
351.3695, 5565.619
351.8517, 5583.208
352.3338, 5601.081
352.8159, 5618.315
353.2980, 5635.963
353.7801, 5655.497
354.2622, 5676.288
354.7444, 5690.170
355.2265, 5692.734
355.7086, 5694.943
356.1907, 5699.727
356.6728, 5706.128
357.1549, 5711.044
357.6371, 5713.268
358.1192, 5717.276
358.6013, 5732.679
359.0834, 5769.662
359.5655, 5799.294
360.0476, 5812.142
360.5297, 5825.916
361.0118, 5854.095
361.4940, 5895.580
361.9761, 5938.607
362.4582, 5972.986
362.9403, 5998.899
363.4224, 6022.119
363.9045, 6034.963
364.3867, 6055.908
364.8688, 6087.406
365.3509, 6130.819
365.8330, 6191.386
366.3151, 6275.621
366.7972, 6365.950
367.2794, 6428.479
367.7615, 6458.987
368.2436, 6507.383
368.7257, 6593.742
369.2078, 6701.919
369.6899, 6816.731
370.1721, 6937.592
370.6542, 7060.099
371.1363, 7172.629
371.6184, 7286.578
372.1005, 7422.434
372.5826, 7582.551
373.0648, 7767.412
373.5469, 7982.501
374.0290, 8227.633
374.5111, 8482.476
374.9932, 8747.527
375.4753, 9020.524
375.9575, 9303.533
376.4396, 9595.272
376.9217, 9895.039
377.4038, 10201.60
377.8859, 10513.59
378.3680, 10825.90
378.8502, 11135.42
379.3323, 11450.90
379.8144, 11753.17
380.2965, 12072.98
380.7786, 12443.69
381.2607, 12864.82
381.7429, 13298.66
382.2250, 13698.43
382.7071, 14057.79
383.1892, 14468.14
383.6713, 14946.80
384.1534, 15466.37
384.6356, 16037.29
385.1177, 16638.74
385.5998, 17238.89
386.0819, 17821.45
386.5640, 18399.47
387.0461, 19006.90
387.5283, 19656.42
388.0104, 20272.54
388.4925, 20890.49
388.9746, 21417.29
389.4567, 21803.76
389.9388, 22044.23
390.4210, 22106.63
390.9031, 21964.62
391.3852, 21633.32
391.8673, 21127.81
392.3494, 20438.30
392.8315, 19635.89
393.3137, 18752.46
393.7958, 17794.12
394.2779, 16824.16
394.7600, 15787.85
395.2421, 14786.00
395.7242, 13859.59
396.2064, 13008.08
396.6885, 12228.69
397.1706, 11521.73
397.6527, 10883.96
398.1348, 10317.01
398.6169, 9842.563
399.0991, 9407.754
399.5812, 9014.247
400.0633, 8655.644
400.5454, 8329.510
401.0275, 8036.548
401.5096, 7778.311
401.9918, 7559.959
402.4739, 7378.826
402.9560, 7194.247
403.4381, 6989.456
403.9202, 6808.871
404.4023, 6665.721
404.8845, 6547.650
405.3666, 6442.340
405.8487, 6346.247
406.3308, 6256.521
406.8129, 6171.997
407.2950, 6092.632
407.7772, 6007.471
408.2592, 5906.251
408.7414, 5811.477
409.2235, 5743.852
409.7056, 5698.880
410.1877, 5656.375
410.6698, 5613.486
411.1519, 5567.497
411.6341, 5509.592
412.1162, 5441.818
412.5983, 5384.550
413.0804, 5348.574
413.5625, 5330.040
414.0446, 5320.125
414.5268, 5330.401
415.0089, 5327.572
415.4910, 5294.571
415.9731, 5251.238
416.4552, 5219.280
416.9373, 5201.832
417.4195, 5187.097
417.9016, 5161.242
418.3837, 5121.998
418.8658, 5101.646
419.3479, 5125.293
419.8300, 5140.900
420.3122, 5132.861
420.7943, 5109.660
421.2764, 5081.898
421.7585, 5053.418
422.2406, 5028.697
422.7227, 5017.821
423.2049, 5023.760
423.6870, 5022.908
424.1691, 5002.780
424.6512, 4983.418
425.1333, 4979.659
425.6154, 4989.886
426.0976, 5002.616
426.5797, 5012.641
427.0618, 5021.830
427.5439, 5034.902
428.0260, 5051.963
428.5081, 5063.125
428.9903, 5059.646
429.4724, 5048.614
429.9545, 5051.508
430.4366, 5078.347
430.9187, 5098.571
431.4008, 5099.328
431.8830, 5091.388
432.3651, 5084.886
432.8472, 5082.702
433.3293, 5087.506
433.8114, 5102.702
434.2935, 5129.100
434.7757, 5155.106
435.2578, 5182.174
435.7399, 5207.132
436.2220, 5221.969
436.7041, 5236.633
437.1862, 5266.101
437.6684, 5316.436
438.1505, 5376.868
438.6326, 5431.991
439.1147, 5481.483
439.5968, 5527.689
440.0789, 5570.502
440.5611, 5609.834
441.0432, 5643.429
441.5253, 5673.199
442.0074, 5706.325
442.4895, 5744.314
442.9716, 5788.011
443.4538, 5839.201
443.9359, 5897.488
444.4180, 5961.008
444.9001, 6031.356
445.3822, 6103.211
445.8643, 6163.239
446.3465, 6203.339
446.8286, 6254.018
447.3107, 6329.513
447.7928, 6411.461
448.2749, 6483.259
448.7570, 6543.792
449.2392, 6599.396
449.7213, 6655.695
450.2034, 6712.168
450.6855, 6766.230
451.1676, 6810.852
451.6497, 6862.675
452.1319, 6937.434
452.6140, 7013.463
453.0961, 7068.595
453.5782, 7097.822
454.0603, 7113.887
454.5424, 7131.862
455.0246, 7150.182
455.5067, 7149.801
455.9888, 7124.344
456.4709, 7090.258
456.9530, 7057.720
457.4351, 7024.296
457.9172, 6984.181
458.3994, 6930.704
458.8815, 6877.597
459.3636, 6839.981
459.8457, 6810.163
460.3278, 6764.807
460.8099, 6695.695
461.2921, 6620.393
461.7742, 6563.339
462.2563, 6531.164
462.7384, 6490.625
463.2205, 6425.203
463.7026, 6368.706
464.1848, 6339.139
464.6669, 6330.680
465.1490, 6332.307
465.6311, 6339.280
466.1132, 6346.645
466.5953, 6342.167
467.0775, 6321.207
467.5596, 6304.673
468.0417, 6294.666
468.5238, 6290.736
469.0059, 6292.471
469.4880, 6300.104
469.9702, 6314.554
470.4523, 6342.091
470.9344, 6373.762
471.4165, 6395.209
471.8986, 6406.533
472.3807, 6415.728
472.8629, 6424.657
473.3450, 6434.915
473.8271, 6452.309
474.3092, 6483.262
474.7913, 6500.002
475.2734, 6483.545
475.7556, 6460.597
476.2377, 6459.719
476.7198, 6477.614
477.2019, 6487.748
477.6840, 6470.208
478.1661, 6430.730
478.6483, 6398.656
479.1304, 6386.504
479.6125, 6360.921
480.0946, 6307.155
480.5767, 6247.221
481.0588, 6199.167
481.5410, 6164.862
482.0231, 6133.088
482.5052, 6097.689
482.9873, 6058.044
483.4694, 6008.804
483.9515, 5947.638
484.4337, 5889.183
484.9158, 5846.736
485.3979, 5809.340
485.8800, 5751.368
486.3621, 5658.546
486.8442, 5577.806
487.3264, 5533.827
487.8085, 5508.745
488.2906, 5479.988
488.7727, 5444.542
489.2548, 5412.301
489.7369, 5392.842
490.2191, 5384.914
490.7012, 5368.924
491.1833, 5336.046
491.6654, 5305.380
492.1475, 5273.416
492.6296, 5248.113
493.1118, 5240.384
493.5939, 5250.982
494.0760, 5266.114
494.5581, 5273.882
495.0402, 5274.678
495.5223, 5269.643
496.0045, 5256.111
496.4866, 5244.274
496.9687, 5238.737
497.4508, 5239.343
497.9329, 5246.924
498.4150, 5266.144
498.8972, 5282.471
499.3793, 5280.820
499.8614, 5274.643
500.3435, 5285.173
500.8256, 5315.825
501.3077, 5356.970
501.7899, 5402.096
502.2720, 5450.598
502.7541, 5490.510
503.2362, 5510.249
503.7183, 5535.083
504.2004, 5568.384
504.6826, 5608.986
505.1647, 5657.782
505.6468, 5714.125
506.1289, 5770.381
506.6110, 5816.862
507.0931, 5855.572
507.5752, 5904.026
508.0573, 5967.840
508.5395, 6026.200
509.0216, 6055.731
509.5037, 6076.439
509.9858, 6125.257
510.4679, 6215.649
510.9500, 6309.651
511.4322, 6386.455
511.9143, 6457.837
512.3964, 6543.981
512.8785, 6646.350
513.3607, 6744.232
513.8428, 6817.457
514.3249, 6869.195
514.8070, 6937.813
515.2891, 7035.195
515.7712, 7135.395
516.2534, 7240.805
516.7355, 7344.483
517.2176, 7439.089
517.6997, 7523.796
518.1818, 7606.355
518.6639, 7687.685
519.1461, 7771.093
519.6282, 7878.888
520.1103, 8019.547
520.5924, 8144.063
521.0745, 8214.942
521.5566, 8261.181
522.0388, 8343.223
522.5209, 8473.730
523.0030, 8601.185
523.4851, 8698.731
523.9672, 8790.813
524.4493, 8902.942
524.9315, 9036.896
525.4136, 9183.494
525.8957, 9336.328
526.3778, 9496.858
526.8599, 9674.604
527.3420, 9878.604
527.8242, 10086.34
528.3063, 10284.96
528.7884, 10494.96
529.2705, 10725.17
529.7526, 10980.17
530.2347, 11268.44
530.7169, 11601.49
531.1990, 11969.66
531.6810, 12354.77
532.1631, 12756.16
532.6453, 13188.12
533.1274, 13656.77
533.6095, 14154.43
534.0916, 14660.81
534.5737, 15165.97
535.0558, 15724.26
535.5380, 16362.93
536.0201, 17037.02
536.5022, 17720.93
536.9843, 18416.99
537.4664, 19129.82
537.9485, 19867.43
538.4307, 20628.64
538.9128, 21407.11
539.3949, 22203.73
539.8770, 23025.46
540.3591, 23892.34
540.8412, 24773.52
541.3234, 25641.46
541.8055, 26513.38
542.2876, 27435.77
542.7697, 28443.34
543.2518, 29483.74
543.7339, 30525.69
544.2161, 31560.85
544.6982, 32569.24
545.1803, 33545.25
545.6624, 34487.39
546.1445, 35403.97
546.6266, 36304.70
547.1088, 37024.38
547.5909, 37603.24
548.0730, 37976.19
548.5551, 38147.50
549.0372, 38089.31
549.5193, 37761.79
550.0015, 37157.76
550.4836, 36333.16
550.9657, 35323.27
551.4478, 34136.12
551.9299, 32770.20
552.4120, 31194.02
552.8942, 29571.15
553.3763, 27950.86
553.8584, 26349.67
554.3405, 24785.47
554.8226, 23252.81
555.3047, 21780.98
555.7869, 20369.66
556.2690, 19036.98
556.7511, 17797.64
557.2332, 16653.84
557.7153, 15606.84
558.1974, 14652.70
558.6796, 13792.73
559.1617, 13029.73
559.6438, 12390.83
560.1259, 11790.99
560.6080, 11214.16
561.0901, 10679.51
561.5723, 10196.66
562.0544, 9764.514
562.5365, 9371.930
563.0186, 9019.714
563.5007, 8698.209
563.9828, 8396.190
564.4650, 8117.102
564.9471, 7876.445
565.4292, 7682.385
565.9113, 7508.660
566.3934, 7327.182
566.8755, 7136.068
567.3577, 6958.037
567.8398, 6796.063
568.3219, 6641.464
568.8040, 6490.065
569.2861, 6346.258
569.7682, 6214.849
570.2504, 6097.736
570.7325, 5992.216
571.2146, 5899.479
571.6967, 5817.711
572.1788, 5736.180
572.6609, 5654.370
573.1431, 5574.204
573.6252, 5493.697
574.1073, 5416.521
574.5894, 5349.770
575.0715, 5296.068
575.5536, 5241.334
576.0358, 5179.341
576.5179, 5117.275
577.0000, 5062.190
577.4821, 5012.511
577.9642, 4961.972
578.4464, 4907.230
578.9285, 4851.143
579.4106, 4798.723
579.8927, 4748.486
580.3748, 4709.780
580.8569, 4693.997
581.3391, 4677.134
581.8212, 4643.705
582.3033, 4599.485
582.7854, 4557.812
583.2675, 4523.061
583.7496, 4489.183
584.2318, 4447.512
584.7139, 4405.462
585.1960, 4380.434
585.6781, 4374.246
586.1602, 4368.999
586.6423, 4349.297
587.1245, 4317.192
587.6066, 4288.705
588.0887, 4265.302
588.5708, 4243.232
589.0529, 4220.522
589.5350, 4200.129
590.0172, 4186.361
590.4993, 4177.849
590.9814, 4166.986
591.4635, 4147.551
591.9456, 4124.957
592.4277, 4107.849
592.9099, 4095.077
593.3920, 4077.245
593.8741, 4049.445
594.3562, 4023.695
594.8383, 4016.550
595.3204, 4031.604
595.8026, 4037.794
596.2847, 4033.106
596.7668, 4023.100
597.2489, 4002.374
597.7310, 3980.705
598.2131, 3973.011
598.6953, 3981.105
599.1774, 3987.173
599.6595, 3969.626
600.1416, 3936.293
600.6237, 3917.034
601.1058, 3913.474
601.5880, 3912.037
602.0701, 3907.031
602.5522, 3900.667
603.0343, 3897.570
603.5164, 3899.406
603.9985, 3897.306
604.4807, 3890.001
604.9628, 3878.913
605.4449, 3860.380
605.9270, 3839.690
606.4091, 3826.477
606.8912, 3824.753
607.3734, 3828.554
607.8555, 3829.800
608.3376, 3828.606
608.8197, 3830.554
609.3018, 3838.750
609.7839, 3842.596
610.2661, 3832.263
610.7482, 3815.103
611.2303, 3807.030
611.7124, 3812.712
612.1945, 3815.561
612.6766, 3809.082
613.1588, 3798.914
613.6409, 3787.425
