##NAMES=Minyulite
##RRUFFID=R070151
##IDEAL CHEMISTRY=KAl_2_(PO_4_)_2_F&#183;4H_2_O
##LOCALITY=Minyulo Well, Dandaragan, Western Australia, Australia
##OWNER=RRUFF
##SOURCE=James Shigley
##DESCRIPTION=Radiating colorless transparent thin prismatic crystals
##STATUS=The identification of this mineral is confirmed by single-crystal X-ray diffraction and chemical analysis.
##URL=rruff.info/R070151
##MEASURED CHEMISTRY=K_1.00_Al_2.00_(P_1.00_O_4_)_2_F_1.00_Â·4H_2_O;  H_2_O estimated by difference
162.2346, 22878.97
162.7167, 23007.42
163.1988, 23140.50
163.6809, 23261.87
164.1631, 23353.27
164.6452, 23431.99
165.1273, 23520.89
165.6094, 23642.21
166.0915, 23766.97
166.5736, 23879.05
167.0558, 23978.05
167.5379, 24058.93
168.0200, 24103.23
168.5021, 24126.38
168.9842, 24158.16
169.4663, 24227.16
169.9485, 24305.40
170.4306, 24360.69
170.9127, 24376.20
171.3948, 24398.37
171.8769, 24478.41
172.3590, 24601.13
172.8412, 24717.08
173.3233, 24791.25
173.8054, 24840.78
174.2875, 24888.67
174.7696, 24942.93
175.2517, 24993.09
175.7339, 25015.79
176.2160, 25016.68
176.6981, 25033.38
177.1802, 25105.21
177.6623, 25212.89
178.1444, 25315.64
178.6266, 25403.00
179.1087, 25480.05
179.5908, 25556.66
180.0729, 25632.40
180.5550, 25695.98
181.0371, 25729.24
181.5193, 25739.78
182.0014, 25750.68
182.4835, 25767.00
182.9656, 25789.96
183.4477, 25830.07
183.9298, 25890.12
184.4120, 25943.75
184.8941, 25949.82
185.3762, 25916.92
185.8583, 25895.92
186.3404, 25924.00
186.8225, 25984.17
187.3047, 26006.83
187.7868, 25982.49
188.2689, 25947.70
188.7510, 25959.75
189.2331, 26016.19
189.7152, 26071.24
190.1974, 26103.21
190.6795, 26113.38
191.1616, 26107.31
191.6437, 26080.20
192.1258, 26046.31
192.6080, 26031.48
193.0901, 26035.91
193.5722, 26050.60
194.0543, 26065.61
194.5364, 26081.74
195.0185, 26125.09
195.5007, 26205.46
195.9828, 26307.83
196.4649, 26390.62
196.9470, 26451.83
197.4291, 26512.68
197.9112, 26598.64
198.3934, 26712.66
198.8755, 26789.06
199.3576, 26802.57
199.8397, 26776.88
200.3218, 26805.91
200.8039, 26899.04
201.2861, 27015.17
201.7682, 27120.70
202.2503, 27213.11
202.7324, 27313.07
203.2145, 27425.32
203.6966, 27548.72
204.1788, 27678.58
204.6609, 27818.81
205.1430, 27953.42
205.6251, 28061.19
206.1072, 28134.26
206.5893, 28217.09
207.0715, 28331.03
207.5536, 28472.88
208.0357, 28566.10
208.5178, 28600.03
208.9999, 28602.43
209.4820, 28602.52
209.9642, 28598.37
210.4463, 28599.00
210.9284, 28613.62
211.4105, 28645.14
211.8926, 28643.85
212.3747, 28601.88
212.8569, 28536.08
213.3390, 28463.08
213.8211, 28373.04
214.3032, 28303.23
214.7853, 28267.67
215.2674, 28270.60
215.7496, 28286.17
216.2317, 28320.49
216.7138, 28362.64
217.1959, 28392.99
217.6780, 28406.50
218.1601, 28419.55
218.6423, 28438.85
219.1244, 28467.49
219.6065, 28488.98
220.0886, 28491.09
220.5707, 28493.02
221.0528, 28544.00
221.5350, 28682.66
222.0171, 28801.16
222.4992, 28844.58
222.9813, 28763.29
223.4634, 28739.30
223.9455, 28792.37
224.4277, 28897.97
224.9098, 28988.61
225.3919, 29063.38
225.8740, 29127.12
226.3561, 29180.68
226.8382, 29215.29
227.3204, 29259.36
227.8025, 29314.69
228.2846, 29379.42
228.7667, 29451.35
229.2488, 29539.35
229.7310, 29619.53
230.2131, 29678.02
230.6952, 29702.00
231.1773, 29730.64
231.6594, 29763.72
232.1415, 29802.92
232.6237, 29859.43
233.1058, 29950.79
233.5879, 30036.35
234.0700, 30089.51
234.5521, 30089.42
235.0342, 30099.77
235.5164, 30121.68
235.9985, 30156.97
236.4806, 30220.58
236.9627, 30332.21
237.4448, 30445.87
237.9269, 30531.84
238.4091, 30575.81
238.8912, 30618.62
239.3733, 30659.96
239.8554, 30701.68
240.3375, 30761.36
240.8196, 30854.88
241.3018, 30947.84
241.7839, 31017.64
242.2660, 31062.59
242.7481, 31086.46
243.2302, 31080.50
243.7123, 31048.36
244.1945, 31037.78
244.6766, 31064.12
245.1587, 31094.23
245.6408, 31103.13
246.1229, 31083.61
246.6050, 31057.20
247.0872, 31024.38
247.5693, 30985.70
248.0514, 30950.55
248.5335, 30919.72
249.0156, 30891.43
249.4977, 30863.26
249.9799, 30830.01
250.4620, 30809.24
250.9441, 30811.86
251.4262, 30835.99
251.9083, 30828.21
252.3904, 30761.98
252.8726, 30695.39
253.3547, 30684.07
253.8368, 30755.52
254.3189, 30821.42
254.8010, 30869.46
255.2831, 30899.72
255.7653, 30913.92
256.2474, 30903.95
256.7295, 30887.84
257.2116, 30880.39
257.6937, 30878.98
258.1758, 30893.18
258.6580, 30928.63
259.1401, 30984.66
259.6222, 31036.39
260.1043, 31085.15
260.5864, 31127.14
261.0685, 31156.85
261.5507, 31170.32
262.0328, 31182.24
262.5149, 31194.90
262.9970, 31208.38
263.4791, 31221.24
263.9612, 31227.86
264.4434, 31242.70
264.9255, 31287.45
265.4076, 31379.22
265.8897, 31442.97
266.3718, 31451.04
266.8539, 31408.73
267.3361, 31412.95
267.8182, 31479.81
268.3003, 31564.61
268.7824, 31620.57
269.2645, 31635.55
269.7466, 31669.63
270.2288, 31746.53
270.7109, 31859.31
271.1930, 31929.20
271.6751, 31943.46
272.1572, 31943.73
272.6393, 31968.39
273.1215, 32019.17
273.6036, 32086.64
274.0857, 32176.29
274.5678, 32282.90
275.0499, 32364.04
275.5320, 32413.53
276.0142, 32456.48
276.4963, 32515.96
276.9784, 32593.12
277.4605, 32680.21
277.9426, 32779.26
278.4247, 32886.83
278.9069, 32984.91
279.3890, 33068.74
279.8711, 33158.57
280.3532, 33284.00
280.8354, 33447.39
281.3175, 33583.69
281.7996, 33664.88
282.2817, 33711.08
282.7638, 33802.68
283.2459, 33946.35
283.7281, 34097.17
284.2102, 34210.04
284.6923, 34286.77
285.1744, 34372.96
285.6565, 34476.36
286.1386, 34596.29
286.6208, 34739.54
287.1029, 34909.90
287.5850, 35069.90
288.0671, 35176.11
288.5492, 35237.40
289.0313, 35320.63
289.5135, 35445.59
289.9956, 35596.91
290.4777, 35741.51
290.9598, 35879.98
291.4419, 36017.83
291.9240, 36174.56
292.4062, 36339.41
292.8883, 36461.64
293.3704, 36525.15
293.8525, 36550.30
294.3346, 36567.48
294.8167, 36577.00
295.2989, 36585.35
295.7810, 36611.86
296.2631, 36641.55
296.7452, 36633.14
297.2273, 36571.55
297.7094, 36480.26
298.1916, 36376.65
298.6737, 36265.50
299.1558, 36171.01
299.6379, 36126.64
300.1200, 36108.13
300.6021, 36070.12
301.0843, 36003.65
301.5664, 35917.64
302.0485, 35811.03
302.5306, 35689.08
303.0127, 35576.84
303.4948, 35488.43
303.9770, 35418.22
304.4591, 35348.79
304.9412, 35263.66
305.4233, 35216.89
305.9054, 35190.01
306.3875, 35153.26
306.8697, 35107.16
307.3518, 35023.75
307.8339, 34988.53
308.3160, 34933.99
308.7981, 34878.66
309.2802, 34850.21
309.7624, 34772.22
310.2445, 34730.60
310.7266, 34711.50
311.2087, 34723.08
311.6908, 34747.70
312.1729, 34776.45
312.6551, 34811.52
313.1372, 34835.91
313.6193, 34825.57
314.1014, 34800.81
314.5835, 34793.09
315.0656, 34821.43
315.5478, 34864.56
316.0299, 34919.61
316.5120, 34990.82
316.9941, 35040.59
317.4762, 35027.01
317.9583, 34992.16
318.4405, 34985.45
318.9226, 35056.65
319.4047, 35127.04
319.8868, 35163.41
320.3689, 35161.04
320.8510, 35162.59
321.3332, 35174.62
321.8153, 35196.91
322.2974, 35229.28
322.7795, 35280.36
323.2616, 35332.80
323.7437, 35381.12
324.2259, 35425.04
324.7080, 35474.87
325.1901, 35553.20
325.6722, 35626.03
326.1543, 35668.11
326.6364, 35641.06
327.1186, 35625.76
327.6007, 35625.10
328.0828, 35639.92
328.5649, 35681.70
329.0470, 35784.56
329.5291, 35887.08
330.0113, 35953.03
330.4934, 35963.48
330.9755, 35967.04
331.4576, 35952.46
331.9397, 35930.98
332.4218, 35952.66
332.9040, 36034.69
333.3861, 36137.66
333.8682, 36250.00
334.3503, 36399.98
334.8324, 36481.77
335.3145, 36461.38
335.7967, 36385.07
336.2788, 36377.38
336.7609, 36458.94
337.2430, 36558.49
337.7251, 36645.55
338.2072, 36722.07
338.6894, 36779.25
339.1715, 36811.75
339.6536, 36832.80
340.1357, 36866.85
340.6178, 36916.91
341.0999, 36963.25
341.5821, 36998.50
342.0642, 37022.41
342.5463, 37039.14
343.0284, 37046.40
343.5105, 37053.07
343.9926, 37071.74
344.4748, 37101.78
344.9569, 37133.55
345.4390, 37173.61
345.9211, 37211.73
346.4032, 37197.77
346.8853, 37126.73
347.3675, 37063.91
347.8496, 37091.38
348.3317, 37186.47
348.8138, 37266.73
349.2959, 37300.97
349.7780, 37309.80
350.2602, 37328.31
350.7423, 37355.35
351.2244, 37376.35
351.7065, 37357.39
352.1887, 37327.86
352.6708, 37344.15
353.1529, 37435.68
353.6350, 37554.50
354.1171, 37668.80
354.5992, 37775.29
355.0814, 37856.52
355.5635, 37877.59
356.0456, 37879.61
356.5277, 37907.26
357.0098, 37977.60
357.4919, 38051.86
357.9741, 38100.92
358.4562, 38136.05
358.9383, 38181.70
359.4204, 38236.98
359.9025, 38314.15
360.3846, 38428.13
360.8668, 38589.69
361.3489, 38747.57
361.8310, 38889.90
362.3131, 39013.73
362.7952, 39114.51
363.2773, 39153.81
363.7595, 39202.59
364.2416, 39283.31
364.7237, 39398.23
365.2058, 39536.47
365.6879, 39708.58
366.1700, 39896.12
366.6522, 40082.41
367.1343, 40259.27
367.6164, 40442.16
368.0985, 40642.11
368.5806, 40857.15
369.0627, 41052.10
369.5449, 41205.47
370.0270, 41356.83
370.5091, 41536.49
370.9912, 41783.38
371.4733, 41988.96
371.9554, 42138.54
372.4376, 42242.16
372.9197, 42330.40
373.4018, 42399.28
373.8839, 42458.65
374.3660, 42527.71
374.8481, 42628.92
375.3303, 42629.59
375.8124, 42499.27
376.2945, 42300.23
376.7766, 42139.69
377.2587, 42025.06
377.7408, 41911.57
378.2230, 41774.25
378.7051, 41617.49
379.1872, 41485.25
379.6693, 41381.83
380.1514, 41290.57
380.6335, 41199.24
381.1157, 41106.16
381.5978, 41002.27
382.0799, 40880.27
382.5620, 40747.57
383.0441, 40614.60
383.5262, 40480.47
384.0084, 40365.45
384.4905, 40294.68
384.9726, 40254.23
385.4547, 40210.71
385.9368, 40149.78
386.4189, 40091.64
386.9011, 40066.78
387.3832, 40067.14
387.8653, 40061.59
388.3474, 40021.18
388.8295, 39969.73
389.3116, 39929.60
389.7938, 39901.74
390.2759, 39895.51
390.7580, 39938.82
391.2401, 40006.25
391.7222, 40051.25
392.2043, 40043.13
392.6865, 40016.71
393.1686, 39976.76
393.6507, 39918.64
394.1328, 39900.18
394.6149, 39971.34
395.0970, 40078.10
395.5792, 40166.81
396.0613, 40229.29
396.5434, 40269.89
397.0255, 40271.03
397.5076, 40235.98
397.9897, 40240.38
398.4719, 40326.31
398.9540, 40426.90
399.4361, 40505.55
399.9182, 40540.63
400.4003, 40586.97
400.8824, 40655.40
401.3646, 40735.69
401.8467, 40796.06
402.3288, 40831.30
402.8109, 40855.36
403.2930, 40867.27
403.7751, 40858.34
404.2573, 40885.37
404.7394, 40959.89
405.2215, 41054.71
405.7036, 41142.62
406.1857, 41229.94
406.6678, 41258.46
407.1500, 41181.48
407.6321, 41025.44
408.1142, 40944.39
408.5963, 40944.51
409.0784, 40981.84
409.5605, 41038.23
410.0427, 41104.16
410.5248, 41124.01
411.0069, 41064.66
411.4890, 40981.91
411.9711, 40971.89
412.4532, 41026.42
412.9354, 41095.11
413.4175, 41157.45
413.8996, 41207.80
414.3817, 41236.10
414.8638, 41239.21
415.3459, 41225.83
415.8281, 41181.75
416.3102, 41127.36
416.7923, 41102.18
417.2744, 41154.89
417.7565, 41220.75
418.2386, 41255.57
418.7208, 41256.43
419.2029, 41255.85
419.6850, 41259.46
420.1671, 41272.05
420.6492, 41298.15
421.1313, 41358.92
421.6135, 41411.66
422.0956, 41432.57
422.5777, 41431.36
423.0598, 41462.57
423.5420, 41583.57
424.0241, 41697.84
424.5062, 41758.52
424.9883, 41711.88
425.4704, 41709.38
425.9525, 41771.06
426.4347, 41868.42
426.9168, 41952.95
427.3989, 42025.44
427.8810, 42084.83
428.3631, 42127.84
428.8452, 42153.64
429.3274, 42182.00
429.8095, 42210.14
430.2916, 42245.91
430.7737, 42303.35
431.2558, 42384.17
431.7379, 42449.34
432.2201, 42481.10
432.7022, 42499.11
433.1843, 42561.02
433.6664, 42666.35
434.1485, 42776.63
434.6306, 42864.82
435.1128, 42937.45
435.5949, 43011.66
436.0770, 43088.43
436.5591, 43169.99
437.0412, 43262.19
437.5233, 43360.20
438.0055, 43450.84
438.4876, 43524.31
438.9697, 43590.02
439.4518, 43650.87
439.9339, 43707.73
440.4160, 43775.78
440.8982, 43861.80
441.3803, 43964.32
441.8624, 44083.94
442.3445, 44246.84
442.8266, 44395.78
443.3087, 44504.14
443.7909, 44581.73
444.2730, 44658.91
444.7551, 44764.11
445.2372, 44853.73
445.7193, 44911.39
446.2014, 44937.61
446.6836, 44925.89
447.1657, 44846.79
447.6478, 44744.05
448.1299, 44672.01
448.6120, 44639.77
449.0941, 44626.34
449.5763, 44644.02
450.0584, 44687.65
450.5405, 44657.64
451.0226, 44524.07
451.5047, 44381.95
451.9868, 44303.55
452.4690, 44293.69
452.9511, 44294.91
453.4332, 44305.82
453.9153, 44317.58
454.3974, 44306.21
454.8795, 44272.88
455.3617, 44249.99
455.8438, 44264.16
456.3259, 44300.24
456.8080, 44318.90
457.2901, 44318.35
457.7722, 44309.50
458.2544, 44285.27
458.7365, 44261.71
459.2186, 44272.46
459.7007, 44362.64
460.1828, 44454.29
460.6649, 44464.70
461.1471, 44414.27
461.6292, 44386.85
462.1113, 44450.28
462.5934, 44534.51
463.0755, 44585.00
463.5576, 44575.28
464.0398, 44586.36
464.5219, 44667.06
465.0040, 44776.14
465.4861, 44855.19
465.9682, 44838.86
466.4503, 44850.55
466.9325, 44935.45
467.4146, 45093.48
467.8967, 45211.65
468.3788, 45273.93
468.8609, 45313.62
469.3430, 45348.47
469.8252, 45371.30
470.3073, 45409.72
470.7894, 45465.09
471.2715, 45537.38
471.7536, 45627.50
472.2357, 45736.17
472.7179, 45858.19
473.2000, 45993.89
473.6821, 46141.87
474.1642, 46295.28
474.6463, 46454.99
475.1284, 46613.37
475.6106, 46755.82
476.0927, 46890.31
476.5748, 47037.88
477.0569, 47202.52
477.5390, 47386.66
478.0211, 47604.09
478.5033, 47846.68
478.9854, 48085.61
479.4675, 48284.96
479.9496, 48482.67
480.4317, 48710.91
480.9138, 48973.41
481.3960, 49254.04
481.8781, 49564.71
482.3602, 49883.52
482.8423, 50181.00
483.3244, 50420.72
483.8065, 50672.76
484.2887, 50953.73
484.7708, 51261.85
485.2529, 51586.70
485.7350, 51944.04
486.2171, 52303.97
486.6992, 52657.03
487.1814, 53006.60
487.6635, 53330.43
488.1456, 53624.07
488.6277, 53897.20
489.1098, 54164.73
489.5919, 54429.80
490.0741, 54687.93
490.5562, 54955.39
491.0383, 55215.77
491.5204, 55383.64
492.0026, 55457.15
492.4847, 55478.12
492.9668, 55490.35
493.4489, 55478.02
493.9310, 55387.52
494.4131, 55205.58
494.8953, 54965.42
495.3774, 54690.56
495.8595, 54385.23
496.3416, 54073.14
496.8237, 53760.02
497.3058, 53441.70
497.7880, 53110.39
498.2701, 52768.82
498.7522, 52416.67
499.2343, 52020.38
499.7164, 51638.18
500.1985, 51311.15
500.6807, 51093.54
501.1628, 50872.98
501.6449, 50609.05
502.1270, 50331.04
502.6091, 50099.51
503.0912, 49933.97
503.5734, 49790.10
504.0555, 49670.44
504.5376, 49579.55
505.0197, 49421.41
505.5018, 49155.62
505.9839, 48895.17
506.4661, 48747.59
506.9482, 48725.68
507.4303, 48680.36
507.9124, 48588.66
508.3945, 48472.25
508.8766, 48367.56
509.3588, 48274.38
509.8409, 48196.32
510.3230, 48139.30
510.8051, 48097.27
511.2872, 48063.71
511.7693, 48038.30
512.2515, 48009.53
512.7336, 47954.71
513.2157, 47895.63
513.6978, 47862.29
514.1799, 47875.14
514.6620, 47892.81
515.1442, 47893.50
515.6263, 47882.41
516.1084, 47870.99
516.5905, 47879.11
517.0726, 47872.51
517.5547, 47834.41
518.0369, 47760.36
518.5190, 47683.27
519.0011, 47573.27
519.4832, 47485.52
519.9653, 47466.30
520.4474, 47565.48
520.9296, 47615.82
521.4117, 47586.23
521.8938, 47516.76
522.3759, 47495.78
522.8580, 47527.97
523.3401, 47583.98
523.8223, 47671.35
524.3044, 47775.27
524.7865, 47809.31
525.2686, 47768.68
525.7507, 47731.86
526.2328, 47793.74
526.7150, 47909.74
527.1971, 47979.00
527.6792, 47972.91
528.1613, 47933.84
528.6434, 47876.48
529.1255, 47816.23
529.6077, 47784.84
530.0898, 47809.66
530.5719, 47856.37
531.0540, 47920.48
531.5361, 48000.43
532.0182, 48049.32
532.5004, 48029.35
532.9825, 47991.07
533.4646, 47966.12
533.9467, 47940.73
534.4288, 47953.71
534.9109, 48026.02
535.3931, 48127.18
535.8752, 48207.90
536.3573, 48271.43
536.8394, 48302.57
537.3215, 48280.06
537.8036, 48218.74
538.2858, 48229.65
538.7679, 48323.65
539.2500, 48415.31
539.7321, 48426.50
540.2142, 48378.40
540.6964, 48352.48
541.1785, 48359.32
541.6606, 48383.46
542.1427, 48412.18
542.6248, 48445.09
543.1069, 48481.32
543.5891, 48532.88
544.0712, 48577.45
544.5533, 48592.00
545.0354, 48582.65
545.5175, 48581.35
545.9996, 48606.67
546.4818, 48639.23
546.9639, 48665.52
547.4460, 48673.96
547.9281, 48704.34
548.4102, 48796.34
548.8923, 48891.08
549.3745, 48921.19
549.8566, 48836.75
550.3387, 48792.43
550.8208, 48815.37
551.3029, 48893.31
551.7850, 49000.19
552.2672, 49148.26
552.7493, 49254.48
553.2314, 49240.22
553.7135, 49135.79
554.1956, 49110.64
554.6777, 49171.34
555.1599, 49260.55
555.6420, 49333.92
556.1241, 49393.28
556.6062, 49439.27
557.0883, 49463.02
557.5704, 49489.42
558.0526, 49544.63
558.5347, 49617.02
559.0168, 49681.41
559.4989, 49723.29
559.9810, 49757.07
560.4631, 49777.99
560.9453, 49784.57
561.4274, 49825.21
561.9095, 49946.36
562.3916, 50072.95
562.8737, 50160.26
563.3558, 50173.33
563.8380, 50226.77
564.3201, 50350.60
564.8022, 50486.13
565.2843, 50524.27
565.7664, 50446.71
566.2485, 50416.67
566.7307, 50510.41
567.2128, 50667.39
567.6949, 50700.05
568.1770, 50615.71
568.6591, 50530.30
569.1412, 50510.39
569.6234, 50542.55
570.1055, 50617.14
570.5876, 50737.74
571.0697, 50856.80
571.5518, 50928.88
572.0339, 50985.24
572.5161, 51061.31
572.9982, 51203.37
573.4803, 51325.94
573.9624, 51397.88
574.4445, 51431.48
574.9266, 51458.05
575.4088, 51468.42
575.8909, 51485.89
576.3730, 51507.68
576.8551, 51531.68
577.3372, 51619.53
577.8193, 51795.13
578.3015, 51983.20
578.7836, 52138.52
579.2657, 52259.13
579.7478, 52314.16
580.2299, 52280.37
580.7120, 52241.24
581.1942, 52325.47
581.6763, 52508.48
582.1584, 52701.86
582.6405, 52869.52
583.1226, 53030.58
583.6047, 53212.86
584.0869, 53407.18
584.5690, 53574.19
585.0511, 53633.96
585.5332, 53704.66
586.0153, 53883.92
586.4974, 54216.98
586.9796, 54482.23
587.4617, 54589.89
587.9438, 54643.58
588.4259, 54731.54
588.9080, 54887.82
589.3901, 55017.46
589.8723, 55120.50
590.3544, 55188.12
590.8365, 55193.52
591.3186, 55131.48
591.8007, 55046.50
592.2828, 54966.23
592.7650, 54871.86
593.2471, 54666.88
593.7292, 54354.49
594.2113, 54078.72
594.6934, 53995.03
595.1755, 53993.82
595.6577, 53901.00
596.1398, 53682.06
596.6219, 53456.31
597.1040, 53295.05
597.5862, 53174.01
598.0683, 53061.92
598.5504, 52930.62
599.0325, 52830.91
599.5146, 52798.03
599.9968, 52807.62
600.4789, 52784.65
600.9610, 52685.37
601.4431, 52617.88
601.9252, 52628.19
602.4073, 52712.01
602.8895, 52745.79
603.3716, 52716.49
603.8537, 52682.88
604.3358, 52701.96
604.8179, 52761.56
605.3000, 52783.21
605.7822, 52757.36
606.2643, 52702.96
606.7464, 52607.65
607.2285, 52502.23
607.7106, 52448.77
608.1927, 52493.43
608.6749, 52567.15
609.1570, 52638.25
609.6391, 52703.68
610.1212, 52751.99
610.6033, 52767.59
611.0854, 52777.28
611.5676, 52791.59
612.0497, 52811.92
612.5318, 52826.44
613.0139, 52831.87
613.4960, 52835.53
613.9781, 52837.86
614.4603, 52834.04
614.9424, 52862.76
615.4245, 52938.36
615.9066, 53015.07
616.3887, 53013.25
616.8708, 52947.88
617.3530, 52924.15
617.8351, 52991.98
618.3172, 53082.81
618.7993, 53094.37
619.2814, 53053.02
619.7635, 53041.20
620.2457, 53150.15
620.7278, 53262.96
621.2099, 53290.63
621.6920, 53231.35
622.1741, 53193.85
622.6563, 53225.28
623.1384, 53272.74
623.6205, 53302.56
624.1026, 53291.84
624.5847, 53327.95
625.0668, 53448.09
625.5490, 53571.81
626.0311, 53585.00
626.5132, 53472.77
626.9953, 53409.77
627.4774, 53439.61
627.9595, 53516.97
628.4417, 53562.82
628.9238, 53580.85
629.4059, 53590.13
629.8880, 53579.05
630.3701, 53577.48
630.8522, 53639.33
631.3344, 53752.70
631.8165, 53833.53
632.2986, 53784.82
632.7807, 53729.41
633.2628, 53757.64
633.7449, 53912.67
634.2271, 54030.21
634.7092, 54080.56
635.1913, 54098.18
635.6734, 54108.67
636.1555, 54109.36
636.6376, 54108.62
637.1198, 54102.79
637.6019, 54101.41
638.0840, 54124.67
638.5661, 54171.86
639.0482, 54221.10
639.5303, 54259.05
640.0125, 54298.97
640.4946, 54375.57
640.9767, 54478.81
641.4588, 54563.82
641.9409, 54570.19
642.4230, 54570.40
642.9052, 54636.15
643.3873, 54777.20
643.8694, 54885.06
644.3515, 54907.88
644.8336, 54898.24
645.3157, 54886.80
645.7979, 54833.03
646.2800, 54868.94
646.7621, 55034.80
647.2442, 55249.14
647.7263, 55407.06
648.2084, 55506.61
648.6906, 55573.71
649.1727, 55605.41
649.6548, 55618.87
650.1369, 55636.04
650.6190, 55659.85
651.1011, 55705.52
651.5833, 55795.99
652.0654, 55901.66
652.5475, 56009.95
653.0296, 56114.14
653.5117, 56172.53
653.9938, 56103.23
654.4760, 56031.17
654.9581, 56042.37
655.4402, 56178.70
655.9223, 56261.13
656.4044, 56251.15
