##NAMES=Minyulite
##RRUFFID=R100072
##IDEAL CHEMISTRY=KAl_2_(PO_4_)_2_F&#183;4H_2_O
##LOCALITY=Tom's quarry, Kapunda, South Australia, Australia
##OWNER=RRUFF
##SOURCE=Marcus Origlieri
##DESCRIPTION=Parallel aggregates of tabular colorless crystals associated with sprays of white, thin platy aldermanite, R100073, and colorless needle wavellite.
##STATUS=The identification of this mineral has been confirmed by single-crystal X-ray diffraction.
##URL=rruff.info/R100072
90.01007, 0.0000000E+00
90.49219, 99.36488
90.97430, 99.23386
91.45642, 99.19060
91.93854, 99.00240
92.42065, 98.97316
92.90277, 99.77103
93.38489, 101.6222
93.86700, 103.4894
94.34912, 103.8651
94.83124, 102.9792
95.31335, 102.1384
95.79547, 102.1927
96.27759, 102.9704
96.75970, 103.7833
97.24182, 104.5503
97.72394, 105.2863
98.20605, 106.1646
98.68817, 107.2431
99.17029, 108.0045
99.65240, 107.7691
100.1345, 106.4333
100.6166, 105.6957
101.0988, 106.1541
101.5809, 107.5884
102.0630, 107.9549
102.5451, 106.7618
103.0272, 105.3805
103.5093, 105.4782
103.9915, 107.6760
104.4736, 109.7495
104.9557, 111.1058
105.4378, 111.6519
105.9199, 111.9562
106.4020, 111.7803
106.8842, 111.4798
107.3663, 111.7048
107.8484, 112.9135
108.3305, 114.1153
108.8126, 114.9512
109.2947, 115.0990
109.7769, 115.4174
110.2590, 116.0306
110.7411, 116.8387
111.2232, 117.5140
111.7053, 117.7320
112.1874, 118.0409
112.6696, 118.6850
113.1517, 120.1542
113.6338, 121.4574
114.1159, 122.4314
114.5980, 123.1012
115.0801, 123.6866
115.5623, 124.2074
116.0444, 124.6711
116.5265, 125.0816
117.0086, 125.4051
117.4907, 125.7113
117.9728, 126.0059
118.4550, 126.2879
118.9371, 126.6328
119.4192, 126.9827
119.9013, 127.4359
120.3834, 128.1138
120.8655, 128.9443
121.3477, 130.1000
121.8298, 131.9940
122.3119, 134.8854
122.7940, 137.2689
123.2761, 137.4102
123.7582, 136.1835
124.2404, 135.5355
124.7225, 136.4914
125.2046, 138.6163
125.6867, 141.4261
126.1688, 144.9542
126.6509, 148.9297
127.1331, 153.0331
127.6152, 157.3083
128.0973, 161.9716
128.5794, 166.7773
129.0615, 172.0698
129.5436, 178.6127
130.0258, 186.4711
130.5079, 195.7749
130.9900, 206.9939
131.4721, 220.0310
131.9542, 234.6869
132.4363, 250.3704
132.9185, 267.2765
133.4006, 286.7240
133.8827, 309.1756
134.3648, 334.2672
134.8469, 361.9130
135.3290, 391.8591
135.8112, 425.6365
136.2933, 464.2558
136.7754, 507.8468
137.2575, 556.5435
137.7396, 610.8796
138.2217, 669.9079
138.7039, 734.3301
139.1860, 804.9286
139.6681, 879.8888
140.1502, 958.8057
140.6323, 1041.946
141.1144, 1125.542
141.5966, 1208.147
142.0787, 1288.770
142.5608, 1371.024
143.0429, 1455.135
143.5250, 1540.540
144.0071, 1624.956
144.4893, 1705.161
144.9714, 1788.440
145.4535, 1876.895
145.9356, 1972.214
146.4177, 2071.162
146.8998, 2173.780
147.3820, 2280.203
147.8641, 2395.481
148.3462, 2517.150
148.8283, 2648.504
149.3104, 2792.927
149.7925, 2953.130
150.2747, 3122.058
150.7568, 3297.383
151.2389, 3479.055
151.7210, 3667.792
152.2031, 3868.618
152.6852, 4071.450
153.1674, 4272.292
153.6495, 4475.018
154.1316, 4669.655
154.6137, 4857.506
155.0958, 5038.690
155.5779, 5202.982
156.0601, 5348.712
156.5422, 5477.678
157.0243, 5589.588
157.5064, 5683.341
157.9885, 5761.126
158.4706, 5819.817
158.9528, 5857.549
159.4349, 5892.675
159.9170, 5924.847
160.3991, 5958.382
160.8812, 5998.267
161.3633, 6042.354
161.8455, 6095.964
162.3276, 6160.414
162.8097, 6233.983
163.2918, 6323.334
163.7739, 6431.747
164.2560, 6517.251
164.7382, 6633.047
165.2203, 6714.974
165.7024, 6808.110
166.1845, 6913.161
166.6666, 7033.736
167.1487, 7155.244
167.6309, 7272.859
168.1130, 7387.230
168.5951, 7497.500
169.0772, 7605.961
169.5593, 7710.227
170.0414, 7809.170
170.5236, 7904.904
171.0057, 7991.036
171.4878, 8065.292
171.9699, 8127.914
172.4520, 8177.822
172.9341, 8213.220
173.4163, 8236.983
173.8984, 8252.288
174.3805, 8259.650
174.8626, 8259.159
175.3447, 8247.666
175.8268, 8227.020
176.3090, 8205.921
176.7911, 8190.018
177.2732, 8177.603
177.7553, 8166.329
178.2374, 8156.302
178.7195, 8146.125
179.2017, 8132.038
179.6838, 8114.545
180.1659, 8100.303
180.6480, 8092.442
181.1301, 8091.453
181.6122, 8098.826
182.0944, 8117.686
182.5765, 8143.011
183.0586, 8167.719
183.5407, 8191.402
184.0228, 8214.540
184.5049, 8238.169
184.9871, 8261.685
185.4692, 8281.766
185.9513, 8295.932
186.4334, 8306.671
186.9155, 8320.475
187.3976, 8337.477
187.8798, 8355.258
188.3619, 8372.964
188.8440, 8390.193
189.3261, 8402.993
189.8082, 8409.157
190.2903, 8410.002
190.7725, 8410.001
191.2546, 8409.063
191.7367, 8407.729
192.2188, 8406.979
192.7009, 8406.702
193.1830, 8405.147
193.6652, 8401.765
194.1473, 8396.539
194.6294, 8389.040
195.1115, 8378.679
195.5936, 8367.973
196.0757, 8359.895
196.5579, 8354.445
197.0400, 8351.266
197.5221, 8350.979
198.0042, 8353.377
198.4863, 8355.286
198.9684, 8356.856
199.4506, 8357.714
199.9327, 8355.892
200.4148, 8350.689
200.8969, 8348.938
201.3790, 8355.015
201.8611, 8369.228
202.3433, 8379.296
202.8254, 8383.297
203.3075, 8385.979
203.7896, 8395.968
204.2717, 8414.382
204.7538, 8433.755
205.2360, 8450.460
205.7181, 8463.889
206.2002, 8479.460
206.6823, 8497.354
207.1644, 8517.063
207.6465, 8539.500
208.1287, 8566.824
208.6108, 8588.901
209.0929, 8599.819
209.5750, 8597.324
210.0571, 8596.995
210.5392, 8599.931
211.0214, 8604.499
211.5035, 8607.118
211.9856, 8607.384
212.4677, 8607.297
212.9498, 8607.653
213.4319, 8608.419
213.9140, 8610.352
214.3962, 8614.679
214.8783, 8619.309
215.3604, 8618.381
215.8425, 8608.631
216.3246, 8600.256
216.8067, 8598.782
217.2889, 8607.261
217.7710, 8610.943
218.2531, 8606.632
218.7352, 8598.660
219.2173, 8598.354
219.6994, 8609.653
220.1816, 8620.833
220.6637, 8625.816
221.1458, 8620.619
221.6279, 8621.220
222.1100, 8630.347
222.5921, 8644.584
223.0743, 8655.168
223.5564, 8661.042
224.0385, 8665.488
224.5206, 8670.176
225.0027, 8676.292
225.4848, 8679.449
225.9670, 8675.720
226.4491, 8670.360
226.9312, 8678.877
227.4133, 8710.256
227.8954, 8740.858
228.3775, 8757.729
228.8597, 8752.045
229.3418, 8754.887
229.8239, 8769.965
230.3060, 8792.483
230.7881, 8808.798
231.2702, 8815.963
231.7524, 8821.056
232.2345, 8827.134
232.7166, 8835.146
233.1987, 8841.746
233.6808, 8846.873
234.1629, 8850.581
234.6451, 8852.830
235.1272, 8852.466
235.6093, 8852.746
236.0914, 8855.498
236.5735, 8862.734
237.0556, 8868.378
237.5378, 8870.894
238.0199, 8872.651
238.5020, 8879.698
238.9841, 8895.000
239.4662, 8911.676
239.9483, 8926.790
240.4305, 8938.833
240.9126, 8952.568
241.3947, 8969.108
241.8768, 8986.804
242.3589, 9001.948
242.8410, 9014.938
243.3232, 9024.354
243.8053, 9029.316
244.2874, 9029.011
244.7695, 9025.762
245.2516, 9018.866
245.7337, 9009.267
246.2159, 8999.181
246.6980, 8989.395
247.1801, 8977.990
247.6622, 8963.417
248.1443, 8942.933
248.6264, 8927.307
249.1086, 8917.657
249.5907, 8912.318
250.0728, 8907.780
250.5549, 8903.505
251.0370, 8900.918
251.5191, 8901.069
252.0013, 8905.408
252.4834, 8906.947
252.9655, 8903.753
253.4476, 8898.675
253.9297, 8897.454
254.4118, 8902.344
254.8940, 8906.604
255.3761, 8907.719
255.8582, 8904.942
256.3403, 8901.919
256.8224, 8898.822
257.3046, 8895.443
257.7867, 8891.379
258.2688, 8886.232
258.7509, 8881.518
259.2330, 8877.915
259.7151, 8875.675
260.1973, 8873.856
260.6794, 8872.623
261.1615, 8871.962
261.6436, 8871.626
262.1257, 8871.082
262.6078, 8872.105
263.0900, 8874.571
263.5721, 8878.089
264.0542, 8887.476
264.5363, 8905.994
265.0184, 8926.329
265.5005, 8938.942
265.9827, 8940.923
266.4648, 8942.958
266.9469, 8948.074
267.4290, 8956.250
267.9111, 8963.771
268.3932, 8970.978
268.8754, 8976.780
269.3575, 8979.245
269.8396, 8977.149
270.3217, 8976.638
270.8038, 8980.356
271.2859, 8987.966
271.7681, 8990.034
272.2502, 8984.030
272.7323, 8977.872
273.2144, 8980.748
273.6965, 8994.507
274.1786, 9007.156
274.6608, 9015.318
275.1429, 9020.042
275.6250, 9030.527
276.1071, 9049.098
276.5892, 9066.847
277.0714, 9073.647
277.5535, 9068.108
278.0356, 9065.101
278.5177, 9066.906
278.9998, 9073.511
279.4819, 9086.451
279.9641, 9107.522
280.4462, 9128.356
280.9283, 9141.512
281.4104, 9146.667
281.8925, 9152.937
282.3746, 9161.839
282.8568, 9172.659
283.3389, 9182.329
283.8210, 9190.223
284.3031, 9201.290
284.7852, 9220.853
285.2673, 9248.079
285.7495, 9272.269
286.2316, 9290.532
286.7137, 9306.967
287.1958, 9332.041
287.6779, 9365.964
288.1600, 9398.206
288.6422, 9421.790
289.1243, 9437.651
289.6064, 9451.325
290.0885, 9463.187
290.5706, 9473.796
291.0527, 9484.122
291.5349, 9494.206
292.0170, 9503.583
292.4991, 9511.630
292.9812, 9518.855
293.4633, 9526.904
293.9454, 9536.313
294.4276, 9545.334
294.9097, 9550.889
295.3918, 9553.613
295.8739, 9556.651
296.3560, 9562.047
296.8381, 9568.697
297.3203, 9574.198
297.8024, 9578.454
298.2845, 9581.099
298.7666, 9582.489
299.2487, 9582.018
299.7308, 9577.949
300.2130, 9567.147
300.6951, 9553.193
301.1772, 9542.420
301.6593, 9534.921
302.1414, 9527.029
302.6235, 9514.730
303.1057, 9499.938
303.5878, 9486.802
304.0699, 9478.061
304.5520, 9470.561
305.0341, 9461.246
305.5162, 9450.153
305.9984, 9436.851
306.4805, 9416.384
306.9626, 9394.728
307.4447, 9380.955
307.9268, 9380.018
308.4089, 9383.823
308.8911, 9387.459
309.3732, 9390.346
309.8553, 9390.365
310.3374, 9383.186
310.8195, 9373.832
311.3016, 9367.385
311.7838, 9365.287
312.2659, 9365.484
312.7480, 9367.959
313.2301, 9371.978
313.7122, 9375.631
314.1943, 9376.350
314.6765, 9377.701
315.1586, 9383.185
315.6407, 9394.990
316.1228, 9405.128
316.6049, 9407.439
317.0870, 9405.840
317.5692, 9406.715
318.0513, 9415.532
318.5334, 9424.564
319.0155, 9429.186
319.4976, 9428.153
319.9797, 9428.290
320.4619, 9431.853
320.9440, 9437.520
321.4261, 9443.780
321.9082, 9452.261
322.3903, 9459.230
322.8724, 9463.449
323.3546, 9464.878
323.8367, 9465.004
324.3188, 9459.506
324.8009, 9455.550
325.2830, 9458.677
325.7651, 9478.395
326.2473, 9495.823
326.7294, 9509.232
327.2115, 9518.694
327.6936, 9524.096
328.1757, 9519.913
328.6578, 9515.819
329.1400, 9516.593
329.6221, 9524.943
330.1042, 9534.499
330.5863, 9547.611
331.0684, 9561.871
331.5505, 9569.699
332.0327, 9563.896
332.5148, 9559.895
332.9969, 9564.916
333.4790, 9584.908
333.9611, 9596.246
334.4432, 9593.846
334.9254, 9585.593
335.4075, 9585.473
335.8896, 9597.593
336.3717, 9609.610
336.8538, 9617.271
337.3359, 9620.111
337.8180, 9624.994
338.3001, 9631.889
338.7823, 9641.049
339.2644, 9654.756
339.7465, 9675.976
340.2286, 9688.976
340.7107, 9687.725
341.1928, 9674.497
341.6750, 9665.064
342.1571, 9659.265
342.6392, 9656.953
343.1213, 9659.815
343.6034, 9667.875
344.0855, 9671.917
344.5677, 9669.325
345.0498, 9662.768
345.5319, 9658.104
346.0140, 9655.317
346.4961, 9655.001
346.9782, 9660.591
347.4604, 9670.066
347.9425, 9671.470
348.4246, 9661.787
348.9067, 9650.140
349.3888, 9650.577
349.8709, 9661.471
350.3531, 9673.301
350.8352, 9682.488
351.3173, 9689.192
351.7994, 9692.932
352.2815, 9693.464
352.7636, 9693.823
353.2458, 9696.062
353.7279, 9700.264
354.2100, 9706.640
354.6921, 9715.358
355.1742, 9726.016
355.6563, 9739.254
356.1385, 9754.684
356.6206, 9769.494
357.1027, 9780.996
357.5848, 9790.959
358.0669, 9801.768
358.5490, 9815.000
359.0312, 9827.585
359.5133, 9837.087
359.9954, 9844.228
360.4775, 9851.516
360.9596, 9859.417
361.4417, 9868.254
361.9239, 9878.736
362.4060, 9891.896
362.8881, 9903.831
363.3702, 9912.946
363.8523, 9919.921
364.3344, 9925.816
364.8166, 9928.899
365.2987, 9932.868
365.7808, 9938.956
366.2629, 9947.368
366.7450, 9957.634
367.2271, 9971.243
367.7093, 9986.103
368.1914, 10000.38
368.6735, 10013.04
369.1556, 10026.40
369.6377, 10040.54
370.1198, 10055.57
370.6020, 10071.44
371.0841, 10088.89
371.5662, 10106.56
372.0483, 10123.68
372.5304, 10141.23
373.0125, 10156.78
373.4947, 10171.16
373.9768, 10183.03
374.4589, 10189.23
374.9410, 10189.03
375.4231, 10184.53
375.9052, 10175.57
376.3874, 10161.37
376.8695, 10149.09
377.3516, 10139.59
377.8337, 10130.44
378.3158, 10117.41
378.7979, 10099.66
379.2801, 10084.26
379.7622, 10074.04
380.2443, 10067.50
380.7264, 10056.28
381.2085, 10039.58
381.6906, 10023.85
382.1728, 10014.99
382.6549, 10012.08
383.1370, 10010.17
383.6191, 10008.70
384.1012, 10007.17
384.5833, 10005.02
385.0655, 10002.15
385.5476, 9998.051
386.0297, 9991.083
386.5118, 9982.980
386.9939, 9975.928
387.4760, 9969.811
387.9582, 9967.318
388.4403, 9975.694
388.9224, 9989.480
389.4045, 9997.323
389.8866, 9989.349
390.3687, 9977.112
390.8509, 9969.575
391.3330, 9966.644
391.8151, 9966.274
392.2972, 9970.902
392.7793, 9975.801
393.2614, 9975.932
393.7436, 9964.817
394.2257, 9956.127
394.7078, 9957.655
395.1899, 9966.278
395.6720, 9973.771
396.1541, 9976.344
396.6363, 9978.295
397.1184, 9981.612
397.6005, 9986.728
398.0826, 9992.761
398.5647, 9999.458
399.0468, 10007.12
399.5290, 10016.09
400.0111, 10029.37
400.4932, 10040.76
400.9753, 10047.98
401.4574, 10051.05
401.9395, 10057.15
402.4217, 10066.20
402.9038, 10078.21
403.3859, 10094.04
403.8680, 10117.28
404.3501, 10135.41
404.8322, 10146.36
405.3144, 10152.06
405.7965, 10157.82
406.2786, 10164.64
406.7607, 10168.28
407.2428, 10166.47
407.7249, 10159.06
408.2071, 10149.09
408.6892, 10135.55
409.1713, 10122.09
409.6534, 10112.62
410.1355, 10107.20
410.6176, 10106.00
411.0998, 10111.04
411.5819, 10119.09
412.0640, 10121.84
412.5461, 10119.45
413.0282, 10116.66
413.5103, 10117.47
413.9925, 10120.47
414.4746, 10122.53
414.9567, 10122.78
415.4388, 10123.15
415.9209, 10127.33
416.4030, 10133.37
416.8852, 10136.46
417.3673, 10130.38
417.8494, 10122.83
418.3315, 10121.27
418.8136, 10126.19
419.2957, 10129.85
419.7779, 10125.32
420.2600, 10118.43
420.7421, 10115.15
421.2242, 10123.58
421.7063, 10129.25
422.1884, 10124.28
422.6706, 10112.07
423.1527, 10105.27
423.6348, 10113.54
424.1169, 10122.64
424.5990, 10125.98
425.0811, 10120.58
425.5633, 10115.26
426.0454, 10108.43
426.5275, 10102.71
427.0096, 10101.50
427.4917, 10106.86
427.9738, 10113.66
428.4560, 10120.60
428.9381, 10127.81
429.4202, 10138.28
429.9023, 10153.92
430.3844, 10168.88
430.8665, 10178.52
431.3487, 10182.11
431.8308, 10183.88
432.3129, 10183.26
432.7950, 10182.00
433.2771, 10183.33
433.7592, 10187.12
434.2414, 10194.06
434.7235, 10206.36
435.2056, 10222.22
435.6877, 10234.48
436.1698, 10242.90
436.6519, 10249.44
437.1341, 10255.03
437.6162, 10260.09
438.0983, 10266.23
438.5804, 10275.07
439.0625, 10283.56
439.5446, 10285.44
440.0268, 10283.24
440.5089, 10285.99
440.9910, 10306.14
441.4731, 10329.53
441.9552, 10342.81
442.4373, 10342.82
442.9195, 10341.71
443.4016, 10345.55
443.8837, 10351.83
444.3658, 10357.50
444.8479, 10362.83
445.3300, 10366.29
445.8122, 10366.90
446.2943, 10364.91
446.7764, 10362.53
447.2585, 10359.19
447.7406, 10356.16
448.2227, 10354.53
448.7049, 10357.97
449.1870, 10355.48
449.6691, 10343.25
450.1512, 10326.99
450.6333, 10316.55
451.1154, 10315.52
451.5976, 10312.12
452.0797, 10301.84
452.5618, 10285.42
453.0439, 10275.11
453.5260, 10272.27
454.0081, 10271.89
454.4903, 10270.80
454.9724, 10268.99
455.4545, 10264.97
455.9366, 10257.44
456.4187, 10250.03
456.9008, 10250.51
457.3830, 10257.86
457.8651, 10264.06
458.3472, 10263.60
458.8293, 10260.09
459.3114, 10260.40
459.7935, 10264.57
460.2757, 10269.57
460.7578, 10273.31
461.2399, 10276.24
461.7220, 10278.94
462.2041, 10281.61
462.6862, 10283.91
463.1684, 10283.78
463.6505, 10283.01
464.1326, 10285.77
464.6147, 10299.28
465.0968, 10312.11
465.5789, 10317.50
466.0611, 10313.99
466.5432, 10310.41
467.0253, 10306.45
467.5074, 10304.11
467.9895, 10305.08
468.4716, 10313.66
468.9538, 10320.08
469.4359, 10322.68
469.9180, 10322.77
470.4001, 10324.55
470.8822, 10328.83
471.3643, 10333.74
471.8465, 10338.89
472.3286, 10344.56
472.8107, 10348.66
473.2928, 10350.42
473.7749, 10352.86
474.2570, 10360.28
474.7392, 10372.69
475.2213, 10383.20
475.7034, 10388.93
476.1855, 10393.62
476.6676, 10405.95
477.1497, 10425.28
477.6319, 10445.03
478.1140, 10462.16
478.5961, 10476.88
479.0782, 10489.18
479.5603, 10498.86
480.0424, 10507.56
480.5246, 10515.12
481.0067, 10522.88
481.4888, 10532.81
481.9709, 10547.65
482.4530, 10562.42
482.9352, 10573.68
483.4173, 10582.63
483.8994, 10592.99
484.3815, 10607.64
484.8636, 10622.71
485.3457, 10635.73
485.8279, 10645.29
486.3100, 10657.83
486.7921, 10678.47
487.2742, 10699.82
487.7563, 10715.17
488.2384, 10718.53
488.7206, 10726.56
489.2027, 10742.81
489.6848, 10764.84
490.1669, 10783.91
490.6490, 10799.43
491.1311, 10813.57
491.6133, 10828.24
492.0954, 10843.49
492.5775, 10852.14
493.0596, 10853.25
493.5417, 10851.74
494.0238, 10853.11
494.5060, 10856.63
494.9881, 10859.06
495.4702, 10860.09
495.9523, 10858.79
496.4344, 10852.59
496.9165, 10842.48
497.3987, 10832.24
497.8808, 10825.94
498.3629, 10819.15
498.8450, 10806.70
499.3271, 10787.79
499.8092, 10768.74
500.2914, 10752.29
500.7735, 10737.34
501.2556, 10722.34
501.7377, 10705.77
502.2198, 10690.60
502.7019, 10677.68
503.1841, 10666.53
503.6662, 10655.76
504.1483, 10648.78
504.6304, 10638.18
505.1125, 10619.84
505.5946, 10592.56
506.0768, 10574.35
506.5589, 10569.19
507.0410, 10567.70
507.5231, 10562.02
508.0052, 10551.28
508.4873, 10542.99
508.9695, 10538.77
509.4516, 10536.48
509.9337, 10531.79
510.4158, 10524.86
510.8979, 10518.67
511.3800, 10513.81
511.8622, 10510.64
512.3443, 10511.67
512.8264, 10516.50
513.3085, 10518.80
513.7906, 10508.81
514.2728, 10495.21
514.7549, 10491.09
515.2370, 10502.81
515.7191, 10512.33
516.2012, 10503.98
516.6833, 10487.13
517.1655, 10476.09
517.6476, 10482.15
518.1297, 10488.29
518.6118, 10489.24
519.0939, 10485.14
519.5760, 10478.69
520.0582, 10464.83
520.5403, 10453.42
521.0224, 10449.21
521.5045, 10454.90
521.9866, 10459.48
522.4688, 10461.72
522.9509, 10464.05
523.4330, 10469.96
523.9151, 10480.18
524.3972, 10489.92
524.8793, 10498.66
525.3615, 10505.64
525.8436, 10508.54
526.3257, 10507.38
526.8078, 10504.60
527.2899, 10501.30
527.7720, 10497.49
528.2542, 10493.01
528.7363, 10487.89
529.2184, 10483.15
529.7005, 10479.28
530.1826, 10476.56
530.6647, 10475.49
531.1469, 10476.85
531.6290, 10478.82
532.1111, 10480.19
532.5932, 10481.40
533.0753, 10483.37
533.5574, 10487.80
534.0396, 10491.53
534.5217, 10491.95
535.0038, 10488.53
535.4859, 10490.41
535.9680, 10504.35
536.4501, 10516.92
536.9323, 10519.37
537.4144, 10505.98
537.8965, 10498.85
538.3786, 10500.20
538.8607, 10505.54
539.3428, 10508.80
539.8250, 10510.08
540.3071, 10509.06
540.7892, 10504.87
541.2713, 10499.15
541.7534, 10495.42
542.2355, 10493.76
542.7177, 10494.43
543.1998, 10498.93
543.6819, 10505.42
544.1640, 10511.86
544.6461, 10518.23
545.1282, 10521.89
545.6104, 10517.62
546.0925, 10510.85
546.5746, 10507.62
547.0567, 10510.13
547.5388, 10515.49
548.0209, 10525.65
548.5031, 10537.76
548.9852, 10545.84
549.4673, 10545.40
549.9494, 10544.57
550.4315, 10545.59
550.9136, 10548.46
551.3958, 10549.84
551.8779, 10548.77
552.3600, 10547.93
552.8421, 10549.42
553.3242, 10553.61
553.8063, 10556.72
554.2885, 10558.62
554.7706, 10559.48
555.2527, 10558.52
555.7348, 10556.28
556.2169, 10556.27
556.6990, 10559.82
557.1812, 10565.74
557.6633, 10573.57
558.1454, 10582.67
558.6275, 10590.73
559.1096, 10595.36
559.5917, 10599.12
560.0739, 10604.08
560.5560, 10610.47
561.0381, 10616.88
561.5202, 10623.94
562.0023, 10630.03
562.4844, 10633.67
562.9666, 10629.77
563.4487, 10630.87
563.9308, 10639.69
564.4129, 10652.73
564.8950, 10664.85
565.3771, 10675.54
565.8593, 10685.87
566.3414, 10695.88
566.8235, 10705.54
567.3056, 10715.57
567.7877, 10726.03
568.2698, 10735.53
568.7520, 10743.32
569.2341, 10749.48
569.7162, 10754.33
570.1983, 10757.82
570.6804, 10761.19
571.1625, 10767.71
571.6447, 10774.43
572.1268, 10775.77
572.6089, 10767.64
573.0910, 10760.18
573.5731, 10763.53
574.0552, 10771.54
574.5374, 10773.53
575.0195, 10759.14
575.5016, 10745.33
575.9837, 10738.59
576.4658, 10738.51
576.9479, 10736.90
577.4301, 10732.13
577.9122, 10727.67
578.3943, 10724.65
578.8764, 10722.90
579.3585, 10723.68
579.8406, 10726.58
580.3228, 10732.87
580.8049, 10745.17
581.2870, 10763.01
581.7691, 10779.74
582.2512, 10794.02
582.7333, 10806.56
583.2155, 10816.58
583.6975, 10825.21
584.1796, 10836.81
584.6617, 10853.31
