##NAMES=Minyulite
##RRUFFID=R100072
##IDEAL CHEMISTRY=KAl_2_(PO_4_)_2_F&#183;4H_2_O
##LOCALITY=Tom's quarry, Kapunda, South Australia, Australia
##OWNER=RRUFF
##SOURCE=Marcus Origlieri
##DESCRIPTION=Parallel aggregates of tabular colorless crystals associated with sprays of white, thin platy aldermanite, R100073, and colorless needle wavellite.
##STATUS=The identification of this mineral has been confirmed by single-crystal X-ray diffraction.
##URL=rruff.info/R100072
91.53320, 16740.57
92.01532, 16334.89
92.49744, 16142.01
92.97955, 16509.16
93.46167, 17096.77
93.94379, 17483.11
94.42590, 17749.66
94.90802, 17942.04
95.39014, 18067.59
95.87225, 18123.78
96.35437, 18140.76
96.83649, 18140.98
97.31860, 18130.89
97.80072, 18111.27
98.28284, 18058.02
98.76495, 17964.01
99.24707, 17883.94
99.72919, 17830.20
100.2113, 17785.30
100.6934, 17741.49
101.1755, 17699.04
101.6577, 17661.11
102.1398, 17628.97
102.6219, 17599.51
103.1040, 17588.38
103.5861, 17598.75
104.0682, 17615.60
104.5504, 17630.90
105.0325, 17642.66
105.5146, 17652.70
105.9967, 17660.90
106.4788, 17664.20
106.9609, 17669.16
107.4431, 17675.19
107.9252, 17682.38
108.4073, 17691.11
108.8894, 17701.33
109.3715, 17712.13
109.8536, 17723.35
110.3358, 17736.46
110.8179, 17744.53
111.3000, 17741.22
111.7821, 17727.66
112.2642, 17715.04
112.7463, 17707.90
113.2285, 17703.70
113.7106, 17700.46
114.1927, 17698.47
114.6748, 17695.59
115.1569, 17687.40
115.6390, 17669.61
116.1212, 17657.27
116.6033, 17658.07
117.0854, 17664.17
117.5675, 17668.18
118.0496, 17666.48
118.5317, 17659.78
119.0139, 17651.69
119.4960, 17634.06
119.9781, 17623.96
120.4602, 17629.22
120.9423, 17643.94
121.4244, 17657.90
121.9066, 17663.05
122.3887, 17658.60
122.8708, 17655.88
123.3529, 17655.02
123.8350, 17655.22
124.3171, 17655.93
124.7993, 17657.20
125.2814, 17659.77
125.7635, 17664.83
126.2456, 17673.16
126.7277, 17679.12
127.2098, 17678.73
127.6920, 17677.51
128.1741, 17682.11
128.6562, 17694.43
129.1383, 17709.03
129.6204, 17719.92
130.1025, 17727.59
130.5847, 17732.16
131.0668, 17731.10
131.5489, 17726.36
132.0310, 17725.10
132.5131, 17730.67
132.9952, 17738.41
133.4774, 17745.21
133.9595, 17750.99
134.4416, 17754.32
134.9237, 17754.09
135.4058, 17750.39
135.8879, 17743.52
136.3701, 17726.63
136.8522, 17711.42
137.3343, 17706.67
137.8164, 17714.30
138.2985, 17727.10
138.7806, 17732.82
139.2628, 17728.28
139.7449, 17721.90
140.2270, 17709.03
140.7091, 17697.44
141.1912, 17695.16
141.6733, 17705.73
142.1555, 17725.32
142.6376, 17740.82
143.1197, 17747.37
143.6018, 17754.59
144.0839, 17764.70
144.5660, 17775.79
145.0482, 17784.43
145.5303, 17788.29
146.0124, 17788.13
146.4945, 17790.51
146.9766, 17798.49
147.4587, 17805.28
147.9409, 17806.79
148.4230, 17804.04
148.9051, 17801.71
149.3872, 17802.69
149.8693, 17807.22
150.3514, 17813.48
150.8336, 17822.29
151.3157, 17832.42
151.7978, 17843.96
152.2799, 17857.47
152.7620, 17868.84
153.2441, 17872.18
153.7263, 17871.31
154.2084, 17872.65
154.6905, 17878.93
155.1726, 17888.71
155.6547, 17898.84
156.1368, 17908.63
156.6190, 17920.10
157.1011, 17934.23
157.5832, 17950.48
158.0653, 17968.22
158.5474, 17988.28
159.0295, 18010.15
159.5117, 18027.85
159.9938, 18038.68
160.4759, 18047.40
160.9580, 18053.25
161.4401, 18057.96
161.9222, 18065.31
162.4044, 18079.54
162.8865, 18102.54
163.3686, 18121.54
163.8507, 18137.26
164.3328, 18148.87
164.8149, 18154.35
165.2971, 18154.55
165.7792, 18152.73
166.2613, 18152.95
166.7434, 18157.21
167.2255, 18157.45
167.7076, 18155.53
168.1898, 18149.27
168.6719, 18134.79
169.1540, 18112.06
169.6361, 18087.67
170.1182, 18070.90
170.6003, 18064.90
171.0825, 18059.92
171.5646, 18055.92
172.0467, 18052.74
172.5288, 18050.44
173.0109, 18049.17
173.4930, 18048.14
173.9752, 18045.60
174.4573, 18041.22
174.9394, 18037.69
175.4215, 18034.35
175.9036, 18032.34
176.3857, 18035.45
176.8679, 18047.72
177.3500, 18060.75
177.8321, 18062.66
178.3142, 18052.72
178.7963, 18042.07
179.2784, 18035.42
179.7606, 18032.91
180.2427, 18036.84
180.7248, 18053.64
181.2069, 18072.30
181.6890, 18083.16
182.1711, 18085.42
182.6533, 18083.93
183.1354, 18084.29
183.6175, 18087.52
184.0996, 18085.03
184.5817, 18074.48
185.0638, 18057.46
185.5460, 18033.18
186.0281, 18001.63
186.5102, 17965.55
186.9923, 17927.50
187.4744, 17884.97
187.9565, 17847.37
188.4387, 17817.73
188.9208, 17791.32
189.4029, 17765.09
189.8850, 17737.92
190.3671, 17711.02
190.8492, 17686.16
191.3314, 17663.56
191.8135, 17643.37
192.2956, 17624.99
192.7777, 17608.99
193.2598, 17597.55
193.7419, 17591.33
194.2241, 17586.73
194.7062, 17575.07
195.1883, 17543.38
195.6704, 17519.43
196.1525, 17507.17
196.6346, 17501.92
197.1168, 17498.83
197.5989, 17495.92
198.0810, 17493.13
198.5631, 17490.40
199.0452, 17488.26
199.5273, 17485.51
200.0095, 17480.86
200.4916, 17475.58
200.9737, 17472.01
201.4558, 17471.37
201.9379, 17472.56
202.4200, 17472.27
202.9022, 17469.77
203.3843, 17467.49
203.8664, 17464.19
204.3485, 17461.48
204.8306, 17463.86
205.3127, 17473.68
205.7949, 17489.74
206.2770, 17509.10
206.7591, 17534.63
207.2412, 17557.37
207.7233, 17572.36
208.2054, 17580.12
208.6876, 17582.96
209.1697, 17579.69
209.6518, 17573.13
210.1339, 17568.32
210.6160, 17566.41
211.0981, 17563.41
211.5803, 17556.00
212.0624, 17544.22
212.5445, 17530.51
213.0266, 17514.22
213.5087, 17497.44
213.9908, 17482.08
214.4730, 17468.64
214.9551, 17456.25
215.4372, 17444.42
215.9193, 17433.24
216.4014, 17422.05
216.8836, 17409.70
217.3657, 17397.84
217.8478, 17387.34
218.3299, 17378.44
218.8120, 17371.28
219.2941, 17366.31
219.7763, 17363.88
220.2584, 17362.34
220.7405, 17359.05
221.2226, 17357.67
221.7047, 17362.89
222.1868, 17375.55
222.6690, 17389.19
223.1511, 17392.31
223.6332, 17377.75
224.1153, 17368.94
224.5974, 17371.44
225.0795, 17377.47
225.5617, 17381.83
226.0438, 17382.99
226.5259, 17382.65
227.0080, 17384.07
227.4901, 17390.64
227.9722, 17392.72
228.4544, 17386.91
228.9365, 17379.24
229.4186, 17373.40
229.9007, 17370.79
230.3828, 17371.74
230.8649, 17377.31
231.3471, 17393.95
231.8292, 17404.68
232.3113, 17404.13
232.7934, 17401.20
233.2755, 17403.09
233.7576, 17411.74
234.2398, 17424.32
234.7219, 17436.09
235.2040, 17445.57
235.6861, 17456.85
236.1682, 17471.22
236.6503, 17486.53
237.1325, 17500.49
237.6146, 17512.49
238.0967, 17524.02
238.5788, 17537.18
239.0609, 17552.04
239.5430, 17568.69
240.0252, 17589.26
240.5073, 17610.53
240.9894, 17629.28
241.4715, 17644.86
241.9536, 17658.30
242.4357, 17672.63
242.9179, 17690.70
243.4000, 17695.41
243.8821, 17678.06
244.3642, 17649.80
244.8463, 17622.47
245.3284, 17598.38
245.8106, 17573.71
246.2927, 17544.25
246.7748, 17510.05
247.2569, 17471.58
247.7390, 17422.83
248.2211, 17372.28
248.7033, 17331.42
249.1854, 17302.79
249.6675, 17276.78
250.1496, 17240.71
250.6317, 17196.57
251.1138, 17161.96
251.5960, 17147.39
252.0781, 17141.25
252.5602, 17128.18
253.0423, 17106.11
253.5244, 17081.68
254.0065, 17061.07
254.4887, 17042.93
254.9708, 17023.36
255.4529, 16995.74
255.9350, 16968.54
256.4171, 16955.31
256.8992, 16958.57
257.3813, 16966.02
257.8635, 16970.90
258.3456, 16973.84
258.8277, 16975.60
259.3098, 16976.99
259.7919, 16976.83
260.2740, 16972.82
260.7562, 16964.13
261.2383, 16954.70
261.7204, 16946.54
262.2025, 16938.88
262.6846, 16930.60
263.1667, 16920.94
263.6489, 16910.99
264.1310, 16902.19
264.6131, 16894.62
265.0952, 16887.75
265.5773, 16881.12
266.0594, 16875.33
266.5416, 16871.26
267.0237, 16869.56
267.5058, 16868.97
267.9879, 16867.60
268.4700, 16865.20
268.9521, 16863.85
269.4343, 16866.47
269.9164, 16869.48
270.3985, 16869.88
270.8806, 16866.87
271.3627, 16862.44
271.8448, 16857.78
272.3270, 16851.88
272.8091, 16850.76
273.2912, 16861.45
273.7733, 16873.79
274.2554, 16880.70
274.7375, 16881.11
275.2197, 16880.64
275.7018, 16885.68
276.1839, 16896.78
276.6660, 16909.05
277.1481, 16926.72
277.6302, 16941.60
278.1124, 16947.39
278.5945, 16944.70
279.0766, 16940.70
279.5587, 16943.04
280.0408, 16952.68
280.5229, 16960.68
281.0051, 16961.46
281.4872, 16965.40
281.9693, 16978.97
282.4514, 17000.32
282.9335, 17022.47
283.4156, 17039.31
283.8978, 17050.70
284.3799, 17062.53
284.8620, 17076.10
285.3441, 17088.61
285.8262, 17098.21
286.3083, 17105.87
286.7905, 17113.72
287.2726, 17123.03
287.7547, 17133.75
288.2368, 17145.84
288.7189, 17162.75
289.2010, 17176.60
289.6832, 17183.79
290.1653, 17186.90
290.6474, 17190.50
291.1295, 17197.78
291.6116, 17206.55
292.0938, 17207.06
292.5759, 17191.76
293.0580, 17178.91
293.5401, 17172.44
294.0222, 17170.01
294.5043, 17170.34
294.9865, 17173.09
295.4686, 17175.45
295.9507, 17170.13
296.4328, 17153.02
296.9149, 17135.09
297.3970, 17114.29
297.8792, 17095.23
298.3613, 17084.03
298.8434, 17081.91
299.3255, 17081.94
299.8076, 17072.81
300.2897, 17052.44
300.7719, 17026.52
301.2540, 16989.84
301.7361, 16952.47
302.2182, 16920.53
302.7003, 16895.04
303.1824, 16872.52
303.6646, 16848.41
304.1467, 16821.43
304.6288, 16797.79
305.1109, 16779.91
305.5930, 16762.81
306.0751, 16745.22
306.5573, 16726.54
307.0394, 16705.81
307.5215, 16681.50
308.0036, 16652.90
308.4857, 16628.87
308.9678, 16610.74
309.4500, 16596.04
309.9321, 16587.87
310.4142, 16582.51
310.8963, 16572.45
311.3784, 16551.62
311.8605, 16522.07
312.3427, 16500.28
312.8248, 16489.30
313.3069, 16483.48
313.7890, 16486.85
314.2711, 16493.19
314.7532, 16494.46
315.2354, 16486.64
315.7175, 16472.46
316.1996, 16460.06
316.6817, 16452.09
317.1638, 16441.62
317.6459, 16423.49
318.1281, 16405.23
318.6102, 16395.35
319.0923, 16396.05
319.5744, 16400.35
320.0565, 16395.07
320.5386, 16370.84
321.0208, 16359.15
321.5029, 16369.85
321.9850, 16384.78
322.4671, 16392.63
322.9492, 16392.21
323.4313, 16389.66
323.9135, 16392.84
324.3956, 16404.36
324.8777, 16407.65
325.3598, 16392.23
325.8419, 16378.14
326.3240, 16373.99
326.8062, 16377.97
327.2883, 16383.40
327.7704, 16385.72
328.2525, 16384.92
328.7346, 16380.72
329.2167, 16367.84
329.6989, 16357.70
330.1810, 16354.91
330.6631, 16356.29
331.1452, 16356.85
331.6273, 16353.77
332.1094, 16348.78
332.5916, 16347.85
333.0737, 16356.25
333.5558, 16359.56
334.0379, 16350.56
334.5200, 16338.65
335.0021, 16332.44
335.4843, 16334.69
335.9664, 16342.57
336.4485, 16352.71
336.9306, 16367.32
337.4127, 16377.30
337.8948, 16378.68
338.3770, 16377.65
338.8591, 16378.65
339.3412, 16381.49
339.8233, 16381.86
340.3055, 16374.27
340.7876, 16357.81
341.2697, 16342.84
341.7518, 16330.50
342.2339, 16318.73
342.7160, 16307.54
343.1982, 16296.32
343.6803, 16283.47
344.1624, 16266.56
344.6445, 16247.40
345.1266, 16236.27
345.6087, 16241.33
346.0909, 16241.12
346.5730, 16223.56
347.0551, 16199.28
347.5372, 16182.50
348.0193, 16179.85
348.5014, 16183.76
348.9836, 16179.63
349.4657, 16164.47
349.9478, 16151.43
350.4299, 16144.90
350.9120, 16141.17
351.3941, 16138.58
351.8763, 16136.70
352.3584, 16134.05
352.8405, 16127.17
353.3226, 16115.72
353.8047, 16110.81
354.2868, 16118.70
354.7690, 16128.77
355.2511, 16133.39
355.7332, 16133.81
356.2153, 16136.05
356.6974, 16147.14
357.1795, 16163.73
357.6617, 16171.49
358.1438, 16165.89
358.6259, 16160.48
359.1080, 16163.41
359.5901, 16171.42
360.0722, 16179.66
360.5544, 16186.45
361.0365, 16192.62
361.5186, 16199.43
362.0007, 16206.90
362.4828, 16214.39
362.9649, 16220.99
363.4471, 16227.86
363.9292, 16236.13
364.4113, 16245.80
364.8934, 16257.35
365.3755, 16270.71
365.8576, 16286.07
366.3398, 16304.83
366.8219, 16328.27
367.3040, 16354.06
367.7861, 16378.21
368.2682, 16401.16
368.7503, 16429.35
369.2325, 16469.34
369.7146, 16515.28
370.1967, 16557.85
370.6788, 16596.53
371.1609, 16631.03
371.6430, 16661.03
372.1252, 16686.43
372.6073, 16706.37
373.0894, 16719.33
373.5715, 16727.81
374.0536, 16735.96
374.5357, 16742.46
375.0179, 16738.65
375.5000, 16718.28
375.9821, 16686.52
376.4642, 16657.05
376.9463, 16635.40
377.4284, 16603.96
377.9106, 16547.84
378.3927, 16479.62
378.8748, 16421.71
379.3569, 16380.63
379.8390, 16346.43
380.3211, 16305.59
380.8033, 16256.07
381.2854, 16213.12
381.7675, 16181.50
382.2496, 16154.44
382.7317, 16125.67
383.2138, 16095.41
383.6960, 16069.32
384.1781, 16052.28
384.6602, 16043.53
385.1423, 16030.98
385.6244, 16013.88
386.1065, 15994.39
386.5887, 15970.76
387.0708, 15945.64
387.5529, 15923.20
388.0350, 15905.22
388.5171, 15890.78
388.9992, 15877.92
389.4814, 15869.72
389.9635, 15858.35
390.4456, 15841.65
390.9277, 15823.35
391.4098, 15805.92
391.8919, 15790.08
392.3741, 15775.55
392.8562, 15762.00
393.3383, 15749.19
393.8204, 15739.49
394.3025, 15733.72
394.7846, 15730.08
395.2668, 15729.35
395.7489, 15730.19
396.2310, 15729.90
396.7131, 15726.64
397.1952, 15722.09
397.6773, 15722.25
398.1595, 15730.13
398.6416, 15737.95
399.1237, 15745.83
399.6058, 15752.52
400.0879, 15755.10
400.5700, 15753.60
401.0522, 15753.65
401.5343, 15764.43
402.0164, 15788.91
402.4985, 15805.72
402.9806, 15804.76
403.4627, 15804.60
403.9449, 15816.27
404.4270, 15835.44
404.9091, 15850.29
405.3912, 15853.41
405.8733, 15846.92
406.3554, 15836.83
406.8376, 15821.67
407.3197, 15806.22
407.8018, 15797.01
408.2839, 15786.46
408.7660, 15764.43
409.2481, 15726.41
409.7303, 15687.34
410.2124, 15663.86
410.6945, 15654.96
411.1766, 15643.25
411.6587, 15624.46
412.1408, 15602.49
412.6230, 15578.93
413.1051, 15554.56
413.5872, 15535.67
414.0693, 15528.34
414.5514, 15526.87
415.0335, 15522.68
415.5157, 15515.19
415.9978, 15506.01
416.4799, 15495.80
416.9620, 15484.60
417.4441, 15472.70
417.9262, 15457.86
418.4084, 15445.25
418.8905, 15438.12
419.3726, 15435.49
419.8547, 15435.33
420.3368, 15437.25
420.8189, 15440.39
421.3011, 15443.94
421.7832, 15448.92
422.2653, 15450.42
422.7474, 15448.24
423.2295, 15442.26
423.7116, 15430.25
424.1938, 15413.27
424.6759, 15396.85
425.1580, 15384.70
425.6401, 15376.92
426.1222, 15375.56
426.6043, 15387.58
427.0865, 15396.74
427.5686, 15397.90
428.0507, 15394.03
428.5328, 15387.65
429.0149, 15379.94
429.4970, 15374.55
429.9792, 15379.01
430.4613, 15401.94
430.9434, 15415.63
431.4255, 15416.49
431.9076, 15413.12
432.3897, 15408.48
432.8719, 15403.83
433.3540, 15400.72
433.8361, 15400.68
434.3182, 15403.24
434.8003, 15404.56
435.2824, 15404.28
435.7646, 15403.42
436.2467, 15399.88
436.7288, 15397.11
437.2109, 15398.92
437.6930, 15406.46
438.1751, 15417.73
438.6573, 15431.58
439.1394, 15448.37
439.6215, 15462.01
440.1036, 15469.52
440.5857, 15475.97
441.0678, 15482.17
441.5500, 15489.55
442.0321, 15503.21
442.5142, 15532.22
442.9963, 15566.56
443.4784, 15587.42
443.9605, 15593.61
444.4427, 15595.55
444.9248, 15596.91
445.4069, 15597.74
445.8890, 15598.96
446.3711, 15602.49
446.8532, 15601.36
447.3354, 15591.93
447.8175, 15575.09
448.2996, 15551.62
448.7817, 15521.11
449.2638, 15487.80
449.7459, 15455.84
450.2281, 15425.30
450.7102, 15395.99
451.1923, 15366.25
451.6744, 15339.13
452.1565, 15318.60
452.6386, 15302.61
453.1208, 15285.06
453.6029, 15262.51
454.0850, 15236.94
454.5671, 15213.80
455.0492, 15192.50
455.5313, 15174.82
456.0135, 15164.59
456.4956, 15155.46
456.9777, 15141.81
457.4598, 15123.31
457.9419, 15103.18
458.4240, 15083.43
458.9062, 15064.06
459.3883, 15053.01
459.8704, 15061.66
460.3525, 15066.09
460.8346, 15059.17
461.3167, 15045.85
461.7989, 15032.31
462.2810, 15020.83
462.7631, 15010.29
463.2452, 14998.42
463.7273, 14984.51
464.2094, 14973.41
464.6916, 14971.34
465.1737, 14966.48
465.6558, 14948.06
466.1379, 14919.99
466.6200, 14896.84
467.1021, 14888.79
467.5843, 14889.73
468.0664, 14888.34
468.5485, 14884.58
469.0306, 14878.55
469.5127, 14868.86
469.9948, 14857.80
470.4770, 14847.83
470.9591, 14837.69
471.4412, 14834.24
471.9233, 14847.33
472.4054, 14868.02
472.8875, 14879.22
473.3697, 14877.66
473.8518, 14871.61
474.3339, 14867.68
474.8160, 14866.03
475.2981, 14865.50
475.7802, 14866.76
476.2624, 14868.33
476.7445, 14867.36
477.2266, 14866.44
477.7087, 14871.38
478.1908, 14884.55
478.6729, 14901.31
479.1551, 14913.34
479.6372, 14918.89
480.1193, 14923.27
480.6014, 14926.64
481.0835, 14928.78
481.5656, 14928.96
482.0478, 14927.77
482.5299, 14926.30
483.0120, 14925.02
483.4941, 14924.60
483.9762, 14928.15
484.4583, 14938.98
484.9405, 14947.21
485.4226, 14949.64
485.9047, 14950.03
486.3868, 14950.58
486.8689, 14951.84
487.3510, 14954.39
487.8332, 14958.16
488.3153, 14963.47
488.7974, 14972.77
489.2795, 14987.96
489.7616, 15002.54
490.2437, 15010.17
490.7259, 15015.14
491.2080, 15025.00
491.6901, 15044.04
492.1722, 15062.00
492.6543, 15070.12
493.1364, 15071.08
493.6186, 15073.71
494.1007, 15081.19
494.5828, 15086.72
495.0649, 15082.00
495.5470, 15065.96
496.0291, 15049.17
496.5113, 15032.36
496.9934, 15014.48
497.4755, 14996.79
497.9576, 14977.56
498.4397, 14952.28
498.9218, 14918.83
499.4040, 14879.78
499.8861, 14840.93
500.3682, 14800.81
500.8503, 14764.30
501.3324, 14729.63
501.8145, 14699.38
502.2967, 14676.79
502.7788, 14660.13
503.2609, 14644.48
503.7430, 14626.94
504.2251, 14607.00
504.7072, 14582.31
505.1894, 14549.88
505.6715, 14519.28
506.1536, 14490.94
506.6357, 14466.64
507.1178, 14449.36
507.5999, 14439.13
508.0821, 14430.88
508.5642, 14423.97
509.0463, 14416.19
509.5284, 14398.53
510.0105, 14367.88
510.4926, 14339.47
510.9748, 14325.31
511.4569, 14319.60
511.9390, 14308.29
512.4211, 14288.67
512.9032, 14267.08
513.3853, 14242.65
513.8674, 14219.34
514.3495, 14206.42
514.8317, 14205.76
515.3138, 14206.82
515.7959, 14198.52
516.2780, 14179.93
516.7601, 14164.47
517.2422, 14156.28
517.7244, 14145.93
518.2065, 14126.76
518.6886, 14104.66
519.1707, 14088.81
519.6528, 14082.35
520.1349, 14080.09
520.6171, 14074.36
521.0992, 14064.45
521.5813, 14054.36
522.0634, 14044.10
522.5455, 14033.82
523.0276, 14024.94
523.5098, 14015.90
523.9919, 14003.06
524.4740, 13983.42
524.9561, 13963.11
525.4382, 13950.47
525.9203, 13945.62
526.4025, 13946.07
526.8846, 13956.04
527.3667, 13964.60
527.8488, 13959.48
528.3309, 13942.69
528.8130, 13926.75
529.2952, 13913.61
529.7773, 13904.13
530.2594, 13902.00
530.7415, 13905.12
531.2236, 13904.20
531.7057, 13894.86
532.1879, 13879.98
532.6700, 13864.54
533.1521, 13845.92
533.6342, 13833.14
534.1163, 13830.35
534.5984, 13830.19
535.0806, 13830.13
535.5627, 13828.59
536.0448, 13822.17
536.5269, 13808.20
537.0090, 13790.35
537.4911, 13780.83
537.9733, 13785.49
538.4554, 13785.28
538.9375, 13773.96
539.4196, 13760.65
539.9017, 13750.15
540.3839, 13742.76
540.8660, 13737.26
541.3481, 13734.30
541.8302, 13731.95
542.3123, 13725.23
542.7944, 13713.69
543.2766, 13702.41
543.7587, 13693.24
544.2408, 13685.72
544.7229, 13679.60
545.2050, 13675.27
545.6871, 13669.44
546.1693, 13659.95
546.6514, 13649.13
547.1335, 13638.01
547.6156, 13627.39
548.0977, 13620.97
548.5798, 13621.77
549.0620, 13627.07
549.5441, 13627.72
550.0262, 13618.00
550.5083, 13610.88
550.9904, 13607.53
551.4725, 13605.75
551.9547, 13602.66
552.4368, 13599.17
552.9189, 13600.19
553.4010, 13611.06
553.8831, 13627.29
554.3652, 13629.19
554.8474, 13610.25
555.3295, 13593.61
555.8116, 13585.94
556.2937, 13582.35
556.7758, 13581.43
557.2579, 13582.48
557.7401, 13581.24
558.2222, 13571.72
558.7043, 13559.72
559.1864, 13557.26
559.6685, 13564.71
560.1506, 13568.61
560.6328, 13560.40
561.1149, 13546.49
561.5970, 13541.45
562.0791, 13547.36
562.5612, 13552.95
563.0433, 13556.77
563.5255, 13558.89
564.0076, 13558.17
564.4897, 13555.54
564.9718, 13554.25
565.4539, 13556.47
565.9360, 13561.29
566.4182, 13565.59
566.9003, 13568.52
567.3824, 13572.88
567.8645, 13579.82
568.3466, 13587.48
568.8287, 13595.69
569.3109, 13603.79
569.7930, 13610.07
570.2751, 13613.84
570.7572, 13614.85
571.2393, 13611.10
571.7214, 13601.97
572.2036, 13595.77
572.6857, 13597.30
573.1678, 13600.45
573.6499, 13597.34
574.1320, 13588.16
574.6141, 13579.73
575.0963, 13577.16
575.5784, 13573.48
576.0605, 13560.62
576.5426, 13541.11
577.0247, 13524.34
577.5068, 13514.91
577.9890, 13508.58
578.4711, 13496.88
578.9532, 13474.46
579.4353, 13460.71
579.9174, 13462.43
580.3995, 13464.95
580.8817, 13459.77
581.3638, 13450.39
581.8459, 13444.38
582.3280, 13445.37
582.8101, 13450.67
583.2922, 13455.74
583.7744, 13460.33
584.2565, 13468.10
584.7386, 13480.05
585.2207, 13494.69
585.7029, 13513.01
586.1850, 13533.05
