##NAMES=Miserite
##RRUFFID=R060393
##IDEAL CHEMISTRY=K_1.5-x_(Ca,Y,REE)_5_[Si_6_O_15_][Si_2_O_7_](OH,F)_2_&#183;yH_2_O
##LOCALITY=Wilson Springs, Garland County, Arkansas, USA
##OWNER=RRUFF
##SOURCE=Michael Scott
##DESCRIPTION=Pale purple mass of prismatic to flaky fragments
##STATUS=The identification of this mineral has been confirmed by X-ray diffraction.
##URL=rruff.info/R060393
177.3341, 618.5607
177.8163, 618.7924
178.2984, 618.4053
178.7805, 617.8249
179.2626, 617.6848
179.7447, 617.9990
180.2268, 618.5997
180.7090, 619.2307
181.1911, 619.9814
181.6732, 621.1471
182.1553, 623.4528
182.6374, 626.1876
183.1195, 627.6104
183.6017, 627.5579
184.0838, 627.0427
184.5659, 626.8869
185.0480, 627.1534
185.5301, 628.2009
186.0123, 631.0964
186.4944, 634.9880
186.9765, 636.7963
187.4586, 636.0967
187.9407, 634.5723
188.4228, 634.6858
188.9050, 636.2756
189.3871, 637.7413
189.8692, 637.9611
190.3513, 637.2474
190.8334, 637.2762
191.3155, 638.2491
191.7977, 639.6566
192.2798, 640.7601
192.7619, 641.5667
193.2440, 642.2416
193.7261, 642.9279
194.2082, 643.6091
194.6904, 643.9968
195.1725, 644.0108
195.6546, 643.8770
196.1367, 644.1288
196.6188, 644.8192
197.1009, 645.2488
197.5831, 644.5313
198.0652, 642.6666
198.5473, 642.6479
199.0294, 645.1663
199.5115, 648.8339
199.9937, 650.6412
200.4758, 650.2928
200.9579, 649.8190
201.4400, 650.4011
201.9221, 652.1219
202.4042, 653.6357
202.8864, 654.8538
203.3685, 655.8276
203.8506, 656.6714
204.3327, 657.3701
204.8148, 657.9544
205.2969, 658.2501
205.7791, 658.1100
206.2612, 658.9020
206.7433, 661.1864
207.2254, 664.0818
207.7075, 665.1606
208.1896, 663.9440
208.6718, 662.3235
209.1539, 661.2374
209.6360, 660.7357
210.1181, 660.5898
210.6002, 660.8541
211.0823, 661.4418
211.5645, 662.2527
212.0466, 663.6006
212.5287, 664.4747
213.0108, 664.0720
213.4929, 661.8369
213.9750, 660.6219
214.4572, 660.9704
214.9393, 662.2839
215.4214, 662.7078
215.9035, 661.8156
216.3856, 660.8905
216.8678, 660.5988
217.3499, 660.9944
217.8320, 661.8287
218.3141, 663.3090
218.7962, 665.1264
219.2783, 666.2249
219.7605, 666.1723
220.2426, 666.1278
220.7247, 666.7557
221.2068, 668.3524
221.6889, 669.7302
222.1710, 670.7557
222.6532, 671.5502
223.1353, 672.4826
223.6174, 673.7161
224.0995, 674.8544
224.5816, 675.5869
225.0637, 675.4605
225.5459, 676.2337
226.0280, 678.5763
226.5101, 681.7294
226.9922, 683.1072
227.4743, 681.5447
227.9564, 680.0634
228.4386, 680.2911
228.9207, 683.3217
229.4028, 685.3553
229.8849, 686.0555
230.3670, 685.7872
230.8492, 685.5859
231.3313, 685.5329
231.8134, 685.4235
232.2955, 685.0545
232.7776, 683.9240
233.2597, 683.8209
233.7419, 685.3410
234.2240, 687.7510
234.7061, 688.9836
235.1882, 688.2449
235.6703, 687.5674
236.1524, 687.8832
236.6346, 689.7871
237.1167, 691.3848
237.5988, 692.8499
238.0809, 693.9637
238.5630, 694.0336
239.0451, 691.9830
239.5273, 690.4985
240.0094, 690.9750
240.4915, 694.9091
240.9736, 696.7162
241.4557, 695.2690
241.9378, 692.1882
242.4200, 690.9161
242.9021, 692.3468
243.3842, 694.1572
243.8663, 695.4354
244.3484, 695.8269
244.8306, 696.8240
245.3127, 698.9799
245.7948, 701.4427
246.2769, 702.5148
246.7590, 701.3834
247.2411, 700.2231
247.7233, 699.6106
248.2054, 699.3384
248.6875, 700.5729
249.1696, 704.2354
249.6517, 708.7834
250.1338, 711.6530
250.6160, 712.2170
251.0981, 712.2630
251.5802, 712.5354
252.0623, 713.4105
252.5444, 712.4064
253.0265, 708.3752
253.5087, 703.4213
253.9908, 700.6797
254.4729, 700.9832
254.9550, 701.7499
255.4371, 702.0985
255.9192, 701.8028
256.4014, 703.0139
256.8835, 706.4335
257.3656, 710.6660
257.8477, 714.3145
258.3298, 717.7873
258.8120, 719.6906
259.2941, 719.1367
259.7762, 715.8830
260.2583, 714.3153
260.7404, 715.0472
261.2225, 716.6627
261.7047, 717.7116
262.1868, 718.0790
262.6689, 718.1005
263.1510, 717.5973
263.6331, 716.6042
264.1152, 716.6752
264.5974, 718.3420
265.0795, 720.2482
265.5616, 720.8663
266.0437, 719.6130
266.5258, 719.1252
267.0079, 720.2270
267.4901, 722.6622
267.9722, 723.9155
268.4543, 723.6941
268.9364, 722.9447
269.4185, 722.4221
269.9006, 722.2044
270.3828, 721.9045
270.8649, 721.4127
271.3470, 720.7933
271.8291, 720.3116
272.3112, 719.9055
272.7933, 719.7386
273.2755, 720.1158
273.7576, 721.1935
274.2397, 721.6062
274.7218, 721.0717
275.2039, 719.8162
275.6860, 718.3885
276.1682, 716.6343
276.6503, 715.2410
277.1324, 714.7394
277.6145, 715.2044
278.0966, 715.8807
278.5787, 716.9689
279.0609, 717.9842
279.5430, 717.5087
280.0251, 715.2758
280.5072, 713.3496
280.9893, 713.2197
281.4715, 714.8817
281.9536, 715.5237
282.4357, 714.7576
282.9178, 713.4570
283.3999, 713.2543
283.8820, 714.2061
284.3642, 714.9975
284.8463, 714.7526
285.3284, 713.5871
285.8105, 713.0762
286.2926, 713.2826
286.7747, 713.8799
287.2569, 714.5842
287.7390, 715.3736
288.2211, 715.8780
288.7032, 715.5472
289.1853, 714.7445
289.6674, 715.5353
290.1496, 718.2043
290.6317, 720.6802
291.1138, 719.9689
291.5959, 716.5872
292.0780, 714.1417
292.5602, 714.2311
293.0423, 715.9001
293.5244, 716.7796
294.0065, 716.8517
294.4886, 716.5753
294.9707, 716.1028
295.4529, 715.5684
295.9350, 715.5035
296.4171, 716.2683
296.8992, 717.3630
297.3813, 717.7897
297.8634, 717.6068
298.3456, 717.4938
298.8277, 718.0002
299.3098, 718.9523
299.7919, 720.0344
300.2740, 721.2984
300.7561, 722.4446
301.2383, 722.7924
301.7204, 722.5423
302.2025, 722.5829
302.6846, 723.8112
303.1667, 725.5901
303.6488, 726.9811
304.1310, 727.7853
304.6131, 728.3252
305.0952, 728.6803
305.5773, 728.9800
306.0594, 729.5723
306.5415, 731.0666
307.0237, 732.7354
307.5058, 733.7754
307.9879, 734.0448
308.4700, 734.0834
308.9521, 734.3585
309.4343, 734.6774
309.9164, 734.7112
310.3985, 733.8587
310.8806, 732.9747
311.3627, 732.7694
311.8448, 733.2772
312.3270, 733.9319
312.8091, 734.4896
313.2912, 734.9750
313.7733, 735.4177
314.2554, 735.5105
314.7375, 735.8391
315.2197, 736.9601
315.7018, 738.7634
316.1839, 740.2341
316.6660, 740.6929
317.1481, 740.7470
317.6302, 740.8945
318.1124, 741.4941
318.5945, 741.9103
319.0766, 741.7001
319.5587, 741.0811
320.0408, 740.8027
320.5229, 741.3876
321.0051, 742.1735
321.4872, 742.7852
321.9693, 743.0278
322.4514, 743.3395
322.9335, 743.7903
323.4156, 744.3711
323.8978, 745.0625
324.3799, 745.8802
324.8620, 746.7942
325.3441, 747.9257
325.8262, 749.5518
326.3083, 750.5101
326.7905, 750.5679
327.2726, 749.9576
327.7547, 748.9691
328.2368, 745.9227
328.7189, 744.2605
329.2010, 745.2656
329.6832, 749.2917
330.1653, 751.9526
330.6474, 752.7292
331.1295, 752.5138
331.6116, 751.9935
332.0938, 750.9498
332.5759, 749.9281
333.0580, 748.8861
333.5401, 747.8729
334.0222, 747.3324
334.5043, 747.3340
334.9865, 747.6986
335.4686, 748.4678
335.9507, 750.1000
336.4328, 750.8105
336.9149, 750.1524
337.3970, 748.6852
337.8792, 747.9694
338.3613, 748.2260
338.8434, 748.5842
339.3255, 748.6390
339.8076, 748.3409
340.2898, 748.0578
340.7719, 747.5869
341.2540, 747.4941
341.7361, 749.1364
342.2182, 752.7756
342.7003, 755.3978
343.1825, 755.4473
343.6646, 753.4238
344.1467, 752.8502
344.6288, 753.9528
345.1109, 755.3220
345.5930, 755.2087
346.0752, 753.8109
346.5573, 753.2230
347.0394, 754.2045
347.5215, 756.0623
348.0036, 757.3414
348.4857, 758.0377
348.9679, 758.4963
349.4500, 758.8175
349.9321, 759.0943
350.4142, 759.7109
350.8963, 760.9095
351.3784, 762.0038
351.8606, 761.8031
352.3427, 760.6306
352.8248, 759.6695
353.3069, 759.7474
353.7890, 760.3837
354.2711, 760.9003
354.7533, 761.2190
355.2354, 761.6684
355.7175, 762.8664
356.1996, 764.3497
356.6817, 765.3090
357.1638, 765.0532
357.6460, 764.3959
358.1281, 764.0417
358.6102, 763.9518
359.0923, 763.5127
359.5744, 761.5146
360.0565, 759.3846
360.5387, 758.5552
361.0208, 760.2839
361.5029, 762.3116
361.9850, 763.8993
362.4671, 765.0414
362.9492, 765.6858
363.4314, 764.9551
363.9135, 764.3502
364.3956, 764.9044
364.8777, 767.5993
365.3598, 769.4423
365.8419, 769.0436
366.3241, 767.5909
366.8062, 766.8638
367.2883, 767.3917
367.7704, 768.3926
368.2526, 769.9356
368.7347, 772.2581
369.2168, 773.6724
369.6989, 772.7233
370.1810, 771.7464
370.6631, 772.7816
371.1453, 778.2707
371.6274, 782.1337
372.1095, 783.3732
372.5916, 782.3097
373.0737, 780.9285
373.5558, 778.6277
374.0380, 776.8778
374.5201, 776.6864
375.0022, 778.7262
375.4843, 780.0170
375.9664, 780.1511
376.4485, 779.7639
376.9307, 780.2497
377.4128, 781.8519
377.8949, 783.2656
378.3770, 783.8829
378.8591, 783.7439
379.3412, 783.6913
379.8234, 783.7167
380.3055, 783.8557
380.7876, 784.1005
381.2697, 784.4645
381.7518, 785.1853
382.2339, 786.6287
382.7161, 788.2422
383.1982, 788.4370
383.6803, 787.2648
384.1624, 786.2158
384.6445, 787.0499
385.1266, 788.8432
385.6088, 788.9354
386.0909, 786.4135
386.5730, 783.7545
387.0551, 784.0117
387.5372, 786.5302
388.0193, 789.4580
388.5015, 792.7145
388.9836, 795.3915
389.4657, 796.1954
389.9478, 795.0096
390.4299, 793.5290
390.9120, 792.2178
391.3942, 791.4906
391.8763, 791.9052
392.3584, 795.4794
392.8405, 798.4894
393.3226, 798.4007
393.8047, 795.8749
394.2869, 793.9315
394.7690, 794.2502
395.2511, 795.1771
395.7332, 795.7197
396.2154, 795.6338
396.6975, 795.3545
397.1796, 794.3718
397.6617, 793.3476
398.1438, 793.4108
398.6259, 796.0149
399.1081, 798.4392
399.5902, 799.9455
400.0723, 800.4426
400.5544, 800.5720
401.0365, 800.0348
401.5186, 799.3304
402.0008, 798.8798
402.4829, 798.8455
402.9650, 798.6910
403.4471, 798.1353
403.9292, 797.4095
404.4113, 797.6663
404.8935, 799.4247
405.3756, 800.9764
405.8577, 801.3953
406.3398, 800.5629
406.8219, 799.3545
407.3040, 797.4952
407.7862, 795.8279
408.2683, 795.9481
408.7504, 797.9362
409.2325, 799.3685
409.7146, 799.2328
410.1967, 797.9827
410.6789, 796.8436
411.1610, 795.8026
411.6431, 795.4193
412.1252, 797.0302
412.6073, 799.7503
413.0894, 800.7376
413.5716, 798.7958
414.0537, 796.3336
414.5358, 796.5936
415.0179, 798.8814
415.5000, 800.9531
415.9821, 801.4235
416.4643, 801.1032
416.9464, 800.7133
417.4285, 800.2888
417.9106, 799.9151
418.3927, 799.4383
418.8748, 799.0958
419.3570, 799.1814
419.8391, 799.9675
420.3212, 801.0255
420.8033, 802.6566
421.2854, 804.5878
421.7675, 805.5755
422.2497, 804.6385
422.7318, 803.1311
423.2139, 801.6995
423.6960, 800.2521
424.1781, 799.2882
424.6602, 798.9657
425.1424, 799.1561
425.6245, 799.6833
426.1066, 800.7722
426.5887, 801.9104
427.0709, 803.1638
427.5530, 804.5276
428.0351, 804.9706
428.5172, 803.7996
428.9993, 802.6447
429.4814, 802.9001
429.9636, 805.1667
430.4457, 806.3676
430.9278, 805.8376
431.4099, 804.5109
431.8920, 804.6615
432.3741, 806.5194
432.8563, 808.0527
433.3384, 807.8265
433.8205, 806.2748
434.3026, 806.7351
434.7847, 809.4410
435.2668, 812.2920
435.7490, 812.6779
436.2311, 811.3220
436.7132, 810.8372
437.1953, 812.1917
437.6774, 814.3315
438.1595, 816.2758
438.6417, 817.9113
439.1238, 818.7654
439.6059, 818.0983
440.0880, 816.7443
440.5701, 815.3538
441.0522, 813.8899
441.5344, 813.1852
442.0165, 814.1794
442.4986, 816.0936
442.9807, 817.9700
443.4628, 820.3428
443.9449, 821.7859
444.4271, 821.1368
444.9092, 818.7987
445.3913, 817.0760
445.8734, 817.3237
446.3555, 817.7480
446.8376, 817.2513
447.3198, 814.1771
447.8019, 813.3752
448.2840, 816.4807
448.7661, 821.2388
449.2482, 824.6647
449.7303, 827.0258
450.2125, 827.4613
450.6946, 825.0966
451.1767, 820.2053
451.6588, 817.0172
452.1409, 815.8427
452.6230, 815.5973
453.1052, 815.7958
453.5873, 816.5170
454.0694, 816.4127
454.5515, 814.9784
455.0337, 813.5033
455.5158, 814.6396
455.9979, 818.2006
456.4800, 821.3032
456.9621, 822.4359
457.4442, 822.3625
457.9264, 822.8897
458.4085, 823.9969
458.8906, 825.1643
459.3727, 826.2591
459.8548, 827.0673
460.3369, 826.9861
460.8191, 825.3193
461.3012, 824.1236
461.7833, 826.0027
462.2654, 829.5559
462.7475, 831.8567
463.2296, 830.4961
463.7118, 828.4948
464.1939, 827.6009
464.6760, 827.9247
465.1581, 828.0272
465.6402, 827.1636
466.1223, 826.0727
466.6045, 825.2820
467.0866, 825.9316
467.5687, 825.5227
468.0508, 822.6291
468.5329, 818.6990
469.0150, 817.0943
469.4972, 819.7488
469.9793, 821.7883
470.4614, 821.2556
470.9435, 817.9338
471.4256, 816.7775
471.9077, 818.6331
472.3899, 820.9926
472.8720, 821.4195
473.3541, 819.7161
473.8362, 818.5739
474.3183, 818.4083
474.8004, 818.9037
475.2826, 819.6735
475.7647, 820.6765
476.2468, 821.3627
476.7289, 820.7718
477.2110, 819.7887
477.6931, 820.8892
478.1753, 824.0771
478.6574, 826.9426
479.1395, 827.3028
479.6216, 826.1258
480.1037, 824.7219
480.5858, 823.0733
481.0680, 821.9398
481.5501, 822.0483
482.0322, 823.0494
482.5143, 824.2150
482.9964, 825.8939
483.4786, 827.1453
483.9607, 827.1718
484.4428, 825.8085
484.9249, 825.2203
485.4070, 826.9484
485.8892, 828.9047
486.3713, 829.5697
486.8534, 827.4894
487.3355, 826.2409
487.8176, 826.1933
488.2997, 826.9266
488.7819, 827.5463
489.2640, 827.9290
489.7461, 828.4570
490.2282, 829.2061
490.7103, 830.1834
491.1924, 831.6182
491.6746, 833.6427
492.1567, 835.5818
492.6388, 836.7081
493.1209, 837.1280
493.6030, 837.7630
494.0851, 838.8597
494.5673, 839.8779
495.0494, 839.7644
495.5315, 838.8277
496.0136, 838.1896
496.4957, 838.6364
496.9778, 839.5009
497.4600, 840.0330
497.9421, 840.2667
498.4242, 840.5725
498.9063, 841.4435
499.3884, 842.3390
499.8705, 842.7338
500.3527, 842.2719
500.8348, 841.9354
501.3169, 842.4874
501.7990, 843.2685
502.2811, 843.3478
502.7632, 841.1879
503.2454, 839.7963
503.7275, 840.1054
504.2096, 841.9561
504.6917, 843.6881
505.1738, 845.6964
505.6559, 847.0499
506.1381, 846.9637
506.6202, 844.7893
507.1023, 843.9402
507.5844, 844.7104
508.0665, 846.2921
508.5486, 847.6790
509.0308, 848.8713
509.5129, 849.9981
509.9950, 851.0173
510.4771, 852.0505
510.9592, 853.6869
511.4413, 855.7920
511.9235, 857.2893
512.4056, 857.0513
512.8877, 855.9210
513.3698, 855.2210
513.8519, 855.0787
514.3340, 854.7953
514.8162, 853.4511
515.2983, 851.8242
515.7804, 850.8318
516.2625, 850.5949
516.7446, 851.2590
517.2267, 854.2241
517.7089, 858.1992
518.1910, 859.9496
518.6731, 856.1620
519.1552, 852.5287
519.6373, 851.1005
520.1194, 852.0305
520.6016, 853.4402
521.0837, 855.9572
521.5658, 858.2238
522.0479, 858.9935
522.5300, 857.5217
523.0121, 857.3760
523.4943, 859.2860
523.9764, 861.9489
524.4585, 862.9285
524.9406, 862.1755
525.4227, 861.2755
525.9048, 860.5251
526.3870, 860.1552
526.8691, 861.0930
527.3513, 863.2504
527.8334, 865.1899
528.3155, 865.7916
528.7976, 865.5826
529.2797, 865.2503
529.7618, 864.8457
530.2440, 864.5370
530.7261, 864.3030
531.2082, 864.2755
531.6903, 864.6276
532.1724, 865.5872
532.6545, 866.7450
533.1367, 868.0945
533.6188, 869.5608
534.1009, 870.9333
534.5830, 872.4092
535.0651, 873.5467
535.5472, 874.1116
536.0294, 874.0114
536.5115, 874.0404
536.9936, 874.1390
537.4757, 874.4592
537.9578, 875.1783
538.4399, 876.3690
538.9221, 877.5599
539.4042, 878.7388
539.8863, 879.8593
540.3684, 881.1888
540.8505, 882.6252
541.3326, 882.8798
541.8148, 880.4500
542.2969, 877.1078
542.7790, 876.1364
543.2611, 877.3327
543.7432, 879.0055
544.2253, 880.2516
544.7075, 881.2662
545.1896, 882.3809
545.6717, 883.7674
546.1538, 884.5343
546.6359, 884.0773
547.1180, 882.8483
547.6002, 881.3300
548.0823, 878.6060
548.5644, 876.7823
549.0465, 876.3803
549.5286, 877.1492
550.0107, 878.4816
550.4929, 881.4099
550.9750, 883.3031
551.4571, 882.9744
551.9392, 880.4006
552.4213, 878.7870
552.9034, 878.3051
553.3856, 878.1984
553.8677, 877.8936
554.3498, 877.4103
554.8319, 876.9301
555.3140, 876.4055
555.7961, 876.1282
556.2783, 876.7206
556.7604, 877.8976
557.2425, 878.8464
557.7246, 879.2497
558.2067, 879.3307
558.6888, 879.2936
559.1710, 879.1231
559.6531, 878.7448
560.1352, 877.6222
560.6173, 876.6913
561.0994, 876.5854
561.5815, 877.4330
562.0637, 878.3983
562.5458, 879.5738
563.0279, 880.6360
563.5100, 881.3398
563.9921, 881.2344
564.4742, 881.6142
564.9564, 882.9187
565.4385, 884.3761
565.9206, 884.4772
566.4027, 882.8827
566.8848, 881.5865
567.3669, 881.2513
567.8491, 881.5643
568.3312, 881.4481
568.8133, 880.9276
569.2954, 880.6908
569.7775, 881.3186
570.2596, 882.5004
570.7418, 883.8828
571.2239, 885.4825
571.7060, 886.5434
572.1881, 885.4792
572.6702, 884.0193
573.1523, 884.2681
573.6345, 888.0721
574.1166, 891.2347
574.5987, 891.7672
575.0808, 890.7180
575.5629, 889.8281
576.0450, 889.1773
576.5272, 888.9732
577.0093, 889.6635
577.4914, 890.9818
577.9735, 890.8792
578.4556, 888.2675
578.9377, 886.5140
579.4199, 887.9490
579.9020, 892.6559
580.3841, 894.9968
580.8662, 894.7475
581.3483, 893.3985
581.8304, 891.6692
582.3126, 889.9725
582.7947, 890.0443
583.2768, 892.6987
583.7589, 895.6815
584.2410, 896.2526
584.7231, 895.4058
585.2053, 895.1125
585.6874, 896.7125
586.1696, 898.5869
586.6517, 900.1689
587.1338, 901.3515
587.6159, 901.7700
588.0980, 900.5515
588.5801, 899.2031
589.0623, 898.2706
589.5444, 897.7318
590.0265, 897.7568
590.5086, 898.5922
590.9907, 899.6870
591.4728, 900.7352
591.9550, 901.8157
592.4371, 902.3182
592.9192, 902.0706
593.4013, 901.5916
593.8834, 901.7864
594.3655, 902.5240
594.8477, 902.8488
595.3298, 902.2068
595.8119, 901.3382
596.2940, 901.3143
596.7761, 901.9304
597.2582, 902.4957
597.7404, 902.0576
598.2225, 901.8691
598.7046, 903.1698
599.1867, 905.9782
599.6688, 908.1357
600.1509, 907.7131
600.6331, 907.3605
601.1152, 908.9926
601.5973, 914.4410
602.0794, 917.5425
602.5615, 917.0555
603.0436, 915.3832
603.5258, 915.2850
604.0079, 917.0705
604.4900, 918.7740
604.9721, 920.0216
605.4542, 921.1269
605.9363, 922.5775
606.4185, 924.3907
606.9006, 926.8044
607.3827, 930.7650
607.8648, 934.8340
608.3469, 936.2341
608.8290, 935.4600
609.3112, 935.2082
609.7933, 937.3287
610.2754, 940.4025
610.7575, 943.4404
611.2396, 946.2390
611.7217, 949.2373
612.2039, 952.5566
612.6860, 956.0524
613.1681, 959.6827
613.6502, 963.7858
614.1323, 967.2478
614.6144, 969.4559
615.0966, 971.4880
615.5787, 975.2092
616.0608, 980.9119
616.5429, 986.3904
617.0250, 991.1749
617.5071, 995.4071
617.9893, 999.0042
618.4714, 1002.102
618.9535, 1005.527
619.4356, 1010.245
619.9177, 1015.337
620.3998, 1019.616
620.8820, 1023.138
621.3641, 1026.495
621.8462, 1029.392
622.3283, 1032.736
622.8104, 1037.611
623.2925, 1044.972
623.7747, 1050.561
624.2568, 1051.887
624.7389, 1052.183
625.2210, 1054.088
625.7031, 1058.562
626.1852, 1062.611
626.6674, 1066.290
627.1495, 1069.175
627.6316, 1069.845
628.1137, 1068.149
628.5958, 1067.958
629.0779, 1070.466
629.5601, 1075.042
630.0422, 1081.182
630.5243, 1088.521
631.0064, 1095.550
631.4885, 1100.598
631.9706, 1105.519
632.4528, 1112.104
632.9349, 1120.284
633.4170, 1129.115
633.8991, 1138.835
634.3812, 1148.581
634.8633, 1157.754
635.3455, 1165.615
635.8276, 1174.928
636.3097, 1187.106
636.7918, 1199.485
637.2739, 1209.750
637.7560, 1217.271
638.2382, 1224.950
638.7203, 1233.281
639.2024, 1241.125
639.6845, 1246.860
640.1666, 1250.574
640.6487, 1253.169
641.1309, 1255.729
641.6130, 1256.148
642.0951, 1250.338
642.5772, 1239.818
643.0594, 1229.118
643.5415, 1221.845
644.0236, 1213.751
644.5057, 1201.260
644.9879, 1184.826
645.4700, 1169.863
645.9521, 1157.797
646.4342, 1147.253
646.9163, 1137.785
647.3984, 1129.575
647.8806, 1120.648
648.3627, 1110.168
648.8448, 1100.462
649.3269, 1093.585
649.8090, 1089.559
650.2911, 1085.651
650.7733, 1081.621
651.2554, 1077.621
651.7375, 1074.202
652.2196, 1070.890
652.7017, 1066.299
653.1838, 1059.263
653.6660, 1052.342
654.1481, 1047.719
654.6302, 1044.543
655.1123, 1041.261
655.5944, 1036.858
656.0765, 1032.808
656.5587, 1029.646
657.0408, 1027.233
657.5229, 1024.858
658.0050, 1022.535
658.4871, 1020.234
658.9692, 1017.814
659.4514, 1015.341
659.9335, 1013.856
660.4156, 1013.521
660.8977, 1012.884
661.3798, 1010.781
661.8619, 1007.610
662.3441, 1004.053
662.8262, 1000.129
663.3083, 996.8896
663.7904, 995.6738
664.2725, 995.3663
664.7546, 994.7919
665.2368, 993.7361
665.7189, 992.3741
666.2010, 990.8033
666.6831, 988.7711
667.1652, 986.7274
667.6473, 983.8686
668.1295, 981.0129
668.6116, 977.8493
669.0937, 974.9552
669.5758, 974.0800
670.0579, 975.5979
670.5400, 975.2957
671.0222, 971.1449
671.5043, 965.2538
671.9864, 961.6502
672.4685, 960.1371
672.9506, 959.7868
673.4327, 961.1286
673.9149, 962.6249
674.3970, 962.6547
