##NAMES=Mixite
##RRUFFID=R070503
##IDEAL CHEMISTRY=Cu^2+^_6_Bi^3+^(As^5+^O_4_)_3_(OH)_6_&#183;3H_2_O
##LOCALITY=Hilarion mine, near Kamariza, Lavrion District, Greece
##OWNER=RRUFF
##SOURCE=Bob Jenkins
##DESCRIPTION=Radiating aggregates of bluish-green acicular crystals
##STATUS=The identification of this mineral is confirmed by single-crystal X-ray diffraction and chemical analysis.
##URL=rruff.info/R070503
##MEASURED CHEMISTRY=(Cu_5.73_Ca_0.22_Zn_0.06_Fe_0.01_)_Σ=6.02_(Bi_0.52_Ca_0.48_)_Σ=1.00_(AsO_4_)_2.86_(OH)_6_·3.58H_2_O
118.5067, 314.0470
118.9888, 315.2372
119.4709, 321.7173
119.9530, 330.3748
120.4351, 343.2973
120.9172, 358.2225
121.3994, 368.4618
121.8815, 368.3311
122.3636, 357.9004
122.8457, 349.5748
123.3278, 343.3956
123.8099, 339.0563
124.2921, 336.4499
124.7742, 335.5672
125.2563, 336.6400
125.7384, 340.9402
126.2205, 347.9560
126.7026, 351.6746
127.1848, 346.3129
127.6669, 340.8799
128.1490, 345.6681
128.6311, 361.9624
129.1132, 378.0521
129.5953, 381.6010
130.0775, 376.1093
130.5596, 375.6939
131.0417, 391.6202
131.5238, 410.9453
132.0059, 412.1931
132.4880, 388.7880
132.9702, 366.2668
133.4523, 371.7284
133.9344, 395.1407
134.4165, 412.6276
134.8986, 412.1669
135.3807, 400.0312
135.8629, 390.2445
136.3450, 383.8655
136.8271, 379.1004
137.3092, 372.1373
137.7913, 365.0885
138.2734, 364.2237
138.7556, 379.0562
139.2377, 404.4764
139.7198, 417.2059
140.2019, 408.9986
140.6840, 398.0689
141.1661, 393.0894
141.6483, 393.6997
142.1304, 398.7118
142.6125, 409.7020
143.0946, 425.9437
143.5767, 438.5145
144.0588, 447.0177
144.5410, 451.4449
145.0231, 447.6920
145.5052, 439.1668
145.9873, 435.1453
146.4694, 446.3181
146.9515, 473.5366
147.4337, 492.4371
147.9158, 497.7609
148.3979, 498.4376
148.8800, 493.6265
149.3621, 485.9972
149.8442, 481.9287
150.3264, 488.5216
150.8085, 507.4750
151.2906, 523.3066
151.7727, 541.9430
152.2548, 552.1733
152.7369, 543.8237
153.2191, 520.8600
153.7012, 496.8671
154.1833, 485.5487
154.6654, 489.2300
155.1475, 493.7281
155.6296, 502.5187
156.1118, 509.1391
156.5939, 508.1823
157.0760, 501.2349
157.5581, 495.1603
158.0402, 497.4525
158.5223, 510.3621
159.0045, 522.3787
159.4866, 536.8525
159.9687, 548.0154
160.4508, 550.3462
160.9329, 543.5700
161.4150, 534.1700
161.8972, 532.6402
162.3793, 543.9877
162.8614, 541.4646
163.3435, 514.8495
163.8256, 486.5201
164.3077, 466.4502
164.7899, 456.3089
165.2720, 455.2553
165.7541, 464.0389
166.2362, 487.6533
166.7183, 498.5332
167.2004, 490.7139
167.6826, 477.8860
168.1647, 466.1359
168.6468, 456.9573
169.1289, 450.9467
169.6110, 449.0187
170.0931, 452.1945
170.5753, 455.0520
171.0574, 459.2513
171.5395, 462.0080
172.0216, 461.2543
172.5037, 456.9809
172.9858, 450.8978
173.4680, 444.9644
173.9501, 439.7725
174.4322, 429.6947
174.9143, 404.7071
175.3964, 382.3830
175.8785, 377.7891
176.3607, 391.0390
176.8428, 407.8656
177.3249, 415.2119
177.8070, 411.4130
178.2891, 406.6469
178.7712, 398.0563
179.2534, 390.5114
179.7355, 389.7684
180.2176, 395.5805
180.6997, 399.5506
181.1818, 392.9804
181.6639, 374.6275
182.1461, 363.3495
182.6282, 361.6669
183.1103, 365.1670
183.5924, 372.9857
184.0745, 384.4157
184.5566, 393.5906
185.0388, 394.1324
185.5209, 386.2210
186.0030, 384.1299
186.4851, 399.0391
186.9672, 412.0551
187.4493, 404.9138
187.9315, 377.8882
188.4136, 349.1973
188.8957, 330.4496
189.3778, 322.6599
189.8599, 323.5086
190.3420, 342.2905
190.8242, 362.8789
191.3063, 372.3939
191.7884, 370.9152
192.2705, 366.2653
192.7526, 362.9756
193.2347, 360.8163
193.7169, 358.3169
194.1990, 356.9415
194.6811, 354.0808
195.1632, 345.1532
195.6453, 330.8402
196.1274, 321.2763
196.6096, 325.2113
197.0917, 338.4242
197.5738, 344.5462
198.0559, 338.3013
198.5380, 329.5065
199.0201, 325.0275
199.5023, 324.4552
199.9844, 323.6696
200.4665, 318.8813
200.9486, 313.2615
201.4307, 314.8963
201.9128, 330.2264
202.3950, 344.7052
202.8771, 347.9313
203.3592, 341.1075
203.8413, 332.2743
204.3234, 324.1354
204.8055, 316.8887
205.2877, 310.2784
205.7698, 302.9270
206.2519, 298.4729
206.7340, 302.3623
207.2161, 312.4535
207.6982, 316.9847
208.1804, 308.4311
208.6625, 294.7322
209.1446, 290.5391
209.6267, 298.5296
210.1088, 307.7667
210.5909, 312.9388
211.0731, 314.5542
211.5552, 313.8788
212.0373, 309.9743
212.5194, 305.6918
213.0015, 305.6281
213.4836, 310.4071
213.9658, 315.1474
214.4479, 318.0846
214.9300, 319.2352
215.4121, 317.8885
215.8942, 312.4693
216.3763, 307.0720
216.8584, 308.8298
217.3406, 318.1750
217.8227, 323.2160
218.3048, 314.8667
218.7869, 299.3177
219.2690, 289.6856
219.7511, 289.0038
220.2333, 293.2148
220.7154, 298.6476
221.1975, 305.1557
221.6796, 312.5483
222.1617, 324.4134
222.6438, 336.1299
223.1260, 339.2136
223.6081, 331.3110
224.0902, 320.0374
224.5723, 310.4884
225.0544, 302.8268
225.5365, 299.9108
226.0187, 307.5678
226.5008, 317.9771
226.9829, 319.7798
227.4650, 311.3116
227.9471, 303.1393
228.4292, 306.2498
228.9114, 317.1864
229.3935, 321.4768
229.8756, 310.8381
230.3577, 296.7663
230.8398, 290.8899
231.3219, 293.4144
231.8041, 296.2993
232.2862, 293.3925
232.7683, 286.9868
233.2504, 285.0558
233.7325, 290.6722
234.2146, 298.4888
234.6968, 306.5189
235.1789, 314.2607
235.6610, 318.4623
236.1431, 317.3579
236.6252, 311.1974
237.1073, 301.5671
237.5895, 284.1071
238.0716, 269.7979
238.5537, 266.8783
239.0358, 272.3256
239.5179, 275.6271
240.0000, 271.3393
240.4822, 264.2810
240.9643, 266.2066
241.4464, 282.9311
241.9285, 292.2639
242.4106, 279.0196
242.8927, 253.5818
243.3749, 236.5428
243.8570, 234.5420
244.3391, 241.5438
244.8212, 249.8138
245.3033, 260.2627
245.7854, 267.7156
246.2676, 269.8188
246.7497, 268.7989
247.2318, 267.7767
247.7139, 267.4717
248.1960, 266.0013
248.6781, 259.7668
249.1603, 247.3379
249.6424, 241.3973
250.1245, 248.6191
250.6066, 259.1864
251.0887, 263.2724
251.5708, 260.3000
252.0530, 258.4499
252.5351, 266.3984
253.0172, 284.9067
253.4993, 293.9197
253.9814, 287.7678
254.4635, 277.5784
254.9457, 267.7885
255.4278, 259.3190
255.9099, 254.1530
256.3920, 254.4532
256.8741, 259.3066
257.3563, 259.5980
257.8384, 251.2202
258.3205, 243.6293
258.8026, 240.7296
259.2847, 240.9696
259.7668, 240.6410
260.2490, 237.6140
260.7311, 233.4785
261.2132, 233.6695
261.6953, 242.2771
262.1774, 249.8760
262.6595, 255.0997
263.1417, 258.8896
263.6238, 262.3489
264.1059, 265.8842
264.5880, 269.4088
265.0701, 273.0960
265.5522, 281.5660
266.0344, 281.3759
266.5165, 262.9050
266.9986, 242.3040
267.4807, 233.0745
267.9628, 237.0774
268.4449, 246.6691
268.9271, 252.8401
269.4092, 254.3295
269.8913, 256.9854
270.3734, 263.5175
270.8555, 268.6022
271.3376, 268.1920
271.8198, 263.4566
272.3019, 259.1591
272.7840, 259.8482
273.2661, 265.6119
273.7482, 265.6641
274.2303, 251.6763
274.7125, 240.5554
275.1946, 237.6903
275.6767, 240.4433
276.1588, 244.1941
276.6409, 246.2993
277.1230, 247.2666
277.6052, 249.1253
278.0873, 252.6318
278.5694, 255.9579
279.0515, 261.4843
279.5336, 265.5325
280.0157, 262.9448
280.4979, 251.9521
280.9800, 238.1970
281.4621, 231.5101
281.9442, 233.8977
282.4263, 238.0654
282.9084, 247.9001
283.3906, 255.7668
283.8727, 255.4364
284.3548, 246.7284
284.8369, 235.7979
285.3190, 227.2798
285.8011, 220.7597
286.2833, 222.1272
286.7654, 240.8437
287.2475, 258.4325
287.7296, 266.3022
288.2117, 265.4670
288.6938, 260.3641
289.1760, 251.4613
289.6581, 240.4021
290.1402, 234.5147
290.6223, 235.5148
291.1044, 238.5256
291.5865, 242.3078
292.0687, 246.1546
292.5508, 249.0170
293.0329, 250.7203
293.5150, 250.9828
293.9971, 248.8123
294.4792, 243.8509
294.9614, 239.1221
295.4435, 234.0785
295.9256, 231.0391
296.4077, 233.4669
296.8898, 243.0099
297.3719, 253.3681
297.8541, 260.7704
298.3362, 265.2118
298.8183, 265.8463
299.3004, 260.6035
299.7825, 254.2153
300.2646, 252.8843
300.7468, 256.5793
301.2289, 259.9770
301.7110, 260.4044
302.1931, 259.5776
302.6752, 260.9013
303.1573, 265.2139
303.6395, 268.3832
304.1216, 265.1442
304.6037, 256.1833
305.0858, 252.0661
305.5679, 257.2920
306.0500, 264.6089
306.5322, 270.0403
307.0143, 273.1348
307.4964, 272.4717
307.9785, 266.2708
308.4606, 256.0291
308.9427, 249.6981
309.4249, 248.2057
309.9070, 248.6199
310.3891, 252.9276
310.8712, 258.0075
311.3533, 257.3662
311.8354, 248.3426
312.3176, 236.9460
312.7997, 234.6501
313.2818, 249.6582
313.7639, 259.6914
314.2460, 260.0146
314.7281, 258.5932
315.2103, 263.7885
315.6924, 275.3393
316.1745, 284.2363
316.6566, 279.6615
317.1387, 258.2163
317.6208, 248.8389
318.1030, 266.8940
318.5851, 280.5857
319.0672, 273.0291
319.5493, 252.7652
320.0314, 239.2328
320.5135, 245.4969
320.9957, 265.4298
321.4778, 273.1248
321.9599, 259.3279
322.4420, 247.2440
322.9241, 240.8442
323.4063, 238.0172
323.8884, 238.1470
324.3705, 240.9416
324.8526, 242.5181
325.3347, 235.0182
325.8168, 215.3369
326.2990, 203.7984
326.7811, 209.7428
327.2632, 219.4017
327.7453, 226.4354
328.2274, 230.3255
328.7095, 232.0293
329.1917, 231.4928
329.6738, 229.1762
330.1559, 227.1538
330.6380, 225.8844
331.1201, 224.0159
331.6022, 219.6995
332.0844, 214.3511
332.5665, 210.6463
333.0486, 210.7099
333.5307, 211.3702
334.0128, 208.5067
334.4949, 202.2858
334.9771, 196.6774
335.4592, 193.1493
335.9413, 191.5130
336.4234, 191.4458
336.9055, 193.6907
337.3876, 195.1418
337.8698, 194.9196
338.3519, 192.8734
338.8340, 187.9368
339.3161, 179.4939
339.7982, 170.6608
340.2803, 164.3340
340.7624, 160.5230
341.2445, 161.2669
341.7267, 172.0455
342.2088, 183.1494
342.6909, 186.8523
343.1730, 184.0892
343.6551, 181.6537
344.1372, 184.6923
344.6194, 191.8395
345.1015, 192.6117
345.5836, 178.3831
346.0657, 168.5402
346.5478, 169.9815
347.0299, 176.4319
347.5121, 179.4183
347.9942, 176.0909
348.4763, 170.7536
348.9584, 171.3304
349.4405, 182.7302
349.9226, 189.0046
350.4048, 187.5232
350.8869, 183.9265
351.3690, 180.5792
351.8511, 177.9305
352.3332, 175.9168
352.8153, 175.1574
353.2975, 175.2135
353.7796, 171.0330
354.2617, 157.0765
354.7438, 147.5599
355.2259, 149.1634
355.7080, 156.8043
356.1902, 164.1876
356.6723, 169.1950
357.1544, 172.6660
357.6365, 175.2517
358.1186, 176.8221
358.6007, 179.7814
359.0829, 188.0805
359.5650, 194.7863
360.0471, 191.4456
360.5292, 177.8431
361.0113, 166.5838
361.4934, 167.5915
361.9756, 174.6067
362.4577, 173.9589
362.9398, 163.0917
363.4219, 151.6370
363.9040, 146.0671
364.3861, 146.5179
364.8683, 151.6358
365.3504, 168.2592
365.8325, 183.1161
366.3146, 188.0623
366.7967, 184.8711
367.2788, 177.3502
367.7610, 166.1952
368.2431, 154.6806
368.7252, 150.2327
369.2073, 155.6078
369.6894, 163.5298
370.1715, 178.2060
370.6537, 192.3375
371.1358, 198.7973
371.6179, 197.3508
372.1000, 193.4229
372.5821, 192.5606
373.0642, 195.1691
373.5464, 194.0485
374.0285, 181.7951
374.5106, 173.7301
374.9927, 174.7018
375.4748, 182.2156
375.9569, 193.8853
376.4391, 209.1972
376.9212, 223.5069
377.4033, 225.6247
377.8854, 210.3963
378.3675, 199.7200
378.8496, 198.9153
379.3318, 203.1553
379.8139, 213.5172
380.2960, 228.5345
380.7781, 238.4707
381.2602, 231.6281
381.7423, 213.4936
382.2245, 204.8420
382.7066, 209.1661
383.1887, 215.5358
383.6708, 217.1879
384.1529, 215.7626
384.6350, 214.1492
385.1172, 212.4769
385.5993, 211.1974
386.0814, 210.5318
386.5635, 210.5198
387.0456, 211.2010
387.5277, 212.4567
388.0099, 214.7463
388.4920, 219.3553
388.9741, 227.3208
389.4562, 233.4964
389.9383, 240.0387
390.4204, 242.6651
390.9026, 233.8543
391.3847, 215.7335
391.8668, 200.7578
392.3489, 199.2693
392.8310, 210.0700
393.3131, 217.4488
393.7953, 219.3450
394.2774, 220.1021
394.7595, 219.8497
395.2416, 219.0499
395.7237, 218.2729
396.2058, 217.6814
396.6880, 216.7680
397.1701, 214.2940
397.6522, 209.4398
398.1343, 206.8181
398.6164, 207.0431
399.0985, 209.3736
399.5807, 217.6636
400.0628, 228.1777
400.5449, 230.6676
401.0270, 214.2917
401.5091, 189.8918
401.9912, 181.3085
402.4734, 190.9799
402.9555, 201.0535
403.4376, 203.8882
403.9197, 203.1867
404.4018, 204.0189
404.8839, 206.5770
405.3661, 210.6889
405.8482, 217.7430
406.3303, 225.9620
406.8124, 232.7928
407.2945, 237.9045
407.7766, 239.0007
408.2588, 231.5852
408.7409, 215.3742
409.2230, 210.8935
409.7051, 232.9044
410.1872, 250.7342
410.6693, 245.0677
411.1515, 226.3361
411.6336, 215.9753
412.1157, 223.5796
412.5978, 239.7138
413.0799, 244.2867
413.5620, 227.2653
414.0442, 218.5038
414.5263, 221.3443
415.0084, 228.2597
415.4905, 236.6387
415.9726, 245.2818
416.4547, 252.6867
416.9369, 257.4971
417.4190, 260.2782
417.9011, 263.8349
418.3832, 269.4513
418.8653, 272.7119
419.3474, 270.1476
419.8296, 265.3607
420.3117, 261.1257
420.7938, 257.6745
421.2759, 256.6095
421.7580, 262.8705
422.2401, 272.7359
422.7223, 273.1100
423.2044, 260.1493
423.6865, 244.1635
424.1686, 232.3009
424.6507, 224.9651
425.1328, 224.0233
425.6150, 236.4716
426.0971, 248.7325
426.5792, 252.3601
427.0613, 249.9637
427.5434, 248.9484
428.0255, 252.7065
428.5077, 256.1772
428.9898, 249.0379
429.4719, 221.9653
429.9540, 204.1102
430.4361, 198.9004
430.9182, 198.8952
431.4004, 200.8241
431.8825, 204.0677
432.3646, 209.2948
432.8467, 217.8591
433.3288, 227.7013
433.8109, 230.2030
434.2931, 221.3163
434.7752, 214.4193
435.2573, 216.8096
435.7394, 220.3893
436.2215, 217.2543
436.7036, 206.2945
437.1858, 196.0112
437.6679, 192.6103
438.1500, 194.6899
438.6321, 198.9788
439.1142, 205.7536
439.5963, 211.8326
440.0785, 214.3280
440.5606, 214.1610
441.0427, 215.4768
441.5248, 221.9970
442.0069, 225.9329
442.4890, 220.7950
442.9712, 211.3829
443.4533, 206.9945
443.9354, 210.3879
444.4175, 215.4133
444.8996, 213.0893
445.3817, 199.7034
445.8639, 195.2594
446.3460, 206.8903
446.8281, 218.7378
447.3102, 225.2175
447.7923, 227.0691
448.2744, 225.7971
448.7566, 221.8020
449.2387, 217.4099
449.7208, 218.1817
450.2029, 226.0233
450.6850, 230.2922
451.1671, 224.0789
451.6493, 218.4437
452.1314, 222.5175
452.6135, 234.5845
453.0956, 244.5017
453.5777, 245.3650
454.0598, 241.9465
454.5420, 241.3071
455.0241, 243.4545
455.5062, 245.5926
455.9883, 246.1532
456.4704, 246.1102
456.9525, 247.9109
457.4347, 252.1674
457.9168, 256.2668
458.3989, 258.9392
458.8810, 261.6982
459.3631, 267.0934
459.8452, 274.5781
460.3274, 279.9815
460.8095, 279.3116
461.2916, 273.7707
461.7737, 274.1207
462.2558, 285.0263
462.7379, 295.6349
463.2201, 304.7717
463.7022, 312.6646
464.1843, 320.4154
464.6664, 327.8662
465.1485, 332.1341
465.6306, 328.1840
466.1128, 317.5636
466.5949, 311.1303
467.0770, 309.3944
467.5591, 311.5441
468.0412, 319.6370
468.5233, 330.7969
469.0055, 340.4084
469.4876, 347.8093
469.9697, 353.5138
470.4518, 357.3312
470.9339, 359.7446
471.4160, 362.1975
471.8982, 365.0513
472.3803, 366.1903
472.8624, 363.1780
473.3445, 355.6382
473.8266, 348.1227
474.3087, 338.1217
474.7909, 330.9027
475.2730, 329.1823
475.7551, 330.9052
476.2372, 334.5568
476.7193, 339.2994
477.2014, 341.6821
477.6836, 335.0272
478.1657, 317.5141
478.6478, 304.5829
479.1299, 297.3027
479.6120, 294.4244
480.0941, 298.8996
480.5763, 306.4828
481.0584, 308.2620
481.5405, 299.1830
482.0226, 286.7577
482.5047, 277.4475
482.9868, 271.0795
483.4690, 267.5426
483.9511, 267.7667
484.4332, 267.5504
484.9153, 260.7965
485.3974, 245.9549
485.8795, 236.7381
486.3617, 237.2261
486.8438, 239.4371
487.3259, 239.7594
487.8080, 238.6838
488.2901, 238.1805
488.7722, 239.1007
489.2544, 239.4110
489.7365, 234.9197
490.2186, 223.5527
490.7007, 214.0906
491.1828, 206.9148
491.6649, 201.6950
492.1471, 198.9891
492.6292, 198.0903
493.1113, 197.3255
493.5934, 195.4279
494.0755, 194.2757
494.5576, 197.8386
495.0398, 205.4063
495.5219, 209.7922
496.0040, 209.1468
496.4861, 204.3706
496.9682, 194.0403
497.4503, 177.7066
497.9325, 168.6299
498.4146, 174.0700
498.8967, 181.4585
499.3788, 182.8989
499.8609, 180.3679
500.3430, 179.1704
500.8252, 181.6340
501.3073, 185.6683
501.7894, 187.2757
502.2715, 185.0845
502.7536, 184.4203
503.2357, 188.8477
503.7179, 191.3479
504.2000, 187.4491
504.6821, 179.6181
505.1642, 172.8472
505.6463, 168.9712
506.1284, 167.9003
506.6106, 170.7832
507.0927, 177.1462
507.5748, 181.7583
508.0569, 183.0608
508.5390, 182.9760
509.0211, 183.5631
509.5033, 184.7721
509.9854, 185.0555
510.4675, 183.6958
510.9496, 181.9580
511.4317, 179.0680
511.9138, 176.5832
512.3960, 179.0191
512.8781, 187.8320
513.3602, 196.4917
513.8423, 193.6706
514.3245, 175.1475
514.8066, 164.1109
515.2887, 168.0036
515.7708, 171.7872
516.2529, 170.9430
516.7350, 166.5356
517.2172, 159.3183
517.6993, 148.2498
518.1814, 140.2843
518.6635, 146.6852
519.1456, 163.9421
519.6277, 174.2554
520.1099, 173.6178
520.5920, 168.9184
521.0741, 164.3824
521.5562, 160.5106
522.0383, 160.8441
522.5204, 168.6282
523.0026, 176.8805
523.4847, 185.6173
523.9668, 192.2724
524.4489, 192.3861
524.9310, 185.4430
525.4131, 176.4951
525.8953, 171.1301
526.3774, 169.3895
526.8595, 166.5239
527.3416, 159.9644
527.8237, 156.3316
528.3058, 159.2215
528.7880, 164.9234
529.2701, 169.1409
529.7522, 170.8562
530.2343, 173.3091
530.7164, 180.3025
531.1985, 189.3479
531.6807, 195.8788
532.1628, 199.4675
532.6449, 198.5023
533.1270, 190.2488
533.6091, 177.4818
534.0912, 171.6940
534.5734, 179.4513
535.0555, 183.7717
535.5376, 179.1832
536.0197, 173.2070
536.5018, 173.7289
536.9839, 179.5581
537.4661, 182.5194
537.9482, 176.0502
538.4303, 163.3319
538.9124, 154.5851
539.3945, 150.2935
539.8766, 148.3109
540.3588, 149.8733
540.8409, 152.0862
541.3230, 151.7008
541.8051, 149.0354
542.2872, 148.4741
542.7693, 155.1592
543.2515, 161.9449
543.7336, 160.4374
544.2157, 152.7160
544.6978, 146.5218
545.1799, 144.8949
545.6620, 146.9371
546.1442, 152.1377
546.6263, 164.3039
547.1084, 166.9279
547.5905, 149.6965
548.0726, 134.8394
548.5547, 131.6064
549.0369, 136.3410
549.5190, 143.6255
550.0011, 151.8107
550.4832, 157.6512
550.9653, 155.2255
551.4474, 146.0271
551.9296, 140.7925
552.4117, 141.1306
552.8938, 144.7323
553.3759, 152.1748
553.8580, 161.6384
554.3401, 165.7580
554.8223, 161.2120
555.3044, 155.8289
555.7865, 149.9957
556.2686, 145.7312
556.7507, 146.7009
557.2328, 152.4235
557.7150, 157.8687
558.1971, 159.0485
558.6792, 156.2910
559.1613, 150.6754
559.6434, 139.4602
560.1255, 131.5788
560.6077, 130.8859
561.0898, 133.0767
561.5719, 136.0879
562.0540, 139.5144
562.5361, 141.9137
563.0182, 142.5068
563.5004, 141.7817
563.9825, 140.9916
564.4646, 139.6005
564.9467, 132.9906
565.4288, 117.9421
565.9109, 104.6022
566.3931, 110.5618
566.8752, 145.0193
567.3573, 163.3115
567.8394, 155.7064
568.3215, 144.7045
568.8036, 136.4025
569.2858, 130.8041
569.7679, 126.9535
570.2500, 124.5636
570.7321, 123.8400
571.2142, 125.4527
571.6964, 129.0636
572.1785, 133.6952
572.6606, 140.2207
573.1427, 143.6224
573.6248, 139.6631
574.1069, 130.6528
574.5891, 123.4684
575.0712, 117.3595
575.5533, 114.3535
576.0354, 118.5113
576.5175, 123.3517
576.9996, 121.8434
577.4818, 115.1106
577.9639, 109.8437
578.4460, 110.5519
578.9281, 114.7711
579.4102, 115.4450
579.8923, 110.9241
580.3745, 110.1339
580.8566, 117.3783
581.3387, 125.4719
581.8208, 127.6343
582.3029, 126.1314
582.7850, 129.0461
583.2672, 143.7240
583.7493, 157.4791
584.2314, 160.4605
584.7135, 156.4963
585.1956, 152.9878
585.6777, 151.6385
586.1598, 149.2076
586.6419, 141.5549
587.1240, 129.2449
587.6061, 125.2874
588.0883, 138.3970
588.5704, 146.9445
589.0525, 142.6534
589.5346, 135.7375
590.0167, 137.0251
590.4988, 146.1962
590.9810, 150.8893
591.4631, 137.1117
591.9452, 117.9404
592.4273, 113.7054
592.9094, 122.8571
593.3915, 134.6721
593.8737, 146.3218
594.3558, 154.4553
594.8379, 153.1444
595.3200, 138.9742
595.8021, 130.9953
596.2842, 132.6846
596.7664, 135.8096
597.2485, 139.0083
597.7306, 141.2913
598.2127, 141.3618
598.6948, 138.9422
599.1769, 135.6142
599.6591, 132.3150
600.1412, 129.3382
600.6233, 128.5007
601.1054, 130.3592
601.5875, 129.8869
602.0696, 122.6933
602.5518, 113.3925
603.0339, 112.1285
603.5160, 121.4686
603.9981, 129.5281
604.4802, 138.7895
604.9623, 142.9570
605.4445, 132.9915
605.9266, 115.6994
606.4087, 105.6761
606.8908, 109.4008
607.3729, 118.2795
607.8550, 118.2410
608.3372, 109.6115
608.8193, 110.6003
609.3014, 127.5864
609.7835, 140.8982
610.2656, 134.3759
610.7477, 117.4955
611.2299, 112.8006
611.7120, 127.1918
