##NAMES=Molybdofornacite
##RRUFFID=R061057
##IDEAL CHEMISTRY=Cu^2+^Pb^2+^_2_Mo^6+^O_4_As^5+^O_4_(OH)
##LOCALITY=Mina Dulcinea, Carreras Pintos, Inca de Oro, Atacama Region, Chile
##OWNER=RRUFF
##SOURCE=Bob Jenkins
##DESCRIPTION=Apple green tabular crystals associated with yellow wulfenite
##STATUS=The identification of this mineral is confirmed by single-crystal X-ray diffraction and chemical analysis.
##URL=rruff.info/R061057
##MEASURED CHEMISTRY=Cu_1.00_Pb_2.00_(Mo_0.82_Cr^6+^_0.18_)_Σ=1_O_4_(As_0.93_P_0.07_)_Σ=1_O_4_(OH); OH estimated by difference and charge balance
172.1504, 606.8347
172.6325, 600.2257
173.1146, 595.0009
173.5967, 591.1946
174.0788, 588.2955
174.5610, 587.5441
175.0431, 586.8030
175.5252, 583.7564
176.0073, 577.5471
176.4894, 570.8800
176.9715, 567.4674
177.4537, 567.9773
177.9358, 566.2437
178.4179, 556.5594
178.9000, 545.7170
179.3821, 539.9565
179.8642, 541.2981
180.3464, 544.0420
180.8285, 540.6168
181.3106, 529.7357
181.7927, 520.7120
182.2748, 518.8511
182.7569, 518.7686
183.2391, 516.3452
183.7212, 510.4033
184.2033, 503.6772
184.6854, 499.1777
185.1675, 496.9822
185.6496, 496.6095
186.1318, 500.7462
186.6139, 505.1832
187.0960, 506.7466
187.5781, 504.5743
188.0602, 500.7133
188.5423, 497.9637
189.0245, 496.9604
189.5066, 494.0012
189.9887, 485.6906
190.4708, 476.4728
190.9529, 468.5512
191.4350, 462.4079
191.9172, 459.0133
192.3993, 460.7203
192.8814, 468.8905
193.3635, 475.3657
193.8456, 478.6763
194.3277, 479.3406
194.8099, 476.6456
195.2920, 470.4181
195.7741, 463.2466
196.2562, 457.8652
196.7383, 454.2535
197.2204, 452.4422
197.7026, 453.2993
198.1847, 455.5336
198.6668, 459.4762
199.1489, 465.1092
199.6310, 469.6194
200.1131, 468.8430
200.5953, 461.6269
201.0774, 456.1942
201.5595, 456.3725
202.0416, 457.3109
202.5237, 456.5342
203.0058, 453.6187
203.4880, 449.3189
203.9701, 443.4996
204.4522, 435.5948
204.9343, 430.4516
205.4164, 431.9141
205.8985, 434.2700
206.3807, 434.0006
206.8628, 430.9057
207.3449, 427.7646
207.8270, 428.0826
208.3091, 432.3405
208.7912, 434.2936
209.2734, 431.0873
209.7555, 426.9833
210.2376, 424.6192
210.7197, 423.9448
211.2018, 422.8885
211.6839, 418.5832
212.1660, 410.8647
212.6482, 406.2151
213.1303, 407.1274
213.6124, 409.7322
214.0945, 412.9149
214.5766, 416.1971
215.0587, 418.2207
215.5409, 417.3475
216.0230, 413.6995
216.5051, 410.3364
216.9872, 406.9555
217.4693, 404.5145
217.9514, 404.7065
218.4336, 406.5874
218.9157, 406.8245
219.3978, 400.9921
219.8799, 390.2352
220.3620, 384.8232
220.8441, 388.1820
221.3263, 392.9506
221.8084, 395.5060
222.2905, 396.2276
222.7726, 396.2707
223.2547, 395.8825
223.7368, 395.2917
224.2190, 395.5712
224.7011, 396.8981
225.1832, 398.8826
225.6653, 401.6828
226.1474, 404.8936
226.6295, 407.8105
227.1117, 411.0661
227.5938, 413.5293
228.0759, 411.3687
228.5580, 402.2018
229.0401, 393.5779
229.5222, 390.1979
230.0044, 389.7008
230.4865, 388.4818
230.9686, 384.1456
231.4507, 378.9500
231.9328, 377.4402
232.4149, 380.6886
232.8971, 384.2589
233.3792, 385.7286
233.8613, 386.3202
234.3434, 387.6989
234.8255, 391.2140
235.3076, 394.5603
235.7898, 393.6479
236.2719, 387.5544
236.7540, 383.2973
237.2361, 386.4408
237.7182, 392.0886
238.2003, 394.3586
238.6825, 391.0215
239.1646, 386.6072
239.6467, 385.8679
240.1288, 388.8245
240.6109, 391.7763
241.0930, 394.1544
241.5752, 395.2407
242.0573, 393.6314
242.5394, 388.1486
243.0215, 383.7387
243.5036, 385.0457
243.9857, 391.2324
244.4679, 396.6666
244.9500, 399.6969
245.4321, 401.2080
245.9142, 402.4205
246.3963, 403.2989
246.8784, 404.1012
247.3606, 405.4144
247.8427, 406.7939
248.3248, 406.5861
248.8069, 403.5987
249.2890, 400.4149
249.7711, 400.5247
250.2533, 403.8242
250.7354, 407.1110
251.2175, 409.4509
251.6996, 410.9767
252.1817, 411.5658
252.6638, 410.9227
253.1460, 410.5361
253.6281, 412.5207
254.1102, 416.6837
254.5923, 419.9433
255.0744, 421.2881
255.5565, 421.7045
256.0387, 422.1680
256.5208, 422.7819
257.0029, 423.4186
257.4850, 423.8193
257.9671, 424.0595
258.4492, 425.1012
258.9314, 427.1172
259.4135, 429.8401
259.8956, 433.1604
260.3777, 437.0590
260.8598, 441.5847
261.3419, 447.2581
261.8241, 453.6353
262.3062, 457.6377
262.7883, 457.6544
263.2704, 457.2078
263.7525, 457.5928
264.2346, 458.6971
264.7168, 459.8247
265.1989, 460.3359
265.6810, 461.0042
266.1631, 465.0679
266.6452, 477.1148
267.1273, 486.5755
267.6095, 489.6238
268.0916, 489.2851
268.5737, 489.2942
269.0558, 491.0281
269.5379, 494.9251
270.0201, 501.9413
270.5022, 517.1401
270.9843, 528.3676
271.4664, 532.7177
271.9485, 534.6072
272.4306, 537.9648
272.9128, 543.7540
273.3949, 550.5673
273.8770, 556.1188
274.3591, 558.3426
274.8412, 565.0659
275.3233, 580.8073
275.8055, 596.7649
276.2876, 605.6041
276.7697, 608.3757
277.2518, 612.6709
277.7339, 626.4495
278.2160, 651.0351
278.6982, 673.6781
279.1803, 694.2334
279.6624, 712.9985
280.1445, 728.7160
280.6266, 742.6962
281.1087, 757.5166
281.5909, 774.8768
282.0730, 794.6904
282.5551, 815.7983
283.0372, 836.7075
283.5193, 861.5665
284.0014, 895.1769
284.4836, 931.7552
284.9657, 963.2814
285.4478, 985.2885
285.9299, 1002.484
286.4120, 1024.576
286.8941, 1051.553
287.3763, 1083.727
287.8584, 1127.391
288.3405, 1172.244
288.8226, 1209.293
289.3047, 1236.000
289.7868, 1258.276
290.2690, 1282.641
290.7511, 1309.222
291.2332, 1336.227
291.7153, 1362.779
292.1974, 1390.137
292.6795, 1420.204
293.1617, 1452.680
293.6438, 1483.668
294.1259, 1509.325
294.6080, 1530.613
295.0901, 1552.803
295.5722, 1576.802
296.0544, 1601.046
296.5365, 1625.190
297.0186, 1648.960
297.5007, 1671.156
297.9828, 1690.239
298.4649, 1707.937
298.9471, 1727.312
299.4292, 1748.922
299.9113, 1769.908
300.3934, 1788.211
300.8755, 1804.440
301.3576, 1820.368
301.8398, 1836.702
302.3219, 1852.241
302.8040, 1864.705
303.2861, 1874.989
303.7682, 1888.287
304.2503, 1908.551
304.7325, 1932.121
305.2146, 1949.247
305.6967, 1958.156
306.1788, 1965.135
306.6609, 1971.393
307.1430, 1977.261
307.6252, 1982.766
308.1073, 1987.741
308.5894, 1993.863
309.0715, 2003.865
309.5536, 2019.914
310.0357, 2035.034
310.5179, 2050.689
311.0000, 2064.344
311.4821, 2070.870
311.9642, 2071.401
312.4463, 2075.415
312.9284, 2093.417
313.4106, 2128.124
313.8927, 2153.029
314.3748, 2158.927
314.8569, 2166.174
315.3390, 2182.111
315.8211, 2205.704
316.3033, 2233.681
316.7854, 2264.585
317.2675, 2297.366
317.7496, 2326.792
318.2317, 2344.634
318.7138, 2370.415
319.1960, 2411.544
319.6781, 2459.318
320.1602, 2504.497
320.6423, 2543.748
321.1244, 2580.790
321.6065, 2621.548
322.0887, 2666.714
322.5708, 2712.831
323.0529, 2760.779
323.5350, 2808.640
324.0171, 2856.885
324.4992, 2904.716
324.9814, 2947.948
325.4635, 2980.472
325.9456, 3003.712
326.4277, 3031.694
326.9098, 3072.168
327.3919, 3106.176
327.8741, 3120.544
328.3562, 3120.549
328.8383, 3118.537
329.3204, 3120.442
329.8025, 3122.912
330.2846, 3122.920
330.7668, 3121.354
331.2489, 3109.342
331.7310, 3076.805
332.2131, 3032.218
332.6952, 2993.015
333.1773, 2963.932
333.6595, 2934.449
334.1415, 2898.231
334.6237, 2856.540
335.1058, 2813.900
335.5879, 2772.181
336.0700, 2729.379
336.5521, 2680.194
337.0342, 2621.137
337.5164, 2570.351
337.9985, 2533.350
338.4806, 2504.791
338.9627, 2481.662
339.4448, 2462.750
339.9269, 2443.161
340.4091, 2418.583
340.8912, 2388.860
341.3733, 2353.928
341.8554, 2302.622
342.3375, 2258.033
342.8196, 2235.683
343.3018, 2227.395
343.7839, 2214.849
344.2660, 2187.208
344.7481, 2148.512
345.2302, 2114.120
345.7123, 2086.266
346.1945, 2060.267
346.6766, 2038.357
347.1587, 2016.274
347.6408, 1989.839
348.1229, 1957.956
348.6050, 1923.242
349.0872, 1888.859
349.5693, 1854.740
350.0514, 1820.578
350.5335, 1785.885
351.0156, 1751.619
351.4977, 1719.365
351.9799, 1688.148
352.4620, 1655.222
352.9441, 1618.309
353.4262, 1578.287
353.9083, 1538.279
354.3904, 1498.449
354.8726, 1457.984
355.3547, 1412.164
355.8368, 1366.783
356.3189, 1331.731
356.8010, 1313.498
357.2831, 1298.000
357.7653, 1272.114
358.2474, 1237.633
358.7295, 1204.536
359.2116, 1175.594
359.6937, 1150.089
360.1758, 1126.829
360.6580, 1105.726
361.1401, 1086.527
361.6222, 1069.508
362.1043, 1054.278
362.5864, 1040.820
363.0685, 1028.976
363.5507, 1017.507
364.0328, 1004.881
364.5149, 990.8654
364.9970, 981.3351
365.4791, 976.7424
365.9612, 975.3258
366.4434, 979.0345
366.9255, 985.1074
367.4076, 987.9960
367.8897, 984.6924
368.3718, 978.1672
368.8539, 976.7263
369.3361, 983.4226
369.8182, 990.4763
370.3003, 997.8171
370.7824, 1004.946
371.2645, 1011.404
371.7466, 1017.157
372.2288, 1022.658
372.7109, 1029.724
373.1930, 1038.640
373.6751, 1040.691
374.1572, 1029.067
374.6393, 1019.078
375.1215, 1018.866
375.6036, 1025.155
376.0857, 1031.573
376.5678, 1036.621
377.0499, 1038.912
377.5320, 1035.401
378.0142, 1025.729
378.4963, 1015.287
378.9784, 1007.394
379.4605, 998.8154
379.9426, 985.3578
380.4247, 966.6119
380.9069, 944.3094
381.3890, 916.5603
381.8711, 886.2576
382.3532, 857.8336
382.8353, 831.8918
383.3174, 809.7374
383.7996, 793.4667
384.2817, 783.9908
384.7638, 772.7552
385.2459, 757.3940
385.7280, 742.5350
386.2101, 730.4362
386.6923, 720.8455
387.1744, 712.9606
387.6565, 706.3770
388.1386, 700.9634
388.6207, 696.1542
389.1028, 689.3358
389.5850, 687.3406
390.0671, 694.5018
390.5492, 703.7739
391.0313, 710.0169
391.5134, 712.0975
391.9955, 711.3224
392.4777, 706.5052
392.9598, 696.9384
393.4419, 698.8063
393.9240, 723.0225
394.4061, 744.8789
394.8882, 751.1106
395.3704, 747.7864
395.8525, 746.4603
396.3346, 752.3474
396.8167, 761.7942
397.2988, 769.6143
397.7809, 775.7440
398.2631, 783.0192
398.7452, 793.8040
399.2273, 804.8661
399.7094, 810.8699
400.1915, 810.5971
400.6736, 812.6990
401.1558, 823.1979
401.6379, 836.8839
402.1200, 846.8929
402.6021, 852.3214
403.0842, 854.4578
403.5663, 853.8978
404.0485, 850.6461
404.5306, 848.0547
405.0127, 846.1654
405.4948, 844.7936
405.9769, 846.5399
406.4590, 848.1414
406.9412, 842.8765
407.4233, 828.0978
407.9054, 810.1489
408.3875, 802.2397
408.8696, 810.9911
409.3517, 814.6721
409.8339, 811.7288
410.3160, 804.9893
410.7981, 794.5767
411.2802, 781.4362
411.7623, 767.8347
412.2444, 755.0155
412.7266, 743.1239
413.2087, 732.4632
413.6908, 723.2141
414.1729, 714.7498
414.6550, 708.3245
415.1371, 701.8832
415.6193, 692.3597
416.1014, 678.2469
416.5835, 664.7743
417.0656, 656.7630
417.5477, 652.3635
418.0298, 646.4935
418.5120, 637.9858
418.9941, 627.9850
419.4762, 617.5462
419.9583, 606.6409
420.4404, 595.1517
420.9225, 582.5409
421.4047, 569.7776
421.8868, 555.8775
422.3689, 542.2416
422.8510, 532.7652
423.3331, 529.8088
423.8152, 530.5811
424.2974, 527.5898
424.7795, 518.7778
425.2616, 509.3578
425.7437, 496.9689
426.2258, 485.9952
426.7079, 480.3684
427.1901, 479.7239
427.6722, 480.0692
428.1543, 478.1494
428.6364, 474.2563
429.1185, 470.0958
429.6006, 464.6750
430.0828, 461.0175
430.5649, 462.6971
431.0470, 465.9797
431.5291, 466.1285
432.0112, 461.5927
432.4933, 455.4108
432.9755, 449.2032
433.4576, 443.2535
433.9397, 438.7034
434.4218, 435.9757
434.9039, 434.1028
435.3860, 432.7137
435.8682, 431.9077
436.3503, 428.2232
436.8324, 417.4749
437.3145, 407.4066
437.7966, 403.5234
438.2787, 404.2026
438.7609, 405.2259
439.2430, 404.5710
439.7251, 402.2820
440.2072, 398.2710
440.6893, 390.2286
441.1714, 384.5410
441.6536, 382.1620
442.1357, 381.2200
442.6178, 381.0609
443.0999, 381.2817
443.5820, 381.1978
444.0641, 380.4691
444.5463, 378.9771
445.0284, 375.8552
445.5105, 370.1872
445.9926, 365.3639
446.4747, 363.4101
446.9568, 362.8738
447.4390, 362.1613
447.9211, 360.8919
448.4032, 360.1605
448.8853, 361.2422
449.3674, 363.2590
449.8495, 364.3456
450.3317, 364.1401
450.8138, 363.2764
451.2959, 362.2377
451.7780, 361.0266
452.2601, 359.8283
452.7422, 358.6484
453.2244, 357.4875
453.7065, 357.3760
454.1886, 357.0067
454.6707, 353.3966
455.1528, 345.5365
455.6349, 337.0892
456.1171, 334.6482
456.5992, 340.8956
457.0813, 344.7029
457.5634, 345.9450
458.0455, 344.6546
458.5276, 338.9603
459.0098, 330.6858
459.4919, 323.9688
459.9740, 321.4143
460.4561, 320.8653
460.9382, 318.4581
461.4203, 314.0736
461.9025, 310.9971
462.3846, 311.4804
462.8667, 312.4488
463.3488, 308.7199
463.8309, 299.6397
464.3130, 293.6917
464.7952, 297.0595
465.2773, 302.1525
465.7594, 300.7034
466.2415, 293.1801
466.7236, 285.5025
467.2057, 281.3492
467.6879, 280.1008
468.1700, 279.1859
468.6521, 280.1091
469.1342, 279.2843
469.6163, 274.8257
470.0984, 269.7680
470.5806, 266.2545
471.0627, 264.6903
471.5448, 264.6046
472.0269, 266.7292
472.5090, 270.2246
472.9911, 268.6911
473.4733, 259.4904
473.9554, 251.2447
474.4375, 249.1452
474.9196, 249.6152
475.4017, 248.6386
475.8839, 245.2580
476.3660, 241.8459
476.8481, 240.1787
477.3302, 239.4429
477.8123, 237.6737
478.2944, 234.5000
478.7766, 232.0120
479.2587, 232.4467
479.7408, 235.7084
480.2229, 236.7994
480.7050, 234.9359
481.1871, 232.2020
481.6693, 228.2958
482.1514, 224.2301
482.6335, 221.2388
483.1156, 219.6786
483.5977, 218.9607
484.0798, 218.6406
484.5620, 218.8716
485.0441, 217.8706
485.5262, 214.1351
486.0083, 211.1987
486.4904, 210.4646
486.9725, 211.5114
487.4547, 213.9315
487.9368, 218.3085
488.4189, 222.3148
488.9010, 223.5378
489.3831, 222.4628
489.8652, 220.6622
490.3474, 218.2329
490.8295, 216.3163
491.3116, 216.5946
491.7937, 219.4193
492.2758, 219.7246
492.7579, 214.5759
493.2401, 210.0139
493.7222, 209.3110
494.2043, 210.9130
494.6864, 212.2381
495.1685, 212.2548
495.6506, 211.1105
496.1328, 208.7567
496.6149, 204.6604
497.0970, 201.4811
497.5791, 199.2953
498.0612, 198.0773
498.5433, 199.2116
499.0254, 201.1369
499.5075, 200.2510
499.9897, 193.5001
500.4718, 186.5112
500.9539, 186.7978
501.4360, 192.9318
501.9181, 196.7836
502.4002, 195.6955
502.8824, 193.1979
503.3645, 193.8339
503.8466, 198.2605
504.3287, 199.3600
504.8108, 193.2847
505.2929, 187.5271
505.7751, 186.0295
506.2572, 187.5703
506.7393, 189.9835
507.2214, 192.3365
507.7035, 194.0517
508.1856, 193.7891
508.6678, 190.7794
509.1499, 189.0532
509.6320, 190.9203
510.1141, 191.7213
510.5962, 187.7725
511.0783, 181.3471
511.5605, 177.5045
512.0426, 178.8429
512.5247, 182.1044
513.0068, 184.4722
513.4890, 185.9130
513.9711, 185.9397
514.4532, 184.0821
514.9353, 182.1158
515.4174, 182.3066
515.8995, 185.0716
516.3817, 186.3996
516.8638, 184.8472
517.3459, 183.4052
517.8280, 183.7331
518.3101, 184.9498
518.7922, 185.4034
519.2744, 184.5125
519.7565, 183.3311
520.2386, 183.6818
520.7207, 185.9390
521.2028, 186.8953
521.6849, 185.8838
522.1671, 184.3053
522.6492, 182.5974
523.1313, 180.9028
523.6134, 179.4429
524.0955, 178.1779
524.5776, 177.3764
525.0598, 177.6690
525.5419, 178.5703
526.0240, 178.7016
526.5061, 177.7348
526.9882, 176.5268
527.4703, 175.8963
527.9525, 175.8567
528.4346, 175.8202
528.9167, 175.0865
529.3988, 175.1909
529.8809, 178.7915
530.3630, 182.3397
530.8452, 180.4238
531.3273, 172.2756
531.8094, 164.0623
532.2915, 163.8326
532.7736, 170.8032
533.2557, 172.2925
533.7379, 165.0506
534.2200, 160.1897
534.7021, 166.8513
535.1842, 178.2014
535.6663, 183.0667
536.1484, 178.0553
536.6306, 173.6014
537.1127, 176.5619
537.5948, 181.8432
538.0769, 181.8951
538.5590, 176.3672
539.0411, 170.7395
539.5233, 168.9465
540.0054, 170.5712
540.4875, 173.4924
540.9696, 180.5541
541.4517, 184.3874
541.9338, 181.8718
542.4160, 177.9475
542.8981, 175.9542
543.3802, 176.2163
543.8623, 177.4913
544.3444, 179.5703
544.8265, 181.7892
545.3087, 183.2914
545.7908, 184.1212
546.2729, 181.8588
546.7550, 173.9610
547.2371, 164.6000
547.7192, 160.9525
548.2014, 163.9028
548.6835, 166.9893
549.1656, 171.0001
549.6477, 173.5699
550.1298, 171.8713
550.6119, 167.5809
551.0941, 164.6715
551.5762, 165.1044
552.0583, 167.2325
552.5404, 167.9717
553.0225, 166.9929
553.5046, 166.4046
553.9868, 166.2985
554.4689, 166.7157
554.9510, 167.6176
555.4331, 169.0021
555.9152, 171.1098
556.3973, 175.3974
556.8795, 178.1333
557.3616, 174.5485
557.8437, 167.6639
558.3258, 164.4760
558.8079, 166.5204
559.2900, 169.9917
559.7722, 171.3006
560.2543, 170.4709
560.7364, 169.8028
561.2185, 169.9555
561.7006, 169.4487
562.1827, 166.6707
562.6649, 163.9629
563.1470, 164.8199
563.6291, 169.1751
564.1112, 171.8468
564.5933, 166.0978
565.0754, 155.6818
565.5576, 152.4180
566.0397, 157.0358
566.5218, 160.5993
567.0039, 158.3049
567.4860, 153.4109
567.9681, 152.5163
568.4503, 156.5876
568.9324, 160.2933
569.4145, 162.7650
569.8966, 164.7838
570.3787, 167.3016
570.8608, 169.7893
571.3430, 170.5885
571.8251, 168.7405
572.3072, 166.0683
572.7893, 166.6390
573.2714, 171.2908
573.7535, 172.8356
574.2357, 168.8373
574.7178, 163.9944
575.1999, 160.4977
575.6820, 158.4807
576.1641, 158.5160
576.6462, 162.0862
577.1284, 165.6146
577.6105, 166.6253
578.0926, 166.3209
578.5747, 166.9567
579.0568, 168.8272
579.5389, 170.1472
580.0211, 169.2410
580.5032, 166.3492
580.9852, 163.7452
581.4673, 160.9555
581.9495, 159.2579
582.4316, 158.5364
582.9137, 159.0742
583.3958, 161.5241
583.8779, 165.6817
584.3600, 170.0071
584.8422, 175.4538
585.3243, 179.4919
585.8064, 176.1528
586.2885, 166.9143
586.7706, 162.5845
587.2527, 168.1245
587.7349, 176.7544
588.2170, 178.1551
588.6991, 169.8331
589.1812, 164.9761
589.6633, 165.3531
590.1454, 166.8607
590.6276, 168.9358
591.1097, 170.8354
591.5918, 171.9131
592.0739, 171.9393
592.5560, 170.5965
593.0381, 165.7703
593.5203, 158.9892
594.0024, 157.9682
594.4845, 164.1758
594.9666, 169.9290
595.4487, 170.8624
595.9308, 168.5844
596.4130, 167.2205
596.8951, 166.9208
597.3772, 167.0093
597.8593, 167.4246
598.3414, 168.1660
598.8235, 169.8787
599.3057, 171.9234
599.7878, 172.7104
600.2699, 171.3516
600.7520, 168.5325
601.2341, 164.7688
601.7162, 159.8616
602.1984, 157.7901
602.6805, 160.2708
603.1626, 163.5558
603.6447, 165.0137
604.1268, 165.1206
604.6089, 165.1271
605.0911, 164.6291
605.5732, 164.8013
606.0553, 166.7187
606.5374, 169.2222
607.0195, 171.3591
607.5016, 172.7556
607.9838, 172.6384
608.4659, 170.1243
608.9480, 166.0891
609.4301, 163.9622
609.9122, 164.3289
610.3943, 164.6611
610.8765, 164.4842
611.3586, 164.0959
611.8407, 163.4678
612.3228, 162.7512
612.8049, 162.7176
613.2870, 164.0051
613.7692, 165.6286
614.2513, 167.5465
614.7334, 169.1878
615.2155, 169.0112
615.6976, 166.8114
616.1797, 164.5599
616.6619, 164.2802
617.1440, 165.8493
617.6261, 167.7662
618.1082, 171.1022
618.5903, 172.7306
619.0724, 170.1037
619.5546, 166.7103
620.0367, 165.4112
620.5188, 166.2951
621.0009, 167.4253
621.4830, 168.8074
621.9651, 169.3861
622.4473, 166.6631
622.9294, 162.2238
623.4115, 161.0066
623.8936, 164.6966
624.3757, 170.4219
624.8578, 174.7622
625.3400, 177.6648
625.8221, 179.5811
626.3042, 180.7886
626.7863, 180.5282
627.2684, 177.5541
627.7505, 173.7870
628.2327, 170.9244
628.7148, 169.2448
629.1969, 168.7412
629.6790, 170.8470
630.1611, 173.2094
630.6432, 172.1353
631.1254, 168.4300
631.6075, 166.0425
632.0896, 166.6199
632.5717, 168.3473
633.0538, 168.2893
633.5359, 165.8281
634.0181, 165.0791
634.5002, 167.1022
634.9823, 169.6065
635.4644, 172.9892
635.9465, 175.9441
636.4286, 176.3560
636.9108, 173.7654
637.3929, 171.8582
637.8750, 173.8223
638.3571, 177.3016
638.8392, 179.1000
639.3214, 179.2503
639.8035, 178.8709
640.2856, 178.4672
640.7677, 177.6966
641.2498, 175.8016
641.7319, 172.2467
642.2141, 169.8457
642.6962, 167.4346
643.1783, 167.6818
643.6604, 174.3880
644.1425, 182.8202
644.6246, 186.5457
645.1068, 184.0865
645.5889, 180.6036
646.0710, 179.4014
646.5531, 179.0479
647.0352, 176.4169
647.5173, 172.2959
647.9995, 171.8597
648.4816, 177.8843
648.9637, 186.4952
649.4458, 191.0055
649.9279, 190.5846
650.4100, 189.4577
650.8922, 186.4238
651.3743, 184.1492
651.8564, 183.4933
652.3385, 184.0741
652.8206, 185.5801
653.3027, 188.0300
653.7849, 190.5168
654.2670, 193.4860
654.7491, 195.5963
655.2312, 194.4062
655.7133, 190.5780
656.1954, 186.7494
656.6776, 183.9726
657.1597, 183.3944
657.6418, 187.7713
658.1239, 198.8546
658.6060, 205.0752
659.0881, 203.4011
659.5703, 201.0432
660.0524, 200.4731
660.5345, 200.8073
661.0166, 200.9458
661.4987, 200.6866
661.9808, 200.8465
662.4630, 202.1342
662.9451, 203.7722
663.4272, 204.7802
663.9093, 205.4363
664.3914, 207.3044
