##NAMES=Molybdophyllite
##RRUFFID=R070222
##IDEAL CHEMISTRY=Pb^2+^_8_Mg_9_[Si_10_O_30_(OH)_8_(CO_3_)_3_]&#183;H_2_O
##LOCALITY=Langban, Filipstad, Varmland, Sweden
##OWNER=RRUFF
##SOURCE=Michael Scott
##DESCRIPTION=Colorless tabular crystals associated with hausmannite, with cell parameters that match the so-called molybdophyllite-18 phase (Kolitsch et al, 2012)
##STATUS=The identification of this mineral has been confirmed only by single crystal X-ray diffraction.
##URL=rruff.info/R070222
131.8235, 11229.78
132.3056, 11717.33
132.7877, 12209.99
133.2699, 12697.94
133.7520, 13182.69
134.2341, 13677.80
134.7162, 14191.72
135.1983, 14726.67
135.6804, 15254.50
136.1626, 15763.98
136.6447, 16273.21
137.1268, 16821.02
137.6089, 17413.13
138.0910, 18009.52
138.5731, 18576.58
139.0553, 19116.62
139.5374, 19646.29
140.0195, 20157.34
140.5016, 20659.21
140.9837, 21171.75
141.4658, 21714.46
141.9480, 22245.04
142.4301, 22735.24
142.9122, 23194.17
143.3943, 23592.24
143.8764, 23931.64
144.3585, 24209.51
144.8407, 24417.88
145.3228, 24540.76
145.8049, 24604.59
146.2870, 24633.49
146.7691, 24649.19
147.2512, 24601.68
147.7334, 24477.66
148.2155, 24266.81
148.6976, 24018.77
149.1797, 23693.40
149.6618, 23341.58
150.1439, 23033.40
150.6261, 22809.53
151.1082, 22596.35
151.5903, 22385.57
152.0724, 22202.36
152.5545, 21964.79
153.0366, 21638.26
153.5188, 21255.36
154.0009, 20881.76
154.4830, 20540.06
154.9651, 20195.84
155.4472, 19828.00
155.9293, 19404.98
156.4115, 19002.95
156.8936, 18632.49
157.3757, 18292.62
157.8578, 17973.77
158.3399, 17678.65
158.8221, 17401.15
159.3042, 17134.33
159.7863, 16881.00
160.2684, 16634.09
160.7505, 16389.05
161.2326, 16145.25
161.7148, 15915.39
162.1969, 15702.34
162.6790, 15505.50
163.1611, 15326.85
163.6432, 15173.00
164.1253, 15030.56
164.6075, 14892.06
165.0896, 14757.24
165.5717, 14631.82
166.0538, 14525.38
166.5359, 14429.21
167.0180, 14330.61
167.5002, 14214.71
167.9823, 14099.49
168.4644, 13999.07
168.9465, 13915.45
169.4286, 13839.97
169.9107, 13769.99
170.3929, 13703.99
170.8750, 13636.91
171.3571, 13566.48
171.8392, 13494.34
172.3213, 13421.46
172.8034, 13347.81
173.2856, 13276.41
173.7677, 13204.08
174.2498, 13134.44
174.7319, 13080.95
175.2140, 13068.42
175.6961, 13073.25
176.1783, 13058.18
176.6604, 13012.10
177.1425, 12952.42
177.6246, 12895.91
178.1067, 12843.28
178.5888, 12795.20
179.0710, 12755.23
179.5531, 12720.92
180.0352, 12688.04
180.5173, 12657.11
180.9994, 12625.88
181.4815, 12589.00
181.9637, 12546.44
182.4458, 12507.10
182.9279, 12486.11
183.4100, 12476.53
183.8921, 12450.57
184.3742, 12389.47
184.8564, 12311.57
185.3385, 12262.82
185.8206, 12244.22
186.3027, 12237.58
186.7848, 12227.49
187.2669, 12214.04
187.7491, 12197.50
188.2312, 12175.03
188.7133, 12149.49
189.1954, 12131.02
189.6775, 12120.01
190.1596, 12114.97
190.6418, 12119.40
191.1239, 12132.80
191.6060, 12136.77
192.0881, 12115.45
192.5702, 12073.37
193.0524, 12053.68
193.5345, 12061.24
194.0166, 12078.58
194.4987, 12081.19
194.9808, 12068.75
195.4629, 12045.89
195.9451, 12008.78
196.4272, 11957.47
196.9093, 11922.20
197.3914, 11908.47
197.8735, 11903.62
198.3556, 11880.86
198.8378, 11837.00
199.3199, 11796.08
199.8020, 11775.07
200.2841, 11776.16
200.7662, 11768.54
201.2483, 11751.85
201.7305, 11724.26
202.2126, 11675.63
202.6947, 11599.31
203.1768, 11526.88
203.6589, 11478.71
204.1410, 11458.20
204.6232, 11442.41
205.1053, 11433.68
205.5874, 11426.53
206.0695, 11398.49
206.5516, 11341.21
207.0337, 11284.96
207.5159, 11250.14
207.9980, 11240.00
208.4801, 11240.14
208.9622, 11254.16
209.4443, 11277.04
209.9264, 11283.54
210.4086, 11270.50
210.8907, 11247.29
211.3728, 11218.00
211.8549, 11177.16
212.3370, 11149.39
212.8191, 11144.70
213.3013, 11158.49
213.7834, 11149.32
214.2655, 11108.40
214.7476, 11058.50
215.2297, 11021.31
215.7118, 11004.11
216.1940, 10977.51
216.6761, 10931.33
217.1582, 10866.99
217.6403, 10824.00
218.1224, 10818.05
218.6045, 10813.21
219.0867, 10771.17
219.5688, 10674.26
220.0509, 10582.57
220.5330, 10511.56
221.0151, 10460.80
221.4972, 10407.42
221.9794, 10351.28
222.4615, 10292.21
222.9436, 10224.39
223.4257, 10128.92
223.9078, 10064.96
224.3899, 10059.74
224.8721, 10121.03
225.3542, 10135.31
225.8363, 10081.64
226.3184, 10000.99
226.8005, 9940.102
227.2827, 9905.256
227.7648, 9879.577
228.2469, 9862.568
228.7290, 9857.015
229.2111, 9837.403
229.6932, 9792.955
230.1754, 9743.415
230.6575, 9714.324
231.1396, 9711.906
231.6217, 9720.120
232.1038, 9741.378
232.5859, 9783.992
233.0681, 9793.407
233.5502, 9758.100
234.0323, 9698.070
234.5144, 9638.392
234.9965, 9569.304
235.4786, 9518.283
235.9608, 9498.404
236.4429, 9519.287
236.9250, 9525.971
237.4071, 9506.405
237.8892, 9480.092
238.3713, 9480.140
238.8535, 9523.779
239.3356, 9564.887
239.8177, 9587.014
240.2998, 9583.098
240.7819, 9588.012
241.2640, 9606.772
241.7462, 9631.518
242.2283, 9648.464
242.7104, 9653.275
243.1925, 9657.271
243.6746, 9662.099
244.1567, 9663.700
244.6389, 9681.572
245.1210, 9722.866
245.6031, 9776.033
246.0852, 9821.424
246.5673, 9859.914
247.0494, 9889.005
247.5316, 9905.614
248.0137, 9904.092
248.4958, 9909.975
248.9779, 9928.253
249.4600, 9951.108
249.9421, 9962.559
250.4243, 9955.684
250.9064, 9950.039
251.3885, 9954.951
251.8706, 9977.617
252.3527, 9986.133
252.8348, 9976.184
253.3170, 9954.849
253.7991, 9937.113
254.2812, 9931.028
254.7633, 9913.365
255.2454, 9870.348
255.7275, 9790.066
256.2097, 9731.509
256.6918, 9703.986
257.1739, 9692.440
257.6560, 9667.685
258.1381, 9622.591
258.6202, 9578.881
259.1024, 9545.648
259.5845, 9527.106
260.0666, 9501.474
260.5487, 9462.354
261.0308, 9421.080
261.5129, 9400.363
261.9951, 9411.182
262.4772, 9416.603
262.9593, 9397.501
263.4414, 9344.063
263.9235, 9314.309
264.4056, 9316.994
264.8878, 9334.922
265.3699, 9336.442
265.8520, 9315.405
266.3341, 9295.608
266.8162, 9288.215
267.2983, 9296.613
267.7805, 9294.440
268.2626, 9276.511
268.7447, 9253.789
269.2268, 9249.586
269.7089, 9272.111
270.1910, 9283.499
270.6732, 9261.487
271.1553, 9200.194
271.6374, 9167.950
272.1195, 9174.150
272.6016, 9195.597
273.0837, 9195.705
273.5659, 9172.427
274.0480, 9138.396
274.5301, 9088.739
275.0122, 9022.078
275.4943, 8992.542
275.9764, 9008.354
276.4586, 9045.833
276.9407, 9073.562
277.4228, 9091.307
277.9049, 9098.936
278.3870, 9093.938
278.8691, 9076.814
279.3513, 9055.752
279.8334, 9026.828
280.3155, 9004.050
280.7976, 9013.478
281.2798, 9056.717
281.7619, 9092.448
282.2440, 9097.439
282.7261, 9077.953
283.2082, 9086.338
283.6903, 9128.185
284.1725, 9177.334
284.6546, 9194.576
285.1367, 9181.456
285.6188, 9183.249
286.1009, 9225.791
286.5830, 9297.145
287.0652, 9343.354
287.5473, 9361.072
288.0294, 9371.159
288.5115, 9398.507
288.9936, 9440.769
289.4757, 9477.007
289.9579, 9495.200
290.4400, 9503.740
290.9221, 9526.878
291.4042, 9565.209
291.8863, 9610.736
292.3684, 9657.416
292.8506, 9704.985
293.3327, 9752.962
293.8148, 9801.805
294.2969, 9850.914
294.7790, 9900.494
295.2611, 9950.755
295.7433, 10000.18
296.2254, 10042.16
296.7075, 10082.52
297.1896, 10137.47
297.6717, 10225.68
298.1538, 10320.12
298.6360, 10375.17
299.1181, 10393.75
299.6002, 10404.44
300.0823, 10421.80
300.5644, 10447.90
301.0465, 10489.29
301.5287, 10559.92
302.0108, 10631.13
302.4929, 10665.73
302.9750, 10668.74
303.4571, 10666.92
303.9392, 10674.46
304.4214, 10689.29
304.9035, 10711.72
305.3856, 10751.70
305.8677, 10782.46
306.3498, 10776.12
306.8319, 10739.21
307.3141, 10694.28
307.7962, 10646.18
308.2783, 10600.93
308.7604, 10566.74
309.2425, 10554.10
309.7246, 10534.79
310.2068, 10485.72
310.6889, 10415.13
311.1710, 10344.04
311.6531, 10282.27
312.1352, 10223.99
312.6173, 10165.36
313.0995, 10105.87
313.5816, 10047.59
314.0637, 9992.321
314.5458, 9938.602
315.0279, 9883.239
315.5100, 9830.153
315.9922, 9771.238
316.4743, 9696.242
316.9564, 9595.799
317.4385, 9513.399
317.9206, 9482.715
318.4027, 9474.282
318.8849, 9446.927
319.3670, 9369.510
319.8491, 9288.972
320.3312, 9219.783
320.8133, 9162.315
321.2954, 9119.829
321.7776, 9108.844
322.2597, 9106.662
322.7418, 9089.089
323.2239, 9034.176
323.7060, 8982.000
324.1881, 8945.928
324.6703, 8928.487
325.1524, 8899.151
325.6345, 8837.061
326.1166, 8772.579
326.5987, 8729.799
327.0808, 8736.954
327.5630, 8732.796
328.0451, 8709.111
328.5272, 8666.505
329.0093, 8616.881
329.4914, 8551.572
329.9735, 8488.263
330.4557, 8440.467
330.9378, 8426.133
331.4199, 8394.390
331.9020, 8327.803
332.3841, 8238.372
332.8662, 8188.565
333.3484, 8202.751
333.8305, 8220.335
334.3126, 8207.859
334.7947, 8157.841
335.2768, 8100.059
335.7589, 8031.429
336.2411, 7958.453
336.7232, 7896.729
337.2053, 7849.913
337.6874, 7804.955
338.1695, 7752.897
338.6516, 7692.103
339.1338, 7644.095
339.6159, 7613.513
340.0980, 7589.667
340.5801, 7554.330
341.0622, 7505.748
341.5443, 7457.700
342.0265, 7414.700
342.5086, 7376.755
342.9907, 7339.100
343.4728, 7301.016
343.9549, 7267.307
344.4370, 7247.103
344.9192, 7239.138
345.4013, 7230.312
345.8834, 7214.288
346.3655, 7194.756
346.8476, 7182.658
347.3297, 7178.191
347.8119, 7176.318
348.2940, 7178.388
348.7761, 7180.101
349.2582, 7167.292
349.7403, 7126.820
350.2225, 7079.089
350.7046, 7056.490
351.1867, 7055.905
351.6688, 7054.842
352.1509, 7035.162
352.6331, 7005.118
353.1152, 6977.783
353.5973, 6958.805
354.0794, 6938.032
354.5615, 6901.198
355.0436, 6853.992
355.5258, 6813.728
356.0079, 6800.524
356.4900, 6792.543
356.9721, 6767.695
357.4542, 6716.289
357.9363, 6669.401
358.4185, 6650.634
358.9006, 6647.529
359.3827, 6638.533
359.8648, 6604.413
360.3469, 6570.826
360.8290, 6554.464
361.3112, 6559.841
361.7933, 6559.012
362.2754, 6535.919
362.7575, 6504.708
363.2396, 6480.650
363.7217, 6466.461
364.2039, 6460.803
364.6860, 6470.576
365.1681, 6495.930
365.6502, 6505.480
366.1323, 6478.716
366.6144, 6445.407
367.0966, 6426.043
367.5787, 6435.589
368.0608, 6441.714
368.5429, 6439.147
369.0250, 6430.548
369.5071, 6430.541
369.9893, 6451.114
370.4714, 6466.379
370.9535, 6460.508
371.4356, 6413.565
371.9177, 6392.182
372.3998, 6405.845
372.8820, 6441.181
373.3641, 6469.042
373.8462, 6487.796
374.3283, 6503.237
374.8104, 6518.359
375.2925, 6533.926
375.7747, 6538.422
376.2568, 6526.089
376.7389, 6514.152
377.2210, 6532.646
377.7031, 6584.536
378.1852, 6622.918
378.6674, 6625.263
379.1495, 6603.099
379.6316, 6608.423
380.1137, 6643.178
380.5958, 6687.417
381.0779, 6722.207
381.5601, 6750.314
382.0422, 6783.907
382.5243, 6830.505
383.0064, 6878.749
383.4885, 6907.848
383.9706, 6919.993
384.4528, 6929.317
384.9349, 6943.525
385.4170, 6961.815
385.8991, 6982.864
386.3812, 7006.354
386.8633, 7033.677
387.3455, 7068.807
387.8276, 7108.807
388.3097, 7147.592
388.7918, 7184.346
389.2739, 7216.757
389.7560, 7240.106
390.2382, 7252.974
390.7203, 7269.673
391.2024, 7308.827
391.6845, 7352.277
392.1666, 7379.521
392.6487, 7355.235
393.1309, 7339.948
393.6130, 7363.270
394.0951, 7422.242
394.5772, 7478.221
395.0593, 7523.470
395.5414, 7561.387
396.0236, 7593.624
396.5057, 7618.499
396.9878, 7640.090
397.4699, 7651.033
397.9520, 7657.828
398.4341, 7680.814
398.9163, 7733.240
399.3984, 7788.128
399.8805, 7835.612
400.3626, 7872.340
400.8447, 7911.643
401.3268, 7954.635
401.8090, 7999.339
402.2911, 8044.107
402.7732, 8088.999
403.2553, 8133.114
403.7374, 8179.085
404.2195, 8225.973
404.7017, 8252.298
405.1838, 8250.696
405.6659, 8248.674
406.1480, 8273.647
406.6301, 8326.077
407.1122, 8378.372
407.5944, 8425.550
408.0765, 8469.999
408.5586, 8518.831
409.0407, 8572.077
409.5228, 8619.766
410.0049, 8653.907
410.4871, 8676.948
410.9692, 8696.162
411.4513, 8712.449
411.9334, 8724.303
412.4155, 8725.446
412.8976, 8720.204
413.3798, 8720.894
413.8619, 8737.932
414.3440, 8760.918
414.8261, 8784.910
415.3082, 8809.547
415.7903, 8818.338
416.2725, 8789.395
416.7546, 8743.008
417.2367, 8701.474
417.7188, 8678.185
418.2009, 8655.137
418.6830, 8622.413
419.1652, 8582.714
419.6473, 8547.227
420.1294, 8522.673
420.6115, 8500.798
421.0937, 8477.573
421.5758, 8455.568
422.0579, 8426.440
422.5400, 8382.784
423.0221, 8332.638
423.5042, 8288.364
423.9864, 8260.273
424.4685, 8227.451
424.9506, 8183.393
425.4327, 8127.684
425.9148, 8072.375
426.3969, 8011.889
426.8791, 7958.157
427.3612, 7926.241
427.8433, 7927.894
428.3254, 7913.913
428.8075, 7873.673
429.2896, 7814.628
429.7718, 7762.451
430.2539, 7717.783
430.7360, 7675.900
431.2181, 7637.061
431.7002, 7600.611
432.1823, 7554.347
432.6645, 7494.786
433.1466, 7434.812
433.6287, 7397.778
434.1108, 7378.798
434.5929, 7352.926
435.0750, 7301.471
435.5572, 7240.629
436.0393, 7198.917
436.5214, 7175.837
437.0035, 7160.718
437.4856, 7152.901
437.9677, 7145.787
438.4499, 7129.875
438.9320, 7100.560
439.4141, 7065.630
439.8962, 7022.208
440.3783, 6976.854
440.8604, 6945.201
441.3426, 6951.169
441.8247, 6960.382
442.3068, 6955.486
442.7889, 6934.832
443.2710, 6898.693
443.7531, 6828.891
444.2353, 6750.848
444.7174, 6691.464
445.1995, 6676.106
445.6816, 6656.918
446.1637, 6621.456
446.6458, 6572.320
447.1280, 6534.910
447.6101, 6517.775
448.0922, 6502.849
448.5743, 6480.149
449.0564, 6445.832
449.5385, 6413.225
450.0207, 6382.817
450.5028, 6354.243
450.9849, 6328.457
451.4670, 6307.137
451.9491, 6281.244
452.4312, 6246.127
452.9134, 6202.983
453.3955, 6157.399
453.8776, 6108.288
454.3597, 6065.405
454.8418, 6046.612
455.3239, 6044.708
455.8061, 6029.150
456.2882, 5987.618
456.7703, 5937.520
457.2524, 5903.291
457.7345, 5882.265
458.2166, 5862.834
458.6988, 5839.113
459.1809, 5813.095
459.6630, 5787.000
460.1451, 5760.718
460.6272, 5734.922
461.1093, 5710.542
461.5915, 5686.837
462.0736, 5663.380
462.5557, 5638.940
463.0378, 5615.745
463.5199, 5595.585
464.0020, 5578.101
464.4842, 5559.758
464.9663, 5542.307
465.4484, 5522.151
465.9305, 5496.478
466.4126, 5455.240
466.8947, 5425.960
467.3769, 5417.489
467.8590, 5417.177
468.3411, 5403.210
468.8232, 5367.720
469.3053, 5334.039
469.7874, 5306.948
470.2696, 5286.498
470.7517, 5274.999
471.2338, 5274.480
471.7159, 5276.711
472.1980, 5275.479
472.6801, 5270.778
473.1623, 5263.348
473.6444, 5252.749
474.1265, 5240.454
474.6086, 5229.580
475.0907, 5219.658
475.5728, 5207.667
476.0550, 5190.349
476.5371, 5170.446
477.0192, 5151.226
477.5013, 5132.646
477.9834, 5118.611
478.4655, 5114.212
478.9477, 5115.521
479.4298, 5117.559
479.9119, 5119.859
480.3940, 5121.279
480.8761, 5124.596
481.3582, 5127.050
481.8404, 5120.550
482.3225, 5092.218
482.8046, 5062.771
483.2867, 5042.298
483.7688, 5034.946
484.2509, 5025.147
484.7331, 5007.798
485.2152, 4989.450
485.6973, 4975.686
486.1794, 4966.483
486.6615, 4962.391
487.1436, 4966.537
487.6258, 4975.983
488.1079, 4975.323
488.5900, 4960.778
489.0721, 4946.576
489.5542, 4941.932
490.0363, 4946.930
490.5185, 4948.909
491.0006, 4948.222
491.4827, 4942.187
491.9648, 4918.273
492.4470, 4882.003
492.9291, 4866.131
493.4112, 4895.557
493.8933, 4939.816
494.3754, 4950.297
494.8575, 4930.912
495.3397, 4905.679
495.8218, 4884.477
496.3039, 4868.295
496.7860, 4860.122
497.2681, 4862.726
497.7502, 4863.327
498.2324, 4854.554
498.7145, 4839.851
499.1966, 4823.726
499.6787, 4794.568
500.1608, 4777.380
500.6429, 4788.204
501.1251, 4824.577
501.6072, 4846.031
502.0893, 4840.194
502.5714, 4827.617
503.0535, 4816.899
503.5356, 4806.184
504.0178, 4802.641
504.4999, 4810.641
504.9820, 4821.857
505.4641, 4823.324
505.9462, 4813.620
506.4283, 4801.522
506.9105, 4788.971
507.3926, 4776.125
507.8747, 4760.014
508.3568, 4739.895
508.8389, 4730.093
509.3210, 4752.543
509.8032, 4793.378
510.2853, 4811.854
510.7674, 4799.329
511.2495, 4779.673
511.7316, 4776.682
512.2137, 4784.680
512.6959, 4792.125
513.1780, 4795.306
513.6601, 4795.436
514.1422, 4791.494
514.6243, 4784.292
515.1064, 4779.150
515.5886, 4779.686
516.0707, 4781.851
516.5528, 4783.213
517.0349, 4783.062
517.5170, 4782.972
517.9991, 4784.810
518.4813, 4786.115
518.9634, 4783.768
519.4455, 4777.390
519.9276, 4767.629
520.4097, 4752.004
520.8918, 4732.616
521.3740, 4723.847
521.8561, 4729.575
522.3382, 4733.068
522.8203, 4719.521
523.3024, 4690.545
523.7845, 4673.351
524.2667, 4671.044
524.7488, 4674.149
525.2309, 4673.435
525.7130, 4668.684
526.1951, 4658.542
526.6772, 4635.155
527.1594, 4613.089
527.6415, 4617.261
528.1236, 4640.840
528.6057, 4653.787
529.0878, 4624.692
529.5699, 4587.655
530.0521, 4570.621
530.5342, 4581.964
531.0163, 4590.667
531.4984, 4585.942
531.9805, 4573.979
532.4626, 4561.385
532.9448, 4546.452
533.4269, 4533.919
533.9090, 4522.912
534.3911, 4514.534
534.8732, 4514.613
535.3553, 4528.791
535.8375, 4540.817
536.3196, 4541.891
536.8017, 4531.220
537.2838, 4526.968
537.7659, 4529.875
538.2480, 4536.656
538.7302, 4545.244
539.2123, 4555.226
539.6944, 4564.028
540.1765, 4572.916
540.6586, 4577.053
541.1407, 4566.119
541.6229, 4543.734
542.1050, 4522.814
542.5871, 4505.552
543.0692, 4495.922
543.5513, 4502.470
544.0334, 4525.330
544.5156, 4543.207
544.9977, 4545.646
545.4798, 4539.271
545.9619, 4528.486
546.4440, 4504.255
546.9261, 4490.349
547.4083, 4498.680
547.8904, 4517.709
548.3725, 4526.100
548.8546, 4515.943
549.3367, 4508.336
549.8188, 4509.404
550.3010, 4518.208
550.7831, 4522.956
551.2652, 4522.007
551.7473, 4522.494
552.2294, 4530.254
552.7115, 4544.621
553.1937, 4559.217
553.6758, 4573.864
554.1579, 4587.375
554.6400, 4599.938
555.1221, 4610.373
555.6042, 4614.251
556.0864, 4598.387
556.5685, 4587.150
557.0506, 4613.562
557.5327, 4667.271
558.0148, 4709.387
558.4969, 4710.609
558.9791, 4702.222
559.4612, 4703.503
559.9433, 4718.730
560.4254, 4731.806
560.9075, 4739.166
561.3896, 4743.431
561.8718, 4746.994
562.3539, 4748.792
562.8360, 4752.036
563.3181, 4758.986
563.8002, 4766.534
564.2823, 4765.921
564.7645, 4755.088
565.2466, 4745.277
565.7287, 4740.355
566.2108, 4740.072
566.6929, 4745.853
567.1750, 4758.037
567.6572, 4767.498
568.1393, 4763.351
568.6214, 4751.389
569.1035, 4744.628
569.5856, 4746.956
570.0677, 4746.717
570.5499, 4725.459
571.0320, 4697.022
571.5141, 4683.131
571.9962, 4703.213
572.4783, 4727.900
572.9604, 4746.615
573.4426, 4760.046
573.9247, 4773.251
574.4068, 4793.810
574.8889, 4807.614
575.3710, 4805.453
575.8531, 4780.955
576.3353, 4775.296
576.8174, 4795.797
577.2995, 4824.363
577.7816, 4843.236
578.2637, 4851.018
578.7458, 4863.757
579.2280, 4885.152
579.7101, 4909.953
580.1922, 4929.028
580.6743, 4943.052
581.1564, 4955.816
581.6385, 4967.717
582.1207, 4980.104
582.6028, 4994.813
583.0849, 5011.562
583.5670, 5029.107
584.0491, 5047.987
584.5313, 5066.523
585.0134, 5082.708
585.4955, 5094.564
585.9776, 5109.441
586.4597, 5134.812
586.9418, 5161.728
587.4240, 5179.607
587.9061, 5183.033
588.3882, 5185.585
588.8703, 5187.326
589.3524, 5189.492
589.8345, 5196.253
590.3167, 5208.651
590.7988, 5221.900
591.2809, 5235.576
591.7630, 5248.539
592.2451, 5252.385
592.7272, 5246.787
593.2094, 5240.100
593.6915, 5243.278
594.1736, 5249.503
594.6557, 5243.216
595.1378, 5218.821
595.6199, 5195.708
596.1021, 5193.188
596.5842, 5199.919
597.0663, 5199.723
597.5485, 5186.387
598.0306, 5166.128
598.5127, 5132.862
598.9948, 5092.121
599.4769, 5067.540
599.9590, 5074.979
600.4412, 5080.610
600.9233, 5072.653
601.4054, 5050.044
601.8875, 5030.125
602.3696, 5013.302
602.8517, 4998.527
603.3339, 4986.181
603.8160, 4975.909
604.2981, 4964.140
604.7802, 4950.284
605.2623, 4935.913
605.7444, 4920.634
606.2266, 4906.360
606.7087, 4899.150
607.1908, 4907.310
607.6729, 4916.769
608.1550, 4918.643
608.6371, 4912.986
609.1193, 4900.047
609.6014, 4864.213
610.0835, 4834.653
610.5656, 4831.605
611.0477, 4861.737
611.5298, 4873.488
612.0120, 4851.071
612.4941, 4823.958
612.9762, 4811.872
613.4583, 4818.729
613.9404, 4828.215
614.4225, 4843.204
614.9047, 4854.389
615.3868, 4841.431
615.8689, 4806.917
616.3510, 4787.472
616.8331, 4798.655
617.3152, 4823.906
617.7974, 4843.264
618.2795, 4855.854
618.7616, 4859.505
619.2437, 4842.466
619.7258, 4823.862
620.2079, 4820.843
620.6901, 4834.111
621.1722, 4842.508
621.6543, 4835.446
622.1364, 4823.377
622.6185, 4812.345
623.1006, 4799.598
623.5828, 4795.262
624.0649, 4804.342
624.5470, 4817.242
625.0291, 4823.338
625.5112, 4822.601
625.9933, 4814.393
