##NAMES=Molybdophyllite
##RRUFFID=R070222
##IDEAL CHEMISTRY=Pb^2+^_8_Mg_9_[Si_10_O_30_(OH)_8_(CO_3_)_3_]&#183;H_2_O
##LOCALITY=Langban, Filipstad, Varmland, Sweden
##OWNER=RRUFF
##SOURCE=Michael Scott
##DESCRIPTION=Colorless tabular crystals associated with hausmannite, with cell parameters that match the so-called molybdophyllite-18 phase (Kolitsch et al, 2012)
##STATUS=The identification of this mineral has been confirmed only by single crystal X-ray diffraction.
##URL=rruff.info/R070222
132.5902, 1955.976
133.0723, 2060.166
133.5544, 2147.738
134.0366, 2207.303
134.5187, 2246.626
135.0008, 2278.387
135.4829, 2310.300
135.9650, 2342.458
136.4471, 2377.440
136.9293, 2411.288
137.4114, 2451.450
137.8935, 2497.838
138.3756, 2552.190
138.8577, 2618.085
139.3398, 2698.082
139.8220, 2792.498
140.3041, 2900.343
140.7862, 3024.266
141.2683, 3155.452
141.7504, 3290.149
142.2325, 3428.130
142.7147, 3570.236
143.1968, 3718.819
143.6789, 3873.384
144.1610, 4024.133
144.6431, 4167.856
145.1252, 4310.360
145.6074, 4459.476
146.0895, 4613.087
146.5716, 4757.868
147.0537, 4883.408
147.5358, 4987.636
148.0179, 5082.753
148.5001, 5183.750
148.9822, 5265.116
149.4643, 5304.860
149.9464, 5302.974
150.4285, 5280.754
150.9106, 5252.660
151.3928, 5217.623
151.8749, 5172.785
152.3570, 5121.891
152.8391, 5058.711
153.3212, 4971.689
153.8033, 4859.504
154.2855, 4744.103
154.7676, 4641.512
155.2497, 4549.666
155.7318, 4460.960
156.2139, 4371.561
156.6960, 4286.073
157.1782, 4211.842
157.6603, 4150.687
158.1424, 4091.329
158.6245, 4016.939
159.1066, 3937.146
159.5887, 3878.377
160.0709, 3860.150
160.5530, 3862.081
161.0351, 3854.730
161.5172, 3834.807
161.9993, 3815.678
162.4814, 3806.360
162.9636, 3804.580
163.4457, 3807.764
163.9278, 3820.317
164.4099, 3835.890
164.8920, 3841.829
165.3741, 3835.288
165.8563, 3826.985
166.3384, 3822.016
166.8205, 3819.972
167.3026, 3820.613
167.7847, 3823.265
168.2668, 3828.728
168.7490, 3841.796
169.2311, 3869.993
169.7132, 3888.183
170.1953, 3874.360
170.6774, 3843.968
171.1595, 3821.793
171.6417, 3826.323
172.1238, 3843.347
172.6059, 3833.526
173.0880, 3780.851
173.5701, 3733.266
174.0522, 3712.903
174.5344, 3710.014
175.0165, 3712.223
175.4986, 3715.126
175.9807, 3718.210
176.4628, 3719.338
176.9449, 3715.375
177.4271, 3715.583
177.9092, 3729.008
178.3913, 3746.829
178.8734, 3756.373
179.3555, 3749.656
179.8376, 3732.434
180.3197, 3722.027
180.8019, 3722.626
181.2840, 3722.889
181.7661, 3719.951
182.2482, 3714.450
182.7303, 3707.071
183.2124, 3698.051
183.6946, 3687.515
184.1767, 3675.277
184.6588, 3658.776
185.1409, 3645.406
185.6230, 3637.875
186.1051, 3633.746
186.5873, 3630.624
187.0694, 3627.688
187.5515, 3624.328
188.0336, 3618.707
188.5157, 3609.804
188.9978, 3600.274
189.4800, 3588.123
189.9621, 3576.828
190.4442, 3570.870
190.9263, 3572.704
191.4084, 3578.400
191.8905, 3577.854
192.3727, 3565.584
192.8548, 3556.794
193.3369, 3556.469
193.8190, 3559.092
194.3011, 3558.196
194.7832, 3551.114
195.2654, 3542.702
195.7475, 3544.492
196.2296, 3564.856
196.7117, 3579.833
197.1938, 3588.101
197.6759, 3589.835
198.1581, 3582.252
198.6402, 3564.834
199.1223, 3544.966
199.6044, 3539.018
200.0865, 3563.606
200.5686, 3567.791
201.0508, 3533.449
201.5329, 3489.429
202.0150, 3455.249
202.4971, 3436.943
202.9792, 3432.077
203.4613, 3439.948
203.9435, 3473.503
204.4256, 3489.860
204.9077, 3480.714
205.3898, 3461.239
205.8719, 3438.704
206.3540, 3415.797
206.8362, 3394.492
207.3183, 3376.859
207.8004, 3361.993
208.2825, 3354.124
208.7646, 3359.806
209.2467, 3366.515
209.7289, 3367.207
210.2110, 3361.040
210.6931, 3351.367
211.1752, 3340.892
211.6573, 3327.579
212.1395, 3321.519
212.6216, 3330.351
213.1037, 3339.417
213.5858, 3343.004
214.0679, 3340.235
214.5500, 3331.988
215.0322, 3317.517
215.5143, 3294.808
215.9964, 3279.763
216.4785, 3278.184
216.9606, 3278.689
217.4427, 3281.534
217.9249, 3283.472
218.4070, 3277.485
218.8891, 3255.963
219.3712, 3218.279
219.8533, 3187.962
220.3354, 3168.458
220.8176, 3153.531
221.2997, 3144.092
221.7818, 3138.044
222.2639, 3132.450
222.7460, 3125.983
223.2281, 3118.086
223.7103, 3103.299
224.1924, 3072.154
224.6745, 3044.048
225.1566, 3023.522
225.6387, 3008.379
226.1208, 2994.671
226.6030, 2979.945
227.0851, 2965.531
227.5672, 2957.429
228.0493, 2962.630
228.5314, 2964.880
229.0135, 2961.669
229.4957, 2954.177
229.9778, 2943.008
230.4599, 2928.285
230.9420, 2911.938
231.4241, 2899.028
231.9062, 2893.493
232.3884, 2884.583
232.8705, 2866.506
233.3526, 2847.394
233.8347, 2833.908
234.3168, 2828.336
234.7989, 2828.617
235.2811, 2832.164
235.7632, 2841.733
236.2453, 2847.942
236.7274, 2847.202
237.2095, 2845.273
237.6916, 2846.955
238.1738, 2852.719
238.6559, 2858.273
239.1380, 2856.952
239.6201, 2845.396
240.1022, 2839.526
240.5843, 2845.221
241.0665, 2852.351
241.5486, 2856.397
242.0307, 2857.131
242.5128, 2856.631
242.9949, 2855.175
243.4770, 2852.033
243.9592, 2857.173
244.4413, 2884.249
244.9234, 2906.874
245.4055, 2913.171
245.8876, 2906.616
246.3697, 2897.302
246.8519, 2891.044
247.3340, 2888.030
247.8161, 2890.634
248.2982, 2903.874
248.7803, 2916.253
249.2624, 2921.515
249.7446, 2923.720
250.2267, 2930.865
250.7088, 2950.342
251.1909, 2974.200
251.6730, 2976.571
252.1551, 2942.901
252.6373, 2917.373
253.1194, 2921.639
253.6015, 2937.377
254.0836, 2944.447
254.5657, 2934.591
255.0478, 2917.419
255.5300, 2911.118
256.0121, 2921.805
256.4942, 2919.952
256.9763, 2875.131
257.4584, 2827.146
257.9406, 2808.408
258.4227, 2826.453
258.9048, 2854.515
259.3869, 2866.968
259.8690, 2863.438
260.3511, 2852.200
260.8333, 2829.444
261.3154, 2803.492
261.7975, 2778.255
262.2796, 2754.414
262.7617, 2735.252
263.2438, 2724.256
263.7260, 2720.390
264.2081, 2718.272
264.6902, 2719.255
265.1723, 2718.927
265.6544, 2711.479
266.1365, 2699.533
266.6187, 2692.186
267.1008, 2698.611
267.5829, 2711.651
268.0650, 2715.597
268.5471, 2708.316
269.0292, 2697.745
269.5114, 2688.410
269.9935, 2679.590
270.4756, 2669.617
270.9577, 2653.966
271.4398, 2640.350
271.9219, 2641.426
272.4041, 2657.776
272.8862, 2668.357
273.3683, 2659.681
273.8504, 2639.680
274.3325, 2624.558
274.8146, 2616.606
275.2968, 2610.669
275.7789, 2604.351
276.2610, 2597.458
276.7431, 2587.588
277.2252, 2570.315
277.7073, 2554.818
278.1895, 2560.636
278.6716, 2594.167
279.1537, 2615.619
279.6358, 2598.549
280.1179, 2562.751
280.6000, 2542.598
281.0822, 2546.346
281.5643, 2561.508
282.0464, 2575.952
282.5285, 2589.886
283.0106, 2599.485
283.4927, 2602.776
283.9749, 2602.488
284.4570, 2597.658
284.9391, 2589.333
285.4212, 2587.260
285.9033, 2601.461
286.3854, 2631.553
286.8676, 2652.219
287.3497, 2659.361
287.8318, 2662.068
288.3139, 2660.439
288.7960, 2657.531
289.2781, 2661.862
289.7603, 2679.487
290.2424, 2705.689
290.7245, 2720.042
291.2066, 2709.057
291.6887, 2703.751
292.1708, 2710.198
292.6530, 2724.322
293.1351, 2742.670
293.6172, 2763.859
294.0993, 2785.022
294.5814, 2800.574
295.0635, 2804.682
295.5457, 2814.376
296.0278, 2838.532
296.5099, 2861.436
296.9920, 2869.050
297.4741, 2861.751
297.9562, 2852.069
298.4384, 2853.036
298.9205, 2866.192
299.4026, 2879.638
299.8847, 2895.254
300.3668, 2909.279
300.8489, 2918.979
301.3311, 2926.118
301.8131, 2934.846
302.2953, 2948.522
302.7774, 2965.341
303.2595, 2975.912
303.7416, 2977.009
304.2237, 2976.056
304.7058, 2969.962
305.1880, 2964.827
305.6701, 2968.800
306.1522, 2985.173
306.6343, 3005.923
307.1164, 3018.789
307.5985, 3023.459
308.0807, 3021.129
308.5628, 3006.503
309.0449, 2988.492
309.5270, 2971.105
310.0091, 2955.068
310.4912, 2940.989
310.9734, 2931.708
311.4555, 2926.318
311.9376, 2913.535
312.4197, 2885.195
312.9018, 2860.371
313.3839, 2855.762
313.8661, 2863.927
314.3482, 2865.347
314.8303, 2846.580
315.3124, 2817.740
315.7945, 2795.979
316.2766, 2781.837
316.7588, 2771.938
317.2409, 2768.372
317.7230, 2766.794
318.2051, 2759.918
318.6872, 2745.553
319.1693, 2728.209
319.6515, 2709.785
320.1336, 2690.860
320.6157, 2673.316
321.0978, 2657.169
321.5799, 2643.893
322.0620, 2636.669
322.5442, 2636.150
323.0263, 2635.669
323.5084, 2634.051
323.9905, 2631.122
324.4726, 2626.615
324.9547, 2620.465
325.4369, 2612.832
325.9190, 2603.317
326.4011, 2591.657
326.8832, 2582.463
327.3653, 2579.837
327.8474, 2575.801
328.3296, 2562.087
328.8117, 2542.599
329.2938, 2529.161
329.7759, 2528.889
330.2580, 2539.520
330.7401, 2550.857
331.2223, 2571.147
331.7044, 2581.897
332.1865, 2577.011
332.6686, 2563.577
333.1507, 2547.109
333.6328, 2529.927
334.1150, 2514.820
334.5971, 2507.355
335.0792, 2514.668
335.5613, 2509.896
336.0434, 2481.594
336.5255, 2452.835
337.0077, 2438.244
337.4898, 2434.679
337.9719, 2428.074
338.4540, 2405.540
338.9361, 2369.771
339.4182, 2345.600
339.9004, 2340.866
340.3825, 2336.906
340.8646, 2328.666
341.3467, 2317.728
341.8288, 2305.665
342.3109, 2292.690
342.7931, 2280.401
343.2752, 2271.045
343.7573, 2264.698
344.2394, 2260.782
344.7215, 2260.361
345.2036, 2261.526
345.6858, 2262.482
346.1679, 2263.193
346.6500, 2265.261
347.1321, 2274.647
347.6142, 2286.120
348.0963, 2281.834
348.5785, 2254.719
349.0606, 2228.393
349.5427, 2224.126
350.0248, 2235.922
350.5069, 2247.016
350.9890, 2257.810
351.4712, 2264.273
351.9533, 2261.298
352.4354, 2250.313
352.9175, 2239.092
353.3996, 2231.920
353.8817, 2226.043
354.3639, 2213.141
354.8460, 2188.828
355.3281, 2168.340
355.8102, 2157.942
356.2923, 2151.861
356.7744, 2142.113
357.2566, 2127.336
357.7387, 2114.657
358.2208, 2113.063
358.7029, 2125.917
359.1850, 2130.908
359.6671, 2121.637
360.1493, 2112.093
360.6314, 2108.596
361.1135, 2109.744
361.5956, 2111.827
362.0777, 2112.849
362.5598, 2112.537
363.0420, 2109.631
363.5241, 2101.104
364.0062, 2094.891
364.4883, 2095.047
364.9704, 2095.712
365.4525, 2092.183
365.9347, 2083.424
366.4168, 2071.187
366.8989, 2054.664
367.3810, 2032.886
367.8631, 2021.552
368.3452, 2028.080
368.8274, 2037.420
369.3095, 2038.842
369.7916, 2036.826
370.2737, 2043.047
370.7558, 2069.286
371.2379, 2101.702
371.7201, 2115.036
372.2022, 2107.479
372.6843, 2097.970
373.1664, 2092.680
373.6485, 2091.077
374.1306, 2091.883
374.6128, 2095.190
375.0949, 2100.457
375.5770, 2109.690
376.0591, 2120.281
376.5412, 2127.032
377.0233, 2128.826
377.5055, 2127.100
377.9876, 2122.332
378.4697, 2114.107
378.9518, 2108.430
379.4339, 2106.083
379.9160, 2105.681
380.3982, 2107.602
380.8803, 2110.916
381.3624, 2113.279
381.8445, 2113.361
382.3266, 2111.874
382.8087, 2110.919
383.2909, 2108.008
383.7730, 2109.272
384.2551, 2115.798
384.7372, 2125.824
385.2193, 2141.339
385.7014, 2160.661
386.1836, 2175.367
386.6657, 2174.196
387.1478, 2155.783
387.6299, 2148.016
388.1120, 2158.669
388.5941, 2171.662
389.0763, 2180.954
389.5584, 2189.203
390.0405, 2201.627
390.5226, 2221.783
391.0047, 2243.478
391.4868, 2257.070
391.9690, 2261.975
392.4511, 2263.570
392.9332, 2260.836
393.4153, 2257.332
393.8974, 2255.557
394.3795, 2255.605
394.8617, 2259.038
395.3438, 2269.344
395.8259, 2282.582
396.3080, 2291.238
396.7901, 2294.338
397.2722, 2298.609
397.7544, 2309.225
398.2365, 2325.064
398.7186, 2339.319
399.2007, 2354.452
399.6828, 2365.212
400.1649, 2365.612
400.6471, 2361.186
401.1292, 2361.049
401.6113, 2368.223
402.0934, 2380.135
402.5755, 2393.745
403.0576, 2411.353
403.5398, 2423.013
404.0219, 2422.970
404.5040, 2423.285
404.9861, 2430.976
405.4682, 2444.316
405.9503, 2458.351
406.4325, 2470.465
406.9146, 2479.800
407.3967, 2481.782
407.8788, 2469.468
408.3609, 2464.251
408.8430, 2474.316
409.3252, 2489.765
409.8073, 2502.916
410.2894, 2512.649
410.7715, 2523.192
411.2536, 2538.690
411.7357, 2558.303
412.2179, 2578.368
412.7000, 2600.722
413.1821, 2618.362
413.6642, 2623.810
414.1463, 2621.172
414.6284, 2617.492
415.1106, 2613.385
415.5927, 2609.407
416.0748, 2604.946
416.5569, 2600.806
417.0390, 2600.507
417.5211, 2606.115
418.0033, 2612.785
418.4854, 2613.097
418.9675, 2605.040
419.4496, 2596.950
419.9317, 2587.508
420.4138, 2579.457
420.8960, 2578.750
421.3781, 2581.703
421.8602, 2576.170
422.3423, 2553.203
422.8244, 2517.896
423.3065, 2492.580
423.7887, 2484.797
424.2708, 2475.527
424.7529, 2459.064
425.2350, 2442.897
425.7171, 2434.471
426.1992, 2434.088
426.6814, 2434.848
427.1635, 2430.878
427.6456, 2422.306
428.1277, 2410.258
428.6098, 2391.848
429.0919, 2375.578
429.5741, 2368.435
430.0562, 2365.395
430.5383, 2359.354
431.0204, 2348.916
431.5025, 2334.576
431.9846, 2313.057
432.4668, 2287.340
432.9489, 2268.948
433.4310, 2261.902
433.9131, 2259.331
434.3952, 2254.310
434.8773, 2246.884
435.3595, 2235.187
435.8416, 2213.980
436.3237, 2193.110
436.8058, 2177.673
437.2879, 2167.512
437.7701, 2162.214
438.2522, 2162.031
438.7343, 2163.581
439.2164, 2157.803
439.6985, 2137.455
440.1806, 2122.729
440.6628, 2115.266
441.1449, 2111.643
441.6270, 2111.009
442.1091, 2112.375
442.5912, 2114.168
443.0733, 2117.068
443.5555, 2118.746
444.0376, 2108.338
444.5197, 2080.883
445.0018, 2055.208
445.4839, 2038.765
445.9660, 2027.439
446.4482, 2017.512
446.9303, 2008.454
447.4124, 2001.823
447.8945, 2001.182
448.3766, 2003.142
448.8587, 1999.857
449.3409, 1989.958
449.8230, 1979.625
450.3051, 1974.971
450.7872, 1974.623
451.2693, 1966.043
451.7514, 1942.858
452.2336, 1919.563
452.7157, 1898.844
453.1978, 1881.644
453.6799, 1871.259
454.1620, 1868.007
454.6441, 1865.096
455.1263, 1852.158
455.6084, 1825.301
456.0905, 1810.579
456.5726, 1820.714
457.0547, 1830.564
457.5368, 1833.874
458.0190, 1831.590
458.5011, 1825.840
458.9832, 1817.344
459.4653, 1806.467
459.9474, 1791.839
460.4295, 1773.388
460.9117, 1760.137
461.3938, 1755.812
461.8759, 1754.540
462.3580, 1752.557
462.8401, 1749.532
463.3222, 1743.017
463.8044, 1727.938
464.2865, 1712.513
464.7686, 1704.166
465.2507, 1701.966
465.7328, 1702.607
466.2149, 1705.389
466.6971, 1707.644
467.1792, 1703.900
467.6613, 1689.808
468.1434, 1678.660
468.6255, 1671.078
469.1076, 1665.801
469.5898, 1664.396
470.0719, 1664.798
470.5540, 1661.234
471.0361, 1649.064
471.5182, 1633.115
472.0003, 1628.815
472.4825, 1642.050
472.9646, 1650.943
473.4467, 1647.390
473.9288, 1640.383
474.4109, 1636.236
474.8930, 1634.756
475.3752, 1630.299
475.8573, 1615.084
476.3394, 1596.646
476.8215, 1589.083
477.3036, 1592.810
477.7857, 1597.425
478.2679, 1597.709
478.7500, 1595.641
479.2321, 1596.620
479.7142, 1603.451
480.1963, 1606.019
480.6784, 1599.698
481.1606, 1590.111
481.6427, 1581.937
482.1248, 1575.637
482.6069, 1569.454
483.0890, 1561.661
483.5711, 1553.266
484.0533, 1550.244
484.5354, 1558.714
485.0175, 1562.402
485.4996, 1557.476
485.9817, 1548.584
486.4638, 1536.700
486.9460, 1523.277
487.4281, 1514.662
487.9102, 1520.794
488.3923, 1535.312
488.8744, 1538.249
489.3565, 1528.199
489.8387, 1513.502
490.3208, 1495.553
490.8029, 1476.961
491.2850, 1462.427
491.7671, 1451.388
492.2492, 1445.729
492.7314, 1449.625
493.2135, 1457.340
493.6956, 1463.582
494.1777, 1467.265
494.6598, 1467.656
495.1419, 1463.772
495.6241, 1456.388
496.1062, 1450.442
496.5883, 1447.417
497.0704, 1443.828
497.5525, 1439.100
498.0346, 1433.843
498.5168, 1427.861
498.9989, 1421.565
499.4810, 1416.736
499.9631, 1414.686
500.4452, 1415.279
500.9273, 1419.350
501.4095, 1428.588
501.8916, 1434.008
502.3737, 1429.679
502.8558, 1420.306
503.3379, 1413.549
503.8200, 1410.108
504.3022, 1406.973
504.7843, 1401.516
505.2664, 1396.649
505.7485, 1396.095
506.2306, 1399.858
506.7127, 1406.039
507.1949, 1414.077
507.6770, 1422.572
508.1591, 1425.291
508.6412, 1418.200
509.1233, 1410.917
509.6054, 1399.892
510.0876, 1391.960
510.5697, 1395.464
511.0518, 1408.090
511.5339, 1417.829
512.0161, 1414.362
512.4982, 1402.908
512.9803, 1399.317
513.4624, 1405.745
513.9445, 1406.185
514.4266, 1387.843
514.9088, 1367.218
515.3909, 1367.643
515.8730, 1390.874
516.3551, 1411.165
516.8372, 1421.446
517.3193, 1424.924
517.8015, 1422.856
518.2836, 1416.427
518.7657, 1408.742
519.2478, 1401.334
519.7299, 1394.263
520.2120, 1387.694
520.6942, 1381.794
521.1763, 1376.056
521.6584, 1369.322
522.1405, 1363.799
522.6226, 1362.639
523.1047, 1363.647
523.5869, 1360.710
524.0690, 1348.892
524.5511, 1335.357
525.0332, 1333.455
525.5153, 1343.097
525.9974, 1350.110
526.4796, 1350.663
526.9617, 1348.353
527.4438, 1345.487
527.9259, 1342.329
528.4080, 1342.631
528.8901, 1351.735
529.3723, 1359.686
529.8544, 1359.429
530.3365, 1353.994
530.8186, 1349.289
531.3007, 1347.338
531.7828, 1346.621
532.2650, 1344.870
532.7471, 1341.606
533.2292, 1340.337
533.7113, 1344.825
534.1934, 1346.918
534.6755, 1342.044
535.1577, 1334.165
535.6398, 1328.754
536.1219, 1327.489
536.6040, 1327.532
537.0861, 1326.386
537.5682, 1324.430
538.0504, 1322.518
538.5325, 1320.557
539.0146, 1320.251
539.4967, 1323.407
539.9788, 1329.211
540.4609, 1333.491
540.9431, 1337.141
541.4252, 1338.321
541.9073, 1334.345
542.3894, 1329.231
542.8715, 1328.309
543.3536, 1330.921
543.8358, 1330.010
544.3179, 1318.079
544.8000, 1299.909
545.2821, 1298.985
545.7642, 1324.413
546.2463, 1342.051
546.7285, 1335.838
547.2106, 1324.017
547.6927, 1321.584
548.1748, 1328.121
548.6569, 1331.490
549.1390, 1322.695
549.6211, 1310.722
550.1032, 1304.487
550.5853, 1303.717
551.0674, 1307.035
551.5496, 1314.396
552.0317, 1323.175
552.5138, 1329.280
552.9959, 1332.451
553.4780, 1333.708
553.9601, 1329.486
554.4423, 1327.432
554.9244, 1333.863
555.4065, 1343.481
555.8886, 1346.234
556.3707, 1338.183
556.8528, 1330.173
557.3350, 1339.436
557.8171, 1362.810
558.2992, 1373.328
558.7813, 1365.923
559.2634, 1353.574
559.7455, 1340.772
560.2277, 1330.204
560.7098, 1329.781
561.1919, 1348.005
561.6740, 1361.549
562.1561, 1359.299
562.6382, 1351.103
563.1204, 1345.966
563.6025, 1345.502
564.0846, 1349.580
564.5667, 1359.260
565.0488, 1371.395
565.5309, 1371.645
566.0131, 1350.954
566.4952, 1341.332
566.9773, 1364.487
567.4594, 1387.283
567.9415, 1384.985
568.4236, 1362.134
568.9058, 1343.724
569.3879, 1341.383
569.8700, 1347.004
570.3521, 1355.142
570.8342, 1364.587
571.3163, 1371.595
571.7985, 1375.116
572.2806, 1374.691
572.7627, 1368.836
573.2448, 1356.428
573.7269, 1349.139
574.2090, 1348.604
574.6912, 1350.867
575.1733, 1356.969
575.6554, 1364.306
576.1375, 1371.738
576.6196, 1378.394
577.1017, 1380.088
577.5839, 1369.171
578.0660, 1350.301
578.5481, 1338.700
579.0302, 1334.723
579.5123, 1337.318
579.9944, 1348.283
580.4766, 1363.610
580.9587, 1375.972
581.4408, 1385.682
581.9229, 1392.365
582.4050, 1393.930
582.8871, 1394.205
583.3693, 1394.564
583.8514, 1395.793
584.3335, 1400.338
584.8156, 1409.364
585.2977, 1417.549
585.7798, 1412.768
586.2620, 1392.701
586.7441, 1388.873
587.2262, 1413.127
587.7083, 1436.666
588.1904, 1440.071
588.6725, 1432.812
589.1547, 1430.500
589.6368, 1437.975
590.1189, 1443.071
590.6010, 1439.810
591.0831, 1430.941
591.5652, 1415.198
592.0474, 1395.567
592.5295, 1386.114
593.0116, 1397.390
593.4937, 1422.047
593.9758, 1437.989
594.4579, 1444.244
594.9401, 1443.907
595.4222, 1429.867
595.9043, 1415.858
596.3864, 1407.969
596.8685, 1405.636
597.3506, 1407.306
597.8328, 1415.342
598.3149, 1421.444
598.7970, 1415.384
599.2791, 1401.766
599.7612, 1393.469
600.2433, 1392.963
600.7255, 1391.942
601.2076, 1382.685
601.6897, 1366.670
602.1718, 1356.001
602.6539, 1355.332
603.1360, 1353.858
603.6182, 1350.024
604.1003, 1345.707
604.5824, 1342.095
605.0645, 1339.322
605.5466, 1337.151
606.0287, 1335.422
606.5109, 1334.233
606.9930, 1334.162
607.4751, 1334.983
607.9572, 1334.649
608.4393, 1332.328
608.9214, 1330.098
609.4036, 1330.613
609.8857, 1333.879
610.3678, 1333.641
610.8499, 1326.786
611.3320, 1320.734
611.8141, 1318.586
612.2963, 1317.177
612.7784, 1311.995
613.2605, 1303.532
613.7426, 1297.666
614.2247, 1300.288
614.7068, 1307.450
615.1890, 1308.646
615.6711, 1303.542
616.1532, 1300.508
616.6353, 1303.540
617.1174, 1306.611
617.5995, 1301.936
618.0817, 1289.307
618.5638, 1279.599
619.0459, 1273.357
619.5280, 1269.950
620.0101, 1262.046
620.4922, 1272.337
620.9744, 1277.999
621.4565, 1279.280
621.9386, 1263.058
622.4207, 1269.437
622.9028, 1266.759
623.3849, 1263.709
623.8671, 1273.269
624.3492, 1259.593
624.8313, 1268.953
625.3134, 1269.117
625.7955, 1273.491
626.2776, 1268.750
626.7598, 1266.825
