##NAMES=Molybdite
##RRUFFID=R100217
##IDEAL CHEMISTRY=Mo^6+^O_3_
##LOCALITY=Mining concentrate
##OWNER=RRUFF
##SOURCE=Mike Carducci, Climax Molybdenum Technology Center
##DESCRIPTION=Gray unconsolidated powder
##STATUS=The identification of this mineral has been confirmed by X-ray diffraction.
##URL=rruff.info/R100217
91.03516, 43.57317
91.51727, 45.05593
91.99939, 43.28659
92.48151, 39.52109
92.96362, 37.32553
93.44574, 40.75602
93.92786, 46.81928
94.40997, 48.50410
94.89210, 44.49949
95.37421, 38.60384
95.85633, 36.85368
96.33845, 39.04882
96.82056, 41.27194
97.30268, 40.27228
97.78480, 36.49755
98.26691, 34.69555
98.74903, 35.97684
99.23115, 39.19670
99.71326, 41.05339
100.1954, 41.28500
100.6775, 41.09255
101.1596, 41.68871
101.6417, 43.46643
102.1239, 43.95562
102.6060, 42.17228
103.0881, 38.32280
103.5702, 36.24242
104.0523, 36.30174
104.5344, 37.65118
105.0166, 39.73388
105.4987, 43.86077
105.9808, 46.29734
106.4629, 45.59438
106.9450, 40.61547
107.4271, 37.68506
107.9093, 37.98262
108.3914, 39.89550
108.8735, 41.01192
109.3556, 40.36063
109.8377, 39.80041
110.3198, 39.83226
110.8020, 40.62548
111.2841, 41.67929
111.7662, 42.94582
112.2483, 44.46576
112.7304, 46.32728
113.2125, 50.52334
113.6947, 53.68444
114.1768, 54.09454
114.6589, 49.29026
115.1410, 44.71555
115.6231, 40.88073
116.1052, 38.06315
116.5874, 37.26339
117.0695, 41.32524
117.5516, 46.34162
118.0337, 49.28785
118.5158, 47.84628
118.9980, 45.50933
119.4801, 43.51463
119.9622, 41.87775
120.4443, 40.64519
120.9264, 38.98267
121.4085, 37.95603
121.8907, 38.88457
122.3728, 45.46161
122.8549, 52.22953
123.3370, 54.17678
123.8191, 51.02857
124.3012, 46.69365
124.7834, 43.32124
125.2655, 41.03990
125.7476, 40.12364
126.2297, 41.58696
126.7118, 44.22700
127.1939, 46.54805
127.6761, 48.55606
128.1582, 49.76018
128.6403, 49.06343
129.1224, 46.81730
129.6045, 44.71773
130.0867, 43.84283
130.5688, 43.88736
131.0509, 43.68385
131.5330, 42.83081
132.0151, 42.30552
132.4972, 44.65624
132.9794, 49.88991
133.4615, 54.26173
133.9436, 53.49363
134.4257, 48.20124
134.9078, 47.17956
135.3899, 52.54771
135.8721, 62.17677
136.3542, 69.37595
136.8363, 73.16750
137.3184, 78.91557
137.8005, 90.45616
138.2826, 108.0363
138.7648, 130.4301
139.2469, 157.1740
139.7290, 188.6364
140.2111, 225.9990
140.6932, 270.5937
141.1753, 319.2270
141.6575, 367.6862
142.1396, 414.4570
142.6217, 466.6492
143.1038, 526.1191
143.5859, 593.6635
144.0681, 662.8853
144.5502, 734.3932
145.0323, 807.5574
145.5144, 883.0296
145.9965, 960.3127
146.4786, 1040.042
146.9608, 1120.960
147.4429, 1204.438
147.9250, 1288.402
148.4071, 1372.476
148.8892, 1457.403
149.3713, 1542.453
149.8535, 1627.545
150.3356, 1713.921
150.8177, 1799.915
151.2998, 1876.303
151.7819, 1972.244
152.2640, 2078.890
152.7462, 2206.300
153.2283, 2370.678
153.7104, 2563.275
154.1925, 2800.880
154.6746, 3090.592
155.1567, 3439.802
155.6389, 3822.098
156.1210, 4266.765
156.6031, 4746.180
157.0852, 5196.983
157.5673, 5680.964
158.0495, 6079.655
158.5316, 6342.286
159.0137, 6473.503
159.4958, 6441.905
159.9779, 6200.137
160.4600, 5780.709
160.9422, 5289.842
161.4243, 4686.976
161.9064, 4068.320
162.3885, 3498.668
162.8706, 2968.562
163.3527, 2510.045
163.8349, 2140.169
164.3170, 1852.243
164.7991, 1614.237
165.2812, 1425.418
165.7633, 1273.589
166.2454, 1148.041
166.7276, 1052.841
167.2097, 976.4738
167.6918, 914.8768
168.1739, 867.6907
168.6560, 827.1198
169.1381, 788.9750
169.6203, 754.6407
170.1024, 724.4473
170.5845, 695.2102
171.0666, 674.2949
171.5487, 655.7098
172.0309, 639.4421
172.5130, 625.1832
172.9951, 612.9213
173.4772, 602.4586
173.9593, 593.4811
174.4414, 585.4850
174.9236, 579.0834
175.4057, 575.3833
175.8878, 574.3220
176.3699, 574.5091
176.8520, 573.1198
177.3341, 571.9677
177.8163, 575.1027
178.2984, 584.7471
178.7805, 599.3379
179.2626, 617.2650
179.7447, 638.2601
180.2268, 661.2652
180.7090, 686.5101
181.1911, 713.0062
181.6732, 737.3837
182.1553, 759.4509
182.6374, 778.1706
183.1195, 789.1628
183.6017, 791.5328
184.0838, 791.8310
184.5659, 797.4857
185.0480, 807.7845
185.5301, 819.5405
186.0123, 830.6678
186.4944, 841.9717
186.9765, 855.6530
187.4586, 871.9866
187.9407, 890.3378
188.4228, 909.8367
188.9050, 930.4268
189.3871, 952.9147
189.8692, 975.9535
190.3513, 1000.366
190.8334, 1030.390
191.3155, 1065.044
191.7977, 1107.764
192.2798, 1163.179
192.7619, 1231.185
193.2440, 1311.695
193.7261, 1406.726
194.2082, 1515.451
194.6904, 1634.502
195.1725, 1765.370
195.6546, 1903.345
196.1367, 2039.539
196.6188, 2175.697
197.1009, 2298.020
197.5831, 2417.965
198.0652, 2536.501
198.5473, 2565.017
199.0294, 2490.418
199.5115, 2336.527
199.9937, 2130.536
200.4758, 1864.860
200.9579, 1611.653
201.4400, 1410.060
201.9221, 1260.998
202.4042, 1149.186
202.8864, 1078.365
203.3685, 1039.297
203.8506, 1012.947
204.3327, 1000.669
204.8148, 996.2656
205.2969, 997.3674
205.7791, 1004.365
206.2612, 1013.805
206.7433, 1025.319
207.2254, 1039.249
207.7075, 1056.529
208.1896, 1077.383
208.6718, 1101.058
209.1539, 1127.421
209.6360, 1156.159
210.1181, 1187.222
210.6002, 1218.794
211.0823, 1253.629
211.5645, 1299.030
212.0466, 1354.917
212.5287, 1422.161
213.0108, 1501.540
213.4929, 1594.457
213.9750, 1695.947
214.4572, 1808.270
214.9393, 1927.753
215.4214, 2048.309
215.9035, 2173.141
216.3856, 2293.623
216.8678, 2409.954
217.3499, 2539.141
217.8320, 2614.269
218.3141, 2628.578
218.7962, 2587.801
219.2783, 2502.340
219.7605, 2355.751
220.2426, 2195.661
220.7247, 2044.849
221.2068, 1899.626
221.6889, 1775.050
222.1710, 1673.669
222.6532, 1593.266
223.1353, 1530.957
223.6174, 1488.828
224.0995, 1460.196
224.5816, 1442.040
225.0637, 1434.871
225.5459, 1436.429
226.0280, 1446.490
226.5101, 1465.237
226.9922, 1493.341
227.4743, 1533.681
227.9564, 1579.138
228.4386, 1627.265
228.9207, 1677.437
229.4028, 1729.711
229.8849, 1785.115
230.3670, 1842.422
230.8492, 1899.999
231.3313, 1957.105
231.8134, 2014.704
232.2955, 2073.477
232.7776, 2130.072
233.2597, 2193.738
233.7419, 2266.557
234.2240, 2346.162
234.7061, 2424.057
235.1882, 2497.417
235.6703, 2573.134
236.1524, 2655.135
236.6346, 2745.239
237.1167, 2836.597
237.5988, 2927.067
238.0809, 3019.634
238.5630, 3123.456
239.0451, 3241.119
239.5273, 3365.074
240.0094, 3491.753
240.4915, 3618.947
240.9736, 3756.237
241.4557, 3909.630
241.9378, 4071.156
242.4200, 4225.124
242.9021, 4377.693
243.3842, 4515.835
243.8663, 4639.075
244.3484, 4758.661
244.8306, 4831.001
245.3127, 4859.750
245.7948, 4839.211
246.2769, 4756.046
246.7590, 4602.022
247.2411, 4401.290
247.7233, 4154.273
248.2054, 3845.241
248.6875, 3545.883
249.1696, 3252.381
249.6517, 2973.927
250.1338, 2727.554
250.6160, 2516.083
251.0981, 2330.819
251.5802, 2172.139
252.0623, 2040.829
252.5444, 1926.914
253.0265, 1832.929
253.5087, 1755.040
253.9908, 1690.138
254.4729, 1639.379
254.9550, 1598.298
255.4371, 1566.475
255.9192, 1544.802
256.4014, 1526.850
256.8835, 1510.859
257.3656, 1500.353
257.8477, 1499.509
258.3298, 1510.044
258.8120, 1526.433
259.2941, 1547.223
259.7762, 1572.402
260.2583, 1603.866
260.7404, 1641.130
261.2225, 1685.589
261.7047, 1739.642
262.1868, 1803.597
262.6689, 1876.471
263.1510, 1957.295
263.6331, 2045.550
264.1152, 2150.267
264.5974, 2268.473
265.0795, 2406.943
265.5616, 2572.198
266.0437, 2775.323
266.5258, 2976.126
267.0079, 3163.165
267.4901, 3341.126
267.9722, 3536.743
268.4543, 3755.796
268.9364, 3985.325
269.4185, 4214.805
269.9006, 4442.050
270.3828, 4677.317
270.8649, 4921.753
271.3470, 5176.776
271.8291, 5451.468
272.3112, 5747.344
272.7933, 6067.470
273.2755, 6409.552
273.7576, 6772.077
274.2397, 7167.032
274.7218, 7596.835
275.2039, 8056.038
275.6860, 8526.932
276.1682, 9012.986
276.6503, 9514.164
277.1324, 10034.08
277.6145, 10568.47
278.0966, 11117.87
278.5787, 11682.42
279.0609, 12259.70
279.5430, 12858.55
280.0251, 13479.45
280.5072, 14104.05
280.9893, 14737.36
281.4715, 15374.23
281.9536, 15972.21
282.4357, 16535.96
282.9178, 17048.42
283.3999, 17498.79
283.8820, 17890.28
284.3642, 18158.58
284.8463, 18261.84
285.3284, 18205.47
285.8105, 18040.30
286.2926, 17746.25
286.7747, 17406.06
287.2569, 17110.71
287.7390, 16860.85
288.2211, 16678.44
288.7032, 16588.02
289.1853, 16575.23
289.6674, 16592.50
290.1496, 16648.21
290.6317, 16681.76
291.1138, 16676.18
291.5959, 16612.99
292.0780, 16371.77
292.5602, 15924.39
293.0423, 15268.77
293.5244, 14348.70
294.0065, 13160.96
294.4886, 11874.05
294.9707, 10554.86
295.4529, 9232.187
295.9350, 8037.435
296.4171, 6994.020
296.8992, 6088.029
297.3813, 5318.816
297.8634, 4685.962
298.3456, 4152.266
298.8277, 3719.695
299.3098, 3369.557
299.7919, 3067.349
300.2740, 2813.596
300.7561, 2595.783
301.2383, 2411.506
301.7204, 2255.987
302.2025, 2120.334
302.6846, 2001.400
303.1667, 1896.781
303.6488, 1800.643
304.1310, 1713.134
304.6131, 1633.820
305.0952, 1564.262
305.5773, 1503.658
306.0594, 1450.073
306.5415, 1405.205
307.0237, 1365.084
307.5058, 1324.163
307.9879, 1281.657
308.4700, 1242.085
308.9521, 1208.183
309.4343, 1179.503
309.9164, 1154.397
310.3985, 1133.432
310.8806, 1114.654
311.3627, 1096.603
311.8448, 1079.046
312.3270, 1062.742
312.8091, 1046.969
313.2912, 1033.035
313.7733, 1022.484
314.2554, 1016.672
314.7375, 1013.681
315.2197, 1012.853
315.7018, 1014.109
316.1839, 1017.009
316.6660, 1018.056
317.1481, 1022.398
317.6302, 1034.117
318.1124, 1054.222
318.5945, 1081.692
319.0766, 1114.038
319.5587, 1153.043
320.0408, 1205.109
320.5229, 1276.920
321.0051, 1359.036
321.4872, 1447.673
321.9693, 1546.137
322.4514, 1641.844
322.9335, 1737.199
323.4156, 1827.696
323.8978, 1904.643
324.3799, 1957.796
324.8620, 2004.793
325.3441, 2050.823
325.8262, 2094.381
326.3083, 2141.429
326.7905, 2189.396
327.2726, 2242.283
327.7547, 2304.303
328.2368, 2374.046
328.7189, 2454.964
329.2010, 2545.844
329.6832, 2644.827
330.1653, 2764.310
330.6474, 2900.487
331.1295, 3059.756
331.6116, 3248.046
332.0938, 3458.907
332.5759, 3710.861
333.0580, 4011.020
333.5401, 4357.299
334.0222, 4714.014
334.5043, 5091.142
334.9865, 5469.017
335.4686, 5842.251
335.9507, 6219.405
336.4328, 6578.346
336.9149, 6948.786
337.3970, 7290.095
337.8792, 7503.946
338.3613, 7619.786
338.8434, 7538.239
339.3255, 7183.362
339.8076, 6522.141
340.2898, 5807.005
340.7719, 5000.253
341.2540, 4193.879
341.7361, 3495.260
342.2182, 2916.599
342.7003, 2440.595
343.1825, 2080.787
343.6646, 1825.155
344.1467, 1622.729
344.6288, 1474.810
345.1109, 1364.483
345.5930, 1277.484
346.0752, 1214.101
346.5573, 1166.031
347.0394, 1133.197
347.5215, 1112.364
348.0036, 1095.898
348.4857, 1083.931
348.9679, 1077.989
349.4500, 1081.322
349.9321, 1091.724
350.4142, 1102.557
350.8963, 1112.486
351.3784, 1123.407
351.8606, 1136.901
352.3427, 1153.071
352.8248, 1172.722
353.3069, 1197.204
353.7890, 1224.874
354.2711, 1253.833
354.7533, 1283.734
355.2354, 1315.650
355.7175, 1350.807
356.1996, 1388.269
356.6817, 1426.399
357.1638, 1462.982
357.6460, 1501.037
358.1281, 1542.808
358.6102, 1588.147
359.0923, 1637.535
359.5744, 1690.236
360.0565, 1747.099
360.5387, 1809.179
361.0208, 1879.966
361.5029, 1952.301
361.9850, 2022.568
362.4671, 2091.529
362.9492, 2160.595
363.4314, 2233.124
363.9135, 2303.823
364.3956, 2370.931
364.8777, 2437.641
365.3598, 2493.005
365.8419, 2533.551
366.3241, 2561.774
366.8062, 2581.016
367.2883, 2584.110
367.7704, 2585.633
368.2526, 2587.904
368.7347, 2590.109
369.2168, 2598.637
369.6989, 2612.085
370.1810, 2632.695
370.6631, 2662.284
371.1453, 2698.994
371.6274, 2747.463
372.1095, 2807.513
372.5916, 2879.977
373.0737, 2967.775
373.5558, 3074.087
374.0380, 3192.021
374.5201, 3319.247
375.0022, 3453.947
375.4843, 3603.508
375.9664, 3781.382
376.4485, 3962.536
376.9307, 4100.927
377.4128, 4191.307
377.8949, 4256.881
378.3770, 4313.839
378.8591, 4359.827
379.3412, 4345.951
379.8234, 4271.256
380.3055, 4140.570
380.7876, 3952.485
381.2697, 3707.175
381.7518, 3432.876
382.2339, 3124.059
382.7161, 2801.968
383.1982, 2505.731
383.6803, 2237.806
384.1624, 1996.362
384.6445, 1783.758
385.1266, 1598.976
385.6088, 1441.263
386.0909, 1313.092
386.5730, 1204.713
387.0551, 1109.558
387.5372, 1027.365
388.0193, 955.7548
388.5015, 897.2830
388.9836, 847.6606
389.4657, 802.7603
389.9478, 762.3571
390.4299, 726.5447
390.9120, 696.7271
391.3942, 671.0118
391.8763, 647.5175
392.3584, 625.0900
392.8405, 605.1508
393.3226, 589.6022
393.8047, 577.6086
394.2869, 565.3422
394.7690, 548.9183
395.2511, 533.3920
395.7332, 522.3198
396.2154, 518.8206
396.6975, 514.4357
397.1796, 506.3708
397.6617, 496.4081
398.1438, 487.6772
398.6259, 481.0970
399.1081, 475.2074
399.5902, 469.9538
400.0723, 465.5457
400.5544, 460.0914
401.0365, 451.5263
401.5186, 443.4190
402.0008, 439.1425
402.4829, 442.0858
402.9650, 442.1852
403.4471, 436.8765
403.9292, 427.8835
404.4113, 423.0381
404.8935, 424.1081
405.3756, 425.1833
405.8577, 422.9402
406.3398, 416.8961
406.8219, 411.1584
407.3040, 405.4935
407.7862, 400.6636
408.2683, 397.8551
408.7504, 397.1084
409.2325, 397.2313
409.7146, 398.5406
410.1967, 400.2609
410.6789, 399.4955
411.1610, 396.1761
411.6431, 392.2905
412.1252, 389.2363
412.6073, 386.9738
413.0894, 385.5751
413.5716, 385.3593
414.0537, 385.3961
414.5358, 384.5898
415.0179, 383.0921
415.5000, 381.3758
415.9821, 379.9430
416.4643, 378.2979
416.9464, 375.2570
417.4285, 370.5748
417.9106, 367.3326
418.3927, 368.9930
418.8748, 372.7238
419.3570, 375.1352
419.8391, 373.7172
420.3212, 372.1048
420.8033, 371.8808
421.2854, 372.7979
421.7675, 373.6528
422.2497, 374.7337
422.7318, 375.1790
423.2139, 374.2950
423.6960, 370.8971
424.1781, 368.6337
424.6602, 369.2642
425.1424, 370.8998
425.6245, 370.7046
426.1066, 366.2634
426.5887, 363.0496
427.0709, 362.4366
427.5530, 364.4202
428.0351, 366.6773
428.5172, 369.9488
428.9993, 372.5014
429.4814, 372.5883
429.9636, 369.0609
430.4457, 367.7071
430.9278, 369.7140
431.4099, 373.4329
431.8920, 375.0382
432.3741, 374.2468
432.8563, 373.6388
433.3384, 374.3394
433.8205, 376.2426
434.3026, 379.0335
434.7847, 382.9217
435.2668, 386.1561
435.7490, 385.7732
436.2311, 382.9989
436.7132, 382.4002
437.1953, 386.0099
437.6774, 391.1608
438.1595, 394.5020
438.6417, 396.3070
439.1238, 397.7056
439.6059, 398.4807
440.0880, 399.6577
440.5701, 402.7529
441.0522, 408.2529
441.5344, 413.4643
442.0165, 415.4502
442.4986, 416.5732
442.9807, 419.7218
443.4628, 428.6074
443.9449, 436.9948
444.4271, 441.6307
444.9092, 443.2654
445.3913, 446.3600
445.8734, 452.3649
446.3555, 459.7424
446.8376, 467.7774
447.3198, 476.5538
447.8019, 485.7510
448.2840, 495.1622
448.7661, 504.9802
449.2482, 515.4928
449.7303, 526.8970
450.2125, 538.4651
450.6946, 549.8392
451.1767, 561.1840
451.6588, 574.0082
452.1409, 588.4182
452.6230, 604.2869
453.1052, 621.2493
453.5873, 639.4034
454.0694, 659.6403
454.5515, 682.4513
455.0337, 706.4012
455.5158, 726.9305
455.9979, 744.7116
456.4800, 767.1600
456.9621, 801.6747
457.4442, 842.0421
457.9264, 873.2701
458.4085, 895.5091
458.8906, 915.8226
459.3727, 937.2582
459.8548, 961.0075
460.3369, 988.7088
460.8191, 1021.594
461.3012, 1057.200
461.7833, 1095.495
462.2654, 1135.086
462.7475, 1172.911
463.2296, 1204.945
463.7118, 1237.562
464.1939, 1275.344
464.6760, 1318.956
465.1581, 1360.972
465.6402, 1397.640
466.1223, 1432.397
466.6045, 1467.163
467.0866, 1504.395
467.5687, 1538.740
468.0508, 1572.037
468.5329, 1602.230
469.0150, 1625.155
469.4972, 1640.231
469.9793, 1648.567
470.4614, 1650.136
470.9435, 1644.883
471.4256, 1634.353
471.9077, 1618.863
472.3899, 1597.541
472.8720, 1568.882
473.3541, 1532.079
473.8362, 1492.962
474.3183, 1451.956
474.8004, 1409.143
475.2826, 1364.136
475.7647, 1317.060
476.2468, 1269.740
476.7289, 1221.970
477.2110, 1174.629
477.6931, 1130.618
478.1753, 1089.752
478.6574, 1050.811
479.1395, 1012.457
479.6216, 975.4747
480.1037, 941.0380
480.5858, 909.4633
481.0680, 880.2540
481.5501, 853.9360
482.0322, 829.6323
482.5143, 805.7504
482.9964, 780.3698
483.4786, 756.4012
483.9607, 735.7974
484.4428, 719.1095
484.9249, 701.7499
485.4070, 680.7950
485.8892, 660.3392
486.3713, 643.4315
486.8534, 634.3696
487.3355, 622.6285
487.8176, 605.9960
488.2997, 587.2319
488.7819, 572.1082
489.2640, 562.1003
489.7461, 552.2075
490.2282, 540.3639
490.7103, 526.7273
491.1924, 516.1641
491.6746, 509.0804
492.1567, 503.0895
492.6388, 496.0870
493.1209, 488.1890
493.6030, 481.5045
494.0851, 476.5479
494.5673, 471.9385
495.0494, 464.9457
495.5315, 456.4020
496.0136, 449.5730
496.4957, 447.4850
496.9778, 446.9610
497.4600, 444.2589
497.9421, 439.5615
498.4242, 434.8082
498.9063, 430.7884
499.3884, 427.4071
499.8705, 424.6666
500.3527, 423.0082
500.8348, 420.9496
501.3169, 418.1037
501.7990, 414.5580
502.2811, 410.3983
502.7632, 403.1833
503.2454, 398.0618
503.7275, 397.4982
504.2096, 400.8861
504.6917, 401.3640
505.1738, 397.1213
505.6559, 392.4437
506.1381, 389.5733
506.6202, 388.8610
507.1023, 388.7169
507.5844, 389.4653
508.0665, 390.2100
508.5486, 389.4922
509.0308, 387.2658
509.5129, 385.3386
509.9950, 384.0953
510.4771, 383.4914
510.9592, 383.6792
511.4413, 384.5712
511.9235, 385.3870
512.4056, 385.2582
512.8877, 384.8729
513.3698, 385.6654
513.8519, 387.8578
514.3340, 389.3295
514.8162, 387.2487
515.2983, 384.0266
515.7804, 382.6057
516.2625, 385.1823
516.7446, 388.0397
517.2267, 389.7047
517.7089, 390.5479
518.1910, 391.4497
518.6731, 392.8856
519.1552, 394.1562
519.6373, 395.0205
520.1194, 395.4825
520.6016, 395.5854
521.0837, 394.7717
521.5658, 394.2111
522.0479, 394.8741
522.5300, 397.1618
523.0121, 399.1338
523.4943, 400.5335
523.9764, 401.7272
524.4585, 403.4660
524.9406, 405.7349
525.4227, 407.8881
525.9048, 409.7415
526.3870, 411.2881
526.8691, 412.3132
527.3513, 412.8769
527.8334, 413.7762
528.3155, 416.3612
528.7976, 419.3737
529.2797, 420.9931
529.7618, 420.9446
530.2440, 419.9054
530.7261, 417.6261
531.2082, 414.8640
531.6903, 412.6313
532.1724, 410.7184
532.6545, 409.9193
533.1367, 411.3055
533.6188, 414.1524
534.1009, 415.9273
534.5830, 415.5768
535.0651, 414.7274
535.5472, 413.9653
536.0294, 413.3899
536.5115, 411.9919
536.9936, 409.0303
537.4757, 406.2852
537.9578, 405.6282
538.4399, 407.5810
538.9221, 408.0441
539.4042, 406.0821
539.8863, 403.3702
540.3684, 403.2577
540.8505, 405.5064
541.3326, 407.2398
541.8148, 406.7109
542.2969, 405.2903
542.7790, 405.7015
543.2611, 407.7147
543.7432, 409.4995
544.2253, 409.5045
544.7075, 408.8190
545.1896, 408.7148
545.6717, 409.5519
546.1538, 409.8973
546.6359, 407.9672
547.1180, 405.6315
547.6002, 404.9043
548.0823, 407.8942
548.5644, 410.6378
549.0465, 411.9371
549.5286, 412.4666
550.0107, 414.3126
550.4929, 419.0181
550.9750, 422.6789
551.4571, 423.6443
551.9392, 421.8950
552.4213, 421.4586
552.9034, 422.5659
553.3856, 424.2370
553.8677, 425.7067
554.3498, 427.0094
554.8319, 428.6014
555.3140, 430.5683
555.7961, 432.6874
556.2783, 435.0026
556.7604, 437.2579
557.2425, 438.7067
557.7246, 439.1878
558.2067, 438.6303
558.6888, 435.3874
559.1710, 430.6830
559.6531, 428.7410
560.1352, 434.9213
560.6173, 441.8953
561.0994, 444.8220
561.5815, 442.7556
562.0637, 441.7364
562.5458, 443.8011
563.0279, 446.7752
563.5100, 449.1022
563.9921, 450.6444
564.4742, 451.6916
564.9564, 451.8637
565.4385, 451.8327
565.9206, 452.7851
566.4027, 454.8471
566.8848, 457.2858
567.3669, 460.2540
567.8491, 463.2433
568.3312, 463.7702
568.8133, 461.9579
569.2954, 461.2132
569.7775, 465.4990
570.2596, 471.8508
570.7418, 474.3769
571.2239, 472.6671
571.7060, 470.2065
572.1881, 468.6278
572.6702, 468.1944
573.1523, 469.3498
573.6345, 473.1144
574.1166, 476.8123
574.5987, 480.0778
575.0808, 482.4814
575.5629, 483.3434
576.0450, 480.1125
576.5272, 478.0701
577.0093, 478.8264
577.4914, 481.8292
577.9735, 483.2517
578.4556, 482.0897
578.9377, 481.4174
579.4199, 483.2887
579.9020, 487.7615
580.3841, 490.0757
580.8662, 489.9480
581.3483, 489.2022
581.8304, 489.7048
582.3126, 491.1109
582.7947, 492.2682
583.2768, 493.0196
583.7589, 493.2982
584.2410, 492.0273
584.7231, 490.3063
585.2053, 490.3147
585.6874, 495.1811
586.1696, 499.9570
586.6517, 501.5067
587.1338, 500.5159
587.6159, 500.1650
588.0980, 501.6976
588.5801, 503.6469
589.0623, 505.1850
589.5444, 506.0178
