##NAMES=Molybdenite
##RRUFFID=R060124
##IDEAL CHEMISTRY=Mo^4+^S^2-^_2_
##LOCALITY=Crown Point mine, near Chelan, Washington, USA
##OWNER=RRUFF
##SOURCE=University of Arizona Mineral Museum
##DESCRIPTION=Steel gray distorted hexagonal tablet on quartz
##STATUS=The identification of this mineral is confirmed by single-crystal X-ray diffraction and chemical analysis.
##URL=rruff.info/R060124
##MEASURED CHEMISTRY=Mo_1.00_S_2.00_
89.78156, 0.0000000E+00
90.26367, 6.980659
90.74579, 7.042533
91.22791, 7.032331
91.71002, 6.955022
92.19214, 6.852107
92.67426, 6.715258
93.15638, 6.573328
93.63850, 6.510003
94.12061, 6.604571
94.60273, 6.782025
95.08485, 6.859056
95.56696, 6.825676
96.04908, 6.754706
96.53120, 6.778375
97.01331, 6.886186
97.49543, 6.871633
97.97755, 6.545308
98.45966, 5.936289
98.94178, 5.554690
99.42390, 5.443923
99.90602, 5.503624
100.3881, 5.573794
100.8703, 5.677055
101.3524, 5.709083
101.8345, 5.557666
102.3166, 5.131579
102.7987, 4.945694
103.2808, 5.149722
103.7630, 5.616820
104.2451, 5.748952
104.7272, 5.338140
105.2093, 4.868792
105.6914, 4.670639
106.1735, 4.951296
106.6557, 5.147552
107.1378, 5.141724
107.6199, 4.923910
108.1020, 4.846723
108.5841, 5.075873
109.0662, 5.358251
109.5484, 5.469838
110.0305, 5.106769
110.5126, 4.875715
110.9947, 4.970745
111.4768, 5.520415
111.9590, 5.809026
112.4411, 5.499537
112.9232, 4.960435
113.4053, 4.674766
113.8874, 5.022631
114.3695, 5.395838
114.8517, 5.551047
115.3338, 5.382428
115.8159, 5.191939
116.2980, 5.033463
116.7801, 4.912473
117.2622, 4.840737
117.7444, 4.666243
118.2265, 4.633191
118.7086, 4.972842
119.1907, 6.133193
119.6728, 7.070757
120.1549, 7.017640
120.6371, 6.177189
121.1192, 5.370568
121.6013, 5.073359
122.0834, 5.067701
122.5655, 5.119453
123.0476, 5.190214
123.5298, 5.261971
124.0119, 5.282615
124.4940, 5.260248
124.9761, 5.309654
125.4582, 5.606154
125.9404, 6.038503
126.4225, 6.385649
126.9046, 6.458817
127.3867, 6.425645
127.8688, 6.597764
128.3509, 6.996065
128.8331, 7.396024
129.3152, 7.498108
129.7973, 7.360406
130.2794, 7.271894
130.7615, 7.394051
131.2436, 7.674871
131.7258, 7.939165
132.2079, 8.177875
132.6900, 8.407445
133.1721, 8.657896
133.6542, 8.928471
134.1364, 9.192303
134.6185, 9.419994
135.1006, 9.615728
135.5827, 9.843340
136.0648, 10.08024
136.5469, 10.38307
137.0291, 10.99652
137.5112, 12.02789
137.9933, 12.90604
138.4754, 13.19967
138.9575, 12.80326
139.4396, 12.46500
139.9218, 12.28780
140.4039, 12.23227
140.8860, 12.07492
141.3681, 11.71373
141.8502, 11.43516
142.3323, 11.51310
142.8145, 12.12625
143.2966, 12.63578
143.7787, 12.92169
144.2608, 12.98984
144.7429, 13.06031
145.2250, 13.12324
145.7072, 13.19828
146.1893, 13.32184
146.6714, 13.64368
147.1535, 13.78551
147.6356, 13.58899
148.1178, 12.96811
148.5999, 12.59456
149.0820, 12.47691
149.5641, 12.60615
150.0462, 12.52401
150.5283, 13.15423
151.0105, 13.53568
151.4926, 13.68167
151.9747, 12.88710
152.4568, 13.30708
152.9389, 13.24032
153.4210, 13.15361
153.9032, 13.74454
154.3853, 13.08677
154.8674, 13.66695
155.3495, 13.75296
155.8316, 14.06514
156.3137, 13.88757
156.7959, 13.86129
157.2780, 14.32489
157.7601, 14.51723
158.2422, 14.28328
158.7243, 14.60984
159.2065, 13.93497
159.6886, 14.13887
160.1707, 14.37087
160.6528, 14.56440
161.1349, 14.77085
161.6170, 14.90903
162.0992, 15.00885
162.5813, 14.99811
163.0634, 14.80895
163.5455, 14.23976
164.0276, 13.74587
164.5097, 13.55987
164.9919, 13.62784
165.4740, 13.74437
165.9561, 13.81600
166.4382, 13.88704
166.9203, 13.99964
167.4024, 14.19452
167.8846, 14.40419
168.3667, 14.62597
168.8488, 14.84754
169.3309, 14.98514
169.8130, 14.99900
170.2952, 14.89757
170.7773, 14.68692
171.2594, 14.17913
171.7415, 13.70556
172.2236, 13.57931
172.7057, 13.78245
173.1879, 14.06462
173.6700, 14.31114
174.1521, 14.50384
174.6342, 14.61400
175.1163, 14.56381
175.5984, 14.45971
176.0806, 14.44475
176.5627, 14.51968
177.0448, 14.57938
177.5269, 14.50665
178.0090, 14.34590
178.4911, 14.20038
178.9733, 14.12271
179.4554, 14.08583
179.9375, 14.04099
180.4196, 13.98527
180.9017, 13.94814
181.3838, 13.95924
181.8660, 14.01458
182.3481, 14.10094
182.8302, 14.27249
183.3123, 14.46560
183.7944, 14.51641
184.2766, 14.40729
184.7587, 14.23474
185.2408, 14.09658
185.7229, 13.99208
186.2050, 13.90921
186.6871, 13.87536
187.1693, 13.86436
187.6514, 13.76024
188.1335, 13.53285
188.6156, 13.29250
189.0977, 13.20464
189.5798, 13.26372
190.0620, 13.35638
190.5441, 13.43289
191.0262, 13.49515
191.5083, 13.56930
191.9904, 13.67399
192.4725, 13.75436
192.9547, 13.69551
193.4368, 13.49311
193.9189, 13.27952
194.4010, 13.11904
194.8831, 13.01024
195.3652, 12.92445
195.8474, 12.84885
196.3295, 12.81270
196.8116, 12.92332
197.2937, 13.20300
197.7758, 13.41875
198.2579, 13.38316
198.7401, 13.08885
199.2222, 12.88576
199.7043, 12.79610
200.1864, 12.81432
200.6685, 12.99237
201.1507, 13.38116
201.6328, 13.68484
202.1149, 13.64326
202.5970, 13.20171
203.0791, 12.99886
203.5612, 13.15295
204.0434, 13.52750
204.5255, 13.74699
205.0076, 13.77784
205.4897, 13.77050
205.9718, 13.84506
206.4539, 14.03851
206.9361, 14.07216
207.4182, 13.84935
207.9003, 13.48408
208.3824, 13.36709
208.8645, 13.58259
209.3466, 13.82613
209.8288, 13.91023
210.3109, 13.80419
210.7930, 13.66927
211.2751, 13.50361
211.7572, 13.32340
212.2393, 13.17376
212.7215, 13.04201
213.2036, 12.97083
213.6857, 13.00294
214.1678, 13.17463
214.6499, 13.33119
215.1320, 13.47389
215.6142, 13.59155
216.0963, 13.62593
216.5784, 13.55083
217.0605, 13.44290
217.5426, 13.34455
218.0247, 13.25112
218.5069, 13.18371
218.9890, 13.14512
219.4711, 13.13424
219.9532, 13.14906
220.4353, 13.20556
220.9175, 13.26191
221.3996, 13.29396
221.8817, 13.30041
222.3638, 13.28389
222.8459, 13.23587
223.3280, 13.16370
223.8102, 13.11207
224.2923, 13.09807
224.7744, 13.07698
225.2565, 13.01417
225.7386, 12.87879
226.2207, 12.77664
226.7029, 12.72191
227.1850, 12.70826
227.6671, 12.70999
228.1492, 12.74347
228.6313, 12.76907
229.1134, 12.76701
229.5956, 12.74833
230.0777, 12.67733
230.5598, 12.54669
231.0419, 12.36096
231.5240, 12.12908
232.0062, 11.79917
232.4883, 11.49383
232.9704, 11.28870
233.4525, 11.21503
233.9346, 11.17638
234.4167, 11.18737
234.8989, 11.23123
235.3810, 11.22925
235.8631, 11.17215
236.3452, 11.08089
236.8273, 10.95324
237.3094, 10.72833
237.7916, 10.60254
238.2737, 10.62079
238.7558, 10.74782
239.2379, 10.59663
239.7200, 10.87242
240.2021, 11.02177
240.6843, 11.05148
241.1664, 10.60319
241.6485, 10.77214
242.1306, 10.69372
242.6127, 10.60517
243.0948, 10.86098
243.5770, 10.48222
244.0591, 10.73257
244.5412, 10.73180
245.0233, 10.84596
245.5054, 10.71123
245.9876, 10.65338
246.4697, 10.84449
246.9518, 10.89775
247.4339, 10.73437
247.9160, 10.85584
248.3981, 10.46838
248.8803, 10.52751
249.3624, 10.77932
249.8445, 10.62846
250.3266, 10.75448
250.8087, 10.77504
251.2908, 10.31638
251.7730, 10.69114
252.2551, 10.70547
252.7372, 10.34972
253.2193, 10.69593
253.7014, 10.39120
254.1835, 10.31882
254.6657, 10.42129
255.1478, 10.34148
255.6299, 10.54905
256.1120, 10.47977
256.5941, 10.60459
257.0763, 10.68593
257.5584, 10.56330
258.0405, 10.32848
258.5226, 10.16077
259.0047, 10.06546
259.4868, 10.02364
259.9690, 10.03768
260.4511, 10.12125
260.9332, 10.20456
261.4153, 10.30916
261.8974, 10.39575
262.3795, 10.38040
262.8617, 10.20865
263.3438, 10.06618
263.8259, 10.02345
264.3080, 10.09700
264.7901, 10.15071
265.2722, 10.16902
265.7544, 10.18573
266.2365, 10.24972
266.7186, 10.36773
267.2007, 10.51401
267.6828, 10.70453
268.1649, 10.95021
268.6471, 11.06936
269.1292, 11.02885
269.6113, 10.91802
270.0934, 10.84458
270.5755, 10.81552
271.0576, 10.79424
271.5398, 10.76894
272.0219, 10.73999
272.5040, 10.73168
272.9861, 10.74971
273.4682, 10.77606
273.9503, 10.78019
274.4325, 10.74946
274.9146, 10.76859
275.3967, 10.86418
275.8788, 11.02947
276.3610, 11.21035
276.8431, 11.40993
277.3252, 11.61016
277.8073, 11.78770
278.2894, 11.93920
278.7715, 12.11476
279.2537, 12.35569
279.7358, 12.62260
280.2179, 12.71045
280.7000, 12.57471
281.1821, 12.46264
281.6642, 12.61191
282.1464, 13.02433
282.6285, 13.38967
283.1106, 13.65883
283.5927, 13.84892
284.0748, 13.98784
284.5569, 14.07007
285.0391, 14.15467
285.5212, 14.39737
286.0033, 14.75808
286.4854, 14.72461
286.9675, 14.15526
287.4496, 13.28145
287.9318, 12.50876
288.4139, 11.83194
288.8960, 11.27891
289.3781, 10.84713
289.8602, 10.53953
290.3423, 10.40619
290.8245, 10.49438
291.3066, 10.64732
291.7887, 10.58237
292.2708, 10.32435
292.7529, 10.10660
293.2350, 10.08686
293.7172, 10.20902
294.1993, 10.31317
294.6814, 10.39603
295.1635, 10.44133
295.6456, 10.40613
296.1277, 10.30703
296.6099, 10.21464
297.0920, 10.15679
297.5741, 10.12970
298.0562, 10.12599
298.5383, 10.14496
299.0204, 10.19455
299.5026, 10.32820
299.9847, 10.50361
300.4668, 10.61188
300.9489, 10.58207
301.4311, 10.47363
301.9132, 10.34154
302.3953, 10.18712
302.8774, 10.07208
303.3595, 10.05592
303.8416, 10.11078
304.3238, 10.19262
304.8059, 10.32373
305.2880, 10.43856
305.7701, 10.42620
306.2522, 10.31134
306.7343, 10.24530
307.2165, 10.41953
307.6986, 10.66940
308.1807, 10.77627
308.6628, 10.61688
309.1449, 10.41707
309.6270, 10.35018
310.1092, 10.38635
310.5913, 10.43214
311.0734, 10.39521
311.5555, 10.36703
312.0376, 10.44916
312.5197, 10.71186
313.0019, 10.94368
313.4840, 11.05233
313.9661, 11.04651
314.4482, 10.94652
314.9303, 10.49309
315.4124, 10.67712
315.8946, 10.78478
316.3767, 10.82019
316.8588, 10.56690
317.3409, 10.68640
317.8230, 10.65650
318.3051, 10.62048
318.7873, 10.79245
319.2694, 10.58115
319.7515, 10.74981
320.2336, 10.76681
320.7157, 10.96665
321.1978, 11.00576
321.6800, 10.87892
322.1621, 11.04780
322.6442, 11.14032
323.1263, 11.16058
323.6084, 10.89215
324.0905, 10.99650
324.5727, 11.19865
325.0548, 11.18710
325.5369, 11.06741
326.0190, 10.95419
326.5012, 10.73657
326.9833, 10.66581
327.4654, 10.88909
327.9475, 11.30924
328.4296, 11.52991
328.9117, 11.28761
329.3939, 11.07855
329.8760, 10.97791
330.3581, 11.16459
330.8402, 11.27492
331.3223, 11.31298
331.8044, 11.06236
332.2866, 11.18451
332.7687, 11.15728
333.2508, 11.12391
333.7329, 11.29854
334.2150, 11.04747
334.6971, 10.97495
335.1793, 11.06600
335.6614, 11.20710
336.1435, 11.24247
336.6256, 11.12947
337.1077, 11.02350
337.5898, 10.95784
338.0720, 10.93170
338.5541, 10.94583
339.0362, 11.00090
339.5183, 11.09532
340.0004, 11.25984
340.4825, 11.52144
340.9647, 11.66191
341.4468, 11.60347
341.9289, 11.42087
342.4110, 11.36578
342.8931, 11.45349
343.3752, 11.57051
343.8574, 11.63637
344.3395, 11.65536
344.8216, 11.69501
345.3037, 11.77314
345.7858, 11.85147
346.2679, 11.84874
346.7501, 11.76984
347.2322, 11.69681
347.7143, 11.65952
348.1964, 11.66107
348.6785, 11.73490
349.1607, 11.89758
349.6428, 12.04475
350.1249, 11.99500
350.6070, 11.82127
351.0891, 11.75558
351.5713, 11.99067
352.0534, 12.34116
352.5355, 12.49697
353.0176, 12.46499
353.4997, 12.47260
353.9818, 12.79632
354.4640, 13.25308
354.9461, 13.55925
355.4282, 13.57327
355.9103, 13.48207
356.3924, 13.41746
356.8745, 13.37873
357.3567, 13.36403
357.8388, 13.38798
358.3209, 13.42626
358.8030, 13.44787
359.2851, 13.42439
359.7672, 13.44766
360.2494, 13.57091
360.7315, 13.77559
361.2136, 14.02469
361.6957, 14.25525
362.1778, 14.56812
362.6599, 15.04783
363.1421, 15.72411
363.6242, 16.37543
364.1063, 16.75084
364.5884, 17.14584
365.0705, 17.85925
365.5526, 19.24902
366.0348, 20.64615
366.5169, 21.97562
366.9990, 23.22338
367.4811, 24.22803
367.9632, 24.88759
368.4453, 25.36080
368.9275, 25.72860
369.4096, 25.84064
369.8917, 26.05506
370.3738, 26.38327
370.8559, 26.81919
371.3380, 27.34088
371.8202, 27.98507
372.3023, 28.67170
372.7844, 29.35108
373.2665, 29.98243
373.7487, 30.75430
374.2308, 31.66578
374.7129, 32.71886
375.1950, 33.88652
375.6771, 35.08886
376.1592, 36.68630
376.6414, 38.86041
377.1235, 41.55430
377.6056, 44.28500
378.0877, 47.08447
378.5698, 49.89256
379.0519, 52.79145
379.5341, 55.76029
380.0162, 58.37638
380.4983, 60.44100
380.9804, 62.24305
381.4625, 64.75364
381.9446, 67.97171
382.4268, 70.15672
382.9089, 70.73244
383.3910, 69.48790
383.8731, 65.18593
384.3552, 57.33409
384.8373, 48.42620
385.3195, 40.75086
385.8016, 34.33248
386.2837, 29.11814
386.7658, 25.28760
387.2479, 22.62623
387.7300, 20.99468
388.2122, 20.38250
388.6943, 20.32944
389.1764, 20.58313
389.6585, 21.16788
390.1406, 22.12521
390.6227, 23.53665
391.1049, 25.21833
391.5870, 27.23640
392.0691, 29.45316
392.5512, 31.45384
393.0333, 33.07244
393.5154, 34.39754
393.9976, 35.41920
394.4797, 36.03010
394.9618, 36.71214
395.4439, 37.70662
395.9260, 38.83587
396.4081, 39.85946
396.8903, 40.26758
397.3724, 41.03395
397.8545, 42.51946
398.3366, 44.75480
398.8188, 47.07035
399.3009, 49.20717
399.7830, 51.55575
400.2651, 54.34527
400.7472, 57.42761
401.2293, 61.17954
401.7115, 65.61880
402.1936, 70.75402
402.6757, 76.70327
403.1578, 83.89040
403.6399, 91.19008
404.1220, 98.01702
404.6042, 104.2774
405.0863, 110.9217
405.5684, 118.1311
406.0505, 125.3157
406.5326, 132.0410
407.0147, 138.5217
407.4969, 143.2766
407.9790, 147.0663
408.4611, 148.6340
408.9432, 141.7071
409.4253, 125.7727
409.9074, 106.9281
410.3896, 87.99807
410.8717, 69.61925
411.3538, 54.73570
411.8359, 44.18137
412.3180, 36.61645
412.8001, 30.73133
413.2823, 26.49779
413.7644, 23.35806
414.2465, 21.48034
414.7286, 20.36188
415.2107, 19.35140
415.6928, 18.42753
416.1750, 17.63739
416.6571, 17.09377
417.1392, 16.69111
417.6213, 16.26390
418.1034, 15.67028
418.5855, 15.13804
419.0677, 14.81040
419.5498, 14.65874
420.0319, 14.58929
420.5140, 14.65874
420.9961, 14.72949
421.4782, 14.71087
421.9604, 14.55685
422.4425, 14.40491
422.9246, 14.27263
423.4067, 14.16382
423.8889, 14.08213
424.3710, 14.07701
424.8531, 14.04836
425.3352, 13.95304
425.8173, 13.79029
426.2994, 13.69856
426.7816, 13.72880
427.2637, 13.77933
427.7458, 13.77029
428.2279, 13.62673
428.7100, 13.62275
429.1921, 13.84799
429.6743, 14.17561
430.1564, 14.28678
430.6385, 14.13679
431.1206, 13.94032
431.6027, 13.73610
432.0848, 13.53069
432.5670, 13.57038
433.0491, 13.90614
433.5312, 14.27907
434.0133, 14.40733
434.4954, 14.31954
434.9775, 14.18981
435.4597, 14.00843
435.9418, 13.87390
436.4239, 14.01262
436.9060, 14.38884
437.3881, 14.78074
437.8702, 15.09662
438.3524, 15.32357
438.8345, 15.39764
439.3166, 15.28420
439.7987, 15.20937
440.2808, 15.38912
440.7629, 15.71920
441.2451, 16.03502
441.7272, 16.34530
442.2093, 16.55928
442.6914, 16.54691
443.1735, 16.35198
443.6556, 16.26324
444.1378, 16.45566
444.6199, 16.74109
445.1020, 17.01265
445.5841, 17.29626
446.0662, 17.48458
446.5483, 17.43225
447.0305, 17.30280
447.5126, 17.37547
447.9947, 17.91223
448.4768, 18.33526
448.9590, 18.48770
449.4411, 18.36224
449.9232, 18.28477
450.4053, 18.30344
450.8874, 18.29903
451.3695, 18.15436
451.8517, 17.80969
452.3338, 17.59817
452.8159, 17.59327
453.2980, 17.68732
453.7801, 17.68935
454.2622, 17.60188
454.7444, 17.38263
455.2265, 16.94205
455.7086, 16.34466
456.1907, 15.88872
456.6728, 15.57486
457.1549, 15.32905
457.6371, 15.04705
458.1192, 14.77471
458.6013, 14.64098
459.0834, 14.75273
459.5655, 14.87678
460.0476, 14.71764
460.5298, 14.35388
461.0119, 14.02699
461.4940, 13.87848
461.9761, 13.79875
462.4582, 13.69199
462.9403, 13.54398
463.4225, 13.44894
463.9046, 13.60005
464.3867, 13.75506
464.8688, 13.68185
465.3509, 13.07884
465.8330, 12.52382
466.3152, 12.13621
466.7973, 11.88928
467.2794, 11.68678
467.7615, 11.57854
468.2436, 11.45607
468.7257, 11.29100
469.2079, 11.09387
469.6900, 10.80646
470.1721, 10.36512
470.6542, 9.905446
471.1363, 9.570935
471.6184, 9.381079
472.1006, 9.246337
472.5827, 9.174511
473.0648, 9.133300
473.5469, 9.010113
474.0291, 8.797502
474.5112, 8.590977
474.9933, 8.449091
475.4754, 8.360124
475.9575, 8.270062
476.4396, 8.174638
476.9218, 8.096415
477.4039, 8.088510
477.8860, 8.116575
478.3681, 8.093600
478.8502, 7.941386
479.3323, 7.789355
479.8145, 7.776397
480.2966, 7.876178
480.7787, 7.990217
481.2608, 8.130386
481.7429, 8.223750
482.2250, 8.197937
482.7072, 8.022321
483.1893, 7.862027
483.6714, 7.752095
484.1535, 7.695306
484.6356, 7.693604
485.1177, 7.815407
485.5999, 7.913905
486.0820, 7.983927
486.5641, 8.017454
487.0462, 7.973483
487.5283, 7.765902
488.0104, 7.596864
488.4926, 7.558660
488.9747, 7.679179
489.4568, 7.754725
489.9389, 7.780857
490.4210, 7.768884
490.9031, 7.706076
491.3853, 7.584894
491.8674, 7.542305
492.3495, 7.634729
492.8316, 7.787465
493.3137, 7.819652
493.7958, 7.742619
494.2780, 7.682265
494.7601, 7.764039
495.2422, 7.899635
495.7243, 7.881249
496.2064, 7.692153
496.6885, 7.542630
497.1707, 7.669885
497.6528, 7.917772
498.1349, 8.065157
498.6170, 7.970269
499.0992, 7.879524
499.5813, 7.958205
500.0634, 8.144525
500.5455, 8.287115
501.0276, 8.331481
501.5097, 8.326712
501.9919, 8.269384
502.4740, 8.143818
502.9561, 8.082568
503.4382, 8.149474
503.9203, 8.244751
504.4024, 8.303781
504.8846, 8.324924
505.3667, 8.305365
505.8488, 8.209283
506.3309, 8.094629
506.8130, 8.122873
507.2951, 8.346976
507.7773, 8.472267
508.2594, 8.333925
508.7415, 7.996481
509.2236, 7.838082
509.7057, 7.869118
510.1878, 7.946535
510.6700, 7.940398
511.1521, 7.885758
511.6342, 7.901706
512.1163, 8.026418
512.5984, 8.151787
513.0806, 8.136847
513.5627, 8.038594
514.0448, 7.976143
514.5269, 8.032362
515.0090, 8.116717
515.4911, 8.153498
515.9733, 8.155012
516.4554, 8.205657
516.9375, 8.462405
517.4196, 8.687605
517.9017, 8.717917
518.3839, 8.422054
518.8660, 8.208245
519.3481, 8.172718
519.8302, 8.216703
520.3123, 8.235051
520.7944, 8.183242
521.2766, 8.191684
521.7587, 8.311098
522.2408, 8.501080
522.7229, 8.600303
523.2050, 8.589643
523.6871, 8.559811
524.1693, 8.546643
524.6514, 8.551364
525.1335, 8.605372
525.6156, 8.719523
526.0977, 8.813176
526.5798, 8.773534
527.0620, 8.645160
527.5441, 8.569637
528.0262, 8.606258
528.5083, 8.653094
528.9904, 8.561737
529.4725, 8.392327
529.9547, 8.292529
530.4368, 8.428773
530.9189, 8.584492
531.4010, 8.601462
531.8831, 8.477063
532.3652, 8.375804
532.8474, 8.358115
533.3295, 8.375088
533.8116, 8.396791
534.2937, 8.426139
534.7758, 8.449743
535.2579, 8.466251
535.7401, 8.477540
536.2222, 8.484958
536.7043, 8.485490
537.1864, 8.491387
537.6685, 8.512278
538.1506, 8.540010
538.6328, 8.532810
539.1149, 8.487093
539.5970, 8.428835
540.0791, 8.354028
540.5612, 8.275081
541.0433, 8.266108
541.5255, 8.334662
542.0076, 8.423766
542.4897, 8.474397
542.9718, 8.505388
543.4539, 8.562345
543.9360, 8.687961
544.4182, 8.788069
544.9003, 8.718303
545.3824, 8.566260
545.8645, 8.526730
546.3466, 8.812219
546.8287, 9.107580
547.3109, 9.268806
547.7930, 9.285449
548.2751, 9.267445
548.7572, 9.207582
549.2393, 9.134109
549.7214, 8.740771
550.2036, 9.074626
550.6857, 9.282030
551.1678, 9.369784
551.6499, 8.979548
552.1320, 9.206543
552.6141, 9.186174
553.0963, 9.155680
553.5784, 9.469548
554.0605, 9.148829
554.5426, 9.457237
555.0247, 9.514511
555.5068, 9.686716
555.9890, 9.610053
556.4711, 9.610251
556.9532, 9.859409
557.4353, 9.701437
557.9174, 9.735328
558.3995, 9.851441
558.8817, 9.998072
559.3638, 10.11975
559.8459, 10.19998
560.3281, 10.25854
560.8102, 10.28159
561.2923, 10.29210
561.7744, 10.32608
562.2565, 10.42224
562.7386, 10.50746
563.2208, 10.57829
563.7029, 10.63033
564.1850, 10.62928
564.6671, 10.54609
565.1492, 10.46114
565.6313, 10.39926
566.1135, 10.35634
566.5956, 10.42454
567.0777, 10.63609
567.5598, 10.84332
568.0419, 10.85450
568.5240, 10.71204
569.0062, 10.65159
569.4883, 10.75392
569.9704, 10.87144
570.4525, 10.76579
570.9346, 10.52091
571.4167, 10.35793
571.8989, 10.45213
572.3810, 10.59884
572.8631, 10.66927
573.3452, 10.66704
573.8273, 10.63844
574.3094, 10.55377
574.7916, 10.48410
575.2737, 10.47284
575.7558, 10.54445
576.2379, 10.61128
576.7200, 10.69707
577.2021, 10.75559
577.6843, 10.73830
578.1664, 10.61483
578.6485, 10.49869
579.1306, 10.38080
579.6127, 10.29796
580.0948, 10.35768
580.5770, 10.55998
581.0591, 10.71096
581.5412, 10.69904
582.0233, 10.60381
582.5054, 10.59600
582.9875, 10.66871
583.4697, 10.77076
583.9518, 10.92915
584.4339, 11.06534
584.9160, 11.06695
585.3981, 10.90623
