##NAMES=Molybdenite
##RRUFFID=R060124
##IDEAL CHEMISTRY=Mo^4+^S^2-^_2_
##LOCALITY=Crown Point mine, near Chelan, Washington, USA
##OWNER=RRUFF
##SOURCE=University of Arizona Mineral Museum
##DESCRIPTION=Steel gray distorted hexagonal tablet on quartz
##STATUS=The identification of this mineral is confirmed by single-crystal X-ray diffraction and chemical analysis.
##URL=rruff.info/R060124
##MEASURED CHEMISTRY=Mo_1.00_S_2.00_
92.02539, 214.4088
92.50751, 223.9044
92.98962, 229.9487
93.47174, 225.5426
93.95386, 217.1229
94.43597, 209.2639
94.91809, 204.5028
95.40021, 201.8584
95.88232, 197.1188
96.36444, 188.3633
96.84656, 180.2476
97.32867, 174.6880
97.81078, 170.6723
98.29290, 166.4948
98.77502, 160.7573
99.25713, 153.1847
99.73925, 144.9028
100.2214, 134.9616
100.7035, 125.2919
101.1856, 116.3372
101.6677, 108.2776
102.1498, 101.4706
102.6320, 96.36419
103.1141, 93.26496
103.5962, 91.59021
104.0783, 92.89701
104.5604, 94.97919
105.0425, 95.31557
105.5247, 93.05043
106.0068, 89.25880
106.4889, 85.61350
106.9710, 82.10341
107.4531, 78.64988
107.9352, 74.99114
108.4173, 71.24333
108.8995, 68.03598
109.3816, 65.68732
109.8637, 63.97640
110.3458, 62.64439
110.8279, 61.68860
111.3100, 61.00187
111.7922, 60.46022
112.2743, 60.05672
112.7564, 59.84169
113.2385, 60.03802
113.7206, 60.31710
114.2027, 60.36824
114.6849, 60.03328
115.1670, 59.43662
115.6491, 59.02137
116.1312, 58.90891
116.6133, 58.85731
117.0954, 58.90807
117.5776, 58.98033
118.0597, 58.93506
118.5418, 58.65168
119.0239, 58.12194
119.5060, 57.91584
119.9881, 58.23235
120.4703, 58.61119
120.9524, 58.90341
121.4345, 59.09310
121.9166, 59.21715
122.3987, 59.31937
122.8808, 59.39655
123.3630, 59.32050
123.8451, 58.94154
124.3272, 58.48468
124.8093, 58.20193
125.2914, 58.15408
125.7735, 58.14022
126.2557, 57.83480
126.7378, 57.30951
127.2199, 56.96061
127.7020, 57.19910
128.1841, 57.77543
128.6662, 57.84522
129.1483, 56.99483
129.6305, 55.92223
130.1126, 55.14358
130.5947, 54.65089
131.0768, 54.29971
131.5589, 53.89825
132.0410, 53.39547
132.5232, 53.26629
133.0053, 54.23472
133.4874, 55.14557
133.9695, 55.31294
134.4516, 54.63487
134.9337, 53.58323
135.4159, 52.85002
135.8980, 52.51495
136.3801, 52.39663
136.8622, 52.70854
137.3443, 53.07726
137.8264, 53.15624
138.3086, 52.81899
138.7907, 52.22746
139.2728, 51.83363
139.7549, 52.02040
140.2370, 51.96557
140.7191, 51.45046
141.2013, 50.68111
141.6834, 49.94390
142.1655, 49.38222
142.6476, 48.97992
143.1297, 48.67240
143.6118, 48.50913
144.0939, 48.36655
144.5761, 48.21567
145.0582, 48.05192
145.5403, 47.85229
146.0224, 47.60016
146.5045, 47.29757
146.9866, 46.95946
147.4688, 46.44780
147.9509, 46.01656
148.4330, 46.02716
148.9151, 46.57027
149.3972, 46.98547
149.8793, 46.74456
150.3615, 46.15471
150.8436, 45.54183
151.3257, 44.98466
151.8078, 44.49487
152.2899, 44.11720
152.7720, 43.89503
153.2542, 43.71180
153.7363, 43.47873
154.2184, 43.24804
154.7005, 43.11347
155.1826, 43.18061
155.6647, 43.41276
156.1469, 43.41920
156.6290, 42.83381
157.1111, 42.37306
157.5932, 42.33324
158.0753, 42.57695
158.5574, 42.78416
159.0396, 42.65871
159.5217, 42.13659
160.0038, 41.87830
160.4859, 41.99252
160.9680, 42.22847
161.4501, 42.56469
161.9323, 42.95305
162.4144, 43.28495
162.8965, 43.43494
163.3786, 43.33989
163.8607, 43.33196
164.3428, 43.46162
164.8250, 43.63469
165.3071, 43.76863
165.7892, 43.85406
166.2713, 43.96369
166.7534, 44.20087
167.2355, 44.58715
167.7177, 44.94440
168.1998, 45.23689
168.6819, 45.49817
169.1640, 45.76308
169.6461, 46.03417
170.1282, 46.32526
170.6104, 46.66759
171.0925, 47.05378
171.5746, 47.42705
172.0567, 47.75104
172.5388, 48.04246
173.0209, 48.35759
173.5031, 48.73631
173.9852, 49.09558
174.4673, 49.33698
174.9494, 49.47491
175.4315, 49.65622
175.9136, 50.06757
176.3958, 50.69588
176.8779, 51.10724
177.3600, 51.04350
177.8421, 50.89987
178.3242, 50.94862
178.8063, 51.17990
179.2885, 51.35991
179.7706, 51.16266
180.2527, 50.43637
180.7348, 50.00124
181.2169, 50.09095
181.6990, 50.34457
182.1812, 50.66939
182.6633, 51.01182
183.1454, 51.27115
183.6275, 51.27650
184.1096, 50.83925
184.5917, 50.54376
185.0738, 50.44435
185.5560, 50.42402
186.0381, 50.42769
186.5202, 50.43189
187.0023, 50.41660
187.4844, 50.34507
187.9665, 50.15138
188.4487, 50.00480
188.9308, 50.00368
189.4129, 50.00098
189.8950, 49.83175
190.3771, 49.44482
190.8592, 48.95713
191.3414, 48.59654
191.8235, 48.42716
192.3056, 48.26672
192.7877, 48.11715
193.2698, 47.96180
193.7519, 47.76284
194.2341, 47.49707
194.7162, 47.21789
195.1983, 47.03748
195.6804, 46.94857
196.1625, 46.92382
196.6446, 47.06159
197.1268, 47.25874
197.6089, 47.24430
198.0910, 46.84628
198.5731, 46.32600
199.0552, 46.10207
199.5373, 46.19953
200.0195, 46.36944
200.5016, 46.54919
200.9837, 46.71516
201.4658, 46.72060
201.9479, 46.39111
202.4300, 46.01397
202.9122, 45.93525
203.3943, 46.18854
203.8764, 46.47060
204.3585, 46.52130
204.8406, 46.34257
205.3227, 46.19556
205.8048, 46.12686
206.2870, 46.13020
206.7691, 46.26046
207.2512, 46.51815
207.7333, 46.71981
208.2154, 46.60150
208.6975, 46.08144
209.1797, 45.72878
209.6618, 45.78066
210.1439, 45.93521
210.6260, 46.05102
211.1081, 46.09895
211.5902, 46.11598
212.0724, 46.15197
212.5545, 46.22092
213.0366, 46.26422
213.5187, 46.25726
214.0008, 46.24027
214.4829, 46.23677
214.9651, 46.25157
215.4472, 46.27465
215.9293, 46.28471
216.4114, 46.24345
216.8935, 46.27515
217.3756, 46.52137
217.8578, 46.73274
218.3399, 46.66991
218.8220, 46.31160
219.3041, 45.89002
219.7862, 45.78066
220.2683, 46.27417
220.7505, 46.51739
221.2326, 46.34488
221.7147, 46.05581
222.1968, 45.89247
222.6789, 45.90748
223.1610, 45.97119
223.6432, 45.88325
224.1253, 45.49906
224.6074, 45.26570
225.0895, 45.38882
225.5716, 45.54746
226.0537, 45.41720
226.5358, 44.92809
227.0180, 44.29822
227.5001, 43.82292
227.9822, 43.54757
228.4643, 43.30764
228.9464, 43.10000
229.4285, 42.92115
229.9107, 42.80785
230.3928, 42.77320
230.8749, 42.69593
231.3570, 42.37576
231.8391, 41.78352
232.3212, 41.28521
232.8034, 41.00649
233.2855, 40.82713
233.7676, 40.62478
234.2497, 40.38897
234.7318, 40.06433
235.2139, 39.49751
235.6961, 38.72497
236.1782, 38.07493
236.6603, 37.69826
237.1424, 37.47343
237.6245, 37.21812
238.1066, 36.90506
238.5888, 36.57236
239.0709, 36.25084
239.5530, 35.93721
240.0351, 35.61487
240.5172, 35.24433
240.9993, 34.86734
241.4815, 34.57221
241.9636, 34.37987
242.4457, 34.22638
242.9278, 34.11903
243.4099, 34.01747
243.8920, 33.82314
244.3742, 33.44687
244.8563, 32.95747
245.3384, 32.50122
245.8205, 32.06794
246.3026, 31.69690
246.7847, 31.40290
247.2668, 31.17977
247.7490, 31.03897
248.2311, 31.05855
248.7132, 31.12885
249.1953, 30.93416
249.6774, 30.29952
250.1595, 29.75830
250.6417, 29.56058
251.1238, 29.56811
251.6059, 29.62774
252.0880, 29.69348
252.5701, 29.74018
253.0522, 29.69695
253.5344, 29.52250
254.0165, 29.33558
254.4986, 29.15569
254.9807, 28.99111
255.4628, 28.84779
255.9449, 28.72784
256.4271, 28.63532
256.9092, 28.58612
257.3913, 28.61539
257.8734, 28.62157
258.3555, 28.54270
258.8376, 28.45491
259.3198, 28.44840
259.8019, 28.55975
260.2840, 28.71329
260.7661, 28.74189
261.2482, 28.56031
261.7303, 28.41180
262.2125, 28.36404
262.6946, 28.33258
263.1767, 28.21635
263.6588, 27.99073
264.1409, 27.75939
264.6230, 27.72677
265.1052, 28.06921
265.5873, 28.26480
266.0694, 28.19792
266.5515, 28.06182
267.0336, 27.98363
267.5157, 27.99761
267.9979, 28.07186
268.4800, 28.17022
268.9621, 28.33857
269.4442, 28.42403
269.9263, 28.40635
270.4084, 28.33906
270.8906, 28.25224
271.3727, 28.15216
271.8548, 28.02563
272.3369, 27.83863
272.8190, 27.51982
273.3011, 27.39755
273.7833, 27.66565
274.2654, 27.93007
274.7475, 27.92053
275.2296, 27.66262
275.7117, 27.39406
276.1938, 27.36053
276.6760, 27.61614
277.1581, 27.77741
277.6402, 27.82879
278.1223, 27.82574
278.6044, 27.74804
279.0865, 27.62871
279.5686, 27.55330
280.0508, 27.59523
280.5329, 27.43853
281.0150, 27.84227
281.4971, 28.07336
281.9792, 28.14107
282.4613, 27.55605
282.9435, 27.81389
283.4256, 27.73395
283.9077, 27.64017
284.3898, 28.01663
284.8719, 27.52655
285.3540, 27.89556
285.8362, 27.92164
286.3183, 28.10467
286.8004, 27.94783
287.2825, 27.89597
287.7646, 28.18408
288.2467, 28.28395
288.7289, 27.82220
289.2110, 28.08440
289.6931, 28.24230
290.1752, 28.14647
290.6573, 27.92617
291.1394, 27.73603
291.6216, 27.63041
292.1037, 27.63287
292.5858, 27.82099
293.0679, 28.39075
293.5500, 28.76450
294.0321, 28.77103
294.5143, 28.60362
294.9964, 28.48323
295.4785, 28.46879
295.9606, 28.45864
296.4427, 27.99191
296.9248, 28.39720
297.4070, 28.62984
297.8891, 28.69909
298.3712, 28.11563
298.8533, 28.37502
299.3354, 28.29663
299.8175, 28.20440
300.2997, 28.58242
300.7818, 28.09389
301.2639, 28.46445
301.7460, 28.49208
302.2281, 28.78345
302.7102, 28.92592
303.1924, 28.84219
303.6745, 28.67973
304.1566, 28.52898
304.6387, 28.39658
305.1208, 28.33581
305.6029, 28.34597
306.0851, 28.41842
306.5672, 28.61627
307.0493, 28.88704
307.5314, 29.04449
308.0135, 28.94174
308.4956, 28.67945
308.9778, 28.36339
309.4599, 28.78971
309.9420, 29.04338
310.4241, 29.13367
310.9062, 28.57124
311.3883, 28.85166
311.8705, 28.79432
312.3526, 28.72311
312.8347, 29.12216
313.3168, 28.65467
313.7989, 29.04626
314.2810, 29.25799
314.7632, 29.47115
315.2453, 29.54957
315.7274, 29.45506
316.2095, 29.31161
316.6916, 29.30320
317.1737, 29.48232
317.6559, 29.55777
318.1380, 29.38002
318.6201, 29.16401
319.1022, 29.13281
319.5843, 29.30783
320.0664, 29.52150
320.5485, 29.61727
321.0306, 29.58205
321.5128, 29.58122
321.9949, 29.63091
322.4770, 29.69997
322.9591, 29.79631
323.4412, 29.90413
323.9233, 29.94810
324.4055, 29.84800
324.8876, 29.64571
325.3697, 29.63691
325.8518, 30.01064
326.3339, 30.34126
326.8160, 30.48565
327.2982, 30.47042
327.7803, 30.31765
328.2624, 30.00203
328.7445, 29.64161
329.2266, 29.57800
329.7087, 29.97576
330.1909, 30.32518
330.6730, 30.53943
331.1551, 30.65130
331.6372, 30.69110
332.1193, 30.66700
332.6014, 30.60127
333.0836, 30.52452
333.5657, 30.44030
334.0478, 30.32797
334.5299, 30.05110
335.0120, 29.83462
335.4941, 29.92460
335.9763, 30.32208
336.4584, 30.77246
336.9405, 31.04075
337.4226, 31.10912
337.9047, 31.16306
338.3868, 31.26586
338.8690, 31.29903
339.3511, 31.11340
339.8332, 30.79042
340.3153, 30.57807
340.7974, 30.64253
341.2795, 30.94046
341.7617, 31.20112
342.2438, 31.46141
342.7259, 31.64837
343.2080, 31.70079
343.6901, 31.68057
344.1722, 31.67423
344.6544, 31.71707
345.1365, 31.79551
345.6186, 31.88153
346.1007, 31.96841
346.5828, 32.07663
347.0649, 32.25982
347.5471, 32.43255
348.0292, 32.50089
348.5113, 32.45535
348.9934, 32.37800
349.4755, 32.36680
349.9576, 32.43894
350.4398, 32.51150
350.9219, 32.63365
351.4040, 32.71286
351.8861, 32.67461
352.3682, 32.54428
352.8503, 32.39238
353.3325, 32.25901
353.8146, 32.15237
354.2967, 32.21392
354.7788, 32.60940
355.2609, 32.98190
355.7430, 33.32962
356.2252, 33.58989
356.7073, 33.63771
357.1894, 33.40886
357.6715, 33.05042
358.1536, 32.94182
358.6357, 33.35419
359.1179, 33.61000
359.5999, 33.56612
360.0821, 33.44482
360.5642, 33.40088
361.0463, 33.47683
361.5284, 33.64978
362.0105, 33.88849
362.4926, 34.18038
362.9748, 34.59571
363.4569, 35.04475
363.9390, 35.68769
364.4211, 36.73635
364.9032, 38.06229
365.3853, 39.31132
365.8675, 40.19757
366.3496, 40.76912
366.8317, 41.49771
367.3138, 42.63507
367.7959, 43.60439
368.2780, 44.20066
368.7602, 44.59243
369.2423, 44.93779
369.7244, 45.29375
370.2065, 45.75677
370.6886, 46.57049
371.1707, 47.91951
371.6529, 49.15149
372.1350, 50.01604
372.6171, 50.85662
373.0992, 51.88955
373.5813, 53.14571
374.0634, 54.56464
374.5456, 56.12167
375.0277, 57.82200
375.5098, 59.46741
375.9919, 60.88019
376.4740, 62.44563
376.9561, 64.43825
377.4383, 66.71594
377.9204, 68.92823
378.4025, 70.88306
378.8846, 72.64466
379.3667, 74.41191
379.8488, 76.22352
380.3310, 77.93653
380.8131, 79.84364
381.2952, 81.47625
381.7773, 82.38594
382.2594, 82.50072
382.7415, 81.68087
383.2237, 79.88921
383.7058, 77.12353
384.1879, 72.84839
384.6700, 65.82145
385.1521, 58.33764
385.6342, 52.17092
386.1164, 47.36035
386.5985, 43.58979
387.0806, 40.80519
387.5627, 38.96815
388.0448, 38.09843
388.5269, 38.35757
389.0091, 39.06241
389.4912, 39.79572
389.9733, 40.60576
390.4554, 41.63380
390.9375, 42.94637
391.4196, 44.45304
391.9018, 46.26949
392.3839, 48.33312
392.8660, 49.96181
393.3481, 50.71810
393.8302, 50.98771
394.3123, 51.51634
394.7945, 52.29974
395.2766, 53.30003
395.7587, 54.47756
396.2408, 55.86781
396.7229, 57.54267
397.2050, 59.54391
397.6872, 61.72786
398.1693, 63.92179
398.6514, 66.11307
399.1335, 68.67064
399.6156, 71.76688
400.0977, 75.13472
400.5798, 78.63998
401.0620, 82.26223
401.5441, 85.95098
402.0262, 89.62980
402.5083, 93.38668
402.9904, 97.61655
403.4725, 102.6474
403.9547, 107.6716
404.4368, 112.5229
404.9189, 117.2967
405.4010, 122.2786
405.8831, 127.5014
406.3652, 132.4428
406.8474, 136.4478
407.3295, 139.8821
407.8116, 140.9155
408.2937, 140.5326
408.7758, 137.2603
409.2579, 129.3602
409.7401, 117.6600
410.2222, 104.3816
410.7043, 90.70699
411.1864, 76.99352
411.6685, 65.87660
412.1506, 58.31471
412.6328, 52.50652
413.1149, 48.79659
413.5970, 46.38901
414.0791, 44.53217
414.5612, 42.95019
415.0433, 41.68647
415.5255, 40.85870
416.0076, 40.57791
416.4897, 40.34037
416.9718, 40.10908
417.4539, 39.92494
417.9360, 39.84703
418.4182, 39.84347
418.9003, 39.81117
419.3824, 39.65550
419.8645, 39.41310
420.3466, 39.25261
420.8287, 39.21432
421.3109, 39.17609
421.7930, 39.06908
422.2751, 38.94386
422.7572, 38.84517
423.2393, 38.77626
423.7214, 38.77705
424.2036, 38.92129
424.6857, 39.20286
425.1678, 39.46040
425.6499, 39.62611
426.1320, 39.79980
426.6141, 40.15705
427.0963, 40.65637
427.5784, 40.95467
428.0605, 40.63938
428.5426, 40.14449
429.0247, 40.21875
429.5068, 40.93224
429.9890, 41.66751
430.4711, 42.01025
430.9532, 42.08695
431.4353, 42.34706
431.9174, 42.97268
432.3995, 43.51382
432.8817, 43.55531
433.3638, 43.36598
433.8459, 43.56863
434.3280, 44.38503
434.8101, 45.44484
435.2922, 46.25582
435.7744, 46.76784
436.2565, 47.17871
436.7386, 47.41055
437.2207, 47.60981
437.7028, 47.79993
438.1849, 48.03234
438.6671, 48.47824
439.1492, 49.28790
439.6313, 50.36915
440.1134, 51.15944
440.5955, 51.30180
441.0776, 51.59348
441.5598, 52.16832
442.0418, 52.90769
442.5240, 53.72795
443.0061, 54.58648
443.4882, 55.42305
443.9703, 56.13663
444.4524, 56.68516
444.9345, 57.31939
445.4167, 58.22779
445.8988, 59.03418
446.3809, 59.49959
446.8630, 59.76788
447.3451, 60.15608
447.8272, 60.87310
448.3094, 61.73497
448.7915, 62.26829
449.2736, 62.39217
449.7557, 62.41369
450.2378, 62.28906
450.7199, 62.16719
451.2021, 62.25310
451.6842, 62.53819
452.1663, 62.63909
452.6484, 62.13900
453.1305, 61.17371
453.6126, 60.35689
454.0948, 59.76539
454.5769, 59.23860
455.0590, 58.74716
455.5411, 58.23702
456.0232, 57.58392
456.5053, 56.67557
456.9875, 55.73948
457.4696, 54.97031
457.9517, 54.34148
458.4338, 53.72747
458.9159, 53.10449
459.3980, 52.44277
459.8802, 51.65846
460.3623, 50.73277
460.8444, 49.89484
461.3265, 49.30204
461.8086, 48.73698
462.2907, 47.96857
462.7729, 47.01361
463.2550, 46.08446
463.7371, 45.33326
464.2192, 44.71828
464.7013, 43.97011
465.1834, 43.10448
465.6656, 42.09763
466.1477, 40.86004
466.6298, 39.51286
467.1119, 38.17176
467.5940, 36.86575
468.0761, 35.59098
468.5583, 34.33475
469.0404, 33.07109
469.5225, 31.93256
470.0046, 31.11434
470.4867, 30.21825
470.9688, 28.93505
471.4510, 27.53460
471.9331, 26.49435
472.4152, 26.06019
472.8973, 25.95386
473.3794, 25.66070
473.8615, 25.14485
474.3437, 24.59443
474.8258, 23.93032
475.3079, 23.33916
475.7900, 22.94982
476.2721, 22.75204
476.7542, 22.63673
477.2364, 22.56971
477.7185, 22.53415
478.2006, 22.50210
478.6827, 22.48069
479.1648, 22.41840
479.6469, 22.26230
480.1291, 22.05903
480.6112, 21.89361
481.0933, 21.77593
481.5754, 21.67908
482.0575, 21.56929
482.5396, 21.47600
483.0217, 21.47295
483.5038, 21.57854
483.9860, 21.69780
484.4681, 21.74428
484.9502, 21.71321
485.4323, 21.66035
485.9144, 21.49616
486.3965, 21.40567
486.8787, 21.55888
487.3608, 21.82405
487.8429, 21.93976
488.3250, 21.80198
488.8071, 21.55639
489.2892, 21.47287
489.7714, 21.67039
490.2535, 21.73461
490.7356, 21.51072
491.2177, 21.31991
491.6998, 21.36255
492.1819, 21.57614
492.6641, 21.78159
493.1462, 21.86715
493.6283, 21.86502
494.1104, 21.85864
494.5925, 21.82912
495.0746, 21.84690
495.5568, 22.03009
496.0389, 22.19511
496.5210, 22.16370
497.0031, 21.94374
497.4852, 21.76433
497.9673, 21.82847
498.4495, 22.05299
498.9316, 22.21915
499.4137, 22.32109
499.8958, 22.35480
500.3779, 22.26980
500.8600, 22.12937
501.3422, 22.06791
501.8243, 22.12203
502.3064, 22.18947
502.7885, 22.22692
503.2706, 22.24156
503.7527, 22.24022
504.2349, 22.22404
504.7170, 22.20999
505.1991, 22.20486
505.6812, 22.20750
506.1633, 22.29602
506.6454, 22.62912
507.1276, 22.86329
507.6097, 22.79068
508.0918, 22.56112
508.5739, 22.40168
509.0560, 22.39762
509.5381, 22.48971
510.0203, 22.59551
510.5024, 22.73580
510.9845, 22.81865
511.4666, 22.79898
511.9487, 22.76609
512.4308, 22.76106
512.9130, 22.76753
513.3951, 22.73738
513.8772, 22.63204
514.3593, 22.52106
514.8414, 22.54035
515.3235, 22.70460
515.8057, 22.88190
516.2878, 22.61899
516.7699, 23.02965
517.2520, 23.26766
517.7341, 23.34229
518.2162, 22.76420
518.6984, 23.02896
519.1805, 22.95594
519.6626, 22.86908
520.1447, 23.25246
520.6268, 22.76931
521.1089, 23.14524
521.5911, 22.90519
522.0732, 22.97469
522.5553, 23.47782
523.0374, 23.86799
523.5195, 24.05295
524.0016, 24.08875
524.4838, 23.93295
524.9659, 23.64544
525.4480, 23.44459
525.9301, 23.49804
526.4122, 23.75501
526.8943, 23.96273
527.3765, 24.19593
527.8586, 24.25529
528.3407, 23.95951
528.8228, 23.60849
529.3049, 23.45962
529.7870, 23.52827
530.2692, 23.64003
530.7513, 23.61729
531.2334, 23.50245
531.7155, 23.58228
532.1976, 23.97284
532.6797, 24.28639
533.1619, 24.31124
533.6440, 24.19828
534.1261, 24.07387
534.6082, 23.95088
535.0903, 23.85946
535.5724, 23.78821
536.0546, 23.76804
536.5367, 23.91826
537.0188, 24.27013
537.5009, 24.55416
537.9830, 24.53523
538.4651, 24.27816
538.9473, 24.16325
539.4294, 24.28464
539.9115, 24.41468
540.3936, 24.43186
540.8757, 24.45038
541.3578, 24.67274
541.8400, 25.10790
542.3221, 25.50326
542.8042, 25.57324
543.2863, 25.30983
543.7684, 25.22146
544.2505, 25.48084
544.7326, 25.71579
545.2147, 25.80939
545.6968, 25.86695
546.1790, 26.02572
546.6611, 26.31399
547.1432, 26.60988
547.6253, 26.78109
548.1074, 26.83581
548.5895, 26.86047
549.0717, 26.86186
549.5538, 26.82632
550.0359, 26.63737
550.5180, 26.43421
551.0001, 26.46842
551.4822, 26.88694
551.9644, 27.28443
552.4465, 27.31443
552.9286, 27.16116
553.4107, 27.27717
553.8928, 27.75775
554.3749, 28.16033
554.8571, 28.02719
555.3392, 27.38088
555.8213, 27.10755
556.3034, 27.46748
556.7855, 27.82310
557.2676, 28.01774
557.7498, 28.11697
558.2319, 28.18445
558.7140, 28.24453
559.1961, 28.31953
559.6782, 28.45933
560.1603, 28.66612
560.6425, 28.69349
561.1246, 28.37067
561.6067, 28.11767
562.0888, 28.12643
562.5709, 28.23438
563.0530, 28.24888
563.5352, 28.12166
564.0173, 27.97604
564.4994, 27.92888
564.9815, 27.94843
565.4636, 27.91997
565.9457, 27.82070
566.4279, 27.73509
566.9100, 27.71276
567.3921, 27.75232
567.8742, 27.84051
568.3563, 28.07348
568.8384, 28.19570
569.3206, 28.12405
569.8027, 27.89268
570.2848, 27.46206
570.7669, 26.87112
571.2490, 26.34031
571.7311, 26.07574
572.2133, 26.05160
572.6954, 25.99871
573.1775, 25.94615
573.6596, 25.81838
574.1417, 25.54803
574.6238, 25.24050
575.1060, 24.96247
575.5881, 24.73437
576.0702, 24.51134
576.5523, 24.52525
577.0344, 24.51555
577.5165, 24.48373
577.9987, 24.35161
578.4808, 24.35809
578.9629, 24.31458
579.4450, 24.27282
579.9271, 24.31014
580.4092, 24.21303
580.8914, 24.25709
581.3735, 24.25035
581.8556, 24.27264
582.3377, 24.24462
582.8198, 24.23733
583.3019, 24.28830
583.7841, 24.31318
584.2662, 24.29478
584.7483, 24.34246
585.2304, 24.28312
585.7125, 24.32514
586.1946, 24.94602
586.6768, 25.53834
587.1589, 25.69576
587.6410, 25.52005
588.1231, 25.36700
