##NAMES=Molybdofornacite
##RRUFFID=R061057
##IDEAL CHEMISTRY=Cu^2+^Pb^2+^_2_Mo^6+^O_4_As^5+^O_4_(OH)
##LOCALITY=Mina Dulcinea, Carreras Pintos, Inca de Oro, Atacama Region, Chile
##OWNER=RRUFF
##SOURCE=Bob Jenkins
##DESCRIPTION=Apple green tabular crystals associated with yellow wulfenite
##STATUS=The identification of this mineral is confirmed by single-crystal X-ray diffraction and chemical analysis.
##URL=rruff.info/R061057
##MEASURED CHEMISTRY=Cu_1.00_Pb_2.00_(Mo_0.82_Cr^6+^_0.18_)_Σ=1_O_4_(As_0.93_P_0.07_)_Σ=1_O_4_(OH); OH estimated by difference and charge balance
152.3776, 1685.607
152.8597, 1674.447
153.3418, 1669.782
153.8239, 1666.611
154.3060, 1664.638
154.7882, 1665.233
155.2703, 1662.406
155.7524, 1650.971
156.2345, 1636.196
156.7166, 1626.584
157.1987, 1627.807
157.6808, 1631.498
158.1630, 1633.990
158.6451, 1633.594
159.1272, 1633.713
159.6093, 1636.326
160.0914, 1640.231
160.5735, 1642.004
161.0557, 1635.388
161.5378, 1628.927
162.0199, 1628.659
162.5020, 1643.500
162.9841, 1657.003
163.4662, 1663.205
163.9484, 1662.447
164.4305, 1657.275
164.9126, 1644.237
165.3947, 1629.113
165.8768, 1617.840
166.3589, 1615.523
166.8411, 1615.577
167.3232, 1614.871
167.8053, 1613.398
168.2874, 1610.098
168.7695, 1601.750
169.2516, 1591.453
169.7338, 1584.148
170.2159, 1583.009
170.6980, 1585.385
171.1801, 1590.261
171.6622, 1598.589
172.1443, 1604.465
172.6265, 1601.767
173.1086, 1592.538
173.5907, 1582.354
174.0728, 1573.430
174.5549, 1565.464
175.0370, 1557.788
175.5192, 1549.594
176.0013, 1543.163
176.4834, 1541.984
176.9655, 1545.308
177.4476, 1549.204
177.9297, 1553.657
178.4118, 1556.653
178.8940, 1553.399
179.3761, 1539.506
179.8582, 1522.209
180.3403, 1512.164
180.8224, 1509.115
181.3046, 1509.348
181.7867, 1510.846
182.2688, 1513.266
182.7509, 1515.535
183.2330, 1517.849
183.7151, 1519.581
184.1973, 1520.410
184.6794, 1520.557
185.1615, 1517.197
185.6436, 1502.805
186.1257, 1479.777
186.6078, 1463.246
187.0900, 1463.505
187.5721, 1475.829
188.0542, 1481.971
188.5363, 1481.088
189.0184, 1477.263
189.5005, 1476.076
189.9827, 1477.416
190.4648, 1478.124
190.9469, 1476.257
191.4290, 1472.198
191.9111, 1468.594
192.3932, 1465.742
192.8754, 1463.050
193.3575, 1458.677
193.8396, 1452.386
194.3217, 1447.622
194.8038, 1449.486
195.2859, 1457.543
195.7681, 1455.833
196.2502, 1438.948
196.7323, 1414.797
197.2144, 1405.788
197.6965, 1414.111
198.1786, 1425.142
198.6607, 1428.302
199.1429, 1423.192
199.6250, 1415.398
200.1071, 1403.722
200.5892, 1390.379
201.0713, 1386.307
201.5534, 1393.736
202.0356, 1403.153
202.5177, 1405.082
202.9998, 1398.068
203.4819, 1392.735
203.9640, 1392.791
204.4461, 1397.198
204.9283, 1394.799
205.4104, 1383.407
205.8925, 1369.560
206.3746, 1360.883
206.8567, 1358.753
207.3388, 1356.298
207.8210, 1351.854
208.3031, 1345.416
208.7852, 1337.650
209.2673, 1327.570
209.7494, 1317.696
210.2315, 1311.478
210.7137, 1309.454
211.1958, 1309.726
211.6779, 1312.696
212.1600, 1319.281
212.6421, 1322.064
213.1242, 1319.842
213.6064, 1314.864
214.0885, 1311.063
214.5706, 1308.481
215.0527, 1306.785
215.5348, 1305.785
216.0169, 1305.364
216.4991, 1306.244
216.9812, 1309.803
217.4633, 1313.848
217.9454, 1312.525
218.4275, 1302.307
218.9096, 1293.235
219.3917, 1291.004
219.8739, 1299.767
220.3560, 1303.684
220.8381, 1300.938
221.3202, 1293.376
221.8023, 1286.507
222.2844, 1279.337
222.7666, 1274.512
223.2487, 1274.284
223.7308, 1282.046
224.2129, 1285.956
224.6950, 1282.914
225.1771, 1275.091
225.6593, 1274.087
226.1414, 1283.956
226.6235, 1295.118
227.1056, 1301.474
227.5877, 1301.703
228.0698, 1299.437
228.5520, 1293.391
229.0341, 1284.385
229.5162, 1280.033
229.9983, 1282.505
230.4804, 1287.126
230.9625, 1290.644
231.4447, 1293.316
231.9268, 1294.262
232.4089, 1292.868
232.8910, 1289.230
233.3731, 1286.174
233.8552, 1283.234
234.3374, 1281.392
234.8195, 1281.839
235.3016, 1286.284
235.7837, 1289.852
236.2658, 1291.389
236.7479, 1290.798
237.2301, 1290.794
237.7122, 1290.428
238.1943, 1291.542
238.6764, 1296.826
239.1585, 1311.081
239.6406, 1321.003
240.1227, 1322.656
240.6049, 1315.123
241.0870, 1309.214
241.5691, 1304.870
242.0512, 1302.171
242.5333, 1301.097
243.0154, 1301.087
243.4976, 1303.817
243.9797, 1312.049
244.4618, 1328.119
244.9439, 1332.255
245.4260, 1317.734
245.9081, 1296.276
246.3903, 1283.230
246.8724, 1280.905
247.3545, 1283.074
247.8366, 1289.316
248.3187, 1301.040
248.8008, 1309.346
249.2830, 1314.362
249.7651, 1315.965
250.2472, 1313.065
250.7293, 1301.633
251.2114, 1293.193
251.6935, 1293.070
252.1757, 1305.033
252.6578, 1308.075
253.1399, 1296.954
253.6220, 1280.629
254.1041, 1274.370
254.5862, 1283.314
255.0684, 1293.019
255.5505, 1298.434
256.0326, 1297.828
256.5147, 1299.736
256.9968, 1305.839
257.4789, 1313.294
257.9611, 1316.258
258.4432, 1312.034
258.9253, 1308.567
259.4074, 1309.395
259.8895, 1316.360
260.3716, 1320.286
260.8538, 1319.341
261.3359, 1316.559
261.8180, 1318.101
262.3001, 1325.373
262.7822, 1333.937
263.2643, 1342.871
263.7465, 1353.215
264.2286, 1358.894
264.7107, 1357.255
265.1928, 1352.895
265.6749, 1355.879
266.1570, 1369.427
266.6392, 1382.479
267.1213, 1389.404
267.6034, 1387.586
268.0855, 1391.442
268.5676, 1403.681
269.0497, 1419.298
269.5318, 1427.432
270.0139, 1425.680
270.4961, 1423.420
270.9782, 1424.445
271.4603, 1428.897
271.9424, 1436.016
272.4245, 1445.863
272.9066, 1458.320
273.3888, 1473.926
273.8709, 1493.532
274.3530, 1512.790
274.8351, 1528.007
275.3172, 1538.083
275.7993, 1553.513
276.2815, 1574.092
276.7636, 1600.642
277.2457, 1637.164
277.7278, 1685.707
278.2099, 1733.408
278.6920, 1772.238
279.1742, 1801.628
279.6563, 1835.141
280.1384, 1873.464
280.6205, 1916.452
281.1026, 1966.258
281.5847, 2023.530
282.0669, 2081.791
282.5490, 2138.028
283.0311, 2192.288
283.5132, 2245.313
283.9953, 2296.209
284.4774, 2347.955
284.9596, 2406.218
285.4417, 2471.484
285.9238, 2536.167
286.4059, 2595.026
286.8880, 2649.025
287.3701, 2708.479
287.8523, 2775.729
288.3344, 2842.706
288.8165, 2892.606
289.2986, 2926.420
289.7807, 2960.137
290.2628, 3006.779
290.7450, 3061.785
291.2271, 3101.397
291.7092, 3122.583
292.1913, 3135.935
292.6734, 3154.862
293.1555, 3178.958
293.6377, 3205.152
294.1198, 3239.481
294.6019, 3275.372
295.0840, 3290.612
295.5661, 3281.930
296.0482, 3264.046
296.5304, 3253.186
297.0125, 3248.601
297.4946, 3245.831
297.9767, 3242.668
298.4588, 3239.920
298.9409, 3240.148
299.4231, 3244.014
299.9052, 3247.050
300.3873, 3240.962
300.8694, 3229.325
301.3515, 3222.551
301.8336, 3230.563
302.3158, 3244.511
302.7979, 3252.381
303.2800, 3253.545
303.7621, 3249.166
304.2442, 3235.003
304.7263, 3216.024
305.2085, 3202.305
305.6906, 3201.823
306.1727, 3207.256
306.6548, 3210.636
307.1369, 3211.514
307.6190, 3214.885
308.1012, 3230.238
308.5833, 3249.785
309.0654, 3261.547
309.5475, 3248.635
310.0296, 3234.117
310.5117, 3235.742
310.9938, 3254.127
311.4760, 3278.979
311.9581, 3306.795
312.4402, 3337.033
312.9223, 3368.734
313.4044, 3405.960
313.8865, 3441.313
314.3687, 3467.906
314.8508, 3486.200
315.3329, 3507.546
315.8150, 3533.610
316.2971, 3567.052
316.7792, 3609.761
317.2614, 3672.084
317.7435, 3735.056
318.2256, 3789.996
318.7077, 3837.864
319.1898, 3888.633
319.6719, 3944.758
320.1541, 4006.297
320.6362, 4072.722
321.1183, 4146.412
321.6004, 4222.861
322.0825, 4304.233
322.5646, 4388.987
323.0468, 4467.462
323.5289, 4533.987
324.0110, 4595.960
324.4931, 4657.945
324.9752, 4716.685
325.4573, 4778.851
325.9395, 4851.228
326.4216, 4929.189
326.9037, 4994.859
327.3858, 5045.308
327.8679, 5084.629
328.3500, 5114.655
328.8322, 5131.306
329.3143, 5144.117
329.7964, 5153.571
330.2785, 5159.258
330.7606, 5160.334
331.2427, 5164.553
331.7249, 5155.515
332.2070, 5126.381
332.6891, 5072.095
333.1712, 5008.208
333.6533, 4930.328
334.1354, 4844.625
334.6176, 4760.387
335.0997, 4672.274
335.5818, 4595.327
336.0639, 4539.560
336.5460, 4513.550
337.0281, 4464.059
337.5103, 4383.211
337.9924, 4286.341
338.4745, 4197.553
338.9566, 4116.354
339.4387, 4042.314
339.9208, 3976.243
340.4030, 3918.477
340.8851, 3857.659
341.3672, 3791.035
341.8493, 3726.897
342.3314, 3676.515
342.8135, 3641.301
343.2957, 3604.626
343.7778, 3559.248
344.2599, 3508.720
344.7420, 3469.646
345.2241, 3443.919
345.7062, 3422.058
346.1884, 3396.844
346.6705, 3368.011
347.1526, 3334.968
347.6347, 3294.786
348.1168, 3251.890
348.5989, 3219.426
349.0811, 3197.412
349.5632, 3173.704
350.0453, 3137.415
350.5274, 3092.170
351.0095, 3046.630
351.4916, 3003.938
351.9737, 2960.598
352.4558, 2908.627
352.9380, 2850.270
353.4201, 2797.143
353.9022, 2761.889
354.3843, 2734.940
354.8664, 2703.094
355.3485, 2663.215
355.8307, 2620.645
356.3128, 2576.712
356.7949, 2533.836
357.2770, 2497.085
357.7591, 2477.115
358.2412, 2459.590
358.7234, 2430.703
359.2055, 2385.200
359.6876, 2343.230
360.1697, 2313.274
360.6518, 2294.371
361.1339, 2284.150
361.6161, 2295.175
362.0982, 2303.991
362.5803, 2296.993
363.0624, 2271.392
363.5445, 2246.258
364.0266, 2221.416
364.5088, 2202.089
364.9909, 2193.982
365.4730, 2209.746
365.9551, 2225.071
366.4372, 2233.245
366.9193, 2233.974
367.4015, 2236.573
367.8836, 2244.772
368.3657, 2253.526
368.8478, 2258.999
369.3299, 2248.539
369.8120, 2251.138
370.2942, 2276.666
370.7763, 2319.882
371.2584, 2349.022
371.7405, 2356.586
372.2226, 2358.416
372.7047, 2362.657
373.1869, 2370.361
373.6690, 2377.805
374.1511, 2384.921
374.6332, 2391.542
375.1153, 2397.717
375.5974, 2404.378
376.0796, 2408.018
376.5617, 2405.810
377.0438, 2396.773
377.5259, 2391.936
378.0080, 2393.982
378.4901, 2395.562
378.9723, 2384.464
379.4544, 2360.059
379.9365, 2333.545
380.4186, 2309.760
380.9007, 2287.522
381.3828, 2262.415
381.8650, 2234.153
382.3471, 2202.829
382.8292, 2165.963
383.3113, 2124.866
383.7934, 2087.758
384.2755, 2057.426
384.7577, 2031.622
385.2398, 2006.700
385.7219, 1982.570
386.2040, 1958.918
386.6861, 1935.643
387.1682, 1912.384
387.6504, 1887.644
388.1325, 1858.136
388.6146, 1831.839
389.0967, 1817.430
389.5788, 1812.312
390.0609, 1808.927
390.5431, 1803.200
391.0252, 1797.446
391.5073, 1793.483
391.9894, 1791.695
392.4715, 1791.684
392.9536, 1797.463
393.4357, 1804.201
393.9178, 1804.446
394.4000, 1785.802
394.8821, 1768.523
395.3642, 1762.821
395.8463, 1770.707
396.3284, 1777.347
396.8105, 1775.395
397.2927, 1772.393
397.7748, 1775.216
398.2569, 1791.988
398.7390, 1806.631
399.2211, 1816.120
399.7032, 1820.695
400.1854, 1824.602
400.6675, 1830.222
401.1496, 1833.072
401.6317, 1829.317
402.1138, 1809.377
402.5959, 1802.818
403.0781, 1817.005
403.5602, 1843.403
404.0423, 1859.443
404.5244, 1863.033
405.0065, 1861.086
405.4886, 1854.919
405.9708, 1843.514
406.4529, 1836.443
406.9350, 1834.414
407.4171, 1835.446
407.8992, 1838.144
408.3813, 1842.715
408.8635, 1844.230
409.3456, 1840.252
409.8277, 1831.993
410.3098, 1823.190
410.7919, 1813.693
411.2740, 1805.169
411.7562, 1800.553
412.2383, 1798.294
412.7204, 1793.551
413.2025, 1785.222
413.6846, 1773.623
414.1667, 1756.320
414.6489, 1734.893
415.1310, 1717.287
415.6131, 1710.863
416.0952, 1710.267
416.5773, 1709.977
417.0594, 1709.711
417.5416, 1707.575
418.0237, 1702.137
418.5058, 1693.928
418.9879, 1684.041
419.4700, 1669.270
419.9521, 1655.880
420.4343, 1648.845
420.9164, 1649.424
421.3985, 1646.389
421.8806, 1629.166
422.3627, 1610.330
422.8448, 1601.013
423.3270, 1616.061
423.8091, 1626.866
424.2912, 1625.449
424.7733, 1613.573
425.2554, 1606.908
425.7375, 1610.553
426.2197, 1614.825
426.7018, 1615.162
427.1839, 1610.068
427.6660, 1603.623
428.1481, 1594.321
428.6302, 1584.400
429.1124, 1578.855
429.5945, 1579.887
430.0766, 1579.013
430.5587, 1571.854
431.0408, 1558.373
431.5229, 1549.049
432.0051, 1543.789
432.4872, 1542.993
432.9693, 1550.632
433.4514, 1566.060
433.9335, 1573.918
434.4156, 1566.378
434.8977, 1551.906
435.3799, 1551.767
435.8620, 1565.176
436.3441, 1578.251
436.8262, 1579.712
437.3083, 1573.847
437.7904, 1568.354
438.2726, 1564.128
438.7547, 1561.387
439.2368, 1561.597
439.7189, 1563.494
440.2010, 1564.177
440.6831, 1558.515
441.1653, 1553.681
441.6474, 1557.123
442.1295, 1569.775
442.6116, 1579.018
443.0937, 1573.934
443.5758, 1564.792
444.0580, 1561.528
444.5401, 1578.239
445.0222, 1588.940
445.5043, 1581.152
445.9864, 1559.460
446.4685, 1548.783
446.9507, 1560.203
447.4328, 1576.716
447.9149, 1591.686
448.3970, 1607.692
448.8791, 1616.322
449.3612, 1614.718
449.8434, 1607.247
450.3255, 1600.749
450.8076, 1595.524
451.2897, 1590.549
451.7718, 1584.835
452.2539, 1578.583
452.7361, 1577.344
453.2182, 1582.833
453.7003, 1587.875
454.1824, 1582.166
454.6645, 1566.558
455.1466, 1563.127
455.6288, 1580.462
456.1109, 1605.506
456.5930, 1611.712
457.0751, 1600.990
457.5572, 1588.738
458.0393, 1584.846
458.5215, 1585.560
459.0036, 1584.789
459.4857, 1582.094
459.9678, 1577.568
460.4499, 1569.114
460.9320, 1559.260
461.4142, 1552.326
461.8963, 1553.888
462.3784, 1555.518
462.8605, 1553.192
463.3426, 1546.804
463.8247, 1536.049
464.3069, 1511.676
464.7890, 1488.809
465.2711, 1478.318
465.7532, 1491.483
466.2353, 1500.876
466.7174, 1500.345
467.1996, 1493.560
467.6817, 1487.929
468.1638, 1484.906
468.6459, 1481.429
469.1280, 1476.433
469.6101, 1469.715
470.0923, 1464.135
470.5744, 1461.171
471.0565, 1457.320
471.5386, 1447.797
472.0207, 1430.176
472.5028, 1419.719
472.9850, 1421.018
473.4671, 1428.597
473.9492, 1427.551
474.4313, 1417.521
474.9134, 1407.266
475.3955, 1402.662
475.8776, 1402.061
476.3597, 1399.106
476.8419, 1393.210
477.3240, 1387.433
477.8061, 1385.448
478.2882, 1386.047
478.7703, 1386.526
479.2524, 1386.662
479.7346, 1385.545
480.2167, 1379.993
480.6988, 1371.408
481.1809, 1366.993
481.6630, 1376.276
482.1451, 1387.515
482.6273, 1391.675
483.1094, 1384.888
483.5915, 1376.419
484.0736, 1365.876
484.5557, 1355.953
485.0378, 1350.763
485.5200, 1354.396
486.0021, 1359.230
486.4842, 1364.821
486.9663, 1371.256
487.4484, 1373.606
487.9305, 1370.642
488.4127, 1365.202
488.8948, 1358.367
489.3769, 1348.970
489.8590, 1342.982
490.3411, 1341.292
490.8232, 1342.759
491.3054, 1345.485
491.7875, 1349.545
492.2696, 1353.840
492.7517, 1359.664
493.2338, 1365.408
493.7159, 1363.547
494.1981, 1353.694
494.6802, 1343.168
495.1623, 1337.941
495.6444, 1337.144
496.1265, 1339.612
496.6086, 1347.191
497.0908, 1354.186
497.5729, 1353.812
498.0550, 1348.598
498.5371, 1345.279
499.0192, 1351.747
499.5013, 1357.806
499.9835, 1355.257
500.4656, 1342.140
500.9477, 1332.080
501.4298, 1331.896
501.9119, 1335.252
502.3940, 1336.527
502.8762, 1331.537
503.3583, 1328.538
503.8404, 1328.862
504.3225, 1331.699
504.8046, 1334.552
505.2867, 1338.374
505.7689, 1340.507
506.2510, 1339.120
506.7331, 1333.536
507.2152, 1330.053
507.6973, 1328.771
508.1794, 1329.410
508.6616, 1333.320
509.1437, 1340.241
509.6258, 1343.239
510.1079, 1340.222
510.5900, 1332.845
511.0721, 1322.390
511.5543, 1309.507
512.0364, 1298.647
512.5185, 1289.836
513.0006, 1285.875
513.4827, 1294.407
513.9648, 1318.076
514.4470, 1336.632
514.9291, 1331.576
515.4112, 1314.670
515.8933, 1300.578
516.3754, 1294.408
516.8575, 1291.421
517.3397, 1291.674
517.8218, 1294.268
518.3039, 1295.339
518.7860, 1291.379
519.2681, 1288.261
519.7502, 1288.150
520.2324, 1291.034
520.7145, 1297.402
521.1966, 1310.431
521.6787, 1323.929
522.1608, 1331.231
522.6429, 1331.692
523.1251, 1327.777
523.6072, 1317.547
524.0893, 1304.775
524.5714, 1302.521
525.0535, 1311.318
525.5356, 1319.695
526.0178, 1319.872
526.4999, 1314.215
526.9820, 1309.228
527.4641, 1305.316
527.9462, 1302.426
528.4283, 1300.488
528.9105, 1299.584
529.3926, 1300.078
529.8747, 1305.688
530.3568, 1308.621
530.8389, 1299.143
531.3210, 1281.975
531.8032, 1272.020
532.2853, 1280.491
532.7674, 1293.096
533.2495, 1304.681
533.7316, 1316.844
534.2137, 1319.927
534.6959, 1303.399
535.1780, 1283.640
535.6601, 1274.812
536.1422, 1284.563
536.6243, 1289.391
537.1064, 1284.246
537.5885, 1273.544
538.0706, 1271.004
538.5527, 1278.194
539.0349, 1286.054
539.5170, 1289.846
539.9991, 1290.302
540.4812, 1292.554
540.9633, 1296.756
541.4454, 1301.247
541.9276, 1305.279
542.4097, 1308.315
542.8918, 1308.903
543.3739, 1305.869
543.8560, 1301.855
544.3381, 1298.521
544.8203, 1295.994
545.3024, 1294.665
545.7845, 1297.220
546.2666, 1298.924
546.7487, 1295.928
547.2308, 1287.844
547.7130, 1282.674
548.1951, 1284.371
548.6772, 1288.181
549.1593, 1290.881
549.6414, 1291.250
550.1235, 1292.548
550.6057, 1296.072
551.0878, 1299.797
551.5699, 1299.057
552.0520, 1291.798
552.5341, 1287.997
553.0162, 1292.902
553.4984, 1303.730
553.9805, 1305.223
554.4626, 1296.835
554.9447, 1287.716
555.4268, 1284.344
555.9089, 1285.707
556.3911, 1290.458
556.8732, 1299.385
557.3553, 1307.357
557.8374, 1308.568
558.3195, 1305.752
558.8016, 1303.602
559.2838, 1304.849
559.7659, 1306.347
560.2480, 1305.354
560.7301, 1302.830
561.2122, 1303.220
561.6943, 1313.525
562.1765, 1322.157
562.6586, 1323.069
563.1407, 1314.000
563.6228, 1304.891
564.1049, 1293.699
564.5870, 1284.520
565.0692, 1282.154
565.5513, 1288.359
566.0334, 1294.707
566.5155, 1300.690
566.9976, 1305.377
567.4797, 1305.229
567.9619, 1300.402
568.4440, 1298.047
568.9261, 1304.367
569.4082, 1315.137
569.8903, 1321.631
570.3724, 1323.727
570.8546, 1323.195
571.3367, 1318.799
571.8188, 1313.551
572.3009, 1311.738
572.7830, 1316.829
573.2651, 1319.364
573.7473, 1311.393
574.2294, 1298.795
574.7115, 1291.045
575.1936, 1296.456
575.6757, 1299.862
576.1578, 1294.483
576.6400, 1282.246
577.1221, 1280.734
577.6042, 1296.972
578.0863, 1312.688
578.5684, 1316.701
579.0505, 1307.043
579.5327, 1304.625
580.0148, 1311.552
580.4969, 1319.481
580.9790, 1315.292
581.4611, 1301.887
581.9432, 1297.741
582.4254, 1310.722
582.9075, 1329.133
583.3896, 1339.886
583.8717, 1343.699
584.3538, 1342.472
584.8359, 1331.354
585.3181, 1319.970
585.8002, 1315.816
586.2823, 1319.226
586.7644, 1323.479
587.2465, 1327.725
587.7286, 1331.099
588.2108, 1333.142
588.6929, 1335.034
589.1750, 1333.068
589.6571, 1322.973
590.1392, 1311.830
590.6213, 1310.355
591.1035, 1321.788
591.5856, 1331.894
592.0677, 1337.711
592.5498, 1339.896
593.0319, 1339.669
593.5140, 1337.007
593.9962, 1334.761
594.4783, 1335.259
594.9604, 1337.288
595.4425, 1338.333
595.9246, 1338.271
596.4067, 1337.856
596.8889, 1336.666
597.3710, 1335.864
597.8531, 1337.248
598.3352, 1343.789
598.8173, 1347.875
599.2994, 1342.568
599.7816, 1333.599
600.2637, 1331.025
600.7458, 1343.804
601.2279, 1354.780
601.7100, 1360.447
602.1921, 1361.353
602.6743, 1360.995
603.1564, 1359.330
603.6385, 1356.501
604.1206, 1351.030
604.6027, 1342.989
605.0848, 1342.087
605.5670, 1349.648
606.0491, 1357.753
606.5312, 1356.250
607.0133, 1348.660
607.4954, 1344.545
607.9775, 1346.684
608.4597, 1351.936
608.9418, 1360.365
609.4239, 1369.570
609.9060, 1374.540
610.3881, 1371.454
610.8702, 1365.449
611.3524, 1355.867
611.8345, 1343.509
612.3166, 1338.373
612.7987, 1351.065
613.2808, 1362.596
613.7629, 1363.620
614.2451, 1350.053
614.7272, 1344.931
615.2093, 1350.285
615.6914, 1360.270
616.1735, 1369.981
616.6556, 1379.371
617.1378, 1385.491
617.6199, 1387.438
618.1020, 1386.756
618.5840, 1384.907
619.0662, 1382.236
619.5483, 1379.844
620.0304, 1375.322
620.5125, 1373.473
620.9946, 1382.422
621.4767, 1399.647
621.9589, 1410.298
622.4410, 1403.491
622.9231, 1392.205
623.4052, 1383.480
623.8873, 1378.824
624.3694, 1373.590
624.8516, 1363.679
625.3337, 1356.647
625.8158, 1360.655
626.2979, 1380.674
626.7800, 1392.545
627.2621, 1392.390
627.7443, 1385.608
628.2264, 1380.887
628.7085, 1378.124
629.1906, 1375.974
629.6727, 1373.276
630.1548, 1371.440
630.6370, 1375.308
631.1191, 1383.116
631.6012, 1386.125
632.0833, 1372.915
632.5654, 1357.553
633.0475, 1351.886
633.5297, 1357.875
634.0118, 1362.130
634.4939, 1359.446
634.9760, 1354.552
635.4581, 1350.866
635.9402, 1349.924
636.4224, 1347.343
636.9045, 1342.193
637.3866, 1336.336
637.8687, 1332.979
638.3508, 1332.509
638.8329, 1330.696
639.3151, 1325.200
639.7972, 1319.254
640.2793, 1322.589
640.7614, 1333.188
641.2435, 1338.921
641.7256, 1327.437
642.2078, 1311.264
642.6899, 1303.957
643.1720, 1305.482
643.6541, 1309.534
644.1362, 1316.039
644.6183, 1321.859
