##NAMES=Molybdomenite
##RRUFFID=R140388
##IDEAL CHEMISTRY=Pb^2+^Se^4+^O_3_
##LOCALITY=Virgen de Surumi mine, Pakajake Canyon, Chayanta Province, Potos√≠ Department, Bolivia
##OWNER=RRUFF
##SOURCE=Rock Currier
##DESCRIPTION=Yellowish white tabular crystal with good cleavage, associated with calcite
##STATUS=The identification of this mineral has been confirmed by single-crystal X-ray diffraction.
##URL=rruff.info/R140388
8.813672e+001, 3.932047e+002
8.861884e+001, 4.022267e+002
8.910095e+001, 4.086788e+002
8.958307e+001, 4.114810e+002
9.006519e+001, 4.124623e+002
9.054730e+001, 4.130448e+002
9.102942e+001, 4.135876e+002
9.151154e+001, 4.143224e+002
9.199365e+001, 4.152573e+002
9.247577e+001, 4.166004e+002
9.295789e+001, 4.187090e+002
9.344000e+001, 4.225833e+002
9.392212e+001, 4.270985e+002
9.440424e+001, 4.299410e+002
9.488635e+001, 4.311883e+002
9.536847e+001, 4.321748e+002
9.585059e+001, 4.341339e+002
9.633270e+001, 4.370405e+002
9.681482e+001, 4.414391e+002
9.729694e+001, 4.481578e+002
9.777905e+001, 4.570275e+002
9.826117e+001, 4.652004e+002
9.874329e+001, 4.719312e+002
9.922540e+001, 4.782658e+002
9.970752e+001, 4.871316e+002
1.001896e+002, 4.988135e+002
1.006718e+002, 5.113383e+002
1.011539e+002, 5.231541e+002
1.016360e+002, 5.339880e+002
1.021181e+002, 5.455760e+002
1.026002e+002, 5.577327e+002
1.030823e+002, 5.706307e+002
1.035645e+002, 5.858820e+002
1.040466e+002, 6.045995e+002
1.045287e+002, 6.243052e+002
1.050108e+002, 6.429089e+002
1.054929e+002, 6.579088e+002
1.059750e+002, 6.760711e+002
1.064572e+002, 6.992704e+002
1.069393e+002, 7.281935e+002
1.074214e+002, 7.556376e+002
1.079035e+002, 7.786420e+002
1.083856e+002, 8.018381e+002
1.088677e+002, 8.298539e+002
1.093499e+002, 8.659403e+002
1.098320e+002, 9.041183e+002
1.103141e+002, 9.430060e+002
1.107962e+002, 9.826732e+002
1.112783e+002, 1.024663e+003
1.117604e+002, 1.070217e+003
1.122426e+002, 1.118455e+003
1.127247e+002, 1.167208e+003
1.132068e+002, 1.218738e+003
1.136889e+002, 1.268946e+003
1.141710e+002, 1.316363e+003
1.146531e+002, 1.362899e+003
1.151353e+002, 1.402672e+003
1.156174e+002, 1.435383e+003
1.160995e+002, 1.460717e+003
1.165816e+002, 1.478396e+003
1.170637e+002, 1.489923e+003
1.175458e+002, 1.492699e+003
1.180280e+002, 1.484422e+003
1.185101e+002, 1.459968e+003
1.189922e+002, 1.429818e+003
1.194743e+002, 1.398681e+003
1.199564e+002, 1.366275e+003
1.204385e+002, 1.332082e+003
1.209207e+002, 1.293369e+003
1.214028e+002, 1.253373e+003
1.218849e+002, 1.215891e+003
1.223670e+002, 1.181821e+003
1.228491e+002, 1.150409e+003
1.233312e+002, 1.121466e+003
1.238134e+002, 1.094822e+003
1.242955e+002, 1.070033e+003
1.247776e+002, 1.046487e+003
1.252597e+002, 1.024538e+003
1.257418e+002, 1.004904e+003
1.262239e+002, 9.887592e+002
1.267061e+002, 9.747659e+002
1.271882e+002, 9.610781e+002
1.276703e+002, 9.474777e+002
1.281524e+002, 9.350065e+002
1.286345e+002, 9.253583e+002
1.291166e+002, 9.180789e+002
1.295988e+002, 9.110825e+002
1.300809e+002, 9.029207e+002
1.305630e+002, 8.942094e+002
1.310451e+002, 8.872750e+002
1.315272e+002, 8.825927e+002
1.320093e+002, 8.787158e+002
1.324915e+002, 8.729973e+002
1.329736e+002, 8.654485e+002
1.334557e+002, 8.587839e+002
1.339378e+002, 8.549659e+002
1.344199e+002, 8.538005e+002
1.349020e+002, 8.523837e+002
1.353842e+002, 8.504092e+002
1.358663e+002, 8.481510e+002
1.363484e+002, 8.462145e+002
1.368305e+002, 8.446700e+002
1.373126e+002, 8.429205e+002
1.377947e+002, 8.403750e+002
1.382769e+002, 8.367845e+002
1.387590e+002, 8.339973e+002
1.392411e+002, 8.326641e+002
1.397232e+002, 8.321414e+002
1.402053e+002, 8.298433e+002
1.406874e+002, 8.250780e+002
1.411696e+002, 8.199407e+002
1.416517e+002, 8.159183e+002
1.421338e+002, 8.132148e+002
1.426159e+002, 8.112354e+002
1.430980e+002, 8.104133e+002
1.435801e+002, 8.105720e+002
1.440623e+002, 8.092358e+002
1.445444e+002, 8.056705e+002
1.450265e+002, 8.015063e+002
1.455086e+002, 7.979544e+002
1.459907e+002, 7.943391e+002
1.464728e+002, 7.924713e+002
1.469550e+002, 7.934537e+002
1.474371e+002, 7.975849e+002
1.479192e+002, 7.996224e+002
1.484013e+002, 7.983862e+002
1.488834e+002, 7.957542e+002
1.493655e+002, 7.934013e+002
1.498477e+002, 7.906265e+002
1.503298e+002, 7.888752e+002
1.508119e+002, 7.887352e+002
1.512940e+002, 7.905574e+002
1.517761e+002, 7.919057e+002
1.522583e+002, 7.917783e+002
1.527404e+002, 7.914617e+002
1.532225e+002, 7.923182e+002
1.537046e+002, 7.954753e+002
1.541867e+002, 7.988916e+002
1.546688e+002, 8.021966e+002
1.551510e+002, 8.055477e+002
1.556331e+002, 8.082547e+002
1.561152e+002, 8.094867e+002
1.565973e+002, 8.101876e+002
1.570794e+002, 8.116052e+002
1.575615e+002, 8.135795e+002
1.580437e+002, 8.166963e+002
1.585258e+002, 8.214902e+002
1.590079e+002, 8.286329e+002
1.594900e+002, 8.355706e+002
1.599721e+002, 8.414974e+002
1.604542e+002, 8.467357e+002
1.609364e+002, 8.518463e+002
1.614185e+002, 8.566030e+002
1.619006e+002, 8.615515e+002
1.623827e+002, 8.671214e+002
1.628648e+002, 8.737521e+002
1.633469e+002, 8.800778e+002
1.638291e+002, 8.859139e+002
1.643112e+002, 8.909870e+002
1.647933e+002, 8.948205e+002
1.652754e+002, 8.947407e+002
1.657575e+002, 8.946997e+002
1.662396e+002, 8.979510e+002
1.667218e+002, 9.063687e+002
1.672039e+002, 9.158353e+002
1.676860e+002, 9.243007e+002
1.681681e+002, 9.318172e+002
1.686502e+002, 9.388258e+002
1.691323e+002, 9.450085e+002
1.696145e+002, 9.509670e+002
1.700966e+002, 9.574300e+002
1.705787e+002, 9.652611e+002
1.710608e+002, 9.725897e+002
1.715429e+002, 9.775510e+002
1.720250e+002, 9.805203e+002
1.725072e+002, 9.830625e+002
1.729893e+002, 9.856547e+002
1.734714e+002, 9.886042e+002
1.739535e+002, 9.925371e+002
1.744356e+002, 9.986282e+002
1.749177e+002, 1.004521e+003
1.753999e+002, 1.007826e+003
1.758820e+002, 1.008666e+003
1.763641e+002, 1.008002e+003
1.768462e+002, 1.005403e+003
1.773283e+002, 1.001920e+003
1.778104e+002, 9.996868e+002
1.782926e+002, 1.000386e+003
1.787747e+002, 1.001716e+003
1.792568e+002, 1.000077e+003
1.797389e+002, 9.956204e+002
1.802210e+002, 9.906685e+002
1.807031e+002, 9.872075e+002
1.811853e+002, 9.848649e+002
1.816674e+002, 9.828411e+002
1.821495e+002, 9.815834e+002
1.826316e+002, 9.801004e+002
1.831137e+002, 9.758376e+002
1.835958e+002, 9.686971e+002
1.840780e+002, 9.616800e+002
1.845601e+002, 9.575123e+002
1.850422e+002, 9.558524e+002
1.855243e+002, 9.549984e+002
1.860064e+002, 9.548737e+002
1.864885e+002, 9.550501e+002
1.869707e+002, 9.544095e+002
1.874528e+002, 9.529122e+002
1.879349e+002, 9.509491e+002
1.884170e+002, 9.486815e+002
1.888991e+002, 9.461854e+002
1.893812e+002, 9.439919e+002
1.898634e+002, 9.419913e+002
1.903455e+002, 9.404398e+002
1.908276e+002, 9.405602e+002
1.913097e+002, 9.425870e+002
1.917918e+002, 9.450734e+002
1.922739e+002, 9.465026e+002
1.927561e+002, 9.468901e+002
1.932382e+002, 9.467250e+002
1.937203e+002, 9.460993e+002
1.942024e+002, 9.450247e+002
1.946845e+002, 9.434945e+002
1.951666e+002, 9.413990e+002
1.956488e+002, 9.391516e+002
1.961309e+002, 9.376945e+002
1.966130e+002, 9.371157e+002
1.970951e+002, 9.351546e+002
1.975772e+002, 9.307521e+002
1.980593e+002, 9.241123e+002
1.985415e+002, 9.173771e+002
1.990236e+002, 9.105656e+002
1.995057e+002, 9.037311e+002
1.999878e+002, 8.973992e+002
2.004699e+002, 8.918199e+002
2.009520e+002, 8.850812e+002
2.014342e+002, 8.764211e+002
2.019163e+002, 8.658822e+002
2.023984e+002, 8.550785e+002
2.028805e+002, 8.437100e+002
2.033626e+002, 8.327236e+002
2.038447e+002, 8.236413e+002
2.043269e+002, 8.168454e+002
2.048090e+002, 8.100916e+002
2.052911e+002, 8.029395e+002
2.057732e+002, 7.953660e+002
2.062553e+002, 7.863802e+002
2.067374e+002, 7.753622e+002
2.072196e+002, 7.638364e+002
2.077017e+002, 7.539399e+002
2.081838e+002, 7.459459e+002
2.086659e+002, 7.385331e+002
2.091480e+002, 7.315563e+002
2.096301e+002, 7.250170e+002
2.101123e+002, 7.176940e+002
2.105944e+002, 7.090621e+002
2.110765e+002, 7.002488e+002
2.115586e+002, 6.928937e+002
2.120407e+002, 6.873120e+002
2.125228e+002, 6.823026e+002
2.130050e+002, 6.778471e+002
2.134871e+002, 6.741532e+002
2.139692e+002, 6.689432e+002
2.144513e+002, 6.613431e+002
2.149334e+002, 6.531884e+002
2.154155e+002, 6.471564e+002
2.158977e+002, 6.441602e+002
2.163798e+002, 6.410555e+002
2.168619e+002, 6.368246e+002
2.173440e+002, 6.313198e+002
2.178261e+002, 6.259796e+002
2.183082e+002, 6.205114e+002
2.187904e+002, 6.155799e+002
2.192725e+002, 6.124138e+002
2.197546e+002, 6.120685e+002
2.202367e+002, 6.112357e+002
2.207188e+002, 6.087255e+002
2.212009e+002, 6.041346e+002
2.216831e+002, 6.007208e+002
2.221652e+002, 5.993118e+002
2.226473e+002, 5.983260e+002
2.231294e+002, 5.953864e+002
2.236115e+002, 5.891073e+002
2.240936e+002, 5.836241e+002
2.245758e+002, 5.801324e+002
2.250579e+002, 5.789244e+002
2.255400e+002, 5.778608e+002
2.260221e+002, 5.772196e+002
2.265042e+002, 5.764750e+002
2.269863e+002, 5.749037e+002
2.274685e+002, 5.720918e+002
2.279506e+002, 5.691646e+002
2.284327e+002, 5.663308e+002
2.289148e+002, 5.635187e+002
2.293969e+002, 5.610445e+002
2.298790e+002, 5.586765e+002
2.303612e+002, 5.568242e+002
2.308433e+002, 5.561041e+002
2.313254e+002, 5.571797e+002
2.318075e+002, 5.581661e+002
2.322896e+002, 5.586893e+002
2.327717e+002, 5.587609e+002
2.332539e+002, 5.582175e+002
2.337360e+002, 5.568547e+002
2.342181e+002, 5.550795e+002
2.347002e+002, 5.533812e+002
2.351823e+002, 5.521085e+002
2.356644e+002, 5.503040e+002
2.361466e+002, 5.475077e+002
2.366287e+002, 5.435885e+002
2.371108e+002, 5.405428e+002
2.375929e+002, 5.385206e+002
2.380750e+002, 5.373187e+002
2.385571e+002, 5.368817e+002
2.390393e+002, 5.379083e+002
2.395214e+002, 5.384147e+002
2.400035e+002, 5.378261e+002
2.404856e+002, 5.360543e+002
2.409677e+002, 5.348097e+002
2.414498e+002, 5.342805e+002
2.419320e+002, 5.340870e+002
2.424141e+002, 5.339617e+002
2.428962e+002, 5.343409e+002
2.433783e+002, 5.338468e+002
2.438604e+002, 5.315394e+002
2.443425e+002, 5.274102e+002
2.448247e+002, 5.259137e+002
2.453068e+002, 5.285425e+002
2.457889e+002, 5.321965e+002
2.462710e+002, 5.342029e+002
2.467531e+002, 5.336762e+002
2.472352e+002, 5.332728e+002
2.477174e+002, 5.337360e+002
2.481995e+002, 5.349509e+002
2.486816e+002, 5.344800e+002
2.491637e+002, 5.312020e+002
2.496458e+002, 5.275844e+002
2.501279e+002, 5.257392e+002
2.506101e+002, 5.266825e+002
2.510922e+002, 5.272344e+002
2.515743e+002, 5.270218e+002
2.520564e+002, 5.260944e+002
2.525385e+002, 5.245227e+002
2.530206e+002, 5.212587e+002
2.535028e+002, 5.187523e+002
2.539849e+002, 5.192289e+002
2.544670e+002, 5.248487e+002
2.549491e+002, 5.280966e+002
2.554312e+002, 5.274020e+002
2.559133e+002, 5.235806e+002
2.563955e+002, 5.209951e+002
2.568776e+002, 5.201147e+002
2.573597e+002, 5.197045e+002
2.578418e+002, 5.189388e+002
2.583239e+002, 5.174700e+002
2.588061e+002, 5.165639e+002
2.592882e+002, 5.165587e+002
2.597703e+002, 5.171359e+002
2.602524e+002, 5.170362e+002
2.607345e+002, 5.159090e+002
2.612166e+002, 5.147665e+002
2.616988e+002, 5.142355e+002
2.621809e+002, 5.146273e+002
2.626630e+002, 5.146901e+002
2.631451e+002, 5.143099e+002
2.636272e+002, 5.136224e+002
2.641093e+002, 5.129069e+002
2.645915e+002, 5.119937e+002
2.650736e+002, 5.114563e+002
2.655557e+002, 5.119997e+002
2.660378e+002, 5.144102e+002
2.665199e+002, 5.143917e+002
2.670020e+002, 5.107864e+002
2.674842e+002, 5.056002e+002
2.679663e+002, 5.032899e+002
2.684484e+002, 5.046430e+002
2.689305e+002, 5.065731e+002
2.694126e+002, 5.077292e+002
2.698947e+002, 5.079211e+002
2.703769e+002, 5.083914e+002
2.708590e+002, 5.089073e+002
2.713411e+002, 5.099644e+002
2.718232e+002, 5.132117e+002
2.723053e+002, 5.198154e+002
2.727874e+002, 5.239674e+002
2.732696e+002, 5.223624e+002
2.737517e+002, 5.144958e+002
2.742338e+002, 5.101825e+002
2.747159e+002, 5.101399e+002
2.751980e+002, 5.121840e+002
2.756801e+002, 5.137528e+002
2.761623e+002, 5.149499e+002
2.766444e+002, 5.149869e+002
2.771265e+002, 5.129999e+002
2.776086e+002, 5.092059e+002
2.780907e+002, 5.077062e+002
2.785728e+002, 5.089873e+002
2.790550e+002, 5.111607e+002
2.795371e+002, 5.122361e+002
2.800192e+002, 5.121718e+002
2.805013e+002, 5.116644e+002
2.809834e+002, 5.107807e+002
2.814655e+002, 5.096076e+002
2.819477e+002, 5.085341e+002
2.824298e+002, 5.075571e+002
2.829119e+002, 5.067446e+002
2.833940e+002, 5.063881e+002
2.838761e+002, 5.064680e+002
2.843582e+002, 5.058925e+002
2.848404e+002, 5.041148e+002
2.853225e+002, 5.016877e+002
2.858046e+002, 5.004497e+002
2.862867e+002, 5.005008e+002
2.867688e+002, 5.007392e+002
2.872509e+002, 5.002109e+002
2.877331e+002, 4.990118e+002
2.882152e+002, 4.981040e+002
2.886973e+002, 4.978385e+002
2.891794e+002, 4.976857e+002
2.896615e+002, 4.959789e+002
2.901436e+002, 4.927267e+002
2.906258e+002, 4.903541e+002
2.911079e+002, 4.915143e+002
2.915900e+002, 4.951979e+002
2.920721e+002, 4.967376e+002
2.925542e+002, 4.951154e+002
2.930363e+002, 4.923202e+002
2.935185e+002, 4.914623e+002
2.940006e+002, 4.923683e+002
2.944827e+002, 4.934216e+002
2.949648e+002, 4.940968e+002
2.954469e+002, 4.942367e+002
2.959290e+002, 4.930233e+002
2.964112e+002, 4.901036e+002
2.968933e+002, 4.872389e+002
2.973754e+002, 4.868849e+002
2.978575e+002, 4.885326e+002
2.983396e+002, 4.903062e+002
2.988217e+002, 4.917605e+002
2.993039e+002, 4.926198e+002
2.997860e+002, 4.918450e+002
3.002681e+002, 4.892693e+002
3.007502e+002, 4.869955e+002
3.012323e+002, 4.877332e+002
3.017144e+002, 4.904159e+002
3.021966e+002, 4.924406e+002
3.026787e+002, 4.921076e+002
3.031608e+002, 4.909964e+002
3.036429e+002, 4.910946e+002
3.041250e+002, 4.923585e+002
3.046071e+002, 4.939209e+002
3.050893e+002, 4.954115e+002
3.055714e+002, 4.967003e+002
3.060535e+002, 4.975087e+002
3.065356e+002, 4.974933e+002
3.070177e+002, 4.972521e+002
3.074998e+002, 4.974981e+002
3.079820e+002, 4.980909e+002
3.084641e+002, 4.982749e+002
3.089462e+002, 4.968710e+002
3.094283e+002, 4.950895e+002
3.099104e+002, 4.942969e+002
3.103925e+002, 4.950576e+002
3.108747e+002, 4.964460e+002
3.113568e+002, 4.983215e+002
3.118389e+002, 5.004071e+002
3.123210e+002, 5.019217e+002
3.128031e+002, 5.017557e+002
3.132852e+002, 5.013232e+002
3.137674e+002, 5.018827e+002
3.142495e+002, 5.040297e+002
3.147316e+002, 5.059217e+002
3.152137e+002, 5.063091e+002
3.156958e+002, 5.058546e+002
3.161779e+002, 5.056894e+002
3.166601e+002, 5.066618e+002
3.171422e+002, 5.077039e+002
3.176243e+002, 5.083539e+002
3.181064e+002, 5.085851e+002
3.185885e+002, 5.082568e+002
3.190706e+002, 5.062243e+002
3.195528e+002, 5.039816e+002
3.200349e+002, 5.032257e+002
3.205170e+002, 5.059717e+002
3.209991e+002, 5.087728e+002
3.214812e+002, 5.105150e+002
3.219633e+002, 5.111540e+002
3.224455e+002, 5.116081e+002
3.229276e+002, 5.118371e+002
3.234097e+002, 5.120842e+002
3.238918e+002, 5.125314e+002
3.243739e+002, 5.135680e+002
3.248560e+002, 5.143988e+002
3.253382e+002, 5.142095e+002
3.258203e+002, 5.133625e+002
3.263024e+002, 5.142667e+002
3.267845e+002, 5.199952e+002
3.272666e+002, 5.253649e+002
3.277487e+002, 5.278212e+002
3.282309e+002, 5.239127e+002
3.287130e+002, 5.217465e+002
3.291951e+002, 5.222148e+002
3.296772e+002, 5.243989e+002
3.301593e+002, 5.259771e+002
3.306414e+002, 5.261233e+002
3.311236e+002, 5.266003e+002
3.316057e+002, 5.281004e+002
3.320878e+002, 5.310619e+002
3.325699e+002, 5.337799e+002
3.330520e+002, 5.364110e+002
3.335341e+002, 5.386845e+002
3.340163e+002, 5.400105e+002
3.344984e+002, 5.395035e+002
3.349805e+002, 5.397770e+002
3.354626e+002, 5.416271e+002
3.359447e+002, 5.451293e+002
3.364268e+002, 5.486622e+002
3.369090e+002, 5.519874e+002
3.373911e+002, 5.557693e+002
3.378732e+002, 5.609990e+002
3.383553e+002, 5.683168e+002
3.388374e+002, 5.742483e+002
3.393195e+002, 5.774550e+002
3.398017e+002, 5.788966e+002
3.402838e+002, 5.835117e+002
3.407659e+002, 5.920338e+002
3.412480e+002, 6.011584e+002
3.417301e+002, 6.082645e+002
3.422122e+002, 6.131815e+002
3.426944e+002, 6.195929e+002
3.431765e+002, 6.279281e+002
3.436586e+002, 6.378213e+002
3.441407e+002, 6.484523e+002
3.446228e+002, 6.597715e+002
3.451049e+002, 6.718423e+002
3.455871e+002, 6.847786e+002
3.460692e+002, 6.986078e+002
3.465513e+002, 7.122674e+002
3.470334e+002, 7.256498e+002
3.475155e+002, 7.393866e+002
3.479977e+002, 7.527147e+002
3.484798e+002, 7.664270e+002
3.489619e+002, 7.840546e+002
3.494440e+002, 8.089841e+002
3.499261e+002, 8.381573e+002
3.504082e+002, 8.647034e+002
3.508904e+002, 8.886258e+002
3.513725e+002, 9.141691e+002
3.518546e+002, 9.459308e+002
3.523367e+002, 9.821339e+002
3.528188e+002, 1.019288e+003
3.533009e+002, 1.056075e+003
3.537831e+002, 1.093750e+003
3.542652e+002, 1.133805e+003
3.547473e+002, 1.176010e+003
3.552294e+002, 1.219378e+003
3.557115e+002, 1.265661e+003
3.561936e+002, 1.311724e+003
3.566758e+002, 1.353757e+003
3.571579e+002, 1.390815e+003
3.576400e+002, 1.425961e+003
3.581221e+002, 1.464193e+003
3.586042e+002, 1.501965e+003
3.590863e+002, 1.532988e+003
3.595685e+002, 1.555036e+003
3.600506e+002, 1.569068e+003
3.605327e+002, 1.575257e+003
3.610148e+002, 1.573478e+003
3.614969e+002, 1.565510e+003
3.619790e+002, 1.548976e+003
3.624612e+002, 1.527823e+003
3.629433e+002, 1.506069e+003
3.634254e+002, 1.484283e+003
3.639075e+002, 1.462503e+003
3.643896e+002, 1.440545e+003
3.648717e+002, 1.418433e+003
3.653539e+002, 1.396753e+003
3.658360e+002, 1.377354e+003
3.663181e+002, 1.357271e+003
3.668002e+002, 1.334412e+003
3.672823e+002, 1.309918e+003
3.677644e+002, 1.280922e+003
3.682466e+002, 1.245310e+003
3.687287e+002, 1.204757e+003
3.692108e+002, 1.164700e+003
3.696929e+002, 1.125829e+003
3.701750e+002, 1.086291e+003
3.706571e+002, 1.045429e+003
3.711393e+002, 1.001630e+003
3.716214e+002, 9.607827e+002
3.721035e+002, 9.227140e+002
3.725856e+002, 8.872964e+002
3.730677e+002, 8.547790e+002
3.735498e+002, 8.248273e+002
3.740320e+002, 7.980566e+002
3.745141e+002, 7.754599e+002
3.749962e+002, 7.568511e+002
3.754783e+002, 7.375189e+002
3.759604e+002, 7.167143e+002
3.764425e+002, 6.972710e+002
3.769247e+002, 6.819457e+002
3.774068e+002, 6.713737e+002
3.778889e+002, 6.608345e+002
3.783710e+002, 6.493550e+002
3.788531e+002, 6.380938e+002
3.793352e+002, 6.301240e+002
3.798174e+002, 6.257324e+002
3.802995e+002, 6.218979e+002
3.807816e+002, 6.170563e+002
3.812637e+002, 6.112919e+002
3.817458e+002, 6.053297e+002
3.822279e+002, 5.989535e+002
3.827101e+002, 5.930359e+002
3.831922e+002, 5.887503e+002
3.836743e+002, 5.858239e+002
3.841564e+002, 5.832150e+002
3.846385e+002, 5.807177e+002
3.851206e+002, 5.781437e+002
3.856028e+002, 5.750402e+002
3.860849e+002, 5.714325e+002
3.865670e+002, 5.677971e+002
3.870491e+002, 5.641710e+002
3.875312e+002, 5.608165e+002
3.880133e+002, 5.582181e+002
3.884955e+002, 5.568263e+002
3.889776e+002, 5.556513e+002
3.894597e+002, 5.534072e+002
3.899418e+002, 5.506185e+002
3.904239e+002, 5.487725e+002
3.909060e+002, 5.503363e+002
3.913882e+002, 5.520743e+002
3.918703e+002, 5.511783e+002
3.923524e+002, 5.468785e+002
3.928345e+002, 5.423883e+002
3.933166e+002, 5.384080e+002
3.937987e+002, 5.353705e+002
3.942809e+002, 5.338627e+002
3.947630e+002, 5.354854e+002
3.952451e+002, 5.372260e+002
3.957272e+002, 5.381909e+002
3.962093e+002, 5.383588e+002
3.966914e+002, 5.381036e+002
3.971736e+002, 5.378120e+002
3.976557e+002, 5.369109e+002
3.981378e+002, 5.350332e+002
3.986199e+002, 5.309139e+002
3.991020e+002, 5.273926e+002
3.995841e+002, 5.246232e+002
4.000663e+002, 5.224972e+002
4.005484e+002, 5.207414e+002
4.010305e+002, 5.191031e+002
4.015126e+002, 5.181625e+002
4.019947e+002, 5.182997e+002
4.024768e+002, 5.198060e+002
4.029590e+002, 5.207968e+002
4.034411e+002, 5.210873e+002
4.039232e+002, 5.210776e+002
4.044053e+002, 5.213471e+002
4.048874e+002, 5.222084e+002
4.053695e+002, 5.222258e+002
4.058517e+002, 5.208793e+002
4.063338e+002, 5.185294e+002
4.068159e+002, 5.165853e+002
4.072980e+002, 5.150273e+002
4.077801e+002, 5.139852e+002
4.082622e+002, 5.137284e+002
4.087444e+002, 5.141989e+002
4.092265e+002, 5.146898e+002
4.097086e+002, 5.152357e+002
4.101907e+002, 5.155280e+002
4.106728e+002, 5.147259e+002
4.111549e+002, 5.130364e+002
4.116371e+002, 5.118530e+002
4.121192e+002, 5.120082e+002
4.126013e+002, 5.130510e+002
4.130834e+002, 5.145651e+002
