##NAMES=Molybdenum
##RRUFFID=R100216
##IDEAL CHEMISTRY=Mo
##LOCALITY=Mining concentrate
##OWNER=RRUFF
##SOURCE=Mike Carducci, Climax Molybdenum Technology Center
##DESCRIPTION=Black unconsolidated powder
##STATUS=The identification of this mineral has been confirmed by X-ray diffraction.
##URL=rruff.info/R100216
181.1911, 64.45824
181.6732, 64.57470
182.1553, 61.89824
182.6374, 57.87432
183.1195, 55.68364
183.6017, 55.49046
184.0838, 56.39794
184.5659, 57.90231
185.0480, 59.80651
185.5301, 61.16793
186.0123, 60.81903
186.4944, 59.50039
186.9765, 60.09416
187.4586, 63.22198
187.9407, 66.33098
188.4228, 65.50518
188.9050, 61.05796
189.3871, 56.04005
189.8692, 51.09349
190.3513, 46.61274
190.8334, 44.93510
191.3155, 46.61684
191.7977, 49.95458
192.2798, 52.74306
192.7619, 54.99022
193.2440, 56.25829
193.7261, 55.62732
194.2082, 53.35729
194.6904, 52.77215
195.1725, 54.52383
195.6546, 57.07162
196.1367, 57.29698
196.6188, 55.05340
197.1009, 52.58587
197.5831, 50.62199
198.0652, 49.14313
198.5473, 49.91404
199.0294, 53.88359
199.5115, 58.93396
199.9937, 59.94438
200.4758, 56.16356
200.9579, 53.06758
201.4400, 54.82187
201.9221, 62.01352
202.4042, 65.51228
202.8864, 63.96223
203.3685, 59.31833
203.8506, 56.08318
204.3327, 54.54082
204.8148, 53.35743
205.2969, 51.35862
205.7791, 48.11538
206.2612, 47.53107
206.7433, 50.94151
207.2254, 56.28975
207.7075, 57.77370
208.1896, 54.04457
208.6718, 50.39324
209.1539, 49.96990
209.6360, 53.51785
210.1181, 56.63498
210.6002, 59.42833
211.0823, 61.47805
211.5645, 61.28612
212.0466, 58.08463
212.5287, 54.45713
213.0108, 51.53339
213.4929, 49.06242
213.9750, 48.34690
214.4572, 50.19825
214.9393, 53.54768
215.4214, 55.23914
215.9035, 54.83504
216.3856, 53.66761
216.8678, 52.22834
217.3499, 50.07957
217.8320, 49.11020
218.3141, 49.88410
218.7962, 51.75560
219.2783, 52.67939
219.7605, 52.34589
220.2426, 51.61250
220.7247, 50.75010
221.2068, 49.33905
221.6889, 49.15784
222.1710, 51.12239
222.6532, 54.16985
223.1353, 54.59920
223.6174, 50.75571
224.0995, 47.06843
224.5816, 45.84624
225.0637, 47.98102
225.5459, 50.46276
226.0280, 54.02533
226.5101, 57.70604
226.9922, 58.07980
227.4743, 53.01684
227.9564, 48.01123
228.4386, 45.93882
228.9207, 48.63266
229.4028, 49.79275
229.8849, 48.48721
230.3670, 45.79269
230.8492, 44.84682
231.3313, 46.78403
231.8134, 48.76310
232.2955, 49.26448
232.7776, 46.80524
233.2597, 46.49205
233.7419, 49.72856
234.2240, 54.75373
234.7061, 56.69044
235.1882, 53.84453
235.6703, 50.50927
236.1524, 48.39968
236.6346, 47.71696
237.1167, 47.94311
237.5988, 49.70041
238.0809, 52.14178
238.5630, 53.26487
239.0451, 52.51092
239.5273, 51.25552
240.0094, 49.89519
240.4915, 47.99469
240.9736, 47.12468
241.4557, 47.40540
241.9378, 48.64825
242.4200, 50.78999
242.9021, 55.57363
243.3842, 58.54836
243.8663, 57.41343
244.3484, 49.79494
244.8306, 45.32532
245.3127, 45.47701
245.7948, 48.02720
246.2769, 48.77095
246.7590, 46.40855
247.2411, 44.44063
247.7233, 44.19323
248.2054, 46.20708
248.6875, 47.97651
249.1696, 49.62734
249.6517, 50.93809
250.1338, 51.41264
250.6160, 50.43953
251.0981, 49.73029
251.5802, 49.85107
252.0623, 50.93649
252.5444, 52.31068
253.0265, 54.70463
253.5087, 56.77958
253.9908, 56.24469
254.4729, 51.37284
254.9550, 47.40593
255.4371, 46.04542
255.9192, 47.67077
256.4014, 48.93775
256.8835, 49.94771
257.3656, 50.49728
257.8477, 50.24946
258.3298, 48.78547
258.8120, 47.43855
259.2941, 46.40144
259.7762, 45.64416
260.2583, 45.91738
260.7404, 48.04456
261.2225, 50.18318
261.7047, 49.94939
262.1868, 45.80841
262.6689, 43.44337
263.1510, 44.94369
263.6331, 50.11885
264.1152, 51.90318
264.5974, 48.71145
265.0795, 44.55389
265.5616, 43.45085
266.0437, 46.22831
266.5258, 49.35703
267.0079, 52.61805
267.4901, 55.84789
267.9722, 57.16249
268.4543, 56.09118
268.9364, 54.07814
269.4185, 52.09171
269.9006, 49.99247
270.3828, 48.54954
270.8649, 47.96511
271.3470, 48.11005
271.8291, 48.55051
272.3112, 49.58163
272.7933, 50.13934
273.2755, 48.96213
273.7576, 45.57479
274.2397, 43.89997
274.7218, 45.05725
275.2039, 47.85138
275.6860, 48.29372
276.1682, 45.75026
276.6503, 43.25674
277.1324, 43.07685
277.6145, 45.45225
278.0966, 46.88247
278.5787, 46.96102
279.0609, 46.12457
279.5430, 45.02849
280.0251, 43.53608
280.5072, 42.67811
280.9893, 43.48435
281.4715, 45.93520
281.9536, 47.11681
282.4357, 46.53466
282.9178, 45.37181
283.3999, 45.98049
283.8820, 48.48372
284.3642, 50.52752
284.8463, 50.77238
285.3284, 49.37739
285.8105, 48.15632
286.2926, 47.07795
286.7747, 46.28460
287.2569, 46.27228
287.7390, 46.99468
288.2211, 47.22779
288.7032, 46.26123
289.1853, 44.36549
289.6674, 42.59182
290.1496, 40.88475
290.6317, 39.59014
291.1138, 39.08837
291.5959, 39.35122
292.0780, 40.21041
292.5602, 41.91960
293.0423, 44.07600
293.5244, 45.74516
294.0065, 46.91856
294.4886, 47.59095
294.9707, 47.35526
295.4529, 46.52577
295.9350, 46.34801
296.4171, 47.65316
296.8992, 49.29957
297.3813, 48.86300
297.8634, 46.52465
298.3456, 44.28981
298.8277, 44.36816
299.3098, 45.65853
299.7919, 45.52678
300.2740, 42.84579
300.7561, 39.57972
301.2383, 38.17507
301.7204, 38.42797
302.2025, 39.53268
302.6846, 41.84969
303.1667, 44.44674
303.6488, 45.80359
304.1310, 45.40946
304.6131, 44.59208
305.0952, 44.37153
305.5773, 44.73752
306.0594, 45.65820
306.5415, 47.81524
307.0237, 50.17574
307.5058, 51.77918
307.9879, 52.54208
308.4700, 52.40149
308.9521, 50.77158
309.4343, 48.25715
309.9164, 45.89558
310.3985, 43.13644
310.8806, 41.35918
311.3627, 42.27208
311.8448, 45.98351
312.3270, 49.33895
312.8091, 50.45606
313.2912, 50.15901
313.7733, 49.42138
314.2554, 48.29110
314.7375, 47.06376
315.2197, 45.64178
315.7018, 44.10263
316.1839, 43.17817
316.6660, 44.47288
317.1481, 45.85840
317.6302, 45.43496
318.1124, 39.62708
318.5945, 35.83373
319.0766, 37.92828
319.5587, 44.35724
320.0408, 49.73703
320.5229, 52.55308
321.0051, 53.73793
321.4872, 53.71660
321.9693, 52.16801
322.4514, 50.14549
322.9335, 46.26821
323.4156, 42.17438
323.8978, 41.02262
324.3799, 48.24530
324.8620, 54.24690
325.3441, 54.99623
325.8262, 48.07414
326.3083, 42.64090
326.7905, 39.76496
327.2726, 38.61311
327.7547, 38.18778
328.2368, 38.63838
328.7189, 39.61087
329.2010, 41.38473
329.6832, 44.10193
330.1653, 45.89221
330.6474, 46.68736
331.1295, 46.60351
331.6116, 45.58112
332.0938, 42.03953
332.5759, 40.11541
333.0580, 40.86939
333.5401, 43.90485
334.0222, 46.33240
334.5043, 48.60980
334.9865, 49.68457
335.4686, 48.48707
335.9507, 43.39049
336.4328, 40.55200
336.9149, 40.93266
337.3970, 43.44701
337.8792, 45.32119
338.3613, 46.62376
338.8434, 47.18224
339.3255, 46.57726
339.8076, 44.51419
340.2898, 43.67974
340.7719, 44.39036
341.2540, 45.77052
341.7361, 46.54745
342.2182, 46.65219
342.7003, 46.71211
343.1825, 47.09935
343.6646, 47.67275
344.1467, 47.28625
344.6288, 45.77854
345.1109, 44.10905
345.5930, 43.07397
346.0752, 42.68715
346.5573, 42.99335
347.0394, 44.25291
347.5215, 45.99608
348.0036, 47.06434
348.4857, 47.47372
348.9679, 48.06948
349.4500, 50.45312
349.9321, 53.58878
350.4142, 54.00716
350.8963, 50.36533
351.3784, 45.97890
351.8606, 45.92691
352.3427, 49.10750
352.8248, 51.44962
353.3069, 49.18309
353.7890, 45.26934
354.2711, 44.18801
354.7533, 46.58641
355.2354, 49.01754
355.7175, 47.59387
356.1996, 44.26926
356.6817, 42.45142
357.1638, 44.98580
357.6460, 48.54112
358.1281, 50.73650
358.6102, 51.59590
359.0923, 52.00213
359.5744, 52.74021
360.0565, 53.12693
360.5387, 52.37671
361.0208, 48.50276
361.5029, 45.66442
361.9850, 46.96980
362.4671, 51.02269
362.9492, 53.51219
363.4314, 51.25722
363.9135, 48.26151
364.3956, 46.74455
364.8777, 47.49085
365.3598, 48.57393
365.8419, 50.17060
366.3241, 51.73284
366.8062, 52.42333
367.2883, 51.51002
367.7704, 50.30852
368.2526, 49.13332
368.7347, 48.00558
369.2168, 46.80533
369.6989, 44.87438
370.1810, 43.26634
370.6631, 42.90561
371.1453, 45.16604
371.6274, 46.60233
372.1095, 46.40010
372.5916, 44.89920
373.0737, 44.41804
373.5558, 45.45755
374.0380, 46.76492
374.5201, 47.78354
375.0022, 48.66799
375.4843, 48.56407
375.9664, 46.88366
376.4485, 44.69289
376.9307, 44.36736
377.4128, 46.41996
377.8949, 48.16484
378.3770, 48.34503
378.8591, 47.05545
379.3412, 46.32940
379.8234, 46.37337
380.3055, 46.27503
380.7876, 44.55111
381.2697, 41.32515
381.7518, 39.13902
382.2339, 39.03725
382.7161, 40.10461
383.1982, 40.04184
383.6803, 38.89396
384.1624, 37.95918
384.6445, 38.37239
385.1266, 39.73581
385.6088, 41.14870
386.0909, 42.55257
386.5730, 43.72940
387.0551, 44.49200
387.5372, 44.81781
388.0193, 44.64462
388.5015, 42.82940
388.9836, 41.08873
389.4657, 41.82263
389.9478, 45.24012
390.4299, 48.30453
390.9120, 48.72855
391.3942, 47.66869
391.8763, 46.53486
392.3584, 45.70502
392.8405, 45.02546
393.3226, 44.32274
393.8047, 43.66703
394.2869, 43.37946
394.7690, 44.04033
395.2511, 44.79798
395.7332, 45.07317
396.2154, 44.43102
396.6975, 44.02830
397.1796, 44.33089
397.6617, 44.98882
398.1438, 45.39834
398.6259, 44.93201
399.1081, 44.74471
399.5902, 45.45056
400.0723, 47.33321
400.5544, 48.13364
401.0365, 47.33579
401.5186, 45.83279
402.0008, 44.28775
402.4829, 42.34005
402.9650, 41.03122
403.4471, 40.64384
403.9292, 40.97970
404.4113, 41.19977
404.8935, 41.21940
405.3756, 41.31974
405.8577, 41.30572
406.3398, 40.90316
406.8219, 43.03237
407.3040, 48.92839
407.7862, 55.06694
408.2683, 55.67321
408.7504, 50.57752
409.2325, 45.66014
409.7146, 42.63188
410.1967, 41.37086
410.6789, 41.63263
411.1610, 43.45820
411.6431, 45.73162
412.1252, 48.08561
412.6073, 50.15808
413.0894, 50.62075
413.5716, 48.69893
414.0537, 46.21760
414.5358, 45.42179
415.0179, 45.95808
415.5000, 46.64726
415.9821, 47.09552
416.4643, 47.23203
416.9464, 46.92552
417.4285, 46.15075
417.9106, 45.16584
418.3927, 43.85227
418.8748, 42.51479
419.3570, 41.53847
419.8391, 41.06956
420.3212, 40.95649
420.8033, 41.27328
421.2854, 41.94033
421.7675, 42.58710
422.2497, 44.25240
422.7318, 45.01365
423.2139, 43.43299
423.6960, 37.33636
424.1781, 33.34585
424.6602, 33.24087
425.1424, 35.38267
425.6245, 37.43995
426.1066, 39.97247
426.5887, 41.62304
427.0709, 41.77824
427.5530, 40.43933
428.0351, 39.66673
428.5172, 39.41047
428.9993, 39.78032
429.4814, 41.16480
429.9636, 44.15867
430.4457, 45.80117
430.9278, 45.60336
431.4099, 44.17095
431.8920, 42.48577
432.3741, 40.39453
432.8563, 39.13629
433.3384, 39.36531
433.8205, 40.95982
434.3026, 43.58002
434.7847, 47.46612
435.2668, 50.59014
435.7490, 50.29034
436.2311, 47.37574
436.7132, 44.66962
437.1953, 42.78061
437.6774, 41.62180
438.1595, 41.07610
438.6417, 41.13867
439.1238, 41.79073
439.6059, 44.11819
440.0880, 46.46911
440.5701, 46.76270
441.0522, 44.49908
441.5344, 42.13658
442.0165, 40.76192
442.4986, 40.32293
442.9807, 40.77089
443.4628, 43.23693
443.9449, 45.46288
444.4271, 46.63076
444.9092, 46.81129
445.3913, 46.47903
445.8734, 45.64468
446.3555, 44.41164
446.8376, 42.69747
447.3198, 39.68374
447.8019, 37.82819
448.2840, 37.71721
448.7661, 38.56255
449.2482, 39.29281
449.7303, 39.74318
450.2125, 40.36500
450.6946, 41.39198
451.1767, 42.76902
451.6588, 43.53843
452.1409, 43.46592
452.6230, 43.34457
453.1052, 44.18447
453.5873, 46.20644
454.0694, 45.94154
454.5515, 42.47515
455.0337, 37.97451
455.5158, 36.31882
455.9979, 37.32011
456.4800, 38.41860
456.9621, 38.49440
457.4442, 37.92166
457.9264, 37.46257
458.4085, 37.12276
458.8906, 37.04129
459.3727, 37.58296
459.8548, 38.39989
460.3369, 38.79668
460.8191, 38.29762
461.3012, 38.14263
461.7833, 39.92798
462.2654, 42.77857
462.7475, 44.86774
463.2296, 45.11601
463.7118, 44.64475
464.1939, 43.80110
464.6760, 42.59480
465.1581, 41.85800
465.6402, 42.09498
466.1223, 42.75079
466.6045, 43.43768
467.0866, 44.99750
467.5687, 45.47135
468.0508, 44.19899
468.5329, 41.83043
469.0150, 39.66840
469.4972, 37.04680
469.9793, 35.72990
470.4614, 36.92958
470.9435, 40.88753
471.4256, 42.16948
471.9077, 39.77338
472.3899, 36.70330
472.8720, 35.77483
473.3541, 37.18140
473.8362, 38.29167
474.3183, 38.63616
474.8004, 38.68489
475.2826, 39.46863
475.7647, 40.93134
476.2468, 42.27834
476.7289, 43.50496
477.2110, 44.25244
477.6931, 43.16728
478.1753, 40.25125
478.6574, 37.72937
479.1395, 37.90590
479.6216, 39.51609
480.1037, 40.70991
480.5858, 40.93711
481.0680, 40.79177
481.5501, 40.26938
482.0322, 39.68707
482.5143, 39.71589
482.9964, 41.47001
483.4786, 43.16056
483.9607, 43.85991
484.4428, 43.43927
484.9249, 42.98940
485.4070, 43.01290
485.8892, 42.89852
486.3713, 42.17845
486.8534, 40.00372
487.3355, 38.48046
487.8176, 37.71254
488.2997, 37.60808
488.7819, 38.10963
489.2640, 39.70088
489.7461, 40.77590
490.2282, 40.59107
490.7103, 39.25322
491.1924, 38.71878
491.6746, 39.12142
492.1567, 39.75784
492.6388, 40.16433
493.1209, 40.32110
493.6030, 39.93861
494.0851, 38.84333
494.5673, 37.56913
495.0494, 37.21046
495.5315, 37.42147
496.0136, 36.97100
496.4957, 33.64896
496.9778, 30.33529
497.4600, 30.91214
497.9421, 35.00748
498.4242, 38.80477
498.9063, 40.29394
499.3884, 40.34971
499.8705, 39.60187
500.3527, 37.82978
500.8348, 36.12175
501.3169, 34.15435
501.7990, 32.69367
502.2811, 32.82873
502.7632, 37.42846
503.2454, 40.77198
503.7275, 40.84705
504.2096, 38.05190
504.6917, 36.81129
505.1738, 37.90936
505.6559, 39.50657
506.1381, 40.76375
506.6202, 41.76082
507.1023, 42.03046
507.5844, 41.41443
508.0665, 40.36041
508.5486, 39.18861
509.0308, 37.87449
509.5129, 37.61599
509.9950, 39.25796
510.4771, 41.60029
510.9592, 41.91481
511.4413, 40.35142
511.9235, 38.41002
512.4056, 36.70434
512.8877, 35.34553
513.3698, 34.46945
513.8519, 34.08881
514.3340, 34.15849
514.8162, 34.81771
515.2983, 35.84521
515.7804, 37.01141
516.2625, 38.79018
516.7446, 40.00641
517.2267, 39.71911
517.7089, 38.50066
518.1910, 37.75649
518.6731, 38.83288
519.1552, 39.44813
519.6373, 38.53634
520.1194, 35.90303
520.6016, 33.76873
521.0837, 31.67321
521.5658, 30.60785
522.0479, 31.77315
522.5300, 36.30305
523.0121, 38.75344
523.4943, 38.29568
523.9764, 36.23025
524.4585, 34.37291
524.9406, 32.72638
525.4227, 32.56545
525.9048, 35.51683
526.3870, 39.69798
526.8691, 39.84742
527.3513, 36.20220
527.8334, 32.39666
528.3155, 30.28569
528.7976, 29.89780
529.2797, 32.17228
529.7618, 37.89077
530.2440, 42.08582
530.7261, 39.25133
531.2082, 33.40983
531.6903, 29.76044
532.1724, 31.78444
532.6545, 34.31495
533.1367, 36.10566
533.6188, 37.14403
534.1009, 37.49410
534.5830, 36.09303
535.0651, 35.02879
535.5472, 35.05588
536.0294, 36.33004
536.5115, 37.74809
536.9936, 39.99828
537.4757, 41.43410
537.9578, 39.94284
538.4399, 34.63804
538.9221, 32.30494
539.4042, 34.40226
539.8863, 38.37151
540.3684, 39.60712
540.8505, 38.31247
541.3326, 36.90837
541.8148, 36.38258
542.2969, 36.35530
542.7790, 36.14061
543.2611, 35.77447
543.7432, 35.53392
544.2253, 35.40089
544.7075, 35.59761
545.1896, 36.74595
545.6717, 39.28432
546.1538, 40.73177
546.6359, 38.31869
547.1180, 34.83259
547.6002, 33.26794
548.0823, 36.96692
548.5644, 39.59019
549.0465, 38.98444
549.5286, 36.44409
550.0107, 35.82987
550.4929, 38.73310
550.9750, 41.14653
551.4571, 41.49958
551.9392, 39.77690
552.4213, 39.43929
552.9034, 40.89103
553.3856, 42.45259
553.8677, 42.81176
554.3498, 42.02896
554.8319, 40.66760
555.3140, 38.62777
555.7961, 36.59340
556.2783, 35.48016
556.7604, 35.10871
557.2425, 34.99337
557.7246, 34.91822
558.2067, 35.06166
558.6888, 35.82947
559.1710, 37.01599
559.6531, 37.91308
560.1352, 37.52983
560.6173, 37.25838
561.0994, 38.38547
561.5815, 41.33803
562.0637, 42.77332
562.5458, 40.40898
563.0279, 37.34982
563.5100, 35.86049
563.9921, 36.96000
564.4742, 37.88874
564.9564, 38.66629
565.4385, 39.18245
565.9206, 39.09369
566.4027, 38.21437
566.8848, 37.69769
567.3669, 38.03583
567.8491, 38.88731
568.3312, 39.07180
568.8133, 38.61422
569.2954, 38.17445
569.7775, 38.39082
570.2596, 38.85494
570.7418, 38.65479
571.2239, 37.71046
571.7060, 36.95327
572.1881, 37.43758
572.6702, 38.33927
573.1523, 38.71769
573.6345, 38.04438
574.1166, 37.35116
574.5987, 37.01656
575.0808, 36.91402
575.5629, 36.82906
576.0450, 37.47291
576.5272, 37.23759
577.0093, 35.04519
577.4914, 31.44577
577.9735, 30.21611
578.4556, 32.22353
578.9377, 34.83927
579.4199, 37.05921
579.9020, 38.86356
580.3841, 39.92975
580.8662, 40.36599
581.3483, 39.51999
581.8304, 35.10846
582.3126, 28.63835
582.7947, 25.83652
583.2768, 28.59808
583.7589, 32.71502
584.2410, 33.82780
584.7231, 32.99404
585.2053, 32.30677
585.6874, 33.50309
586.1696, 34.28789
586.6517, 32.74137
587.1338, 29.50373
587.6159, 27.44836
588.0980, 27.86943
588.5801, 29.14113
589.0623, 30.88009
589.5444, 33.27323
590.0265, 34.62276
590.5086, 34.04572
590.9907, 33.55280
591.4728, 35.11308
591.9550, 39.27647
592.4371, 41.85434
592.9192, 42.42647
593.4013, 41.57363
593.8834, 39.16334
594.3655, 35.64572
594.8477, 34.08044
595.3298, 36.58002
595.8119, 40.09285
596.2940, 40.06701
596.7761, 37.43676
597.2582, 35.33921
597.7404, 36.11407
598.2225, 37.48805
598.7046, 37.73793
599.1867, 36.77970
599.6688, 36.23341
600.1509, 37.50466
600.6331, 38.66809
601.1152, 38.31422
601.5973, 35.09286
602.0794, 33.54157
602.5615, 34.48829
603.0436, 36.32581
603.5258, 37.33972
604.0079, 37.48977
604.4900, 36.85509
604.9721, 35.02564
605.4542, 33.04474
605.9363, 33.37590
606.4185, 35.77153
606.9006, 38.07057
607.3827, 39.16706
607.8648, 39.64239
608.3469, 40.53052
608.8290, 41.65769
609.3112, 41.99585
609.7933, 40.17275
610.2754, 37.86990
610.7575, 36.12799
611.2396, 35.04491
611.7217, 34.98592
612.2039, 37.16356
612.6860, 39.71620
613.1681, 41.24590
613.6502, 41.42060
614.1323, 41.03050
614.6144, 39.75156
615.0966, 38.20341
615.5787, 37.33603
616.0608, 37.29054
616.5429, 37.03289
617.0250, 36.24572
617.5071, 35.19591
617.9893, 34.39941
618.4714, 33.86718
618.9535, 33.69791
619.4356, 34.27464
619.9177, 35.05519
620.3998, 35.40646
620.8820, 35.32911
621.3641, 34.92735
621.8462, 33.34270
622.3283, 32.08112
622.8104, 32.47822
623.2925, 35.19928
623.7747, 37.51635
624.2568, 39.42274
624.7389, 40.40203
625.2210, 39.89873
625.7031, 36.81747
626.1852, 34.64758
626.6674, 33.66921
627.1495, 33.58947
627.6316, 34.29883
628.1137, 35.85946
628.5958, 36.60535
629.0779, 35.74701
629.5601, 34.15535
630.0422, 33.54527
630.5243, 33.76165
631.0064, 34.04390
631.4885, 33.24540
631.9706, 32.81071
632.4528, 35.09370
632.9349, 39.73956
633.4170, 42.51886
633.8991, 39.77874
634.3812, 35.95607
634.8633, 33.65022
635.3455, 33.52512
635.8276, 33.79539
636.3097, 34.77629
636.7918, 35.78334
637.2739, 36.23616
637.7560, 36.03650
638.2382, 35.58521
638.7203, 34.77317
639.2024, 33.99262
639.6845, 33.98406
640.1666, 34.64330
640.6487, 35.09586
641.1309, 34.96490
641.6130, 34.66529
642.0951, 34.59169
642.5772, 34.80036
643.0594, 35.45849
643.5415, 37.48379
644.0236, 39.25651
644.5057, 39.36313
644.9879, 38.02850
645.4700, 37.57952
645.9521, 40.56962
646.4342, 42.68333
646.9163, 41.59837
647.3984, 36.52468
647.8806, 33.67389
648.3627, 33.72493
648.8448, 34.67511
649.3269, 34.82051
649.8090, 34.16509
650.2911, 34.51234
650.7733, 36.24535
651.2554, 37.90513
651.7375, 37.17500
652.2196, 35.04332
652.7017, 33.92963
653.1838, 34.63156
653.6660, 36.29697
654.1481, 39.60278
654.6302, 43.19592
655.1123, 44.71898
655.5944, 40.56886
656.0765, 37.18860
656.5587, 37.68436
657.0408, 40.92213
657.5229, 41.23418
658.0050, 36.16851
658.4871, 32.40042
658.9692, 32.83741
659.4514, 36.96889
659.9335, 38.95673
660.4156, 38.60064
660.8977, 37.72454
661.3798, 37.80209
661.8619, 38.34649
662.3441, 37.71040
662.8262, 35.75869
663.3083, 34.25484
663.7904, 34.83425
664.2725, 36.50753
664.7546, 38.35597
665.2368, 40.55484
665.7189, 41.92311
666.2010, 41.98881
666.6831, 41.07561
667.1652, 39.47792
667.6473, 36.51167
668.1295, 33.97979
668.6116, 31.58506
669.0937, 29.97549
669.5758, 30.93756
670.0579, 34.81061
670.5400, 38.01430
671.0222, 39.50547
671.5043, 39.67825
671.9864, 38.92691
672.4685, 37.45837
672.9506, 36.29671
673.4327, 35.81004
673.9149, 36.04243
674.3970, 37.85344
674.8791, 40.84724
675.3612, 42.23833
675.8433, 38.23571
676.3254, 34.62377
676.8076, 35.07384
677.2897, 40.72354
677.7718, 44.17916
678.2539, 44.86407
678.7360, 44.12144
679.2181, 42.34814
679.7003, 39.32666
680.1824, 37.85543
