##NAMES=Monazite-(Ce)
##RRUFFID=R060925
##IDEAL CHEMISTRY=CePO_4_
##LOCALITY=Siglo Veinte mine, Llallagua, Bustillos Province, Potosi Department, Bolivia
##OWNER=RRUFF
##SOURCE=Alfredo Petrov
##DESCRIPTION=Pale peach semi-transparent crystals associated with quartz
##STATUS=The identification of this mineral is confirmed by single-crystal X-ray diffraction and chemical analysis.
##URL=rruff.info/R060925
##MEASURED CHEMISTRY=(Ce_0.52_La_0.21_Nd_0.19_Y_0.06_Ca_0.01_Th_0.01_)_Σ=1_P_1.00_O_4_ ; = light phase, and dark phase = (Ce_0.49_La_0.21_Nd_0.20_Y_0.07_Ca_0.02_Th_0.02_)_Σ=1_P_1.00_O_4_
120.0767, 2153.763
120.5588, 2288.703
121.0409, 2412.706
121.5230, 2519.588
122.0051, 2607.456
122.4873, 2677.709
122.9694, 2724.725
123.4515, 2752.513
123.9336, 2774.583
124.4157, 2794.437
124.8979, 2815.005
125.3800, 2840.683
125.8621, 2872.610
126.3442, 2910.283
126.8263, 2952.331
127.3084, 2998.560
127.7905, 3052.395
128.2727, 3113.094
128.7548, 3182.657
129.2369, 3267.422
129.7190, 3389.637
130.2011, 3527.052
130.6832, 3625.686
131.1654, 3686.656
131.6475, 3703.488
132.1296, 3658.119
132.6117, 3552.914
133.0938, 3427.759
133.5759, 3287.435
134.0581, 3134.707
134.5402, 3009.981
135.0223, 2914.969
135.5044, 2845.946
135.9865, 2799.846
136.4686, 2778.572
136.9508, 2769.277
137.4329, 2762.064
137.9150, 2754.900
138.3971, 2769.939
138.8792, 2817.626
139.3613, 2887.696
139.8434, 2936.313
140.3256, 2957.375
140.8077, 2970.662
141.2898, 2991.389
141.7719, 3021.903
142.2540, 3053.134
142.7361, 3084.296
143.2183, 3115.650
143.7004, 3142.188
144.1825, 3158.434
144.6646, 3174.904
145.1467, 3202.741
145.6288, 3247.548
146.1110, 3295.310
146.5931, 3340.948
147.0752, 3381.028
147.5573, 3434.191
148.0394, 3500.354
148.5215, 3579.000
149.0037, 3671.026
149.4858, 3786.986
149.9679, 3904.761
150.4500, 4020.760
150.9321, 4142.106
151.4142, 4247.044
151.8964, 4338.822
152.3785, 4414.653
152.8606, 4467.369
153.3427, 4475.336
153.8248, 4477.287
154.3069, 4489.542
154.7890, 4517.510
155.2712, 4551.789
155.7533, 4596.106
156.2354, 4647.575
156.7175, 4694.026
157.1996, 4745.793
157.6817, 4784.961
158.1639, 4800.017
158.6460, 4774.081
159.1281, 4737.113
159.6102, 4694.993
160.0923, 4647.670
160.5744, 4596.178
161.0566, 4536.242
161.5387, 4473.573
162.0208, 4413.695
162.5029, 4350.861
162.9850, 4297.002
163.4671, 4257.434
163.9493, 4232.995
164.4314, 4220.114
164.9135, 4218.763
165.3956, 4227.758
165.8777, 4245.458
166.3598, 4273.351
166.8420, 4308.498
167.3241, 4348.486
167.8062, 4392.842
168.2883, 4444.693
168.7704, 4504.903
169.2525, 4574.503
169.7346, 4655.914
170.2168, 4756.843
170.6989, 4866.442
171.1810, 4974.332
171.6631, 5079.404
172.1452, 5182.267
172.6273, 5290.693
173.1095, 5399.645
173.5916, 5495.851
174.0737, 5576.222
174.5558, 5637.657
175.0379, 5675.319
175.5201, 5689.438
176.0022, 5678.303
176.4843, 5633.870
176.9664, 5559.126
177.4485, 5471.121
177.9306, 5375.680
178.4128, 5276.554
178.8949, 5178.201
179.3770, 5075.599
179.8591, 4979.529
180.3412, 4908.402
180.8233, 4861.222
181.3055, 4824.808
181.7876, 4788.045
182.2697, 4752.521
182.7518, 4722.056
183.2339, 4699.638
183.7160, 4682.733
184.1982, 4665.957
184.6803, 4649.066
185.1624, 4634.746
185.6445, 4627.444
186.1266, 4625.966
186.6087, 4623.386
187.0908, 4613.855
187.5730, 4600.609
188.0551, 4596.639
188.5372, 4602.968
189.0193, 4614.159
189.5014, 4625.230
189.9835, 4636.115
190.4657, 4643.970
190.9478, 4646.979
191.4299, 4645.652
191.9120, 4644.385
192.3941, 4644.869
192.8762, 4641.593
193.3584, 4620.756
193.8405, 4581.800
194.3226, 4548.357
194.8047, 4538.882
195.2868, 4551.789
195.7689, 4550.157
196.2511, 4528.495
196.7332, 4496.835
197.2153, 4476.896
197.6974, 4470.074
198.1795, 4463.705
198.6616, 4448.278
199.1438, 4422.983
199.6259, 4405.074
200.1080, 4396.300
200.5901, 4395.551
201.0722, 4401.109
201.5543, 4414.027
202.0364, 4428.676
202.5186, 4440.932
203.0007, 4450.191
203.4828, 4460.216
203.9649, 4468.430
204.4470, 4478.539
204.9291, 4506.547
205.4113, 4556.437
205.8934, 4612.549
206.3755, 4664.185
206.8576, 4711.008
207.3397, 4753.252
207.8218, 4786.239
208.3040, 4814.004
208.7861, 4863.344
209.2682, 4939.199
209.7503, 5025.436
210.2324, 5105.356
210.7145, 5171.158
211.1967, 5258.691
211.6788, 5381.569
212.1609, 5536.404
212.6430, 5671.753
213.1251, 5774.524
213.6072, 5877.219
214.0894, 6014.846
214.5715, 6200.761
215.0536, 6383.935
215.5357, 6548.059
216.0178, 6693.784
216.4999, 6859.953
216.9820, 7053.431
217.4642, 7255.786
217.9463, 7450.507
218.4284, 7634.077
218.9105, 7813.045
219.3926, 7991.674
219.8747, 8169.484
220.3569, 8330.741
220.8390, 8480.952
221.3211, 8608.879
221.8032, 8704.130
222.2853, 8759.356
222.7674, 8796.882
223.2496, 8827.517
223.7317, 8857.287
224.2138, 8835.477
224.6959, 8741.958
225.1780, 8614.470
225.6601, 8500.509
226.1423, 8411.696
226.6244, 8315.923
227.1065, 8201.372
227.5886, 8059.815
228.0707, 7936.525
228.5528, 7840.499
229.0350, 7754.670
229.5171, 7655.955
229.9992, 7546.723
230.4813, 7416.891
230.9634, 7261.043
231.4455, 7071.119
231.9276, 6879.671
232.4098, 6685.746
232.8919, 6489.792
233.3740, 6300.066
233.8561, 6121.060
234.3382, 5939.428
234.8203, 5744.874
235.3025, 5526.644
235.7846, 5336.001
236.2667, 5182.064
236.7488, 5050.849
237.2309, 4918.720
237.7130, 4781.063
238.1952, 4652.105
238.6773, 4536.368
239.1594, 4433.360
239.6415, 4346.089
240.1236, 4278.343
240.6057, 4224.147
241.0879, 4170.816
241.5700, 4117.960
242.0521, 4067.481
242.5342, 4020.274
243.0163, 3976.931
243.4984, 3934.594
243.9806, 3890.302
244.4627, 3848.033
244.9448, 3816.584
245.4269, 3799.199
245.9090, 3787.407
246.3911, 3777.701
246.8732, 3768.825
247.3554, 3765.241
247.8375, 3768.619
248.3196, 3776.510
248.8017, 3783.504
249.2838, 3788.164
249.7659, 3794.133
250.2481, 3804.020
250.7302, 3822.115
251.2123, 3831.956
251.6944, 3826.715
252.1765, 3816.328
252.6586, 3824.206
253.1408, 3860.117
253.6229, 3898.503
254.1050, 3928.904
254.5871, 3946.844
255.0692, 3969.057
255.5513, 3995.956
256.0334, 4027.007
256.5156, 4062.536
256.9977, 4106.139
257.4798, 4148.078
257.9619, 4184.084
258.4440, 4213.090
258.9261, 4238.994
259.4083, 4258.042
259.8904, 4275.990
260.3725, 4308.792
260.8546, 4368.781
261.3367, 4419.333
261.8188, 4439.835
262.3010, 4415.705
262.7831, 4412.398
263.2652, 4433.995
263.7473, 4473.523
264.2294, 4518.653
264.7115, 4571.208
265.1937, 4624.125
265.6758, 4672.353
266.1579, 4711.836
266.6400, 4762.576
267.1221, 4827.374
267.6042, 4900.851
268.0864, 4967.986
268.5685, 5023.012
269.0506, 5089.837
269.5327, 5184.662
270.0148, 5315.734
270.4969, 5427.770
270.9791, 5516.349
271.4612, 5591.035
271.9433, 5666.673
272.4254, 5743.004
272.9075, 5820.794
273.3896, 5902.084
273.8718, 5987.512
274.3539, 6064.723
274.8360, 6134.659
275.3181, 6196.267
275.8002, 6251.738
276.2823, 6304.031
276.7645, 6334.658
277.2466, 6329.110
277.7287, 6284.753
278.2108, 6252.854
278.6929, 6239.997
279.1750, 6226.408
279.6572, 6174.473
280.1393, 6079.020
280.6214, 5989.781
281.1035, 5935.063
281.5856, 5912.378
282.0677, 5861.504
282.5499, 5777.871
283.0320, 5677.779
283.5141, 5578.285
283.9962, 5479.041
284.4783, 5391.868
284.9604, 5331.590
285.4425, 5291.862
285.9247, 5219.298
286.4068, 5108.329
286.8889, 4988.836
287.3710, 4898.182
287.8531, 4835.206
288.3352, 4778.209
288.8174, 4718.491
289.2995, 4658.280
289.7816, 4608.802
290.2637, 4572.368
290.7458, 4537.378
291.2279, 4486.601
291.7101, 4423.413
292.1922, 4370.533
292.6743, 4340.745
293.1564, 4325.923
293.6385, 4305.035
294.1206, 4277.719
294.6028, 4251.157
295.0849, 4233.005
295.5670, 4221.600
296.0491, 4210.451
296.5312, 4196.662
297.0133, 4182.667
297.4955, 4174.103
297.9776, 4171.132
298.4597, 4168.468
298.9418, 4158.461
299.4239, 4145.261
299.9060, 4139.707
300.3882, 4150.901
300.8703, 4166.013
301.3524, 4162.229
301.8345, 4141.515
302.3166, 4125.558
302.7987, 4136.134
303.2809, 4161.287
303.7630, 4181.205
304.2451, 4190.192
304.7272, 4191.854
305.2093, 4185.204
305.6914, 4172.106
306.1736, 4163.617
306.6557, 4172.708
307.1378, 4188.408
307.6199, 4197.112
308.1020, 4195.267
308.5841, 4186.992
309.0663, 4168.502
309.5484, 4144.503
310.0305, 4131.275
310.5126, 4152.147
310.9947, 4180.440
311.4768, 4189.059
311.9590, 4164.078
312.4411, 4139.638
312.9232, 4141.963
313.4053, 4161.129
313.8874, 4173.421
314.3695, 4168.430
314.8517, 4153.065
315.3337, 4130.251
315.8159, 4097.800
316.2980, 4066.485
316.7801, 4038.340
317.2622, 4014.541
317.7443, 3996.798
318.2264, 3995.736
318.7086, 3993.216
319.1907, 3977.234
319.6728, 3942.014
320.1549, 3915.735
320.6370, 3917.297
321.1191, 3929.313
321.6013, 3929.686
322.0834, 3898.862
322.5655, 3868.824
323.0476, 3850.946
323.5297, 3847.661
324.0118, 3842.315
324.4940, 3832.721
324.9761, 3819.707
325.4582, 3804.066
325.9403, 3780.347
326.4224, 3759.663
326.9045, 3743.630
327.3867, 3732.300
327.8688, 3724.978
328.3509, 3731.569
328.8330, 3736.057
329.3151, 3726.863
329.7972, 3688.016
330.2794, 3656.513
330.7615, 3637.624
331.2436, 3630.107
331.7257, 3622.936
332.2078, 3618.400
332.6899, 3611.822
333.1721, 3599.777
333.6542, 3578.480
334.1363, 3559.423
334.6184, 3541.414
335.1005, 3526.382
335.5826, 3522.692
336.0648, 3539.016
336.5469, 3550.796
337.0290, 3542.236
337.5111, 3504.468
337.9932, 3480.123
338.4753, 3474.322
338.9575, 3478.793
339.4396, 3476.381
339.9217, 3465.208
340.4038, 3454.027
340.8859, 3447.332
341.3680, 3445.501
341.8502, 3440.130
342.3323, 3430.220
342.8144, 3419.347
343.2965, 3414.511
343.7786, 3416.054
344.2607, 3413.874
344.7429, 3399.043
345.2250, 3376.266
345.7071, 3373.062
346.1892, 3392.106
346.6713, 3415.157
347.1534, 3423.869
347.6355, 3419.746
348.1176, 3411.313
348.5998, 3396.708
349.0819, 3381.832
349.5640, 3383.427
350.0461, 3401.058
350.5282, 3415.300
351.0103, 3404.796
351.4925, 3379.258
351.9746, 3360.791
352.4567, 3359.420
352.9388, 3361.215
353.4209, 3345.896
353.9030, 3317.196
354.3852, 3292.702
354.8673, 3291.368
355.3494, 3297.748
355.8315, 3292.478
356.3136, 3269.711
356.7957, 3241.564
357.2779, 3216.483
357.7600, 3193.231
358.2421, 3169.238
358.7242, 3140.944
359.2063, 3112.750
359.6884, 3088.661
360.1706, 3070.121
360.6527, 3050.281
361.1348, 3022.737
361.6169, 2992.482
362.0990, 2966.889
362.5811, 2948.823
363.0633, 2935.018
363.5454, 2927.061
364.0275, 2925.489
364.5096, 2917.685
364.9917, 2891.492
365.4738, 2862.068
365.9560, 2842.485
366.4381, 2848.379
366.9202, 2850.054
367.4023, 2837.504
367.8844, 2812.714
368.3665, 2799.022
368.8487, 2807.077
369.3308, 2819.668
369.8129, 2828.139
370.2950, 2832.744
370.7771, 2832.609
371.2592, 2823.875
371.7414, 2810.596
372.2235, 2804.531
372.7056, 2807.072
373.1877, 2814.773
373.6698, 2827.622
374.1519, 2848.555
374.6341, 2862.370
375.1162, 2864.779
375.5983, 2864.104
376.0804, 2874.388
376.5625, 2897.642
377.0446, 2923.616
377.5267, 2947.465
378.0089, 2969.945
378.4910, 3001.778
378.9731, 3043.779
379.4552, 3092.096
379.9373, 3143.341
380.4194, 3197.923
380.9016, 3251.098
381.3837, 3298.804
381.8658, 3346.986
382.3479, 3413.428
382.8300, 3497.813
383.3121, 3589.866
383.7943, 3681.300
384.2764, 3773.015
384.7585, 3868.145
385.2406, 3963.973
385.7227, 4068.817
386.2048, 4193.295
386.6870, 4334.126
387.1691, 4481.007
387.6512, 4621.550
388.1333, 4765.189
388.6154, 4927.159
389.0975, 5109.650
389.5797, 5300.567
390.0618, 5487.754
390.5439, 5676.575
391.0260, 5871.239
391.5081, 6077.979
391.9902, 6287.104
392.4724, 6492.533
392.9545, 6693.591
393.4366, 6903.625
393.9187, 7139.870
394.4008, 7380.940
394.8829, 7614.030
395.3651, 7866.197
395.8472, 8075.248
396.3293, 8233.822
396.8114, 8339.286
397.2935, 8380.313
397.7756, 8329.940
398.2578, 8233.472
398.7399, 8111.410
399.2220, 7966.856
399.7041, 7791.548
400.1862, 7567.032
400.6683, 7316.435
401.1505, 7078.991
401.6326, 6844.722
402.1147, 6637.445
402.5968, 6461.214
403.0789, 6315.814
403.5610, 6206.056
404.0432, 6140.104
404.5253, 6099.249
405.0074, 6062.387
405.4895, 6024.920
405.9716, 6010.183
406.4537, 6024.161
406.9359, 6063.896
407.4180, 6117.810
407.9001, 6186.353
408.3822, 6268.008
408.8643, 6366.454
409.3464, 6480.164
409.8285, 6591.601
410.3106, 6694.681
410.7928, 6801.881
411.2749, 6937.989
411.7570, 7100.554
412.2391, 7266.415
412.7212, 7426.977
413.2033, 7583.885
413.6855, 7745.595
414.1676, 7913.666
414.6497, 8060.290
415.1318, 8163.728
415.6139, 8226.375
416.0960, 8250.627
416.5782, 8248.175
417.0603, 8199.025
417.5424, 8078.720
418.0245, 7892.772
418.5066, 7676.587
418.9887, 7430.172
419.4709, 7170.428
419.9530, 6904.938
420.4351, 6628.004
420.9172, 6363.826
421.3993, 6118.108
421.8814, 5893.034
422.3636, 5692.971
422.8457, 5531.466
423.3278, 5383.930
423.8099, 5241.475
424.2920, 5097.490
424.7741, 4977.713
425.2563, 4890.699
425.7384, 4823.514
426.2205, 4766.068
426.7026, 4719.732
427.1847, 4680.183
427.6668, 4646.714
428.1490, 4619.529
428.6311, 4601.779
429.1132, 4597.221
429.5953, 4594.574
430.0774, 4584.981
430.5595, 4565.949
431.0417, 4555.836
431.5238, 4556.511
432.0059, 4565.614
432.4880, 4579.917
432.9701, 4599.542
433.4522, 4621.423
433.9344, 4640.759
434.4165, 4660.817
434.8986, 4699.561
435.3807, 4758.371
435.8628, 4821.688
436.3449, 4869.625
436.8271, 4909.542
437.3092, 4961.831
437.7913, 5034.020
438.2734, 5118.358
438.7555, 5208.348
439.2376, 5303.322
439.7197, 5400.357
440.2018, 5492.712
440.6840, 5588.808
441.1661, 5697.093
441.6482, 5818.462
442.1303, 5949.434
442.6124, 6087.001
443.0945, 6233.608
443.5767, 6390.848
444.0588, 6563.664
444.5409, 6744.512
445.0230, 6929.218
445.5051, 7118.278
445.9872, 7319.859
446.4694, 7527.901
446.9515, 7753.063
447.4336, 8002.559
447.9157, 8277.347
448.3978, 8576.029
448.8799, 8899.199
449.3621, 9246.127
449.8442, 9605.809
450.3263, 9975.903
450.8084, 10359.87
451.2905, 10756.21
451.7726, 11158.71
452.2548, 11597.84
452.7369, 12076.47
453.2190, 12587.75
453.7011, 13134.52
454.1832, 13714.73
454.6653, 14320.03
455.1475, 14958.95
455.6296, 15618.04
456.1117, 16274.66
456.5938, 16924.38
457.0759, 17605.19
457.5580, 18330.88
458.0402, 19102.92
458.5223, 19930.30
459.0044, 20831.15
459.4865, 21747.77
459.9686, 22638.96
460.4507, 23509.53
460.9329, 24395.81
461.4150, 25309.42
461.8971, 26223.68
462.3792, 27153.29
462.8613, 28085.46
463.3434, 28945.82
463.8256, 29683.45
464.3077, 30332.98
464.7898, 30933.24
465.2719, 31573.71
465.7540, 32045.16
466.2361, 32286.56
466.7183, 32334.93
467.2004, 32273.75
467.6825, 32168.08
468.1646, 31893.68
468.6467, 31397.12
469.1288, 30654.25
469.6110, 29813.67
470.0930, 28855.68
470.5752, 27819.44
471.0573, 26719.85
471.5394, 25547.92
472.0215, 24362.11
472.5036, 23157.61
472.9857, 21954.21
473.4679, 20807.98
473.9500, 19730.54
474.4321, 18695.66
474.9142, 17679.97
475.3963, 16694.21
475.8784, 15787.46
476.3606, 14965.04
476.8427, 14204.06
477.3248, 13495.04
477.8069, 12833.68
478.2890, 12217.27
478.7711, 11650.39
479.2533, 11123.21
479.7354, 10626.13
480.2175, 10159.77
480.6996, 9726.016
481.1817, 9329.319
481.6638, 8968.100
482.1460, 8645.074
482.6281, 8372.716
483.1102, 8113.211
483.5923, 7854.039
484.0744, 7599.863
484.5565, 7356.455
485.0387, 7124.472
485.5208, 6906.789
486.0029, 6703.771
486.4850, 6514.843
486.9671, 6336.973
487.4492, 6173.826
487.9314, 6020.328
488.4135, 5874.191
488.8956, 5737.961
489.3777, 5605.359
489.8598, 5474.757
490.3419, 5348.517
490.8241, 5225.332
491.3062, 5103.326
491.7883, 4999.073
492.2704, 4926.905
492.7525, 4876.259
493.2346, 4795.920
493.7168, 4686.048
494.1989, 4578.541
494.6810, 4504.758
495.1631, 4454.043
495.6452, 4400.545
496.1273, 4339.816
496.6095, 4274.499
497.0916, 4203.423
497.5737, 4131.031
498.0558, 4066.795
498.5379, 4019.043
499.0201, 3978.768
499.5022, 3943.809
499.9843, 3913.663
500.4664, 3879.582
500.9485, 3831.127
501.4306, 3782.157
501.9127, 3743.574
502.3948, 3731.978
502.8770, 3711.727
503.3591, 3673.122
503.8412, 3625.338
504.3233, 3587.391
504.8054, 3566.836
505.2875, 3544.369
505.7697, 3511.630
506.2518, 3467.648
506.7339, 3437.732
507.2160, 3425.992
507.6981, 3418.173
508.1802, 3401.101
508.6624, 3374.870
509.1445, 3349.630
509.6266, 3326.248
510.1087, 3305.888
510.5908, 3290.316
511.0729, 3279.513
511.5551, 3273.202
512.0372, 3276.364
512.5193, 3281.781
513.0014, 3279.306
513.4835, 3268.850
513.9656, 3253.676
514.4478, 3234.365
514.9299, 3212.207
515.4120, 3188.033
515.8941, 3158.902
516.3762, 3132.839
516.8583, 3110.446
517.3405, 3093.617
517.8226, 3086.496
518.3047, 3105.081
518.7868, 3118.862
519.2689, 3115.773
519.7510, 3094.168
520.2332, 3076.004
520.7153, 3057.484
521.1974, 3047.041
521.6795, 3052.602
522.1616, 3079.530
522.6437, 3104.014
523.1259, 3123.229
523.6080, 3140.292
524.0901, 3161.734
524.5722, 3188.049
525.0543, 3212.585
525.5364, 3228.410
526.0186, 3241.942
526.5007, 3274.829
526.9828, 3326.455
527.4649, 3380.965
527.9470, 3422.119
528.4291, 3458.429
528.9113, 3505.225
529.3934, 3566.057
529.8755, 3633.872
530.3576, 3701.797
530.8397, 3773.190
531.3218, 3855.292
531.8040, 3946.360
532.2861, 4052.489
532.7682, 4175.667
533.2503, 4316.816
533.7324, 4466.778
534.2145, 4635.815
534.6967, 4805.374
535.1788, 4971.971
535.6609, 5152.644
536.1430, 5292.553
536.6251, 5404.682
537.1072, 5461.531
537.5894, 5414.065
538.0715, 5250.189
538.5536, 5041.937
539.0357, 4795.537
539.5178, 4525.209
539.9999, 4262.313
540.4821, 4009.944
540.9642, 3786.940
541.4463, 3604.149
541.9284, 3459.041
542.4105, 3347.318
542.8926, 3270.212
543.3748, 3213.560
543.8569, 3177.730
544.3390, 3152.192
544.8211, 3120.540
545.3032, 3062.985
545.7853, 3013.746
546.2675, 2997.611
546.7495, 3004.571
547.2316, 3003.757
547.7137, 2977.811
548.1959, 2950.561
548.6780, 2930.045
549.1601, 2916.776
549.6422, 2911.183
550.1243, 2918.588
550.6064, 2928.492
551.0886, 2930.429
551.5707, 2918.231
552.0528, 2920.811
552.5349, 2945.886
553.0170, 2981.203
553.4991, 3000.262
553.9813, 3002.806
554.4634, 3005.968
554.9455, 3015.274
555.4276, 3031.009
555.9097, 3054.894
556.3918, 3086.554
556.8740, 3121.808
557.3561, 3155.599
557.8382, 3191.881
558.3203, 3238.073
558.8024, 3299.971
559.2845, 3357.387
559.7667, 3404.537
560.2488, 3438.844
560.7309, 3457.518
561.2130, 3454.333
561.6951, 3441.005
562.1772, 3410.893
562.6594, 3368.630
563.1415, 3347.064
563.6236, 3353.784
564.1057, 3372.252
564.5878, 3393.864
565.0699, 3415.213
565.5521, 3460.559
566.0342, 3533.463
566.5163, 3623.235
566.9984, 3716.484
567.4805, 3813.618
567.9626, 3934.841
568.4448, 4084.681
568.9269, 4261.122
569.4090, 4478.175
569.8911, 4724.737
570.3732, 4965.156
570.8553, 5234.298
571.3375, 5453.044
571.8196, 5543.158
572.3017, 5505.211
572.7838, 5349.919
573.2659, 5009.136
573.7480, 4600.310
574.2302, 4195.606
574.7123, 3776.373
575.1944, 3431.744
575.6765, 3201.366
576.1586, 3044.803
576.6407, 2910.662
577.1229, 2797.346
577.6050, 2707.502
578.0871, 2644.423
578.5692, 2604.484
579.0513, 2575.977
579.5334, 2559.458
580.0156, 2551.737
580.4977, 2554.881
580.9798, 2566.524
581.4619, 2572.392
581.9440, 2571.927
582.4261, 2571.096
582.9083, 2574.397
583.3904, 2581.497
583.8725, 2590.921
584.3546, 2599.769
584.8367, 2616.580
585.3188, 2654.812
585.8010, 2704.563
586.2831, 2747.689
586.7652, 2764.268
587.2473, 2786.384
587.7294, 2828.205
588.2115, 2888.953
588.6937, 2948.833
589.1758, 3003.862
589.6579, 3061.248
590.1400, 3130.031
590.6221, 3221.502
591.1042, 3276.532
591.5864, 3298.470
592.0685, 3276.577
592.5506, 3185.801
593.0327, 3028.447
593.5148, 2864.745
593.9969, 2700.673
594.4791, 2545.879
594.9612, 2411.818
595.4433, 2298.304
595.9254, 2207.108
596.4075, 2148.444
596.8896, 2105.858
597.3718, 2065.348
597.8539, 2027.014
598.3360, 1997.197
598.8181, 1980.086
599.3002, 1971.571
599.7823, 1969.820
600.2645, 1977.430
600.7466, 1984.626
601.2287, 1989.649
601.7108, 1994.489
602.1929, 2001.260
602.6750, 2010.503
603.1572, 2019.710
603.6393, 2027.080
604.1214, 2035.435
604.6035, 2052.150
605.0856, 2077.471
605.5677, 2107.803
606.0499, 2143.664
606.5320, 2183.050
607.0141, 2219.766
607.4962, 2254.151
607.9783, 2293.471
608.4604, 2343.128
608.9425, 2400.140
609.4246, 2459.066
609.9067, 2517.714
610.3889, 2586.895
610.8710, 2680.024
611.3531, 2782.739
611.8352, 2878.984
