##NAMES=Montebrasite
##RRUFFID=R050500
##IDEAL CHEMISTRY=LiAlPO_4_(OH)
##LOCALITY=Pala, San Diego County, California, USA
##OWNER=RRUFF
##SOURCE=California Institute of Technology
##DESCRIPTION=White fragment
##STATUS=The identification of this mineral has been confirmed by X-ray diffraction and chemical analysis
##URL=rruff.info/R050500
##MEASURED CHEMISTRY=LiAl(PO_4_)((OH)_0.52_F_0.48_)
90.92609, 0.0000000E+00
91.40820, 24.66591
91.89032, 25.08609
92.37244, 24.85367
92.85455, 24.07814
93.33667, 23.41393
93.81879, 23.49729
94.30090, 24.08922
94.78302, 24.46459
95.26514, 24.42893
95.74725, 24.11469
96.22937, 23.69066
96.71149, 23.13488
97.19360, 22.75995
97.67572, 23.22236
98.15784, 24.49012
98.63995, 24.91847
99.12207, 23.54850
99.60419, 20.72575
100.0863, 19.59034
100.5684, 20.53532
101.0505, 22.38614
101.5327, 23.71036
102.0148, 24.39507
102.4969, 24.89152
102.9790, 25.27469
103.4611, 25.46873
103.9432, 25.99380
104.4253, 27.06146
104.9075, 28.34342
105.3896, 29.05594
105.8717, 28.41479
106.3538, 28.27999
106.8359, 29.43266
107.3180, 32.81052
107.8002, 35.81858
108.2823, 38.08443
108.7644, 39.90471
109.2465, 42.47151
109.7286, 45.67920
110.2107, 49.68179
110.6929, 54.60930
111.1750, 61.56609
111.6571, 68.16362
112.1392, 73.78197
112.6213, 78.62804
113.1034, 84.43202
113.5856, 91.46610
114.0677, 99.64019
114.5498, 108.8136
115.0319, 119.4207
115.5140, 130.6617
115.9961, 142.2996
116.4783, 154.3262
116.9604, 166.6362
117.4425, 179.8040
117.9246, 193.2043
118.4067, 206.0342
118.8888, 217.4122
119.3710, 228.7210
119.8531, 241.1409
120.3352, 254.8741
120.8173, 267.8921
121.2994, 277.7141
121.7815, 285.9116
122.2637, 295.2596
122.7458, 307.4087
123.2279, 321.0821
123.7100, 334.8498
124.1921, 348.3637
124.6742, 362.8006
125.1564, 379.0423
125.6385, 397.0540
126.1206, 416.8126
126.6027, 438.9778
127.0848, 462.6176
127.5669, 486.0838
128.0491, 509.2862
128.5312, 531.9214
129.0133, 554.0510
129.4954, 575.3842
129.9775, 595.0883
130.4596, 613.3312
130.9418, 629.5202
131.4239, 641.7847
131.9060, 649.0858
132.3881, 652.8995
132.8702, 656.4166
133.3523, 659.6985
133.8345, 662.1541
134.3166, 663.0591
134.7987, 662.4225
135.2808, 661.4008
135.7629, 659.8965
136.2450, 658.2059
136.7272, 657.8500
137.2093, 658.9383
137.6914, 660.9984
138.1735, 663.6967
138.6556, 667.1075
139.1377, 670.6592
139.6199, 674.0257
140.1020, 677.1835
140.5841, 681.6544
141.0662, 687.4543
141.5483, 694.4674
142.0304, 702.7516
142.5126, 712.7424
142.9947, 722.5284
143.4768, 729.0493
143.9589, 730.2896
144.4410, 732.8524
144.9231, 737.4494
145.4053, 742.8817
145.8874, 747.3897
146.3695, 750.4515
146.8516, 753.3644
147.3337, 756.5233
147.8158, 760.3339
148.2980, 763.4914
148.7801, 765.1074
149.2622, 766.2526
149.7443, 769.0549
150.2264, 776.5240
150.7085, 783.0020
151.1907, 786.3561
151.6728, 783.8087
152.1549, 783.0065
152.6370, 784.9879
153.1191, 788.8148
153.6012, 792.1595
154.0834, 794.2462
154.5655, 796.2292
155.0476, 798.6472
155.5297, 802.0966
156.0118, 805.1470
156.4939, 807.2453
156.9761, 808.7167
157.4582, 810.5856
157.9403, 812.8132
158.4224, 815.6600
158.9045, 819.3069
159.3866, 824.2261
159.8688, 829.3815
160.3509, 834.4393
160.8330, 839.4643
161.3151, 844.7406
161.7972, 851.4973
162.2793, 857.9843
162.7615, 862.8629
163.2436, 864.9112
163.7257, 866.1201
164.2078, 867.1518
164.6899, 868.0140
165.1720, 868.7769
165.6541, 869.6370
166.1363, 870.3392
166.6184, 870.6320
167.1005, 870.5748
167.5826, 869.9603
168.0647, 868.3588
168.5468, 865.8469
169.0290, 863.4590
169.5111, 862.2751
169.9932, 861.4949
170.4753, 860.0554
170.9574, 856.6679
171.4395, 853.0460
171.9217, 850.8000
172.4038, 849.9351
172.8859, 849.1397
173.3680, 847.2234
173.8501, 844.7188
174.3322, 842.5226
174.8144, 841.5032
175.2965, 840.7556
175.7786, 838.7368
176.2607, 835.3292
176.7428, 832.6145
177.2249, 833.1825
177.7071, 835.9642
178.1892, 838.3583
178.6713, 839.0156
179.1534, 838.5974
179.6355, 838.1105
180.1176, 837.5626
180.5998, 837.0035
181.0819, 836.3495
181.5640, 835.6785
182.0461, 835.2661
182.5282, 835.7661
183.0103, 836.5705
183.4925, 836.0732
183.9746, 834.0441
184.4567, 831.6013
184.9388, 830.0147
185.4209, 829.2033
185.9030, 828.7554
186.3852, 828.6633
186.8673, 828.8085
187.3494, 828.8648
187.8315, 828.9095
188.3136, 828.5848
188.7957, 827.1813
189.2779, 824.7862
189.7600, 822.3214
190.2421, 819.9683
190.7242, 817.8530
191.2063, 816.8674
191.6884, 817.3154
192.1706, 818.2302
192.6527, 818.0998
193.1348, 816.8996
193.6169, 815.4072
194.0990, 813.7787
194.5811, 812.0484
195.0633, 810.8506
195.5454, 810.3152
196.0275, 810.0936
196.5096, 809.5966
196.9917, 808.8070
197.4738, 807.9266
197.9560, 807.1078
198.4381, 806.3648
198.9202, 805.3563
199.4023, 804.0006
199.8844, 802.5156
200.3665, 801.2839
200.8487, 800.2942
201.3308, 799.6559
201.8129, 799.4703
202.2950, 799.7623
202.7771, 800.3657
203.2592, 801.5306
203.7414, 802.7308
204.2235, 802.4736
204.7056, 800.2340
205.1877, 798.5276
205.6698, 798.9172
206.1519, 801.8031
206.6341, 804.0137
207.1162, 805.1786
207.5983, 805.8036
208.0804, 807.2565
208.5625, 809.9894
209.0446, 812.1049
209.5268, 812.3505
210.0089, 810.1456
210.4910, 808.8686
210.9731, 808.7500
211.4552, 809.5165
211.9373, 810.5406
212.4195, 811.8256
212.9016, 813.3690
213.3837, 815.4107
213.8658, 818.4295
214.3479, 820.0753
214.8300, 819.6942
215.3121, 818.2767
215.7943, 818.3556
216.2764, 820.5062
216.7585, 822.9127
217.2406, 824.7373
217.7227, 825.6828
218.2048, 826.9798
218.6870, 829.0160
219.1691, 831.1929
219.6512, 832.0630
220.1333, 831.0762
220.6154, 829.7776
221.0975, 828.7733
221.5797, 828.1190
222.0618, 827.6609
222.5439, 827.5279
223.0260, 827.5511
223.5081, 827.2515
223.9902, 826.2557
224.4724, 825.6451
224.9545, 826.0361
225.4366, 828.0616
225.9187, 829.2646
226.4008, 829.1779
226.8829, 828.5139
227.3651, 828.9750
227.8472, 831.7031
228.3293, 833.6523
228.8114, 833.3735
229.2935, 829.8019
229.7757, 827.1951
230.2578, 825.4097
230.7399, 824.6567
231.2220, 825.5834
231.7041, 829.3563
232.1862, 832.8980
232.6684, 835.0684
233.1505, 835.4772
233.6326, 835.7453
234.1147, 835.9883
234.5968, 836.0234
235.0789, 835.4142
235.5611, 833.5392
236.0432, 832.0450
236.5253, 831.5676
237.0074, 832.4730
237.4895, 833.1239
237.9716, 833.5106
238.4538, 833.6585
238.9359, 833.4970
239.4180, 832.4188
239.9001, 832.0557
240.3822, 833.2831
240.8643, 836.7892
241.3465, 838.5071
241.8286, 837.3853
242.3107, 835.2128
242.7928, 834.6207
243.2749, 836.5933
243.7570, 838.4404
244.2392, 839.4551
244.7213, 839.5498
245.2034, 839.2225
245.6855, 837.8670
246.1676, 836.5936
246.6497, 836.9719
247.1319, 840.1786
247.6140, 842.9020
248.0961, 844.1288
248.5782, 843.6300
249.0603, 843.8980
249.5424, 845.0239
250.0246, 846.8446
250.5067, 849.3058
250.9888, 852.8586
251.4709, 856.1768
251.9530, 858.9791
252.4351, 861.2651
252.9173, 863.2296
253.3994, 864.7037
253.8815, 866.0460
254.3636, 867.5389
254.8457, 868.9703
255.3278, 870.9515
255.8100, 873.7866
256.2921, 877.4460
256.7742, 880.5939
257.2563, 883.0675
257.7384, 885.2394
258.2205, 887.3187
258.7026, 889.1579
259.1848, 891.3546
259.6669, 894.0665
260.1490, 897.2659
260.6311, 900.4661
261.1132, 903.7289
261.5953, 906.9207
262.0775, 909.8193
262.5596, 912.2366
263.0417, 914.9944
263.5238, 918.1644
264.0059, 921.7377
264.4880, 925.9732
264.9702, 931.1633
265.4523, 936.3572
265.9344, 940.9534
266.4165, 944.9279
266.8986, 948.4430
267.3807, 951.3437
267.8629, 953.8771
268.3450, 956.9308
268.8271, 960.7281
269.3092, 964.6055
269.7913, 968.4655
270.2734, 972.4880
270.7556, 975.5681
271.2377, 977.6088
271.7198, 978.7998
272.2019, 979.3287
272.6840, 978.8841
273.1661, 978.9241
273.6483, 980.4755
274.1304, 983.8354
274.6125, 986.1261
275.0946, 986.9724
275.5767, 987.1351
276.0588, 987.7511
276.5410, 988.7062
277.0231, 990.5533
277.5052, 993.7088
277.9873, 998.1850
278.4694, 1002.406
278.9515, 1006.222
279.4337, 1010.025
279.9158, 1013.882
280.3979, 1017.578
280.8800, 1023.351
281.3621, 1032.906
281.8442, 1045.687
282.3264, 1055.575
282.8085, 1061.948
283.2906, 1067.645
283.7727, 1075.812
284.2548, 1086.475
284.7369, 1098.356
285.2191, 1111.706
285.7012, 1125.891
286.1833, 1138.428
286.6654, 1149.060
287.1475, 1159.843
287.6296, 1172.740
288.1118, 1187.627
288.5939, 1202.713
289.0760, 1217.407
289.5581, 1232.134
290.0402, 1248.463
290.5223, 1266.486
291.0045, 1285.140
291.4866, 1303.345
291.9687, 1321.483
292.4508, 1341.390
292.9329, 1363.605
293.4150, 1387.528
293.8972, 1412.940
294.3793, 1439.866
294.8614, 1468.639
295.3435, 1498.981
295.8256, 1531.159
296.3077, 1566.264
296.7899, 1604.772
297.2720, 1644.345
297.7541, 1682.031
298.2362, 1717.628
298.7183, 1751.000
299.2004, 1783.588
299.6826, 1813.388
300.1647, 1838.103
300.6468, 1857.705
301.1289, 1870.109
301.6110, 1873.250
302.0931, 1867.552
302.5753, 1854.208
303.0574, 1833.870
303.5395, 1806.150
304.0216, 1768.824
304.5037, 1721.391
304.9858, 1671.964
305.4680, 1626.509
305.9501, 1583.713
306.4322, 1541.460
306.9143, 1496.895
307.3964, 1453.751
307.8785, 1414.373
308.3607, 1378.935
308.8428, 1347.238
309.3249, 1319.998
309.8070, 1296.122
310.2891, 1274.430
310.7712, 1254.366
311.2534, 1236.284
311.7355, 1220.966
312.2176, 1207.861
312.6997, 1195.465
313.1818, 1183.511
313.6639, 1171.764
314.1461, 1159.799
314.6282, 1147.148
315.1103, 1135.305
315.5924, 1125.405
316.0745, 1116.890
316.5566, 1108.432
317.0388, 1099.275
317.5209, 1090.306
318.0030, 1082.070
318.4851, 1074.850
318.9672, 1067.511
319.4493, 1059.714
319.9315, 1051.609
320.4136, 1043.275
320.8957, 1033.571
321.3778, 1024.793
321.8599, 1018.014
322.3420, 1013.452
322.8242, 1008.848
323.3063, 1003.525
323.7884, 998.0529
324.2705, 992.9286
324.7526, 988.1281
325.2347, 983.7481
325.7169, 979.9988
326.1990, 976.8065
326.6811, 973.7342
327.1632, 970.7100
327.6453, 967.8248
328.1274, 965.1298
328.6096, 962.3918
329.0917, 960.1255
329.5738, 958.5290
330.0559, 957.4485
330.5380, 956.3811
331.0201, 955.5105
331.5023, 954.4599
331.9844, 953.1100
332.4665, 951.5889
332.9486, 949.3429
333.4307, 945.3605
333.9128, 941.1879
334.3950, 939.8430
334.8771, 943.2037
335.3592, 945.8162
335.8413, 945.6678
336.3234, 942.3752
336.8055, 940.3201
337.2877, 940.0719
337.7698, 940.2930
338.2519, 939.3307
338.7340, 936.7471
339.2161, 934.7352
339.6982, 933.8932
340.1803, 934.0363
340.6624, 934.1289
341.1446, 934.2095
341.6267, 934.1270
342.1088, 933.6750
342.5909, 932.8411
343.0730, 932.2309
343.5551, 932.1328
344.0373, 932.0599
344.5194, 930.5215
345.0015, 927.4134
345.4836, 924.7249
345.9657, 923.6110
346.4478, 923.9310
346.9300, 925.3668
347.4121, 928.3025
347.8942, 930.9384
348.3763, 930.0490
348.8584, 926.2847
349.3405, 923.4283
349.8227, 923.9935
350.3048, 926.4840
350.7869, 927.6317
351.2690, 927.4150
351.7511, 927.0865
352.2332, 928.1927
352.7154, 930.0370
353.1975, 931.0231
353.6796, 929.8923
354.1617, 928.4537
354.6438, 929.0845
355.1259, 931.4095
355.6081, 933.4678
356.0902, 933.7285
356.5723, 933.1228
357.0544, 932.6516
357.5365, 932.4063
358.0186, 932.5402
358.5008, 933.3326
358.9829, 934.5754
359.4650, 935.8337
359.9471, 937.1508
360.4292, 938.2470
360.9113, 938.9936
361.3935, 939.3932
361.8756, 939.3484
362.3577, 938.3336
362.8398, 937.0475
363.3219, 936.2834
363.8040, 936.8610
364.2862, 937.4402
364.7683, 937.4366
365.2504, 936.8990
365.7325, 936.7933
366.2146, 938.1321
366.6967, 939.4442
367.1789, 939.8165
367.6610, 937.1599
368.1431, 935.9341
368.6252, 937.5876
369.1073, 941.0496
369.5894, 942.8978
370.0716, 942.1621
370.5537, 940.8107
371.0358, 939.2675
371.5179, 936.9493
372.0000, 936.2998
372.4821, 938.2569
372.9643, 941.2263
373.4464, 943.0366
373.9285, 943.1488
374.4106, 943.1664
374.8927, 943.3953
375.3748, 943.8284
375.8570, 944.4881
376.3391, 945.4631
376.8212, 946.4594
377.3033, 947.2615
377.7854, 947.8563
378.2675, 948.3015
378.7497, 948.6175
379.2318, 948.7871
379.7139, 948.6998
380.1960, 948.3369
380.6781, 948.0276
381.1602, 947.8405
381.6424, 947.8377
382.1245, 948.6130
382.6066, 950.4149
383.0887, 952.1426
383.5708, 952.1882
384.0529, 950.8522
384.5351, 949.5554
385.0172, 948.8884
385.4993, 948.6232
385.9814, 948.0802
386.4635, 947.3069
386.9456, 947.2789
387.4278, 949.4982
387.9099, 952.8215
388.3920, 955.4813
388.8741, 957.0457
389.3562, 957.7318
389.8383, 956.9645
390.3205, 955.3510
390.8026, 954.6378
391.2847, 956.7734
391.7668, 959.4892
392.2489, 961.0038
392.7310, 960.9130
393.2132, 960.5683
393.6953, 960.4672
394.1774, 960.5383
394.6595, 960.6973
395.1416, 960.4755
395.6237, 960.7740
396.1059, 962.1163
396.5880, 964.4490
397.0701, 966.7567
397.5522, 968.8070
398.0343, 970.7756
398.5164, 972.7540
398.9986, 974.2715
399.4807, 976.4475
399.9628, 980.0332
400.4449, 984.2560
400.9270, 987.2272
401.4091, 987.2586
401.8913, 988.2014
402.3734, 991.5139
402.8555, 997.6974
403.3376, 1003.271
403.8197, 1007.447
404.3018, 1011.922
404.7840, 1018.546
405.2661, 1027.640
405.7482, 1037.818
406.2303, 1048.866
406.7124, 1061.282
407.1945, 1074.208
407.6767, 1089.206
408.1588, 1105.154
408.6409, 1121.810
409.1230, 1139.083
409.6051, 1156.835
410.0872, 1175.313
410.5694, 1193.884
411.0515, 1211.080
411.5336, 1227.195
412.0157, 1243.589
412.4978, 1260.908
412.9799, 1278.940
413.4621, 1297.282
413.9442, 1316.105
414.4263, 1335.461
414.9084, 1354.861
415.3905, 1375.102
415.8727, 1397.739
416.3548, 1423.120
416.8369, 1451.306
417.3190, 1481.942
417.8011, 1515.280
418.2832, 1552.655
418.7654, 1593.744
419.2475, 1639.442
419.7296, 1690.530
420.2117, 1748.140
420.6938, 1807.325
421.1759, 1866.834
421.6581, 1926.429
422.1402, 1986.621
422.6223, 2052.429
423.1044, 2112.986
423.5865, 2168.872
424.0686, 2218.497
424.5508, 2252.071
425.0329, 2273.105
425.5150, 2273.575
425.9971, 2249.530
426.4792, 2196.562
426.9613, 2128.002
427.4435, 2038.821
427.9256, 1937.282
428.4077, 1835.142
428.8898, 1726.799
429.3719, 1627.521
429.8540, 1540.529
430.3362, 1465.853
430.8183, 1399.521
431.3004, 1342.013
431.7825, 1292.651
432.2646, 1251.849
432.7467, 1219.740
433.2289, 1191.830
433.7110, 1168.310
434.1931, 1148.311
434.6752, 1130.891
435.1573, 1115.970
435.6394, 1102.744
436.1216, 1090.585
436.6036, 1079.814
437.0858, 1071.984
437.5679, 1067.145
438.0500, 1062.632
438.5321, 1055.723
439.0142, 1047.620
439.4963, 1040.308
439.9785, 1034.210
440.4606, 1029.316
440.9427, 1026.272
441.4248, 1024.580
441.9069, 1022.795
442.3890, 1019.616
442.8712, 1016.568
443.3533, 1014.858
443.8354, 1014.942
444.3175, 1014.737
444.7996, 1013.719
445.2817, 1011.997
445.7639, 1009.677
446.2460, 1004.604
446.7281, 1001.272
447.2102, 1001.488
447.6923, 1004.657
448.1744, 1006.535
448.6566, 1006.404
449.1387, 1005.688
449.6208, 1004.936
450.1029, 1004.037
450.5850, 1003.353
451.0671, 1002.794
451.5493, 1002.548
452.0314, 1003.098
452.5135, 1004.753
452.9956, 1005.829
453.4777, 1005.617
453.9598, 1004.533
454.4420, 1004.454
454.9241, 1005.466
455.4062, 1006.760
455.8883, 1007.753
456.3704, 1008.525
456.8525, 1009.436
457.3347, 1010.557
457.8168, 1011.661
458.2989, 1012.187
458.7810, 1012.412
459.2631, 1013.134
459.7452, 1014.881
460.2274, 1017.220
460.7095, 1019.756
461.1916, 1022.501
461.6737, 1025.275
462.1558, 1027.635
462.6379, 1030.187
463.1201, 1033.588
463.6022, 1038.397
464.0843, 1043.103
464.5664, 1047.228
465.0485, 1050.828
465.5306, 1053.996
466.0128, 1055.428
466.4949, 1057.733
466.9770, 1062.235
467.4591, 1069.047
467.9412, 1074.598
468.4233, 1077.043
468.9055, 1079.813
469.3876, 1085.143
469.8697, 1094.978
470.3518, 1103.024
470.8339, 1108.470
471.3160, 1112.651
471.7982, 1118.096
472.2803, 1125.030
472.7624, 1132.399
473.2445, 1139.824
473.7266, 1147.351
474.2087, 1155.226
474.6909, 1163.471
475.1730, 1171.532
475.6551, 1178.635
476.1372, 1185.003
476.6193, 1191.629
477.1014, 1198.617
477.5836, 1205.758
478.0657, 1213.163
478.5478, 1220.562
479.0299, 1227.069
479.5120, 1232.239
479.9941, 1236.446
480.4763, 1239.937
480.9584, 1242.746
481.4405, 1244.906
481.9226, 1246.153
482.4047, 1246.940
482.8868, 1247.796
483.3690, 1249.549
483.8511, 1249.857
484.3332, 1246.804
484.8153, 1242.154
485.2974, 1238.715
485.7795, 1238.783
486.2617, 1238.129
486.7438, 1235.682
487.2259, 1231.461
487.7080, 1227.227
488.1901, 1222.838
488.6722, 1218.580
489.1544, 1214.691
489.6365, 1211.467
490.1186, 1207.544
490.6007, 1202.669
491.0828, 1197.392
491.5649, 1192.440
492.0471, 1187.860
492.5292, 1183.403
493.0113, 1179.060
493.4934, 1174.793
493.9755, 1170.514
494.4576, 1166.236
494.9398, 1161.651
495.4219, 1156.252
495.9040, 1150.451
496.3861, 1145.474
496.8682, 1141.619
497.3503, 1137.268
497.8325, 1130.215
498.3146, 1121.942
498.7967, 1114.603
499.2788, 1109.783
499.7609, 1105.516
500.2430, 1101.103
500.7252, 1096.542
501.2073, 1091.693
501.6894, 1085.560
502.1715, 1080.002
502.6536, 1076.075
503.1357, 1074.748
503.6179, 1072.654
504.1000, 1069.659
504.5821, 1065.898
505.0642, 1061.326
505.5463, 1055.164
506.0284, 1049.935
506.5106, 1046.290
506.9927, 1043.732
507.4748, 1040.511
507.9569, 1036.392
508.4390, 1032.683
508.9211, 1030.524
509.4033, 1029.591
509.8854, 1026.798
510.3675, 1021.908
510.8496, 1017.139
511.3317, 1015.036
511.8138, 1014.800
512.2960, 1014.390
512.7781, 1013.454
513.2602, 1011.940
513.7423, 1009.110
514.2244, 1005.624
514.7065, 1003.093
515.1887, 1003.549
515.6708, 1004.228
516.1529, 1003.195
516.6350, 1000.424
517.1171, 997.5755
517.5992, 994.3171
518.0814, 991.8141
518.5635, 990.9590
519.0456, 993.5406
519.5277, 994.9974
520.0098, 994.6400
520.4919, 993.2551
520.9741, 991.9199
521.4562, 990.5004
521.9383, 989.4563
522.4204, 989.1400
522.9025, 989.3187
523.3846, 988.1788
523.8668, 985.2627
524.3489, 982.9459
524.8310, 983.0038
525.3131, 985.1622
525.7952, 987.2152
526.2773, 989.1507
526.7595, 990.5422
527.2416, 990.4570
527.7237, 989.4255
528.2058, 988.9678
528.6879, 990.4344
529.1700, 991.3918
529.6522, 988.3126
530.1343, 982.6212
530.6164, 978.3390
531.0985, 978.4738
531.5806, 979.9028
532.0627, 980.7369
532.5449, 980.7738
533.0270, 981.2951
533.5091, 983.3612
533.9912, 985.5856
534.4733, 986.9617
534.9554, 987.3465
535.4376, 986.8820
535.9197, 984.7527
536.4018, 982.1545
536.8839, 981.3513
537.3660, 982.9738
537.8481, 984.6547
538.3303, 985.8181
538.8124, 986.5253
539.2945, 987.1649
539.7766, 987.7496
540.2587, 988.1687
540.7408, 988.2416
541.2230, 988.0823
541.7051, 988.1171
542.1872, 988.3994
542.6693, 988.7590
543.1514, 989.2448
543.6335, 989.6671
544.1157, 989.6878
544.5978, 989.2197
545.0799, 988.3116
545.5620, 986.1805
546.0441, 983.6000
546.5262, 982.4805
547.0084, 984.8597
547.4905, 987.6415
547.9726, 989.4788
548.4547, 990.1907
548.9368, 991.1741
549.4189, 993.5407
549.9011, 995.3796
550.3832, 995.3797
550.8653, 992.0363
551.3474, 990.4572
551.8295, 991.3485
552.3116, 993.2496
552.7938, 993.8769
553.2759, 993.0490
553.7580, 992.7319
554.2401, 993.6824
554.7222, 995.2755
555.2043, 996.0076
555.6865, 995.9125
556.1686, 995.3723
556.6507, 993.9695
557.1328, 992.5445
557.6149, 992.7171
558.0970, 994.5970
558.5792, 996.2361
559.0613, 996.0014
559.5434, 994.9642
560.0255, 994.1561
560.5076, 993.7238
560.9897, 993.7548
561.4719, 994.8531
561.9540, 996.3242
562.4361, 996.9972
562.9182, 995.1904
563.4003, 994.3201
563.8824, 995.2562
564.3646, 997.7315
564.8467, 1000.116
565.3288, 1002.780
565.8109, 1004.539
566.2930, 1004.231
566.7751, 1001.710
567.2573, 1001.245
567.7394, 1003.172
568.2215, 1005.554
568.7036, 1006.404
569.1857, 1006.018
569.6678, 1005.409
570.1500, 1004.591
570.6321, 1004.126
571.1142, 1005.081
571.5963, 1006.896
572.0784, 1008.293
572.5605, 1008.419
573.0427, 1008.236
573.5248, 1008.253
574.0069, 1008.475
574.4890, 1008.785
574.9711, 1009.101
575.4532, 1009.548
575.9354, 1010.384
576.4175, 1012.079
576.8996, 1012.454
577.3817, 1010.465
577.8638, 1008.179
578.3459, 1007.378
578.8281, 1008.231
579.3102, 1010.139
579.7923, 1013.518
580.2744, 1017.176
580.7565, 1018.297
581.2386, 1017.044
581.7208, 1016.445
582.2029, 1018.077
582.6850, 1020.776
583.1671, 1022.695
583.6492, 1023.862
584.1313, 1024.445
584.6134, 1023.763
585.0955, 1023.046
585.5776, 1023.469
586.0598, 1025.217
586.5419, 1027.584
587.0240, 1030.885
587.5061, 1034.356
