##NAMES=Montebrasite
##RRUFFID=R040060
##IDEAL CHEMISTRY=LiAlPO_4_(OH)
##LOCALITY=Oxford County, Maine, USA
##OWNER=RRUFF
##SOURCE=University of Arizona Mineral Museum
##DESCRIPTION=White massive
##STATUS=The identification of this mineral has been confirmed by X-ray diffraction and chemical analysis
##URL=rruff.info/R040060
##MEASURED CHEMISTRY=LiAl(PO_4_)((OH)_0.79_F_0.21_)
116.2249, 81.44849
116.7070, 82.55886
117.1891, 83.40026
117.6712, 83.39091
118.1533, 82.96655
118.6354, 83.40953
119.1175, 85.50798
119.5997, 87.08248
120.0818, 86.78229
120.5639, 85.52339
121.0460, 84.79261
121.5281, 85.64474
122.0102, 87.82639
122.4924, 89.44781
122.9745, 88.55352
123.4566, 89.45776
123.9387, 94.85984
124.4208, 103.1765
124.9029, 110.9488
125.3851, 114.9640
125.8672, 114.9440
126.3493, 117.5391
126.8314, 125.9621
127.3135, 134.3251
127.7956, 140.5284
128.2778, 144.8649
128.7599, 149.0478
129.2420, 154.7198
129.7241, 162.1433
130.2062, 169.7940
130.6884, 179.9361
131.1705, 188.4904
131.6526, 192.8892
132.1347, 193.3164
132.6168, 192.0915
133.0989, 192.0792
133.5811, 194.5499
134.0632, 194.6222
134.5453, 191.6517
135.0274, 187.2397
135.5095, 181.7334
135.9916, 175.4938
136.4738, 169.4808
136.9559, 165.1588
137.4380, 163.5289
137.9201, 161.8918
138.4022, 161.4656
138.8843, 160.3764
139.3665, 155.6555
139.8486, 146.7809
140.3307, 137.6391
140.8128, 135.0665
141.2949, 144.8214
141.7770, 152.6233
142.2592, 157.9198
142.7413, 161.2385
143.2234, 162.5459
143.7055, 161.7465
144.1876, 160.2322
144.6697, 160.9224
145.1519, 164.6083
145.6340, 169.0092
146.1161, 174.5690
146.5982, 180.5108
147.0803, 186.1322
147.5624, 191.4165
148.0446, 195.5044
148.5267, 195.7495
149.0088, 190.4588
149.4909, 185.2815
149.9730, 181.8056
150.4551, 179.3934
150.9372, 176.7012
151.4194, 173.0259
151.9015, 168.9631
152.3836, 166.0904
152.8657, 164.9934
153.3478, 163.8261
153.8299, 160.6756
154.3121, 156.7207
154.7942, 155.8383
155.2763, 161.1033
155.7584, 169.1816
156.2405, 171.3744
156.7226, 164.0101
157.2048, 157.1318
157.6869, 156.4002
158.1690, 160.7134
158.6511, 165.3523
159.1332, 168.3036
159.6153, 170.0166
160.0975, 171.9070
160.5796, 174.6579
161.0617, 176.6252
161.5438, 175.6332
162.0259, 172.1952
162.5080, 170.5784
162.9902, 173.8580
163.4723, 179.8302
163.9544, 183.6051
164.4365, 184.0941
164.9186, 183.6246
165.4007, 183.7171
165.8829, 184.3654
166.3650, 185.4774
166.8471, 187.2808
167.3292, 189.4264
167.8113, 191.3503
168.2934, 193.1044
168.7756, 194.4828
169.2577, 195.3346
169.7398, 195.6654
170.2219, 195.4264
170.7040, 194.7051
171.1861, 193.2865
171.6683, 190.7076
172.1504, 186.1359
172.6325, 181.4396
173.1146, 178.6885
173.5967, 178.0242
174.0788, 177.7488
174.5610, 176.8290
175.0431, 175.9557
175.5252, 176.3167
176.0073, 179.2258
176.4894, 181.8892
176.9715, 180.0883
177.4537, 172.9697
177.9358, 167.2349
178.4179, 167.1016
178.9000, 169.8013
179.3821, 172.6957
179.8642, 175.7202
180.3464, 177.9211
180.8285, 177.5641
181.3106, 174.1117
181.7927, 171.0245
182.2748, 169.5014
182.7569, 169.3245
183.2391, 170.8396
183.7212, 174.9119
184.2033, 179.3462
184.6854, 180.9999
185.1675, 179.3601
185.6496, 177.3915
186.1318, 176.1874
186.6139, 175.3607
187.0960, 174.5496
187.5781, 173.5965
188.0602, 172.7486
188.5423, 172.3889
189.0245, 172.6195
189.5066, 172.9081
189.9887, 172.4802
190.4708, 172.2464
190.9529, 173.2324
191.4350, 175.9637
191.9172, 179.4361
192.3993, 182.4774
192.8814, 185.1249
193.3635, 187.1362
193.8456, 187.9066
194.3277, 188.2190
194.8099, 188.7354
195.2920, 189.6698
195.7741, 190.7428
196.2562, 191.9391
196.7383, 193.5957
197.2204, 193.8143
197.7026, 190.2724
198.1847, 185.7353
198.6668, 182.4603
199.1489, 181.1225
199.6310, 180.6347
200.1131, 179.6073
200.5953, 177.9199
201.0774, 176.3586
201.5595, 176.7921
202.0416, 176.6009
202.5237, 172.8483
203.0058, 164.2964
203.4880, 155.2296
203.9701, 151.3024
204.4522, 153.3492
204.9343, 154.8412
205.4164, 152.1081
205.8985, 149.0983
206.3807, 149.2064
206.8628, 153.3116
207.3449, 158.3714
207.8270, 161.2374
208.3091, 161.7749
208.7912, 161.3730
209.2734, 159.1497
209.7555, 156.8899
210.2376, 156.0628
210.7197, 156.9169
211.2018, 158.3445
211.6839, 159.5219
212.1661, 160.4725
212.6482, 160.6596
213.1303, 158.8645
213.6124, 157.1098
214.0945, 157.0617
214.5766, 158.8710
215.0588, 161.1464
215.5409, 162.7476
216.0230, 163.6858
216.5051, 164.4754
216.9872, 164.9111
217.4693, 165.5139
217.9515, 166.4691
218.4336, 167.8145
218.9157, 169.9058
219.3978, 174.1034
219.8799, 179.9813
220.3620, 183.0739
220.8442, 181.4001
221.3263, 178.0937
221.8084, 174.7860
222.2905, 171.6985
222.7726, 170.3763
223.2547, 173.6664
223.7369, 180.2503
224.2190, 182.7532
224.7011, 178.2867
225.1832, 172.5048
225.6653, 169.1787
226.1474, 168.0928
226.6296, 168.4286
227.1117, 170.3735
227.5938, 173.4480
228.0759, 176.4601
228.5580, 179.8983
229.0401, 182.0527
229.5223, 180.4819
230.0044, 176.4597
230.4865, 173.8412
230.9686, 176.0836
231.4507, 180.5479
231.9328, 181.3111
232.4150, 177.0323
232.8971, 172.1878
233.3792, 169.8026
233.8613, 169.1699
234.3434, 169.0727
234.8255, 170.0580
235.3077, 170.9866
235.7898, 169.9536
236.2719, 166.6577
236.7540, 162.9326
237.2361, 159.1532
237.7182, 155.8366
238.2004, 154.1028
238.6825, 154.6172
239.1646, 156.4891
239.6467, 159.7079
240.1288, 164.3779
240.6109, 167.2247
241.0931, 165.4441
241.5752, 160.8070
242.0573, 157.3577
242.5394, 155.2463
243.0215, 154.5432
243.5036, 156.6583
243.9858, 161.0563
244.4679, 163.0050
244.9500, 158.9787
245.4321, 152.0032
245.9142, 149.1703
246.3963, 152.6424
246.8785, 156.2520
247.3606, 155.9581
247.8427, 152.9766
248.3248, 151.3123
248.8069, 152.7294
249.2890, 155.9039
249.7712, 158.5160
250.2533, 160.8935
250.7354, 162.0254
251.2175, 160.4003
251.6996, 157.4215
252.1817, 155.6606
252.6639, 155.9051
253.1460, 157.5251
253.6281, 160.1178
254.1102, 164.3713
254.5923, 166.6979
255.0744, 165.2432
255.5566, 162.0178
256.0387, 159.0048
256.5208, 156.6186
257.0029, 155.4633
257.4850, 156.8186
257.9671, 161.8473
258.4492, 163.8881
258.9314, 159.7028
259.4135, 154.4606
259.8956, 152.3678
260.3777, 153.7537
260.8598, 156.4221
261.3419, 158.5152
261.8241, 159.9445
262.3062, 161.3786
262.7883, 163.0175
263.2704, 164.4753
263.7525, 165.1124
264.2346, 165.2802
264.7168, 166.3420
265.1989, 169.5452
265.6810, 174.6956
266.1631, 177.2247
266.6452, 173.3120
267.1273, 171.3158
267.6095, 174.9647
268.0916, 182.1388
268.5737, 188.9634
269.0558, 193.3161
269.5379, 195.7914
270.0201, 198.6844
270.5022, 203.0907
270.9843, 206.6583
271.4664, 207.7507
271.9485, 208.4750
272.4306, 211.6667
272.9128, 218.3642
273.3949, 226.6210
273.8770, 232.4311
274.3591, 235.1065
274.8412, 236.2602
275.3233, 235.2173
275.8055, 233.3942
276.2876, 231.8674
276.7697, 230.8399
277.2518, 229.7965
277.7339, 228.2340
278.2160, 226.4262
278.6982, 223.1366
279.1803, 215.4227
279.6624, 208.7373
280.1445, 206.1461
280.6266, 207.2968
281.1087, 209.5632
281.5909, 210.8299
282.0730, 211.0947
282.5551, 211.0816
283.0372, 209.9744
283.5193, 209.5717
284.0014, 210.3898
284.4836, 212.3886
284.9657, 215.3401
285.4478, 218.7183
285.9299, 223.1194
286.4120, 230.8184
286.8941, 243.3451
287.3763, 255.9318
287.8584, 264.9512
288.3405, 273.3655
288.8226, 284.9486
289.3047, 301.2401
289.7868, 320.6726
290.2690, 341.5753
290.7511, 364.0659
291.2332, 386.7336
291.7153, 407.8114
292.1974, 429.5877
292.6795, 454.8894
293.1617, 484.6015
293.6438, 515.0970
294.1259, 544.1615
294.6080, 571.6443
295.0901, 597.7941
295.5722, 623.9504
296.0544, 646.6744
296.5365, 663.0086
297.0186, 673.3069
297.5007, 677.3568
297.9828, 676.1187
298.4649, 668.3006
298.9471, 650.2038
299.4292, 620.1140
299.9113, 585.6319
300.3934, 553.1852
300.8755, 522.6774
301.3576, 492.9835
301.8398, 463.3832
302.3219, 435.1201
302.8040, 408.8033
303.2861, 384.6085
303.7682, 363.3814
304.2503, 345.9791
304.7325, 332.1690
305.2146, 318.5830
305.6967, 303.5493
306.1788, 290.4917
306.6609, 281.0326
307.1430, 274.3455
307.6252, 268.6606
308.1073, 263.1415
308.5894, 258.2430
309.0715, 255.3006
309.5536, 258.6275
310.0357, 258.4594
310.5179, 250.1611
311.0000, 240.4715
311.4821, 236.8979
311.9642, 240.9449
312.4463, 247.3505
312.9284, 248.1999
313.4106, 239.9073
313.8927, 236.2240
314.3748, 241.3920
314.8569, 246.7638
315.3390, 247.1229
315.8211, 243.0943
316.3033, 238.9120
316.7854, 238.3399
317.2675, 241.2354
317.7496, 242.7573
318.2317, 241.9362
318.7138, 240.7529
319.1960, 240.2237
319.6781, 239.6593
320.1602, 237.7083
320.6423, 233.2937
321.1244, 227.8702
321.6065, 225.3855
322.0887, 227.5018
322.5708, 227.6148
323.0529, 220.3194
323.5350, 211.8239
324.0171, 208.3784
324.4992, 211.8579
324.9814, 215.7556
325.4635, 212.8171
325.9456, 203.6045
326.4277, 196.7654
326.9098, 195.5600
327.3919, 195.4878
327.8741, 191.5569
328.3562, 184.0560
328.8383, 177.7718
329.3204, 175.8117
329.8025, 176.1120
330.2846, 174.9126
330.7668, 171.6512
331.2489, 168.4384
331.7310, 167.0173
332.2131, 167.2285
332.6952, 167.5709
333.1773, 169.5206
333.6595, 170.2400
334.1416, 166.4777
334.6237, 159.4176
335.1058, 153.5841
335.5879, 151.1921
336.0700, 151.8535
336.5522, 154.5894
337.0343, 164.1977
337.5164, 169.2405
337.9985, 163.8874
338.4806, 154.5169
338.9627, 148.8016
339.4449, 148.9711
339.9270, 151.9062
340.4091, 153.0817
340.8912, 151.5166
341.3733, 150.7487
341.8554, 152.3398
342.3376, 153.2823
342.8197, 150.4652
343.3018, 145.0654
343.7839, 141.4724
344.2660, 143.8038
344.7481, 151.5396
345.2303, 156.1255
345.7124, 155.2759
346.1945, 153.8927
346.6766, 153.1873
347.1587, 152.7195
347.6408, 151.7646
348.1230, 149.9517
348.6051, 147.8052
349.0872, 146.3037
349.5693, 145.6206
350.0514, 144.7583
350.5335, 142.4701
351.0157, 140.6484
351.4978, 141.1867
351.9799, 144.2233
352.4620, 147.1848
352.9441, 147.6378
353.4262, 146.4000
353.9084, 147.0304
354.3905, 150.9709
354.8726, 154.3769
355.3547, 152.1207
355.8368, 146.0782
356.3189, 142.7690
356.8011, 146.1817
357.2832, 151.1586
357.7653, 152.7840
358.2474, 151.2775
358.7295, 149.5428
359.2116, 149.3307
359.6938, 149.9111
360.1759, 148.5353
360.6580, 142.6829
361.1401, 138.7415
361.6222, 140.3209
362.1043, 144.0912
362.5865, 144.8737
363.0686, 141.2531
363.5507, 136.9317
364.0328, 137.4497
364.5149, 145.4451
364.9970, 150.5019
365.4792, 151.7337
365.9613, 151.2910
366.4434, 149.1698
366.9255, 146.2676
367.4076, 144.7356
367.8897, 146.5584
368.3719, 150.9330
368.8540, 151.8922
369.3361, 145.7476
369.8182, 141.5836
370.3003, 142.4064
370.7824, 145.6372
371.2646, 148.8287
371.7467, 151.2109
372.2288, 152.6149
372.7109, 152.6524
373.1930, 151.2603
373.6751, 149.2917
374.1573, 145.3083
374.6394, 142.5281
375.1215, 143.9252
375.6036, 149.0583
376.0857, 154.1745
376.5678, 157.9823
377.0500, 160.3729
377.5321, 160.5909
378.0142, 158.3649
378.4963, 156.2669
378.9784, 156.2467
379.4605, 157.7328
379.9427, 158.1812
380.4248, 156.1353
380.9069, 154.6182
381.3890, 155.5537
381.8711, 158.0439
382.3532, 160.4515
382.8354, 162.2951
383.3175, 163.0570
383.7996, 161.5750
384.2817, 155.0210
384.7638, 152.4220
385.2459, 158.1332
385.7281, 164.3339
386.2102, 164.8885
386.6923, 160.3658
387.1744, 155.6917
387.6565, 155.0234
388.1386, 158.0260
388.6208, 159.7166
389.1029, 158.6394
389.5850, 158.0641
390.0671, 159.5187
390.5492, 161.4886
391.0313, 161.8302
391.5135, 159.6976
391.9956, 157.1538
392.4777, 157.4202
392.9598, 160.8423
393.4419, 163.5602
393.9240, 165.3287
394.4062, 165.7231
394.8883, 163.3579
395.3704, 158.8590
395.8525, 156.2786
396.3346, 158.8535
396.8167, 164.0634
397.2989, 168.1503
397.7810, 170.9742
398.2631, 172.5481
398.7452, 172.9525
399.2273, 171.9742
399.7094, 169.2097
400.1916, 161.6759
400.6737, 156.4877
401.1558, 157.8911
401.6379, 163.0036
402.1200, 167.2640
402.6021, 169.3574
403.0843, 170.5141
403.5664, 172.7305
404.0485, 177.5593
404.5306, 177.8771
405.0127, 166.4655
405.4948, 157.8921
405.9770, 162.5423
406.4591, 176.2668
406.9412, 187.8785
407.4233, 190.0835
407.9054, 185.5504
408.3875, 184.0479
408.8697, 187.6208
409.3518, 190.1275
409.8339, 188.7610
410.3160, 186.8713
410.7981, 187.7178
411.2802, 191.7743
411.7624, 195.8119
412.2445, 195.4862
412.7266, 192.1836
413.2087, 193.4739
413.6908, 200.8966
414.1729, 211.1156
414.6551, 223.2390
415.1372, 236.3193
415.6193, 248.0256
416.1014, 255.7507
416.5835, 263.6944
417.0656, 274.0708
417.5478, 287.0865
418.0299, 303.6124
418.5120, 324.4012
418.9941, 348.2488
419.4762, 373.0875
419.9583, 399.1095
420.4405, 425.8268
420.9226, 452.2952
421.4047, 480.2750
421.8868, 511.6208
422.3689, 545.9905
422.8510, 581.7483
423.3332, 617.7422
423.8153, 653.8275
424.2974, 686.9007
424.7795, 716.8114
425.2616, 743.2983
425.7437, 775.7186
426.2259, 800.3707
426.7080, 803.2345
427.1901, 780.3604
427.6722, 738.6899
428.1543, 679.4022
428.6364, 604.1255
429.1186, 533.3201
429.6007, 467.3086
430.0828, 409.5880
430.5649, 363.7548
431.0470, 327.9961
431.5291, 297.9325
432.0113, 273.4371
432.4934, 253.5488
432.9755, 238.1190
433.4576, 226.7704
433.9397, 218.0884
434.4218, 211.6105
434.9040, 207.0860
435.3861, 204.3933
435.8682, 206.0307
436.3503, 204.0290
436.8324, 194.1065
437.3145, 183.2178
437.7967, 176.7750
438.2788, 174.7659
438.7609, 174.2890
439.2430, 173.2209
439.7251, 171.6045
440.2072, 169.7763
440.6894, 167.8117
441.1715, 165.4699
441.6536, 162.5680
442.1357, 159.3788
442.6178, 155.9230
443.0999, 152.2307
443.5821, 149.0626
444.0642, 146.9402
444.5463, 145.9045
445.0284, 146.6535
445.5105, 150.1116
445.9926, 153.4483
446.4748, 154.1983
446.9569, 153.1080
447.4390, 152.0418
447.9211, 151.7455
448.4032, 151.1566
448.8853, 148.6391
449.3675, 145.2756
449.8496, 144.1938
450.3317, 146.7380
450.8138, 150.6155
451.2959, 152.1151
451.7780, 149.9794
452.2602, 148.7955
452.7423, 149.6762
453.2244, 150.4446
453.7065, 149.7803
454.1886, 147.9822
454.6707, 145.9019
455.1529, 143.9550
455.6350, 142.3889
456.1171, 141.9570
456.5992, 142.8477
457.0813, 144.3636
457.5634, 146.7502
458.0455, 149.4705
458.5276, 152.1687
459.0098, 154.8252
459.4919, 157.6219
459.9740, 162.0973
460.4561, 166.4290
460.9382, 165.6624
461.4203, 159.1135
461.9025, 153.8207
462.3846, 154.6437
462.8667, 159.6197
463.3488, 161.7583
463.8309, 159.7266
464.3130, 157.2201
464.7952, 153.6864
465.2773, 150.9843
465.7594, 152.3844
466.2415, 158.0071
466.7236, 163.6642
467.2057, 164.5862
467.6879, 160.4578
468.1700, 160.7099
468.6521, 172.2433
469.1342, 180.2690
469.6163, 178.7137
470.0984, 173.0798
470.5806, 170.0277
471.0627, 171.7866
471.5448, 175.8976
472.0269, 179.9611
472.5090, 183.9786
472.9911, 187.7542
473.4733, 191.2764
473.9554, 194.5960
474.4375, 197.5358
474.9196, 200.2847
475.4017, 203.4160
475.8839, 206.6517
476.3660, 210.6819
476.8481, 217.5162
477.3302, 225.4701
477.8123, 229.8869
478.2944, 228.9800
478.7766, 225.7969
479.2587, 224.7695
479.7408, 225.8854
480.2229, 229.4379
480.7050, 238.0100
481.1871, 246.1115
481.6693, 252.5045
482.1514, 256.3035
482.6335, 255.6791
483.1156, 249.2208
483.5977, 240.1147
484.0798, 233.9229
484.5620, 230.6323
485.0441, 230.6376
485.5262, 236.7113
486.0083, 243.3509
486.4904, 245.8815
486.9725, 244.7508
487.4547, 243.2540
487.9368, 242.7416
488.4189, 242.3223
488.9010, 241.3716
489.3831, 239.7706
489.8652, 236.8335
490.3474, 231.9943
490.8295, 226.2821
491.3116, 221.5792
491.7937, 216.9601
492.2758, 215.5495
492.7579, 220.7211
493.2401, 226.1805
493.7222, 228.2848
494.2043, 227.1312
494.6864, 224.4115
495.1685, 221.1657
495.6506, 217.1348
496.1328, 211.1683
496.6149, 202.2880
497.0970, 194.7229
497.5791, 190.1288
498.0612, 186.7072
498.5433, 182.8951
499.0255, 178.7227
499.5076, 175.6389
499.9897, 174.8664
500.4718, 175.2205
500.9539, 175.7910
501.4360, 176.3493
501.9182, 175.3357
502.4003, 171.5804
502.8824, 166.4114
503.3645, 163.1032
503.8466, 163.2770
504.3287, 162.5713
504.8109, 160.6501
505.2930, 158.0253
505.7751, 154.1267
506.2572, 149.7419
506.7393, 147.1445
507.2214, 148.3907
507.7036, 151.7012
508.1857, 151.2035
508.6678, 145.5629
509.1499, 140.7274
509.6320, 138.1667
510.1141, 137.0488
510.5963, 136.7488
511.0784, 137.2353
511.5605, 138.5057
512.0426, 142.0675
512.5247, 145.5037
513.0068, 144.9337
513.4890, 140.9355
513.9711, 138.5430
514.4532, 140.8521
514.9353, 144.9435
515.4174, 143.6718
515.8995, 130.5766
516.3817, 123.6116
516.8638, 127.0402
517.3459, 132.8537
517.8280, 136.7995
518.3101, 138.6673
518.7922, 139.6896
519.2744, 140.6891
519.7565, 141.1982
520.2386, 139.7926
520.7207, 136.0637
521.2028, 132.7675
521.6849, 130.3363
522.1671, 128.8478
522.6492, 128.2076
523.1313, 128.4217
523.6134, 129.5652
524.0955, 132.6931
524.5776, 135.9429
525.0598, 137.9503
525.5419, 138.6794
526.0240, 138.1188
526.5061, 136.2072
526.9882, 133.3692
527.4703, 130.1311
527.9525, 125.0130
528.4346, 123.4091
528.9167, 129.3950
529.3988, 134.3927
529.8809, 133.5339
530.3630, 128.8737
530.8452, 124.7872
531.3273, 123.2455
531.8094, 123.4093
532.2915, 124.9771
532.7736, 127.8266
533.2557, 127.8479
533.7379, 122.6132
534.2200, 117.6020
534.7021, 119.1784
535.1842, 126.1938
535.6663, 130.6285
536.1484, 129.0059
536.6306, 127.3576
537.1127, 129.2062
537.5948, 133.0172
538.0769, 136.5600
538.5590, 139.0492
539.0411, 139.9763
539.5233, 138.4181
540.0054, 134.0850
540.4875, 130.3363
540.9696, 125.4054
541.4517, 123.6067
541.9338, 129.0079
542.4160, 136.9335
542.8981, 141.5201
543.3802, 141.0732
543.8623, 138.6413
544.3444, 135.6758
544.8265, 132.6940
545.3087, 131.3320
545.7908, 131.8612
546.2729, 132.1195
546.7550, 130.2433
547.2371, 126.8929
547.7192, 125.6762
548.2014, 127.0273
548.6835, 129.6871
549.1656, 136.0337
549.6477, 141.8792
550.1298, 142.7179
550.6119, 138.9403
551.0941, 134.9342
551.5762, 134.4426
552.0583, 136.0872
552.5404, 134.3766
553.0225, 127.9937
553.5046, 124.1581
553.9868, 126.8128
554.4689, 131.5803
554.9510, 133.6935
555.4331, 133.1184
555.9152, 131.8211
556.3973, 129.1433
556.8795, 126.9962
557.3616, 127.4023
557.8437, 129.7982
558.3258, 132.5830
558.8079, 135.1231
559.2900, 136.9217
559.7722, 136.9628
560.2543, 134.5466
560.7364, 132.5355
561.2185, 132.2453
561.7006, 131.0085
562.1827, 126.1232
562.6649, 119.9914
563.1470, 117.0399
563.6291, 119.2179
564.1112, 123.2286
564.5933, 127.3321
565.0754, 130.6945
565.5576, 129.2181
566.0397, 121.6300
566.5218, 114.8332
567.0039, 115.1397
567.4860, 121.6219
567.9681, 124.3486
568.4503, 119.1428
568.9324, 116.1331
569.4145, 118.9502
569.8966, 123.5790
570.3787, 126.2182
570.8608, 126.5306
571.3430, 126.6700
571.8251, 128.8191
572.3072, 131.8861
572.7893, 131.5716
573.2714, 127.0651
573.7535, 123.7153
574.2357, 123.5096
574.7178, 125.0839
575.1999, 127.3981
575.6820, 130.5770
576.1641, 131.6160
576.6462, 127.0385
577.1284, 122.5714
577.6105, 123.2605
578.0926, 127.2585
578.5747, 129.8413
579.0568, 129.1104
579.5389, 127.0594
580.0211, 126.8786
580.5032, 128.9791
580.9853, 130.5610
581.4674, 131.2886
581.9495, 131.9381
582.4316, 133.4966
582.9138, 134.9718
583.3959, 134.3107
583.8780, 130.1649
584.3601, 127.4614
584.8422, 130.9601
585.3243, 137.4194
585.8065, 141.4265
586.2886, 142.4657
586.7707, 142.6892
587.2528, 143.6459
587.7349, 144.7984
588.2170, 143.8301
588.6992, 137.3619
589.1813, 134.5146
589.6634, 137.4613
590.1455, 142.2769
590.6276, 147.7967
591.1097, 153.1112
591.5919, 156.4142
592.0740, 156.1215
592.5561, 154.4213
593.0382, 153.7878
593.5203, 154.2230
594.0024, 155.8720
594.4846, 158.9230
594.9667, 162.6006
595.4488, 166.3582
595.9309, 170.1905
596.4130, 173.1444
596.8951, 174.6611
597.3773, 176.1108
597.8594, 178.6025
598.3415, 180.7276
598.8236, 179.9955
599.3057, 176.6518
599.7878, 174.7304
600.2700, 178.8896
600.7521, 186.6989
601.2342, 190.6304
601.7163, 190.4745
602.1984, 188.3617
602.6805, 184.1562
603.1627, 179.4369
603.6448, 177.1342
604.1269, 177.8121
604.6090, 175.7184
605.0911, 167.1779
605.5732, 158.8268
606.0554, 154.0692
606.5375, 152.1411
607.0196, 151.7756
607.5017, 152.4466
607.9838, 153.4989
608.4659, 154.2574
608.9481, 154.7121
609.4302, 154.6373
609.9123, 153.9604
610.3944, 152.8960
610.8765, 150.8528
611.3586, 148.8430
611.8408, 148.4526
612.3229, 149.8168
612.8050, 152.3676
613.2871, 157.5072
