##NAMES=Montebrasite
##RRUFFID=R060890
##IDEAL CHEMISTRY=LiAlPO_4_(OH)
##LOCALITY=Mount Marie, Paris, Maine, USA
##OWNER=RRUFF
##SOURCE=Bob Jenkins
##DESCRIPTION=Colorless massive
##STATUS=The identification of this mineral is confirmed by single-crystal X-ray diffraction and chemical analysis.
##URL=rruff.info/R060890
##MEASURED CHEMISTRY=Li_1.00_Al_1.00_(P_1.00_O_4_)(OH)_0.63_F_0.37_)_Î£=1_ ; Li not measured but estimated by stoichiometry
155.7577, 1937.629
156.2398, 1925.416
156.7219, 1927.109
157.2041, 1938.765
157.6862, 1962.163
158.1683, 1995.471
158.6504, 2029.461
159.1325, 2057.282
159.6146, 2081.350
160.0968, 2113.052
160.5789, 2156.439
161.0610, 2203.688
161.5431, 2249.915
162.0252, 2295.225
162.5073, 2341.864
162.9895, 2392.222
163.4716, 2445.209
163.9537, 2495.194
164.4358, 2544.181
164.9179, 2588.688
165.4000, 2625.967
165.8822, 2655.903
166.3643, 2679.745
166.8464, 2695.678
167.3285, 2705.907
167.8106, 2718.445
168.2927, 2744.992
168.7749, 2767.226
169.2570, 2766.515
169.7391, 2742.000
170.2212, 2708.150
170.7033, 2670.675
171.1854, 2630.701
171.6676, 2590.884
172.1497, 2547.794
172.6318, 2507.414
173.1139, 2478.885
173.5960, 2463.570
174.0781, 2447.668
174.5603, 2419.700
175.0424, 2384.739
175.5245, 2353.465
176.0066, 2330.464
176.4887, 2310.920
176.9708, 2289.445
177.4530, 2265.850
177.9351, 2240.757
178.4172, 2212.886
178.8993, 2183.746
179.3814, 2156.696
179.8635, 2132.334
180.3457, 2110.598
180.8278, 2091.053
181.3099, 2073.553
181.7920, 2059.187
182.2741, 2052.948
182.7562, 2049.954
183.2384, 2042.367
183.7205, 2025.912
184.2026, 2004.907
184.6847, 1984.279
185.1668, 1963.520
185.6489, 1945.789
186.1311, 1934.910
186.6132, 1928.070
187.0953, 1921.920
187.5774, 1917.082
188.0595, 1911.358
188.5416, 1900.437
189.0238, 1882.810
189.5059, 1865.723
189.9880, 1855.068
190.4701, 1847.174
190.9522, 1836.873
191.4343, 1820.174
191.9165, 1802.041
192.3986, 1790.409
192.8807, 1786.467
193.3628, 1784.276
193.8449, 1781.714
194.3270, 1778.743
194.8092, 1775.021
195.2913, 1769.318
195.7734, 1763.851
196.2555, 1762.935
196.7376, 1767.952
197.2197, 1771.718
197.7019, 1769.073
198.1840, 1763.390
198.6661, 1758.189
199.1482, 1753.897
199.6303, 1751.162
200.1124, 1751.384
200.5946, 1755.091
201.0767, 1759.223
201.5588, 1761.417
202.0409, 1763.492
202.5230, 1768.179
203.0051, 1778.124
203.4873, 1788.023
203.9694, 1788.027
204.4515, 1775.235
204.9336, 1769.036
205.4157, 1788.902
205.8978, 1815.958
206.3800, 1828.940
206.8621, 1819.079
207.3442, 1801.498
207.8263, 1793.741
208.3084, 1796.614
208.7905, 1802.135
209.2727, 1809.068
209.7548, 1816.194
210.2369, 1823.042
210.7190, 1830.715
211.2011, 1834.966
211.6832, 1827.962
212.1654, 1808.682
212.6475, 1794.950
213.1296, 1797.962
213.6117, 1807.231
214.0938, 1811.731
214.5760, 1809.220
215.0581, 1804.821
215.5402, 1803.160
216.0223, 1804.251
216.5044, 1805.524
216.9865, 1807.646
217.4687, 1808.424
217.9508, 1805.258
218.4329, 1797.368
218.9150, 1788.582
219.3971, 1781.313
219.8792, 1775.562
220.3614, 1771.371
220.8435, 1767.173
221.3256, 1766.510
221.8077, 1775.024
222.2898, 1794.386
222.7719, 1809.869
223.2541, 1808.276
223.7362, 1792.681
224.2183, 1779.998
224.7004, 1774.325
225.1825, 1772.852
225.6646, 1773.200
226.1468, 1775.467
226.6289, 1776.088
227.1110, 1772.525
227.5931, 1765.647
228.0752, 1757.967
228.5573, 1749.150
229.0395, 1741.050
229.5216, 1734.500
230.0037, 1729.451
230.4858, 1728.663
230.9679, 1738.296
231.4500, 1752.634
231.9322, 1757.770
232.4143, 1749.273
232.8964, 1737.701
233.3785, 1734.865
233.8606, 1738.919
234.3427, 1739.457
234.8249, 1730.834
235.3070, 1717.442
235.7891, 1704.280
236.2712, 1690.671
236.7533, 1682.666
237.2354, 1689.891
237.7176, 1708.860
238.1997, 1723.960
238.6818, 1735.640
239.1639, 1740.246
239.6460, 1728.121
240.1281, 1697.755
240.6103, 1672.715
241.0924, 1674.811
241.5745, 1698.669
242.0566, 1713.407
242.5387, 1711.816
243.0208, 1703.895
243.5030, 1695.385
243.9851, 1686.784
244.4672, 1680.978
244.9493, 1681.274
245.4314, 1685.838
245.9135, 1685.715
246.3957, 1673.239
246.8778, 1663.312
247.3599, 1668.801
247.8420, 1685.275
248.3241, 1694.666
248.8062, 1684.934
249.2884, 1663.771
249.7705, 1658.379
250.2526, 1676.529
250.7347, 1697.491
251.2168, 1717.141
251.6989, 1734.242
252.1811, 1745.871
252.6632, 1750.448
253.1453, 1749.575
253.6274, 1746.155
254.1095, 1734.896
254.5916, 1730.493
255.0738, 1740.659
255.5559, 1757.650
256.0380, 1769.930
256.5201, 1773.654
257.0022, 1775.882
257.4843, 1788.633
257.9665, 1818.337
258.4486, 1846.313
258.9307, 1874.106
259.4128, 1898.850
259.8949, 1916.466
260.3770, 1926.701
260.8592, 1934.366
261.3413, 1944.566
261.8234, 1955.892
262.3055, 1976.451
262.7876, 2016.936
263.2697, 2057.242
263.7519, 2079.923
264.2340, 2087.664
264.7161, 2099.265
265.1982, 2133.080
265.6803, 2192.313
266.1624, 2244.538
266.6446, 2293.952
267.1267, 2333.572
267.6088, 2354.156
268.0909, 2362.437
268.5730, 2372.955
269.0551, 2396.189
269.5373, 2430.863
270.0194, 2463.392
270.5015, 2494.605
270.9836, 2522.455
271.4657, 2549.811
271.9478, 2572.798
272.4300, 2583.962
272.9121, 2578.739
273.3942, 2563.980
273.8763, 2560.375
274.3584, 2574.512
274.8405, 2590.074
275.3227, 2610.144
275.8048, 2627.482
276.2869, 2633.754
276.7690, 2626.192
277.2511, 2612.904
277.7332, 2606.250
278.2154, 2606.795
278.6975, 2612.454
279.1796, 2625.025
279.6617, 2641.008
280.1438, 2658.806
280.6259, 2678.090
281.1081, 2698.775
281.5902, 2720.639
282.0723, 2743.703
282.5544, 2769.045
283.0365, 2797.654
283.5186, 2827.890
284.0008, 2856.304
284.4829, 2884.660
284.9650, 2919.781
285.4471, 2967.470
285.9292, 3026.013
286.4113, 3088.630
286.8935, 3156.886
287.3756, 3226.568
287.8577, 3285.989
288.3398, 3345.021
288.8219, 3425.772
289.3040, 3545.479
289.7862, 3685.781
290.2683, 3814.960
290.7504, 3927.308
291.2325, 4062.547
291.7146, 4256.446
292.1967, 4483.195
292.6789, 4699.949
293.1610, 4891.616
293.6431, 5083.955
294.1252, 5294.078
294.6073, 5521.603
295.0894, 5765.342
295.5716, 6029.213
296.0537, 6305.710
296.5358, 6577.135
297.0179, 6838.786
297.5000, 7110.339
297.9821, 7416.774
298.4643, 7733.172
298.9464, 8018.216
299.4285, 8260.625
299.9106, 8465.513
300.3927, 8646.110
300.8748, 8811.452
301.3570, 8901.262
301.8391, 8895.158
302.3212, 8819.400
302.8033, 8688.804
303.2854, 8507.215
303.7675, 8286.625
304.2497, 8032.432
304.7318, 7741.601
305.2139, 7451.603
305.6960, 7142.352
306.1781, 6851.708
306.6602, 6601.419
307.1424, 6384.603
307.6245, 6179.122
308.1066, 5971.180
308.5887, 5764.075
309.0708, 5576.438
309.5529, 5420.253
310.0351, 5271.924
310.5172, 5135.225
310.9993, 5003.214
311.4814, 4866.769
311.9635, 4722.873
312.4456, 4578.478
312.9278, 4446.488
313.4099, 4333.578
313.8920, 4220.708
314.3741, 4102.856
314.8562, 3987.865
315.3383, 3879.653
315.8205, 3779.334
316.3026, 3687.480
316.7847, 3605.737
317.2668, 3535.001
317.7489, 3465.341
318.2310, 3392.715
318.7132, 3325.818
319.1953, 3268.418
319.6774, 3219.542
320.1595, 3175.428
320.6416, 3135.180
321.1237, 3097.798
321.6059, 3061.208
322.0880, 3025.118
322.5701, 2989.648
323.0522, 2955.629
323.5343, 2921.724
324.0164, 2885.802
324.4986, 2846.104
324.9807, 2806.184
325.4628, 2768.966
325.9449, 2734.511
326.4270, 2704.941
326.9091, 2684.490
327.3913, 2665.963
327.8734, 2638.626
328.3555, 2601.066
328.8376, 2562.580
329.3197, 2525.382
329.8018, 2490.555
330.2840, 2460.500
330.7661, 2436.353
331.2482, 2413.576
331.7303, 2386.651
332.2124, 2355.024
332.6945, 2325.949
333.1767, 2302.436
333.6588, 2279.765
334.1409, 2252.781
334.6230, 2222.492
335.1051, 2195.247
335.5872, 2175.857
336.0694, 2163.436
336.5515, 2146.938
337.0336, 2119.598
337.5157, 2096.656
337.9979, 2084.999
338.4800, 2078.999
338.9621, 2070.080
339.4442, 2054.647
339.9263, 2035.726
340.4084, 2019.233
340.8906, 2001.873
341.3727, 1993.402
341.8548, 2003.020
342.3369, 2013.761
342.8190, 2012.770
343.3011, 1999.372
343.7833, 1982.811
344.2654, 1972.675
344.7475, 1969.484
345.2296, 1963.221
345.7117, 1947.273
346.1938, 1935.859
346.6760, 1935.707
347.1581, 1943.802
347.6402, 1954.432
348.1223, 1966.193
348.6044, 1977.177
349.0865, 1982.371
349.5687, 1980.148
350.0508, 1978.664
350.5329, 1983.705
351.0150, 1989.908
351.4971, 1991.736
351.9792, 1988.239
352.4614, 1980.870
352.9435, 1965.376
353.4256, 1945.613
353.9077, 1938.840
354.3898, 1952.881
354.8719, 1973.747
355.3541, 1983.874
355.8362, 1983.863
356.3183, 1984.932
356.8004, 1993.413
357.2825, 2001.836
357.7646, 1998.808
358.2468, 1985.017
358.7289, 1976.737
359.2110, 1988.293
359.6931, 2017.354
360.1752, 2032.106
360.6573, 2016.121
361.1395, 2006.623
361.6216, 2023.158
362.1037, 2052.305
362.5858, 2071.502
363.0679, 2071.246
363.5500, 2059.654
364.0322, 2053.097
364.5143, 2054.251
364.9964, 2056.144
365.4785, 2056.380
365.9606, 2058.980
366.4427, 2068.702
366.9249, 2084.460
367.4070, 2099.675
367.8891, 2107.876
368.3712, 2109.186
368.8533, 2110.488
369.3354, 2111.537
369.8176, 2112.903
370.2997, 2116.330
370.7818, 2119.835
371.2639, 2119.974
371.7460, 2114.509
372.2281, 2106.730
372.7103, 2101.745
373.1924, 2099.918
373.6745, 2097.283
374.1566, 2091.911
374.6387, 2085.688
375.1208, 2081.198
375.6030, 2078.856
376.0851, 2075.268
376.5672, 2069.314
377.0493, 2060.791
377.5314, 2048.677
378.0135, 2032.528
378.4957, 2015.034
378.9778, 1997.721
379.4599, 1980.861
379.9420, 1967.376
380.4241, 1960.062
380.9063, 1953.561
381.3884, 1945.057
381.8705, 1934.970
382.3526, 1924.948
382.8347, 1916.055
383.3168, 1907.114
383.7990, 1894.919
384.2811, 1875.103
384.7632, 1857.681
385.2453, 1842.554
385.7274, 1829.983
386.2095, 1821.798
386.6917, 1817.382
387.1738, 1812.536
387.6559, 1802.120
388.1380, 1785.450
388.6201, 1772.494
389.1022, 1761.631
389.5844, 1756.986
390.0665, 1765.371
390.5486, 1779.659
391.0307, 1787.331
391.5128, 1781.196
391.9949, 1768.886
392.4771, 1762.713
392.9592, 1763.199
393.4413, 1765.825
393.9234, 1773.631
394.4055, 1779.236
394.8876, 1772.981
395.3698, 1753.444
395.8519, 1736.067
396.3340, 1730.661
396.8161, 1732.010
397.2982, 1730.652
397.7803, 1725.167
398.2625, 1719.968
398.7446, 1719.688
399.2267, 1723.831
399.7088, 1722.430
400.1909, 1708.474
400.6730, 1696.471
401.1552, 1694.514
401.6373, 1698.937
402.1194, 1702.659
402.6015, 1702.694
403.0836, 1699.959
403.5657, 1696.231
404.0479, 1690.933
404.5300, 1685.607
405.0121, 1679.164
405.4942, 1673.593
405.9763, 1671.086
406.4584, 1670.939
406.9406, 1670.140
407.4227, 1665.835
407.9048, 1658.728
408.3869, 1652.858
408.8690, 1645.206
409.3511, 1644.746
409.8333, 1658.809
410.3154, 1679.386
410.7975, 1697.707
411.2796, 1711.434
411.7617, 1722.866
412.2438, 1731.551
412.7260, 1738.753
413.2081, 1752.769
413.6902, 1776.255
414.1723, 1805.036
414.6544, 1835.797
415.1365, 1868.381
415.6187, 1901.273
416.1008, 1928.022
416.5829, 1959.749
417.0650, 2006.811
417.5471, 2068.000
418.0292, 2135.204
418.5114, 2203.777
418.9935, 2275.313
419.4756, 2355.198
419.9577, 2451.934
420.4398, 2547.026
420.9219, 2637.776
421.4041, 2727.713
421.8862, 2819.344
422.3683, 2913.655
422.8504, 3010.698
423.3325, 3114.292
423.8146, 3224.778
424.2968, 3315.284
424.7789, 3390.954
425.2610, 3436.936
425.7431, 3452.235
426.2252, 3436.520
426.7073, 3388.869
427.1895, 3308.552
427.6716, 3198.514
428.1537, 3051.465
428.6358, 2868.970
429.1179, 2700.427
429.6000, 2558.315
430.0822, 2434.019
430.5643, 2315.690
431.0464, 2202.736
431.5285, 2107.332
432.0106, 2038.101
432.4927, 1984.081
432.9749, 1937.761
433.4570, 1898.003
433.9391, 1861.841
434.4212, 1827.524
434.9033, 1795.626
435.3854, 1768.164
435.8676, 1745.675
436.3497, 1727.296
436.8318, 1715.537
437.3139, 1706.361
437.7960, 1695.980
438.2781, 1683.895
438.7603, 1671.870
439.2424, 1661.497
439.7245, 1652.782
440.2066, 1646.564
440.6887, 1644.144
441.1708, 1642.570
441.6530, 1642.761
442.1351, 1642.433
442.6172, 1637.562
443.0993, 1625.583
443.5814, 1613.126
444.0635, 1610.456
444.5457, 1615.606
445.0278, 1610.824
445.5099, 1587.675
445.9920, 1562.285
446.4741, 1555.485
446.9562, 1565.428
447.4384, 1570.583
447.9205, 1562.183
448.4026, 1552.099
448.8847, 1548.727
449.3668, 1551.443
449.8489, 1558.267
450.3311, 1569.199
450.8132, 1579.918
451.2953, 1578.944
451.7774, 1553.773
452.2595, 1535.677
452.7416, 1527.756
453.2238, 1524.190
453.7059, 1520.804
454.1880, 1517.706
454.6701, 1518.097
455.1522, 1526.425
455.6343, 1539.875
456.1165, 1543.999
456.5986, 1535.012
457.0807, 1525.631
457.5628, 1517.241
458.0449, 1512.525
458.5270, 1516.955
459.0092, 1533.224
459.4913, 1546.389
459.9734, 1542.601
460.4555, 1529.252
460.9376, 1522.926
461.4197, 1526.398
461.9019, 1533.045
462.3840, 1537.798
462.8661, 1540.738
463.3482, 1544.110
463.8303, 1547.011
464.3124, 1551.332
464.7946, 1559.043
465.2767, 1568.122
465.7588, 1575.449
466.2409, 1580.152
466.7230, 1584.054
467.2051, 1589.272
467.6873, 1595.330
468.1694, 1605.156
468.6515, 1626.363
469.1336, 1643.393
469.6157, 1644.994
470.0978, 1639.377
470.5800, 1643.134
471.0621, 1666.268
471.5442, 1694.454
472.0263, 1707.893
472.5084, 1707.317
472.9905, 1706.359
473.4727, 1706.429
473.9548, 1710.496
474.4369, 1725.763
474.9190, 1751.606
475.4011, 1771.030
475.8832, 1776.437
476.3654, 1778.215
476.8475, 1783.505
477.3296, 1791.960
477.8117, 1800.391
478.2938, 1806.905
478.7759, 1813.926
479.2581, 1827.942
479.7402, 1857.438
480.2223, 1878.834
480.7044, 1893.646
481.1865, 1899.849
481.6686, 1889.388
482.1508, 1868.094
482.6329, 1853.997
483.1150, 1862.468
483.5971, 1883.283
484.0792, 1887.850
484.5613, 1872.124
485.0435, 1863.281
485.5256, 1877.843
486.0077, 1898.327
486.4898, 1901.683
486.9719, 1885.968
487.4540, 1869.609
487.9362, 1858.181
488.4183, 1850.500
488.9004, 1847.553
489.3825, 1848.178
489.8646, 1845.636
490.3467, 1835.337
490.8289, 1818.783
491.3110, 1802.209
491.7931, 1783.209
492.2752, 1767.571
492.7573, 1756.724
493.2394, 1748.283
493.7216, 1741.809
494.2037, 1736.285
494.6858, 1728.988
495.1679, 1717.533
495.6500, 1702.485
496.1321, 1685.573
496.6143, 1665.593
497.0964, 1647.763
497.5785, 1636.062
498.0606, 1626.722
498.5427, 1615.265
499.0248, 1601.060
499.5070, 1586.648
499.9891, 1570.195
500.4712, 1555.666
500.9533, 1552.603
501.4354, 1560.502
501.9175, 1563.358
502.3997, 1548.756
502.8818, 1520.169
503.3639, 1497.396
503.8460, 1482.491
504.3282, 1471.202
504.8103, 1465.993
505.2924, 1462.523
505.7745, 1456.382
506.2566, 1447.539
506.7387, 1440.230
507.2209, 1440.164
507.7030, 1444.828
508.1851, 1439.406
508.6672, 1419.298
509.1493, 1402.857
509.6314, 1402.583
510.1136, 1407.722
510.5957, 1403.210
511.0778, 1385.472
511.5599, 1370.529
512.0420, 1367.712
512.5241, 1370.900
513.0062, 1373.174
513.4883, 1373.491
513.9705, 1371.323
514.4526, 1365.990
514.9347, 1358.123
515.4168, 1351.014
515.8989, 1344.018
516.3810, 1338.839
516.8632, 1337.428
517.3453, 1336.568
517.8274, 1333.010
518.3095, 1326.996
518.7916, 1321.856
519.2737, 1321.254
519.7559, 1323.345
520.2380, 1320.982
520.7201, 1312.756
521.2022, 1307.005
521.6843, 1307.758
522.1664, 1312.516
522.6486, 1318.466
523.1307, 1326.937
523.6128, 1329.766
524.0949, 1318.210
524.5770, 1303.875
525.0591, 1299.713
525.5413, 1304.697
526.0234, 1309.085
526.5055, 1306.764
526.9876, 1299.933
527.4697, 1295.712
527.9518, 1295.670
528.4340, 1295.458
528.9161, 1295.271
529.3982, 1294.492
529.8803, 1292.138
530.3624, 1288.718
530.8445, 1286.294
531.3267, 1287.676
531.8088, 1289.336
532.2909, 1283.017
532.7730, 1268.899
533.2551, 1259.214
533.7372, 1259.482
534.2194, 1263.738
534.7015, 1263.806
535.1836, 1259.476
535.6657, 1253.427
536.1478, 1241.014
536.6299, 1231.436
537.1121, 1231.234
537.5942, 1238.376
538.0763, 1248.731
538.5584, 1260.511
539.0405, 1271.589
539.5226, 1278.007
540.0048, 1279.094
540.4869, 1278.310
540.9690, 1275.105
541.4511, 1270.725
541.9332, 1264.630
542.4153, 1258.006
542.8975, 1253.665
543.3796, 1253.834
543.8617, 1254.204
544.3438, 1249.150
544.8259, 1241.371
545.3080, 1239.825
545.7902, 1247.024
546.2723, 1254.595
546.7544, 1253.777
547.2365, 1244.155
547.7186, 1236.973
548.2007, 1231.703
548.6829, 1229.198
549.1650, 1232.090
549.6471, 1236.609
550.1292, 1238.542
550.6113, 1236.976
551.0934, 1234.145
551.5756, 1230.824
552.0577, 1227.729
552.5398, 1230.354
553.0219, 1240.795
553.5040, 1249.391
553.9861, 1250.564
554.4683, 1247.292
554.9504, 1245.842
555.4325, 1247.157
555.9146, 1247.420
556.3967, 1242.547
556.8788, 1238.074
557.3610, 1241.254
557.8431, 1250.699
558.3252, 1258.665
558.8073, 1260.299
559.2894, 1256.851
559.7715, 1251.175
560.2537, 1240.052
560.7358, 1234.629
561.2179, 1242.496
561.7000, 1251.091
562.1821, 1253.665
562.6642, 1250.982
563.1464, 1247.094
563.6285, 1243.526
564.1106, 1239.777
564.5927, 1234.198
565.0748, 1227.747
565.5569, 1224.510
566.0391, 1225.836
566.5212, 1229.712
567.0033, 1234.240
567.4854, 1239.841
567.9675, 1242.765
568.4496, 1242.035
568.9318, 1240.161
569.4139, 1234.022
569.8960, 1228.937
570.3781, 1233.380
570.8602, 1248.917
571.3423, 1265.173
571.8245, 1270.771
572.3066, 1267.791
572.7887, 1266.715
573.2708, 1268.301
573.7529, 1269.746
574.2350, 1269.247
574.7172, 1267.867
575.1993, 1268.022
575.6814, 1270.173
576.1635, 1272.481
576.6456, 1274.292
577.1277, 1276.274
577.6099, 1278.140
578.0920, 1280.612
578.5741, 1286.437
579.0562, 1297.747
579.5383, 1310.724
580.0204, 1314.397
580.5026, 1304.625
580.9847, 1304.782
581.4668, 1327.943
581.9489, 1349.826
582.4310, 1349.838
582.9131, 1335.572
583.3953, 1330.363
583.8774, 1345.108
584.3595, 1364.507
584.8417, 1380.007
585.3238, 1392.485
585.8059, 1401.320
586.2880, 1406.932
586.7701, 1417.475
587.2523, 1442.536
587.7344, 1480.869
588.2165, 1507.668
588.6986, 1511.625
589.1807, 1520.836
589.6628, 1540.824
590.1450, 1567.306
590.6271, 1596.428
591.1092, 1627.951
591.5913, 1664.967
592.0734, 1709.363
592.5555, 1760.354
593.0377, 1817.986
593.5198, 1882.017
594.0019, 1948.738
594.4840, 2015.930
594.9661, 2087.067
595.4482, 2167.427
595.9304, 2260.882
596.4125, 2351.493
596.8946, 2423.804
597.3767, 2510.917
597.8588, 2638.527
598.3409, 2784.107
598.8231, 2913.637
599.3052, 3016.405
599.7873, 3108.189
600.2694, 3210.716
600.7515, 3316.301
601.2336, 3396.808
601.7158, 3449.496
602.1979, 3484.254
602.6800, 3511.938
603.1621, 3522.134
603.6442, 3483.376
604.1263, 3382.361
604.6085, 3266.858
605.0906, 3136.964
605.5727, 2998.748
606.0548, 2845.059
606.5369, 2687.026
607.0190, 2546.317
607.5012, 2435.183
607.9833, 2344.182
608.4654, 2260.387
608.9475, 2184.060
609.4296, 2111.152
609.9117, 2038.631
610.3939, 1976.132
610.8760, 1933.320
611.3581, 1906.849
611.8402, 1880.863
612.3223, 1853.619
612.8044, 1828.925
613.2866, 1804.734
613.7687, 1785.529
614.2508, 1775.849
614.7329, 1775.863
615.2150, 1784.071
615.6971, 1800.713
616.1793, 1822.042
616.6614, 1837.570
617.1435, 1846.461
617.6256, 1853.845
618.1077, 1858.165
618.5898, 1864.469
619.0720, 1875.039
619.5541, 1890.568
620.0362, 1915.687
620.5183, 1956.638
621.0004, 2001.133
621.4825, 2040.325
621.9647, 2080.455
622.4468, 2132.328
622.9289, 2196.576
623.4110, 2262.495
623.8931, 2320.383
624.3752, 2372.488
624.8574, 2430.265
625.3395, 2492.388
625.8216, 2564.824
626.3037, 2656.841
626.7858, 2752.939
627.2679, 2839.065
627.7501, 2915.682
628.2322, 2991.262
628.7143, 3071.609
629.1964, 3148.437
629.6785, 3216.924
630.1606, 3278.438
630.6428, 3337.960
631.1249, 3396.042
631.6070, 3444.610
632.0891, 3475.816
632.5712, 3489.596
633.0533, 3483.357
633.5355, 3449.854
634.0176, 3413.208
634.4997, 3378.158
634.9818, 3344.758
635.4639, 3311.375
635.9460, 3278.422
636.4282, 3252.820
636.9103, 3226.542
637.3924, 3218.009
637.8745, 3245.846
638.3566, 3301.133
638.8387, 3366.880
639.3209, 3437.409
639.8030, 3513.404
640.2851, 3594.196
640.7672, 3680.301
641.2493, 3779.757
641.7314, 3895.602
642.2136, 4020.401
642.6957, 4159.758
643.1778, 4301.682
643.6599, 4441.648
644.1420, 4579.696
644.6241, 4689.332
645.1063, 4770.116
645.5884, 4811.992
646.0705, 4812.344
646.5526, 4767.070
647.0347, 4661.430
647.5168, 4492.888
647.9990, 4286.845
648.4811, 4071.172
648.9632, 3844.731
649.4453, 3608.231
649.9274, 3347.949
650.4095, 3106.939
650.8917, 2898.088
651.3738, 2718.777
