##NAMES=Montebrasite
##RRUFFID=R050500
##IDEAL CHEMISTRY=LiAlPO_4_(OH)
##LOCALITY=Pala, San Diego County, California, USA
##OWNER=RRUFF
##SOURCE=California Institute of Technology
##DESCRIPTION=White fragment
##STATUS=The identification of this mineral has been confirmed by X-ray diffraction and chemical analysis
##URL=rruff.info/R050500
##MEASURED CHEMISTRY=LiAl(PO_4_)((OH)_0.52_F_0.48_)
92.37695, 339.4183
92.85907, 338.3280
93.34119, 338.9084
93.82330, 338.2985
94.30542, 335.9952
94.78754, 332.1284
95.26965, 327.5099
95.75177, 323.6210
96.23389, 322.0401
96.71600, 320.8217
97.19812, 318.2245
97.68024, 313.8418
98.16235, 309.1457
98.64447, 306.3601
99.12659, 306.5606
99.60870, 304.9304
100.0908, 299.7804
100.5729, 293.9089
101.0551, 288.9142
101.5372, 289.5423
102.0193, 289.6460
102.5014, 289.2568
102.9835, 286.7180
103.4656, 287.0928
103.9478, 286.3842
104.4299, 285.6889
104.9120, 286.6458
105.3941, 284.7292
105.8762, 285.7812
106.3583, 285.7324
106.8405, 286.2750
107.3226, 285.7273
107.8047, 285.5951
108.2868, 284.8249
108.7689, 284.7617
109.2510, 284.9423
109.7332, 285.3775
110.2153, 285.8197
110.6974, 285.8694
111.1795, 285.9884
111.6616, 287.0472
112.1437, 289.5340
112.6259, 292.3203
113.1080, 294.3366
113.5901, 295.6360
114.0722, 296.3408
114.5543, 296.1995
115.0364, 295.2646
115.5185, 294.6675
116.0007, 294.8321
116.4828, 295.2932
116.9649, 295.6369
117.4470, 295.8250
117.9291, 296.3240
118.4112, 298.0544
118.8934, 302.0450
119.3755, 304.6717
119.8576, 304.4131
120.3397, 303.4573
120.8218, 303.5763
121.3039, 305.4785
121.7861, 308.5255
122.2682, 310.8921
122.7503, 311.8266
123.2324, 312.7908
123.7145, 314.1266
124.1966, 315.5132
124.6788, 316.3770
125.1609, 316.3201
125.6430, 315.5160
126.1251, 315.5031
126.6072, 316.8735
127.0893, 318.2380
127.5715, 319.1556
128.0536, 319.6092
128.5357, 319.6617
129.0178, 319.4249
129.4999, 318.7510
129.9821, 317.3255
130.4642, 314.7617
130.9463, 311.6266
131.4284, 308.5127
131.9105, 305.4935
132.3926, 302.2451
132.8748, 298.0685
133.3569, 293.4547
133.8390, 289.4341
134.3211, 286.6219
134.8032, 284.7722
135.2853, 283.0786
135.7674, 281.9221
136.2496, 280.3526
136.7317, 277.4989
137.2138, 273.8374
137.6959, 270.5687
138.1780, 268.7000
138.6601, 268.3511
139.1423, 268.1520
139.6244, 268.5164
140.1065, 268.6912
140.5886, 268.0627
141.0707, 266.8083
141.5528, 265.7215
142.0350, 265.8165
142.5171, 267.7277
142.9992, 269.2431
143.4813, 270.0605
143.9634, 270.7600
144.4455, 271.8554
144.9277, 273.4258
145.4098, 275.0210
145.8919, 275.8539
146.3740, 275.0925
146.8561, 275.1154
147.3382, 276.3001
147.8204, 278.2255
148.3025, 280.5179
148.7846, 283.1275
149.2667, 285.7663
149.7488, 287.7459
150.2309, 288.8922
150.7131, 290.1888
151.1952, 292.2807
151.6773, 294.8741
152.1594, 296.8795
152.6415, 297.4219
153.1236, 297.6696
153.6058, 299.5529
154.0879, 303.5939
154.5700, 307.6431
155.0521, 309.6420
155.5342, 309.4773
156.0163, 309.6812
156.4985, 311.5155
156.9806, 313.9899
157.4627, 316.3749
157.9448, 318.4951
158.4269, 320.5122
158.9090, 322.7648
159.3912, 325.5030
159.8733, 327.7910
160.3554, 329.3621
160.8375, 330.4707
161.3196, 331.2394
161.8017, 330.6643
162.2839, 333.1177
162.7660, 334.7476
163.2481, 335.5825
163.7302, 334.1329
164.2123, 334.9514
164.6944, 334.4441
165.1766, 333.5969
165.6587, 333.8836
166.1408, 331.2350
166.6229, 330.9038
167.1050, 329.2311
167.5871, 327.7386
168.0693, 324.9134
168.5514, 322.1916
169.0335, 318.9520
169.5156, 315.0289
169.9977, 310.4946
170.4798, 306.8993
170.9620, 304.5836
171.4441, 302.6559
171.9262, 300.8252
172.4083, 299.0664
172.8904, 297.3993
173.3725, 295.9733
173.8547, 294.6700
174.3368, 292.7285
174.8189, 289.4693
175.3010, 286.0331
175.7831, 283.4291
176.2652, 281.7084
176.7474, 280.1052
177.2295, 277.9115
177.7116, 275.4082
178.1937, 273.3610
178.6758, 272.2976
179.1579, 271.6435
179.6401, 270.5116
180.1222, 268.7787
180.6043, 266.9309
181.0864, 265.2230
181.5685, 263.6178
182.0506, 262.0801
182.5328, 260.5443
183.0149, 259.0704
183.4970, 257.8807
183.9791, 257.2353
184.4612, 256.4781
184.9433, 255.3122
185.4255, 253.8625
185.9076, 252.2961
186.3897, 250.5826
186.8718, 248.7930
187.3539, 247.7706
187.8360, 248.6374
188.3182, 249.1134
188.8003, 248.2806
189.2824, 246.5419
189.7645, 244.7811
190.2466, 243.7435
190.7287, 243.4717
191.2109, 242.7766
191.6930, 240.9976
192.1751, 239.4256
192.6572, 238.5794
193.1393, 238.3288
193.6214, 238.2564
194.1036, 238.0361
194.5857, 237.6903
195.0678, 236.9522
195.5499, 235.3348
196.0320, 233.8521
196.5141, 233.1933
196.9963, 233.2184
197.4784, 233.1219
197.9605, 232.0353
198.4426, 229.7263
198.9247, 228.5875
199.4068, 229.4256
199.8890, 230.6944
200.3711, 231.6056
200.8532, 232.0308
201.3353, 231.8613
201.8174, 230.7444
202.2995, 228.6254
202.7817, 227.3528
203.2638, 227.6353
203.7459, 228.4230
204.2280, 228.7359
204.7101, 228.4573
205.1922, 228.0463
205.6744, 227.9332
206.1565, 228.0521
206.6386, 228.0879
207.1207, 228.1419
207.6028, 228.0188
208.0849, 227.3004
208.5671, 225.7810
209.0492, 224.3214
209.5313, 223.6540
210.0134, 223.5544
210.4955, 223.6480
210.9776, 223.9152
211.4598, 224.2693
211.9419, 224.4783
212.4240, 224.4214
212.9061, 224.4743
213.3882, 225.2204
213.8703, 226.2184
214.3525, 226.5906
214.8346, 225.5025
215.3167, 223.4434
215.7988, 222.2934
216.2809, 222.6624
216.7630, 223.0293
217.2451, 222.5718
217.7273, 221.6723
218.2094, 221.0022
218.6915, 221.0070
219.1736, 221.5788
219.6557, 222.0881
220.1378, 222.5912
220.6200, 222.9368
221.1021, 223.0762
221.5842, 223.0408
222.0663, 222.8757
222.5484, 222.5997
223.0305, 222.2208
223.5127, 221.8169
223.9948, 221.5491
224.4769, 221.0719
224.9590, 219.9473
225.4411, 218.5943
225.9232, 217.7469
226.4054, 217.9438
226.8875, 219.0722
227.3696, 219.8145
227.8517, 220.2925
228.3338, 220.2272
228.8159, 218.9613
229.2981, 217.1382
229.7802, 215.9144
230.2623, 216.0910
230.7444, 217.5069
231.2265, 218.3161
231.7086, 217.8584
232.1908, 217.5658
232.6729, 218.0654
233.1550, 218.9847
233.6371, 219.5335
234.1192, 219.1866
234.6013, 218.0982
235.0835, 217.4268
235.5656, 217.6149
236.0477, 217.6466
236.5298, 216.8091
237.0119, 215.5750
237.4940, 215.0723
237.9762, 216.0594
238.4583, 218.1337
238.9404, 219.3801
239.4225, 219.6788
239.9046, 219.4864
240.3867, 218.5958
240.8689, 217.2939
241.3510, 216.3067
241.8331, 216.0303
242.3152, 216.2739
242.7973, 216.3987
243.2794, 216.0636
243.7616, 216.1428
244.2437, 217.5937
244.7258, 219.8626
245.2079, 221.1162
245.6900, 220.1991
246.1721, 218.3113
246.6543, 217.9496
247.1364, 219.5301
247.6185, 221.2930
248.1006, 222.3918
248.5827, 222.9554
249.0648, 223.4387
249.5470, 223.9364
250.0291, 224.4944
250.5112, 225.1216
250.9933, 225.7876
251.4754, 226.6631
251.9576, 228.0217
252.4397, 229.7264
252.9218, 231.2036
253.4039, 232.2375
253.8860, 233.0532
254.3681, 233.8871
254.8503, 234.7395
255.3324, 235.6206
255.8145, 236.5445
256.2966, 237.5038
256.7787, 238.4571
257.2608, 239.3798
257.7430, 240.3206
258.2251, 241.2003
258.7072, 242.0638
259.1893, 243.2119
259.6714, 244.9804
260.1535, 247.2517
260.6357, 249.4203
261.1178, 251.5332
261.5999, 253.3601
262.0820, 254.6944
262.5641, 255.6576
263.0462, 256.6219
263.5284, 257.9453
264.0105, 259.5191
264.4926, 260.6546
264.9747, 260.8700
265.4568, 261.3391
265.9389, 262.7309
266.4211, 264.7528
266.9032, 266.8203
267.3853, 268.6873
267.8674, 270.3164
268.3495, 271.5147
268.8316, 271.9805
269.3138, 272.4536
269.7959, 273.0995
270.2780, 273.9476
270.7601, 275.1369
271.2422, 276.9123
271.7243, 278.9040
272.2065, 279.7133
272.6886, 278.3189
273.1707, 277.4569
273.6528, 278.3752
274.1349, 279.9670
274.6170, 280.8570
275.0992, 280.3626
275.5813, 279.1474
276.0634, 278.8882
276.5455, 280.0637
277.0276, 281.3546
277.5097, 282.3769
277.9919, 283.4409
278.4740, 284.7496
278.9561, 286.3863
279.4382, 288.4610
279.9203, 291.2918
280.4024, 295.3092
280.8846, 299.1660
281.3667, 302.5182
281.8488, 305.8085
282.3309, 309.4116
282.8130, 313.3965
283.2951, 317.4676
283.7773, 321.2013
284.2594, 324.5448
284.7415, 327.6510
285.2236, 329.8461
285.7057, 332.3481
286.1878, 336.1253
286.6700, 341.1332
287.1521, 346.4557
287.6342, 351.0074
288.1163, 354.4296
288.5984, 358.3786
289.0805, 362.7117
289.5627, 367.6153
290.0448, 373.5557
290.5269, 380.2700
291.0090, 386.9131
291.4911, 392.7032
291.9732, 397.5598
292.4554, 402.4414
292.9375, 406.9630
293.4196, 411.9020
293.9017, 417.6976
294.3838, 424.1266
294.8659, 430.6909
295.3481, 437.0208
295.8302, 443.6467
296.3123, 449.5222
296.7944, 456.7157
297.2765, 463.4423
297.7586, 469.7407
298.2408, 475.3433
298.7229, 479.8835
299.2050, 483.1544
299.6871, 485.1705
300.1692, 485.9532
300.6513, 485.8229
301.1335, 483.7933
301.6156, 479.9790
302.0977, 474.1951
302.5798, 465.7572
303.0619, 454.4738
303.5440, 441.5675
304.0262, 429.4319
304.5083, 418.9949
304.9904, 408.0829
305.4725, 395.9427
305.9546, 383.8198
306.4367, 372.4173
306.9189, 362.0321
307.4010, 352.8342
307.8831, 345.2549
308.3652, 340.4063
308.8473, 334.2705
309.3294, 325.6420
309.8116, 316.8750
310.2937, 309.0807
310.7758, 302.5002
311.2579, 297.1746
311.7400, 293.3341
312.2221, 291.2381
312.7043, 288.5683
313.1864, 285.1308
313.6685, 281.3967
314.1506, 277.1010
314.6327, 272.6163
315.1148, 268.7412
315.5970, 266.1205
316.0791, 264.6596
316.5612, 263.0659
317.0433, 261.8586
317.5254, 259.9286
318.0075, 256.2775
318.4897, 251.9119
318.9718, 248.3498
319.4539, 246.3868
319.9360, 245.6053
320.4181, 244.6685
320.9002, 243.9061
321.3824, 242.5141
321.8645, 239.9151
322.3466, 236.9447
322.8287, 234.2514
323.3108, 232.1092
323.7929, 230.5916
324.2751, 229.9685
324.7572, 231.3336
325.2393, 231.4293
325.7214, 229.5080
326.2035, 227.0614
326.6856, 224.9789
327.1678, 223.4294
327.6499, 222.1513
328.1320, 220.8477
328.6141, 219.4593
329.0962, 218.3480
329.5783, 217.5362
330.0605, 216.9342
330.5426, 216.6211
331.0247, 216.4985
331.5068, 216.3810
331.9889, 216.1501
332.4710, 215.7962
332.9532, 215.1609
333.4353, 213.8214
333.9174, 212.6411
334.3995, 211.8147
334.8816, 211.2457
335.3637, 210.8308
335.8459, 210.5281
336.3280, 210.2580
336.8101, 209.7664
337.2922, 208.6516
337.7743, 207.9315
338.2564, 207.9193
338.7386, 208.1637
339.2206, 208.3067
339.7028, 208.2365
340.1849, 208.0189
340.6670, 207.7941
341.1491, 207.7471
341.6312, 207.2045
342.1133, 205.7301
342.5955, 204.1943
343.0776, 202.9046
343.5597, 201.9763
344.0418, 201.5479
344.5239, 201.8876
345.0060, 203.0728
345.4882, 203.6602
345.9703, 202.9182
346.4524, 202.2564
346.9345, 202.1279
347.4166, 202.3434
347.8987, 202.4845
348.3809, 202.2624
348.8630, 201.8316
349.3451, 201.8692
349.8272, 202.0025
350.3093, 203.5699
350.7914, 202.7318
351.2736, 204.0025
351.7557, 204.6887
352.2378, 204.8218
352.7199, 202.7451
353.2020, 203.5219
353.6841, 203.1551
354.1663, 202.7415
354.6484, 203.9198
355.1305, 202.1646
355.6126, 203.3177
356.0947, 203.3098
356.5768, 203.8333
357.0590, 203.2062
357.5411, 202.9345
358.0232, 203.8138
358.5053, 204.0557
358.9874, 203.2962
359.4695, 203.8535
359.9517, 202.0580
360.4338, 202.3271
360.9159, 202.7780
361.3980, 203.6313
361.8801, 204.2502
362.3622, 204.6533
362.8444, 204.7544
363.3265, 204.3092
363.8086, 203.6685
364.2907, 203.2050
364.7728, 203.0449
365.2549, 202.9861
365.7371, 202.6853
366.2192, 202.0805
366.7013, 201.8071
367.1834, 202.3412
367.6655, 202.9994
368.1476, 203.3677
368.6298, 203.4106
369.1119, 203.1189
369.5940, 202.1668
370.0761, 200.7811
370.5582, 200.1790
371.0403, 200.9050
371.5225, 201.6125
372.0046, 201.1624
372.4867, 199.9994
372.9688, 199.1450
373.4509, 199.2332
373.9330, 198.6108
374.4152, 199.7493
374.8973, 200.3060
375.3794, 200.3125
375.8615, 198.1120
376.3436, 198.7677
376.8257, 198.2827
377.3079, 197.7536
377.7900, 198.8193
378.2721, 196.9542
378.7542, 198.0002
379.2363, 197.8881
379.7184, 198.3101
380.2006, 197.5843
380.6827, 197.2167
381.1648, 198.0028
381.6469, 198.1545
382.1290, 197.3074
382.6111, 197.7800
383.0933, 195.9026
383.5754, 196.0925
384.0575, 197.1761
384.5396, 196.4008
385.0217, 196.9084
385.5038, 196.9312
385.9860, 194.7414
386.4681, 196.4073
386.9502, 196.4097
387.4323, 194.7041
387.9144, 196.2464
388.3965, 194.7822
388.8787, 194.3949
389.3608, 194.8187
389.8429, 194.4027
390.3250, 194.5061
390.8071, 194.9562
391.2892, 194.4829
391.7714, 194.5114
392.2535, 194.3541
392.7356, 194.1906
393.2177, 193.7876
393.6998, 193.0659
394.1819, 192.4891
394.6641, 191.7920
395.1462, 191.4559
395.6283, 192.0152
396.1104, 193.2130
396.5925, 194.2561
397.0746, 194.6020
397.5568, 194.4141
398.0389, 194.6274
398.5210, 195.8210
399.0031, 196.7213
399.4852, 197.0492
399.9673, 197.0805
400.4495, 196.9319
400.9316, 196.6987
401.4137, 196.7802
401.8958, 197.8827
402.3779, 200.5449
402.8600, 202.7688
403.3422, 204.1669
403.8243, 205.5475
404.3064, 207.1178
404.7885, 209.0126
405.2706, 211.4675
405.7527, 214.7268
406.2349, 218.6892
406.7170, 222.3986
407.1991, 225.6325
407.6812, 228.8910
408.1633, 232.6076
408.6454, 236.2737
409.1276, 239.2182
409.6097, 241.1771
410.0918, 242.7614
410.5739, 245.0064
411.0560, 248.1215
411.5381, 250.7145
412.0203, 251.5957
412.5024, 252.7217
412.9845, 255.1791
413.4666, 258.9202
413.9487, 263.3498
414.4308, 268.4686
414.9130, 273.9842
415.3951, 278.6063
415.8772, 281.8413
416.3593, 285.3963
416.8414, 290.4201
417.3235, 296.2759
417.8057, 302.1312
418.2878, 307.6290
418.7699, 313.4026
419.2520, 320.2393
419.7341, 328.0453
420.2162, 335.8991
420.6984, 343.3580
421.1805, 350.9396
421.6626, 359.7261
422.1447, 369.8412
422.6268, 378.5027
423.1089, 385.1180
423.5911, 389.5341
424.0732, 391.6561
424.5553, 391.4695
425.0374, 388.6884
425.5195, 382.9925
426.0016, 374.2443
426.4838, 363.4136
426.9659, 349.5468
427.4480, 334.7056
427.9301, 319.0220
428.4122, 303.1198
428.8943, 288.2135
429.3765, 274.6531
429.8586, 262.6606
430.3407, 252.7078
430.8228, 245.6281
431.3049, 239.0342
431.7870, 232.7934
432.2692, 227.1538
432.7513, 222.3168
433.2334, 218.2899
433.7155, 214.9644
434.1976, 212.3481
434.6797, 210.3859
435.1619, 208.2053
435.6440, 205.1619
436.1261, 202.6425
436.6082, 201.2212
437.0903, 200.2990
437.5724, 199.0608
438.0546, 197.2522
438.5367, 195.4399
439.0188, 194.6693
439.5009, 195.4665
439.9830, 195.5997
440.4651, 194.1044
440.9473, 192.7447
441.4294, 192.5368
441.9115, 193.1846
442.3936, 193.7215
442.8757, 193.5059
443.3578, 192.7074
443.8400, 191.7684
444.3221, 190.3758
444.8042, 189.6335
445.2863, 190.9169
445.7684, 192.5102
446.2505, 192.5548
446.7327, 190.5788
447.2148, 188.5370
447.6969, 188.4487
448.1790, 189.9158
448.6611, 190.6667
449.1432, 190.1626
449.6254, 189.2712
450.1075, 188.4879
450.5896, 187.8779
451.0717, 187.7527
451.5538, 188.5047
452.0359, 189.5574
452.5181, 190.5237
453.0002, 191.3613
453.4823, 191.6753
453.9644, 191.0273
454.4465, 190.0570
454.9286, 190.3795
455.4108, 192.4487
455.8929, 194.1460
456.3750, 194.8724
456.8571, 195.0518
457.3392, 194.9434
457.8214, 194.6636
458.3035, 194.6608
458.7856, 195.4107
459.2677, 196.9280
459.7498, 197.9626
460.2319, 198.0050
460.7141, 198.2328
461.1962, 199.2796
461.6783, 200.6191
462.1604, 201.3065
462.6425, 201.0157
463.1246, 200.5490
463.6068, 201.3824
464.0889, 204.2033
464.5710, 206.4953
465.0531, 208.1376
465.5352, 209.3991
466.0173, 210.2088
466.4995, 210.7360
466.9816, 211.3121
467.4637, 212.1182
467.9458, 213.1700
468.4279, 214.5449
468.9100, 216.3322
469.3922, 218.2293
469.8743, 220.3560
470.3564, 222.4412
470.8385, 224.1911
471.3206, 225.5691
471.8027, 226.9296
472.2849, 228.5574
472.7670, 230.3975
473.2491, 232.3215
473.7312, 234.4817
474.2133, 236.2342
474.6954, 236.4527
475.1776, 235.9425
475.6597, 236.6831
476.1418, 240.0265
476.6239, 243.4095
477.1060, 244.8699
477.5881, 244.9066
478.0703, 245.0078
478.5524, 245.6578
479.0345, 246.5700
479.5166, 247.4155
479.9987, 248.2836
480.4808, 248.6028
480.9630, 247.9026
481.4451, 247.0104
481.9272, 246.5623
482.4093, 246.4427
482.8914, 246.1204
483.3735, 245.2518
483.8557, 244.0122
484.3378, 243.0355
484.8199, 242.8184
485.3020, 242.1404
485.7841, 240.4496
486.2662, 238.6525
486.7484, 237.5431
487.2305, 237.1304
487.7126, 236.8218
488.1947, 236.1180
488.6768, 235.0229
489.1589, 233.6020
489.6411, 231.5307
490.1232, 229.6436
490.6053, 228.3339
491.0874, 227.2570
491.5695, 226.0637
492.0516, 224.6658
492.5338, 223.0701
493.0159, 221.1769
493.4980, 219.0316
493.9801, 217.1520
494.4622, 215.7739
494.9443, 214.3705
495.4265, 212.1446
495.9086, 209.4995
496.3907, 207.6949
496.8728, 208.0269
497.3549, 208.4266
497.8370, 206.9460
498.3192, 204.0183
498.8013, 201.1972
499.2834, 199.0347
499.7655, 197.3614
500.2476, 195.9178
500.7297, 194.7197
501.2119, 193.7062
501.6940, 193.1151
502.1761, 192.5098
502.6582, 191.5649
503.1403, 190.3218
503.6224, 188.9646
504.1045, 187.5901
504.5866, 186.2362
505.0688, 185.0260
505.5509, 183.9223
506.0330, 183.0393
506.5151, 182.6917
506.9972, 182.3144
507.4793, 181.3558
507.9615, 179.8823
508.4436, 178.4848
508.9257, 177.6918
509.4078, 177.3995
509.8899, 176.9504
510.3720, 176.1104
510.8542, 175.6279
511.3363, 176.5215
511.8184, 177.5233
512.3005, 177.0777
512.7827, 174.7683
513.2648, 172.5859
513.7469, 172.3670
514.2290, 173.4412
514.7111, 173.8907
515.1932, 173.4680
515.6754, 172.4326
516.1575, 170.7220
516.6396, 168.5172
517.1217, 166.6992
517.6038, 164.8433
518.0859, 163.9133
518.5681, 165.3588
519.0502, 167.7634
519.5323, 168.4148
520.0144, 166.5813
520.4965, 164.1901
520.9786, 163.7146
521.4608, 165.6915
521.9429, 166.2891
522.4250, 164.1738
522.9071, 162.3633
523.3892, 162.1991
523.8713, 162.9626
524.3535, 163.5075
524.8356, 163.3604
525.3177, 162.8438
525.7998, 162.3926
526.2819, 160.8003
526.7640, 162.0299
527.2462, 162.6749
527.7283, 162.7669
528.2104, 160.6492
528.6925, 161.3848
529.1746, 160.9770
529.6567, 160.5222
530.1389, 161.6595
530.6210, 159.8631
531.1031, 160.9751
531.5852, 160.9262
532.0673, 161.4086
532.5494, 160.7404
533.0316, 160.4276
533.5137, 161.2657
533.9958, 161.4666
534.4779, 160.6659
534.9600, 161.1821
535.4421, 159.3456
535.9243, 159.5735
536.4064, 160.6923
536.8885, 159.9495
537.3706, 160.4867
537.8527, 160.5364
538.3348, 158.3707
538.8170, 160.0578
539.2991, 160.0788
539.7812, 158.3888
540.2633, 159.9439
540.7454, 158.4898
541.2275, 158.1099
541.7097, 158.5382
542.1918, 158.1239
542.6739, 159.0381
543.1560, 158.6725
543.6381, 158.1925
544.1202, 158.9409
544.6024, 159.8635
545.0845, 159.7486
545.5666, 158.7028
546.0487, 157.6123
546.5308, 156.6900
547.0129, 156.1317
547.4951, 156.5051
547.9772, 157.7798
548.4593, 158.7417
548.9414, 158.8230
549.4235, 158.3950
549.9056, 158.0530
550.3878, 157.7754
550.8699, 157.6458
551.3520, 157.9097
551.8341, 158.1538
552.3162, 157.8914
552.7983, 157.2629
553.2805, 156.8704
553.7626, 157.0859
554.2447, 157.6794
554.7268, 157.9797
555.2089, 157.8126
555.6910, 157.6486
556.1732, 157.6840
556.6553, 157.5696
557.1374, 156.8123
557.6195, 155.6783
558.1016, 155.0328
558.5837, 155.5659
559.0659, 156.7151
559.5480, 157.0211
560.0301, 156.2741
560.5122, 155.9707
560.9943, 157.0143
561.4764, 158.1941
561.9586, 158.1440
562.4407, 156.9568
562.9228, 156.1159
563.4049, 156.4418
563.8870, 157.1907
564.3691, 157.5956
564.8513, 157.6930
565.3334, 157.8541
565.8155, 158.2913
566.2976, 158.7455
566.7797, 158.6890
567.2618, 157.7396
567.7440, 157.1658
568.2261, 157.1514
568.7082, 157.3431
569.1903, 157.6340
569.6724, 157.9568
570.1545, 158.2121
570.6367, 158.3403
571.1188, 158.4173
571.6009, 158.7137
572.0830, 159.4630
572.5651, 159.5173
573.0472, 158.0579
573.5294, 156.5493
574.0115, 155.5841
574.4936, 155.1960
574.9757, 155.4598
575.4578, 156.8277
575.9399, 158.2822
576.4221, 158.3690
576.9042, 157.3722
577.3863, 156.9317
577.8684, 157.5535
578.3505, 158.7700
578.8326, 160.2694
579.3148, 162.0995
579.7969, 163.0661
580.2790, 162.1717
580.7611, 161.4111
581.2432, 161.8998
581.7253, 163.1315
582.2075, 164.3033
582.6896, 165.1105
583.1717, 165.5959
583.6538, 165.7257
584.1359, 165.3914
584.6180, 165.4753
585.1002, 166.1059
585.5823, 167.0398
586.0643, 168.1828
586.5464, 169.5760
587.0286, 171.4870
587.5107, 174.0658
587.9928, 176.2793
588.4749, 176.8460
588.9570, 176.1822
589.4391, 175.8631
