##NAMES=Monticellite
##RRUFFID=R100106
##IDEAL CHEMISTRY=CaMgSiO_4_
##LOCALITY=Crestmore, Riverside County, California, USA
##OWNER=RRUFF
##SOURCE=American Museum of Natural History
##DESCRIPTION=Colorless to light gray translucent crystals associated with pale yellow vesuvianite
##STATUS=The identification of this mineral is confirmed by single-crystal X-ray diffraction and chemical analysis.
##URL=rruff.info/R100106
##MEASURED CHEMISTRY=(Ca_1.017_Mg_0.916_Fe^+2^_0.070_Mn^+2^_0.006_Zn_0.001_)_Î£=2.010_Si_0.995_O_4_
91.53320, 505.6793
92.01532, 512.0476
92.49744, 513.1359
92.97955, 514.1363
93.46167, 510.8875
93.94379, 503.4890
94.42590, 495.6426
94.90802, 487.0796
95.39014, 475.9688
95.87225, 461.8412
96.35437, 447.6339
96.83649, 434.8217
97.31860, 422.8504
97.80072, 410.9672
98.28284, 397.9918
98.76495, 384.1472
99.24707, 372.8665
99.72919, 365.7073
100.2113, 359.4565
100.6934, 353.4915
101.1755, 347.6638
101.6577, 342.0302
102.1398, 336.6059
102.6219, 331.5001
103.1040, 325.9984
103.5861, 319.5258
104.0682, 313.1362
104.5504, 306.9775
105.0325, 301.2323
105.5146, 296.4727
105.9967, 293.7687
106.4788, 294.4031
106.9609, 293.6700
107.4431, 291.2046
107.9252, 287.2426
108.4073, 281.6983
108.8894, 274.0894
109.3715, 265.9069
109.8536, 259.8245
110.3358, 255.9147
110.8179, 252.7031
111.3000, 249.3743
111.7821, 245.9897
112.2642, 243.2386
112.7463, 242.1666
113.2285, 241.3863
113.7106, 239.4150
114.1927, 235.8023
114.6748, 231.5451
115.1569, 227.9282
115.6390, 224.8962
116.1212, 222.6523
116.6033, 221.5618
117.0854, 221.0210
117.5675, 220.4189
118.0496, 219.4136
118.5317, 218.1706
119.0139, 217.5193
119.4960, 218.5856
119.9781, 219.0516
120.4602, 217.5688
120.9423, 215.2038
121.4244, 213.9843
121.9066, 215.6963
122.3887, 220.7193
122.8708, 223.2054
123.3529, 222.2122
123.8350, 220.2249
124.3171, 217.8064
124.7993, 215.2445
125.2814, 213.1981
125.7635, 212.3780
126.2456, 213.0942
126.7277, 213.9355
127.2098, 215.1492
127.6920, 216.3589
128.1741, 217.3501
128.6562, 218.1670
129.1383, 218.3174
129.6204, 216.4345
130.1025, 212.7432
130.5847, 209.9599
131.0668, 209.8289
131.5489, 211.6146
132.0310, 212.8268
132.5131, 213.1460
132.9952, 212.3873
133.4774, 210.1162
133.9595, 206.3680
134.4416, 202.8234
134.9237, 201.1833
135.4058, 201.7337
135.8879, 202.1689
136.3701, 202.1397
136.8522, 201.8199
137.3343, 201.0725
137.8164, 199.8973
138.2985, 198.7770
138.7806, 198.6254
139.2628, 200.2630
139.7449, 201.3968
140.2270, 201.3102
140.7091, 200.9360
141.1912, 201.1670
141.6733, 202.4018
142.1555, 204.3268
142.6376, 205.8522
143.1197, 206.7297
143.6018, 207.4423
144.0839, 208.0786
144.5660, 208.5722
145.0482, 208.8717
145.5303, 208.9873
146.0124, 208.8425
146.4945, 207.8550
146.9766, 205.9429
147.4587, 203.5045
147.9409, 200.5605
148.4230, 197.1760
148.9051, 193.5636
149.3872, 189.6734
149.8693, 185.6765
150.3514, 182.2356
150.8336, 178.6017
151.3157, 175.9962
151.7978, 176.1570
152.2799, 179.5023
152.7620, 182.8439
153.2441, 183.5811
153.7263, 182.6553
154.2084, 181.4007
154.6905, 179.6792
155.1726, 178.0031
155.6547, 177.6673
156.1368, 179.3465
156.6190, 181.2049
157.1011, 182.3163
157.5832, 182.8627
158.0653, 183.1782
158.5474, 183.3260
159.0295, 183.3436
159.5117, 183.7400
159.9938, 184.8014
160.4759, 186.0081
160.9580, 187.1716
161.4401, 188.3149
161.9222, 189.5226
162.4044, 190.8243
162.8865, 192.1748
163.3686, 193.9674
163.8507, 197.2325
164.3328, 200.0512
164.8149, 201.7706
165.2971, 202.2529
165.7792, 201.5039
166.2613, 199.4123
166.7434, 195.3379
167.2255, 191.7121
167.7076, 187.9196
168.1898, 184.8750
168.6719, 183.5101
169.1540, 183.9170
169.6361, 185.1299
170.1182, 185.7689
170.6003, 185.3347
171.0825, 185.6605
171.5646, 187.5298
172.0467, 189.9284
172.5288, 192.0892
173.0109, 193.9406
173.4930, 194.6838
173.9752, 192.3959
174.4573, 186.9582
174.9394, 181.1390
175.4215, 175.1479
175.9036, 169.3312
176.3857, 164.6089
176.8679, 161.4493
177.3500, 159.1326
177.8321, 156.6410
178.3142, 153.9353
178.7963, 151.3507
179.2784, 148.7319
179.7606, 146.1891
180.2427, 144.9112
180.7248, 146.2098
181.2069, 148.0810
181.6890, 148.7709
182.1711, 148.1293
182.6533, 146.9340
183.1354, 145.6855
183.6175, 144.3018
184.0996, 143.5197
184.5817, 144.6158
185.0638, 145.6979
185.5460, 145.3512
186.0281, 143.3184
186.5102, 140.9094
186.9923, 140.2753
187.4744, 142.6541
187.9565, 143.4497
188.4387, 140.4473
188.9208, 136.8612
189.4029, 135.0928
189.8850, 135.8402
190.3671, 137.9641
190.8492, 139.3372
191.3314, 139.5000
191.8135, 139.5558
192.2956, 139.4139
192.7777, 139.2872
193.2598, 139.4528
193.7419, 140.0054
194.2241, 140.6939
194.7062, 140.9122
195.1883, 140.0087
195.6704, 139.3566
196.1525, 138.9875
196.6346, 138.8850
197.1168, 139.1574
197.5989, 139.8759
198.0810, 140.7552
198.5631, 140.9296
199.0452, 139.6575
199.5273, 138.7083
200.0095, 138.3849
200.4916, 138.5601
200.9737, 139.0822
201.4558, 139.9398
201.9379, 141.0031
202.4200, 141.9332
202.9022, 142.8108
203.3843, 143.4717
203.8664, 143.8569
204.3485, 143.9807
204.8306, 143.7925
205.3127, 143.0775
205.7949, 142.2610
206.2770, 142.3106
206.7591, 143.6442
207.2412, 144.8646
207.7233, 144.9560
208.2054, 144.1101
208.6876, 143.5114
209.1697, 143.6794
209.6518, 144.3432
210.1339, 145.0965
210.6160, 146.0146
211.0981, 146.7553
211.5803, 146.8724
212.0624, 146.3632
212.5445, 146.0739
213.0266, 146.2450
213.5087, 146.8472
213.9908, 147.9510
214.4730, 149.6290
214.9551, 151.4512
215.4372, 153.0338
215.9193, 154.4184
216.4014, 155.3429
216.8836, 155.7217
217.3657, 155.5904
217.8478, 154.6805
218.3299, 152.9118
218.8120, 151.0352
219.2941, 150.3959
219.7763, 151.7407
220.2584, 151.8082
220.7405, 148.5332
221.2226, 144.7630
221.7047, 142.3697
222.1868, 141.8680
222.6690, 142.6247
223.1511, 143.7724
223.6332, 145.5930
224.1153, 147.1731
224.5974, 148.8233
225.0795, 150.0094
225.5617, 149.9895
226.0438, 148.6660
226.5259, 146.9942
227.0080, 146.7324
227.4901, 149.0359
227.9722, 150.6848
228.4544, 151.3609
228.9365, 151.5744
229.4186, 151.6677
229.9007, 151.7522
230.3828, 151.7608
230.8649, 151.5161
231.3471, 150.2281
231.8292, 150.0574
232.3113, 152.1667
232.7934, 154.6171
233.2755, 155.7233
233.7576, 155.0498
234.2398, 153.4689
234.7219, 152.3929
235.2040, 151.8890
235.6861, 151.9048
236.1682, 153.1100
236.6503, 154.4637
237.1325, 154.5724
237.6146, 153.1559
238.0967, 151.7893
238.5788, 153.0121
239.0609, 158.6268
239.5430, 162.6924
240.0252, 164.1410
240.5073, 164.3761
240.9894, 164.6366
241.4715, 165.2238
241.9536, 165.9953
242.4357, 166.9232
242.9179, 168.2415
243.4000, 168.5512
243.8821, 165.8759
244.3642, 162.9763
244.8463, 163.4196
245.3284, 168.0453
245.8106, 173.7275
246.2927, 176.7736
246.7748, 177.1083
247.2569, 177.3560
247.7390, 177.8140
248.2211, 178.4173
248.7033, 179.0360
249.1854, 179.6282
249.6675, 180.4224
250.1496, 181.6827
250.6317, 183.3737
251.1138, 185.3368
251.5960, 188.0038
252.0781, 190.7384
252.5602, 192.5437
253.0423, 193.1644
253.5244, 193.7520
254.0065, 195.1100
254.4887, 197.1744
254.9708, 200.0215
255.4529, 203.9254
255.9350, 208.5216
256.4171, 213.6414
256.8992, 219.5580
257.3813, 224.7152
257.8635, 228.1335
258.3456, 230.0196
258.8277, 230.3653
259.3098, 229.5697
259.7919, 226.9782
260.2740, 221.1271
260.7562, 211.4197
261.2383, 201.0418
261.7204, 190.5997
262.2025, 180.8389
262.6846, 172.8542
263.1667, 167.2414
263.6489, 163.1997
264.1310, 159.6563
264.6131, 156.6107
265.0952, 154.0691
265.5773, 152.2490
266.0594, 150.8765
266.5416, 149.8152
267.0237, 149.1210
267.5058, 148.4821
267.9879, 147.3514
268.4700, 145.5584
268.9521, 144.0845
269.4343, 143.6241
269.9164, 143.4367
270.3985, 142.9783
270.8806, 142.1089
271.3627, 141.0642
271.8448, 140.0612
272.3270, 139.0517
272.8091, 138.3138
273.2912, 138.1009
273.7733, 138.0742
274.2554, 138.0730
274.7375, 138.0630
275.2197, 138.0327
275.7018, 138.0704
276.1839, 138.2567
276.6660, 137.9814
277.1481, 136.5987
277.6302, 135.1199
278.1124, 133.9523
278.5945, 133.1627
279.0766, 132.7257
279.5587, 132.7853
280.0408, 133.4417
280.5229, 133.6979
281.0051, 133.4804
281.4872, 132.8329
281.9693, 131.2086
282.4514, 129.0123
282.9335, 127.4499
283.4156, 127.8460
283.8978, 130.2570
284.3799, 131.9434
284.8620, 132.6227
285.3441, 132.7631
285.8262, 132.3299
286.3083, 131.4836
286.7905, 130.4252
287.2726, 129.0782
287.7547, 127.5981
288.2368, 127.6498
288.7189, 131.3322
289.2010, 134.0670
289.6832, 134.3552
290.1653, 132.9883
290.6474, 131.0231
291.1295, 128.9042
291.6116, 126.9149
292.0938, 126.3142
292.5759, 128.1980
293.0580, 129.9946
293.5401, 131.0638
294.0222, 131.8315
294.5043, 132.8318
294.9865, 134.3154
295.4686, 136.0030
295.9507, 137.2587
296.4328, 138.1913
296.9149, 138.4012
297.3970, 136.8503
297.8792, 135.2181
298.3613, 135.2398
298.8434, 137.3598
299.3255, 140.2707
299.8076, 141.6518
300.2897, 140.3697
300.7719, 140.1370
301.2540, 141.8242
301.7361, 143.9326
302.2182, 145.5731
302.7003, 146.5795
303.1824, 147.3233
303.6646, 148.2787
304.1467, 149.5723
304.6288, 150.5973
305.1109, 151.3035
305.5930, 151.8120
306.0751, 152.0493
306.5573, 152.1012
307.0394, 152.2682
307.5215, 153.0475
308.0036, 154.6007
308.4857, 154.3569
308.9678, 150.4740
309.4500, 146.5203
309.9321, 143.4299
310.4142, 141.0420
310.8963, 138.8079
311.3784, 136.3167
311.8605, 133.6535
312.3427, 131.5329
312.8248, 130.1707
313.3069, 129.1520
313.7890, 128.5207
314.2711, 128.1400
314.7532, 127.9048
315.2354, 127.7794
315.7175, 127.6453
316.1996, 127.1340
316.6817, 125.8714
317.1638, 124.8139
317.6459, 123.9120
318.1281, 123.3141
318.6102, 123.3168
319.0923, 123.9680
319.5744, 124.8023
320.0565, 125.0217
320.5386, 124.3375
321.0208, 123.6822
321.5029, 122.7457
321.9850, 122.0971
322.4671, 122.1923
322.9492, 123.0217
323.4313, 124.1621
323.9135, 125.2440
324.3956, 126.3401
324.8777, 126.9761
325.3598, 126.5501
325.8419, 126.2211
326.3240, 126.4390
326.8062, 127.1451
327.2883, 128.0788
327.7704, 129.1143
328.2525, 130.2240
328.7346, 130.9243
329.2167, 130.3333
329.6989, 130.3598
330.1810, 132.2177
330.6631, 134.8125
331.1452, 136.4216
331.6273, 136.0360
332.1094, 134.3576
332.5916, 133.5880
333.0737, 134.2697
333.5558, 134.9856
334.0379, 136.4084
334.5200, 137.2905
335.0021, 135.9726
335.4843, 131.9936
335.9664, 127.2004
336.4485, 124.8455
336.9306, 126.1068
337.4127, 126.2656
337.8948, 123.7525
338.3770, 120.9063
338.8591, 119.1441
339.3412, 118.5385
339.8233, 118.2071
340.3055, 117.0250
340.7876, 114.8026
341.2697, 113.7079
341.7518, 114.6775
342.2339, 115.9518
342.7160, 117.3165
343.1982, 118.4621
343.6803, 118.7835
344.1624, 117.6403
344.6445, 115.3815
345.1266, 113.7539
345.6087, 112.9449
346.0909, 112.5235
346.5730, 112.4211
347.0551, 112.5224
347.5372, 112.6671
348.0193, 112.7744
348.5014, 112.9551
348.9836, 113.6520
349.4657, 115.3158
349.9478, 115.9554
350.4299, 113.5751
350.9120, 110.8761
351.3941, 110.1308
351.8763, 111.7211
352.3584, 113.6804
352.8405, 113.8139
353.3226, 112.0601
353.8047, 110.7269
354.2868, 110.1135
354.7690, 110.0392
355.2511, 110.6508
355.7332, 111.7579
356.2153, 112.6217
356.6974, 112.7008
357.1795, 112.1419
357.6617, 111.4452
358.1438, 110.4585
358.6259, 109.6771
359.1080, 109.3776
359.5901, 109.4503
360.0722, 109.8003
360.5544, 110.6088
361.0365, 111.4297
361.5186, 111.4047
362.0007, 110.3639
362.4828, 109.8496
362.9649, 110.9951
363.4471, 112.7211
363.9292, 113.7958
364.4113, 114.0155
364.8934, 113.9496
365.3755, 114.0335
365.8576, 114.2160
366.3398, 114.1943
366.8219, 113.8266
367.3040, 113.3363
367.7861, 112.8053
368.2682, 112.2575
368.7503, 112.1564
369.2325, 112.9989
369.7146, 114.3160
370.1967, 115.2833
370.6788, 115.7922
371.1609, 116.2064
371.6430, 116.8683
372.1252, 117.6600
372.6073, 118.1717
373.0894, 117.9598
373.5715, 117.7591
374.0536, 118.1881
374.5357, 119.1704
375.0179, 120.2966
375.5000, 121.4218
375.9821, 122.5083
376.4642, 123.5210
376.9463, 124.5837
377.4284, 125.3144
377.9106, 125.1504
378.3927, 124.6496
378.8748, 124.8369
379.3569, 126.0207
379.8390, 127.6490
380.3211, 129.0667
380.8033, 130.2348
381.2854, 131.3900
381.7675, 132.4686
382.2496, 133.5889
382.7317, 134.5959
383.2138, 135.6115
383.6960, 137.3564
384.1781, 140.5410
384.6602, 145.0201
385.1423, 148.7945
385.6244, 151.6753
386.1065, 154.2178
386.5887, 156.2905
387.0708, 158.1877
387.5529, 160.4831
388.0350, 163.4507
388.5171, 166.6983
388.9992, 169.3574
389.4814, 170.5854
389.9635, 172.5205
390.4456, 175.3748
390.9277, 178.7819
391.4098, 182.7672
391.8919, 187.1438
392.3741, 191.2738
392.8562, 194.4185
393.3383, 196.4289
393.8204, 198.6889
394.3025, 201.4913
394.7846, 204.2268
395.2668, 206.3313
395.7489, 208.2640
396.2310, 210.8207
396.7131, 214.4626
397.1952, 219.0937
397.6773, 224.5526
398.1595, 232.2251
398.6416, 238.3775
399.1237, 241.1655
399.6058, 243.2610
400.0879, 247.3277
400.5700, 253.8250
401.0522, 260.6114
401.5343, 265.0108
402.0164, 266.5914
402.4985, 268.2077
402.9806, 270.3646
403.4627, 272.1431
403.9449, 272.8884
404.4270, 272.9103
404.9091, 273.0961
405.3912, 274.3237
405.8733, 275.9471
406.3554, 275.7448
406.8376, 272.9838
407.3197, 270.2065
407.8018, 269.6119
408.2839, 268.9854
408.7660, 265.7293
409.2481, 258.9116
409.7303, 251.0371
410.2124, 244.7875
410.6945, 240.0156
411.1766, 234.1468
411.6587, 226.1293
412.1408, 217.4367
412.6230, 209.1546
413.1051, 201.3252
413.5872, 194.4011
414.0693, 189.3222
414.5514, 184.9794
415.0335, 179.5439
415.5157, 172.8295
415.9978, 165.9349
416.4799, 159.3259
416.9620, 153.1384
417.4441, 147.6335
417.9262, 142.9631
418.4084, 138.7795
418.8905, 134.8434
419.3726, 131.2500
419.8547, 128.4150
420.3368, 126.6121
420.8189, 125.1717
421.3011, 122.9583
421.7832, 119.7222
422.2653, 116.8369
422.7474, 114.2783
423.2295, 112.2461
423.7116, 111.0821
424.1938, 110.7093
424.6759, 110.5641
425.1580, 110.2512
425.6401, 109.7681
426.1222, 109.0434
426.6043, 108.0089
427.0865, 106.8537
427.5686, 105.2821
428.0507, 103.7193
428.5328, 102.7047
429.0149, 102.4473
429.4970, 102.8523
429.9792, 103.9447
430.4613, 106.9727
430.9434, 107.8511
431.4255, 104.9264
431.9076, 101.7007
432.3897, 100.0142
432.8719, 99.84220
433.3540, 100.3099
433.8361, 100.8315
434.3182, 101.3759
434.8003, 101.7397
435.2824, 102.0575
435.7646, 101.9436
436.2467, 101.2904
436.7288, 100.2297
437.2109, 98.59092
437.6930, 96.30272
438.1751, 94.43555
438.6573, 94.72969
439.1394, 97.39363
439.6215, 99.32069
440.1036, 100.0610
440.5857, 99.94621
441.0678, 98.86136
441.5500, 97.09002
442.0321, 95.65321
442.5142, 95.46122
442.9963, 95.76907
443.4784, 94.90426
443.9605, 92.62988
444.4427, 91.07763
444.9248, 91.90102
445.4069, 93.83250
445.8890, 94.51778
446.3711, 93.35849
446.8532, 92.36900
447.3354, 92.87135
447.8175, 94.32065
448.2996, 95.66563
448.7817, 96.72887
449.2638, 97.29930
449.7459, 97.01192
450.2281, 95.79994
450.7102, 94.72115
451.1923, 93.65517
451.6744, 92.87207
452.1565, 92.61642
452.6386, 92.80033
453.1208, 93.16130
453.6029, 93.57034
454.0850, 94.04527
454.5671, 94.64204
455.0492, 95.97311
455.5313, 96.55118
456.0135, 95.75721
456.4956, 94.61141
456.9777, 93.86900
457.4598, 93.65562
457.9419, 93.71962
458.4240, 93.83501
458.9062, 94.00143
459.3883, 94.26997
459.8704, 94.85749
460.3525, 95.30185
460.8346, 95.57286
461.3167, 95.61971
461.7989, 95.27486
462.2810, 94.46364
462.7631, 93.60082
463.2452, 93.36028
463.7273, 93.83510
464.2094, 94.40271
464.6916, 95.44459
465.1737, 96.09596
465.6558, 95.58799
466.1379, 94.20204
466.6200, 92.97663
467.1021, 92.44966
467.5843, 92.46132
468.0664, 92.80575
468.5485, 93.54285
469.0306, 94.20325
469.5127, 94.69820
469.9948, 94.90017
470.4770, 94.56676
470.9591, 93.52367
471.4412, 92.57728
471.9233, 92.01550
472.4054, 91.85012
472.8875, 92.45617
473.3697, 93.98087
473.8518, 94.96202
474.3339, 93.79783
474.8160, 90.50567
475.2981, 88.29110
475.7802, 87.66370
476.2624, 87.54722
476.7445, 87.64725
477.2266, 87.88187
477.7087, 88.15459
478.1908, 88.42965
478.6729, 88.68891
479.1551, 88.88134
479.6372, 88.86968
480.1193, 89.13231
480.6014, 90.16113
481.0835, 90.98910
481.5656, 90.82042
482.0478, 89.96153
482.5299, 89.30952
483.0120, 89.45945
483.4941, 90.24982
483.9762, 91.13900
484.4583, 92.39074
484.9405, 93.18285
485.4226, 93.23814
485.9047, 92.89942
486.3868, 92.21711
486.8689, 91.27879
487.3510, 90.58493
487.8332, 90.75091
488.3153, 91.57233
488.7974, 92.02490
489.2795, 91.96399
489.7616, 91.79820
490.2437, 91.68546
490.7259, 91.64907
491.2080, 91.76511
491.6901, 92.14233
492.1722, 92.48354
492.6543, 92.67895
493.1364, 92.67228
493.6186, 92.24852
494.1007, 91.30062
494.5828, 90.11777
495.0649, 88.91285
495.5470, 87.66132
496.0291, 86.92836
496.5113, 86.61259
496.9934, 86.92807
497.4755, 88.61726
497.9576, 91.03049
498.4397, 92.58540
498.9218, 92.48704
499.4040, 91.40011
499.8861, 90.77993
500.3682, 90.78388
500.8503, 91.01331
501.3324, 92.07547
501.8145, 92.82389
502.2967, 92.15471
502.7788, 90.47184
503.2609, 89.20903
503.7430, 89.47011
504.2251, 90.78455
504.7072, 91.27574
505.1894, 90.56575
505.6715, 89.89625
506.1536, 89.55246
506.6357, 89.39233
507.1178, 89.42468
507.5999, 89.62099
508.0821, 89.65418
508.5642, 88.68730
509.0463, 87.38218
509.5284, 88.16656
510.0105, 91.75153
510.4926, 94.85247
510.9748, 95.08836
511.4569, 93.45474
511.9390, 92.34940
512.4211, 91.87643
512.9032, 91.98489
513.3853, 93.16940
513.8674, 94.78292
514.3495, 95.52335
514.8317, 95.10955
515.3138, 94.58492
515.7959, 95.01052
516.2780, 96.45412
516.7601, 97.96132
517.2422, 100.0523
517.7244, 101.6245
518.2065, 101.8912
518.6886, 101.5478
519.1707, 101.4981
519.6528, 102.0832
520.1349, 103.2317
520.6171, 105.1485
521.0992, 108.4553
521.5813, 109.9859
522.0634, 107.6545
522.5455, 105.5570
523.0276, 105.3319
523.5098, 106.3861
523.9919, 107.4456
524.4740, 107.8910
524.9561, 108.2814
525.4382, 109.5692
525.9203, 111.7656
526.4025, 113.7332
526.8846, 114.8390
527.3667, 116.1263
527.8488, 119.1357
528.3309, 123.4954
528.8130, 126.7608
529.2952, 126.9957
529.7773, 126.7646
530.2594, 128.6571
530.7415, 132.2953
531.2236, 135.7756
531.7057, 138.2719
532.1879, 140.1272
532.6700, 141.9890
533.1521, 143.9843
533.6342, 145.6939
534.1163, 148.1068
534.5984, 149.3774
535.0806, 147.9609
535.5627, 144.3069
536.0448, 139.7341
536.5269, 134.9822
537.0090, 130.2609
537.4911, 126.3992
537.9733, 124.0429
538.4554, 121.0377
538.9375, 116.4500
539.4196, 111.7336
539.9017, 107.4129
540.3839, 103.6980
540.8660, 101.0198
541.3481, 99.96083
541.8302, 99.94800
542.3123, 99.85495
542.7944, 99.71893
543.2766, 99.15047
543.7587, 97.70879
544.2408, 95.98904
544.7229, 94.94676
545.2050, 94.68131
545.6871, 94.17638
546.1693, 92.54552
546.6514, 90.84099
547.1335, 90.51490
547.6156, 91.42207
548.0977, 91.92295
548.5798, 90.85712
549.0620, 88.92747
549.5441, 88.51254
550.0262, 91.81445
550.5083, 93.70759
550.9904, 92.90952
551.4725, 91.65195
551.9547, 91.65891
552.4368, 92.87245
552.9189, 94.21858
553.4010, 94.90834
553.8831, 95.09373
554.3652, 95.40303
554.8474, 95.98845
555.3295, 96.30994
555.8116, 95.96431
556.2937, 95.48598
556.7758, 95.38316
557.2579, 95.63029
557.7401, 95.55690
558.2222, 94.19888
558.7043, 92.49369
559.1864, 92.20031
559.6685, 93.37141
560.1506, 94.80683
560.6328, 96.03797
561.1149, 97.06302
561.5970, 97.86265
562.0791, 98.40197
562.5612, 98.87327
563.0433, 99.64746
563.5255, 100.1169
564.0076, 99.37612
564.4897, 97.74256
564.9718, 96.58888
565.4539, 96.83829
565.9360, 98.05556
566.4182, 98.77843
566.9003, 98.82084
567.3824, 98.70889
567.8645, 98.05289
568.3466, 97.63160
568.8287, 97.95694
569.3109, 98.97911
569.7930, 100.4152
570.2751, 102.4049
570.7572, 104.3800
571.2393, 104.7456
571.7214, 103.2987
572.2036, 102.7677
572.6857, 104.5724
573.1678, 107.0524
573.6499, 108.1678
574.1320, 107.9592
574.6141, 107.8755
575.0963, 108.5604
575.5784, 109.3271
576.0605, 109.4799
576.5426, 109.1776
577.0247, 109.0686
577.5068, 109.4697
577.9890, 110.0731
578.4711, 110.3354
578.9532, 110.3460
579.4353, 109.7346
579.9174, 107.8664
580.3995, 106.0898
580.8817, 105.0696
581.3638, 104.6253
581.8459, 104.3118
582.3280, 103.9126
582.8101, 103.6106
583.2922, 104.0556
583.7744, 105.3898
584.2565, 105.1366
584.7386, 101.6565
585.2207, 98.39474
