##NAMES=Monticellite
##RRUFFID=R100108
##IDEAL CHEMISTRY=CaMgSiO_4_
##LOCALITY=Oka, Deux-montagnes County, Quebec, Canada
##OWNER=RRUFF
##SOURCE=American Museum of Natural History
##DESCRIPTION=Pale brown transparent fragment
##STATUS=The identification of this mineral is confirmed by single-crystal X-ray diffraction and chemical analysis.
##URL=rruff.info/R100108
##MEASURED CHEMISTRY=(Ca_0.959_Mg_0.474_Mn^+2^_0.305_Fe^+2^_0.268_Zn_0.002_)_Î£=2.008_Si_0.996_O_4_
91.53320, 382.4746
92.01532, 381.7961
92.49744, 380.5440
92.97955, 384.0225
93.46167, 387.5973
93.94379, 388.0742
94.42590, 388.2357
94.90802, 387.5004
95.39014, 383.8749
95.87225, 376.6591
96.35437, 369.7939
96.83649, 365.1584
97.31860, 361.8346
97.80072, 358.9681
98.28284, 355.8193
98.76495, 352.1302
99.24707, 348.3790
99.72919, 344.4629
100.2113, 340.7329
100.6934, 337.1239
101.1755, 333.6695
101.6577, 330.4568
102.1398, 327.4355
102.6219, 324.3794
103.1040, 322.6888
103.5861, 322.9284
104.0682, 323.5879
104.5504, 323.9436
105.0325, 323.8368
105.5146, 323.4465
105.9967, 322.9882
106.4788, 322.5400
106.9609, 321.6721
107.4431, 320.1602
107.9252, 318.2466
108.4073, 316.1602
108.8894, 313.8607
109.3715, 311.6611
109.8536, 310.1439
110.3358, 309.3359
110.8179, 308.7422
111.3000, 308.0757
111.7821, 307.3612
112.2642, 306.8506
112.7463, 306.6404
113.2285, 306.7127
113.7106, 307.1838
114.1927, 308.2357
114.6748, 309.2344
115.1569, 309.1961
115.6390, 307.7065
116.1212, 306.1995
116.6033, 305.0420
117.0854, 304.0927
117.5675, 303.1645
118.0496, 302.1163
118.5317, 301.0790
119.0139, 300.7121
119.4960, 301.9215
119.9781, 302.8828
120.4602, 303.1248
120.9423, 302.8869
121.4244, 302.6630
121.9066, 302.8776
122.3887, 303.6085
122.8708, 303.6022
123.3529, 302.0590
123.8350, 300.6590
124.3171, 300.3089
124.7993, 300.9804
125.2814, 301.9526
125.7635, 302.5452
126.2456, 302.6700
126.7277, 302.6480
127.2098, 302.2662
127.6920, 301.8336
128.1741, 301.6875
128.6562, 301.9134
129.1383, 302.3275
129.6204, 302.8176
130.1025, 303.3800
130.5847, 303.7313
131.0668, 303.5527
131.5489, 303.0264
132.0310, 302.8122
132.5131, 303.2090
132.9952, 303.8028
133.4774, 304.2001
133.9595, 304.3961
134.4416, 304.6010
134.9237, 304.9905
135.4058, 305.5797
135.8879, 306.2841
136.3701, 307.7279
136.8522, 308.8801
137.3343, 308.9610
137.8164, 307.8050
138.2985, 306.0615
138.7806, 304.7617
139.2628, 303.8729
139.7449, 303.6037
140.2270, 304.5442
140.7091, 305.7325
141.1912, 306.2745
141.6733, 305.7658
142.1555, 304.4919
142.6376, 303.4341
143.1197, 302.8520
143.6018, 302.2068
144.0839, 301.4259
144.5660, 300.5444
145.0482, 299.5797
145.5303, 298.5091
146.0124, 297.3916
146.4945, 296.6642
146.9766, 296.6044
147.4587, 296.5664
147.9409, 296.2785
148.4230, 295.7710
148.9051, 295.1854
149.3872, 294.4846
149.8693, 293.8087
150.3514, 293.6668
150.8336, 294.5756
151.3157, 295.7119
151.7978, 296.3082
152.2799, 296.2952
152.7620, 296.1544
153.2441, 296.3348
153.7263, 296.6390
154.2084, 296.7010
154.6905, 296.0456
155.1726, 295.1150
155.6547, 294.9839
156.1368, 296.0916
156.6190, 297.2300
157.1011, 297.5595
157.5832, 297.4332
158.0653, 297.5385
158.5474, 298.2840
159.0295, 299.6484
159.5117, 301.3936
159.9938, 304.4149
160.4759, 306.9179
160.9580, 308.0781
161.4401, 308.1442
161.9222, 307.8603
162.4044, 307.9843
162.8865, 308.7422
163.3686, 308.5166
163.8507, 306.4908
164.3328, 304.2616
164.8149, 302.3127
165.2971, 300.7766
165.7792, 299.7376
166.2613, 299.3645
166.7434, 300.1157
167.2255, 300.1754
167.7076, 299.3689
168.1898, 298.1131
168.6719, 296.4780
169.1540, 294.5416
169.6361, 292.7218
170.1182, 291.6711
170.6003, 291.8860
171.0825, 291.6237
171.5646, 290.2645
172.0467, 288.6039
172.5288, 287.6924
173.0109, 287.9044
173.4930, 288.4507
173.9752, 287.9068
174.4573, 286.1736
174.9394, 284.5377
175.4215, 283.2481
175.9036, 282.3185
176.3857, 281.8481
176.8679, 281.9979
177.3500, 282.4224
177.8321, 282.7343
178.3142, 282.9671
178.7963, 282.9115
179.2784, 282.2185
179.7606, 280.9876
180.2427, 280.0958
180.7248, 279.9940
181.2069, 280.1467
181.6890, 280.0181
182.1711, 279.5558
182.6533, 279.1609
183.1354, 279.3314
183.6175, 280.1683
184.0996, 280.7758
184.5817, 280.5519
185.0638, 280.2792
185.5460, 280.4788
186.0281, 281.2522
186.5102, 282.2159
186.9923, 282.8228
187.4744, 282.9310
187.9565, 283.0458
188.4387, 283.4254
188.9208, 283.7212
189.4029, 283.5612
189.8850, 282.8588
190.3671, 281.9843
190.8492, 281.6812
191.3314, 282.5614
191.8135, 283.0253
192.2956, 282.4693
192.7777, 281.7531
193.2598, 281.8528
193.7419, 283.1186
194.2241, 284.8549
194.7062, 285.3810
195.1883, 282.6632
195.6704, 281.0461
196.1525, 281.4413
196.6346, 282.7228
197.1168, 283.5299
197.5989, 283.2573
198.0810, 282.3482
198.5631, 282.0959
199.0452, 283.0071
199.5273, 283.8519
200.0095, 284.4863
200.4916, 284.9240
200.9737, 285.1531
201.4558, 285.1330
201.9379, 284.9711
202.4200, 284.9764
202.9022, 285.1435
203.3843, 285.4282
203.8664, 286.1347
204.3485, 286.9958
204.8306, 287.1325
205.3127, 285.8445
205.7949, 283.9654
206.2770, 283.3286
206.7591, 284.2708
207.2412, 285.5594
207.7233, 286.6646
208.2054, 287.5788
208.6876, 288.2383
209.1697, 288.6635
209.6518, 288.7316
210.1339, 288.2983
210.6160, 287.2273
211.0981, 286.0334
211.5803, 284.8825
212.0624, 283.7726
212.5445, 283.4745
213.0266, 285.1197
213.5087, 287.2003
213.9908, 288.2313
214.4730, 287.8806
214.9551, 287.1070
215.4372, 287.0846
215.9193, 288.0125
216.4014, 288.4547
216.8836, 287.2989
217.3657, 285.8922
217.8478, 285.2215
218.3299, 285.5378
218.8120, 286.1377
219.2941, 285.9183
219.7763, 284.4520
220.2584, 283.5931
220.7405, 284.1536
221.2226, 285.0941
221.7047, 285.8518
222.1868, 286.2497
222.6690, 286.2299
223.1511, 285.5233
223.6332, 283.4417
224.1153, 282.2838
224.5974, 282.9088
225.0795, 283.9734
225.5617, 284.4679
226.0438, 284.1269
226.5259, 283.4556
227.0080, 283.3520
227.4901, 284.2190
227.9722, 284.9549
228.4544, 285.6310
228.9365, 286.1224
229.4186, 286.1351
229.9007, 285.6553
230.3828, 285.1481
230.8649, 285.4479
231.3471, 287.2133
231.8292, 288.7965
232.3113, 290.5968
232.7934, 292.0092
233.2755, 292.1703
233.7576, 290.9510
234.2398, 289.4307
234.7219, 289.4615
235.2040, 292.5637
235.6861, 294.5406
236.1682, 294.7726
236.6503, 294.2477
237.1325, 293.6047
237.6146, 293.0586
238.0967, 292.8934
238.5788, 293.6294
239.0609, 295.9276
239.5430, 297.5887
240.0252, 298.2653
240.5073, 298.4040
240.9894, 298.2651
241.4715, 297.9155
241.9536, 297.6940
242.4357, 298.1083
242.9179, 299.3065
243.4000, 300.5131
243.8821, 301.4692
244.3642, 302.4861
244.8463, 304.0879
245.3284, 306.4222
245.8106, 308.7115
246.2927, 309.9157
246.7748, 309.9951
247.2569, 310.2101
247.7390, 310.7111
248.2211, 311.4576
248.7033, 312.3442
249.1854, 313.3329
249.6675, 314.6697
250.1496, 316.9918
250.6317, 320.1119
251.1138, 322.5132
251.5960, 323.6074
252.0781, 323.9384
252.5602, 324.1283
253.0423, 324.2054
253.5244, 324.2850
254.0065, 324.5612
254.4887, 324.9355
254.9708, 325.1018
255.4529, 325.1248
255.9350, 324.8408
256.4171, 323.9614
256.8992, 322.4130
257.3813, 320.5754
257.8635, 318.3969
258.3456, 316.1280
258.8277, 314.2150
259.3098, 312.8748
259.7919, 311.9197
260.2740, 311.2115
260.7562, 310.8517
261.2383, 310.2939
261.7204, 308.9679
262.2025, 307.3108
262.6846, 305.8190
263.1667, 304.6239
263.6489, 303.6656
264.1310, 302.9544
264.6131, 302.5932
265.0952, 302.0282
265.5773, 300.6149
266.0594, 299.0347
266.5416, 297.9974
267.0237, 297.8032
267.5058, 297.9147
267.9879, 297.4366
268.4700, 296.1150
268.9521, 295.4051
269.4343, 296.6205
269.9164, 298.2368
270.3985, 299.1571
270.8806, 299.1161
271.3627, 298.4143
271.8448, 297.1297
272.3270, 295.0032
272.8091, 293.6185
273.2912, 294.1328
273.7733, 295.0358
274.2554, 295.4051
274.7375, 295.0871
275.2197, 294.5680
275.7018, 294.3649
276.1839, 294.5103
276.6660, 294.7574
277.1481, 295.2229
277.6302, 295.6761
278.1124, 295.9030
278.5945, 295.9387
279.0766, 296.0851
279.5587, 296.9129
280.0408, 298.6115
280.5229, 299.2930
281.0051, 297.0722
281.4872, 295.3600
281.9693, 296.0762
282.4514, 298.7480
282.9335, 301.4693
283.4156, 302.5224
283.8978, 301.8661
284.3799, 301.4921
284.8620, 301.4250
285.3441, 301.6596
285.8262, 302.4802
286.3083, 303.6059
286.7905, 304.4164
287.2726, 304.3014
287.7547, 303.4330
288.2368, 303.5147
288.7189, 305.3061
289.2010, 307.2254
289.6832, 309.0529
290.1653, 310.6761
290.6474, 311.9546
291.1295, 312.7705
291.6116, 313.2287
292.0938, 313.7275
292.5759, 314.1664
293.0580, 314.8167
293.5401, 315.8611
294.0222, 317.0743
294.5043, 318.2018
294.9865, 319.1300
295.4686, 319.9330
295.9507, 320.8539
296.4328, 322.3398
296.9149, 323.0817
297.3970, 322.2171
297.8792, 321.0502
298.3613, 320.8693
298.8434, 322.0175
299.3255, 323.6300
299.8076, 324.1081
300.2897, 322.4351
300.7719, 321.9718
301.2540, 324.1653
301.7361, 326.4860
302.2182, 327.1575
302.7003, 325.9969
303.1824, 324.2365
303.6646, 323.3465
304.1467, 323.5751
304.6288, 323.8069
305.1109, 323.9793
305.5930, 324.2088
306.0751, 324.5453
306.5573, 324.9904
307.0394, 325.5339
307.5215, 326.2002
308.0036, 327.0147
308.4857, 327.6224
308.9678, 327.7847
309.4500, 327.9672
309.9321, 328.2686
310.4142, 328.6955
310.8963, 329.1888
311.3784, 329.6693
311.8605, 330.2049
312.3427, 331.3297
312.8248, 333.9798
313.3069, 336.1493
313.7890, 337.3942
314.2711, 337.9877
314.7532, 338.1966
315.2354, 338.1234
315.7175, 337.9818
316.1996, 338.4164
316.6817, 339.8875
317.1638, 341.2429
317.6459, 341.9696
318.1281, 342.7393
318.6102, 344.3647
319.0923, 347.0413
319.5744, 349.9848
320.0565, 351.8227
320.5386, 351.9479
321.0208, 352.3372
321.5029, 353.0407
321.9850, 353.9982
322.4671, 355.3108
322.9492, 356.9147
323.4313, 358.5077
323.9135, 359.7716
324.3956, 360.6542
324.8777, 361.4469
325.3598, 362.2760
325.8419, 362.8970
326.3240, 362.9149
326.8062, 362.6011
327.2883, 362.7133
327.7704, 364.0311
328.2525, 366.4250
328.7346, 367.5861
329.2167, 366.1745
329.6989, 364.9845
330.1810, 364.9244
330.6631, 365.4669
331.1452, 365.7861
331.6273, 365.4261
332.1094, 364.6013
332.5916, 363.9930
333.0737, 363.8394
333.5558, 363.4911
334.0379, 362.4692
334.5200, 361.4173
335.0021, 361.0504
335.4843, 361.5803
335.9664, 362.4639
336.4485, 362.9103
336.9306, 362.9724
337.4127, 362.4066
337.8948, 360.1905
338.3770, 358.1205
338.8591, 357.5348
339.3412, 358.3831
339.8233, 359.3978
340.3055, 359.0481
340.7876, 357.0978
341.2697, 356.2032
341.7518, 357.5451
342.2339, 358.8456
342.7160, 359.2015
343.1982, 358.8036
343.6803, 358.2466
344.1624, 357.9290
344.6445, 357.7773
345.1266, 357.3738
345.6087, 356.4069
346.0909, 355.7140
346.5730, 355.7339
347.0551, 356.0839
347.5372, 356.3253
348.0193, 356.3063
348.5014, 356.0173
348.9836, 355.3427
349.4657, 354.1093
349.9478, 353.0858
350.4299, 352.6773
350.9120, 352.4277
351.3941, 351.8985
351.8763, 351.0237
352.3584, 350.3472
352.8405, 350.6499
353.3226, 351.9724
353.8047, 352.7970
354.2868, 352.5445
354.7690, 352.1244
355.2511, 352.2791
355.7332, 352.8438
356.2153, 353.0670
356.6974, 352.2070
357.1795, 350.5717
357.6617, 349.3906
358.1438, 348.8488
358.6259, 348.4229
359.1080, 347.6404
359.5901, 346.7997
360.0722, 346.4914
360.5544, 347.3751
361.0365, 348.3597
361.5186, 347.5371
362.0007, 344.6111
362.4828, 342.2474
362.9649, 341.7905
363.4471, 342.3477
363.9292, 343.0255
364.4113, 343.8232
364.8934, 344.3473
365.3755, 343.9664
365.8576, 342.9144
366.3398, 342.5952
366.8219, 343.7212
367.3040, 345.0902
367.7861, 345.3097
368.2682, 344.4991
368.7503, 343.8194
369.2325, 344.0405
369.7146, 344.5950
370.1967, 344.3041
370.6788, 342.9023
371.1609, 341.6961
371.6430, 341.9289
372.1252, 343.2002
372.6073, 344.1507
373.0894, 344.4271
373.5715, 344.4664
374.0536, 344.5082
374.5357, 344.5724
375.0179, 344.8455
375.5000, 345.5766
375.9821, 346.4155
376.4642, 346.4955
376.9463, 345.4915
377.4284, 344.5941
377.9106, 344.1276
378.3927, 344.0796
378.8748, 344.5320
379.3569, 345.5468
379.8390, 346.7474
380.3211, 347.6251
380.8033, 348.0854
381.2854, 348.7960
381.7675, 350.2324
382.2496, 351.6245
382.7317, 352.1516
383.2138, 351.8953
383.6960, 351.7606
384.1781, 352.4066
384.6602, 353.8015
385.1423, 355.4854
385.6244, 357.7546
386.1065, 359.9219
386.5887, 361.6666
387.0708, 363.1633
387.5529, 364.7669
388.0350, 366.6430
388.5171, 368.5922
388.9992, 370.1818
389.4814, 371.1284
389.9635, 372.1160
390.4456, 373.1176
390.9277, 374.1798
391.4098, 375.4640
391.8919, 376.9192
392.3741, 378.2132
392.8562, 378.9464
393.3383, 379.0095
393.8204, 379.3862
394.3025, 380.3731
394.7846, 381.3466
395.2668, 381.9980
395.7489, 382.4943
396.2310, 383.3053
396.7131, 384.7831
397.1952, 386.4817
397.6773, 386.7161
398.1595, 383.9085
398.6416, 382.2619
399.1237, 383.4930
399.6058, 385.2505
400.0879, 385.4055
400.5700, 383.5215
401.0522, 380.8843
401.5343, 378.9319
402.0164, 377.7333
402.4985, 376.9013
402.9806, 377.3395
403.4627, 377.2492
403.9449, 375.7336
404.4270, 373.0466
404.9091, 369.8806
405.3912, 366.3873
405.8733, 362.8553
406.3554, 360.4146
406.8376, 359.6430
407.3197, 358.4652
407.8018, 355.6979
408.2839, 352.2806
408.7660, 349.0799
409.2481, 346.2445
409.7303, 343.7816
410.2124, 341.6476
410.6945, 339.8551
411.1766, 338.5978
411.6587, 338.3262
412.1408, 338.0681
412.6230, 336.9489
413.1051, 335.0467
413.5872, 332.8462
414.0693, 330.0981
414.5514, 327.3423
415.0335, 325.5517
415.5157, 324.8356
415.9978, 324.4796
416.4799, 324.2252
416.9620, 323.9508
417.4441, 323.3048
417.9262, 321.8484
418.4084, 320.5831
418.8905, 320.3309
419.3726, 320.7207
419.8547, 320.8229
420.3368, 320.3332
420.8189, 319.3831
421.3011, 317.9905
421.7832, 315.8447
422.2653, 314.6024
422.7474, 315.1201
423.2295, 316.1588
423.7116, 316.7719
424.1938, 316.8509
424.6759, 316.5659
425.1580, 315.9527
425.6401, 315.0595
426.1222, 314.7890
426.6043, 316.1703
427.0865, 316.8799
427.5686, 315.9515
428.0507, 314.1241
428.5328, 312.2844
429.0149, 310.7876
429.4970, 309.7504
429.9792, 309.4332
430.4613, 310.3171
430.9434, 310.8794
431.4255, 311.1760
431.9076, 311.1726
432.3897, 310.6569
432.8719, 309.7894
433.3540, 309.0497
433.8361, 308.8799
434.3182, 309.1560
434.8003, 308.9310
435.2824, 307.7922
435.7646, 306.7795
436.2467, 305.9731
436.7288, 305.4909
437.2109, 305.5575
437.6930, 306.2486
438.1751, 307.1508
438.6573, 307.8586
439.1394, 308.3872
439.6215, 308.4332
440.1036, 307.6125
440.5857, 306.6603
441.0678, 305.9391
441.5500, 305.4718
442.0321, 305.3052
442.5142, 305.8527
442.9963, 306.5610
443.4784, 306.1688
443.9605, 304.4857
444.4427, 303.2147
444.9248, 303.5762
445.4069, 304.7018
445.8890, 305.0547
446.3711, 304.3935
446.8532, 303.4668
447.3354, 302.4521
447.8175, 301.4973
448.2996, 301.0715
448.7817, 301.3650
449.2638, 301.6181
449.7459, 300.7637
450.2281, 298.7125
450.7102, 297.8290
451.1923, 299.4276
451.6744, 301.1250
452.1565, 301.2449
452.6386, 300.1705
453.1208, 299.2838
453.6029, 299.3333
454.0850, 299.9258
454.5671, 299.9697
455.0492, 298.8843
455.5313, 298.0171
456.0135, 297.4663
456.4956, 297.0836
456.9777, 296.6788
457.4598, 296.2746
457.9419, 296.1577
458.4240, 296.7415
458.9062, 298.0493
459.3883, 298.2926
459.8704, 296.0492
460.3525, 294.3138
460.8346, 294.3206
461.3167, 294.9844
461.7989, 294.7497
462.2810, 293.0046
462.7631, 290.8347
463.2452, 289.9992
463.7273, 290.7348
464.2094, 291.4211
464.6916, 292.3321
465.1737, 292.6454
465.6558, 291.3281
466.1379, 288.8866
466.6200, 287.1281
467.1021, 287.4707
467.5843, 288.9398
468.0664, 289.6349
468.5485, 289.5007
469.0306, 288.9859
469.5127, 288.0815
469.9948, 287.0247
470.4770, 286.2976
470.9591, 286.0995
471.4412, 285.5417
471.9233, 283.6363
472.4054, 281.2029
472.8875, 279.8641
473.3697, 279.9462
473.8518, 280.5163
474.3339, 280.8844
474.8160, 281.0154
475.2981, 280.6613
475.7802, 279.4538
476.2624, 278.1644
476.7445, 276.8859
477.2266, 275.8029
477.7087, 275.3152
478.1908, 275.5824
478.6729, 276.2617
479.1551, 276.7744
479.6372, 277.2601
480.1193, 277.1929
480.6014, 276.1512
481.0835, 275.0103
481.5656, 274.2922
482.0478, 273.9059
482.5299, 273.4566
483.0120, 272.6677
483.4941, 271.6582
483.9762, 270.9266
484.4583, 270.6677
484.9405, 270.2932
485.4226, 269.6103
485.9047, 268.8320
486.3868, 268.1854
486.8689, 267.6736
487.3510, 267.0229
487.8332, 265.8424
488.3153, 264.2881
488.7974, 263.0718
489.2795, 262.2174
489.7616, 261.7117
490.2437, 261.6258
490.7259, 261.8701
491.2080, 262.4948
491.6901, 264.0064
492.1722, 264.9012
492.6543, 263.4704
493.1364, 260.5221
493.6186, 258.4317
494.1007, 257.8490
494.5828, 258.0034
495.0649, 258.1613
495.5470, 258.3377
496.0291, 258.1700
496.5113, 257.4320
496.9934, 256.5465
497.4755, 255.8114
497.9576, 255.1279
498.4397, 254.0816
498.9218, 252.4398
499.4040, 250.7159
499.8861, 250.1590
500.3682, 252.0011
500.8503, 252.7364
501.3324, 251.4908
501.8145, 250.0209
502.2967, 249.4356
502.7788, 249.6218
503.2609, 249.8280
503.7430, 249.5275
504.2251, 248.8491
504.7072, 248.2893
505.1894, 247.8695
505.6715, 247.5160
506.1536, 247.2182
506.6357, 246.9716
507.1178, 246.7636
507.5999, 246.5969
508.0821, 246.5206
508.5642, 246.7288
509.0463, 247.0537
509.5284, 246.9162
510.0105, 246.1782
510.4926, 245.4440
510.9748, 245.0394
511.4569, 244.9267
511.9390, 245.0416
512.4211, 245.6956
512.9032, 245.9953
513.3853, 245.4195
513.8674, 244.2173
514.3495, 242.5629
514.8317, 240.4874
515.3138, 238.8223
515.7959, 238.5193
516.2780, 239.7024
516.7601, 240.3975
517.2422, 240.6940
517.7244, 240.4929
518.2065, 239.2008
518.6886, 237.5771
519.1707, 236.8201
519.6528, 237.3195
520.1349, 238.2646
520.6171, 238.3428
521.0992, 237.2234
521.5813, 236.5953
522.0634, 236.8932
522.5455, 237.2808
523.0276, 237.3038
523.5098, 237.2251
523.9919, 237.6478
524.4740, 238.9915
524.9561, 240.5084
525.4382, 240.9765
525.9203, 240.3697
526.4025, 240.0730
526.8846, 240.7345
527.3667, 241.3542
527.8488, 240.7113
528.3309, 239.0343
528.8130, 237.8060
529.2952, 237.9274
529.7773, 238.3220
530.2594, 238.0364
530.7415, 237.1371
531.2236, 236.0073
531.7057, 234.7848
532.1879, 233.5104
532.6700, 232.2445
533.1521, 230.8660
533.6342, 229.7890
534.1163, 229.0422
534.5984, 228.5863
535.0806, 228.5816
535.5627, 228.8587
536.0448, 228.9975
536.5269, 228.7313
537.0090, 228.1797
537.4911, 227.6972
537.9733, 227.2700
538.4554, 226.9360
538.9375, 226.9006
539.4196, 226.7900
539.9017, 226.1835
540.3839, 225.2240
540.8660, 224.5825
541.3481, 224.9294
541.8302, 225.7514
542.3123, 225.8294
542.7944, 225.0793
543.2766, 224.3339
543.7587, 223.9041
544.2408, 223.6637
544.7229, 223.4819
545.2050, 223.3931
545.6871, 223.0858
546.1693, 221.9599
546.6514, 220.8696
547.1335, 221.0264
547.6156, 222.2945
548.0977, 223.3517
548.5798, 223.3809
549.0620, 222.6365
549.5441, 221.9822
550.0262, 221.4567
550.5083, 220.9742
550.9904, 220.4482
551.4725, 220.0275
551.9547, 219.7846
552.4368, 219.7475
552.9189, 220.0148
553.4010, 220.7744
553.8831, 221.7649
554.3652, 221.7850
554.8474, 220.2811
555.3295, 219.2098
555.8116, 219.5276
556.2937, 220.1478
556.7758, 220.3337
557.2579, 220.0399
557.7401, 219.6183
558.2222, 219.0126
558.7043, 218.5138
559.1864, 218.9027
559.6685, 220.2002
560.1506, 220.9276
560.6328, 220.0734
561.1149, 218.4862
561.5970, 218.1460
562.0791, 219.4871
562.5612, 220.4120
563.0433, 220.2142
563.5255, 219.6898
564.0076, 219.4866
564.4897, 219.6016
564.9718, 219.6623
565.4539, 219.3969
565.9360, 219.0162
566.4182, 219.3108
566.9003, 221.0838
567.3824, 222.0041
567.8645, 221.2150
568.3466, 220.2252
568.8287, 220.0374
569.3109, 220.5407
569.7930, 221.0061
570.2751, 220.9444
570.7572, 220.6012
571.2393, 220.5575
571.7214, 220.8568
572.2036, 220.9211
572.6857, 220.4913
573.1678, 219.8259
573.6499, 219.1190
574.1320, 218.3729
574.6141, 217.9581
575.0963, 218.4355
575.5784, 218.9205
576.0605, 218.6309
576.5426, 217.6751
577.0247, 216.4032
577.5068, 214.9248
577.9890, 213.5515
578.4711, 212.9021
578.9532, 213.3335
579.4353, 213.6053
579.9174, 213.4746
580.3995, 213.4474
580.8817, 214.0789
581.3638, 214.9420
581.8459, 215.1876
582.3280, 214.3888
582.8101, 213.0209
583.2922, 211.7676
583.7744, 210.6293
584.2565, 209.6369
584.7386, 208.7635
585.2207, 208.0745
585.7029, 207.7140
586.1850, 207.5597
586.6671, 207.2845
