##NAMES=Montgomeryite
##RRUFFID=R080094
##IDEAL CHEMISTRY=Ca_4_MgAl_4_(PO_4_)_6_(OH)_4_&#183;12H_2_O
##LOCALITY=Tur√≥ de Montcada, Montcada i Reixac, Barcelona, Catalonia, Spain
##OWNER=RRUFF
##SOURCE=Joan Abella i Creus
##DESCRIPTION=Lime green clusters of flattened laths with poor crystallinity
##STATUS=The identification of this mineral has been confirmed by single-crystal X-ray diffraction.
##URL=rruff.info/R080094
92.52344, 167.1601
93.00555, 167.5033
93.48767, 167.6394
93.96979, 170.2530
94.45190, 172.7932
94.93402, 174.6185
95.41614, 173.7893
95.89825, 171.3533
96.38037, 168.8470
96.86249, 166.2944
97.34460, 163.8977
97.82672, 161.7788
98.30884, 159.9353
98.79095, 158.8204
99.27307, 157.8051
99.75519, 155.8465
100.2373, 152.6725
100.7194, 148.7038
101.2015, 145.5088
101.6837, 143.2131
102.1658, 141.3872
102.6479, 139.7003
103.1300, 138.1089
103.6121, 136.8066
104.0942, 136.1505
104.5764, 135.8466
105.0585, 135.5009
105.5406, 135.0102
106.0227, 134.3663
106.5048, 133.5434
106.9869, 132.4553
107.4691, 131.2015
107.9512, 129.8881
108.4333, 128.4769
108.9154, 126.8774
109.3975, 124.8565
109.8796, 122.2498
110.3618, 120.2657
110.8439, 119.3877
111.3260, 118.7014
111.8081, 117.8112
112.2902, 116.6795
112.7723, 115.5234
113.2544, 114.6609
113.7366, 114.3159
114.2187, 113.8728
114.7008, 113.2686
115.1829, 112.6045
115.6650, 112.0044
116.1471, 111.5120
116.6293, 111.0279
117.1114, 110.2784
117.5935, 109.0590
118.0756, 107.9927
118.5577, 107.2024
119.0398, 106.6687
119.5220, 106.3645
120.0041, 106.3520
120.4862, 106.5139
120.9683, 106.5615
121.4504, 106.4397
121.9325, 106.2969
122.4147, 106.2892
122.8968, 106.4337
123.3789, 106.4953
123.8610, 106.2596
124.3431, 105.9061
124.8252, 105.6043
125.3074, 105.4296
125.7895, 105.3049
126.2716, 105.0562
126.7537, 104.5992
127.2358, 104.1668
127.7179, 103.7719
128.2001, 103.4518
128.6822, 103.2602
129.1643, 103.2465
129.6464, 103.3959
130.1285, 103.5182
130.6107, 103.5789
131.0928, 103.6456
131.5749, 103.7145
132.0570, 103.8005
132.5391, 103.9294
133.0212, 104.1234
133.5034, 104.3896
133.9855, 104.7010
134.4676, 105.1314
134.9497, 105.5405
135.4318, 105.8177
135.9139, 105.9656
136.3960, 106.1000
136.8782, 106.3324
137.3603, 106.6678
137.8424, 107.1599
138.3245, 108.0232
138.8066, 108.9632
139.2887, 109.6108
139.7709, 109.8574
140.2530, 109.9093
140.7351, 109.9332
141.2172, 109.9263
141.6993, 110.0803
142.1814, 110.6705
142.6636, 111.5353
143.1457, 112.0502
143.6278, 111.8826
144.1099, 111.5295
144.5920, 111.4337
145.0741, 111.5996
145.5563, 111.8110
146.0384, 111.9091
146.5205, 111.8953
147.0026, 111.7604
147.4847, 111.3569
147.9668, 110.9219
148.4490, 110.5998
148.9311, 110.4167
149.4132, 110.2721
149.8953, 110.0077
150.3774, 109.5440
150.8595, 109.1130
151.3417, 108.4929
151.8238, 108.0297
152.3059, 108.0666
152.7880, 108.7179
153.2701, 109.7642
153.7522, 110.6476
154.2344, 111.4080
154.7165, 111.9087
155.1986, 111.9080
155.6807, 111.7083
156.1628, 111.7219
156.6449, 112.1727
157.1271, 112.9142
157.6092, 113.3359
158.0913, 113.2766
158.5734, 113.1556
159.0555, 113.1185
159.5376, 113.1140
160.0198, 112.9806
160.5019, 112.5732
160.9840, 112.0016
161.4661, 111.6829
161.9482, 111.9500
162.4303, 112.1170
162.9125, 111.6076
163.3946, 110.4508
163.8767, 109.3217
164.3588, 108.6644
164.8409, 108.2880
165.3230, 107.8661
165.8052, 107.3621
166.2873, 106.7787
166.7694, 106.1323
167.2515, 105.4274
167.7336, 104.6302
168.2157, 103.5550
168.6979, 102.4248
169.1800, 101.5085
169.6621, 100.9470
170.1442, 100.6539
170.6263, 100.4108
171.1084, 100.3313
171.5906, 100.1077
172.0727, 99.47508
172.5548, 98.69031
173.0369, 98.13243
173.5190, 98.07683
174.0011, 98.44430
174.4833, 98.56789
174.9654, 98.34287
175.4475, 97.93755
175.9296, 97.18167
176.4117, 96.27374
176.8938, 95.55375
177.3760, 95.30052
177.8581, 95.53008
178.3402, 95.60356
178.8223, 95.57346
179.3044, 95.36320
179.7865, 94.85759
180.2687, 94.12565
180.7508, 93.34399
181.2329, 92.65148
181.7150, 92.05092
182.1971, 91.58350
182.6792, 91.31462
183.1614, 91.10307
183.6435, 90.90022
184.1256, 90.69231
184.6077, 90.44092
185.0898, 90.09892
185.5719, 89.65866
186.0541, 89.25002
186.5362, 88.91840
187.0183, 88.59436
187.5004, 88.15408
187.9825, 87.57054
188.4646, 87.09544
188.9468, 87.09705
189.4289, 87.44637
189.9110, 87.61102
190.3931, 87.36118
190.8752, 86.89040
191.3573, 86.47974
191.8395, 86.14767
192.3216, 85.88171
192.8037, 85.69344
193.2858, 85.56230
193.7679, 85.44737
194.2500, 85.33620
194.7322, 85.22865
195.2143, 85.12211
195.6964, 85.01814
196.1785, 84.91409
196.6606, 84.76554
197.1427, 84.61126
197.6249, 84.54594
198.1070, 84.71951
198.5891, 85.08543
199.0712, 85.16602
199.5533, 84.79908
200.0354, 84.28836
200.5176, 83.66722
200.9997, 82.99645
201.4818, 82.38659
201.9639, 81.94067
202.4460, 81.66299
202.9281, 81.35973
203.4103, 81.11361
203.8924, 80.76218
204.3745, 80.17577
204.8566, 79.42556
205.3387, 78.69606
205.8208, 78.14928
206.3030, 77.80148
206.7851, 77.47429
207.2672, 77.10836
207.7493, 76.81358
208.2314, 76.78929
208.7135, 76.92008
209.1957, 76.82991
209.6778, 76.10801
210.1599, 74.59405
210.6420, 73.77612
211.1241, 74.24337
211.6062, 74.75075
212.0884, 74.61021
212.5705, 73.85416
213.0526, 72.95999
213.5347, 72.33308
214.0168, 72.01193
214.4989, 71.73125
214.9811, 71.49812
215.4632, 71.29465
215.9453, 71.10891
216.4274, 70.94028
216.9095, 70.79395
217.3916, 70.39998
217.8737, 70.65945
218.3559, 70.78408
218.8380, 70.78112
219.3201, 70.26838
219.8022, 70.41391
220.2843, 70.29564
220.7664, 70.16655
221.2486, 70.40472
221.7307, 69.96613
222.2128, 70.19848
222.6949, 70.16300
223.1770, 70.25011
223.6591, 70.07178
224.1413, 69.97543
224.6234, 70.25224
225.1055, 70.45988
225.5876, 70.59600
226.0697, 70.60997
226.5518, 70.31639
227.0340, 69.98120
227.5161, 70.08052
227.9982, 70.75807
228.4803, 71.36848
228.9624, 71.42423
229.4445, 71.20741
229.9267, 71.07527
230.4088, 71.19265
230.8909, 71.43568
231.3730, 71.56255
231.8551, 71.53091
232.3372, 71.48827
232.8194, 71.45297
233.3015, 71.45531
233.7836, 71.56209
234.2657, 71.84539
234.7478, 72.17818
235.2299, 72.24711
235.7121, 71.90724
236.1942, 71.58821
236.6763, 71.44554
237.1584, 71.37502
237.6405, 71.25835
238.1227, 71.03737
238.6048, 70.76812
239.0869, 70.59541
239.5690, 70.56080
240.0511, 70.55785
240.5332, 70.63161
241.0154, 70.69343
241.4975, 70.65027
241.9796, 70.46228
242.4617, 70.16833
242.9438, 69.84983
243.4259, 69.37486
243.9081, 69.10106
244.3902, 69.17881
244.8723, 69.39838
245.3544, 69.59440
245.8365, 69.69907
246.3186, 69.70142
246.8008, 69.56553
247.2829, 69.11812
247.7650, 68.78210
248.2471, 68.62523
248.7292, 68.55358
249.2113, 68.50626
249.6935, 68.45644
250.1756, 68.37530
250.6577, 68.19400
251.1398, 67.64185
251.6219, 67.40577
252.1040, 67.77408
252.5862, 68.29041
253.0683, 68.52165
253.5504, 68.35005
254.0325, 68.00433
254.5146, 67.85972
254.9967, 68.07972
255.4789, 68.21390
255.9610, 68.21333
256.4431, 68.15694
256.9252, 68.09189
257.4073, 68.03445
257.8894, 68.01102
258.3716, 68.05428
258.8537, 68.17280
259.3358, 68.36726
259.8179, 68.75977
260.3000, 69.15662
260.7821, 69.39357
261.2643, 69.44226
261.7464, 69.36970
262.2285, 69.23550
262.7106, 69.02172
263.1927, 68.81545
263.6748, 68.54602
264.1570, 68.33020
264.6391, 68.30563
265.1212, 68.47662
265.6033, 68.68587
266.0854, 68.80750
266.5675, 68.82865
267.0497, 68.75066
267.5318, 68.39178
268.0139, 68.05948
268.4960, 68.06906
268.9781, 68.41912
269.4602, 68.75682
269.9424, 68.79848
270.4245, 68.57827
270.9066, 68.44333
271.3887, 68.54810
271.8708, 68.33944
272.3529, 68.63426
272.8351, 68.79423
273.3172, 68.82660
273.7993, 68.34920
274.2814, 68.53006
274.7635, 68.44712
275.2456, 68.35336
275.7278, 68.62686
276.2099, 68.22360
276.6920, 68.49129
277.1741, 68.49113
277.6562, 68.48001
278.1383, 68.49358
278.6205, 68.49716
279.1026, 68.44465
279.5847, 68.21484
280.0668, 68.57631
280.5489, 68.80292
281.0310, 68.90194
281.5132, 68.49120
281.9953, 68.73870
282.4774, 68.72240
282.9595, 68.69530
283.4416, 69.03545
283.9237, 68.69884
284.4059, 69.03319
284.8880, 69.09969
285.3701, 69.28877
285.8522, 69.21243
286.3343, 69.21806
286.8164, 69.48921
287.2986, 69.61336
287.7807, 69.50645
288.2628, 69.70332
288.7449, 69.75843
289.2270, 69.67027
289.7091, 69.45628
290.1913, 69.36278
290.6734, 69.35072
291.1555, 69.26983
291.6376, 69.00435
292.1197, 68.62605
292.6018, 68.29699
293.0840, 68.03088
293.5661, 67.80459
294.0482, 67.60639
294.5303, 67.43458
295.0124, 67.28951
295.4945, 67.19071
295.9767, 67.11025
296.4588, 67.00621
296.9409, 66.88513
297.4230, 66.71712
297.9051, 66.45427
298.3872, 66.14365
298.8694, 65.84824
299.3515, 65.61820
299.8336, 65.35342
300.3157, 64.83784
300.7978, 63.99393
301.2799, 63.35448
301.7621, 63.34116
302.2442, 63.51802
302.7263, 63.52067
303.2084, 63.27861
303.6905, 62.89126
304.1726, 62.35586
304.6548, 61.65743
305.1369, 61.22162
305.6190, 61.40569
306.1011, 61.68881
306.5832, 61.65483
307.0653, 61.28276
307.5475, 60.84426
308.0296, 60.56355
308.5117, 60.42556
308.9938, 60.24012
309.4759, 59.97907
309.9580, 59.66607
310.4402, 59.27080
310.9223, 58.82880
311.4044, 58.46927
311.8865, 58.34715
312.3686, 58.39398
312.8507, 58.27471
313.3329, 57.83730
313.8150, 57.49433
314.2971, 57.59698
314.7792, 57.92523
315.2613, 58.06760
315.7434, 57.78403
316.2256, 57.23410
316.7077, 56.73595
317.1898, 56.26703
317.6719, 55.90514
318.1540, 55.76312
318.6361, 55.71155
319.1183, 55.62971
319.6004, 55.49482
320.0825, 55.28078
320.5646, 54.91292
321.0467, 54.35835
321.5288, 53.85964
322.0110, 53.50156
322.4931, 53.23026
322.9752, 53.06722
323.4573, 53.02166
323.9394, 52.89741
324.4215, 52.41612
324.9037, 51.59121
325.3858, 50.97709
325.8679, 50.80664
326.3500, 50.74828
326.8321, 50.56289
327.3142, 50.26203
327.7964, 49.96294
328.2785, 49.75024
328.7606, 49.60750
329.2427, 49.44538
329.7248, 49.22911
330.2069, 49.04916
330.6891, 49.00332
331.1712, 49.02969
331.6533, 48.99281
332.1354, 48.79371
332.6175, 48.51257
333.0996, 48.30355
333.5818, 48.16718
334.0639, 48.09949
334.5460, 48.13913
335.0281, 48.23293
335.5102, 48.34320
335.9923, 48.48985
336.4745, 48.58306
336.9566, 48.49657
337.4387, 48.22135
337.9208, 47.91697
338.4029, 47.53135
338.8850, 47.22151
339.3671, 47.17990
339.8492, 47.43859
340.3314, 47.71907
340.8135, 47.80753
341.2956, 47.73120
341.7777, 47.65717
342.2598, 47.62675
342.7419, 47.58595
343.2241, 47.43855
343.7062, 47.21760
344.1883, 46.85257
344.6704, 47.17654
345.1525, 47.36567
345.6346, 47.42719
346.1168, 46.97895
346.5989, 47.18897
347.0810, 47.13519
347.5631, 47.07058
348.0452, 47.37325
348.5273, 46.99915
349.0095, 47.29600
349.4916, 47.32501
349.9737, 47.47660
350.4558, 47.36276
350.9379, 47.33091
351.4200, 47.56457
351.9022, 47.65121
352.3843, 47.50682
352.8664, 47.66620
353.3485, 47.28283
353.8306, 47.37573
354.3127, 47.67413
354.7949, 47.54308
355.2770, 47.70732
355.7591, 47.56850
356.2412, 47.40539
356.7233, 47.27355
357.2054, 47.32348
357.6876, 47.45365
358.1697, 47.48494
358.6518, 47.38074
359.1339, 47.27728
359.6160, 47.29969
360.0981, 47.42992
360.5803, 47.56533
361.0624, 47.74432
361.5445, 47.88617
362.0266, 47.85117
362.5087, 47.67332
362.9908, 47.62225
363.4730, 47.87268
363.9551, 48.34586
364.4372, 48.79839
364.9193, 49.33416
365.4014, 49.68541
365.8835, 49.57312
366.3657, 49.21309
366.8478, 49.04758
367.3299, 49.23297
367.8120, 49.61632
368.2941, 49.97431
368.7762, 50.29279
369.2584, 50.64692
369.7405, 51.10894
370.2226, 51.57354
370.7047, 51.90369
371.1868, 52.09475
371.6689, 52.30210
372.1511, 52.69223
372.6332, 53.27557
373.1153, 53.67302
373.5974, 53.62449
374.0795, 53.66674
374.5616, 54.19151
375.0438, 55.02490
375.5259, 55.68500
376.0080, 55.87937
376.4901, 55.77486
376.9722, 55.96370
377.4543, 56.70569
377.9365, 57.39823
378.4186, 58.00889
378.9007, 58.52787
379.3828, 58.88543
379.8649, 59.07808
380.3470, 59.26515
380.8292, 59.68330
381.3113, 60.45962
381.7934, 61.09459
382.2755, 61.50062
382.7576, 61.86234
383.2397, 62.29260
383.7219, 62.77847
384.2040, 63.22568
384.6861, 63.54925
385.1682, 63.76228
385.6503, 64.06168
386.1324, 64.66585
386.6146, 65.11177
387.0967, 65.19894
387.5788, 65.11931
388.0609, 65.12746
388.5430, 65.33096
389.0251, 65.62681
389.5073, 65.82310
389.9894, 65.95376
390.4715, 65.89469
390.9536, 65.59277
391.4357, 65.16730
391.9178, 64.61810
392.4000, 63.99091
392.8821, 63.42928
393.3642, 63.13878
393.8463, 63.13536
394.3284, 62.81222
394.8105, 61.86431
395.2927, 60.92846
395.7748, 60.20259
396.2569, 59.63944
396.7390, 59.15305
397.2211, 58.71930
397.7032, 58.29885
398.1854, 57.78427
398.6675, 57.11440
399.1496, 56.53226
399.6317, 56.23088
400.1138, 55.96391
400.5959, 55.51336
401.0781, 54.84723
401.5602, 54.17468
402.0423, 53.72557
402.5244, 53.47552
403.0065, 53.12384
403.4886, 52.54018
403.9708, 51.99571
404.4529, 51.78573
404.9350, 51.77547
405.4171, 51.56962
405.8992, 50.77047
406.3813, 49.79689
406.8635, 49.39407
407.3456, 49.63092
407.8277, 49.79002
408.3098, 49.39997
408.7919, 48.77129
409.2740, 48.45050
409.7562, 48.56714
410.2383, 48.72760
410.7204, 48.67851
411.2025, 48.48370
411.6846, 48.32587
412.1667, 48.24904
412.6489, 48.22559
413.1310, 48.28418
413.6131, 48.42672
414.0952, 48.37093
414.5773, 47.87597
415.0594, 47.29150
415.5416, 46.90376
416.0237, 46.73153
416.5058, 46.74435
416.9879, 46.97575
417.4700, 47.36084
417.9521, 47.54364
418.4343, 47.41914
418.9164, 47.25684
419.3985, 47.04931
419.8806, 46.87170
420.3627, 46.85708
420.8448, 47.04622
421.3270, 47.33390
421.8091, 47.57195
422.2912, 47.75886
422.7733, 47.88328
423.2554, 47.84344
423.7375, 47.83326
424.2197, 48.04907
424.7018, 48.41309
425.1839, 48.65191
425.6660, 48.54983
426.1481, 48.17163
426.6302, 47.95868
427.1124, 48.05008
427.5945, 48.15158
428.0766, 48.17587
428.5587, 48.21873
429.0408, 48.39174
429.5229, 48.72356
430.0051, 49.13782
430.4872, 49.59494
430.9693, 50.19066
431.4514, 50.42285
431.9335, 49.76238
432.4156, 49.18751
432.8978, 49.13933
433.3799, 49.50284
433.8620, 49.92579
434.3441, 50.20243
434.8262, 50.37663
435.3083, 50.57253
435.7905, 50.80058
436.2726, 51.01923
436.7547, 51.21431
437.2368, 51.39385
437.7189, 51.54138
438.2010, 51.64804
438.6832, 51.80589
439.1653, 52.12194
439.6474, 52.56720
440.1295, 53.00295
440.6116, 53.43585
441.0938, 53.79857
441.5759, 53.91768
442.0580, 53.89652
442.5401, 54.08084
443.0222, 54.79808
443.5043, 55.60255
443.9865, 55.98901
444.4686, 56.00215
444.9507, 56.09130
445.4328, 56.51234
445.9149, 57.08998
446.3970, 57.38557
446.8792, 57.26294
447.3613, 57.29554
447.8434, 57.80865
448.3255, 58.48312
448.8076, 58.85164
449.2897, 58.85820
449.7719, 58.92696
450.2540, 59.50904
450.7361, 60.64576
451.2182, 61.40830
451.7003, 61.51970
452.1824, 61.62146
452.6646, 61.98244
453.1467, 62.48594
453.6288, 62.90118
454.1109, 63.12767
454.5930, 63.27287
455.0751, 63.56501
455.5573, 64.14404
456.0394, 64.59422
456.5215, 64.82126
457.0036, 65.02113
457.4857, 65.37108
457.9678, 65.81459
458.4500, 66.12025
458.9321, 66.05681
459.4142, 65.72556
459.8963, 65.74637
460.3784, 66.32497
460.8605, 66.89752
461.3427, 67.43379
461.8248, 67.83511
462.3069, 67.96532
462.7890, 67.79141
463.2711, 67.50867
463.7532, 67.26626
464.2354, 67.06944
464.7175, 67.02924
465.1996, 67.22133
465.6817, 67.47544
466.1638, 67.74066
466.6459, 67.97559
467.1281, 68.05641
467.6102, 67.83558
468.0923, 67.53849
468.5744, 67.44092
469.0565, 67.51857
469.5386, 67.51937
470.0208, 67.29878
470.5029, 67.00865
470.9850, 66.97132
471.4671, 67.25733
471.9492, 67.36230
472.4313, 66.94636
472.9135, 66.41087
473.3956, 66.26357
473.8777, 66.50854
474.3598, 66.68948
474.8419, 66.42630
475.3240, 65.78371
475.8062, 65.40855
476.2883, 65.66271
476.7704, 65.70187
477.2525, 65.09812
477.7346, 64.30303
478.2167, 63.91645
478.6989, 64.07348
479.1810, 64.37949
479.6631, 64.31694
480.1452, 63.79857
480.6273, 63.35796
481.1094, 63.02116
481.5916, 62.73842
482.0737, 62.48001
482.5558, 62.26838
483.0379, 62.16750
483.5200, 62.22341
484.0021, 62.32149
484.4843, 62.16490
484.9664, 61.62620
485.4485, 61.42816
485.9306, 62.06777
486.4127, 62.79149
486.8948, 63.08873
487.3770, 62.99581
487.8591, 62.84875
488.3412, 62.77430
488.8233, 62.79317
489.3054, 62.95129
489.7875, 63.25096
490.2697, 63.67059
490.7518, 64.28866
491.2339, 64.96964
491.7160, 65.43107
492.1981, 65.57184
492.6802, 65.78281
493.1624, 66.29633
493.6445, 66.95371
494.1266, 67.49747
494.6087, 67.88907
495.0908, 68.28889
495.5729, 68.84440
496.0551, 69.55385
496.5372, 70.26662
497.0193, 70.98752
497.5014, 71.70384
497.9835, 72.48530
498.4656, 73.23694
498.9478, 73.78551
499.4299, 74.08671
499.9120, 74.32493
500.3941, 74.77473
500.8762, 75.50920
501.3583, 76.17662
501.8405, 76.74510
502.3226, 77.27657
502.8047, 77.67704
503.2868, 78.07436
503.7689, 78.72414
504.2510, 79.79610
504.7331, 81.00626
505.2152, 81.81459
505.6974, 82.16352
506.1795, 82.48564
506.6616, 82.92965
507.1437, 83.30340
507.6258, 83.40746
508.1079, 83.29314
508.5901, 83.24155
509.0722, 83.53564
509.5543, 83.89883
510.0364, 83.89416
510.5185, 83.52417
511.0006, 83.10878
511.4828, 82.85739
511.9649, 82.59176
512.4470, 81.88783
512.9291, 80.60677
513.4113, 79.44313
513.8934, 78.72787
514.3755, 78.12857
514.8576, 77.25327
515.3397, 76.10176
515.8218, 75.01269
516.3040, 74.25317
516.7861, 73.76069
517.2682, 73.09446
517.7503, 72.17554
518.2324, 71.17410
518.7145, 69.85069
519.1967, 68.59522
519.6788, 67.86247
520.1609, 67.66809
520.6430, 67.57034
521.1251, 67.12550
521.6072, 66.34092
522.0894, 65.57085
522.5715, 64.75526
523.0536, 64.05323
523.5357, 63.52806
524.0178, 63.12417
524.4999, 62.77300
524.9821, 62.45358
525.4642, 62.22126
525.9463, 62.24269
526.4284, 62.42284
526.9105, 62.28516
527.3926, 61.68562
527.8748, 61.00460
528.3569, 60.51485
528.8390, 60.18415
529.3211, 59.89075
529.8032, 59.55782
530.2853, 59.33661
530.7675, 59.43818
531.2496, 59.68921
531.7317, 59.73894
532.2138, 59.48391
532.6959, 59.07195
533.1780, 58.66659
533.6602, 58.25167
534.1423, 57.94762
534.6244, 57.91739
535.1065, 57.80079
535.5886, 57.32697
536.0707, 56.71881
536.5529, 56.34432
537.0350, 56.34732
537.5171, 56.52424
537.9992, 56.55414
538.4813, 56.40462
538.9634, 56.27994
539.4456, 56.27827
539.9277, 56.19893
540.4098, 55.88692
540.8919, 55.44273
541.3740, 55.06276
541.8561, 54.82038
542.3383, 54.67958
542.8204, 54.64595
543.3025, 54.70270
543.7846, 54.67104
544.2667, 54.46460
544.7488, 54.24108
545.2310, 54.20075
545.7131, 54.32069
546.1952, 54.39977
546.6773, 54.42306
547.1594, 54.38281
547.6415, 54.24903
548.1237, 54.04809
548.6058, 53.82561
549.0879, 53.59814
549.5700, 53.40248
550.0521, 53.30957
550.5342, 53.37759
551.0164, 53.37170
551.4985, 53.26633
551.9806, 53.12618
552.4627, 52.99818
552.9448, 52.85213
553.4269, 52.60150
553.9091, 52.19610
554.3912, 51.76278
554.8733, 51.51433
555.3554, 51.45853
555.8375, 51.53999
556.3196, 51.88209
556.8018, 52.21105
557.2839, 52.34067
557.7660, 52.32133
558.2481, 52.29250
558.7302, 52.29038
559.2123, 52.31495
559.6945, 52.37159
560.1766, 52.45659
560.6587, 52.56639
561.1408, 52.71519
561.6229, 52.83449
562.1050, 52.80613
562.5872, 52.58977
563.0693, 52.54913
563.5514, 52.89958
564.0335, 53.21410
564.5156, 53.16618
564.9977, 52.94944
565.4799, 52.95454
565.9620, 53.33308
566.4441, 53.86691
566.9262, 54.20652
567.4083, 54.29847
567.8904, 54.41230
568.3726, 54.55812
568.8547, 54.71661
569.3368, 54.85958
569.8189, 55.01661
570.3010, 55.25213
570.7831, 55.60796
571.2653, 55.96441
571.7474, 56.17699
572.2295, 56.25872
572.7116, 56.28879
573.1937, 56.21484
573.6758, 56.25532
574.1580, 56.70731
574.6401, 57.44712
575.1222, 57.98719
575.6043, 58.11990
576.0864, 58.22837
576.5685, 58.47480
577.0507, 58.82664
577.5328, 59.29094
578.0149, 59.85421
578.4970, 60.31742
578.9791, 60.42419
579.4612, 60.14859
579.9434, 60.17452
580.4255, 60.69950
580.9076, 61.30565
581.3897, 62.07469
581.8718, 62.81013
582.3539, 63.29856
582.8361, 63.49867
583.3182, 63.53180
583.8003, 63.44574
584.2824, 63.27126
584.7645, 63.24900
585.2466, 63.41615
585.7288, 63.63616
586.2108, 63.95057
586.6929, 64.22461
587.1750, 64.22986
587.6572, 63.89006
588.1393, 63.54570
588.6214, 63.32711
