##NAMES=Montebrasite
##RRUFFID=R040062
##IDEAL CHEMISTRY=LiAlPO_4_(OH)
##LOCALITY=Hebron, Maine, USA
##OWNER=RRUFF
##SOURCE=University of Arizona Mineral Museum
##DESCRIPTION=White massive
##STATUS=The identification of this mineral has been confirmed by X-ray diffraction and chemical analysis
##URL=rruff.info/R040062
##MEASURED CHEMISTRY=LiAl(PO_4_)((OH)_0.62_F_0.38_)
157.6808, 17231.30
158.1630, 17325.69
158.6451, 17409.96
159.1272, 17506.55
159.6093, 17630.14
160.0914, 17766.37
160.5735, 17893.87
161.0557, 18009.42
161.5378, 18110.16
162.0199, 18192.35
162.5020, 18247.62
162.9841, 18299.23
163.4662, 18351.43
163.9484, 18406.56
164.4305, 18470.41
164.9126, 18565.06
165.3947, 18660.22
165.8768, 18733.26
166.3589, 18780.62
166.8411, 18804.11
167.3232, 18791.70
167.8053, 18751.41
168.2874, 18719.93
168.7695, 18724.55
169.2516, 18748.07
169.7338, 18770.76
170.2159, 18779.66
170.6980, 18790.41
171.1801, 18817.48
171.6622, 18860.40
172.1443, 18907.05
172.6265, 18954.60
173.1086, 18999.43
173.5907, 19034.63
174.0728, 19048.39
174.5549, 19055.19
175.0370, 19070.00
175.5192, 19092.91
176.0013, 19124.47
176.4834, 19164.61
176.9655, 19213.83
177.4476, 19272.66
177.9297, 19359.79
178.4118, 19453.73
178.8940, 19510.07
179.3761, 19519.05
179.8582, 19514.98
180.3403, 19539.12
180.8224, 19587.36
181.3046, 19637.53
181.7867, 19673.84
182.2688, 19702.07
182.7509, 19736.52
183.2330, 19780.20
183.7151, 19829.49
184.1973, 19886.52
184.6794, 19949.65
185.1615, 20002.74
185.6436, 20022.93
186.1257, 20018.98
186.6078, 20029.24
187.0900, 20068.33
187.5721, 20120.99
188.0542, 20152.57
188.5363, 20162.56
189.0184, 20167.06
189.5005, 20180.69
189.9827, 20202.56
190.4648, 20224.27
190.9469, 20246.94
191.4290, 20267.59
191.9111, 20277.22
192.3932, 20276.25
192.8754, 20263.83
193.3575, 20227.83
193.8396, 20168.30
194.3217, 20131.68
194.8038, 20141.87
195.2859, 20192.89
195.7681, 20235.79
196.2502, 20271.00
196.7323, 20298.06
197.2144, 20313.73
197.6965, 20317.21
198.1786, 20320.22
198.6607, 20322.01
199.1429, 20322.11
199.6250, 20352.65
200.1071, 20427.59
200.5892, 20510.01
201.0713, 20522.61
201.5534, 20450.16
202.0356, 20385.34
202.5177, 20376.19
202.9998, 20427.69
203.4819, 20486.46
203.9640, 20553.49
204.4461, 20621.84
204.9283, 20672.79
205.4104, 20701.34
205.8925, 20727.21
206.3746, 20767.56
206.8567, 20830.35
207.3388, 20862.43
207.8210, 20846.88
208.3031, 20803.46
208.7852, 20801.76
209.2673, 20856.48
209.7494, 20920.43
210.2315, 20961.16
210.7137, 20972.21
211.1958, 20988.40
211.6779, 21014.82
212.1600, 21050.32
212.6421, 21087.27
213.1242, 21127.68
213.6064, 21165.99
214.0885, 21195.42
214.5706, 21210.89
215.0527, 21230.67
215.5348, 21255.32
216.0169, 21284.37
216.4991, 21328.05
216.9812, 21394.38
217.4633, 21462.28
217.9454, 21511.61
218.4275, 21534.44
218.9096, 21557.76
219.3917, 21591.39
219.8739, 21635.94
220.3560, 21656.31
220.8381, 21638.58
221.3202, 21613.97
221.8023, 21620.24
222.2844, 21679.18
222.7666, 21724.73
223.2487, 21735.15
223.7308, 21704.09
224.2129, 21701.50
224.6950, 21739.26
225.1771, 21795.01
225.6593, 21839.46
226.1414, 21870.07
226.6235, 21893.53
227.1056, 21907.02
227.5877, 21903.74
228.0698, 21924.15
228.5520, 21983.11
229.0341, 22054.56
229.5162, 22097.65
229.9983, 22092.61
230.4804, 22091.92
230.9625, 22116.92
231.4447, 22182.70
231.9268, 22219.40
232.4089, 22214.84
232.8910, 22188.63
233.3731, 22175.69
233.8552, 22179.19
234.3374, 22191.58
234.8195, 22211.88
235.3016, 22244.74
235.7837, 22273.31
236.2658, 22297.83
236.7479, 22318.40
237.2301, 22334.42
237.7122, 22342.87
238.1943, 22351.79
238.6764, 22364.28
239.1585, 22380.19
239.6406, 22400.88
240.1227, 22428.68
240.6049, 22460.63
241.0870, 22487.44
241.5691, 22499.74
242.0512, 22519.84
242.5333, 22560.63
243.0154, 22641.79
243.4976, 22697.10
243.9797, 22709.38
244.4618, 22696.38
244.9439, 22715.58
245.4260, 22789.78
245.9081, 22861.76
246.3903, 22900.16
246.8724, 22879.62
247.3545, 22881.76
247.8366, 22924.36
248.3187, 22990.21
248.8008, 23019.51
249.2830, 22994.02
249.7651, 22959.91
250.2472, 22943.34
250.7293, 22956.89
251.2114, 22961.03
251.6935, 22947.40
252.1757, 22924.58
252.6578, 22924.40
253.1399, 22955.82
253.6220, 22998.05
254.1041, 23040.91
254.5862, 23087.46
255.0684, 23127.77
255.5505, 23157.62
256.0326, 23180.65
256.5147, 23211.57
256.9968, 23248.23
257.4789, 23295.22
257.9611, 23357.25
258.4432, 23443.15
258.9253, 23518.70
259.4074, 23575.57
259.8895, 23618.65
260.3716, 23670.47
260.8538, 23732.87
261.3359, 23799.36
261.8180, 23865.41
262.3001, 23932.06
262.7822, 23995.88
263.2643, 24057.75
263.7465, 24116.40
264.2286, 24168.71
264.7107, 24212.22
265.1928, 24252.64
265.6749, 24289.19
266.1570, 24315.39
266.6392, 24364.81
267.1213, 24449.64
267.6034, 24560.74
268.0855, 24660.19
268.5676, 24751.22
269.0497, 24824.70
269.5318, 24870.09
270.0139, 24879.44
270.4961, 24895.83
270.9782, 24923.70
271.4603, 24963.08
271.9424, 25015.34
272.4245, 25083.39
272.9066, 25156.96
273.3888, 25232.00
273.8709, 25310.18
274.3530, 25378.17
274.8351, 25437.88
275.3172, 25483.92
275.7993, 25487.29
276.2815, 25434.64
276.7636, 25383.83
277.2457, 25381.24
277.7278, 25431.42
278.2099, 25476.21
278.6920, 25506.84
279.1742, 25527.02
279.6563, 25543.02
280.1384, 25550.60
280.6205, 25573.79
281.1026, 25642.84
281.5847, 25759.02
282.0669, 25846.48
282.5490, 25889.24
283.0311, 25902.73
283.5132, 25917.06
283.9953, 25929.37
284.4774, 25968.64
284.9596, 26060.37
285.4417, 26202.54
285.9238, 26358.56
286.4059, 26523.64
286.8880, 26700.36
287.3701, 26894.67
287.8523, 27104.94
288.3344, 27332.60
288.8165, 27573.52
289.2986, 27829.43
289.7807, 28109.62
290.2628, 28420.82
290.7450, 28748.51
291.2271, 29061.88
291.7092, 29362.59
292.1913, 29658.15
292.6734, 29943.78
293.1555, 30226.36
293.6377, 30541.34
294.1198, 30906.24
294.6019, 31284.69
295.0840, 31604.46
295.5661, 31875.35
296.0482, 32156.42
296.5304, 32509.31
297.0125, 32898.11
297.4946, 33258.86
297.9767, 33586.12
298.4588, 33867.58
298.9409, 34101.76
299.4231, 34278.95
299.9052, 34366.90
300.3873, 34334.54
300.8694, 34199.15
301.3515, 33979.41
301.8336, 33670.46
302.3158, 33302.02
302.7979, 32883.23
303.2800, 32425.37
303.7621, 31979.26
304.2442, 31540.49
304.7263, 31138.85
305.2085, 30803.93
305.6906, 30547.50
306.1727, 30329.02
306.6548, 30124.42
307.1369, 29932.64
307.6190, 29745.16
308.1012, 29541.30
308.5833, 29354.04
309.0654, 29216.45
309.5475, 29137.92
310.0296, 29070.21
310.5117, 28986.23
310.9938, 28889.93
311.4760, 28787.74
311.9581, 28675.95
312.4402, 28562.11
312.9223, 28445.96
313.4044, 28325.62
313.8865, 28226.31
314.3687, 28175.40
314.8508, 28150.87
315.3329, 28124.43
315.8150, 28095.78
316.2971, 28054.81
316.7792, 27987.22
317.2614, 27891.51
317.7435, 27814.14
318.2256, 27787.83
318.7077, 27783.06
319.1898, 27770.26
319.6719, 27730.21
320.1541, 27690.92
320.6362, 27662.31
321.1183, 27643.88
321.6004, 27626.11
322.0825, 27616.87
322.5646, 27601.09
323.0468, 27567.04
323.5289, 27478.18
324.0110, 27406.59
324.4931, 27381.58
324.9752, 27397.50
325.4573, 27384.58
325.9395, 27297.84
326.4216, 27203.71
326.9037, 27140.99
327.3858, 27160.52
327.8679, 27154.60
328.3500, 27095.26
328.8322, 26997.78
329.3143, 26937.34
329.7964, 26933.70
330.2785, 26950.40
330.7606, 26971.48
331.2427, 27005.48
331.7249, 27031.19
332.2070, 27051.62
332.6891, 27063.68
333.1712, 27055.27
333.6533, 27012.39
334.1354, 26969.93
334.6176, 26941.96
335.0997, 26929.34
335.5818, 26929.71
336.0639, 26946.43
336.5460, 26973.39
337.0281, 26998.82
337.5103, 27024.29
337.9924, 27042.58
338.4745, 27046.82
338.9566, 27033.63
339.4387, 27034.26
339.9208, 27054.61
340.4030, 27079.47
340.8851, 27082.84
341.3672, 27061.03
341.8493, 27046.36
342.3314, 27058.13
342.8135, 27092.60
343.2957, 27095.75
343.7778, 27059.84
344.2599, 27023.72
344.7420, 27038.94
345.2241, 27102.69
345.7062, 27164.23
346.1884, 27205.91
346.6705, 27233.78
347.1526, 27262.79
347.6347, 27291.89
348.1168, 27325.09
348.5989, 27372.97
349.0811, 27427.80
349.5632, 27466.40
350.0453, 27477.58
350.5274, 27472.35
351.0095, 27459.12
351.4916, 27439.78
351.9737, 27434.76
352.4558, 27472.57
352.9380, 27532.74
353.4201, 27582.44
353.9022, 27619.98
354.3843, 27637.55
354.8664, 27608.78
355.3485, 27549.68
355.8307, 27510.70
356.3128, 27533.87
356.7949, 27586.83
357.2770, 27645.62
357.7591, 27716.49
358.2412, 27760.24
358.7234, 27712.26
359.2055, 27620.86
359.6876, 27578.98
360.1697, 27674.84
360.6518, 27795.42
361.1339, 27879.34
361.6161, 27916.94
362.0982, 27931.99
362.5803, 27917.93
363.0624, 27890.61
363.5445, 27869.25
364.0266, 27843.68
364.5088, 27839.34
364.9909, 27875.87
365.4730, 27956.56
365.9551, 28022.92
366.4372, 28054.52
366.9193, 28074.45
367.4015, 28101.32
367.8836, 28147.44
368.3657, 28189.18
368.8478, 28223.77
369.3299, 28251.62
369.8120, 28273.68
370.2942, 28279.71
370.7763, 28288.65
371.2584, 28310.71
371.7405, 28350.50
372.2226, 28394.23
372.7047, 28443.80
373.1869, 28495.43
373.6690, 28541.63
374.1511, 28584.33
374.6332, 28615.39
375.1153, 28625.79
375.5974, 28606.17
376.0796, 28609.06
376.5617, 28643.92
377.0438, 28690.36
377.5259, 28713.34
378.0080, 28708.71
378.4901, 28709.31
378.9723, 28733.38
379.4544, 28777.98
379.9365, 28803.04
380.4186, 28805.68
380.9007, 28803.58
381.3828, 28818.65
381.8650, 28849.30
382.3471, 28875.86
382.8292, 28885.17
383.3113, 28890.47
383.7934, 28924.90
384.2755, 28987.79
384.7577, 29057.17
385.2398, 29117.54
385.7219, 29169.77
386.2040, 29217.49
386.6861, 29263.72
387.1682, 29300.03
387.6504, 29314.56
388.1325, 29309.76
388.6146, 29296.27
389.0967, 29260.66
389.5788, 29229.26
390.0609, 29236.72
390.5431, 29299.00
391.0252, 29362.80
391.5073, 29394.23
391.9894, 29405.35
392.4715, 29417.44
392.9536, 29440.44
393.4357, 29467.05
393.9178, 29496.90
394.4000, 29530.94
394.8821, 29557.11
395.3642, 29549.39
395.8463, 29541.27
396.3284, 29564.97
396.8105, 29681.18
397.2927, 29771.28
397.7748, 29795.28
398.2569, 29757.83
398.7390, 29736.64
399.2211, 29751.13
399.7032, 29773.12
400.1854, 29787.28
400.6675, 29783.54
401.1496, 29787.93
401.6317, 29806.47
402.1138, 29833.17
402.5959, 29850.10
403.0781, 29847.16
403.5602, 29852.65
404.0423, 29877.97
404.5244, 29924.94
405.0065, 29987.51
405.4886, 30074.58
405.9708, 30164.91
406.4529, 30222.82
406.9350, 30241.95
407.4171, 30268.16
407.8992, 30318.14
408.3813, 30387.65
408.8635, 30450.21
409.3456, 30504.71
409.8277, 30559.15
410.3098, 30612.94
410.7919, 30670.39
411.2740, 30754.18
411.7562, 30876.36
412.2383, 31019.69
412.7204, 31141.21
413.2025, 31248.47
413.6846, 31383.62
414.1667, 31581.29
414.6489, 31820.18
415.1310, 32074.85
415.6131, 32344.29
416.0952, 32609.13
416.5773, 32841.61
417.0594, 33054.21
417.5416, 33263.47
418.0237, 33462.99
418.5058, 33675.04
418.9879, 33920.69
419.4700, 34204.61
419.9521, 34479.73
420.4343, 34723.68
420.9164, 34953.62
421.3985, 35188.89
421.8806, 35408.63
422.3627, 35664.78
422.8448, 36002.87
423.3270, 36401.34
423.8091, 36757.61
424.2912, 37066.58
424.7733, 37319.55
425.2554, 37524.66
425.7375, 37733.29
426.2197, 37797.14
426.7018, 37701.08
427.1839, 37464.74
427.6660, 37119.60
428.1481, 36632.92
428.6302, 36082.14
429.1124, 35449.72
429.5945, 34729.91
430.0766, 34157.37
430.5587, 33762.73
431.0408, 33461.32
431.5229, 33171.16
432.0051, 32890.74
432.4872, 32644.91
432.9693, 32436.29
433.4514, 32267.96
433.9335, 32159.40
434.4156, 32111.17
434.8977, 32078.65
435.3799, 32042.94
435.8620, 31999.72
436.3441, 31922.92
436.8262, 31797.08
437.3083, 31687.85
437.7904, 31692.88
438.2726, 31776.54
438.7547, 31844.66
439.2368, 31837.07
439.7189, 31801.26
440.2010, 31778.07
440.6831, 31768.82
441.1653, 31768.05
441.6474, 31779.47
442.1295, 31794.50
442.6116, 31804.77
443.0937, 31811.26
443.5758, 31808.96
444.0580, 31782.44
444.5401, 31742.75
445.0222, 31729.11
445.5043, 31785.89
445.9864, 31843.07
446.4685, 31867.34
446.9507, 31838.71
447.4328, 31817.29
447.9149, 31797.79
448.3970, 31789.42
448.8791, 31806.59
449.3612, 31870.07
449.8434, 31921.37
450.3255, 31929.45
450.8076, 31898.61
451.2897, 31964.41
451.7718, 32178.54
452.2539, 32382.89
452.7361, 32436.32
453.2182, 32324.05
453.7003, 32230.06
454.1824, 32174.47
454.6645, 32148.11
455.1466, 32139.02
455.6288, 32146.94
456.1109, 32151.93
456.5930, 32133.67
457.0751, 32105.70
457.5572, 32103.62
458.0393, 32129.69
458.5215, 32172.17
459.0036, 32234.67
459.4857, 32304.41
459.9678, 32353.24
460.4499, 32347.68
460.9320, 32341.39
461.4142, 32388.57
461.8963, 32477.81
462.3784, 32556.38
462.8605, 32584.74
463.3426, 32600.44
463.8247, 32633.02
464.3069, 32699.91
464.7890, 32751.09
465.2711, 32735.74
465.7532, 32704.17
466.2353, 32730.52
466.7174, 32898.77
467.1996, 33052.39
467.6817, 33144.02
468.1638, 33170.90
468.6459, 33219.04
469.1280, 33295.38
469.6101, 33384.22
470.0923, 33479.96
470.5744, 33593.50
471.0565, 33677.20
471.5386, 33714.73
472.0207, 33729.50
472.5028, 33782.13
472.9850, 33879.99
473.4671, 33970.86
473.9492, 34026.58
474.4313, 34053.49
474.9134, 34089.45
475.3955, 34135.11
475.8776, 34193.26
476.3597, 34277.28
476.8419, 34378.39
477.3240, 34466.00
477.8061, 34530.20
478.2882, 34580.77
478.7703, 34623.93
479.2524, 34661.92
479.7346, 34703.13
480.2167, 34750.77
480.6988, 34803.46
481.1809, 34858.31
481.6630, 34912.67
482.1451, 34973.42
482.6273, 35052.16
483.1094, 35134.38
483.5915, 35201.69
484.0736, 35243.50
484.5557, 35273.53
485.0378, 35288.71
485.5200, 35290.51
486.0021, 35299.99
486.4842, 35328.83
486.9663, 35356.97
487.4484, 35378.68
487.9305, 35409.52
488.4127, 35397.72
488.8948, 35323.79
489.3769, 35227.63
489.8590, 35172.74
490.3411, 35166.28
490.8232, 35175.49
491.3054, 35204.04
491.7875, 35240.84
492.2696, 35214.29
492.7517, 35117.73
493.2338, 35023.25
493.7159, 34995.81
494.1981, 35018.00
494.6802, 35033.60
495.1623, 35032.12
495.6444, 35023.98
496.1265, 35039.71
496.6086, 35060.22
497.0908, 35036.43
497.5729, 34882.83
498.0550, 34720.13
498.5371, 34657.20
499.0192, 34695.67
499.5013, 34729.03
499.9835, 34693.07
500.4656, 34638.72
500.9477, 34606.90
501.4298, 34643.10
501.9119, 34651.31
502.3940, 34583.18
502.8762, 34475.80
503.3583, 34418.92
503.8404, 34450.71
504.3225, 34487.25
504.8046, 34507.00
505.2867, 34508.71
505.7689, 34501.17
506.2510, 34479.06
506.7331, 34455.80
507.2152, 34441.50
507.6973, 34436.09
508.1794, 34448.93
508.6616, 34493.26
509.1437, 34540.80
509.6258, 34519.91
510.1079, 34436.13
510.5900, 34363.82
511.0721, 34352.30
511.5543, 34377.20
512.0364, 34387.50
512.5185, 34382.02
513.0006, 34381.82
513.4827, 34408.71
513.9648, 34449.32
514.4470, 34486.30
514.9291, 34518.07
515.4112, 34538.59
515.8933, 34528.42
516.3754, 34503.43
516.8575, 34502.32
517.3397, 34562.96
517.8218, 34626.97
518.3039, 34668.71
518.7860, 34681.36
519.2681, 34702.65
519.7502, 34742.64
520.2324, 34785.45
520.7145, 34818.14
521.1966, 34832.43
521.6787, 34858.12
522.1608, 34907.42
522.6429, 34964.70
523.1251, 34986.96
523.6072, 34968.96
524.0893, 34943.89
524.5714, 34917.95
525.0535, 34894.84
525.5356, 34906.06
526.0178, 34954.30
526.4999, 34999.12
526.9820, 34960.79
527.4641, 34892.13
527.9462, 34931.98
528.4283, 35160.58
528.9105, 35404.33
529.3926, 35500.04
529.8747, 35484.70
530.3568, 35448.52
530.8389, 35436.79
531.3210, 35413.86
531.8032, 35330.68
532.2853, 35183.45
532.7674, 35114.86
533.2495, 35265.64
533.7316, 35445.96
534.2137, 35524.97
534.6959, 35394.58
535.1780, 35298.66
535.6601, 35241.39
536.1422, 35216.30
536.6243, 35213.79
537.1064, 35242.96
537.5885, 35270.84
538.0706, 35282.16
538.5527, 35281.12
539.0349, 35313.79
539.5170, 35385.25
539.9991, 35454.43
540.4812, 35483.95
540.9633, 35481.86
541.4454, 35476.42
541.9276, 35465.79
542.4097, 35470.27
542.8918, 35521.44
543.3739, 35605.37
543.8560, 35691.20
544.3381, 35792.19
544.8203, 35868.87
545.3024, 35866.48
545.7845, 35800.48
546.2666, 35768.48
546.7487, 35848.67
547.2308, 35947.35
547.7130, 36010.50
548.1951, 36015.92
548.6772, 36023.48
549.1593, 36046.13
549.6414, 36069.68
550.1235, 36075.52
550.6057, 36043.95
551.0878, 36037.19
551.5699, 36078.75
552.0520, 36149.67
552.5341, 36166.05
553.0162, 36116.78
553.4984, 36072.29
553.9805, 36076.46
554.4626, 36121.43
554.9447, 36165.03
555.4268, 36206.88
555.9089, 36241.63
556.3911, 36251.30
556.8732, 36251.45
557.3553, 36278.11
557.8374, 36361.13
558.3195, 36441.03
558.8016, 36456.85
559.2838, 36431.73
559.7659, 36419.77
560.2480, 36467.30
560.7301, 36511.86
561.2122, 36506.05
561.6943, 36439.73
562.1765, 36431.32
562.6586, 36564.81
563.1407, 36710.18
563.6228, 36786.63
564.1049, 36744.84
564.5870, 36737.27
565.0692, 36777.79
565.5513, 36844.57
566.0334, 36907.13
566.5155, 36967.96
566.9976, 37008.97
567.4797, 37019.68
567.9619, 37010.16
568.4440, 37006.21
568.9261, 37008.24
569.4082, 37022.16
569.8903, 37069.82
570.3724, 37126.20
570.8546, 37140.72
571.3367, 37100.18
571.8188, 37078.83
572.3009, 37167.70
572.7830, 37293.72
573.2651, 37366.42
573.7473, 37283.18
574.2294, 37223.56
574.7115, 37274.74
575.1936, 37396.26
575.6757, 37457.55
576.1578, 37382.36
576.6400, 37318.70
577.1221, 37313.57
577.6042, 37371.03
578.0863, 37425.77
578.5684, 37477.34
579.0505, 37526.10
579.5327, 37565.25
580.0148, 37594.08
580.4969, 37658.22
580.9790, 37771.96
581.4611, 37894.39
581.9432, 37958.64
582.4254, 37975.66
582.9075, 37990.72
583.3896, 38027.84
583.8717, 38065.71
584.3538, 38066.64
584.8359, 38041.44
585.3181, 38042.68
585.8002, 38132.94
586.2823, 38232.99
586.7644, 38283.39
587.2465, 38260.46
587.7286, 38267.23
588.2108, 38337.14
588.6929, 38438.13
589.1750, 38543.40
589.6571, 38670.54
590.1392, 38768.94
590.6213, 38827.76
591.1035, 38861.68
591.5856, 38900.17
592.0677, 38942.95
592.5498, 38994.90
593.0319, 39066.28
593.5140, 39146.95
593.9962, 39189.10
594.4783, 39193.72
594.9604, 39212.67
595.4425, 39305.30
595.9246, 39430.45
596.4067, 39521.42
596.8889, 39562.70
597.3710, 39609.34
597.8531, 39718.67
598.3352, 39846.27
598.8173, 39940.48
599.2994, 39932.32
599.7816, 39949.44
600.2637, 40045.75
600.7458, 40192.68
601.2279, 40299.86
601.7100, 40349.39
602.1921, 40380.10
602.6743, 40402.97
603.1564, 40417.59
603.6385, 40414.82
604.1206, 40392.16
604.6027, 40359.32
605.0848, 40309.55
605.5670, 40249.98
606.0491, 40236.86
606.5312, 40282.28
607.0133, 40340.97
607.4954, 40368.94
607.9775, 40371.36
608.4597, 40358.11
608.9418, 40311.28
609.4239, 40274.88
609.9060, 40278.75
610.3881, 40316.57
610.8702, 40371.04
611.3524, 40465.36
611.8345, 40549.19
612.3166, 40595.81
612.7987, 40600.37
613.2808, 40618.42
613.7629, 40640.93
614.2451, 40689.02
614.7272, 40784.29
615.2093, 40939.84
615.6914, 41074.90
616.1735, 41185.71
616.6556, 41276.42
617.1378, 41337.98
617.6199, 41377.44
618.1020, 41442.61
618.5840, 41549.87
619.0662, 41682.94
619.5483, 41835.18
620.0304, 41998.05
620.5125, 42148.41
620.9946, 42256.14
621.4767, 42358.99
621.9589, 42477.58
622.4410, 42613.63
622.9231, 42761.79
623.4052, 42927.71
623.8873, 43099.65
624.3694, 43270.25
624.8516, 43434.97
625.3337, 43610.91
625.8158, 43801.85
626.2979, 44001.55
626.7800, 44210.79
627.2621, 44434.23
627.7443, 44622.24
628.2264, 44754.97
628.7085, 44866.55
629.1906, 45032.90
629.6727, 45241.08
630.1548, 45421.58
630.6370, 45538.63
631.1191, 45612.61
631.6012, 45660.95
632.0833, 45685.08
632.5654, 45688.54
633.0475, 45653.64
633.5297, 45613.12
634.0118, 45589.71
634.4939, 45593.09
634.9760, 45585.56
635.4581, 45533.32
635.9402, 45489.11
636.4224, 45493.20
636.9045, 45546.99
637.3866, 45640.68
637.8687, 45771.73
638.3508, 45943.90
638.8329, 46183.08
639.3151, 46488.67
639.7972, 46784.65
640.2793, 47044.14
640.7614, 47285.16
641.2435, 47540.72
641.7256, 47808.95
642.2078, 48074.73
642.6899, 48332.97
643.1720, 48581.91
643.6541, 48845.29
644.1362, 49130.95
644.6183, 49301.28
645.1005, 49321.75
645.5826, 49209.87
646.0647, 48972.28
646.5468, 48622.94
647.0289, 48121.72
647.5110, 47415.96
647.9932, 46608.29
648.4753, 45843.76
648.9574, 45126.56
649.4395, 44384.68
649.9216, 43587.63
650.4037, 42796.17
650.8859, 42142.59
651.3680, 41616.68
651.8501, 41151.67
652.3322, 40754.06
652.8143, 40389.68
653.2964, 39997.55
653.7786, 39595.87
654.2607, 39277.54
654.7428, 39169.44
655.2249, 39091.21
