##NAMES=Montroydite
##RRUFFID=R070235
##IDEAL CHEMISTRY=Hg^2+^O
##LOCALITY=Clear Creek claim, southern San Benito County, California, USA
##OWNER=RRUFF
##SOURCE=Michael Scott
##DESCRIPTION=Red prismatic crystal with quartz, cinnabar and greenish yellow edgarbaileyite, R060500
##STATUS=The identification of this mineral is confirmed by single-crystal X-ray diffraction and chemical analysis.
##URL=rruff.info/R070235
##MEASURED CHEMISTRY=Hg_1.00_O
67.02234, 8.193812
67.50446, 7.684977
67.98657, 8.148335
68.46869, 9.174496
68.95081, 10.39529
69.43292, 11.99375
69.91504, 13.16762
70.39716, 14.26001
70.87927, 14.80974
71.36139, 14.16565
71.84351, 12.32729
72.32562, 10.21013
72.80774, 9.229879
73.28986, 10.35308
73.77197, 11.07832
74.25409, 10.98838
74.73621, 10.60998
75.21832, 10.73105
75.70044, 11.73176
76.18256, 12.94084
76.66467, 12.47431
77.14679, 9.365067
77.62891, 6.997261
78.11102, 6.894444
78.59314, 8.432178
79.07526, 9.880027
79.55737, 10.52140
80.03949, 10.54117
80.52161, 10.46434
81.00372, 10.13896
81.48584, 9.945666
81.96796, 10.46428
82.45007, 11.70713
82.93219, 12.35542
83.41431, 10.86602
83.89642, 8.672819
84.37854, 7.783685
84.86066, 9.314281
85.34277, 11.66365
85.82489, 12.07912
86.30701, 9.580119
86.78912, 7.886704
87.27124, 9.754802
87.75336, 13.14027
88.23547, 15.42550
88.71759, 14.93967
89.19971, 12.49623
89.68182, 11.30121
90.16394, 12.65308
90.64606, 13.59064
91.12817, 12.63248
91.61029, 10.58985
92.09241, 8.942863
92.57452, 8.898020
93.05664, 10.47672
93.53876, 11.61600
94.02087, 11.80139
94.50299, 11.98929
94.98511, 12.58180
95.46722, 13.46834
95.94934, 14.25195
96.43146, 14.52241
96.91357, 14.14454
97.39569, 13.83868
97.87781, 14.07352
98.35992, 14.00342
98.84204, 12.83522
99.32416, 10.66888
99.80627, 8.462770
100.2884, 7.431202
100.7705, 8.108186
101.2526, 8.786886
101.7347, 8.919769
102.2169, 9.355141
102.6990, 11.37380
103.1811, 15.19807
103.6632, 19.08962
104.1453, 19.95929
104.6274, 16.16226
105.1096, 13.51489
105.5917, 13.23740
106.0738, 14.25820
106.5559, 15.07208
107.0380, 15.12195
107.5201, 15.04648
108.0023, 16.31537
108.4844, 19.29753
108.9665, 21.88536
109.4486, 22.98512
109.9307, 23.10325
110.4128, 23.56822
110.8950, 24.88184
111.3771, 26.75209
111.8592, 28.70327
112.3413, 30.85998
112.8234, 32.71819
113.3055, 33.52082
113.7877, 33.44461
114.2698, 34.11048
114.7519, 36.21398
115.2340, 39.41733
115.7161, 43.35732
116.1982, 48.21102
116.6804, 53.19659
117.1625, 57.56236
117.6446, 61.29503
118.1267, 64.65438
118.6088, 67.23656
119.0909, 69.69942
119.5731, 72.63921
120.0552, 76.27448
120.5373, 80.23618
121.0194, 83.38824
121.5015, 84.46935
121.9836, 88.49906
122.4658, 98.97585
122.9479, 112.0610
123.4300, 124.1761
123.9121, 133.8191
124.3942, 142.0964
124.8763, 151.4431
125.3585, 161.9167
125.8406, 173.7332
126.3227, 187.6142
126.8048, 202.3932
127.2869, 217.2088
127.7690, 231.7008
128.2512, 245.4869
128.7333, 256.4030
129.2154, 262.0894
129.6975, 267.5192
130.1796, 273.1140
130.6617, 279.1189
131.1439, 286.3077
131.6260, 295.5365
132.1081, 305.9696
132.5902, 310.9861
133.0723, 306.1641
133.5544, 300.0392
134.0366, 294.3044
134.5187, 288.3392
135.0008, 280.4451
135.4829, 269.2273
135.9650, 254.9571
136.4471, 243.6386
136.9293, 237.0285
137.4114, 231.2634
137.8935, 224.3739
138.3756, 217.3100
138.8577, 212.3501
139.3398, 211.2334
139.8220, 214.0159
140.3041, 218.2675
140.7862, 223.9525
141.2683, 230.7298
141.7504, 239.5359
142.2325, 249.6089
142.7147, 258.4720
143.1968, 264.0476
143.6789, 266.1913
144.1610, 269.3013
144.6431, 272.9615
145.1252, 277.7715
145.6074, 284.4353
146.0895, 292.7823
146.5716, 301.8324
147.0537, 311.2242
147.5358, 320.8077
148.0179, 328.3988
148.5001, 333.6707
148.9822, 337.2546
149.4643, 339.7063
149.9464, 341.0422
150.4285, 340.5515
150.9106, 336.3044
151.3928, 329.0299
151.8749, 325.8954
152.3570, 330.9118
152.8391, 338.0598
153.3212, 342.4025
153.8033, 343.5857
154.2855, 342.2024
154.7676, 336.5417
155.2497, 328.1538
155.7318, 323.8052
156.2139, 328.0057
156.6960, 335.0667
157.1782, 338.0378
157.6603, 336.0560
158.1424, 333.6596
158.6245, 334.0889
159.1066, 336.7737
159.5887, 340.7611
160.0709, 348.4197
160.5530, 356.2844
161.0351, 358.0558
161.5172, 351.8966
161.9993, 346.0089
162.4814, 346.9048
162.9636, 352.2141
163.4457, 358.2202
163.9278, 363.0724
164.4099, 367.9919
164.8920, 376.3181
165.3741, 390.1684
165.8563, 401.3344
166.3384, 402.5623
166.8205, 397.9471
167.3026, 394.0140
167.7847, 392.9705
168.2668, 394.4006
168.7490, 398.4840
169.2311, 407.7573
169.7132, 413.7537
170.1953, 410.1439
170.6774, 400.9292
171.1595, 391.9704
171.6417, 385.3489
172.1238, 380.9400
172.6059, 378.7125
173.0880, 379.4979
173.5701, 380.9013
174.0522, 382.8529
174.5344, 384.5009
175.0165, 384.3362
175.4986, 380.9030
175.9807, 375.6292
176.4628, 372.4895
176.9449, 372.3385
177.4271, 372.8893
177.9092, 372.4021
178.3913, 372.1321
178.8734, 374.1127
179.3555, 380.0891
179.8376, 388.2910
180.3197, 393.5359
180.8019, 394.9161
181.2840, 394.6486
181.7661, 392.1348
182.2482, 389.0782
182.7303, 387.7771
183.2124, 389.6243
183.6946, 393.4756
184.1767, 396.0716
184.6588, 396.8698
185.1409, 397.2300
185.6230, 396.2359
186.1051, 395.5086
186.5873, 397.1685
187.0694, 402.4586
187.5515, 409.9719
188.0336, 416.0939
188.5157, 420.0463
188.9978, 423.7655
189.4800, 428.2564
189.9621, 432.5267
190.4442, 435.4636
190.9263, 436.4885
191.4084, 436.2726
191.8905, 436.2730
192.3727, 435.8976
192.8548, 436.9495
193.3369, 440.2486
193.8190, 444.6053
194.3011, 449.3071
194.7832, 454.1019
195.2654, 458.2443
195.7475, 459.4399
196.2296, 453.6699
196.7117, 452.8033
197.1938, 461.5399
197.6759, 473.2156
198.1581, 482.2456
198.6402, 486.7504
199.1223, 488.3647
199.6044, 489.9723
200.0865, 491.5414
200.5686, 493.1790
201.0508, 495.1457
201.5329, 497.0275
202.0150, 498.4305
202.4971, 499.2720
202.9792, 499.8255
203.4613, 500.5637
203.9435, 501.7131
204.4256, 502.5152
204.9077, 503.4156
205.3898, 503.7096
205.8719, 502.9279
206.3540, 500.9736
206.8362, 498.0544
207.3183, 493.8014
207.8004, 486.1761
208.2825, 482.7530
208.7646, 485.3944
209.2467, 490.2289
209.7289, 496.2957
210.2110, 502.7969
210.6931, 508.1467
211.1752, 509.9578
211.6573, 506.6288
212.1395, 505.6505
212.6216, 508.4003
213.1037, 512.1285
213.5858, 517.0015
214.0679, 522.0615
214.5500, 524.6872
215.0322, 521.0303
215.5143, 509.1037
215.9964, 504.4017
216.4785, 515.2944
216.9606, 525.5305
217.4427, 527.7595
217.9249, 523.6740
218.4070, 519.7786
218.8891, 521.8911
219.3712, 530.2556
219.8533, 535.7418
220.3354, 534.5568
220.8176, 534.0529
221.2997, 536.9977
221.7818, 542.1586
222.2639, 546.7628
222.7460, 548.7326
223.2281, 548.3857
223.7103, 548.9852
224.1924, 551.7772
224.6745, 554.2103
225.1566, 555.0403
225.6387, 555.3191
226.1208, 556.6906
226.6030, 560.1684
227.0851, 565.2787
227.5672, 569.8467
228.0493, 571.1626
228.5314, 575.9160
229.0135, 590.3060
229.4957, 606.6415
229.9778, 615.5648
230.4599, 612.7064
230.9420, 602.3872
231.4241, 594.3766
231.9062, 585.3455
232.3884, 585.4759
232.8705, 603.4630
233.3526, 625.6292
233.8347, 639.1884
234.3168, 640.0834
234.7989, 635.6445
235.2811, 638.9105
235.7632, 654.3137
236.2453, 667.0137
236.7274, 675.2689
237.2095, 681.2329
237.6916, 685.5333
238.1738, 688.6212
238.6559, 691.8693
239.1380, 697.1356
239.6201, 704.9726
240.1022, 712.8558
240.5843, 718.5257
241.0665, 725.9919
241.5486, 738.7998
242.0307, 756.1307
242.5128, 773.3110
242.9949, 785.5711
243.4770, 792.4737
243.9592, 799.8465
244.4413, 806.3849
244.9234, 814.8907
245.4055, 827.3730
245.8876, 842.8329
246.3697, 858.6237
246.8519, 873.1109
247.3340, 886.4153
247.8161, 898.5568
248.2982, 907.1798
248.7803, 918.0141
249.2624, 934.4029
249.7446, 953.9121
250.2267, 972.5010
250.7088, 988.0150
251.1909, 1001.367
251.6730, 1014.970
252.1551, 1028.153
252.6373, 1043.194
253.1194, 1063.234
253.6015, 1084.283
254.0836, 1101.629
254.5657, 1113.131
255.0478, 1122.013
255.5300, 1133.589
256.0121, 1148.614
256.4942, 1163.370
256.9763, 1177.600
257.4584, 1190.653
257.9406, 1202.601
258.4227, 1213.490
258.9048, 1221.615
259.3869, 1222.946
259.8690, 1216.981
260.3511, 1216.417
260.8333, 1228.042
261.3154, 1242.161
261.7975, 1252.054
262.2796, 1257.526
262.7617, 1261.618
263.2438, 1264.724
263.7260, 1267.649
264.2081, 1275.695
264.6902, 1292.396
265.1723, 1309.752
265.6544, 1321.588
266.1365, 1329.228
266.6187, 1336.751
267.1008, 1345.740
267.5829, 1355.980
268.0650, 1367.921
268.5471, 1382.735
269.0292, 1395.399
269.5114, 1401.465
269.9935, 1403.010
270.4756, 1402.901
270.9577, 1401.497
271.4398, 1399.042
271.9219, 1395.506
272.4041, 1390.850
272.8862, 1386.004
273.3683, 1380.217
273.8504, 1375.248
274.3325, 1374.344
274.8146, 1379.537
275.2968, 1385.387
275.7789, 1388.591
276.2610, 1389.476
276.7431, 1388.744
277.2252, 1385.144
277.7073, 1382.156
278.1895, 1386.585
278.6716, 1400.024
279.1537, 1411.689
279.6358, 1416.078
280.1179, 1416.522
280.6000, 1418.468
281.0822, 1423.093
281.5643, 1429.369
282.0464, 1435.608
282.5285, 1441.426
283.0106, 1451.719
283.4927, 1472.614
283.9749, 1494.693
284.4570, 1507.474
284.9391, 1510.902
285.4212, 1515.348
285.9033, 1529.249
286.3854, 1552.706
286.8676, 1576.474
287.3497, 1597.874
287.8318, 1622.128
288.3139, 1651.063
288.7960, 1684.911
289.2781, 1723.412
289.7603, 1766.251
290.2424, 1813.913
290.7245, 1868.060
291.2066, 1934.210
291.6887, 1999.593
292.1708, 2056.994
292.6530, 2114.499
293.1351, 2185.254
293.6172, 2273.542
294.0993, 2367.665
294.5814, 2444.924
295.0635, 2483.659
295.5457, 2548.072
296.0278, 2652.197
296.5099, 2769.276
296.9920, 2876.688
297.4741, 2974.565
297.9562, 3080.147
298.4384, 3212.904
298.9205, 3376.728
299.4026, 3543.366
299.8847, 3702.696
300.3668, 3874.590
300.8489, 4068.771
301.3311, 4281.934
301.8131, 4501.819
302.2953, 4717.069
302.7774, 4936.503
303.2595, 5207.100
303.7416, 5555.571
304.2237, 5920.202
304.7058, 6273.970
305.1880, 6640.844
305.6701, 7043.917
306.1522, 7491.466
306.6343, 7982.856
307.1164, 8513.586
307.5985, 9073.862
308.0807, 9703.053
308.5628, 10413.15
309.0449, 11193.76
309.5270, 12033.27
310.0091, 12935.52
310.4912, 13911.52
310.9734, 14975.54
311.4555, 16126.59
311.9376, 17332.89
312.4197, 18572.17
312.9018, 19898.48
313.3839, 21326.18
313.8661, 22856.20
314.3482, 24481.42
314.8303, 26215.78
315.3124, 28037.15
315.7945, 29912.23
316.2766, 31839.40
316.7588, 33812.88
317.2409, 35772.84
317.7230, 37785.76
318.2051, 39954.52
318.6872, 42295.38
319.1693, 44764.52
319.6515, 47327.47
320.1336, 49975.86
320.6157, 52720.97
321.0978, 55547.30
321.5799, 58472.89
322.0620, 61607.61
322.5442, 64960.34
323.0263, 68298.87
323.5084, 71609.23
323.9905, 74860.59
324.4726, 78046.76
324.9547, 81178.74
325.4369, 84176.06
325.9190, 87044.62
326.4011, 89779.50
326.8832, 91804.85
327.3653, 93103.66
327.8474, 93756.95
328.3296, 93811.20
328.8117, 93258.59
329.2938, 92048.09
329.7759, 90130.72
330.2580, 87558.61
330.7401, 84624.89
331.2223, 81262.41
331.7044, 77596.20
332.1865, 73361.73
332.6686, 68943.41
333.1507, 64723.43
333.6328, 60832.71
334.1150, 57169.52
334.5971, 53550.87
335.0792, 49926.81
335.5613, 46537.64
336.0434, 43363.71
336.5255, 40414.56
337.0077, 37730.89
337.4898, 35299.81
337.9719, 33062.81
338.4540, 30995.52
338.9361, 29093.89
339.4182, 27317.59
339.9004, 25666.69
340.3825, 24176.43
340.8646, 22863.91
341.3467, 21685.69
341.8288, 20599.70
342.3109, 19590.83
342.7931, 18643.24
343.2752, 17727.87
343.7573, 16837.51
344.2394, 16022.84
344.7215, 15316.23
345.2036, 14676.64
345.6858, 14071.85
346.1679, 13498.61
346.6500, 12953.64
347.1321, 12431.74
347.6142, 11936.88
348.0963, 11478.62
348.5785, 11060.50
349.0606, 10668.93
349.5427, 10293.18
350.0248, 9935.112
350.5069, 9606.835
350.9890, 9319.742
351.4712, 9054.388
351.9533, 8795.415
352.4354, 8543.089
352.9175, 8300.431
353.3996, 8070.791
353.8817, 7849.584
354.3639, 7621.745
354.8460, 7373.331
355.3281, 7149.179
355.8102, 6972.059
356.2923, 6819.020
356.7744, 6667.115
357.2566, 6510.379
357.7387, 6355.266
358.2208, 6209.127
358.7029, 6073.194
359.1850, 5938.347
359.6671, 5800.822
360.1493, 5668.374
360.6314, 5548.232
361.1135, 5435.762
361.5956, 5320.448
362.0777, 5194.958
362.5598, 5063.662
363.0420, 4941.509
363.5241, 4830.291
364.0062, 4726.476
364.4883, 4635.487
364.9704, 4547.188
365.4525, 4453.089
365.9347, 4351.778
366.4168, 4246.561
366.8989, 4138.500
367.3810, 4025.785
367.8631, 3927.649
368.3452, 3853.794
368.8274, 3784.150
369.3095, 3707.227
369.7916, 3625.861
370.2737, 3547.997
370.7558, 3479.738
371.2379, 3415.018
371.7201, 3343.240
372.2022, 3263.684
372.6843, 3185.167
373.1664, 3111.841
373.6485, 3041.890
374.1306, 2972.159
374.6128, 2902.299
375.0949, 2833.814
375.5770, 2768.250
376.0591, 2704.985
376.5412, 2643.373
377.0233, 2583.419
377.5055, 2523.937
377.9876, 2462.761
378.4697, 2399.772
378.9518, 2342.244
379.4339, 2295.323
379.9160, 2249.532
380.3982, 2200.133
380.8803, 2147.486
381.3624, 2092.993
381.8445, 2036.732
382.3266, 1981.489
382.8087, 1934.961
383.2909, 1908.864
383.7730, 1876.815
384.2551, 1835.045
384.7372, 1789.384
385.2193, 1740.971
385.7014, 1692.051
386.1836, 1649.452
386.6657, 1622.372
387.1478, 1612.073
387.6299, 1594.864
388.1120, 1563.192
388.5941, 1532.972
389.0763, 1514.333
389.5584, 1499.390
390.0405, 1473.845
390.5226, 1428.388
391.0047, 1378.509
391.4868, 1351.428
391.9690, 1350.179
392.4511, 1343.221
392.9332, 1316.042
393.4153, 1285.829
393.8974, 1270.823
394.3795, 1270.972
394.8617, 1269.244
395.3438, 1256.746
395.8259, 1237.281
396.3080, 1214.548
396.7901, 1188.441
397.2722, 1167.884
397.7544, 1162.406
398.2365, 1167.980
398.7186, 1162.618
399.2007, 1135.563
399.6828, 1109.956
400.1649, 1096.328
400.6471, 1089.687
401.1292, 1082.200
401.6113, 1071.247
402.0934, 1057.588
402.5755, 1041.679
403.0576, 1021.314
403.5398, 1005.951
404.0219, 1001.102
404.5040, 995.2835
404.9861, 979.1445
405.4682, 956.9125
405.9503, 940.0207
406.4325, 936.1108
406.9146, 941.8927
407.3967, 946.5703
407.8788, 952.2192
408.3609, 952.2032
408.8430, 943.3786
409.3252, 930.1509
409.8073, 914.5112
410.2894, 897.1721
410.7715, 880.7635
411.2536, 866.8481
411.7357, 855.5863
412.2179, 849.1725
412.7000, 849.7802
413.1821, 850.4095
413.6642, 845.4937
414.1463, 837.1846
414.6284, 829.5156
415.1106, 822.3691
415.5927, 817.0611
416.0748, 817.2103
416.5569, 820.3094
417.0390, 817.2792
417.5211, 803.8777
418.0033, 787.6104
418.4854, 780.2552
418.9675, 785.6741
419.4496, 787.0661
419.9317, 782.7535
420.4138, 775.1682
420.8960, 762.8083
421.3781, 748.1838
421.8602, 738.6981
422.3423, 739.8732
422.8244, 748.1714
423.3065, 747.9020
423.7887, 730.3115
424.2708, 717.7224
424.7529, 717.3210
425.2350, 719.0954
425.7171, 713.3811
426.1992, 699.6462
426.6814, 686.6255
427.1635, 683.9792
427.6456, 690.6445
428.1277, 694.4064
428.6098, 695.5425
429.0919, 693.1212
429.5741, 684.0701
430.0562, 671.9451
430.5383, 661.9222
431.0204, 655.3278
431.5025, 650.8139
431.9846, 648.3721
432.4668, 647.2756
432.9489, 644.5666
433.4310, 639.0688
433.9131, 633.2322
434.3952, 630.2475
434.8773, 630.5143
435.3595, 629.5763
435.8416, 625.8826
436.3237, 622.1170
436.8058, 619.6281
437.2879, 618.4176
437.7701, 618.7457
438.2522, 620.9592
438.7343, 623.3698
439.2164, 621.4637
439.6985, 611.8341
440.1806, 603.8803
440.6628, 597.0919
441.1449, 592.3114
441.6270, 590.5892
442.1091, 591.5020
442.5912, 593.6948
443.0733, 597.2355
443.5555, 600.8397
444.0376, 598.7083
444.5197, 588.5493
445.0018, 579.0555
445.4839, 572.8819
445.9660, 569.3637
446.4482, 568.0429
446.9303, 568.8668
447.4124, 571.9597
447.8945, 581.1406
448.3766, 591.9239
448.8587, 593.3794
449.3409, 583.5065
449.8230, 572.0679
450.3051, 565.9673
450.7872, 565.1137
451.2693, 566.4757
451.7514, 574.5712
452.2336, 579.4832
452.7157, 574.2688
453.1978, 565.2334
453.6799, 561.8830
454.1620, 566.7170
454.6441, 574.1485
455.1263, 576.6874
455.6084, 573.0128
456.0905, 571.9246
456.5726, 575.4565
457.0547, 579.6351
457.5368, 583.8538
458.0190, 587.8043
458.5011, 591.5949
458.9832, 595.5984
459.4653, 597.8649
459.9474, 593.3849
460.4295, 581.9905
460.9117, 577.1197
461.3938, 584.9918
461.8759, 595.1576
462.3580, 598.4725
462.8401, 595.9254
463.3222, 592.1558
463.8044, 584.7179
464.2865, 579.4700
464.7686, 585.0670
465.2507, 598.2991
465.7328, 605.7341
466.2149, 600.8531
466.6971, 589.6036
467.1792, 583.6337
467.6613, 586.5004
468.1434, 587.3517
468.6255, 584.8763
469.1076, 581.5707
469.5898, 580.4586
470.0719, 579.9954
470.5540, 575.2062
471.0361, 562.2461
471.5182, 544.7004
472.0003, 533.3213
472.4825, 530.8876
472.9646, 527.2431
473.4467, 517.5285
473.9288, 507.9358
474.4109, 503.2273
474.8930, 503.1824
475.3752, 503.0154
475.8573, 498.7094
476.3394, 493.0475
476.8215, 491.7615
477.3036, 495.0218
477.7857, 496.4213
478.2679, 491.5642
478.7500, 483.8132
479.2321, 482.0276
479.7142, 489.5978
480.1963, 493.7698
480.6784, 490.6999
481.1606, 484.1572
481.6427, 476.1560
482.1248, 467.7162
482.6069, 460.8450
483.0890, 456.9987
483.5711, 455.9596
484.0533, 456.7711
484.5354, 462.5761
485.0175, 464.9189
485.4996, 460.6105
485.9817, 454.2354
486.4638, 448.5565
486.9460, 444.2728
487.4281, 442.1056
487.9102, 443.5110
488.3923, 447.4201
488.8744, 450.8247
489.3565, 453.7779
489.8387, 455.8054
490.3208, 456.9915
490.8029, 456.8033
491.2850, 454.1532
491.7671, 447.9200
492.2492, 442.4959
492.7314, 439.4389
493.2135, 437.9560
493.6956, 437.9277
494.1777, 438.9291
494.6598, 438.9151
495.1419, 436.0457
495.6241, 431.0149
496.1062, 428.2489
496.5883, 428.4767
497.0704, 430.1773
497.5525, 434.3321
498.0346, 439.0439
498.5168, 443.1939
498.9989, 446.4086
499.4810, 448.2153
499.9631, 447.2360
500.4452, 444.5730
500.9273, 445.2555
501.4095, 450.5939
501.8916, 453.5451
502.3737, 448.8212
502.8558, 441.2227
503.3379, 438.4172
503.8200, 441.4113
504.3022, 445.5453
504.7843, 450.2857
505.2664, 454.5612
505.7485, 457.1615
506.2306, 457.9940
506.7127, 456.9859
507.1949, 453.6296
507.6770, 449.0396
508.1591, 448.2174
508.6412, 455.6970
509.1233, 460.3367
509.6054, 459.0853
510.0876, 456.8210
510.5697, 457.4789
511.0518, 460.8263
511.5339, 463.6726
512.0161, 463.1628
512.4982, 460.8659
512.9803, 461.6500
513.4624, 466.2310
513.9445, 469.3571
514.4266, 467.8201
514.9088, 465.1471
515.3909, 466.1849
515.8730, 471.2206
516.3551, 476.0147
516.8372, 479.3929
517.3193, 481.9012
517.8015, 483.9389
518.2836, 485.5708
518.7657, 486.6921
519.2478, 487.1104
519.7299, 487.5818
520.2120, 489.9449
520.6942, 495.0141
521.1763, 500.5205
521.6584, 507.5316
522.1405, 513.9240
522.6226, 517.3730
523.1047, 519.2827
523.5869, 523.3382
524.0690, 532.0664
524.5511, 542.6277
525.0332, 550.0610
525.5153, 554.3914
525.9974, 560.2443
526.4796, 570.6664
526.9617, 579.7402
527.4438, 577.2559
527.9259, 565.1547
528.4080, 562.5188
528.8901, 581.4182
529.3723, 601.2031
529.8544, 607.7243
530.3365, 606.6933
530.8186, 609.2072
531.3007, 619.1306
531.7828, 633.9289
532.2650, 651.1375
532.7471, 672.1922
533.2292, 687.0081
533.7113, 690.5448
534.1934, 693.4273
534.6755, 698.6107
535.1577, 705.1626
535.6398, 711.3088
536.1219, 716.3801
536.6040, 722.8324
537.0861, 733.0194
537.5682, 746.4052
538.0504, 761.8482
538.5325, 779.4448
539.0146, 796.5791
539.4967, 810.4501
539.9788, 822.2840
540.4609, 837.8104
540.9431, 858.3257
541.4252, 880.4732
541.9073, 904.3140
542.3894, 928.9822
542.8715, 952.1769
543.3536, 974.8644
543.8358, 1002.003
544.3179, 1038.281
544.8000, 1081.532
545.2821, 1120.367
545.7642, 1148.451
546.2463, 1189.413
546.7285, 1257.088
547.2106, 1334.298
547.6927, 1404.578
548.1748, 1469.138
548.6569, 1549.285
549.1390, 1656.393
549.6211, 1781.620
550.1032, 1912.518
550.5853, 2051.977
551.0674, 2210.563
551.5496, 2394.352
552.0317, 2598.669
552.5138, 2817.969
552.9959, 3057.931
553.4780, 3296.628
553.9601, 3524.531
554.4423, 3762.585
554.9244, 4017.325
555.4065, 4288.498
555.8886, 4572.564
556.3707, 4869.268
556.8528, 5184.942
557.3350, 5522.686
557.8171, 5884.481
558.2992, 6289.968
558.7813, 6747.298
559.2634, 7227.764
559.7455, 7706.479
560.2277, 8197.792
560.7098, 8737.018
561.1919, 9362.315
561.6740, 9971.723
562.1561, 10536.21
562.6382, 11066.99
