##NAMES=Montebrasite
##RRUFFID=R060890
##IDEAL CHEMISTRY=LiAlPO_4_(OH)
##LOCALITY=Mount Marie, Paris, Maine, USA
##OWNER=RRUFF
##SOURCE=Bob Jenkins
##DESCRIPTION=Colorless massive
##STATUS=The identification of this mineral is confirmed by single-crystal X-ray diffraction and chemical analysis.
##URL=rruff.info/R060890
##MEASURED CHEMISTRY=Li_1.00_Al_1.00_(P_1.00_O_4_)(OH)_0.63_F_0.37_)_Î£=1_ ; Li not measured but estimated by stoichiometry
149.9679, 6658.068
150.4500, 6675.056
150.9321, 6718.553
151.4142, 6753.754
151.8964, 6779.297
152.3785, 6796.898
152.8606, 6810.108
153.3427, 6804.485
153.8248, 6806.466
154.3069, 6827.701
154.7890, 6885.884
155.2712, 6943.567
155.7533, 6996.997
156.2354, 7046.334
156.7175, 7093.774
157.1996, 7132.640
157.6817, 7174.246
158.1639, 7225.963
158.6460, 7299.714
159.1281, 7373.289
159.6102, 7439.816
160.0923, 7499.219
160.5744, 7557.363
161.0566, 7607.960
161.5387, 7660.573
162.0208, 7724.587
162.5029, 7818.430
162.9850, 7911.299
163.4671, 7991.135
163.9493, 8056.380
164.4314, 8107.238
164.9135, 8134.720
165.3956, 8149.244
165.8777, 8165.875
166.3598, 8206.986
166.8420, 8242.658
167.3241, 8246.070
167.8062, 8205.978
168.2883, 8168.622
168.7704, 8175.842
169.2525, 8209.279
169.7346, 8227.893
170.2168, 8191.815
170.6989, 8138.963
171.1810, 8109.089
171.6631, 8117.297
172.1452, 8131.631
172.6273, 8121.879
173.1095, 8093.855
173.5916, 8068.822
174.0737, 8069.925
174.5558, 8079.927
175.0379, 8071.091
175.5201, 8023.826
176.0022, 7971.585
176.4843, 7957.998
176.9664, 7979.144
177.4485, 8004.423
177.9306, 8010.276
178.4128, 8003.188
178.8949, 7996.669
179.3770, 7992.162
179.8591, 7992.143
180.3412, 8003.394
180.8233, 8026.089
181.3055, 8049.130
181.7876, 8062.966
182.2697, 8068.848
182.7518, 8071.484
183.2339, 8073.446
183.7160, 8073.112
184.1982, 8061.243
184.6803, 8035.304
185.1624, 8015.718
185.6445, 8038.165
186.1266, 8094.410
186.6087, 8134.946
187.0908, 8123.845
187.5730, 8076.009
188.0551, 8053.841
188.5372, 8063.743
189.0193, 8082.086
189.5014, 8070.147
189.9835, 8029.305
190.4657, 7994.567
190.9478, 7990.877
191.4299, 8013.024
191.9120, 8021.949
192.3941, 8014.240
192.8762, 7994.855
193.3584, 7970.846
193.8405, 7942.239
194.3226, 7912.152
194.8047, 7880.663
195.2868, 7848.088
195.7689, 7822.693
196.2511, 7806.833
196.7332, 7796.875
197.2153, 7781.726
197.6974, 7759.813
198.1795, 7742.655
198.6616, 7743.526
199.1438, 7764.205
199.6259, 7770.925
200.1080, 7755.496
200.5901, 7724.402
201.0722, 7698.550
201.5543, 7675.982
202.0364, 7664.562
202.5186, 7673.951
203.0007, 7706.847
203.4828, 7739.477
203.9649, 7767.589
204.4470, 7791.707
204.9291, 7816.630
205.4113, 7844.488
205.8934, 7867.494
206.3755, 7875.275
206.8576, 7863.224
207.3397, 7856.999
207.8218, 7865.167
208.3040, 7886.278
208.7861, 7894.093
209.2682, 7881.920
209.7503, 7868.614
210.2324, 7878.257
210.7145, 7920.248
211.1967, 7953.918
211.6788, 7966.830
212.1609, 7958.336
212.6430, 7956.070
213.1251, 7960.814
213.6072, 7971.287
214.0894, 7986.415
214.5715, 8007.151
215.0536, 8030.308
215.5357, 8056.322
216.0178, 8086.409
216.4999, 8107.929
216.9820, 8116.870
217.4642, 8120.169
217.9463, 8129.854
218.4284, 8152.352
218.9105, 8165.541
219.3926, 8157.039
219.8747, 8117.658
220.3569, 8101.629
220.8390, 8120.739
221.3211, 8155.111
221.8032, 8169.896
222.2853, 8155.174
222.7674, 8140.111
223.2496, 8135.043
223.7317, 8141.929
224.2138, 8154.366
224.6959, 8178.933
225.1780, 8206.033
225.6601, 8213.997
226.1423, 8187.316
226.6244, 8167.818
227.1065, 8175.581
227.5886, 8228.586
228.0707, 8261.542
228.5528, 8265.282
229.0350, 8251.597
229.5171, 8251.921
229.9992, 8277.762
230.4813, 8299.552
230.9634, 8302.485
231.4455, 8273.243
231.9276, 8255.190
232.4098, 8252.986
232.8919, 8261.457
233.3740, 8264.385
233.8561, 8255.469
234.3382, 8250.335
234.8203, 8258.372
235.3025, 8291.841
235.7846, 8312.324
236.2667, 8316.275
236.7488, 8306.852
237.2309, 8293.248
237.7130, 8268.282
238.1952, 8249.348
238.6773, 8247.548
239.1594, 8276.176
239.6415, 8293.348
240.1236, 8290.936
240.6057, 8275.340
241.0879, 8274.765
241.5700, 8299.699
242.0521, 8325.790
242.5342, 8338.746
243.0163, 8329.853
243.4984, 8325.760
243.9806, 8329.325
244.4627, 8338.822
244.9448, 8344.867
245.4269, 8336.812
245.9090, 8338.407
246.3911, 8368.528
246.8732, 8455.804
247.3554, 8507.946
247.8375, 8500.688
248.3196, 8449.388
248.8017, 8438.196
249.2838, 8496.472
249.7659, 8555.771
250.2481, 8572.205
250.7302, 8523.734
251.2123, 8481.515
251.6944, 8448.766
252.1765, 8426.967
252.6586, 8423.823
253.1408, 8450.230
253.6229, 8481.086
254.1050, 8500.334
254.5871, 8502.481
255.0692, 8506.393
255.5513, 8512.900
256.0334, 8522.471
256.5156, 8537.983
256.9977, 8560.440
257.4798, 8587.418
257.9619, 8615.104
258.4440, 8636.899
258.9261, 8678.367
259.4083, 8752.255
259.8904, 8849.588
260.3725, 8916.549
260.8546, 8941.254
261.3367, 8955.309
261.8188, 8977.652
262.3010, 9006.879
262.7831, 9049.280
263.2652, 9109.479
263.7473, 9183.306
264.2294, 9253.473
264.7115, 9317.693
265.1937, 9381.169
265.6758, 9449.229
266.1579, 9525.449
266.6400, 9589.520
267.1221, 9634.986
267.6042, 9666.943
268.0864, 9706.243
268.5685, 9756.142
269.0506, 9807.676
269.5327, 9854.886
270.0148, 9897.091
270.4969, 9939.693
270.9791, 9985.840
271.4612, 10032.64
271.9433, 10064.51
272.4254, 10077.25
272.9075, 10087.24
273.3896, 10106.76
273.8718, 10137.78
274.3539, 10164.90
274.8360, 10187.18
275.3181, 10204.18
275.8002, 10214.47
276.2823, 10217.36
276.7645, 10215.51
277.2466, 10206.56
277.7287, 10188.53
278.2108, 10184.43
278.6929, 10200.92
279.1750, 10229.21
279.6572, 10239.52
280.1393, 10226.16
280.6214, 10224.72
281.1035, 10263.56
281.5856, 10343.06
282.0677, 10423.20
282.5499, 10501.12
283.0320, 10575.78
283.5141, 10639.17
283.9962, 10689.06
284.4783, 10749.88
284.9604, 10836.03
285.4425, 10947.71
285.9247, 11081.04
286.4068, 11239.56
286.8889, 11412.05
287.3710, 11564.58
287.8531, 11696.55
288.3352, 11859.23
288.8174, 12095.11
289.2995, 12394.02
289.7816, 12691.90
290.2637, 12970.69
290.7458, 13259.18
291.2279, 13605.86
291.7101, 14007.84
292.1922, 14428.10
292.6743, 14828.38
293.1564, 15225.02
293.6385, 15673.45
294.1206, 16180.51
294.6028, 16723.11
295.0849, 17276.99
295.5670, 17844.00
296.0491, 18436.24
296.5312, 19063.97
297.0133, 19718.27
297.4955, 20377.17
297.9776, 21027.24
298.4597, 21685.93
298.9418, 22390.13
299.4239, 23118.80
299.9060, 23789.62
300.3882, 24367.07
300.8703, 24854.79
301.3524, 25262.88
301.8345, 25598.23
302.3166, 25797.94
302.7987, 25800.85
303.2809, 25620.92
303.7630, 25292.58
304.2451, 24799.55
304.7272, 24179.99
305.2093, 23454.82
305.6914, 22608.04
306.1736, 21767.13
306.6557, 21001.54
307.1378, 20300.13
307.6199, 19639.63
308.1020, 18988.31
308.5841, 18381.78
309.0663, 17858.02
309.5484, 17411.54
310.0305, 17008.70
310.5126, 16629.54
310.9947, 16273.55
311.4768, 15945.75
311.9590, 15652.60
312.4411, 15383.48
312.9232, 15140.02
313.4053, 14920.03
313.8874, 14711.26
314.3695, 14511.41
314.8517, 14313.81
315.3337, 14111.25
315.8159, 13885.45
316.2980, 13670.08
316.7801, 13483.15
317.2622, 13321.28
317.7443, 13156.36
318.2264, 12963.08
318.7086, 12772.70
319.1907, 12608.78
319.6728, 12495.98
320.1549, 12387.60
320.6370, 12270.56
321.1191, 12147.50
321.6013, 12028.11
322.0834, 11920.14
322.5655, 11813.67
323.0476, 11703.39
323.5297, 11584.74
324.0118, 11467.32
324.4940, 11346.70
324.9761, 11227.47
325.4582, 11122.26
325.9403, 11039.82
326.4224, 10965.63
326.9045, 10893.49
327.3867, 10822.21
327.8688, 10754.55
328.3509, 10698.19
328.8330, 10644.50
329.3151, 10575.67
329.7972, 10461.19
330.2794, 10364.66
330.7615, 10308.82
331.2436, 10311.05
331.7257, 10298.35
332.2078, 10265.36
332.6899, 10220.61
333.1721, 10175.61
333.6542, 10130.69
334.1363, 10085.62
334.6184, 10037.43
335.1005, 9985.050
335.5826, 9949.869
336.0648, 9943.995
336.5469, 9940.808
337.0290, 9903.651
337.5111, 9811.480
337.9932, 9749.839
338.4753, 9748.379
338.9575, 9798.723
339.4396, 9820.395
339.9217, 9808.661
340.4038, 9779.098
340.8859, 9738.982
341.3680, 9686.206
341.8502, 9647.611
342.3323, 9631.854
342.8144, 9632.507
343.2965, 9630.315
343.7786, 9625.167
344.2607, 9619.712
344.7429, 9620.832
345.2250, 9626.836
345.7071, 9613.623
346.1892, 9569.163
346.6713, 9518.325
347.1534, 9511.087
347.6355, 9545.241
348.1176, 9581.701
348.5998, 9600.176
349.0819, 9602.192
349.5640, 9587.258
350.0461, 9548.971
350.5282, 9513.974
351.0103, 9522.058
351.4925, 9562.686
351.9746, 9600.031
352.4567, 9612.899
352.9388, 9611.762
353.4209, 9611.780
353.9030, 9614.146
354.3852, 9613.880
354.8673, 9605.510
355.3494, 9591.920
355.8315, 9578.199
356.3136, 9557.417
356.7957, 9544.006
357.2779, 9558.139
357.7600, 9599.236
358.2421, 9632.858
358.7242, 9627.727
359.2063, 9608.778
359.6884, 9602.616
360.1706, 9630.250
360.6527, 9660.311
361.1348, 9674.696
361.6169, 9677.021
362.0990, 9686.951
362.5811, 9729.727
363.0633, 9771.389
363.5454, 9787.618
364.0275, 9748.271
364.5096, 9720.146
364.9917, 9731.766
365.4738, 9767.055
365.9560, 9783.979
366.4381, 9741.232
366.9202, 9706.467
367.4023, 9711.417
367.8844, 9787.138
368.3665, 9839.108
368.8487, 9848.704
369.3308, 9836.132
369.8129, 9831.262
370.2950, 9832.416
370.7771, 9843.774
371.2592, 9874.194
371.7414, 9930.694
372.2235, 9951.962
372.7056, 9914.502
373.1877, 9862.766
373.6698, 9846.719
374.1519, 9883.286
374.6341, 9912.550
375.1162, 9920.962
375.5983, 9911.013
376.0804, 9903.250
376.5625, 9896.740
377.0446, 9894.605
377.5267, 9904.388
378.0089, 9929.150
378.4910, 9935.430
378.9731, 9913.968
379.4552, 9877.130
379.9373, 9857.601
380.4194, 9856.684
380.9016, 9854.942
381.3837, 9834.400
381.8658, 9800.710
382.3479, 9788.753
382.8300, 9805.668
383.3121, 9829.188
383.7943, 9825.601
384.2764, 9799.999
384.7585, 9776.272
385.2406, 9768.784
385.7227, 9769.646
386.2048, 9760.780
386.6870, 9740.881
387.1691, 9729.422
387.6512, 9757.287
388.1333, 9803.486
388.6154, 9831.533
389.0975, 9810.844
389.5797, 9780.529
390.0618, 9777.045
390.5439, 9796.121
391.0260, 9812.561
391.5081, 9809.823
391.9902, 9799.324
392.4724, 9791.384
392.9545, 9791.510
393.4366, 9790.380
393.9187, 9778.156
394.4008, 9761.834
394.8829, 9757.353
395.3651, 9782.445
395.8472, 9810.981
396.3293, 9829.925
396.8114, 9834.240
397.2935, 9840.223
397.7756, 9852.671
398.2578, 9867.236
398.7399, 9878.343
399.2220, 9881.297
399.7041, 9884.764
400.1862, 9889.854
400.6683, 9896.451
401.1505, 9905.212
401.6326, 9917.237
402.1147, 9930.474
402.5968, 9942.966
403.0789, 9952.301
403.5610, 9967.019
404.0432, 9989.765
404.5253, 10018.60
405.0074, 10042.85
405.4895, 10057.01
405.9716, 10081.87
406.4537, 10132.53
406.9359, 10211.07
407.4180, 10288.60
407.9001, 10365.20
408.3822, 10437.91
408.8643, 10497.50
409.3464, 10544.14
409.8285, 10602.57
410.3106, 10676.54
410.7928, 10769.90
411.2749, 10901.66
411.7570, 11074.14
412.2391, 11266.15
412.7212, 11448.32
413.2033, 11635.50
413.6855, 11865.92
414.1676, 12160.90
414.6497, 12493.89
415.1318, 12827.31
415.6139, 13167.17
416.0960, 13528.08
416.5782, 13916.96
417.0603, 14337.90
417.5424, 14789.49
418.0245, 15266.91
418.5066, 15784.99
418.9887, 16366.32
419.4709, 16993.69
419.9530, 17649.19
420.4351, 18290.83
420.9172, 18982.15
421.3993, 19752.93
421.8814, 20610.64
422.3636, 21506.81
422.8457, 22447.20
423.3278, 23415.74
423.8099, 24383.20
424.2920, 25540.38
424.7741, 26491.83
425.2563, 27247.28
425.7384, 27789.91
426.2205, 27936.84
426.7026, 27658.96
427.1847, 27025.41
427.6668, 26038.25
428.1490, 24559.40
428.6311, 23062.60
429.1132, 21488.98
429.5953, 19927.35
430.0774, 18552.60
430.5595, 17370.41
431.0417, 16332.23
431.5238, 15439.40
432.0059, 14688.79
432.4880, 14042.59
432.9701, 13504.52
433.4522, 13056.76
433.9344, 12691.65
434.4165, 12407.52
434.8986, 12155.29
435.3807, 11928.01
435.8628, 11721.50
436.3449, 11521.70
436.8271, 11331.79
437.3092, 11174.15
437.7913, 11086.03
438.2734, 11033.69
438.7555, 10967.10
439.2376, 10876.37
439.7197, 10785.30
440.2018, 10712.04
440.6840, 10651.89
441.1661, 10596.25
441.6482, 10536.37
442.1303, 10484.46
442.6124, 10455.02
443.0945, 10447.57
443.5767, 10428.56
444.0588, 10365.61
444.5409, 10297.39
445.0230, 10253.10
445.5051, 10270.66
445.9872, 10275.11
446.4694, 10245.99
446.9515, 10194.65
447.4336, 10157.51
447.9157, 10144.80
448.3978, 10136.73
448.8799, 10126.19
449.3621, 10110.71
449.8442, 10102.97
450.3263, 10108.21
450.8084, 10115.71
451.2905, 10109.62
451.7726, 10083.40
452.2548, 10067.47
452.7369, 10071.02
453.2190, 10089.85
453.7011, 10105.09
454.1832, 10116.37
454.6653, 10125.07
455.1475, 10133.53
455.6296, 10140.84
456.1117, 10138.92
456.5938, 10123.26
457.0759, 10108.93
457.5580, 10123.43
458.0402, 10159.59
458.5223, 10189.71
459.0044, 10192.68
459.4865, 10186.55
459.9686, 10195.36
460.4507, 10219.32
460.9329, 10244.71
461.4150, 10257.59
461.8971, 10267.94
462.3792, 10287.63
462.8613, 10329.61
463.3434, 10368.36
463.8256, 10382.95
464.3077, 10383.99
464.7898, 10400.86
465.2719, 10461.29
465.7540, 10523.64
466.2361, 10568.84
466.7183, 10590.44
467.2004, 10613.12
467.6825, 10630.75
468.1646, 10653.97
468.6467, 10694.14
469.1288, 10756.87
469.6110, 10827.64
470.0930, 10908.93
470.5752, 10997.14
471.0573, 11073.31
471.5394, 11133.82
472.0215, 11189.13
472.5036, 11243.56
472.9857, 11296.67
473.4679, 11353.76
473.9500, 11412.99
474.4321, 11480.00
474.9142, 11565.85
475.3963, 11669.06
475.8784, 11775.58
476.3606, 11885.87
476.8427, 11994.13
477.3248, 12086.99
477.8069, 12165.64
478.2890, 12235.07
478.7711, 12286.33
479.2533, 12335.31
479.7354, 12405.95
480.2175, 12510.56
480.6996, 12620.65
481.1817, 12725.66
481.6638, 12820.70
482.1460, 12895.77
482.6281, 12935.87
483.1102, 12962.79
483.5923, 12983.30
484.0744, 12997.14
484.5565, 13009.70
485.0387, 13027.61
485.5208, 13040.22
486.0029, 13039.31
486.4850, 13016.94
486.9671, 12991.99
487.4492, 12967.04
487.9314, 12940.11
488.4135, 12905.43
488.8956, 12861.27
489.3777, 12815.04
489.8598, 12769.61
490.3419, 12725.81
490.8241, 12680.64
491.3062, 12635.37
491.7883, 12585.77
492.2704, 12522.24
492.7525, 12447.16
493.2346, 12379.12
493.7168, 12323.89
494.1989, 12277.49
494.6810, 12242.82
495.1631, 12215.82
495.6452, 12173.06
496.1273, 12080.93
496.6095, 11973.14
497.0916, 11899.43
497.5737, 11865.54
498.0558, 11835.01
498.5379, 11788.57
499.0201, 11730.52
499.5022, 11666.77
499.9843, 11592.22
500.4664, 11518.54
500.9485, 11452.98
501.4306, 11392.40
501.9127, 11328.06
502.3948, 11250.18
502.8770, 11175.29
503.3591, 11112.02
503.8412, 11065.19
504.3233, 11013.49
504.8054, 10952.69
505.2875, 10890.46
505.7697, 10832.33
506.2518, 10773.45
506.7339, 10733.64
507.2160, 10726.07
507.6981, 10735.79
508.1802, 10704.14
508.6624, 10626.14
509.1445, 10551.90
509.6266, 10519.79
510.1087, 10518.74
510.5908, 10499.62
511.0729, 10458.49
511.5551, 10411.63
512.0372, 10376.47
512.5193, 10348.63
513.0014, 10317.72
513.4835, 10269.06
513.9656, 10228.29
514.4478, 10229.72
514.9299, 10260.87
515.4120, 10275.80
515.8941, 10228.91
516.3762, 10175.59
516.8583, 10154.14
517.3405, 10177.66
517.8226, 10194.68
518.3047, 10194.38
518.7868, 10182.06
519.2689, 10162.48
519.7510, 10115.90
520.2332, 10090.20
520.7153, 10103.06
521.1974, 10141.18
521.6795, 10149.39
522.1616, 10115.39
522.6437, 10079.80
523.1259, 10063.98
523.6080, 10068.84
524.0901, 10066.16
524.5722, 10054.79
525.0543, 10040.05
525.5364, 10024.02
526.0186, 10008.22
526.5007, 10002.62
526.9828, 10015.60
527.4649, 10031.25
527.9470, 10024.63
528.4291, 10000.19
528.9113, 9974.772
529.3934, 9941.476
529.8755, 9922.082
530.3576, 9949.379
530.8397, 10029.79
531.3218, 10090.50
531.8040, 10091.91
532.2861, 10059.63
532.7682, 10017.31
533.2503, 9940.176
533.7324, 9888.061
534.2145, 9883.973
534.6967, 9911.336
535.1788, 9925.018
535.6609, 9913.819
536.1430, 9905.263
536.6251, 9910.501
537.1072, 9930.570
537.5894, 9938.501
538.0715, 9930.025
538.5536, 9920.236
539.0357, 9922.598
539.5178, 9936.772
539.9999, 9956.604
540.4821, 9984.178
540.9642, 10009.22
541.4463, 10012.41
541.9284, 9997.623
542.4105, 9982.660
542.8926, 9969.146
543.3748, 9963.566
543.8569, 9981.659
544.3390, 10020.62
544.8211, 10050.40
545.3032, 10039.88
545.7853, 10020.53
546.2675, 10022.72
546.7495, 10070.20
547.2316, 10098.13
547.7137, 10068.90
548.1959, 10015.46
548.6780, 9985.274
549.1601, 10007.18
549.6422, 10022.55
550.1243, 10014.80
550.6064, 9989.549
551.0886, 9994.015
551.5707, 10044.47
552.0528, 10089.71
552.5349, 10091.20
553.0170, 10046.09
553.4991, 10041.00
553.9813, 10086.36
554.4634, 10139.26
554.9455, 10132.38
555.4276, 10082.94
555.9097, 10073.80
556.3918, 10154.10
556.8740, 10248.59
557.3561, 10255.23
557.8382, 10195.23
558.3203, 10138.69
558.8024, 10126.27
559.2845, 10129.52
559.7667, 10127.68
560.2488, 10118.46
560.7309, 10114.85
561.2130, 10121.10
561.6951, 10134.67
562.1772, 10153.62
562.6594, 10193.33
563.1415, 10217.46
563.6236, 10217.01
564.1057, 10203.23
564.5878, 10198.35
565.0699, 10206.46
565.5521, 10212.00
566.0342, 10207.91
566.5163, 10196.95
566.9984, 10197.85
567.4805, 10211.77
567.9626, 10228.29
568.4448, 10239.64
568.9269, 10247.47
569.4090, 10257.68
569.8911, 10271.17
570.3732, 10284.90
570.8553, 10297.17
571.3375, 10307.26
571.8196, 10313.33
572.3017, 10310.40
572.7838, 10308.09
573.2659, 10310.38
573.7480, 10317.28
574.2302, 10329.07
574.7123, 10358.55
575.1944, 10381.58
575.6765, 10382.35
576.1586, 10352.66
576.6407, 10347.13
577.1229, 10382.52
577.6050, 10424.64
578.0871, 10446.15
578.5692, 10442.19
579.0513, 10436.87
579.5334, 10428.57
580.0156, 10425.71
580.4977, 10449.66
580.9798, 10498.65
581.4619, 10540.55
581.9440, 10557.74
582.4261, 10563.50
582.9083, 10582.45
583.3904, 10612.77
583.8725, 10643.48
584.3546, 10669.07
584.8367, 10690.23
585.3188, 10701.44
585.8010, 10696.16
586.2831, 10713.54
586.7652, 10791.37
587.2473, 10890.29
587.7294, 10971.53
588.2115, 11022.78
588.6937, 11062.25
589.1758, 11078.29
589.6579, 11086.23
590.1400, 11126.62
590.6221, 11214.00
591.1042, 11301.20
591.5864, 11370.48
592.0685, 11424.85
592.5506, 11485.39
593.0327, 11551.66
593.5148, 11627.95
593.9969, 11718.20
594.4791, 11821.30
594.9612, 11935.60
595.4433, 12062.21
595.9254, 12195.45
596.4075, 12329.61
596.8896, 12467.46
597.3718, 12611.50
597.8539, 12767.20
598.3360, 12926.01
598.8181, 13092.26
599.3002, 13259.40
599.7823, 13409.46
600.2645, 13523.51
600.7466, 13636.33
601.2287, 13766.17
601.7108, 13916.92
602.1929, 14034.90
602.6750, 14133.15
603.1572, 14176.02
603.6393, 14124.96
604.1214, 13972.16
604.6035, 13824.70
605.0856, 13693.09
605.5677, 13555.62
606.0499, 13361.87
606.5320, 13129.01
607.0141, 12930.54
607.4962, 12802.34
607.9783, 12703.01
608.4604, 12586.58
608.9425, 12460.30
609.4246, 12351.00
609.9067, 12269.50
610.3889, 12209.30
610.8710, 12171.37
611.3531, 12156.50
611.8352, 12142.07
612.3173, 12104.31
612.7994, 12080.58
613.2816, 12095.95
613.7637, 12179.28
614.2458, 12234.65
614.7279, 12246.20
615.2100, 12249.31
615.6921, 12293.24
616.1743, 12381.00
616.6564, 12479.33
617.1385, 12586.18
617.6206, 12691.80
618.1027, 12768.98
618.5848, 12823.48
619.0670, 12893.27
619.5491, 13004.41
620.0312, 13137.23
620.5133, 13278.53
620.9954, 13426.13
621.4775, 13567.40
621.9597, 13673.30
622.4418, 13785.21
622.9239, 13932.65
623.4060, 14123.04
623.8881, 14339.65
624.3702, 14600.84
624.8524, 14874.01
625.3345, 15125.72
625.8166, 15347.00
626.2987, 15567.45
626.7808, 15781.31
627.2629, 16007.51
627.7451, 16304.56
628.2272, 16673.29
628.7093, 17033.74
629.1914, 17352.04
629.6735, 17641.12
630.1556, 17919.43
630.6378, 18188.12
631.1199, 18436.44
631.6020, 18652.71
632.0841, 18848.37
632.5662, 19040.27
633.0483, 19236.38
633.5305, 19393.13
634.0126, 19456.57
634.4947, 19490.97
634.9768, 19551.25
635.4589, 19645.36
635.9410, 19760.76
636.4232, 19890.55
636.9053, 20045.87
637.3874, 20240.68
637.8695, 20467.39
638.3516, 20765.05
638.8337, 21155.47
639.3159, 21617.22
639.7980, 22099.79
640.2801, 22607.46
640.7622, 23162.32
641.2443, 23780.41
641.7264, 24459.99
642.2086, 25217.59
642.6907, 26057.79
643.1728, 26900.95
643.6549, 27776.71
644.1370, 28598.84
644.6191, 29333.19
645.1013, 30053.09
645.5834, 30489.50
