##NAMES=Monticellite
##RRUFFID=R040115
##IDEAL CHEMISTRY=CaMgSiO_4_
##LOCALITY=Magnet Cove, Arkansas, USA
##OWNER=RRUFF
##SOURCE=University of Arizona Mineral Museum
##DESCRIPTION=Brown blebs in matrix
##STATUS=The identification of this mineral has been confirmed by X-ray diffraction and chemical analysis
##URL=rruff.info/R040115
##MEASURED CHEMISTRY=Ca_0.99_(Mg_0.85_ Fe_0.12_Mn_0.03_)Si_1.00_O_4_
155.9293, 6709.087
156.4115, 6740.420
156.8936, 6766.210
157.3757, 6788.713
157.8578, 6816.082
158.3399, 6854.129
158.8221, 6895.751
159.3042, 6936.685
159.7863, 6976.511
160.2684, 7014.884
160.7505, 7050.341
161.2326, 7083.671
161.7148, 7118.469
162.1969, 7154.952
162.6790, 7194.352
163.1611, 7237.364
163.6432, 7294.263
164.1253, 7347.290
164.6075, 7384.126
165.0896, 7404.228
165.5717, 7424.385
166.0538, 7451.853
166.5359, 7485.687
167.0180, 7524.482
167.5002, 7570.500
167.9823, 7619.774
168.4644, 7671.636
168.9465, 7727.181
169.4286, 7777.344
169.9107, 7812.810
170.3929, 7837.701
170.8750, 7861.623
171.3571, 7901.198
171.8392, 7936.924
172.3213, 7946.328
172.8034, 7923.708
173.2856, 7883.995
173.7677, 7824.977
174.2498, 7755.340
174.7319, 7705.759
175.2140, 7715.250
175.6961, 7751.659
176.1783, 7762.989
176.6604, 7730.813
177.1425, 7686.938
177.6246, 7667.760
178.1067, 7671.547
178.5888, 7685.933
179.0710, 7709.109
179.5531, 7736.207
180.0352, 7755.236
180.5173, 7759.769
180.9994, 7758.371
181.4815, 7762.925
181.9637, 7773.486
182.4458, 7790.423
182.9279, 7818.970
183.4100, 7855.590
183.8921, 7887.286
184.3742, 7908.806
184.8564, 7923.765
185.3385, 7939.141
185.8206, 7955.023
186.3027, 7971.825
186.7848, 7994.354
187.2669, 8020.732
187.7491, 8037.181
188.2312, 8030.920
188.7133, 8010.650
189.1954, 8008.822
189.6775, 8026.788
190.1596, 8057.467
190.6418, 8101.504
191.1239, 8157.995
191.6060, 8199.660
192.0881, 8206.834
192.5702, 8184.500
193.0524, 8178.832
193.5345, 8193.818
194.0166, 8215.096
194.4987, 8215.139
194.9808, 8191.844
195.4629, 8179.083
195.9451, 8199.654
196.4272, 8252.935
196.9093, 8291.735
197.3914, 8311.824
197.8735, 8321.767
198.3556, 8338.041
198.8378, 8361.768
199.3199, 8384.337
199.8020, 8400.637
200.2841, 8410.169
200.7662, 8418.652
201.2483, 8426.006
201.7305, 8432.854
202.2126, 8439.301
202.6947, 8443.851
203.1768, 8453.585
203.6589, 8477.226
204.1410, 8518.321
204.6232, 8546.172
205.1053, 8556.027
205.5874, 8551.795
206.0695, 8543.156
206.5516, 8525.639
207.0337, 8515.466
207.5159, 8526.536
207.9980, 8563.369
208.4801, 8599.896
208.9622, 8636.382
209.4443, 8670.070
209.9264, 8683.461
210.4086, 8666.745
210.8907, 8649.431
211.3728, 8657.525
211.8549, 8700.918
212.3370, 8735.649
212.8191, 8752.657
213.3013, 8754.491
213.7834, 8766.102
214.2655, 8795.032
214.7476, 8821.656
215.2297, 8826.775
215.7118, 8802.032
216.1940, 8778.346
216.6761, 8757.812
217.1582, 8740.900
217.6403, 8743.550
218.1224, 8773.454
218.6045, 8812.544
219.0867, 8843.242
219.5688, 8860.914
220.0509, 8881.215
220.5330, 8910.888
221.0151, 8950.922
221.4972, 8969.675
221.9794, 8955.850
222.4615, 8933.553
222.9436, 8929.621
223.4257, 8953.876
223.9078, 8976.239
224.3899, 8987.526
224.8721, 8986.249
225.3542, 8995.744
225.8363, 9019.657
226.3184, 9050.938
226.8005, 9084.539
227.2827, 9130.646
227.7648, 9158.143
228.2469, 9150.668
228.7290, 9099.703
229.2111, 9082.100
229.6932, 9114.563
230.1754, 9167.028
230.6575, 9200.222
231.1396, 9204.009
231.6217, 9205.743
232.1038, 9211.006
232.5859, 9218.612
233.0681, 9237.887
233.5502, 9278.869
234.0323, 9324.221
234.5144, 9346.530
234.9965, 9327.237
235.4786, 9316.095
235.9608, 9330.162
236.4429, 9375.435
236.9250, 9417.286
237.4071, 9456.104
237.8892, 9490.933
238.3713, 9520.466
238.8535, 9545.436
239.3356, 9563.518
239.8177, 9569.078
240.2998, 9551.939
240.7819, 9564.017
241.2640, 9622.101
241.7462, 9699.815
242.2283, 9749.247
242.7104, 9747.585
243.1925, 9755.397
243.6746, 9797.386
244.1567, 9890.335
244.6389, 9959.784
245.1210, 9996.419
245.6031, 10015.07
246.0852, 10040.00
246.5673, 10068.73
247.0494, 10108.09
247.5316, 10162.96
248.0137, 10240.12
248.4958, 10308.85
248.9779, 10360.27
249.4600, 10407.96
249.9421, 10477.33
250.4243, 10579.36
250.9064, 10684.09
251.3885, 10778.54
251.8706, 10855.28
252.3527, 10948.54
252.8348, 11061.85
253.3170, 11189.10
253.7991, 11319.63
254.2812, 11454.86
254.7633, 11588.08
255.2454, 11718.99
255.7275, 11849.82
256.2097, 11969.80
256.6918, 12094.27
257.1739, 12196.10
257.6560, 12227.36
258.1381, 12185.23
258.6202, 12076.94
259.1024, 11886.98
259.5845, 11587.01
260.0666, 11329.98
260.5487, 11119.04
261.0308, 10949.34
261.5129, 10806.04
261.9951, 10695.00
262.4772, 10599.30
262.9593, 10513.90
263.4414, 10437.59
263.9235, 10373.85
264.4056, 10321.67
264.8878, 10282.39
265.3699, 10261.49
265.8520, 10267.51
266.3341, 10266.81
266.8162, 10240.29
267.2983, 10180.45
267.7805, 10146.34
268.2626, 10145.49
268.7447, 10162.42
269.2268, 10169.86
269.7089, 10164.12
270.1910, 10162.19
270.6732, 10175.04
271.1553, 10205.89
271.6374, 10216.05
272.1195, 10198.05
272.6016, 10170.31
273.0837, 10164.07
273.5659, 10182.66
274.0480, 10205.59
274.5301, 10230.12
275.0122, 10256.81
275.4943, 10261.22
275.9764, 10238.00
276.4586, 10202.53
276.9407, 10178.46
277.4228, 10167.71
277.9049, 10153.89
278.3870, 10122.34
278.8691, 10075.17
279.3513, 10067.36
279.8334, 10108.51
280.3155, 10164.32
280.7976, 10188.06
281.2798, 10178.40
281.7619, 10162.71
282.2440, 10146.66
282.7261, 10131.66
283.2082, 10130.41
283.6903, 10144.87
284.1725, 10165.85
284.6546, 10186.70
285.1367, 10206.85
285.6188, 10214.72
286.1009, 10196.99
286.5830, 10162.73
287.0652, 10151.47
287.5473, 10164.58
288.0294, 10192.89
288.5115, 10235.11
288.9936, 10288.57
289.4757, 10329.78
289.9579, 10349.13
290.4400, 10351.28
290.9221, 10342.38
291.4042, 10320.75
291.8863, 10308.89
292.3684, 10336.47
292.8506, 10395.71
293.3327, 10453.64
293.8148, 10503.03
294.2969, 10543.27
294.7790, 10572.39
295.2611, 10590.45
295.7433, 10603.57
296.2254, 10611.67
296.7075, 10618.72
297.1896, 10636.27
297.6717, 10675.08
298.1538, 10720.02
298.6360, 10744.56
299.1181, 10750.56
299.6002, 10757.41
300.0823, 10775.14
300.5644, 10804.96
301.0465, 10851.72
301.5287, 10928.83
302.0108, 11008.09
302.4929, 11051.64
302.9750, 11065.05
303.4571, 11077.72
303.9392, 11119.63
304.4214, 11169.98
304.9035, 11201.64
305.3856, 11205.94
305.8677, 11192.24
306.3498, 11164.12
306.8319, 11123.55
307.3141, 11076.65
307.7962, 11020.82
308.2783, 10963.92
308.7604, 10912.66
309.2425, 10869.41
309.7246, 10832.09
310.2068, 10797.39
310.6889, 10767.24
311.1710, 10746.08
311.6531, 10738.93
312.1352, 10739.81
312.6173, 10746.75
313.0995, 10763.36
313.5816, 10774.24
314.0637, 10770.30
314.5458, 10755.72
315.0279, 10738.42
315.5100, 10707.03
315.9922, 10684.57
316.4743, 10687.34
316.9564, 10723.90
317.4385, 10757.92
317.9206, 10774.37
318.4027, 10781.78
318.8849, 10792.10
319.3670, 10819.37
319.8491, 10840.54
320.3312, 10842.27
320.8133, 10818.66
321.2954, 10806.17
321.7776, 10820.15
322.2597, 10845.42
322.7418, 10865.74
323.2239, 10878.47
323.7060, 10886.39
324.1881, 10888.05
324.6703, 10882.70
325.1524, 10880.52
325.6345, 10879.58
326.1166, 10883.52
326.5987, 10895.33
327.0808, 10923.77
327.5630, 10949.89
328.0451, 10974.82
328.5272, 10998.02
329.0093, 11006.40
329.4914, 10985.24
329.9735, 10962.47
330.4557, 10956.63
330.9378, 10977.42
331.4199, 10998.60
331.9020, 11019.61
332.3841, 11039.77
332.8662, 11056.21
333.3484, 11069.91
333.8305, 11078.14
334.3126, 11077.80
334.7947, 11064.27
335.2768, 11056.43
335.7589, 11055.89
336.2411, 11061.20
336.7232, 11071.57
337.2053, 11091.67
337.6874, 11102.95
338.1695, 11089.68
338.6516, 11046.54
339.1338, 11029.00
339.6159, 11044.65
340.0980, 11075.76
340.5801, 11092.20
341.0622, 11092.78
341.5443, 11091.25
342.0265, 11092.10
342.5086, 11095.38
342.9907, 11101.29
343.4728, 11109.51
343.9549, 11121.44
344.4370, 11144.60
344.9192, 11176.71
345.4013, 11196.17
345.8834, 11188.73
346.3655, 11164.79
346.8476, 11148.23
347.3297, 11138.86
347.8119, 11142.10
348.2940, 11174.59
348.7761, 11225.55
349.2582, 11261.58
349.7403, 11269.33
350.2225, 11262.78
350.7046, 11258.44
351.1867, 11256.52
351.6688, 11258.75
352.1509, 11269.22
352.6331, 11283.91
353.1152, 11296.67
353.5973, 11305.35
354.0794, 11313.21
354.5615, 11322.18
355.0436, 11332.49
355.5258, 11344.80
356.0079, 11360.64
356.4900, 11378.01
356.9721, 11395.80
357.4542, 11414.69
357.9363, 11431.17
358.4185, 11443.63
358.9006, 11452.32
359.3827, 11457.69
359.8648, 11452.10
360.3469, 11449.41
360.8290, 11460.25
361.3112, 11488.26
361.7933, 11509.42
362.2754, 11506.34
362.7575, 11496.28
363.2396, 11498.00
363.7217, 11538.77
364.2039, 11568.64
364.6860, 11564.51
365.1681, 11525.67
365.6502, 11508.39
366.1323, 11545.06
366.6144, 11589.39
367.0966, 11609.35
367.5787, 11568.98
368.0608, 11546.95
368.5429, 11554.26
369.0250, 11585.80
369.5071, 11615.83
369.9893, 11650.43
370.4714, 11676.44
370.9535, 11685.56
371.4356, 11666.52
371.9177, 11656.08
372.3998, 11656.17
372.8820, 11664.37
373.3641, 11674.14
373.8462, 11682.12
374.3283, 11700.48
374.8104, 11739.11
375.2925, 11801.55
375.7747, 11847.11
376.2568, 11876.28
376.7389, 11888.38
377.2210, 11876.50
377.7031, 11838.77
378.1852, 11803.13
378.6674, 11771.46
379.1495, 11748.95
379.6316, 11761.35
380.1137, 11810.80
380.5958, 11875.02
381.0779, 11945.41
381.5601, 12017.17
382.0422, 12058.67
382.5243, 12053.03
383.0064, 12027.98
383.4885, 12030.66
383.9706, 12058.01
384.4528, 12087.07
384.9349, 12099.78
385.4170, 12104.80
385.8991, 12115.35
386.3812, 12132.25
386.8633, 12158.98
387.3455, 12209.36
387.8276, 12272.43
388.3097, 12323.91
388.7918, 12336.25
389.2739, 12341.27
389.7560, 12361.76
390.2382, 12399.40
390.7203, 12453.58
391.2024, 12548.20
391.6845, 12650.73
392.1666, 12724.77
392.6487, 12722.53
393.1309, 12722.31
393.6130, 12753.58
394.0951, 12815.33
394.5772, 12888.42
395.0593, 12976.23
395.5414, 13068.71
396.0236, 13158.83
396.5057, 13264.67
396.9878, 13345.83
397.4699, 13372.16
397.9520, 13367.17
398.4341, 13405.23
398.9163, 13535.58
399.3984, 13657.83
399.8805, 13731.44
400.3626, 13731.91
400.8447, 13757.30
401.3268, 13818.67
401.8090, 13896.81
402.2911, 13966.51
402.7732, 14025.30
403.2553, 14080.45
403.7374, 14134.32
404.2195, 14186.64
404.7017, 14232.23
405.1838, 14270.79
405.6659, 14303.83
406.1480, 14333.27
406.6301, 14359.29
407.1122, 14380.20
407.5944, 14399.48
408.0765, 14409.50
408.5586, 14388.20
409.0407, 14335.98
409.5228, 14273.77
410.0049, 14211.20
410.4871, 14149.85
410.9692, 14095.41
411.4513, 14050.39
411.9334, 14003.89
412.4155, 13948.47
412.8976, 13881.14
413.3798, 13796.37
413.8619, 13670.15
414.3440, 13536.27
414.8261, 13429.38
415.3082, 13349.86
415.7903, 13279.92
416.2725, 13206.81
416.7546, 13136.49
417.2367, 13074.31
417.7188, 13028.09
418.2009, 12985.35
418.6830, 12936.68
419.1652, 12885.85
419.6473, 12848.63
420.1294, 12842.00
420.6115, 12841.31
421.0937, 12832.84
421.5758, 12811.41
422.0579, 12789.94
422.5400, 12765.24
423.0221, 12742.45
423.5042, 12729.73
423.9864, 12739.83
424.4685, 12745.89
424.9506, 12737.80
425.4327, 12713.35
425.9148, 12706.72
426.3969, 12729.70
426.8791, 12757.04
427.3612, 12764.97
427.8433, 12745.58
428.3254, 12731.73
428.8075, 12728.72
429.2896, 12734.09
429.7718, 12739.98
430.2539, 12746.33
430.7360, 12753.45
431.2181, 12761.71
431.7002, 12771.03
432.1823, 12781.42
432.6645, 12794.09
433.1466, 12803.81
433.6287, 12801.15
434.1108, 12788.23
434.5929, 12774.98
435.0750, 12755.70
435.5572, 12743.03
436.0393, 12768.36
436.5214, 12829.88
437.0035, 12889.14
437.4856, 12917.82
437.9677, 12924.61
438.4499, 12919.23
438.9320, 12896.09
439.4141, 12875.06
439.8962, 12875.73
440.3783, 12890.10
440.8604, 12897.54
441.3426, 12872.30
441.8247, 12850.10
442.3068, 12855.74
442.7889, 12899.22
443.2710, 12935.11
443.7531, 12950.02
444.2353, 12951.61
444.7174, 12948.63
445.1995, 12936.03
445.6816, 12925.71
446.1637, 12917.90
446.6458, 12913.07
447.1280, 12916.40
447.6101, 12929.61
448.0922, 12949.17
448.5743, 12976.56
449.0564, 13025.11
449.5385, 13044.50
450.0207, 13024.59
450.5028, 12983.12
450.9849, 12947.17
451.4670, 12913.21
451.9491, 12905.17
452.4312, 12944.66
452.9134, 13022.86
453.3955, 13070.16
453.8776, 13084.15
454.3597, 13084.10
454.8418, 13088.68
455.3239, 13095.17
455.8061, 13089.11
456.2882, 13058.02
456.7703, 13027.29
457.2524, 13042.89
457.7345, 13093.98
458.2166, 13136.75
458.6988, 13134.18
459.1809, 13114.82
459.6630, 13110.32
460.1451, 13125.63
460.6272, 13142.62
461.1093, 13145.95
461.5915, 13145.38
462.0736, 13153.07
462.5557, 13183.21
463.0378, 13212.30
463.5199, 13234.48
464.0020, 13249.07
464.4842, 13252.82
464.9663, 13228.26
465.4484, 13205.00
465.9305, 13199.24
466.4126, 13224.38
466.8947, 13244.17
467.3769, 13253.62
467.8590, 13259.83
468.3411, 13277.71
468.8232, 13323.15
469.3053, 13346.63
469.7874, 13323.96
470.2696, 13259.52
470.7517, 13238.64
471.2338, 13270.44
471.7159, 13317.57
472.1980, 13349.56
472.6801, 13366.81
473.1623, 13381.64
473.6444, 13394.62
474.1265, 13408.56
474.6086, 13433.00
475.0907, 13465.35
475.5728, 13488.85
476.0550, 13496.14
476.5371, 13488.32
477.0192, 13459.38
477.5013, 13408.61
477.9834, 13365.80
478.4655, 13352.42
478.9477, 13361.27
479.4298, 13384.41
479.9119, 13437.64
480.3940, 13481.94
480.8761, 13485.33
481.3582, 13461.97
481.8404, 13452.55
482.3225, 13492.16
482.8046, 13530.68
483.2867, 13541.25
483.7688, 13509.17
484.2509, 13492.41
484.7331, 13507.08
485.2152, 13533.50
485.6973, 13554.31
486.1794, 13569.63
486.6615, 13578.76
487.1436, 13579.23
487.6258, 13573.37
488.1079, 13572.77
488.5900, 13579.34
489.0721, 13585.97
489.5542, 13588.76
490.0363, 13587.70
490.5185, 13583.66
491.0006, 13574.54
491.4827, 13569.67
491.9648, 13585.58
492.4470, 13618.52
492.9291, 13647.89
493.4112, 13665.14
493.8933, 13675.77
494.3754, 13685.54
494.8575, 13695.00
495.3397, 13706.88
495.8218, 13730.17
496.3039, 13753.54
496.7860, 13763.10
497.2681, 13754.17
497.7502, 13742.71
498.2324, 13728.04
498.7145, 13718.46
499.1966, 13725.01
499.6787, 13773.26
500.1608, 13815.69
500.6429, 13835.79
501.1251, 13834.53
501.6072, 13832.71
502.0893, 13829.84
502.5714, 13828.44
503.0535, 13830.90
503.5356, 13843.74
504.0178, 13842.90
504.4999, 13818.06
504.9820, 13789.00
505.4641, 13783.73
505.9462, 13802.73
506.4283, 13845.68
506.9105, 13927.87
507.3926, 14030.29
507.8747, 14067.81
508.3568, 14037.42
508.8389, 13998.37
509.3210, 13995.74
509.8032, 14018.24
510.2853, 14035.46
510.7674, 14043.65
511.2495, 14046.31
511.7316, 14039.27
512.2137, 14029.73
512.6959, 14032.28
513.1780, 14070.47
513.6601, 14108.20
514.1422, 14114.81
514.6243, 14095.57
515.1064, 14087.87
515.5886, 14114.06
516.0707, 14150.99
516.5528, 14183.94
517.0349, 14205.92
517.5170, 14235.21
517.9991, 14283.39
518.4813, 14335.79
518.9634, 14372.48
519.4455, 14379.99
519.9276, 14395.11
520.4097, 14427.44
520.8918, 14473.76
521.3740, 14518.25
521.8561, 14562.11
522.3382, 14600.08
522.8203, 14622.93
523.3024, 14632.16
523.7845, 14658.35
524.2667, 14704.92
524.7488, 14762.74
525.2309, 14828.37
525.7130, 14898.50
526.1951, 14959.00
526.6772, 14992.02
527.1594, 15026.39
527.6415, 15107.70
528.1236, 15224.07
528.6057, 15325.32
529.0878, 15365.71
529.5699, 15390.26
530.0521, 15434.52
530.5342, 15509.65
531.0163, 15576.25
531.4984, 15638.14
531.9805, 15678.75
532.4626, 15680.95
532.9448, 15607.13
533.4269, 15536.81
533.9090, 15485.60
534.3911, 15445.09
534.8732, 15383.06
535.3553, 15288.52
535.8375, 15191.19
536.3196, 15101.75
536.8017, 15018.58
537.2838, 14956.39
537.7659, 14919.02
538.2480, 14888.06
538.7302, 14835.35
539.2123, 14766.48
539.6944, 14726.71
540.1765, 14734.75
540.6586, 14759.64
541.1407, 14758.68
541.6229, 14737.27
542.1050, 14714.95
542.5871, 14694.87
543.0692, 14683.35
543.5513, 14693.43
544.0334, 14725.33
544.5156, 14747.03
544.9977, 14735.70
545.4798, 14712.51
545.9619, 14693.34
546.4440, 14672.40
546.9261, 14668.63
547.4083, 14703.99
547.8904, 14754.41
548.3725, 14774.16
548.8546, 14736.98
549.3367, 14713.02
549.8188, 14724.28
550.3010, 14766.87
550.7831, 14794.16
551.2652, 14802.85
551.7473, 14807.32
552.2294, 14816.29
552.7115, 14829.66
553.1937, 14847.81
553.6758, 14871.98
554.1579, 14895.88
554.6400, 14914.95
555.1221, 14927.79
555.6042, 14929.01
556.0864, 14901.08
556.5685, 14876.59
557.0506, 14892.70
557.5327, 14940.64
558.0148, 14987.80
558.4969, 15033.89
558.9791, 15062.59
559.4612, 15051.15
559.9433, 14982.52
560.4254, 14951.75
560.9075, 15010.52
561.3896, 15095.46
561.8718, 15151.20
562.3539, 15163.13
562.8360, 15169.19
563.3181, 15165.02
563.8002, 15159.93
564.2823, 15181.12
564.7645, 15235.39
565.2466, 15284.84
565.7287, 15315.36
566.2108, 15328.69
566.6929, 15330.26
567.1750, 15319.79
567.6572, 15303.58
568.1393, 15271.21
568.6214, 15239.65
569.1035, 15249.83
569.5856, 15316.07
570.0677, 15391.75
570.5499, 15449.79
571.0320, 15489.93
571.5141, 15512.32
571.9962, 15495.20
572.4783, 15482.06
572.9604, 15493.83
573.4426, 15526.00
573.9247, 15554.60
574.4068, 15581.25
574.8889, 15598.07
575.3710, 15599.45
575.8531, 15581.24
576.3353, 15568.26
576.8174, 15557.44
577.2995, 15556.64
577.7816, 15579.70
578.2637, 15630.12
578.7458, 15663.18
579.2280, 15667.41
579.7101, 15660.75
580.1922, 15676.54
580.6743, 15711.28
581.1564, 15745.30
581.6385, 15768.64
582.1207, 15786.60
582.6028, 15810.14
583.0849, 15836.91
583.5670, 15850.43
584.0491, 15820.65
584.5313, 15786.61
585.0134, 15782.89
585.4955, 15827.09
585.9776, 15860.70
586.4597, 15859.43
586.9418, 15843.77
587.4240, 15837.48
587.9061, 15857.08
588.3882, 15860.96
588.8703, 15837.67
589.3524, 15797.70
589.8345, 15775.81
590.3167, 15779.83
590.7988, 15770.66
591.2809, 15719.73
591.7630, 15640.03
592.2451, 15608.40
592.7272, 15626.55
593.2094, 15650.28
593.6915, 15637.95
594.1736, 15606.02
594.6557, 15586.57
595.1378, 15587.07
595.6199, 15591.91
596.1021, 15594.80
596.5842, 15593.29
597.0663, 15583.88
597.5485, 15553.90
598.0306, 15528.10
598.5127, 15513.85
598.9948, 15510.23
599.4769, 15512.69
599.9590, 15527.16
600.4412, 15540.02
600.9233, 15547.62
601.4054, 15550.10
601.8875, 15544.09
602.3696, 15525.88
602.8517, 15508.44
603.3339, 15501.62
603.8160, 15505.21
604.2981, 15522.89
604.7802, 15559.72
605.2623, 15593.60
605.7444, 15583.89
606.2266, 15547.12
606.7087, 15528.57
607.1908, 15560.40
607.6729, 15600.31
608.1550, 15613.63
608.6371, 15607.04
609.1193, 15602.60
609.6014, 15627.73
610.0835, 15641.01
610.5656, 15608.32
611.0477, 15515.78
611.5298, 15475.58
612.0120, 15527.15
612.4941, 15595.92
612.9762, 15630.43
613.4583, 15616.98
613.9404, 15622.16
614.4225, 15657.95
614.9047, 15696.23
615.3868, 15685.34
615.8689, 15630.31
616.3510, 15600.76
616.8331, 15626.59
617.3152, 15675.61
617.7974, 15700.74
618.2795, 15706.28
618.7616, 15710.41
619.2437, 15727.75
619.7258, 15744.00
620.2079, 15744.50
620.6901, 15728.81
621.1722, 15720.47
621.6543, 15734.45
622.1364, 15753.73
622.6185, 15765.77
623.1006, 15758.69
623.5828, 15771.93
624.0649, 15826.95
624.5470, 15882.61
625.0291, 15878.98
625.5112, 15799.03
625.9933, 15753.43
626.4755, 15769.88
626.9576, 15821.19
627.4397, 15856.81
627.9218, 15877.54
628.4039, 15889.38
628.8860, 15895.48
629.3682, 15894.24
629.8503, 15874.74
630.3324, 15840.85
630.8145, 15822.12
631.2966, 15843.69
631.7787, 15881.19
632.2609, 15921.66
632.7430, 15968.21
633.2251, 15998.44
633.7072, 16001.06
634.1893, 15989.20
634.6714, 15970.77
635.1536, 15930.43
635.6357, 15920.80
636.1178, 15959.13
636.5999, 16015.72
637.0820, 16031.29
637.5641, 16003.84
638.0463, 15982.66
638.5284, 15987.75
639.0105, 16005.24
639.4926, 16000.83
639.9747, 15979.99
640.4568, 15974.15
640.9390, 16029.32
641.4211, 16090.71
641.9032, 16098.64
642.3853, 16049.04
642.8674, 16008.92
643.3495, 16000.79
643.8317, 16014.37
644.3138, 16045.20
644.7959, 16114.00
645.2780, 16157.76
645.7601, 16162.87
646.2422, 16154.81
646.7244, 16164.91
647.2065, 16197.44
647.6886, 16226.56
648.1707, 16249.71
648.6528, 16264.09
649.1349, 16254.99
649.6171, 16227.14
650.0992, 16213.56
650.5813, 16242.20
651.0634, 16285.72
651.5455, 16313.70
652.0276, 16327.43
652.5098, 16332.44
