##NAMES=Montmorillonite
##RRUFFID=R110052
##IDEAL CHEMISTRY=(Na,Ca)_0.3_(Al,Mg)_2_Si_4_O_10_(OH)_2_&#183;nH_2_O
##LOCALITY=Santa Rita, New Mexico, USA
##OWNER=RRUFF
##SOURCE=Ward's Natural Science Establishment, Inc.
##DESCRIPTION=Unconsolidated grains
##STATUS=The identification of this mineral has been confirmed only by X-ray diffraction
##URL=rruff.info/R110052
164.4031, 1752.519
164.8853, 1752.108
165.3674, 1751.509
165.8495, 1751.439
166.3316, 1752.145
166.8137, 1753.001
167.2958, 1753.207
167.7780, 1752.969
168.2601, 1753.155
168.7422, 1754.701
169.2243, 1757.149
169.7064, 1758.467
170.1885, 1757.488
170.6707, 1756.566
171.1528, 1757.564
171.6349, 1760.083
172.1170, 1762.408
172.5991, 1763.175
173.0812, 1762.327
173.5634, 1761.122
174.0455, 1759.080
174.5276, 1757.082
175.0097, 1755.582
175.4918, 1754.529
175.9739, 1753.546
176.4561, 1752.120
176.9382, 1749.901
177.4203, 1748.407
177.9024, 1748.202
178.3845, 1748.183
178.8666, 1747.651
179.3488, 1746.587
179.8309, 1745.543
180.3130, 1745.306
180.7951, 1746.314
181.2772, 1747.207
181.7593, 1748.185
182.2415, 1748.948
182.7236, 1749.050
183.2057, 1748.465
183.6878, 1747.808
184.1699, 1748.014
184.6520, 1749.471
185.1342, 1751.227
185.6163, 1753.834
186.0984, 1756.513
186.5805, 1758.106
187.0626, 1758.197
187.5447, 1758.060
188.0269, 1760.133
188.5090, 1764.966
188.9911, 1769.315
189.4732, 1771.877
189.9553, 1773.576
190.4374, 1776.069
190.9196, 1780.031
191.4017, 1784.533
191.8838, 1788.139
192.3659, 1790.742
192.8480, 1793.649
193.3301, 1797.906
193.8123, 1803.046
194.2944, 1807.391
194.7765, 1810.379
195.2586, 1812.480
195.7407, 1814.388
196.2228, 1816.101
196.7050, 1817.394
197.1871, 1818.019
197.6692, 1818.000
198.1513, 1817.833
198.6334, 1817.849
199.1155, 1817.509
199.5977, 1816.539
200.0798, 1814.912
200.5619, 1812.680
201.0440, 1809.998
201.5261, 1806.939
202.0082, 1802.854
202.4904, 1796.152
202.9725, 1789.452
203.4546, 1784.330
203.9367, 1780.840
204.4188, 1777.629
204.9009, 1772.875
205.3831, 1765.830
205.8652, 1759.559
206.3473, 1754.243
206.8294, 1749.580
207.3115, 1745.980
207.7936, 1743.244
208.2758, 1740.252
208.7579, 1735.266
209.2400, 1726.712
209.7221, 1719.623
210.2042, 1714.634
210.6863, 1710.400
211.1685, 1705.802
211.6506, 1700.705
212.1327, 1695.966
212.6148, 1692.876
213.0969, 1692.575
213.5790, 1691.699
214.0612, 1690.551
214.5433, 1688.713
215.0254, 1685.116
215.5075, 1679.732
215.9896, 1674.479
216.4718, 1672.276
216.9539, 1674.999
217.4360, 1676.453
217.9181, 1675.597
218.4002, 1673.901
218.8823, 1672.868
219.3645, 1672.868
219.8466, 1673.112
220.3287, 1672.517
220.8108, 1670.959
221.2929, 1669.292
221.7750, 1667.409
222.2572, 1665.563
222.7393, 1664.256
223.2214, 1663.698
223.7035, 1663.071
224.1856, 1660.833
224.6677, 1657.114
225.1499, 1654.566
225.6320, 1655.115
226.1141, 1656.957
226.5962, 1656.831
227.0783, 1653.693
227.5604, 1650.120
228.0426, 1648.792
228.5247, 1649.252
229.0068, 1649.942
229.4889, 1650.502
229.9710, 1650.858
230.4531, 1650.801
230.9353, 1650.207
231.4174, 1649.398
231.8995, 1648.744
232.3816, 1648.119
232.8637, 1647.130
233.3458, 1645.190
233.8280, 1642.697
234.3101, 1640.950
234.7922, 1640.228
235.2743, 1639.911
235.7564, 1639.886
236.2385, 1639.952
236.7207, 1639.696
237.2028, 1638.885
237.6849, 1637.568
238.1670, 1635.794
238.6491, 1632.817
239.1312, 1630.567
239.6134, 1630.350
240.0955, 1631.217
240.5776, 1631.519
241.0597, 1630.122
241.5418, 1627.435
242.0239, 1625.466
242.5061, 1624.592
242.9882, 1623.987
243.4703, 1623.864
243.9524, 1623.731
244.4345, 1622.727
244.9166, 1620.150
245.3988, 1616.558
245.8809, 1614.711
246.3630, 1616.258
246.8451, 1617.528
247.3272, 1617.964
247.8093, 1617.650
248.2915, 1616.667
248.7736, 1615.031
249.2557, 1612.872
249.7378, 1610.715
250.2199, 1608.080
250.7020, 1606.097
251.1842, 1605.336
251.6663, 1605.160
252.1484, 1604.832
252.6305, 1603.990
253.1126, 1602.819
253.5947, 1601.865
254.0769, 1601.230
254.5590, 1600.750
255.0411, 1601.024
255.5232, 1601.219
256.0053, 1599.999
256.4874, 1596.822
256.9695, 1592.932
257.4517, 1591.335
257.9338, 1595.282
258.4159, 1597.744
258.8980, 1597.881
259.3801, 1596.851
259.8622, 1595.672
260.3444, 1594.717
260.8265, 1594.058
261.3086, 1593.874
261.7907, 1594.909
262.2728, 1595.186
262.7549, 1594.035
263.2371, 1592.419
263.7192, 1591.297
264.2013, 1590.920
264.6834, 1590.930
265.1655, 1590.913
265.6476, 1591.302
266.1298, 1590.363
266.6119, 1586.286
267.0940, 1581.847
267.5761, 1580.046
268.0582, 1581.388
268.5403, 1583.552
269.0225, 1583.823
269.5046, 1581.663
269.9867, 1579.820
270.4688, 1578.215
270.9509, 1577.049
271.4330, 1576.846
271.9152, 1577.588
272.3973, 1578.108
272.8794, 1577.095
273.3615, 1574.411
273.8436, 1572.644
274.3257, 1572.296
274.8079, 1572.538
275.2900, 1572.758
275.7721, 1572.923
276.2542, 1573.310
276.7363, 1574.259
277.2184, 1575.657
277.7006, 1576.574
278.1827, 1576.449
278.6648, 1576.274
279.1469, 1576.985
279.6290, 1578.446
280.1111, 1579.467
280.5933, 1579.107
281.0754, 1577.828
281.5575, 1577.332
282.0396, 1578.017
282.5217, 1578.994
283.0038, 1579.698
283.4860, 1580.208
283.9681, 1581.028
284.4502, 1582.702
284.9323, 1584.533
285.4144, 1585.048
285.8965, 1583.727
286.3787, 1582.432
286.8608, 1582.416
287.3429, 1583.323
287.8250, 1583.885
288.3071, 1583.730
288.7892, 1582.965
289.2714, 1581.653
289.7535, 1579.713
290.2356, 1577.958
290.7177, 1577.120
291.1998, 1576.764
291.6819, 1575.763
292.1641, 1573.898
292.6462, 1571.224
293.1283, 1567.304
293.6104, 1562.330
294.0925, 1558.088
294.5746, 1555.811
295.0568, 1554.672
295.5389, 1552.958
296.0210, 1550.305
296.5031, 1547.585
296.9852, 1545.618
297.4673, 1544.185
297.9495, 1542.729
298.4316, 1540.756
298.9137, 1538.787
299.3958, 1537.987
299.8779, 1538.744
300.3600, 1538.870
300.8422, 1536.173
301.3243, 1531.936
301.8064, 1528.313
302.2885, 1525.760
302.7706, 1523.974
303.2527, 1522.748
303.7349, 1522.109
304.2170, 1521.581
304.6991, 1520.900
305.1812, 1520.236
305.6633, 1519.847
306.1454, 1519.840
306.6276, 1519.927
307.1097, 1520.109
307.5918, 1520.345
308.0739, 1519.771
308.5560, 1517.599
309.0381, 1514.914
309.5203, 1512.951
310.0024, 1511.773
310.4845, 1510.881
310.9666, 1509.793
311.4487, 1508.648
311.9308, 1508.271
312.4130, 1509.292
312.8951, 1510.429
313.3772, 1510.436
313.8593, 1509.456
314.3414, 1508.378
314.8235, 1507.470
315.3057, 1506.793
315.7878, 1506.635
316.2699, 1507.302
316.7520, 1507.809
317.2341, 1507.585
317.7162, 1506.695
318.1984, 1505.084
318.6805, 1501.803
319.1626, 1498.230
319.6447, 1496.829
320.1268, 1498.009
320.6089, 1499.339
321.0911, 1499.445
321.5732, 1498.856
322.0553, 1498.234
322.5374, 1497.684
323.0195, 1497.183
323.5016, 1496.832
323.9838, 1496.636
324.4659, 1496.030
324.9480, 1494.294
325.4301, 1492.411
325.9122, 1491.650
326.3943, 1492.232
326.8765, 1493.083
327.3586, 1493.736
327.8407, 1494.106
328.3228, 1493.593
328.8049, 1491.594
329.2870, 1489.301
329.7692, 1488.071
330.2513, 1487.804
330.7334, 1487.376
331.2155, 1486.064
331.6976, 1484.222
332.1797, 1482.604
332.6619, 1481.216
333.1440, 1480.250
333.6261, 1480.432
334.1082, 1481.213
334.5903, 1481.195
335.0724, 1478.977
335.5546, 1476.227
336.0367, 1475.426
336.5188, 1476.788
337.0009, 1477.921
337.4830, 1477.022
337.9651, 1475.126
338.4473, 1474.302
338.9294, 1475.543
339.4115, 1476.677
339.8936, 1475.710
340.3758, 1472.903
340.8579, 1470.164
341.3400, 1467.987
341.8221, 1466.456
342.3042, 1465.724
342.7863, 1465.941
343.2685, 1466.045
343.7506, 1465.613
344.2327, 1464.682
344.7148, 1463.136
345.1969, 1460.680
345.6790, 1458.330
346.1612, 1457.620
346.6433, 1458.267
347.1254, 1458.570
347.6075, 1457.895
348.0896, 1456.734
348.5717, 1455.648
349.0539, 1454.677
349.5360, 1453.754
350.0181, 1452.608
350.5002, 1451.478
350.9823, 1451.247
351.4644, 1453.088
351.9466, 1454.883
352.4287, 1455.292
352.9108, 1454.433
353.3929, 1452.691
353.8750, 1449.801
354.3571, 1446.605
354.8393, 1445.306
355.3214, 1446.727
355.8035, 1447.882
356.2856, 1447.499
356.7677, 1446.173
357.2498, 1444.916
357.7320, 1444.000
358.2141, 1443.282
358.6962, 1442.528
359.1783, 1441.677
359.6604, 1441.179
360.1425, 1441.681
360.6247, 1442.197
361.1068, 1441.684
361.5889, 1440.093
362.0710, 1438.223
362.5531, 1436.644
363.0352, 1435.385
363.5174, 1434.593
363.9995, 1435.026
364.4816, 1435.132
364.9637, 1433.643
365.4458, 1431.197
365.9279, 1429.519
366.4101, 1429.577
366.8922, 1430.830
367.3743, 1431.540
367.8564, 1431.371
368.3385, 1431.169
368.8206, 1430.995
369.3028, 1430.856
369.7849, 1430.805
370.2670, 1430.847
370.7491, 1430.853
371.2312, 1430.680
371.7133, 1430.406
372.1955, 1429.601
372.6776, 1427.881
373.1597, 1426.003
373.6418, 1424.267
374.1239, 1422.776
374.6060, 1421.611
375.0882, 1420.815
375.5703, 1420.399
376.0524, 1420.475
376.5345, 1422.279
377.0166, 1423.174
377.4987, 1422.009
377.9809, 1419.708
378.4630, 1417.468
378.9451, 1415.832
379.4272, 1414.848
379.9093, 1414.682
380.3914, 1416.032
380.8736, 1417.066
381.3557, 1417.945
381.8378, 1418.366
382.3199, 1417.919
382.8020, 1416.656
383.2841, 1415.161
383.7663, 1414.101
384.2484, 1413.546
384.7305, 1412.860
385.2126, 1411.790
385.6947, 1410.811
386.1768, 1410.236
386.6590, 1409.853
387.1411, 1409.191
387.6232, 1407.890
388.1053, 1406.209
388.5874, 1405.074
389.0695, 1404.545
389.5517, 1404.499
390.0338, 1405.044
390.5159, 1405.906
390.9980, 1407.100
391.4801, 1408.614
391.9622, 1409.686
392.4444, 1408.944
392.9265, 1406.092
393.4086, 1404.388
393.8907, 1405.060
394.3728, 1406.272
394.8549, 1407.320
395.3371, 1408.060
395.8192, 1408.192
396.3013, 1407.255
396.7834, 1405.570
397.2655, 1404.106
397.7477, 1402.722
398.2298, 1401.932
398.7119, 1402.276
399.1940, 1403.283
399.6761, 1404.504
400.1582, 1406.005
400.6404, 1407.281
401.1225, 1407.940
401.6046, 1407.972
402.0867, 1407.064
402.5688, 1404.463
403.0509, 1401.605
403.5331, 1400.339
404.0152, 1400.692
404.4973, 1400.929
404.9794, 1399.931
405.4615, 1398.430
405.9436, 1397.854
406.4258, 1398.478
406.9079, 1399.175
407.3900, 1399.054
407.8721, 1398.209
408.3542, 1397.258
408.8363, 1395.811
409.3185, 1394.667
409.8006, 1394.742
410.2827, 1395.652
410.7648, 1395.916
411.2469, 1394.692
411.7290, 1392.835
412.2112, 1392.477
412.6933, 1394.489
413.1754, 1395.590
413.6575, 1394.147
414.1396, 1392.090
414.6217, 1391.686
415.1039, 1393.218
415.5860, 1395.074
416.0681, 1395.683
416.5502, 1394.932
417.0323, 1393.944
417.5144, 1392.279
417.9966, 1390.861
418.4787, 1389.970
418.9608, 1389.612
419.4429, 1389.823
419.9250, 1390.650
420.4071, 1391.858
420.8893, 1392.810
421.3714, 1393.484
421.8535, 1393.901
422.3356, 1394.351
422.8177, 1394.381
423.2998, 1393.301
423.7820, 1391.233
424.2641, 1389.224
424.7462, 1388.404
425.2283, 1388.854
425.7104, 1389.217
426.1925, 1389.831
426.6747, 1389.943
427.1568, 1389.322
427.6389, 1388.066
428.1210, 1386.119
428.6031, 1383.289
429.0852, 1380.423
429.5674, 1379.663
430.0495, 1381.943
430.5316, 1382.957
431.0137, 1379.699
431.4958, 1376.215
431.9779, 1375.524
432.4601, 1377.638
432.9422, 1379.742
433.4243, 1379.805
433.9064, 1378.107
434.3885, 1375.643
434.8706, 1371.973
435.3528, 1368.654
435.8349, 1366.380
436.3170, 1365.153
436.7991, 1365.380
437.2812, 1368.402
437.7633, 1371.151
438.2455, 1370.262
438.7276, 1366.216
439.2097, 1362.332
439.6918, 1359.631
440.1739, 1357.772
440.6560, 1356.427
441.1382, 1355.624
441.6203, 1354.720
442.1024, 1353.592
442.5845, 1352.245
443.0666, 1350.450
443.5487, 1348.258
444.0309, 1346.526
444.5130, 1346.063
444.9951, 1346.679
445.4772, 1346.503
445.9593, 1345.002
446.4414, 1343.462
446.9236, 1342.445
447.4057, 1341.584
447.8878, 1340.234
448.3699, 1338.184
448.8520, 1335.887
449.3341, 1334.020
449.8163, 1332.726
450.2984, 1331.506
450.7805, 1330.536
451.2626, 1329.474
451.7447, 1328.029
452.2268, 1326.330
452.7090, 1324.653
453.1911, 1323.138
453.6732, 1321.895
454.1553, 1321.546
454.6374, 1323.200
455.1195, 1323.814
455.6017, 1322.390
456.0838, 1320.210
456.5659, 1318.169
457.0480, 1316.485
457.5301, 1315.187
458.0122, 1314.437
458.4944, 1314.218
458.9765, 1313.891
459.4586, 1313.853
459.9407, 1313.020
460.4228, 1310.093
460.9049, 1306.205
461.3871, 1303.479
461.8692, 1303.063
462.3513, 1303.427
462.8334, 1302.836
463.3155, 1301.313
463.7976, 1299.357
464.2798, 1296.780
464.7619, 1294.247
465.2440, 1292.783
465.7261, 1292.408
466.2082, 1291.650
466.6903, 1289.158
467.1725, 1286.471
467.6546, 1285.880
468.1367, 1287.426
468.6188, 1288.841
469.1009, 1288.666
469.5830, 1287.108
470.0652, 1285.238
470.5473, 1282.687
471.0294, 1280.346
471.5115, 1278.319
471.9936, 1276.675
472.4757, 1275.649
472.9579, 1275.256
473.4400, 1274.961
473.9221, 1274.025
474.4042, 1272.151
474.8863, 1271.380
475.3684, 1273.249
475.8506, 1274.449
476.3327, 1273.512
476.8148, 1271.114
477.2969, 1268.466
477.7790, 1266.166
478.2611, 1263.979
478.7433, 1261.199
479.2254, 1257.091
479.7075, 1254.545
480.1896, 1255.642
480.6717, 1256.944
481.1538, 1256.443
481.6360, 1254.339
482.1181, 1252.147
482.6002, 1250.768
483.0823, 1250.083
483.5644, 1249.964
484.0465, 1250.725
484.5287, 1250.888
485.0108, 1249.274
485.4929, 1246.967
485.9750, 1245.152
486.4571, 1243.947
486.9392, 1243.277
487.4214, 1243.501
487.9035, 1244.168
488.3856, 1244.343
488.8677, 1243.894
489.3498, 1242.789
489.8319, 1240.758
490.3141, 1237.892
490.7962, 1235.632
491.2783, 1234.407
491.7604, 1233.309
492.2425, 1231.646
492.7246, 1229.866
493.2068, 1228.961
493.6889, 1229.283
494.1710, 1230.023
494.6531, 1229.872
495.1352, 1228.298
495.6173, 1227.542
496.0995, 1228.875
496.5816, 1229.677
497.0637, 1227.838
497.5458, 1224.523
498.0279, 1222.512
498.5100, 1223.490
498.9922, 1226.071
499.4743, 1226.513
499.9564, 1223.510
500.4385, 1221.676
500.9206, 1223.215
501.4027, 1224.861
501.8849, 1224.343
502.3670, 1221.857
502.8491, 1219.379
503.3312, 1218.376
503.8133, 1218.340
504.2954, 1218.010
504.7776, 1217.432
505.2597, 1216.316
505.7418, 1213.825
506.2239, 1211.130
506.7060, 1210.059
507.1881, 1211.131
507.6703, 1212.057
508.1524, 1211.450
508.6345, 1210.039
509.1166, 1209.000
509.5987, 1208.504
510.0808, 1208.289
510.5630, 1208.268
511.0451, 1208.372
511.5272, 1207.874
512.0093, 1205.929
512.4914, 1204.451
512.9735, 1204.033
513.4556, 1204.377
513.9377, 1205.491
514.4199, 1207.221
514.9020, 1208.500
515.3841, 1207.805
515.8662, 1204.742
516.3483, 1202.464
516.8304, 1201.960
517.3126, 1201.222
517.7947, 1199.517
518.2768, 1197.287
518.7589, 1195.189
519.2410, 1193.479
519.7231, 1191.746
520.2053, 1190.505
520.6874, 1188.958
521.1695, 1187.696
521.6516, 1186.768
522.1337, 1186.145
522.6158, 1186.057
523.0980, 1186.244
523.5801, 1185.945
524.0622, 1184.619
524.5443, 1182.961
525.0264, 1181.534
525.5085, 1180.365
525.9907, 1179.830
526.4728, 1180.325
526.9549, 1180.921
527.4370, 1180.036
527.9191, 1177.353
528.4012, 1175.327
528.8834, 1174.494
529.3655, 1174.147
529.8476, 1174.063
530.3297, 1174.061
530.8118, 1173.769
531.2939, 1172.976
531.7761, 1171.832
532.2582, 1170.717
532.7403, 1169.620
533.2224, 1168.549
533.7045, 1167.243
534.1866, 1166.165
534.6688, 1165.686
535.1509, 1165.681
535.6330, 1165.786
536.1151, 1165.878
536.5972, 1165.768
537.0793, 1164.736
537.5615, 1162.443
538.0436, 1160.692
538.5257, 1160.529
539.0078, 1160.753
539.4899, 1160.309
539.9720, 1159.197
540.4542, 1158.057
540.9363, 1157.061
541.4184, 1156.305
541.9005, 1156.185
542.3826, 1156.653
542.8647, 1156.573
543.3469, 1155.132
543.8290, 1152.988
544.3111, 1151.930
544.7932, 1152.581
545.2753, 1152.681
545.7574, 1151.393
546.2396, 1149.789
546.7217, 1148.787
547.2038, 1148.385
547.6859, 1148.085
548.1680, 1147.533
548.6501, 1146.811
549.1323, 1146.385
549.6144, 1147.046
550.0965, 1146.570
550.5786, 1143.533
551.0607, 1140.334
551.5428, 1138.806
552.0250, 1138.946
552.5071, 1139.517
552.9892, 1139.774
553.4713, 1139.744
553.9534, 1139.218
554.4355, 1137.901
554.9177, 1137.738
555.3998, 1140.881
555.8819, 1144.548
556.3640, 1144.727
556.8461, 1140.909
557.3282, 1137.337
557.8104, 1135.925
558.2925, 1135.453
558.7746, 1134.617
559.2567, 1133.315
559.7388, 1131.669
560.2209, 1129.564
560.7031, 1127.447
561.1852, 1126.753
561.6673, 1130.000
562.1494, 1131.074
562.6315, 1127.772
563.1136, 1123.940
563.5958, 1122.577
564.0779, 1123.414
564.5600, 1124.298
565.0421, 1123.631
565.5242, 1122.012
566.0063, 1121.607
566.4885, 1123.009
566.9706, 1123.887
567.4527, 1123.462
567.9348, 1122.470
568.4169, 1121.081
568.8990, 1119.451
569.3812, 1118.287
569.8633, 1118.500
570.3454, 1119.127
570.8275, 1118.619
571.3096, 1117.054
571.7917, 1115.693
572.2739, 1115.166
572.7560, 1114.949
573.2381, 1113.995
573.7202, 1112.002
574.2023, 1110.528
574.6844, 1109.895
575.1666, 1109.673
575.6487, 1109.907
576.1308, 1110.301
576.6129, 1110.114
577.0950, 1108.927
577.5771, 1107.312
578.0593, 1106.634
578.5414, 1107.450
579.0235, 1107.668
579.5056, 1106.760
579.9877, 1105.613
580.4698, 1104.437
580.9520, 1103.334
581.4341, 1102.480
581.9162, 1102.028
582.3983, 1101.691
582.8804, 1100.927
583.3625, 1099.814
583.8447, 1099.298
584.3268, 1099.742
584.8089, 1100.524
585.2910, 1101.373
585.7732, 1102.183
586.2553, 1101.721
586.7374, 1098.487
587.2195, 1095.425
587.7017, 1093.952
588.1838, 1093.731
588.6659, 1094.475
589.1480, 1096.010
589.6301, 1097.360
590.1122, 1097.228
590.5944, 1095.408
591.0765, 1094.031
591.5586, 1093.551
592.0407, 1092.982
592.5228, 1091.975
593.0049, 1090.799
593.4871, 1089.751
593.9692, 1088.906
594.4513, 1088.237
594.9334, 1087.639
595.4155, 1087.176
595.8976, 1087.310
596.3798, 1088.273
596.8619, 1088.917
597.3440, 1088.636
597.8261, 1087.517
598.3082, 1085.755
598.7903, 1082.702
599.2725, 1080.655
599.7546, 1081.047
600.2367, 1082.384
600.7188, 1083.351
601.2009, 1083.713
601.6830, 1083.308
602.1652, 1081.891
602.6473, 1079.952
603.1294, 1079.450
603.6115, 1081.969
604.0936, 1082.972
604.5757, 1080.957
605.0579, 1078.554
605.5400, 1077.459
606.0221, 1077.425
606.5042, 1077.198
606.9863, 1076.048
607.4684, 1074.386
607.9506, 1072.635
608.4327, 1070.813
608.9148, 1069.748
609.3969, 1069.850
609.8790, 1070.437
610.3611, 1071.043
610.8433, 1071.630
611.3254, 1071.433
611.8075, 1069.889
612.2896, 1068.047
612.7717, 1066.018
613.2538, 1064.186
613.7360, 1063.431
614.2181, 1063.922
614.7002, 1064.487
615.1823, 1063.615
615.6644, 1061.191
616.1465, 1059.670
616.6287, 1059.695
617.1108, 1059.769
617.5929, 1059.592
618.0750, 1059.224
618.5571, 1058.689
619.0392, 1058.002
619.5214, 1057.301
620.0035, 1056.646
620.4856, 1056.068
620.9677, 1055.694
621.4498, 1055.541
621.9319, 1055.289
622.4141, 1054.754
622.8962, 1054.063
623.3783, 1053.469
623.8604, 1052.978
624.3425, 1052.565
624.8246, 1052.202
625.3068, 1051.943
625.7889, 1051.903
626.2710, 1051.989
626.7531, 1052.001
627.2352, 1051.841
627.7173, 1051.527
628.1995, 1051.178
628.6816, 1050.894
629.1637, 1049.939
629.6458, 1047.661
630.1279, 1045.487
630.6100, 1043.836
631.0922, 1042.813
631.5743, 1042.766
632.0564, 1044.101
632.5385, 1045.440
633.0206, 1045.951
633.5027, 1045.726
633.9849, 1044.761
634.4670, 1043.079
634.9491, 1041.311
635.4312, 1039.851
635.9133, 1038.716
636.3954, 1037.966
636.8776, 1037.954
637.3597, 1037.883
637.8418, 1037.606
638.3239, 1037.365
638.8060, 1037.551
639.2881, 1037.950
639.7703, 1037.880
640.2524, 1036.888
640.7345, 1035.319
641.2166, 1033.752
641.6987, 1032.170
642.1808, 1030.760
642.6630, 1029.473
643.1451, 1028.481
643.6272, 1028.016
644.1093, 1027.983
644.5914, 1028.125
645.0735, 1029.091
645.5557, 1029.446
646.0378, 1028.055
646.5199, 1025.839
647.0020, 1023.988
647.4841, 1022.788
647.9662, 1022.132
648.4484, 1021.989
648.9305, 1022.279
649.4126, 1022.501
649.8947, 1023.001
650.3768, 1022.746
650.8589, 1021.155
651.3411, 1019.113
651.8232, 1017.073
652.3053, 1015.120
652.7874, 1013.306
653.2695, 1011.368
653.7516, 1009.855
654.2338, 1009.804
654.7159, 1010.884
655.1980, 1011.638
655.6801, 1011.676
656.1622, 1011.124
656.6443, 1010.035
657.1265, 1008.378
657.6086, 1006.809
658.0907, 1005.050
658.5728, 1003.716
659.0549, 1003.224
659.5370, 1003.059
660.0192, 1002.588
660.5013, 1001.787
660.9834, 1001.285
661.4655, 1001.959
661.9476, 1003.118
