##NAMES=Monticellite
##RRUFFID=R040115
##IDEAL CHEMISTRY=CaMgSiO_4_
##LOCALITY=Magnet Cove, Arkansas, USA
##OWNER=RRUFF
##SOURCE=University of Arizona Mineral Museum
##DESCRIPTION=Brown blebs in matrix
##STATUS=The identification of this mineral has been confirmed by X-ray diffraction and chemical analysis
##URL=rruff.info/R040115
##MEASURED CHEMISTRY=Ca_0.99_(Mg_0.85_ Fe_0.12_Mn_0.03_)Si_1.00_O_4_
166.3384, 9607.396
166.8205, 9673.065
167.3026, 9738.949
167.7847, 9798.782
168.2668, 9857.918
168.7490, 9931.729
169.2311, 10030.40
169.7132, 10120.97
170.1953, 10189.94
170.6774, 10240.15
171.1595, 10272.94
171.6417, 10282.64
172.1238, 10277.89
172.6059, 10282.32
173.0880, 10304.59
173.5701, 10318.08
174.0522, 10304.99
174.5344, 10277.92
175.0165, 10254.72
175.4986, 10244.14
175.9807, 10242.87
176.4628, 10242.34
176.9449, 10243.64
177.4271, 10243.52
177.9092, 10242.34
178.3913, 10238.88
178.8734, 10229.55
179.3555, 10208.30
179.8376, 10183.87
180.3197, 10183.36
180.8019, 10218.89
181.2840, 10258.38
181.7661, 10296.68
182.2482, 10330.90
182.7303, 10356.29
183.2124, 10369.43
183.6946, 10374.23
184.1767, 10381.42
184.6588, 10390.64
185.1409, 10403.28
185.6230, 10419.49
186.1051, 10438.60
186.5873, 10461.74
187.0694, 10490.77
187.5515, 10520.26
188.0336, 10534.70
188.5157, 10521.93
188.9978, 10514.60
189.4800, 10525.36
189.9621, 10541.97
190.4442, 10549.17
190.9263, 10539.05
191.4084, 10523.02
191.8905, 10530.97
192.3727, 10582.24
192.8548, 10623.58
193.3369, 10640.03
193.8190, 10646.88
194.3011, 10658.83
194.7832, 10681.76
195.2654, 10710.97
195.7475, 10737.14
196.2296, 10763.28
196.7117, 10779.97
197.1938, 10778.43
197.6759, 10772.79
198.1581, 10774.08
198.6402, 10786.17
199.1223, 10807.43
199.6044, 10836.99
200.0865, 10884.68
200.5686, 10920.47
201.0508, 10937.40
201.5329, 10946.65
202.0150, 10958.38
202.4971, 10974.90
202.9792, 10988.11
203.4613, 10983.63
203.9435, 10952.32
204.4256, 10923.30
204.9077, 10885.50
205.3898, 10858.21
205.8719, 10861.86
206.3540, 10897.21
206.8362, 10940.81
207.3183, 10958.69
207.8004, 10936.19
208.2825, 10924.77
208.7646, 10934.49
209.2467, 10946.41
209.7289, 10948.05
210.2110, 10938.97
210.6931, 10928.46
211.1752, 10926.70
211.6573, 10934.03
212.1395, 10949.48
212.6216, 10993.43
213.1037, 11027.75
213.5858, 11023.66
214.0679, 10987.64
214.5500, 10952.20
215.0322, 10952.08
215.5143, 10994.63
215.9964, 11023.73
216.4785, 11025.13
216.9606, 11026.63
217.4427, 11040.04
217.9249, 11063.11
218.4070, 11086.37
218.8891, 11101.48
219.3712, 11108.12
219.8533, 11118.38
220.3354, 11138.92
220.8176, 11156.69
221.2997, 11168.96
221.7818, 11175.67
222.2639, 11175.75
222.7460, 11166.29
223.2281, 11149.55
223.7103, 11151.21
224.1924, 11200.56
224.6745, 11236.82
225.1566, 11239.67
225.6387, 11223.14
226.1208, 11208.45
226.6030, 11207.87
227.0851, 11218.18
227.5672, 11225.71
228.0493, 11224.92
228.5314, 11229.10
229.0135, 11243.79
229.4957, 11263.04
229.9778, 11280.99
230.4599, 11295.13
230.9420, 11304.98
231.4241, 11307.87
231.9062, 11292.69
232.3884, 11290.51
232.8705, 11318.58
233.3526, 11352.12
233.8347, 11367.26
234.3168, 11356.54
234.7989, 11334.91
235.2811, 11326.29
235.7632, 11329.76
236.2453, 11350.01
236.7274, 11398.02
237.2095, 11453.33
237.6916, 11504.65
238.1738, 11548.96
238.6559, 11587.87
239.1380, 11624.38
239.6201, 11660.45
240.1022, 11686.67
240.5843, 11693.75
241.0665, 11698.22
241.5486, 11705.82
242.0307, 11717.90
242.5128, 11734.64
242.9949, 11754.94
243.4770, 11778.23
243.9592, 11813.07
244.4413, 11884.07
244.9234, 11943.42
245.4055, 11967.70
245.8876, 11964.90
246.3697, 11956.88
246.8519, 11954.82
247.3340, 11960.14
247.8161, 11985.94
248.2982, 12042.78
248.7803, 12108.09
249.2624, 12180.18
249.7446, 12253.79
250.2267, 12319.52
250.7088, 12370.52
251.1909, 12413.02
251.6730, 12461.74
252.1551, 12506.50
252.6373, 12580.85
253.1194, 12710.61
253.6015, 12865.18
254.0836, 13011.36
254.5657, 13135.63
255.0478, 13253.08
255.5300, 13395.59
256.0121, 13575.85
256.4942, 13731.13
256.9763, 13852.59
257.4584, 13935.62
257.9406, 13976.03
258.4227, 13972.68
258.9048, 13922.27
259.3869, 13810.29
259.8690, 13634.13
260.3511, 13450.49
260.8333, 13264.48
261.3154, 13076.29
261.7975, 12872.69
262.2796, 12657.26
262.7617, 12469.30
263.2438, 12344.33
263.7260, 12273.73
264.2081, 12209.43
264.6902, 12147.69
265.1723, 12090.71
265.6544, 12042.34
266.1365, 11999.96
266.6187, 11955.49
267.1008, 11904.17
267.5829, 11848.33
268.0650, 11788.14
268.5471, 11717.59
269.0292, 11662.56
269.5114, 11662.86
269.9935, 11689.67
270.4756, 11692.36
270.9577, 11639.84
271.4398, 11572.72
271.9219, 11537.80
272.4041, 11535.87
272.8862, 11539.03
273.3683, 11536.12
273.8504, 11528.42
274.3325, 11518.81
274.8146, 11506.03
275.2968, 11493.79
275.7789, 11486.15
276.2610, 11481.63
276.7431, 11473.23
277.2252, 11456.54
277.7073, 11437.52
278.1895, 11427.12
278.6716, 11427.19
279.1537, 11425.26
279.6358, 11415.57
280.1179, 11401.26
280.6000, 11386.35
281.0822, 11371.02
281.5643, 11358.99
282.0464, 11353.71
282.5285, 11354.86
283.0106, 11367.32
283.4927, 11404.63
283.9749, 11445.35
284.4570, 11470.25
284.9391, 11478.03
285.4212, 11477.58
285.9033, 11474.31
286.3854, 11468.44
286.8676, 11467.15
287.3497, 11476.79
287.8318, 11484.43
288.3139, 11482.07
288.7960, 11472.44
289.2781, 11462.67
289.7603, 11456.21
290.2424, 11453.35
290.7245, 11455.83
291.2066, 11468.01
291.6887, 11479.69
292.1708, 11494.32
292.6530, 11505.87
293.1351, 11502.71
293.6172, 11481.20
294.0993, 11455.37
294.5814, 11451.50
295.0635, 11492.13
295.5457, 11511.78
296.0278, 11490.13
296.5099, 11463.67
296.9920, 11459.35
297.4741, 11479.06
297.9562, 11506.00
298.4384, 11520.97
298.9205, 11519.17
299.4026, 11540.11
299.8847, 11621.63
300.3668, 11687.48
300.8489, 11705.78
301.3311, 11687.75
301.8131, 11658.16
302.2953, 11630.21
302.7774, 11607.20
303.2595, 11608.05
303.7416, 11655.87
304.2237, 11693.97
304.7058, 11712.20
305.1880, 11715.29
305.6701, 11707.28
306.1522, 11689.49
306.6343, 11664.25
307.1164, 11632.61
307.5985, 11590.67
308.0807, 11557.33
308.5628, 11543.95
309.0449, 11534.88
309.5270, 11523.89
310.0091, 11509.40
310.4912, 11488.82
310.9734, 11454.07
311.4555, 11407.42
311.9376, 11376.28
312.4197, 11371.93
312.9018, 11370.23
313.3839, 11351.28
313.8661, 11322.35
314.3482, 11303.12
314.8303, 11311.29
315.3124, 11330.69
315.7945, 11330.31
316.2766, 11306.72
316.7588, 11283.66
317.2409, 11275.47
317.7230, 11275.58
318.2051, 11271.49
318.6872, 11254.41
319.1693, 11245.98
319.6515, 11274.26
320.1336, 11329.00
320.6157, 11362.99
321.0978, 11355.89
321.5799, 11327.80
322.0620, 11308.25
322.5442, 11296.81
323.0263, 11291.96
323.5084, 11294.63
323.9905, 11303.07
324.4726, 11317.28
324.9547, 11337.24
325.4369, 11356.12
325.9190, 11367.68
326.4011, 11371.08
326.8832, 11370.88
327.3653, 11367.39
327.8474, 11360.21
328.3296, 11341.89
328.8117, 11318.66
329.2938, 11310.38
329.7759, 11331.03
330.2580, 11371.48
330.7401, 11389.67
331.2223, 11358.42
331.7044, 11338.56
332.1865, 11350.09
332.6686, 11369.73
333.1507, 11369.39
333.6328, 11341.51
334.1150, 11303.93
334.5971, 11284.13
335.0792, 11292.39
335.5613, 11290.81
336.0434, 11271.02
336.5255, 11250.05
337.0077, 11239.27
337.4898, 11235.88
337.9719, 11227.48
338.4540, 11201.13
338.9361, 11160.56
339.4182, 11140.24
339.9004, 11151.26
340.3825, 11167.58
340.8646, 11193.21
341.3467, 11214.99
341.8288, 11212.15
342.3109, 11173.37
342.7931, 11124.47
343.2752, 11106.42
343.7573, 11123.91
344.2394, 11138.73
344.7215, 11137.34
345.2036, 11133.81
345.6858, 11139.62
346.1679, 11155.24
346.6500, 11173.03
347.1321, 11197.41
347.6142, 11220.22
348.0963, 11212.67
348.5785, 11162.18
349.0606, 11111.51
349.5427, 11095.00
350.0248, 11105.41
350.5069, 11124.23
350.9890, 11163.00
351.4712, 11197.43
351.9533, 11200.66
352.4354, 11178.88
352.9175, 11166.64
353.3996, 11184.35
353.8817, 11216.87
354.3639, 11221.27
354.8460, 11181.08
355.3281, 11153.61
355.8102, 11165.13
356.2923, 11189.90
356.7744, 11194.86
357.2566, 11173.81
357.7387, 11147.19
358.2208, 11138.67
358.7029, 11153.05
359.1850, 11158.71
359.6671, 11150.43
360.1493, 11140.02
360.6314, 11132.44
361.1135, 11126.88
361.5956, 11118.94
362.0777, 11105.02
362.5598, 11090.01
363.0420, 11093.37
363.5241, 11136.15
364.0062, 11163.17
364.4883, 11157.30
364.9704, 11141.50
365.4525, 11137.11
365.9347, 11147.73
366.4168, 11158.05
366.8989, 11143.66
367.3810, 11101.38
367.8631, 11087.67
368.3452, 11125.53
368.8274, 11168.31
369.3095, 11195.74
369.7916, 11209.59
370.2737, 11214.04
370.7558, 11203.75
371.2379, 11191.22
371.7201, 11203.36
372.2022, 11243.71
372.6843, 11273.75
373.1664, 11271.98
373.6485, 11253.14
374.1306, 11240.25
374.6128, 11234.93
375.0949, 11232.15
375.5770, 11226.03
376.0591, 11221.22
376.5412, 11231.28
377.0233, 11261.00
377.5055, 11289.26
377.9876, 11289.80
378.4697, 11258.67
378.9518, 11251.36
379.4339, 11289.04
379.9160, 11332.24
380.3982, 11364.93
380.8803, 11384.13
381.3624, 11381.80
381.8445, 11350.95
382.3266, 11304.99
382.8087, 11284.52
383.2909, 11321.67
383.7730, 11343.30
384.2551, 11328.08
384.7372, 11309.73
385.2193, 11320.95
385.7014, 11363.58
386.1836, 11410.24
386.6657, 11429.05
387.1478, 11417.46
387.6299, 11425.93
388.1120, 11466.43
388.5941, 11514.91
389.0763, 11571.07
389.5584, 11627.92
390.0405, 11672.52
390.5226, 11696.74
391.0047, 11715.67
391.4868, 11754.42
391.9690, 11814.54
392.4511, 11878.82
392.9332, 11946.98
393.4153, 12013.55
393.8974, 12068.50
394.3795, 12112.35
394.8617, 12166.92
395.3438, 12257.29
395.8259, 12360.22
396.3080, 12429.77
396.7901, 12459.63
397.2722, 12497.42
397.7544, 12582.33
398.2365, 12703.53
398.7186, 12800.62
399.2007, 12842.83
399.6828, 12894.87
400.1649, 12985.99
400.6471, 13102.21
401.1292, 13225.37
401.6113, 13350.24
402.0934, 13468.94
402.5755, 13571.77
403.0576, 13658.25
403.5398, 13726.24
404.0219, 13761.68
404.5040, 13794.99
404.9861, 13843.37
405.4682, 13903.07
405.9503, 13964.15
406.4325, 14023.06
406.9146, 14072.63
407.3967, 14083.01
407.8788, 14033.33
408.3609, 13986.68
408.8430, 13968.28
409.3252, 13948.78
409.8073, 13906.46
410.2894, 13837.64
410.7715, 13749.52
411.2536, 13646.30
411.7357, 13528.43
412.2179, 13401.13
412.7000, 13265.71
413.1821, 13119.54
413.6642, 12948.50
414.1463, 12766.10
414.6284, 12604.13
415.1106, 12470.32
415.5927, 12354.91
416.0748, 12259.18
416.5569, 12176.87
417.0390, 12087.60
417.5211, 11983.38
418.0033, 11874.60
418.4854, 11775.75
418.9675, 11687.39
419.4496, 11610.00
419.9317, 11547.52
420.4138, 11493.58
420.8960, 11446.46
421.3781, 11404.13
421.8602, 11361.09
422.3423, 11312.55
422.8244, 11262.70
423.3065, 11231.02
423.7887, 11238.89
424.2708, 11231.26
424.7529, 11188.34
425.2350, 11138.58
425.7171, 11104.60
426.1992, 11089.64
426.6814, 11083.34
427.1635, 11083.96
427.6456, 11089.03
428.1277, 11064.56
428.6098, 10992.27
429.0919, 10925.63
429.5741, 10891.04
430.0562, 10879.37
430.5383, 10881.58
431.0204, 10902.29
431.5025, 10921.89
431.9846, 10924.70
432.4668, 10913.02
432.9489, 10892.42
433.4310, 10861.63
433.9131, 10831.44
434.3952, 10814.65
434.8773, 10812.47
435.3595, 10814.88
435.8416, 10829.72
436.3237, 10841.59
436.8058, 10839.11
437.2879, 10825.85
437.7701, 10811.72
438.2522, 10801.76
438.7343, 10794.31
439.2164, 10785.31
439.6985, 10774.14
440.1806, 10762.42
440.6628, 10746.15
441.1449, 10732.54
441.6270, 10728.32
442.1091, 10731.71
442.5912, 10734.53
443.0733, 10729.74
443.5555, 10719.94
444.0376, 10716.47
444.5197, 10722.98
445.0018, 10725.56
445.4839, 10712.38
445.9660, 10695.99
446.4482, 10690.04
446.9303, 10697.48
447.4124, 10705.05
447.8945, 10703.95
448.3766, 10697.36
448.8587, 10689.74
449.3409, 10681.18
449.8230, 10679.89
450.3051, 10698.87
450.7872, 10733.10
451.2693, 10736.57
451.7514, 10675.83
452.2336, 10625.69
452.7157, 10619.04
453.1978, 10634.78
453.6799, 10645.61
454.1620, 10642.98
454.6441, 10630.98
455.1263, 10613.71
455.6084, 10589.60
456.0905, 10569.29
456.5726, 10554.20
457.0547, 10541.93
457.5368, 10530.65
458.0190, 10522.06
458.5011, 10519.70
458.9832, 10525.78
459.4653, 10535.11
459.9474, 10538.66
460.4295, 10536.22
460.9117, 10542.68
461.3938, 10571.96
461.8759, 10595.42
462.3580, 10577.45
462.8401, 10527.38
463.3222, 10495.14
463.8044, 10509.82
464.2865, 10535.62
464.7686, 10538.55
465.2507, 10524.01
465.7328, 10517.63
466.2149, 10532.31
466.6971, 10554.51
467.1792, 10557.24
467.6613, 10527.93
468.1434, 10504.74
468.6255, 10483.26
469.1076, 10471.45
469.5898, 10487.81
470.0719, 10519.27
470.5540, 10527.71
471.0361, 10484.86
471.5182, 10414.43
472.0003, 10390.42
472.4825, 10436.01
472.9646, 10465.20
473.4467, 10445.53
473.9288, 10413.44
474.4109, 10388.44
474.8930, 10372.42
475.3752, 10362.62
475.8573, 10362.51
476.3394, 10365.64
476.8215, 10359.81
477.3036, 10344.67
477.7857, 10329.05
478.2679, 10316.33
478.7500, 10306.77
479.2321, 10301.64
479.7142, 10302.90
480.1963, 10302.96
480.6784, 10304.77
481.1606, 10301.82
481.6427, 10284.58
482.1248, 10255.07
482.6069, 10225.65
483.0890, 10205.13
483.5711, 10192.69
484.0533, 10184.03
484.5354, 10185.42
485.0175, 10179.96
485.4996, 10154.46
485.9817, 10129.56
486.4638, 10122.04
486.9460, 10133.31
487.4281, 10153.32
487.9102, 10186.05
488.3923, 10220.99
488.8744, 10221.37
489.3565, 10181.70
489.8387, 10137.05
490.3208, 10098.32
490.8029, 10069.70
491.2850, 10059.63
491.7671, 10075.85
492.2492, 10087.90
492.7314, 10083.54
493.2135, 10070.75
493.6956, 10059.66
494.1777, 10050.50
494.6598, 10033.75
495.1419, 9999.562
495.6241, 9953.340
496.1062, 9929.979
496.5883, 9951.385
497.0704, 9965.814
497.5525, 9966.598
498.0346, 9959.868
498.5168, 9949.239
498.9989, 9935.993
499.4810, 9921.729
499.9631, 9907.268
500.4452, 9892.835
500.9273, 9879.277
501.4095, 9866.295
501.8916, 9855.310
502.3737, 9846.103
502.8558, 9839.930
503.3379, 9839.051
503.8200, 9844.882
504.3022, 9850.188
504.7843, 9853.402
505.2664, 9854.018
505.7485, 9852.297
506.2306, 9847.764
506.7127, 9836.413
507.1949, 9813.645
507.6770, 9784.523
508.1591, 9771.931
508.6412, 9796.813
509.1233, 9807.510
509.6054, 9789.366
510.0876, 9765.958
510.5697, 9755.287
511.0518, 9756.985
511.5339, 9758.662
512.0161, 9749.957
512.4982, 9735.788
512.9803, 9730.006
513.4624, 9733.729
513.9445, 9739.308
514.4266, 9743.826
514.9088, 9749.316
515.3909, 9759.403
515.8730, 9774.689
516.3551, 9786.922
516.8372, 9792.293
517.3193, 9794.534
517.8015, 9798.305
518.2836, 9802.490
518.7657, 9800.231
519.2478, 9786.804
519.7299, 9769.715
520.2120, 9767.739
520.6942, 9793.325
521.1763, 9810.348
521.6584, 9814.173
522.1405, 9814.833
522.6226, 9812.163
523.1047, 9810.886
523.5869, 9821.702
524.0690, 9853.105
524.5511, 9892.995
525.0332, 9919.073
525.5153, 9931.483
525.9974, 9953.489
526.4796, 9992.934
526.9617, 10039.91
527.4438, 10085.63
527.9259, 10130.21
528.4080, 10172.53
528.8901, 10205.53
529.3723, 10243.13
529.8544, 10299.59
530.3365, 10365.57
530.8186, 10424.45
531.3007, 10470.53
531.7828, 10503.64
532.2650, 10524.19
532.7471, 10533.04
533.2292, 10524.20
533.7113, 10490.65
534.1934, 10446.00
534.6755, 10394.31
535.1577, 10334.32
535.6398, 10261.32
536.1219, 10172.49
536.6040, 10081.72
537.0861, 10000.56
537.5682, 9927.918
538.0504, 9859.120
538.5325, 9793.029
539.0146, 9739.126
539.4967, 9710.406
539.9788, 9699.604
540.4609, 9670.927
540.9431, 9601.961
541.4252, 9547.445
541.9073, 9528.188
542.3894, 9521.967
542.8715, 9507.415
543.3536, 9482.944
543.8358, 9459.410
544.3179, 9444.951
544.8000, 9438.846
545.2821, 9439.397
545.7642, 9450.570
546.2463, 9457.533
546.7285, 9454.358
547.2106, 9447.029
547.6927, 9438.282
548.1748, 9428.781
548.6569, 9422.439
549.1390, 9426.025
549.6211, 9430.124
550.1032, 9422.469
550.5853, 9405.484
551.0674, 9392.294
551.5496, 9389.188
552.0317, 9385.465
552.5138, 9360.634
552.9959, 9298.407
553.4780, 9271.013
553.9601, 9306.460
554.4423, 9341.408
554.9244, 9352.240
555.4065, 9345.243
555.8886, 9328.906
556.3707, 9305.796
556.8528, 9288.207
557.3350, 9296.532
557.8171, 9326.728
558.2992, 9343.429
558.7813, 9338.644
559.2634, 9336.000
559.7455, 9357.214
560.2277, 9391.572
560.7098, 9404.897
561.1919, 9387.595
561.6740, 9365.760
562.1561, 9335.854
562.6382, 9312.541
563.1204, 9316.568
563.6025, 9345.628
564.0846, 9378.140
564.5667, 9399.615
565.0488, 9410.514
565.5309, 9411.249
566.0131, 9395.183
566.4952, 9385.750
566.9773, 9393.248
567.4594, 9403.648
567.9415, 9405.185
568.4236, 9400.763
568.9058, 9405.089
569.3879, 9425.246
569.8700, 9456.104
570.3521, 9504.257
570.8342, 9560.246
571.3163, 9586.206
571.7985, 9568.231
572.2806, 9541.214
572.7627, 9549.578
573.2448, 9599.463
573.7269, 9626.675
574.2090, 9602.511
574.6912, 9591.451
575.1733, 9619.301
575.6554, 9663.483
576.1375, 9698.238
576.6196, 9718.122
577.1017, 9735.886
577.5839, 9766.127
578.0660, 9803.509
578.5481, 9828.609
579.0302, 9839.866
579.5123, 9849.306
579.9944, 9859.341
580.4766, 9873.354
580.9587, 9901.302
581.4408, 9949.067
581.9229, 9984.392
582.4050, 9985.034
582.8871, 9987.757
583.3693, 10028.69
583.8514, 10089.65
584.3335, 10128.01
584.8156, 10123.90
585.2977, 10097.58
585.7798, 10083.60
586.2620, 10084.82
586.7441, 10063.03
587.2262, 10004.09
587.7083, 9941.821
588.1904, 9893.031
588.6725, 9854.129
589.1547, 9820.997
589.6368, 9795.258
590.1189, 9769.040
590.6010, 9740.086
591.0831, 9707.612
591.5652, 9676.055
592.0474, 9642.354
592.5295, 9585.551
593.0116, 9487.164
593.4937, 9369.768
593.9758, 9307.030
594.4579, 9332.913
594.9401, 9333.345
595.4222, 9279.664
595.9043, 9215.872
596.3864, 9157.625
596.8685, 9106.847
597.3506, 9066.049
597.8328, 9040.524
598.3149, 9017.092
598.7970, 8977.765
599.2791, 8931.633
599.7612, 8907.773
600.2433, 8911.788
600.7255, 8910.657
601.2076, 8872.858
601.6897, 8805.152
602.1718, 8762.963
602.6539, 8770.510
603.1360, 8771.313
603.6182, 8756.111
604.1003, 8736.784
604.5824, 8721.911
605.0645, 8711.473
605.5466, 8700.836
606.0287, 8686.257
606.5109, 8671.404
606.9930, 8663.959
607.4751, 8662.458
607.9572, 8655.781
608.4393, 8641.376
608.9214, 8619.205
609.4036, 8583.628
609.8857, 8534.628
610.3678, 8515.969
610.8499, 8559.553
611.3320, 8590.107
611.8141, 8581.602
612.2963, 8557.248
612.7784, 8541.231
613.2605, 8535.501
613.7426, 8524.821
614.2247, 8491.609
614.7068, 8450.336
615.1890, 8442.043
615.6711, 8468.528
616.1532, 8488.175
616.6353, 8490.313
617.1174, 8478.771
617.5995, 8449.825
618.0817, 8402.992
618.5638, 8381.793
619.0459, 8409.524
619.5280, 8438.133
620.0101, 8451.411
620.4922, 8453.993
620.9744, 8451.908
621.4565, 8446.674
621.9386, 8437.292
622.4207, 8423.057
622.9028, 8403.864
623.3849, 8375.690
623.8671, 8334.626
624.3492, 8308.376
624.8313, 8311.109
625.3134, 8325.586
625.7955, 8331.877
626.2776, 8330.542
626.7598, 8330.932
627.2419, 8339.539
627.7240, 8344.513
628.2061, 8337.466
628.6882, 8323.944
629.1703, 8311.578
629.6525, 8302.433
630.1346, 8294.960
630.6167, 8287.885
631.0988, 8281.156
631.5809, 8274.290
632.0630, 8267.005
632.5452, 8260.938
633.0273, 8259.697
633.5094, 8256.759
633.9915, 8239.288
634.4736, 8208.614
634.9557, 8195.018
635.4379, 8222.462
635.9200, 8249.696
636.4021, 8256.501
636.8842, 8246.839
637.3663, 8222.419
637.8484, 8186.476
638.3306, 8154.048
638.8127, 8140.500
639.2948, 8143.506
639.7769, 8150.290
640.2590, 8162.344
640.7411, 8173.088
641.2233, 8181.989
641.7054, 8187.370
642.1875, 8189.958
642.6696, 8189.252
643.1517, 8177.006
643.6339, 8136.624
644.1160, 8100.194
644.5981, 8087.326
645.0802, 8088.995
645.5623, 8091.920
646.0444, 8092.952
646.5266, 8096.858
647.0087, 8110.763
647.4908, 8129.664
647.9729, 8125.777
648.4550, 8090.947
648.9371, 8065.982
649.4193, 8061.442
649.9014, 8070.338
650.3835, 8096.533
650.8656, 8134.960
651.3477, 8147.655
651.8298, 8101.055
652.3120, 8058.411
652.7941, 8059.336
653.2762, 8076.935
653.7583, 8071.597
654.2404, 8039.946
654.7225, 8010.504
655.2047, 8008.012
655.6868, 8022.983
656.1689, 8021.560
656.6510, 7999.420
657.1331, 7988.845
657.6152, 8003.999
658.0974, 8021.799
658.5795, 8016.990
659.0616, 7995.708
659.5437, 7985.730
660.0258, 8005.625
660.5079, 8017.141
660.9901, 7999.602
661.4722, 7972.195
661.9543, 7953.519
662.4364, 7945.681
662.9185, 7943.043
