##NAMES=Monticellite
##RRUFFID=R100107
##IDEAL CHEMISTRY=CaMgSiO_4_
##LOCALITY=Crestmore, Riverside County, California, USA
##OWNER=RRUFF
##SOURCE=American Museum of Natural History
##DESCRIPTION=White to dirty-white massive
##STATUS=The identification of this mineral is confirmed by single-crystal X-ray diffraction and chemical analysis.
##URL=rruff.info/R100107
##MEASURED CHEMISTRY=(Ca_1.021_Mg_0.896_Fe^+2^_0.086_Mn^+2^_0.003_)_Î£=2.006_Si_0.996_O_4_
128.0973, 17.89356
128.5794, 19.30047
129.0615, 21.81485
129.5436, 23.24028
130.0258, 22.66367
130.5079, 21.26040
130.9900, 21.22138
131.4721, 22.54582
131.9542, 24.09520
132.4363, 24.92638
132.9185, 25.11166
133.4006, 25.09114
133.8827, 24.67448
134.3648, 24.19128
134.8469, 25.15199
135.3290, 27.85370
135.8112, 30.70387
136.2933, 31.44052
136.7754, 29.88735
137.2575, 29.04904
137.7396, 30.07840
138.2217, 32.90967
138.7039, 35.86988
139.1860, 39.00215
139.6681, 42.20327
140.1502, 45.31841
140.6323, 48.21065
141.1144, 51.37837
141.5966, 55.34862
142.0787, 60.62975
142.5608, 64.27164
143.0429, 65.95917
143.5250, 66.19070
144.0071, 65.88615
144.4893, 64.48663
144.9714, 63.46437
145.4535, 63.55187
145.9356, 65.36100
146.4177, 67.05220
146.8998, 68.44489
147.3820, 69.68192
147.8641, 71.42249
148.3462, 73.74898
148.8283, 76.47830
149.3104, 79.55956
149.7925, 83.25725
150.2747, 86.93510
150.7568, 90.09698
151.2389, 92.86929
151.7210, 96.91296
152.2031, 102.6667
152.6852, 109.3677
153.1674, 116.6127
153.6495, 125.5086
154.1316, 133.7147
154.6137, 141.0198
155.0958, 147.4187
155.5779, 152.7434
156.0601, 155.3781
156.5422, 157.6551
157.0243, 161.5408
157.5064, 168.4825
157.9885, 176.0479
158.4706, 184.0179
158.9528, 192.5417
159.4349, 199.8554
159.9170, 203.7634
160.3991, 206.7362
160.8812, 211.6297
161.3633, 220.3413
161.8455, 230.2849
162.3276, 240.2456
162.8097, 249.7361
163.2918, 260.4460
163.7739, 275.7981
164.2560, 292.0580
164.7382, 301.9696
165.2203, 304.0054
165.7024, 302.0201
166.1845, 297.3886
166.6666, 289.5288
167.1487, 281.7272
167.6309, 273.7453
168.1130, 266.9202
168.5951, 264.2598
169.0772, 268.5997
169.5593, 276.7123
170.0414, 286.0215
170.5236, 296.2426
171.0057, 307.1986
171.4878, 322.1711
171.9699, 338.7505
172.4520, 349.2308
172.9341, 351.2748
173.4163, 344.4816
173.8984, 327.1745
174.3805, 295.0331
174.8626, 258.9352
175.3447, 226.0665
175.8268, 196.6333
176.3090, 171.7934
176.7911, 153.7093
177.2732, 140.5885
177.7553, 129.8179
178.2374, 120.8829
178.7195, 113.7464
179.2017, 108.6228
179.6838, 105.3645
180.1659, 103.1573
180.6480, 101.6920
181.1301, 100.7777
181.6122, 99.95318
182.0944, 99.17181
182.5765, 98.34914
183.0586, 97.09100
183.5407, 95.42587
184.0228, 94.10478
184.5049, 94.17240
184.9871, 95.25478
185.4692, 95.99415
185.9513, 95.79887
186.4334, 95.05107
186.9155, 94.53338
187.3976, 94.23616
187.8798, 94.29520
188.3619, 95.20171
188.8440, 96.77979
189.3261, 97.82528
189.8082, 97.79855
190.2903, 96.93960
190.7725, 95.94387
191.2546, 94.71909
191.7367, 93.77212
192.2188, 93.88535
192.7009, 94.99911
193.1830, 95.98350
193.6652, 96.35216
194.1473, 96.21104
194.6294, 96.19264
195.1115, 96.31001
195.5936, 96.50386
196.0757, 96.58233
196.5579, 96.52694
197.0400, 96.85862
197.5221, 98.01505
198.0042, 99.91029
198.4863, 101.2767
198.9684, 102.0481
199.4506, 102.4241
199.9327, 102.5751
200.4148, 102.4610
200.8969, 102.4882
201.3790, 102.8503
201.8611, 103.5552
202.3433, 104.3591
202.8254, 105.3543
203.3075, 106.3024
203.7896, 106.6107
204.2717, 106.0879
204.7538, 105.8916
205.2360, 106.6395
205.7181, 108.4529
206.2002, 110.0691
206.6823, 111.4514
207.1644, 112.6804
207.6465, 113.9346
208.1287, 115.2520
208.6108, 116.4248
209.0929, 117.2554
209.5750, 117.6132
210.0571, 118.3673
210.5392, 119.5666
211.0214, 121.1276
211.5035, 122.8310
211.9856, 124.5415
212.4677, 126.7172
212.9498, 129.6027
213.4319, 133.2528
213.9140, 137.3587
214.3962, 142.2507
214.8783, 147.4000
215.3604, 151.5277
215.8425, 154.5792
216.3246, 156.8200
216.8067, 158.5990
217.2889, 160.3640
217.7710, 159.9995
218.2531, 157.0247
218.7352, 152.1387
219.2173, 146.7260
219.6994, 140.2531
220.1816, 134.2310
220.6637, 129.2173
221.1458, 125.2848
221.6279, 122.1218
222.1100, 119.7003
222.5921, 118.0360
223.0743, 117.2902
223.5564, 118.1165
224.0385, 118.7261
224.5206, 117.9852
225.0027, 114.6411
225.4848, 113.3940
225.9670, 115.0834
226.4491, 118.6584
226.9312, 121.3972
227.4133, 122.8331
227.8954, 124.1619
228.3775, 125.8946
228.8597, 128.1964
229.3418, 130.5774
229.8239, 133.1122
230.3060, 135.7048
230.7881, 137.9501
231.2702, 139.5081
231.7524, 141.2734
232.2345, 143.6498
232.7166, 146.9284
233.1987, 150.2148
233.6808, 153.4549
234.1629, 156.6959
234.6451, 160.0824
235.1272, 163.3653
235.6093, 167.1337
236.0914, 171.5605
236.5735, 176.3274
237.0556, 182.5027
237.5378, 190.2987
238.0199, 199.4412
238.5020, 209.1640
238.9841, 219.2956
239.4662, 230.4382
239.9483, 243.1455
240.4305, 258.3925
240.9126, 272.5999
241.3947, 285.5016
241.8768, 297.4500
242.3589, 309.2619
242.8410, 320.7791
243.3232, 332.3663
243.8053, 344.1694
244.2874, 356.6352
244.7695, 368.2164
245.2516, 378.4557
245.7337, 388.0563
246.2159, 398.5670
246.6980, 410.1765
247.1801, 422.4262
247.6622, 435.0328
248.1443, 447.3857
248.6264, 462.0707
249.1086, 479.9899
249.5907, 499.8903
250.0728, 519.1352
250.5549, 537.0615
251.0370, 555.4238
251.5191, 574.4587
252.0013, 592.8707
252.4834, 615.8152
252.9655, 643.8751
253.4476, 675.8578
253.9297, 709.5098
254.4118, 744.0779
254.8940, 780.9890
255.3761, 820.8552
255.8582, 864.2704
256.3403, 910.0383
256.8224, 962.5699
257.3046, 1014.152
257.7867, 1052.985
258.2688, 1084.181
258.7509, 1092.732
259.2330, 1072.345
259.7151, 1020.577
260.1973, 952.1418
260.6794, 861.2677
261.1615, 760.8100
261.6436, 670.4716
262.1257, 589.0652
262.6078, 518.8275
263.0900, 461.7214
263.5721, 417.7979
264.0542, 382.0151
264.5363, 355.0692
265.0184, 334.9957
265.5005, 319.0268
265.9827, 308.1237
266.4648, 298.9280
266.9469, 290.7407
267.4290, 283.5883
267.9111, 277.3818
268.3932, 272.3362
268.8754, 267.9738
269.3575, 263.8674
269.8396, 260.0674
270.3217, 256.1224
270.8038, 251.5089
271.2859, 246.3262
271.7681, 243.4871
272.2502, 243.4917
272.7323, 244.7979
273.2144, 245.6784
273.6965, 245.8329
274.1786, 247.3709
274.6608, 251.6616
275.1429, 257.9429
275.6250, 260.6559
276.1071, 259.3108
276.5892, 255.8286
277.0714, 252.1020
277.5535, 248.2931
278.0356, 242.6275
278.5177, 234.5464
278.9998, 224.4239
279.4819, 213.3541
279.9641, 200.8642
280.4462, 188.9610
280.9283, 179.2199
281.4104, 171.7615
281.8925, 165.1980
282.3746, 159.4050
282.8568, 154.3118
283.3389, 149.5236
283.8210, 144.9351
284.3031, 141.4479
284.7852, 140.2095
285.2673, 141.0839
285.7495, 141.3477
286.2316, 140.4105
286.7137, 139.0725
287.1958, 138.8132
287.6779, 139.6304
288.1600, 141.5435
288.6422, 144.8487
289.1243, 149.4340
289.6064, 154.3049
290.0885, 159.5618
290.5706, 164.7746
291.0527, 169.0510
291.5349, 172.4603
292.0170, 176.0250
292.4991, 180.4348
292.9812, 185.4781
293.4633, 190.3387
293.9454, 195.0748
294.4276, 199.3575
294.9097, 201.8682
295.3918, 203.1115
295.8739, 205.7304
296.3560, 211.5560
296.8381, 219.6135
297.3203, 227.5229
297.8024, 235.1602
298.2845, 242.9970
298.7666, 251.4866
299.2487, 260.5089
299.7308, 269.9588
300.2130, 280.0723
300.6951, 290.4835
301.1772, 300.4894
301.6593, 310.0503
302.1414, 320.0189
302.6235, 330.9345
303.1057, 342.7546
303.5878, 355.1504
304.0699, 368.6481
304.5520, 382.3451
305.0341, 396.0527
305.5162, 409.5015
305.9984, 420.8694
306.4805, 430.7238
306.9626, 437.0855
307.4447, 437.0440
307.9268, 429.6698
308.4089, 415.8456
308.8911, 394.6229
309.3732, 366.9939
309.8553, 337.0504
310.3374, 303.8747
310.8195, 271.0314
311.3016, 242.5237
311.7838, 219.6933
312.2659, 200.2671
312.7480, 183.3250
313.2301, 168.9786
313.7122, 157.1084
314.1943, 148.0847
314.6765, 141.1410
315.1586, 135.9212
315.6407, 132.6691
316.1228, 130.1209
316.6049, 127.6296
317.0870, 125.4789
317.5692, 124.1650
318.0513, 124.5484
318.5334, 125.2285
319.0155, 125.4098
319.4976, 124.9013
319.9797, 124.8179
320.4619, 125.9996
320.9440, 127.6346
321.4261, 128.7999
321.9082, 128.6151
322.3903, 128.5744
322.8724, 129.0206
323.3546, 129.9701
323.8367, 131.5343
324.3188, 134.3039
324.8009, 137.4002
325.2830, 140.1204
325.7651, 141.0465
326.2473, 143.0997
326.7294, 147.4240
327.2115, 153.6535
327.6936, 158.8857
328.1757, 161.8269
328.6578, 164.5085
329.1400, 167.9460
329.6221, 172.6298
330.1042, 177.3721
330.5863, 182.7578
331.0684, 188.2302
331.5505, 192.0818
332.0327, 194.0593
332.5148, 194.7552
332.9969, 194.3513
333.4790, 192.8058
333.9611, 190.3425
334.4432, 187.1419
334.9254, 182.8946
335.4075, 177.0518
335.8896, 169.1147
336.3717, 160.4590
336.8538, 151.2750
337.3359, 141.3236
337.8180, 132.5010
338.3001, 124.6795
338.7823, 118.1900
339.2644, 113.9118
339.7465, 112.3746
340.2286, 110.5900
340.7107, 107.7604
341.1928, 104.0465
341.6750, 100.7294
342.1571, 97.66054
342.6392, 95.34558
343.1213, 94.60921
343.6034, 95.49052
344.0855, 95.57289
344.5677, 94.24538
345.0498, 92.11320
345.5319, 90.67081
346.0140, 89.93553
346.4961, 89.39793
346.9782, 88.80850
347.4604, 88.15577
347.9425, 87.35661
348.4246, 86.33589
348.9067, 85.35088
349.3888, 85.04150
349.8709, 85.23046
350.3531, 84.92711
350.8352, 82.94102
351.3173, 80.28177
351.7994, 78.94328
352.2815, 79.05368
352.7636, 79.83812
353.2458, 80.79642
353.7279, 81.87086
354.2100, 82.94972
354.6921, 84.45618
355.1742, 85.62577
355.6563, 85.34489
356.1385, 83.73971
356.6206, 82.14332
357.1027, 81.42451
357.5848, 81.24414
358.0669, 81.20509
358.5490, 81.24651
359.0312, 81.33952
359.5133, 81.69951
359.9954, 82.14319
360.4775, 82.11317
360.9596, 80.66657
361.4417, 79.09608
361.9239, 78.22717
362.4060, 78.20163
362.8881, 78.84362
363.3702, 80.94370
363.8523, 83.50909
364.3344, 85.01833
364.8166, 83.39895
365.2987, 82.11915
365.7808, 82.99157
366.2629, 86.48512
366.7450, 88.77142
367.2271, 88.26496
367.7093, 86.78291
368.1914, 85.92258
368.6735, 86.54015
369.1556, 86.99207
369.6377, 86.81567
370.1198, 86.13549
370.6020, 86.08054
371.0841, 86.86528
371.5662, 88.08006
372.0483, 89.51810
372.5304, 91.31004
373.0125, 93.11155
373.4947, 94.95840
373.9768, 96.77792
374.4589, 98.40429
374.9410, 99.75853
375.4231, 101.0913
375.9052, 102.5610
376.3874, 104.2296
376.8695, 105.3854
377.3516, 105.5754
377.8337, 106.0362
378.3158, 108.7211
378.7979, 113.9996
379.2801, 118.7766
379.7622, 122.0221
380.2443, 124.1395
380.7264, 127.0430
381.2085, 130.7527
381.6906, 135.0308
382.1728, 139.3171
382.6549, 143.8535
383.1370, 150.1845
383.6191, 159.2053
384.1012, 169.1009
384.5833, 176.8913
385.0655, 182.8021
385.5476, 188.5001
386.0297, 194.2600
386.5118, 200.7080
386.9939, 209.4572
387.4760, 220.8056
387.9582, 232.9411
388.4403, 244.5052
388.9224, 255.7198
389.4045, 266.9525
389.8866, 277.5696
390.3687, 288.9466
390.8509, 302.3626
391.3330, 317.6458
391.8151, 333.6184
392.2972, 349.1522
392.7793, 365.0771
393.2614, 382.2668
393.7436, 400.8569
394.2257, 420.5269
394.7078, 441.0482
395.1899, 462.4072
395.6720, 484.5710
396.1541, 507.8266
396.6363, 531.6531
397.1184, 556.0063
397.6005, 581.2774
398.0826, 605.8348
398.5647, 629.5341
399.0468, 652.3656
399.5290, 674.3163
400.0111, 695.7813
400.4932, 715.9344
400.9753, 734.8105
401.4574, 752.4726
401.9395, 768.0407
402.4217, 781.6005
402.9038, 793.1199
403.3859, 802.5130
403.8680, 809.5089
404.3501, 814.9496
404.8322, 818.5500
405.3144, 820.7499
405.7965, 823.0206
406.2786, 826.1062
406.7607, 826.8645
407.2428, 823.6862
407.7249, 816.4692
408.2071, 808.0011
408.6892, 798.6984
409.1713, 786.8344
409.6534, 769.3525
410.1355, 746.5361
410.6176, 722.9491
411.0998, 699.9767
411.5819, 676.8923
412.0640, 652.2011
412.5461, 626.0889
413.0282, 597.7311
413.5103, 565.2316
413.9925, 530.5847
414.4746, 497.4352
414.9567, 466.3002
415.4388, 436.8354
415.9209, 408.1730
416.4030, 380.6751
416.8852, 354.4156
417.3673, 328.6511
417.8494, 305.0677
418.3315, 285.3423
418.8136, 269.7759
419.2957, 255.3404
419.7779, 240.4720
420.2600, 225.9769
420.7421, 212.9068
421.2242, 201.3050
421.7063, 191.2822
422.1884, 183.2512
422.6706, 176.8598
423.1527, 170.4502
423.6348, 163.1623
424.1169, 156.2535
424.5990, 150.1433
425.0811, 144.7026
425.5633, 140.5833
426.0454, 138.8743
426.5275, 138.0357
427.0096, 136.0623
427.4917, 132.1608
427.9738, 128.3330
428.4560, 124.9460
428.9381, 121.9653
429.4202, 119.2206
429.9023, 116.6347
430.3844, 114.4793
430.8665, 113.2398
431.3487, 113.1925
431.8308, 112.2580
432.3129, 110.0047
432.7950, 107.1111
433.2771, 105.1351
433.7592, 104.1359
434.2414, 102.9484
434.7235, 100.6128
435.2056, 97.59559
435.6877, 96.05641
436.1698, 96.10508
436.6519, 96.31693
437.1341, 94.90022
437.6162, 92.52451
438.0983, 90.95174
438.5804, 90.92577
439.0625, 91.52108
439.5446, 92.13384
440.0268, 92.58865
440.5089, 92.24130
440.9910, 89.53840
441.4731, 86.56142
441.9552, 85.48266
442.4373, 86.96773
442.9195, 88.04539
443.4016, 86.33125
443.8837, 83.64314
444.3658, 82.19104
444.8479, 84.35878
445.3300, 86.11739
445.8122, 85.81645
446.2943, 83.70422
446.7764, 82.17445
447.2585, 82.01314
447.7406, 82.18019
448.2227, 82.19324
448.7049, 82.14575
449.1870, 81.69688
449.6691, 80.20953
450.1512, 78.64108
450.6333, 78.76176
451.1154, 81.78480
451.5976, 83.84611
452.0797, 83.55006
452.5618, 81.11885
453.0439, 79.95712
453.5260, 80.42769
454.0081, 81.10061
454.4903, 80.72313
454.9724, 79.31746
455.4545, 78.25964
455.9366, 77.80048
456.4187, 77.59447
456.9008, 76.86002
457.3830, 75.71186
457.8651, 75.10344
458.3472, 76.12732
458.8293, 77.77840
459.3114, 78.02695
459.7935, 76.87066
460.2757, 75.68077
460.7578, 76.06083
461.2399, 76.94516
461.7220, 76.69388
462.2041, 74.01553
462.6862, 71.58421
463.1684, 71.54565
463.6505, 73.08289
464.1326, 74.30939
464.6147, 74.68711
465.0968, 74.38634
465.5789, 72.93313
466.0611, 69.96131
466.5432, 68.61771
467.0253, 71.13663
467.5074, 74.69503
467.9895, 76.92131
468.4716, 76.58900
468.9538, 76.34732
469.4359, 76.43704
469.9180, 76.73009
470.4001, 76.84936
470.8822, 76.89729
471.3643, 76.57252
471.8465, 75.51070
472.3286, 73.54346
472.8107, 72.74063
473.2928, 73.36819
473.7749, 74.52223
474.2570, 75.43085
474.7392, 76.09193
475.2213, 75.89467
475.7034, 74.34081
476.1855, 72.29820
476.6676, 71.51591
477.1497, 71.93172
477.6319, 72.95226
478.1140, 74.90323
478.5961, 77.01743
479.0782, 77.86491
479.5603, 77.28868
480.0424, 76.33739
480.5246, 75.36463
481.0067, 74.68640
481.4888, 74.77369
481.9709, 76.49446
482.4530, 78.18523
482.9352, 78.97729
483.4173, 79.04457
483.8994, 78.93723
484.3815, 79.15966
484.8636, 78.98465
485.3457, 77.85951
485.8279, 75.32673
486.3100, 73.44646
486.7921, 72.52842
487.2742, 72.26956
487.7563, 72.47910
488.2384, 73.74080
488.7206, 74.44096
489.2027, 74.18423
489.6848, 73.27370
490.1669, 72.74419
490.6490, 72.60202
491.1311, 72.84150
491.6133, 73.72717
492.0954, 75.24184
492.5775, 75.75745
493.0596, 75.09667
493.5417, 74.17394
494.0238, 74.03811
494.5060, 74.53104
494.9881, 74.92343
495.4702, 75.00254
495.9523, 74.94352
496.4344, 74.98571
496.9165, 75.10220
497.3987, 75.19207
497.8808, 75.21272
498.3629, 75.17173
498.8450, 74.90990
499.3271, 74.38563
499.8092, 74.33988
500.2914, 75.73952
500.7735, 77.52527
501.2556, 78.72182
501.7377, 78.49255
502.2198, 78.34939
502.7019, 78.69914
503.1841, 79.37713
503.6662, 79.93214
504.1483, 79.99387
504.6304, 80.30215
505.1125, 81.18284
505.5946, 82.71294
506.0768, 83.80363
506.5589, 84.26681
507.0410, 84.55953
507.5231, 85.01466
508.0052, 85.62663
508.4873, 86.43308
508.9695, 87.44013
509.4516, 88.61813
509.9337, 89.90993
510.4158, 91.31602
510.8979, 92.83894
511.3800, 94.46903
511.8622, 96.23255
512.3443, 98.20458
512.8264, 100.3680
513.3085, 102.7275
513.7906, 105.5022
514.2728, 108.3874
514.7549, 110.7918
515.2370, 112.2270
515.7191, 114.3322
516.2012, 118.3616
516.6833, 123.6666
517.1655, 129.3136
517.6476, 135.1700
518.1297, 141.1472
518.6118, 147.0691
519.0939, 152.9887
519.5760, 159.5086
520.0582, 167.1915
520.5403, 175.0278
521.0224, 182.4785
521.5045, 189.3823
521.9866, 196.4503
522.4688, 203.5577
522.9509, 210.9688
523.4330, 219.1250
523.9151, 228.0727
524.3972, 237.5386
524.8793, 247.4091
525.3615, 257.6818
525.8436, 268.3893
526.3257, 279.5857
526.8078, 291.5838
527.2899, 304.7491
527.7720, 318.9774
528.2542, 333.8433
528.7363, 349.2640
529.2184, 365.4828
529.7005, 383.0456
530.1826, 401.2192
530.6647, 419.1082
531.1469, 436.8947
531.6290, 453.3425
532.1111, 468.6418
532.5932, 481.9128
533.0753, 491.3226
533.5574, 499.2887
534.0396, 500.5960
534.5217, 492.6485
535.0038, 475.0690
535.4859, 453.5921
535.9680, 426.8085
536.4501, 397.9676
536.9323, 368.6291
537.4144, 337.4704
537.8965, 308.5877
538.3786, 281.8640
538.8607, 257.7073
539.3428, 237.5484
539.8250, 221.3684
540.3071, 207.1113
540.7892, 194.4169
541.2713, 183.2109
541.7534, 174.0211
542.2355, 166.7607
542.7177, 160.5432
543.1998, 155.0777
543.6819, 150.1128
544.1640, 145.0859
544.6461, 139.9008
545.1282, 135.5761
545.6104, 134.0264
546.0925, 133.2961
546.5746, 131.0468
547.0567, 124.3451
547.5388, 119.2454
548.0209, 118.9138
548.5031, 121.6069
548.9852, 123.4666
549.4673, 123.6215
549.9494, 123.1838
550.4315, 122.1735
550.9136, 120.5954
551.3958, 119.6684
551.8779, 119.6133
552.3600, 119.8383
552.8421, 119.9381
553.3242, 119.8674
553.8063, 120.1284
554.2885, 120.7833
554.7706, 121.6572
555.2527, 122.3681
555.7348, 123.0162
556.2169, 124.3383
556.6990, 126.9829
557.1812, 129.8297
557.6633, 130.9564
558.1454, 130.7941
558.6275, 130.9676
559.1096, 132.5522
559.5917, 134.7514
560.0739, 137.1935
560.5560, 139.8725
561.0381, 141.8445
561.5202, 141.6948
562.0023, 141.3017
562.4844, 142.1002
562.9666, 145.6485
563.4487, 148.3373
563.9308, 149.3502
564.4129, 149.6733
564.8950, 150.8174
565.3771, 153.0749
565.8593, 155.4405
566.3414, 157.5840
566.8235, 159.6655
567.3056, 162.7601
567.7877, 167.0248
568.2698, 171.0282
568.7520, 173.6133
569.2341, 175.2049
569.7162, 177.4841
570.1983, 180.4868
570.6804, 184.0855
571.1625, 188.3674
571.6447, 193.0797
572.1268, 197.9054
572.6089, 203.1389
573.0910, 207.7650
573.5731, 210.8435
574.0552, 212.9492
574.5374, 215.1550
575.0195, 218.0586
575.5016, 220.8372
575.9837, 223.2706
576.4658, 225.3414
576.9479, 227.1244
577.4301, 228.8586
577.9122, 230.0143
578.3943, 230.2731
578.8764, 229.4609
579.3585, 228.7513
579.8406, 228.2550
580.3228, 227.6129
580.8049, 226.4990
581.2870, 224.9201
581.7691, 222.7826
582.2512, 219.9210
582.7333, 216.8694
583.2155, 214.2850
583.6975, 212.1753
584.1796, 210.4471
584.6617, 209.6026
585.1439, 208.7499
585.6260, 207.0972
586.1081, 204.7147
586.5902, 201.9741
587.0723, 198.6899
587.5544, 195.3940
588.0366, 192.4276
588.5187, 190.0178
589.0008, 187.1797
589.4829, 183.8922
589.9650, 180.0639
590.4471, 175.5061
590.9293, 169.6178
591.4114, 164.4226
591.8935, 160.2488
592.3756, 156.5625
592.8577, 152.4194
593.3398, 147.8402
593.8220, 143.0320
594.3041, 137.9055
594.7862, 132.7180
595.2683, 128.0670
595.7504, 123.9513
596.2325, 120.0678
596.7147, 116.0683
597.1968, 112.3030
597.6789, 109.2513
598.1610, 106.9583
598.6431, 104.6812
599.1252, 101.7832
599.6074, 98.88790
600.0895, 96.50135
600.5716, 94.94466
601.0537, 93.49321
601.5358, 92.17469
602.0179, 90.86580
602.5001, 89.41087
602.9822, 87.78861
603.4643, 86.05629
603.9464, 84.07719
604.4285, 82.04402
604.9106, 80.54774
605.3928, 79.62862
605.8749, 78.99002
606.3570, 78.67162
606.8391, 78.50962
607.3212, 77.79472
607.8033, 76.55995
608.2855, 75.54887
608.7676, 75.76797
609.2497, 76.37399
609.7318, 76.17546
610.2139, 74.81934
610.6960, 73.52853
611.1782, 72.90636
611.6603, 72.72859
612.1424, 72.75228
612.6245, 73.52855
613.1066, 73.77235
613.5887, 72.86131
614.0709, 71.40420
614.5530, 70.64278
615.0351, 70.97410
615.5172, 71.19276
615.9993, 71.01965
616.4814, 70.47147
616.9636, 69.33871
617.4457, 67.51212
617.9278, 66.35599
618.4099, 67.36042
618.8920, 69.65475
619.3741, 70.92039
619.8563, 71.08010
620.3384, 70.57923
620.8205, 68.84980
621.3026, 67.07260
621.7847, 66.95918
622.2668, 69.68963
622.7490, 71.82766
623.2311, 71.51978
