##NAMES=Monticellite
##RRUFFID=R100108
##IDEAL CHEMISTRY=CaMgSiO_4_
##LOCALITY=Oka, Deux-montagnes County, Quebec, Canada
##OWNER=RRUFF
##SOURCE=American Museum of Natural History
##DESCRIPTION=Pale brown transparent fragment
##STATUS=The identification of this mineral is confirmed by single-crystal X-ray diffraction and chemical analysis.
##URL=rruff.info/R100108
##MEASURED CHEMISTRY=(Ca_0.959_Mg_0.474_Mn^+2^_0.305_Fe^+2^_0.268_Zn_0.002_)_Î£=2.008_Si_0.996_O_4_
127.6152, 10.18941
128.0973, 10.21166
128.5794, 10.78467
129.0615, 11.68796
129.5436, 12.38347
130.0258, 12.69767
130.5079, 12.81346
130.9900, 13.02278
131.4721, 13.32379
131.9542, 13.72067
132.4363, 14.20033
132.9185, 14.76992
133.4006, 15.47056
133.8827, 16.27902
134.3648, 17.22696
134.8469, 18.61080
135.3290, 20.52643
135.8112, 22.46420
136.2933, 23.60525
136.7754, 23.87453
137.2575, 24.59588
137.7396, 26.27246
138.2217, 28.85605
138.7039, 31.74211
139.1860, 35.02742
139.6681, 38.47095
140.1502, 41.72844
140.6323, 44.66506
141.1144, 47.75904
141.5966, 51.29010
142.0787, 55.40696
142.5608, 59.26255
143.0429, 62.99382
143.5250, 66.38372
144.0071, 68.80672
144.4893, 69.77833
144.9714, 70.53492
145.4535, 71.55325
145.9356, 72.69071
146.4177, 74.41572
146.8998, 76.89708
147.3820, 79.99140
147.8641, 83.22210
148.3462, 86.49770
148.8283, 89.95432
149.3104, 93.69598
149.7925, 97.55296
150.2747, 101.9002
150.7568, 106.8822
151.2389, 112.4410
151.7210, 117.8955
152.2031, 123.1106
152.6852, 128.2476
153.1674, 133.4654
153.6495, 139.0649
154.1316, 144.3883
154.6137, 149.3773
155.0958, 154.0307
155.5779, 158.2958
156.0601, 161.5730
156.5422, 164.7344
157.0243, 168.4881
157.5064, 173.3388
157.9885, 178.4444
158.4706, 183.9704
158.9528, 190.0944
159.4349, 194.9859
159.9170, 197.3960
160.3991, 198.5552
160.8812, 199.8863
161.3633, 201.7767
161.8455, 203.9420
162.3276, 206.4909
162.8097, 209.5938
163.2918, 212.0897
163.7739, 213.5911
164.2560, 213.9265
164.7382, 211.8880
165.2203, 208.0222
165.7024, 203.8843
166.1845, 200.0886
166.6666, 196.6937
167.1487, 193.6413
167.6309, 190.6394
168.1130, 187.8907
168.5951, 185.8850
169.0772, 185.6657
169.5593, 185.8035
170.0414, 185.0175
170.5236, 182.8271
171.0057, 180.3119
171.4878, 178.3814
171.9699, 176.7783
172.4520, 174.7651
172.9341, 171.3615
173.4163, 167.5038
173.8984, 164.2865
174.3805, 161.9858
174.8626, 160.2792
175.3447, 158.9077
175.8268, 157.8415
176.3090, 156.9566
176.7911, 156.3569
177.2732, 155.8549
177.7553, 155.1335
178.2374, 154.0088
178.7195, 152.7421
179.2017, 151.4339
179.6838, 150.1230
180.1659, 149.3485
180.6480, 149.9688
181.1301, 151.4380
181.6122, 152.4875
182.0944, 152.6526
182.5765, 152.2821
183.0586, 151.8421
183.5407, 151.3414
184.0228, 150.9600
184.5049, 150.9295
184.9871, 151.1743
185.4692, 151.4238
185.9513, 151.5743
186.4334, 151.6812
186.9155, 151.8751
187.3976, 152.1568
187.8798, 152.5069
188.3619, 152.9622
188.8440, 153.5007
189.3261, 153.9530
189.8082, 154.3161
190.2903, 154.5527
190.7725, 154.4171
191.2546, 153.8314
191.7367, 153.2735
192.2188, 153.4332
192.7009, 154.2664
193.1830, 154.9144
193.6652, 154.9310
194.1473, 154.4450
194.6294, 154.3053
195.1115, 154.5749
195.5936, 154.9763
196.0757, 155.1097
196.5579, 154.9638
197.0400, 154.8815
197.5221, 154.9457
198.0042, 155.1615
198.4863, 155.8102
198.9684, 157.1055
199.4506, 158.3560
199.9327, 158.2542
200.4148, 156.6221
200.8969, 155.2777
201.3790, 155.0466
201.8611, 155.9688
202.3433, 156.9505
202.8254, 158.1480
203.3075, 159.1574
203.7896, 158.9726
204.2717, 157.2575
204.7538, 156.0354
205.2360, 156.4241
205.7181, 158.6600
206.2002, 160.3259
206.6823, 161.4121
207.1644, 161.9453
207.6465, 161.8542
208.1287, 160.9834
208.6108, 160.0476
209.0929, 159.3018
209.5750, 158.7209
210.0571, 158.4864
210.5392, 158.6568
211.0214, 159.1206
211.5035, 159.7075
211.9856, 160.5026
212.4677, 161.1817
212.9498, 161.6082
213.4319, 161.7681
213.9140, 161.6902
214.3962, 161.2371
214.8783, 160.6332
215.3604, 160.4754
215.8425, 161.0025
216.3246, 161.4271
216.8067, 161.2659
217.2889, 160.1725
217.7710, 159.6956
218.2531, 159.9806
218.7352, 160.8250
219.2173, 161.8421
219.6994, 163.2597
220.1816, 164.4155
220.6637, 164.9828
221.1458, 164.7493
221.6279, 164.5254
222.1100, 164.2708
222.5921, 164.0544
223.0743, 164.0771
223.5564, 164.4624
224.0385, 164.8784
224.5206, 165.0822
225.0027, 164.7561
225.4848, 165.1393
225.9670, 166.5976
226.4491, 168.6585
226.9312, 170.0494
227.4133, 170.3425
227.8954, 170.6447
228.3775, 171.4717
228.8597, 173.0572
229.3418, 174.6214
229.8239, 176.1506
230.3060, 177.6526
230.7881, 179.1128
231.2702, 180.5667
231.7524, 181.9415
232.2345, 183.1284
232.7166, 183.8714
233.1987, 185.0560
233.6808, 186.7171
234.1629, 188.8017
234.6451, 191.3054
235.1272, 194.6594
235.6093, 197.7708
236.0914, 200.0685
236.5735, 200.9663
237.0556, 202.4172
237.5378, 204.5747
238.0199, 207.2479
238.5020, 209.9274
238.9841, 212.5115
239.4662, 215.3079
239.9483, 218.5915
240.4305, 222.9348
240.9126, 226.2561
241.3947, 227.8885
241.8768, 228.7033
242.3589, 230.8975
242.8410, 235.0445
243.3232, 239.6683
243.8053, 244.1750
244.2874, 248.6188
244.7695, 252.8401
245.2516, 256.9080
245.7337, 260.7529
246.2159, 264.1410
246.6980, 266.6633
247.1801, 269.3806
247.6622, 272.6499
248.1443, 276.3618
248.6264, 281.0623
249.1086, 287.2661
249.5907, 294.2388
250.0728, 300.5120
250.5549, 306.0551
251.0370, 310.9504
251.5191, 315.1591
252.0013, 318.4396
252.4834, 321.7618
252.9655, 325.3860
253.4476, 328.8594
253.9297, 331.3999
254.4118, 333.1457
254.8940, 333.6598
255.3761, 332.8577
255.8582, 330.8377
256.3403, 326.9593
256.8224, 320.8489
257.3046, 313.1781
257.7867, 305.0273
258.2688, 295.9334
258.7509, 287.2160
259.2330, 279.5467
259.7151, 273.1507
260.1973, 266.1584
260.6794, 258.4682
261.1615, 250.4324
261.6436, 242.5811
262.1257, 234.4671
262.6078, 227.4840
263.0900, 222.3227
263.5721, 219.1252
264.0542, 215.8802
264.5363, 212.4119
265.0184, 209.0630
265.5005, 206.2120
265.9827, 204.0380
266.4648, 201.8909
266.9469, 199.5171
267.4290, 196.9077
267.9111, 194.8527
268.3932, 193.5388
268.8754, 192.5119
269.3575, 191.3055
269.8396, 189.9112
270.3217, 188.3051
270.8038, 186.3600
271.2859, 184.1004
271.7681, 182.3743
272.2502, 181.3265
272.7323, 180.5137
273.2144, 179.4801
273.6965, 178.1478
274.1786, 176.9799
274.6608, 176.0117
275.1429, 175.2749
275.6250, 175.0444
276.1071, 175.4428
276.5892, 175.9962
277.0714, 176.2539
277.5535, 176.1830
278.0356, 176.1485
278.5177, 176.2336
278.9998, 176.4038
279.4819, 176.5479
279.9641, 176.6922
280.4462, 176.7143
280.9283, 176.2166
281.4104, 175.1568
281.8925, 175.1765
282.3746, 176.8845
282.8568, 179.5595
283.3389, 181.0460
283.8210, 181.2132
284.3031, 181.1971
284.7852, 181.7888
285.2673, 182.9512
285.7495, 184.1462
286.2316, 185.2979
286.7137, 186.4576
287.1958, 187.7282
287.6779, 189.1081
288.1600, 190.5733
288.6422, 192.0972
289.1243, 193.6994
289.6064, 195.5320
290.0885, 197.7898
290.5706, 199.8903
291.0527, 200.5540
291.5349, 199.8909
292.0170, 199.4986
292.4991, 200.2834
292.9812, 202.0591
293.4633, 204.3752
293.9454, 207.4070
294.4276, 210.2134
294.9097, 211.2149
295.3918, 210.7165
295.8739, 210.2874
296.3560, 210.8869
296.8381, 212.0771
297.3203, 212.8832
297.8024, 213.2834
298.2845, 213.2927
298.7666, 212.9271
299.2487, 212.1812
299.7308, 211.0308
300.2130, 209.4579
300.6951, 207.4725
301.1772, 205.0359
301.6593, 202.1629
302.1414, 198.9935
302.6235, 195.3676
303.1057, 191.5634
303.5878, 188.2393
304.0699, 185.7680
304.5520, 183.7159
305.0341, 181.4531
305.5162, 179.0531
305.9984, 177.0585
306.4805, 176.3263
306.9626, 176.1368
307.4447, 175.4476
307.9268, 173.5797
308.4089, 171.6369
308.8911, 170.5876
309.3732, 170.2996
309.8553, 170.2332
310.3374, 170.1268
310.8195, 170.0573
311.3016, 170.1497
311.7838, 170.5675
312.2659, 170.8565
312.7480, 170.7096
313.2301, 170.2053
313.7122, 169.5372
314.1943, 168.4780
314.6765, 167.4876
315.1586, 166.9138
315.6407, 166.8775
316.1228, 167.0106
316.6049, 167.0377
317.0870, 167.1363
317.5692, 167.5942
318.0513, 168.9582
318.5334, 170.3430
319.0155, 171.3454
319.4976, 171.9249
319.9797, 172.2133
320.4619, 171.9596
320.9440, 171.5353
321.4261, 171.3590
321.9082, 171.7879
322.3903, 172.2252
322.8724, 172.4549
323.3546, 172.4658
323.8367, 172.5603
324.3188, 172.9805
324.8009, 173.4106
325.2830, 173.6068
325.7651, 172.9879
326.2473, 172.7553
326.7294, 173.4520
327.2115, 174.8980
327.6936, 175.6484
328.1757, 175.0471
328.6578, 174.1467
329.1400, 173.4628
329.6221, 173.1920
330.1042, 172.8895
330.5863, 172.7404
331.0684, 172.5579
331.5505, 171.7576
332.0327, 169.5869
332.5148, 167.6713
332.9969, 166.7144
333.4790, 167.1910
333.9611, 167.3494
334.4432, 167.0511
334.9254, 166.5111
335.4075, 166.1309
335.8896, 166.0784
336.3717, 165.8322
336.8538, 165.1334
337.3359, 163.8980
337.8180, 163.0900
338.3001, 162.8065
338.7823, 162.8047
339.2644, 162.8732
339.7465, 163.0623
340.2286, 163.0966
340.7107, 162.8577
341.1928, 162.3945
341.6750, 162.0275
342.1571, 161.7108
342.6392, 161.6293
343.1213, 162.1690
343.6034, 163.3415
344.0855, 163.8748
344.5677, 163.3626
345.0498, 162.2865
345.5319, 161.9319
346.0140, 162.3268
346.4961, 162.6528
346.9782, 162.1313
347.4604, 161.0067
347.9425, 160.5855
348.4246, 161.1239
348.9067, 161.9739
349.3888, 162.2793
349.8709, 162.0889
350.3531, 161.6639
350.8352, 160.7250
351.3173, 159.7342
351.7994, 159.7591
352.2815, 160.9048
352.7636, 162.2383
353.2458, 162.9375
353.7279, 163.1527
354.2100, 163.2017
354.6921, 162.9926
355.1742, 162.8174
355.6563, 163.1144
356.1385, 163.8295
356.6206, 164.4218
357.1027, 164.1738
357.5848, 163.7201
358.0669, 163.8772
358.5490, 165.3522
359.0312, 166.7471
359.5133, 167.0959
359.9954, 166.6273
360.4775, 166.0660
360.9596, 165.5266
361.4417, 165.1648
361.9239, 165.0634
362.4060, 165.2109
362.8881, 165.6901
363.3702, 166.8514
363.8523, 168.3035
364.3344, 169.4466
364.8166, 169.8670
365.2987, 170.1741
365.7808, 170.5887
366.2629, 171.1461
366.7450, 171.6630
367.2271, 171.8482
367.7093, 172.1122
368.1914, 172.8156
368.6735, 174.8107
369.1556, 176.3453
369.6377, 176.8442
370.1198, 176.4781
370.6020, 176.6992
371.0841, 177.8142
371.5662, 179.2359
372.0483, 180.6427
372.5304, 181.9787
373.0125, 183.4361
373.4947, 185.0852
373.9768, 186.8185
374.4589, 188.3836
374.9410, 189.6781
375.4231, 191.0157
375.9052, 192.4652
376.3874, 193.9954
376.8695, 195.9440
377.3516, 198.3534
377.8337, 201.1450
378.3158, 204.4974
378.7979, 208.5580
379.2801, 212.1063
379.7622, 214.5614
380.2443, 216.2811
380.7264, 219.0754
381.2085, 223.0248
381.6906, 227.3961
382.1728, 231.6462
382.6549, 235.8204
383.1370, 239.8911
383.6191, 243.7828
384.1012, 247.7673
384.5833, 252.4863
385.0655, 257.8730
385.5476, 263.3393
386.0297, 268.4616
386.5118, 273.5238
386.9939, 279.3029
387.4760, 285.9230
387.9582, 292.5917
388.4403, 298.5591
388.9224, 304.0956
389.4045, 309.7163
389.8866, 315.8900
390.3687, 322.1332
390.8509, 327.7848
391.3330, 332.8912
391.8151, 338.3136
392.2972, 344.7805
392.7793, 351.6477
393.2614, 358.3592
393.7436, 364.9090
394.2257, 370.9522
394.7078, 376.0522
395.1899, 380.4584
395.6720, 384.8245
396.1541, 389.1949
396.6363, 393.7080
397.1184, 398.6484
397.6005, 404.5327
398.0826, 409.3086
398.5647, 412.6312
399.0468, 414.7008
399.5290, 415.7594
400.0111, 415.1884
400.4932, 414.2946
400.9753, 413.6535
401.4574, 413.2470
401.9395, 411.0370
402.4217, 406.2475
402.9038, 400.4555
403.3859, 394.8423
403.8680, 390.2303
404.3501, 383.6546
404.8322, 374.2804
405.3144, 363.1402
405.7965, 353.3786
406.2786, 345.3917
406.7607, 337.2841
407.2428, 328.0040
407.7249, 317.4562
408.2071, 307.6559
408.6892, 298.6034
409.1713, 290.1229
409.6534, 281.8983
410.1355, 273.9860
410.6176, 266.8298
411.0998, 260.7119
411.5819, 255.2729
412.0640, 249.5394
412.5461, 243.5823
413.0282, 237.9382
413.5103, 233.1532
413.9925, 229.0379
414.4746, 225.1624
414.9567, 221.4587
415.4388, 217.9555
415.9209, 214.5560
416.4030, 211.3482
416.8852, 208.4530
417.3673, 206.0987
417.8494, 204.0186
418.3315, 202.0076
418.8136, 200.0722
419.2957, 198.1341
419.7779, 195.8953
420.2600, 193.7548
420.7421, 192.1500
421.2242, 191.7190
421.7063, 191.2865
422.1884, 190.5455
422.6706, 189.5131
423.1527, 188.2225
423.6348, 186.3004
424.1169, 184.4457
424.5990, 182.9163
425.0811, 181.6478
425.5633, 180.9503
426.0454, 181.4056
426.5275, 182.1905
427.0096, 182.2433
427.4917, 181.0790
427.9738, 179.9136
428.4560, 179.0077
428.9381, 178.3393
429.4202, 177.5207
429.9023, 176.3420
430.3844, 175.4119
430.8665, 175.3989
431.3487, 176.5624
431.8308, 176.9494
432.3129, 176.1534
432.7950, 174.8109
433.2771, 174.3438
433.7592, 174.7920
434.2414, 175.1620
434.7235, 174.9621
435.2056, 174.3041
435.6877, 173.6042
436.1698, 172.8607
436.6519, 172.1216
437.1341, 171.2191
437.6162, 170.3600
438.0983, 170.1400
438.5804, 171.0580
439.0625, 172.1992
439.5446, 172.5567
440.0268, 172.2476
440.5089, 171.6949
440.9910, 170.8913
441.4731, 170.1063
441.9552, 169.6214
442.4373, 169.5330
442.9195, 169.4165
443.4016, 168.7423
443.8837, 168.0217
444.3658, 167.8761
444.8479, 169.5743
445.3300, 170.7828
445.8122, 170.4341
446.2943, 168.7204
446.7764, 167.4351
447.2585, 166.9909
447.7406, 166.9191
448.2227, 167.0207
448.7049, 167.4538
449.1870, 167.7311
449.6691, 167.7165
450.1512, 167.6125
450.6333, 167.8299
451.1154, 168.7943
451.5976, 169.1207
452.0797, 168.1050
452.5618, 165.9053
453.0439, 165.1300
453.5260, 166.1773
454.0081, 167.4476
454.4903, 167.5541
454.9724, 166.5166
455.4545, 165.7848
455.9366, 165.5923
456.4187, 165.6628
456.9008, 165.3849
457.3830, 164.8470
457.8651, 164.7488
458.3472, 166.1003
458.8293, 167.8967
459.3114, 168.0123
459.7935, 166.4511
460.2757, 164.9414
460.7578, 165.2848
461.2399, 166.4251
461.7220, 166.8306
462.2041, 165.6957
462.6862, 164.4387
463.1684, 164.0105
463.6505, 164.1579
464.1326, 164.3068
464.6147, 164.3392
465.0968, 164.2206
465.5789, 163.7241
466.0611, 162.7024
466.5432, 162.3795
467.0253, 163.9092
467.5074, 165.7531
467.9895, 166.6158
468.4716, 165.4604
468.9538, 164.5599
469.4359, 164.0950
469.9180, 163.9849
470.4001, 164.0047
470.8822, 164.2493
471.3643, 164.4585
471.8465, 164.4888
472.3286, 164.3075
472.8107, 164.3696
473.2928, 164.7749
473.7749, 165.1864
474.2570, 165.1725
474.7392, 164.7379
475.2213, 164.3202
475.7034, 163.9651
476.1855, 163.7403
476.6676, 163.9121
477.1497, 164.4311
477.6319, 164.8289
478.1140, 164.7266
478.5961, 164.3525
479.0782, 164.0354
479.5603, 163.7878
480.0424, 163.7077
480.5246, 164.1607
481.0067, 164.7527
481.4888, 164.9050
481.9709, 163.8897
482.4530, 163.0166
482.9352, 163.0651
483.4173, 163.8197
483.8994, 164.5999
484.3815, 165.5454
484.8636, 166.1625
485.3457, 166.0877
485.8279, 165.0374
486.3100, 164.2992
486.7921, 164.0016
487.2742, 164.0549
487.7563, 164.4494
488.2384, 165.7596
488.7206, 166.3879
489.2027, 165.8904
489.6848, 164.6290
490.1669, 163.8831
490.6490, 163.7378
491.1311, 163.8728
491.6133, 164.2131
492.0954, 164.7563
492.5775, 165.2242
493.0596, 165.6216
493.5417, 165.9154
494.0238, 165.9788
494.5060, 165.8784
494.9881, 165.9505
495.4702, 166.3704
495.9523, 166.8539
496.4344, 166.9458
496.9165, 166.7308
497.3987, 166.5280
497.8808, 166.6401
498.3629, 166.7711
498.8450, 166.4220
499.3271, 165.5116
499.8092, 165.1414
500.2914, 166.6352
500.7735, 168.5860
501.2556, 169.6875
501.7377, 168.7985
502.2198, 167.9969
502.7019, 167.5281
503.1841, 167.4578
503.6662, 167.9580
504.1483, 169.7979
504.6304, 171.4253
505.1125, 172.4508
505.5946, 172.8758
506.0768, 172.7038
506.5589, 171.5631
507.0410, 170.3834
507.5231, 169.9459
508.0052, 170.3413
508.4873, 170.9287
508.9695, 171.7138
509.4516, 172.5314
509.9337, 172.9487
510.4158, 172.9966
510.8979, 173.2652
511.3800, 174.2334
511.8622, 175.5314
512.3443, 176.1489
512.8264, 176.1284
513.3085, 176.3757
513.7906, 178.2152
514.2728, 180.4930
514.7549, 181.5012
515.2370, 180.4582
515.7191, 179.5298
516.2012, 180.4799
516.6833, 182.3354
517.1655, 183.6152
517.6476, 183.0550
518.1297, 182.6248
518.6118, 182.9850
519.0939, 184.1132
519.5760, 185.5350
520.0582, 187.5932
520.5403, 189.5866
521.0224, 191.1399
521.5045, 191.9808
521.9866, 193.2245
522.4688, 195.0482
522.9509, 197.0771
523.4330, 198.8812
523.9151, 200.4284
524.3972, 201.9211
524.8793, 203.3760
525.3615, 204.8039
525.8436, 206.4182
526.3257, 208.2140
526.8078, 209.5495
527.2899, 210.0376
527.7720, 209.8135
528.2542, 208.9892
528.7363, 207.5552
529.2184, 206.1722
529.7005, 205.7307
530.1826, 205.5938
530.6647, 204.8589
531.1469, 203.0008
531.6290, 200.9673
532.1111, 199.2953
532.5932, 197.8347
533.0753, 196.2865
533.5574, 194.5822
534.0396, 192.7414
534.5217, 190.4850
535.0038, 187.7691
535.4859, 185.9853
535.9680, 185.6189
536.4501, 185.7472
536.9323, 185.9429
537.4144, 186.4484
537.8965, 186.2402
538.3786, 184.9712
538.8607, 183.4315
539.3428, 182.9983
539.8250, 183.7728
540.3071, 184.1895
540.7892, 183.5806
541.2713, 182.5064
541.7534, 182.5227
542.2355, 183.5290
542.7177, 184.4507
543.1998, 184.4468
543.6819, 183.9898
544.1640, 183.7622
544.6461, 183.8146
545.1282, 184.0773
545.6104, 184.7726
546.0925, 185.5395
546.5746, 185.9404
547.0567, 185.3502
547.5388, 185.0813
548.0209, 185.6529
548.5031, 186.8521
548.9852, 188.2193
549.4673, 190.2531
549.9494, 191.8399
550.4315, 192.5178
550.9136, 192.2924
551.3958, 192.5395
551.8779, 193.5267
552.3600, 194.5379
552.8421, 195.0566
553.3242, 195.0053
553.8063, 195.1701
554.2885, 195.5571
554.7706, 196.2358
555.2527, 197.4819
555.7348, 199.1880
556.2169, 200.6780
556.6990, 201.6765
557.1812, 202.4313
557.6633, 203.2143
558.1454, 204.0329
558.6275, 204.9187
559.1096, 205.7745
559.5917, 206.7788
560.0739, 208.1128
560.5560, 209.7977
561.0381, 211.5403
561.5202, 213.1662
562.0023, 214.8200
562.4844, 216.6150
562.9666, 218.8137
563.4487, 220.7809
563.9308, 222.2846
564.4129, 223.6243
564.8950, 225.2681
565.3771, 227.3310
565.8593, 229.3762
566.3414, 231.2147
566.8235, 232.9605
567.3056, 235.4446
567.7877, 238.8064
568.2698, 241.7762
568.7520, 243.2615
569.2341, 243.6983
569.7162, 244.8598
570.1983, 246.8163
570.6804, 249.0533
571.1625, 251.3082
571.6447, 253.4492
572.1268, 255.2471
572.6089, 256.6228
573.0910, 257.7431
573.5731, 258.6872
574.0552, 259.4668
574.5374, 260.1220
575.0195, 260.4513
575.5016, 260.8711
575.9837, 261.5359
576.4658, 262.4345
576.9479, 263.4250
577.4301, 264.9889
577.9122, 266.0602
578.3943, 266.0591
578.8764, 264.7374
579.3585, 263.8367
579.8406, 263.6266
580.3228, 263.2354
580.8049, 261.4119
581.2870, 258.2754
581.7691, 256.0050
582.2512, 255.2555
582.7333, 254.8690
583.2155, 253.0245
583.6975, 250.0880
584.1796, 247.1164
584.6617, 244.7811
585.1439, 242.5206
585.6260, 239.7267
586.1081, 236.5087
586.5902, 233.4296
587.0723, 230.8839
587.5544, 228.4641
588.0366, 225.8003
588.5187, 222.7155
589.0008, 220.0940
589.4829, 218.6039
589.9650, 217.2383
590.4471, 215.1905
590.9293, 211.9537
591.4114, 209.2590
591.8935, 207.4401
592.3756, 205.9498
592.8577, 203.6104
593.3398, 200.3659
593.8220, 197.5750
594.3041, 195.7363
594.7862, 194.5899
595.2683, 193.7395
595.7504, 193.1331
596.2325, 192.3357
596.7147, 190.9380
597.1968, 189.2787
597.6789, 187.6017
598.1610, 185.9212
598.6431, 184.6098
599.1252, 184.3311
599.6074, 184.2618
600.0895, 183.6921
600.5716, 182.0957
601.0537, 180.6928
601.5358, 179.6342
602.0179, 178.8879
602.5001, 178.4881
602.9822, 178.7937
603.4643, 178.7021
603.9464, 177.8701
604.4285, 176.5750
604.9106, 175.7287
605.3928, 175.3777
605.8749, 175.0954
606.3570, 174.6056
606.8391, 174.0265
607.3212, 173.8226
607.8033, 173.9772
608.2855, 174.0950
608.7676, 173.9267
609.2497, 173.5175
609.7318, 172.8238
610.2139, 171.7297
610.6960, 170.8818
611.1782, 170.6327
611.6603, 170.8128
612.1424, 171.2424
612.6245, 172.5042
613.1066, 173.2566
613.5887, 173.0409
614.0709, 172.2675
614.5530, 171.7357
615.0351, 171.5649
615.5172, 171.4181
615.9993, 171.2847
616.4814, 171.1024
616.9636, 170.2773
617.4457, 168.7096
617.9278, 167.6548
618.4099, 168.3328
618.8920, 170.1062
619.3741, 171.3489
619.8563, 172.0139
620.3384, 172.1299
620.8205, 171.1045
621.3026, 169.8112
621.7847, 169.4555
622.2668, 170.7385
622.7490, 171.7186
