##NAMES=Montroydite
##RRUFFID=R070235
##IDEAL CHEMISTRY=Hg^2+^O
##LOCALITY=Clear Creek claim, southern San Benito County, California, USA
##OWNER=RRUFF
##SOURCE=Michael Scott
##DESCRIPTION=Red prismatic crystal with quartz, cinnabar and greenish yellow edgarbaileyite, R060500
##STATUS=The identification of this mineral is confirmed by single-crystal X-ray diffraction and chemical analysis.
##URL=rruff.info/R070235
##MEASURED CHEMISTRY=Hg_1.00_O
143.3943, 3806.104
143.8764, 3847.538
144.3585, 3886.356
144.8407, 3919.258
145.3228, 3941.405
145.8049, 3961.093
146.2870, 3985.517
146.7691, 4012.750
147.2512, 4046.818
147.7334, 4089.746
148.2155, 4144.417
148.6976, 4196.848
149.1797, 4244.577
149.6618, 4290.905
150.1439, 4339.728
150.6261, 4393.370
151.1082, 4446.861
151.5903, 4498.644
152.0724, 4548.321
152.5545, 4596.822
153.0366, 4642.286
153.5188, 4686.439
154.0009, 4732.480
154.4830, 4785.415
154.9651, 4837.417
155.4472, 4886.007
155.9293, 4934.040
156.4115, 4973.702
156.8936, 4999.708
157.3757, 5015.262
157.8578, 5031.961
158.3399, 5055.446
158.8221, 5079.781
159.3042, 5101.329
159.7863, 5118.316
160.2684, 5133.252
160.7505, 5145.833
161.2326, 5156.518
161.7148, 5167.971
162.1969, 5180.490
162.6790, 5194.714
163.1611, 5211.084
163.6432, 5230.589
164.1253, 5251.746
164.6075, 5273.749
165.0896, 5296.566
165.5717, 5320.777
166.0538, 5349.254
166.5359, 5378.900
167.0180, 5405.372
167.5002, 5425.813
167.9823, 5443.313
168.4644, 5458.981
168.9465, 5472.330
169.4286, 5487.800
169.9107, 5508.362
170.3929, 5533.344
170.8750, 5561.890
171.3571, 5605.301
171.8392, 5646.669
172.3213, 5662.533
172.8034, 5642.586
173.2856, 5620.937
173.7677, 5632.357
174.2498, 5669.791
174.7319, 5708.686
175.2140, 5735.365
175.6961, 5753.909
176.1783, 5771.516
176.6604, 5792.143
177.1425, 5807.045
177.6246, 5796.386
178.1067, 5764.787
178.5888, 5741.608
179.0710, 5755.965
179.5531, 5794.577
180.0352, 5828.110
180.5173, 5847.668
180.9994, 5860.521
181.4815, 5879.061
181.9637, 5903.199
182.4458, 5925.052
182.9279, 5934.195
183.4100, 5934.525
183.8921, 5941.163
184.3742, 5960.976
184.8564, 5988.767
185.3385, 6013.108
185.8206, 6034.252
186.3027, 6051.409
186.7848, 6060.520
187.2669, 6063.086
187.7491, 6071.048
188.2312, 6093.008
188.7133, 6123.706
189.1954, 6141.907
189.6775, 6145.319
190.1596, 6145.958
190.6418, 6160.125
191.1239, 6187.429
191.6060, 6213.781
192.0881, 6233.119
192.5702, 6246.162
193.0524, 6258.591
193.5345, 6269.807
194.0166, 6281.865
194.4987, 6299.502
194.9808, 6323.281
195.4629, 6344.229
195.9451, 6354.645
196.4272, 6355.007
196.9093, 6366.353
197.3914, 6393.581
197.8735, 6425.131
198.3556, 6435.675
198.8378, 6421.623
199.3199, 6409.229
199.8020, 6415.032
200.2841, 6440.513
200.7662, 6461.004
201.2483, 6474.068
201.7305, 6482.320
202.2126, 6492.239
202.6947, 6504.369
203.1768, 6516.140
203.6589, 6524.259
204.1410, 6527.143
204.6232, 6537.976
205.1053, 6560.776
205.5874, 6591.023
206.0695, 6612.813
206.5516, 6623.519
207.0337, 6632.657
207.5159, 6647.422
207.9980, 6669.122
208.4801, 6688.686
208.9622, 6704.037
209.4443, 6716.412
209.9264, 6733.698
210.4086, 6760.356
210.8907, 6783.013
211.3728, 6787.727
211.8549, 6766.343
212.3370, 6755.387
212.8191, 6762.270
213.3013, 6784.868
213.7834, 6806.131
214.2655, 6825.657
214.7476, 6844.574
215.2297, 6863.455
215.7118, 6882.211
216.1940, 6902.231
216.6761, 6926.536
217.1582, 6954.504
217.6403, 6967.007
218.1224, 6955.379
218.6045, 6939.683
219.0867, 6939.979
219.5688, 6962.439
220.0509, 6986.658
220.5330, 7009.503
221.0151, 7031.374
221.4972, 7046.680
221.9794, 7052.523
222.4615, 7055.198
222.9436, 7061.097
223.4257, 7070.023
223.9078, 7082.967
224.3899, 7101.275
224.8721, 7125.861
225.3542, 7147.207
225.8363, 7166.207
226.3184, 7181.311
226.8005, 7189.993
227.2827, 7187.777
227.7648, 7187.240
228.2469, 7188.796
228.7290, 7190.387
229.2111, 7211.788
229.6932, 7266.520
230.1754, 7329.845
230.6575, 7369.444
231.1396, 7375.823
231.6217, 7374.373
232.1038, 7369.675
232.5859, 7359.834
233.0681, 7356.350
233.5502, 7356.554
234.0323, 7364.938
234.5144, 7391.541
234.9965, 7453.897
235.4786, 7504.197
235.9608, 7523.604
236.4429, 7501.792
236.9250, 7496.454
237.4071, 7512.815
237.8892, 7542.518
238.3713, 7574.091
238.8535, 7613.777
239.3356, 7644.720
239.8177, 7659.066
240.2998, 7650.446
240.7819, 7650.433
241.2640, 7664.400
241.7462, 7683.844
242.2283, 7692.149
242.7104, 7676.233
243.1925, 7670.967
243.6746, 7692.533
244.1567, 7755.360
244.6389, 7793.793
245.1210, 7792.673
245.6031, 7776.151
246.0852, 7789.980
246.5673, 7855.990
247.0494, 7914.986
247.5316, 7942.062
248.0137, 7921.925
248.4958, 7923.125
248.9779, 7956.436
249.4600, 8005.060
249.9421, 8036.819
250.4243, 8045.627
250.9064, 8048.806
251.3885, 8050.180
251.8706, 8045.112
252.3527, 8055.038
252.8348, 8085.626
253.3170, 8127.580
253.7991, 8163.652
254.2812, 8192.340
254.7633, 8217.305
255.2454, 8239.617
255.7275, 8258.692
256.2097, 8276.843
256.6918, 8295.137
257.1739, 8311.579
257.6560, 8321.438
258.1381, 8320.473
258.6202, 8321.649
259.1024, 8328.729
259.5845, 8340.423
260.0666, 8364.815
260.5487, 8409.615
261.0308, 8461.202
261.5129, 8494.388
261.9951, 8501.107
262.4772, 8508.023
262.9593, 8526.347
263.4414, 8559.521
263.9235, 8587.880
264.4056, 8609.279
264.8878, 8628.198
265.3699, 8655.824
265.8520, 8698.836
266.3341, 8732.061
266.8162, 8742.188
267.2983, 8723.957
267.7805, 8716.118
268.2626, 8720.889
268.7447, 8733.721
269.2268, 8749.409
269.7089, 8770.851
270.1910, 8784.495
270.6732, 8778.516
271.1553, 8748.398
271.6374, 8746.472
272.1195, 8779.977
272.6016, 8831.107
273.0837, 8872.447
273.5659, 8904.166
274.0480, 8926.522
274.5301, 8940.036
275.0122, 8944.643
275.4943, 8933.480
275.9764, 8897.423
276.4586, 8862.771
276.9407, 8874.230
277.4228, 8936.338
277.9049, 9003.200
278.3870, 9058.777
278.8691, 9103.325
279.3513, 9142.557
279.8334, 9176.364
280.3155, 9205.133
280.7976, 9228.381
281.2798, 9245.739
281.7619, 9261.598
282.2440, 9276.183
282.7261, 9290.101
283.2082, 9307.603
283.6903, 9328.499
284.1725, 9353.686
284.6546, 9382.841
285.1367, 9415.918
285.6188, 9458.646
286.1009, 9518.153
286.5830, 9589.421
287.0652, 9650.590
287.5473, 9700.269
288.0294, 9744.856
288.5115, 9787.850
288.9936, 9830.289
289.4757, 9878.980
289.9579, 9940.543
290.4400, 10009.13
290.9221, 10067.96
291.4042, 10116.14
291.8863, 10165.74
292.3684, 10225.42
292.8506, 10295.81
293.3327, 10381.51
293.8148, 10497.43
294.2969, 10622.37
294.7790, 10706.46
295.2611, 10749.96
295.7433, 10801.35
296.2254, 10908.95
296.7075, 11060.29
297.1896, 11216.02
297.6717, 11370.59
298.1538, 11522.58
298.6360, 11662.99
299.1181, 11794.33
299.6002, 11930.79
300.0823, 12086.61
300.5644, 12256.40
301.0465, 12429.49
301.5287, 12594.21
302.0108, 12771.99
302.4929, 12984.22
302.9750, 13230.52
303.4571, 13496.50
303.9392, 13785.10
304.4214, 14085.54
304.9035, 14388.06
305.3856, 14675.31
305.8677, 14977.40
306.3498, 15323.40
306.8319, 15703.23
307.3141, 16089.57
307.7962, 16439.19
308.2783, 16794.49
308.7604, 17211.09
309.2425, 17717.12
309.7246, 18229.39
310.2068, 18681.40
310.6889, 19098.01
311.1710, 19548.58
311.6531, 20090.25
312.1352, 20665.00
312.6173, 21227.62
313.0995, 21762.46
313.5816, 22291.09
314.0637, 22829.80
314.5458, 23371.46
315.0279, 23906.93
315.5100, 24407.20
315.9922, 24919.60
316.4743, 25484.01
316.9564, 26126.97
317.4385, 26730.56
317.9206, 27259.54
318.4027, 27725.04
318.8849, 28142.66
319.3670, 28520.17
319.8491, 28847.30
320.3312, 29117.38
320.8133, 29328.00
321.2954, 29497.93
321.7776, 29656.35
322.2597, 29767.98
322.7418, 29795.19
323.2239, 29692.51
323.7060, 29544.92
324.1881, 29385.33
324.6703, 29220.84
325.1524, 28962.24
325.6345, 28566.95
326.1166, 28097.10
326.5987, 27598.67
327.0808, 27048.51
327.5630, 26498.03
328.0451, 25950.90
328.5272, 25407.27
329.0093, 24866.00
329.4914, 24339.66
329.9735, 23817.00
330.4557, 23293.28
330.9378, 22761.52
331.4199, 22238.42
331.9020, 21716.94
332.3841, 21201.63
332.8662, 20713.10
333.3484, 20257.40
333.8305, 19826.54
334.3126, 19409.91
334.7947, 19005.56
335.2768, 18635.44
335.7589, 18306.18
336.2411, 18009.51
336.7232, 17713.71
337.2053, 17415.22
337.6874, 17134.26
338.1695, 16877.82
338.6516, 16648.97
339.1338, 16441.01
339.6159, 16263.96
340.0980, 16094.56
340.5801, 15887.52
341.0622, 15633.70
341.5443, 15403.99
342.0265, 15225.81
342.5086, 15096.94
342.9907, 14991.19
343.4728, 14916.82
343.9549, 14836.73
344.4370, 14687.54
344.9192, 14479.26
345.4013, 14301.62
345.8834, 14203.85
346.3655, 14156.58
346.8476, 14086.17
347.3297, 13992.25
347.8119, 13895.57
348.2940, 13821.96
348.7761, 13762.51
349.2582, 13689.78
349.7403, 13579.11
350.2225, 13466.94
350.7046, 13416.79
351.1867, 13420.78
351.6688, 13421.44
352.1509, 13368.29
352.6331, 13287.65
353.1152, 13218.04
353.5973, 13167.37
354.0794, 13131.00
354.5615, 13112.87
355.0436, 13107.37
355.5258, 13097.38
356.0079, 13081.00
356.4900, 13051.84
356.9721, 12998.31
357.4542, 12908.93
357.9363, 12828.16
358.4185, 12779.86
358.9006, 12757.15
359.3827, 12748.16
359.8648, 12773.05
360.3469, 12790.83
360.8290, 12773.62
361.3112, 12713.19
361.7933, 12661.05
362.2754, 12632.37
362.7575, 12620.45
363.2396, 12617.98
363.7217, 12649.76
364.2039, 12664.49
364.6860, 12637.96
365.1681, 12569.34
365.6502, 12518.68
366.1323, 12501.01
366.6144, 12498.00
367.0966, 12497.23
367.5787, 12508.62
368.0608, 12509.29
368.5429, 12489.81
369.0250, 12455.87
369.5071, 12438.02
369.9893, 12451.70
370.4714, 12463.58
370.9535, 12454.85
371.4356, 12407.15
371.9177, 12382.75
372.3998, 12394.81
372.8820, 12424.28
373.3641, 12425.58
373.8462, 12386.39
374.3283, 12351.01
374.8104, 12337.35
375.2925, 12346.69
375.7747, 12365.52
376.2568, 12400.36
376.7389, 12432.14
377.2210, 12428.44
377.7031, 12386.29
378.1852, 12351.80
378.6674, 12341.50
379.1495, 12349.94
379.6316, 12354.59
380.1137, 12355.37
380.5958, 12352.79
381.0779, 12344.90
381.5601, 12333.12
382.0422, 12325.01
382.5243, 12322.27
383.0064, 12323.74
383.4885, 12329.33
383.9706, 12338.43
384.4528, 12346.07
384.9349, 12343.98
385.4170, 12339.52
385.8991, 12347.61
386.3812, 12374.81
386.8633, 12400.72
387.3455, 12397.18
387.8276, 12377.32
388.3097, 12371.17
388.7918, 12410.32
389.2739, 12458.86
389.7560, 12487.46
390.2382, 12492.73
390.7203, 12492.15
391.2024, 12489.97
391.6845, 12488.90
392.1666, 12492.06
392.6487, 12509.63
393.1309, 12523.07
393.6130, 12524.93
394.0951, 12515.61
394.5772, 12500.95
395.0593, 12463.68
395.5414, 12433.37
396.0236, 12428.98
396.5057, 12484.26
396.9878, 12528.67
397.4699, 12550.91
397.9520, 12556.84
398.4341, 12564.58
398.9163, 12570.99
399.3984, 12582.54
399.8805, 12603.27
400.3626, 12639.21
400.8447, 12665.94
401.3268, 12679.24
401.8090, 12686.40
402.2911, 12697.83
402.7732, 12714.62
403.2553, 12732.94
403.7374, 12754.05
404.2195, 12777.27
404.7017, 12787.85
405.1838, 12781.84
405.6659, 12773.87
406.1480, 12778.63
406.6301, 12796.37
407.1122, 12811.08
407.5944, 12817.73
408.0765, 12822.03
408.5586, 12838.01
409.0407, 12865.59
409.5228, 12897.04
410.0049, 12936.61
410.4871, 12976.07
410.9692, 12985.48
411.4513, 12954.63
411.9334, 12922.88
412.4155, 12940.48
412.8976, 12994.74
413.3798, 13047.73
413.8619, 13088.83
414.3440, 13116.97
414.8261, 13128.15
415.3082, 13122.48
415.7903, 13112.84
416.2725, 13101.96
416.7546, 13093.94
417.2367, 13093.43
417.7188, 13108.17
418.2009, 13123.89
418.6830, 13126.40
419.1652, 13122.42
419.6473, 13136.48
420.1294, 13213.38
420.6115, 13283.65
421.0937, 13302.57
421.5758, 13221.54
422.0579, 13180.88
422.5400, 13232.02
423.0221, 13327.30
423.5042, 13389.49
423.9864, 13385.22
424.4685, 13381.81
424.9506, 13397.09
425.4327, 13433.32
425.9148, 13455.53
426.3969, 13455.29
426.8791, 13450.62
427.3612, 13457.97
427.8433, 13482.07
428.3254, 13503.44
428.8075, 13520.03
429.2896, 13531.71
429.7718, 13534.70
430.2539, 13526.29
430.7360, 13523.33
431.2181, 13540.86
431.7002, 13576.82
432.1823, 13598.02
432.6645, 13598.76
433.1466, 13598.29
433.6287, 13624.53
434.1108, 13673.55
434.5929, 13727.19
435.0750, 13790.65
435.5572, 13848.08
436.0393, 13860.86
436.5214, 13831.15
437.0035, 13804.96
437.4856, 13825.40
437.9677, 13869.76
438.4499, 13906.76
438.9320, 13927.15
439.4141, 13940.51
439.8962, 13946.79
440.3783, 13950.63
440.8604, 13964.21
441.3426, 14012.37
441.8247, 14056.89
442.3068, 14069.49
442.7889, 14037.37
443.2710, 14020.59
443.7531, 14056.50
444.2353, 14107.57
444.7174, 14132.88
445.1995, 14083.95
445.6816, 14055.37
446.1637, 14072.06
446.6458, 14128.99
447.1280, 14175.26
447.6101, 14208.18
448.0922, 14233.47
448.5743, 14252.81
449.0564, 14262.67
449.5385, 14276.11
450.0207, 14292.59
450.5028, 14313.48
450.9849, 14347.18
451.4670, 14399.38
451.9491, 14433.39
452.4312, 14426.18
452.9134, 14384.94
453.3955, 14363.54
453.8776, 14361.96
454.3597, 14379.90
454.8418, 14434.29
455.3239, 14512.90
455.8061, 14559.64
456.2882, 14551.57
456.7703, 14523.08
457.2524, 14515.84
457.7345, 14528.87
458.2166, 14558.45
458.6988, 14618.83
459.1809, 14686.26
459.6630, 14732.51
460.1451, 14753.07
460.6272, 14768.12
461.1093, 14785.50
461.5915, 14806.23
462.0736, 14831.25
462.5557, 14876.01
463.0378, 14910.33
463.5199, 14913.33
464.0020, 14890.34
464.4842, 14881.77
464.9663, 14917.80
465.4484, 14954.30
465.9305, 14965.31
466.4126, 14912.44
466.8947, 14901.59
467.3769, 14960.00
467.8590, 15048.36
468.3411, 15101.64
468.8232, 15101.70
469.3053, 15101.92
469.7874, 15116.55
470.2696, 15144.78
470.7517, 15175.31
471.2338, 15212.39
471.7159, 15238.63
472.1980, 15224.68
472.6801, 15172.26
473.1623, 15160.04
473.6444, 15207.12
474.1265, 15282.92
474.6086, 15343.68
475.0907, 15389.19
475.5728, 15417.93
476.0550, 15417.82
476.5371, 15404.37
477.0192, 15400.16
477.5013, 15405.88
477.9834, 15422.43
478.4655, 15460.66
478.9477, 15507.16
479.4298, 15543.51
479.9119, 15557.04
480.3940, 15568.88
480.8761, 15590.64
481.3582, 15619.40
481.8404, 15646.58
482.3225, 15675.54
482.8046, 15697.18
483.2867, 15702.44
483.7688, 15679.57
484.2509, 15678.57
484.7331, 15728.01
485.2152, 15788.59
485.6973, 15822.89
486.1794, 15806.16
486.6615, 15806.40
487.1436, 15840.12
487.6258, 15898.41
488.1079, 15938.57
488.5900, 15956.23
489.0721, 15967.03
489.5542, 15975.80
490.0363, 15982.47
490.5185, 16001.98
491.0006, 16036.85
491.4827, 16076.89
491.9648, 16112.50
492.4470, 16142.78
492.9291, 16161.20
493.4112, 16160.47
493.8933, 16150.62
494.3754, 16137.58
494.8575, 16124.64
495.3397, 16133.02
495.8218, 16197.19
496.3039, 16280.40
496.7860, 16342.25
497.2681, 16375.32
497.7502, 16396.50
498.2324, 16411.62
498.7145, 16421.43
499.1966, 16427.21
499.6787, 16421.70
500.1608, 16419.80
500.6429, 16425.32
501.1251, 16438.32
501.6072, 16457.71
502.0893, 16491.20
502.5714, 16524.40
503.0535, 16550.79
503.5356, 16568.65
504.0178, 16582.49
504.4999, 16587.10
504.9820, 16592.36
505.4641, 16616.96
505.9462, 16665.80
506.4283, 16706.78
506.9105, 16724.43
507.3926, 16728.34
507.8747, 16761.49
508.3568, 16825.58
508.8389, 16889.97
509.3210, 16933.88
509.8032, 16961.31
510.2853, 16980.96
510.7674, 16991.38
511.2495, 17004.95
511.7316, 17042.87
512.2137, 17093.03
512.6959, 17130.24
513.1780, 17135.20
513.6601, 17131.51
514.1422, 17132.90
514.6243, 17138.96
515.1064, 17145.41
515.5886, 17140.50
516.0707, 17142.58
516.5528, 17165.14
517.0349, 17225.01
517.5170, 17273.99
517.9991, 17300.47
518.4813, 17316.06
518.9634, 17334.56
519.4455, 17355.77
519.9276, 17379.69
520.4097, 17403.10
520.8918, 17428.17
521.3740, 17480.63
521.8561, 17573.42
522.3382, 17650.72
522.8203, 17660.00
523.3024, 17607.08
523.7845, 17600.98
524.2667, 17656.42
524.7488, 17725.52
525.2309, 17743.25
525.7130, 17724.58
526.1951, 17722.22
526.6772, 17768.47
527.1594, 17826.65
527.6415, 17851.24
528.1236, 17848.48
528.6057, 17846.28
529.0878, 17858.71
529.5699, 17878.96
530.0521, 17903.44
530.5342, 17933.47
531.0163, 17960.32
531.4984, 17978.09
531.9805, 17992.84
532.4626, 18011.09
532.9448, 18035.89
533.4269, 18061.24
533.9090, 18079.01
534.3911, 18096.01
534.8732, 18141.47
535.3553, 18234.59
535.8375, 18321.35
536.3196, 18374.64
536.8017, 18393.32
537.2838, 18417.56
537.7659, 18448.06
538.2480, 18482.60
538.7302, 18524.50
539.2123, 18571.31
539.6944, 18600.02
540.1765, 18597.00
540.6586, 18589.74
541.1407, 18627.60
541.6229, 18697.40
542.1050, 18752.37
542.5871, 18732.60
543.0692, 18709.55
543.5513, 18761.87
544.0334, 18892.37
544.5156, 19008.49
544.9977, 19052.39
545.4798, 19072.42
545.9619, 19106.24
546.4440, 19172.83
546.9261, 19235.74
547.4083, 19287.53
547.8904, 19333.28
548.3725, 19381.39
548.8546, 19434.92
549.3367, 19485.70
549.8188, 19527.00
550.3010, 19561.28
550.7831, 19621.35
551.2652, 19714.04
551.7473, 19810.09
552.2294, 19880.66
552.7115, 19930.43
553.1937, 20009.21
553.6758, 20126.49
554.1579, 20249.69
554.6400, 20340.19
555.1221, 20404.33
555.6042, 20457.21
556.0864, 20486.97
556.5685, 20526.34
557.0506, 20623.24
557.5327, 20760.99
558.0148, 20875.99
558.4969, 20918.57
558.9791, 20943.17
559.4612, 20983.72
559.9433, 21048.30
560.4254, 21104.52
560.9075, 21148.58
561.3896, 21180.15
561.8718, 21200.21
562.3539, 21207.93
562.8360, 21206.26
563.3181, 21200.37
563.8002, 21182.95
564.2823, 21128.54
564.7645, 21027.77
565.2466, 20934.82
565.7287, 20879.80
566.2108, 20851.24
566.6929, 20785.54
567.1750, 20681.41
567.6572, 20581.64
568.1393, 20519.60
568.6214, 20489.50
569.1035, 20490.24
569.5856, 20530.61
570.0677, 20564.35
570.5499, 20543.57
571.0320, 20492.99
571.5141, 20451.69
571.9962, 20432.19
572.4783, 20426.43
572.9604, 20435.24
573.4426, 20456.58
573.9247, 20480.79
574.4068, 20526.03
574.8889, 20555.12
575.3710, 20549.14
575.8531, 20499.07
576.3353, 20459.74
576.8174, 20425.83
577.2995, 20411.10
577.7816, 20440.20
578.2637, 20519.67
578.7458, 20566.21
579.2280, 20556.79
579.7101, 20529.50
580.1922, 20559.16
580.6743, 20636.12
581.1564, 20705.97
581.6385, 20746.35
582.1207, 20763.97
582.6028, 20754.65
583.0849, 20723.07
583.5670, 20704.87
584.0491, 20728.47
584.5313, 20769.21
585.0134, 20810.40
585.4955, 20852.15
585.9776, 20885.26
586.4597, 20896.53
586.9418, 20902.33
587.4240, 20921.45
587.9061, 20964.76
588.3882, 21005.41
588.8703, 21041.09
589.3524, 21072.13
589.8345, 21095.80
590.3167, 21106.76
590.7988, 21132.04
591.2809, 21193.56
591.7630, 21280.32
592.2451, 21332.22
592.7272, 21348.63
593.2094, 21345.31
593.6915, 21321.58
594.1736, 21290.21
594.6557, 21272.62
595.1378, 21270.29
595.6199, 21291.97
596.1021, 21368.12
596.5842, 21466.28
597.0663, 21540.50
597.5485, 21563.39
598.0306, 21571.56
598.5127, 21563.05
598.9948, 21545.63
599.4769, 21552.10
599.9590, 21595.82
600.4412, 21649.78
600.9233, 21711.63
601.4054, 21784.08
601.8875, 21819.84
602.3696, 21803.72
602.8517, 21787.61
603.3339, 21823.33
603.8160, 21906.22
604.2981, 21968.95
604.7802, 21998.91
605.2623, 22023.71
605.7444, 22094.91
606.2266, 22190.64
606.7087, 22248.20
607.1908, 22217.24
607.6729, 22169.38
608.1550, 22158.53
608.6371, 22177.42
609.1193, 22202.08
609.6014, 22225.09
610.0835, 22249.79
610.5656, 22274.46
611.0477, 22297.08
611.5298, 22336.66
612.0120, 22408.92
612.4941, 22482.58
612.9762, 22535.78
613.4583, 22563.00
613.9404, 22589.94
614.4225, 22619.44
614.9047, 22645.26
615.3868, 22652.21
615.8689, 22642.69
616.3510, 22648.90
616.8331, 22686.38
617.3152, 22736.23
617.7974, 22772.67
618.2795, 22796.90
618.7616, 22815.59
619.2437, 22826.57
619.7258, 22837.58
620.2079, 22851.48
620.6901, 22868.62
621.1722, 22898.64
621.6543, 22950.23
622.1364, 23012.27
622.6185, 23080.55
623.1006, 23174.52
623.5828, 23230.10
624.0649, 23230.37
624.5470, 23207.80
625.0291, 23197.24
625.5112, 23197.56
625.9933, 23218.00
626.4755, 23264.59
626.9576, 23325.90
627.4397, 23382.69
627.9218, 23434.30
628.4039, 23475.81
628.8860, 23501.13
629.3682, 23516.92
629.8503, 23526.24
630.3324, 23531.13
630.8145, 23546.42
631.2966, 23590.72
631.7787, 23641.31
632.2609, 23683.56
632.7430, 23716.12
633.2251, 23738.09
633.7072, 23737.92
634.1893, 23733.66
634.6714, 23739.04
635.1536, 23750.64
635.6357, 23780.67
636.1178, 23834.07
636.5999, 23901.58
637.0820, 23972.98
637.5641, 24048.88
638.0463, 24102.90
638.5284, 24120.20
639.0105, 24116.41
