##NAMES=Montmorillonite
##RRUFFID=R110053
##IDEAL CHEMISTRY=(Na,Ca)_0.3_(Al,Mg)_2_Si_4_O_10_(OH)_2_&#183;nH_2_O
##LOCALITY=Chambers, Arizona, USA
##OWNER=RRUFF
##SOURCE=Ward's Natural Science Establishment, Inc.
##DESCRIPTION=Tan colored consolidated powder
##STATUS=The identification of this mineral has been confirmed only by X-ray diffraction
##URL=rruff.info/R110053
150.4218, 1814.770
150.9039, 1814.755
151.3860, 1816.082
151.8681, 1818.436
152.3502, 1821.605
152.8323, 1823.635
153.3145, 1822.940
153.7966, 1822.556
154.2787, 1823.034
154.7608, 1824.284
155.2429, 1826.140
155.7250, 1828.648
156.2072, 1831.955
156.6893, 1833.275
157.1714, 1831.126
157.6535, 1828.764
158.1356, 1827.321
158.6177, 1826.893
159.0999, 1827.196
159.5820, 1828.131
160.0641, 1829.871
160.5462, 1830.672
161.0283, 1830.489
161.5104, 1829.477
161.9926, 1826.750
162.4747, 1822.275
162.9568, 1819.010
163.4389, 1821.134
163.9210, 1828.337
164.4031, 1834.192
164.8853, 1836.363
165.3674, 1836.947
165.8495, 1839.531
166.3316, 1845.578
166.8137, 1850.958
167.2958, 1850.688
167.7780, 1846.138
168.2601, 1842.189
168.7422, 1841.515
169.2243, 1843.417
169.7064, 1845.099
170.1885, 1846.084
170.6707, 1847.061
171.1528, 1848.003
171.6349, 1849.137
172.1170, 1851.328
172.5991, 1856.517
173.0812, 1865.010
173.5634, 1869.945
174.0455, 1868.284
174.5276, 1864.807
175.0097, 1860.311
175.4918, 1855.409
175.9739, 1851.336
176.4561, 1849.682
176.9382, 1851.242
177.4203, 1852.535
177.9024, 1854.019
178.3845, 1854.920
178.8666, 1854.262
179.3488, 1852.221
179.8309, 1850.119
180.3130, 1849.814
180.7951, 1852.157
181.2772, 1854.565
181.7593, 1857.357
182.2415, 1860.005
182.7236, 1861.925
183.2057, 1863.045
183.6878, 1863.977
184.1699, 1865.635
184.6520, 1868.302
185.1342, 1871.341
185.6163, 1875.764
186.0984, 1880.138
186.5805, 1882.231
187.0626, 1881.221
187.5447, 1879.766
188.0269, 1883.152
188.5090, 1892.883
188.9911, 1900.504
189.4732, 1902.203
189.9553, 1900.867
190.4374, 1901.848
190.9196, 1907.378
191.4017, 1914.123
191.8838, 1916.767
192.3659, 1915.044
192.8480, 1913.969
193.3301, 1916.487
193.8123, 1921.659
194.2944, 1926.000
194.7765, 1928.256
195.2586, 1929.803
195.7407, 1932.654
196.2228, 1936.842
196.7050, 1939.943
197.1871, 1939.694
197.6692, 1936.248
198.1513, 1933.081
198.6334, 1931.920
199.1155, 1930.269
199.5977, 1925.945
200.0798, 1918.972
200.5619, 1911.848
201.0440, 1907.265
201.5261, 1905.678
202.0082, 1903.470
202.4904, 1900.605
202.9725, 1896.667
203.4546, 1891.140
203.9367, 1884.060
204.4188, 1876.063
204.9009, 1867.443
205.3831, 1857.162
205.8652, 1849.634
206.3473, 1847.775
206.8294, 1846.378
207.3115, 1842.572
207.7936, 1835.872
208.2758, 1827.495
208.7579, 1818.775
209.2400, 1808.034
209.7221, 1801.025
210.2042, 1800.052
210.6863, 1800.510
211.1685, 1799.652
211.6506, 1796.779
212.1327, 1792.475
212.6148, 1787.310
213.0969, 1779.647
213.5790, 1775.024
214.0612, 1776.118
214.5433, 1778.365
215.0254, 1778.040
215.5075, 1774.316
215.9896, 1769.027
216.4718, 1764.699
216.9539, 1761.594
217.4360, 1759.026
217.9181, 1757.394
218.4002, 1756.083
218.8823, 1754.194
219.3645, 1751.507
219.8466, 1749.119
220.3287, 1748.721
220.8108, 1750.661
221.2929, 1752.551
221.7750, 1754.711
222.2572, 1756.422
222.7393, 1756.688
223.2214, 1755.235
223.7035, 1752.767
224.1856, 1749.588
224.6677, 1745.751
225.1499, 1742.878
225.6320, 1741.956
226.1141, 1742.120
226.5962, 1741.946
227.0783, 1741.139
227.5604, 1740.200
228.0426, 1739.598
228.5247, 1739.277
229.0068, 1739.082
229.4889, 1738.989
229.9710, 1738.981
230.4531, 1739.299
230.9353, 1740.577
231.4174, 1740.809
231.8995, 1737.466
232.3816, 1731.782
232.8637, 1727.156
233.3458, 1725.135
233.8280, 1725.417
234.3101, 1727.490
234.7922, 1733.021
235.2743, 1737.391
235.7564, 1736.936
236.2385, 1733.581
236.7207, 1731.266
237.2028, 1733.030
237.6849, 1737.667
238.1670, 1739.975
238.6491, 1739.001
239.1312, 1736.877
239.6134, 1733.931
240.0955, 1730.695
240.5776, 1728.048
241.0597, 1726.705
241.5418, 1726.324
242.0239, 1725.217
242.5061, 1722.546
242.9882, 1720.291
243.4703, 1718.443
243.9524, 1717.435
244.4345, 1718.294
244.9166, 1722.109
245.3988, 1727.673
245.8809, 1729.030
246.3630, 1722.050
246.8451, 1715.940
247.3272, 1712.695
247.8093, 1711.332
248.2915, 1710.635
248.7736, 1709.986
249.2557, 1709.365
249.7378, 1708.688
250.2199, 1707.756
250.7020, 1707.029
251.1842, 1706.340
251.6663, 1705.961
252.1484, 1706.500
252.6305, 1708.286
253.1126, 1710.604
253.5947, 1711.195
254.0769, 1708.062
254.5590, 1705.482
255.0411, 1703.382
255.5232, 1702.087
256.0053, 1702.509
256.4874, 1705.013
256.9695, 1708.137
257.4517, 1708.341
257.9338, 1700.378
258.4159, 1695.743
258.8980, 1697.358
259.3801, 1701.089
259.8622, 1702.369
260.3444, 1699.649
260.8265, 1695.017
261.3086, 1692.413
261.7907, 1693.523
262.2728, 1694.123
262.7549, 1693.496
263.2371, 1692.646
263.7192, 1692.960
264.2013, 1694.747
264.6834, 1696.525
265.1655, 1695.912
265.6476, 1691.245
266.1298, 1688.224
266.6119, 1687.385
267.0940, 1687.994
267.5761, 1690.028
268.0582, 1693.378
268.5403, 1696.479
269.0225, 1697.427
269.5046, 1695.656
269.9867, 1693.897
270.4688, 1691.539
270.9509, 1689.646
271.4330, 1689.809
271.9152, 1692.058
272.3973, 1693.815
272.8794, 1692.003
273.3615, 1686.335
273.8436, 1683.839
274.3257, 1686.964
274.8079, 1691.627
275.2900, 1695.154
275.7721, 1697.310
276.2542, 1697.971
276.7363, 1696.317
277.2184, 1692.837
277.7006, 1691.570
278.1827, 1695.021
278.6648, 1698.706
279.1469, 1699.133
279.6290, 1696.618
280.1111, 1693.961
280.5933, 1692.545
281.0754, 1692.418
281.5575, 1693.165
282.0396, 1695.389
282.5217, 1697.745
283.0038, 1699.647
283.4860, 1701.064
283.9681, 1701.708
284.4502, 1700.962
284.9323, 1699.783
285.4144, 1700.216
285.8965, 1702.906
286.3787, 1705.559
286.8608, 1707.596
287.3429, 1708.724
287.8250, 1707.360
288.3071, 1701.538
288.7892, 1695.009
289.2714, 1694.008
289.7535, 1699.316
290.2356, 1703.107
290.7177, 1700.619
291.1998, 1693.810
291.6819, 1687.867
292.1641, 1684.102
292.6462, 1681.071
293.1283, 1676.580
293.6104, 1670.885
294.0925, 1666.846
294.5746, 1667.361
295.0568, 1670.021
295.5389, 1669.553
296.0210, 1664.464
296.5031, 1658.902
296.9852, 1656.771
297.4673, 1657.052
297.9495, 1657.208
298.4316, 1656.287
298.9137, 1654.831
299.3958, 1653.755
299.8779, 1653.220
300.3600, 1652.368
300.8422, 1650.142
301.3243, 1647.274
301.8064, 1645.081
302.2885, 1644.219
302.7706, 1643.765
303.2527, 1642.891
303.7349, 1641.625
304.2170, 1639.393
304.6991, 1634.331
305.1812, 1628.957
305.6633, 1626.922
306.1454, 1629.549
306.6276, 1633.392
307.1097, 1635.825
307.5918, 1636.879
308.0739, 1637.081
308.5560, 1636.463
309.0381, 1635.076
309.5203, 1632.854
310.0024, 1629.680
310.4845, 1626.759
310.9666, 1624.691
311.4487, 1623.494
311.9308, 1623.548
312.4130, 1625.808
312.8951, 1628.033
313.3772, 1627.682
313.8593, 1625.176
314.3414, 1623.318
314.8235, 1624.328
315.3057, 1626.978
315.7878, 1628.110
316.2699, 1627.295
316.7520, 1625.336
317.2341, 1621.701
317.7162, 1617.369
318.1984, 1614.629
318.6805, 1614.980
319.1626, 1617.100
319.6447, 1619.318
320.1268, 1621.845
320.6089, 1623.416
321.0911, 1622.345
321.5732, 1620.121
322.0553, 1618.765
322.5374, 1618.824
323.0195, 1619.615
323.5016, 1621.021
323.9838, 1623.069
324.4659, 1623.514
324.9480, 1619.674
325.4301, 1615.117
325.9122, 1614.690
326.3943, 1619.420
326.8765, 1624.147
327.3586, 1624.715
327.8407, 1621.849
328.3228, 1619.569
328.8049, 1618.920
329.2870, 1618.957
329.7692, 1618.569
330.2513, 1617.815
330.7334, 1617.493
331.2155, 1618.954
331.6976, 1621.038
332.1797, 1620.423
332.6619, 1615.693
333.1440, 1611.280
333.6261, 1612.096
334.1082, 1616.139
334.5903, 1618.720
335.0724, 1618.065
335.5546, 1615.379
336.0367, 1611.266
336.5188, 1605.454
337.0009, 1601.487
337.4830, 1602.979
337.9651, 1607.246
338.4473, 1609.023
338.9294, 1606.326
339.4115, 1603.313
339.8936, 1603.930
340.3758, 1607.625
340.8579, 1610.247
341.3400, 1610.373
341.8221, 1608.460
342.3042, 1604.902
342.7863, 1599.128
343.2685, 1594.743
343.7506, 1594.250
344.2327, 1596.417
344.7148, 1598.649
345.1969, 1600.785
345.6790, 1601.835
346.1612, 1598.905
346.6433, 1592.770
347.1254, 1589.834
347.6075, 1594.652
348.0896, 1602.156
348.5717, 1606.041
349.0539, 1605.722
349.5360, 1604.033
350.0181, 1603.001
350.5002, 1602.257
350.9823, 1600.310
351.4644, 1594.843
351.9466, 1590.082
352.4287, 1589.738
352.9108, 1592.944
353.3929, 1595.344
353.8750, 1594.356
354.3571, 1591.756
354.8393, 1592.281
355.3214, 1597.720
355.8035, 1601.821
356.2856, 1601.765
356.7677, 1598.970
357.2498, 1595.431
357.7320, 1591.447
358.2141, 1588.321
358.6962, 1588.475
359.1783, 1592.713
359.6604, 1595.092
360.1425, 1592.883
360.6247, 1589.815
361.1068, 1589.701
361.5889, 1592.764
362.0710, 1596.360
362.5531, 1598.478
363.0352, 1599.051
363.5174, 1598.711
363.9995, 1597.544
364.4816, 1595.491
364.9637, 1591.632
365.4458, 1586.803
365.9279, 1582.882
366.4101, 1580.745
366.8922, 1580.397
367.3743, 1582.069
367.8564, 1587.670
368.3385, 1592.430
368.8206, 1596.401
369.3028, 1598.937
369.7849, 1598.706
370.2670, 1595.458
370.7491, 1591.043
371.2312, 1587.992
371.7133, 1586.809
372.1955, 1585.653
372.6776, 1584.219
373.1597, 1583.064
373.6418, 1582.404
374.1239, 1582.318
374.6060, 1583.054
375.0882, 1585.035
375.5703, 1588.170
376.0524, 1589.361
376.5345, 1586.600
377.0166, 1584.267
377.4987, 1583.904
377.9809, 1584.433
378.4630, 1583.909
378.9451, 1581.423
379.4272, 1578.265
379.9093, 1577.633
380.3914, 1581.789
380.8736, 1584.766
381.3557, 1586.457
381.8378, 1586.963
382.3199, 1585.979
382.8020, 1583.682
383.2841, 1580.926
383.7663, 1578.354
384.2484, 1575.655
384.7305, 1575.234
385.2126, 1580.761
385.6947, 1585.063
386.1768, 1584.731
386.6590, 1581.475
387.1411, 1579.081
387.6232, 1580.070
388.1053, 1583.185
388.5874, 1583.485
389.0695, 1577.974
389.5517, 1575.420
390.0338, 1580.064
390.5159, 1586.906
390.9980, 1591.446
391.4801, 1592.442
391.9622, 1591.726
392.4444, 1591.430
392.9265, 1591.631
393.4086, 1591.547
393.8907, 1590.593
394.3728, 1589.826
394.8549, 1590.068
395.3371, 1591.095
395.8192, 1591.982
396.3013, 1592.021
396.7834, 1591.475
397.2655, 1590.935
397.7477, 1589.896
398.2298, 1590.195
398.7119, 1595.156
399.1940, 1601.317
399.6761, 1603.662
400.1582, 1599.681
400.6404, 1594.375
401.1225, 1593.071
401.6046, 1595.518
402.0867, 1597.828
402.5688, 1599.419
403.0509, 1599.645
403.5331, 1596.754
404.0152, 1590.588
404.4973, 1587.113
404.9794, 1590.830
405.4615, 1598.395
405.9436, 1604.447
406.4258, 1608.407
406.9079, 1610.295
407.3900, 1609.070
407.8721, 1605.465
408.3542, 1603.447
408.8363, 1604.886
409.3185, 1606.562
409.8006, 1605.915
410.2827, 1603.659
410.7648, 1602.430
411.2469, 1603.578
411.7290, 1606.031
412.2112, 1607.359
412.6933, 1607.266
413.1754, 1607.004
413.6575, 1606.351
414.1396, 1605.855
414.6217, 1606.528
415.1039, 1608.380
415.5860, 1609.797
416.0681, 1608.986
416.5502, 1605.624
417.0323, 1603.551
417.5144, 1602.458
417.9966, 1602.709
418.4787, 1605.192
418.9608, 1609.044
419.4429, 1613.042
419.9250, 1616.631
420.4071, 1619.298
420.8893, 1619.393
421.3714, 1612.805
421.8535, 1610.015
422.3356, 1615.356
422.8177, 1621.534
423.2998, 1622.264
423.7820, 1617.215
424.2641, 1611.016
424.7462, 1608.656
425.2283, 1610.492
425.7104, 1610.650
426.1925, 1605.972
426.6747, 1603.062
427.1568, 1605.676
427.6389, 1610.845
428.1210, 1613.881
428.6031, 1612.440
429.0852, 1608.217
429.5674, 1604.296
430.0495, 1600.461
430.5316, 1597.685
431.0137, 1596.676
431.4958, 1596.571
431.9779, 1597.029
432.4601, 1597.978
432.9422, 1599.287
433.4243, 1602.167
433.9064, 1605.605
434.3885, 1604.248
434.8706, 1595.284
435.3528, 1587.512
435.8349, 1589.334
436.3170, 1595.712
436.7991, 1597.951
437.2812, 1591.813
437.7633, 1583.874
438.2455, 1580.211
438.7276, 1580.322
439.2097, 1580.932
439.6918, 1581.063
440.1739, 1581.007
440.6560, 1581.565
441.1382, 1582.960
441.6203, 1582.891
442.1024, 1578.422
442.5845, 1573.415
443.0666, 1573.491
443.5487, 1578.757
444.0309, 1583.082
444.5130, 1581.377
444.9951, 1574.472
445.4772, 1570.495
445.9593, 1572.577
446.4414, 1573.526
446.9236, 1569.877
447.4057, 1564.103
447.8878, 1560.034
448.3699, 1558.964
448.8520, 1559.348
449.3341, 1558.946
449.8163, 1557.902
450.2984, 1555.488
450.7805, 1549.228
451.2626, 1544.084
451.7447, 1543.820
452.2268, 1546.958
452.7090, 1549.231
453.1911, 1547.706
453.6732, 1543.271
454.1553, 1539.495
454.6374, 1535.767
455.1195, 1533.900
455.6017, 1535.301
456.0838, 1537.670
456.5659, 1539.513
457.0480, 1540.396
457.5301, 1539.961
458.0122, 1537.152
458.4944, 1532.027
458.9765, 1528.415
459.4586, 1527.094
459.9407, 1526.362
460.4228, 1526.068
460.9049, 1525.574
461.3871, 1523.455
461.8692, 1518.327
462.3513, 1512.854
462.8334, 1511.152
463.3155, 1513.018
463.7976, 1512.925
464.2798, 1508.297
464.7619, 1501.997
465.2440, 1497.617
465.7261, 1495.140
466.2082, 1492.993
466.6903, 1490.559
467.1725, 1488.208
467.6546, 1486.156
468.1367, 1484.481
468.6188, 1483.917
469.1009, 1485.377
469.5830, 1488.241
470.0652, 1489.375
470.5473, 1487.471
471.0294, 1485.742
471.5115, 1486.411
471.9936, 1487.119
472.4757, 1484.065
472.9579, 1476.538
473.4400, 1468.122
473.9221, 1463.094
474.4042, 1461.952
474.8863, 1461.437
475.3684, 1462.302
475.8506, 1462.912
476.3327, 1462.708
476.8148, 1461.821
477.2969, 1460.485
477.7790, 1458.812
478.2611, 1456.908
478.7433, 1455.003
479.2254, 1453.104
479.7075, 1451.215
480.1896, 1449.113
480.6717, 1447.228
481.1538, 1445.657
481.6360, 1444.502
482.1181, 1444.113
482.6002, 1445.988
483.0823, 1448.420
483.5644, 1445.376
484.0465, 1434.822
484.5287, 1426.344
485.0108, 1425.170
485.4929, 1427.953
485.9750, 1431.466
486.4571, 1435.839
486.9392, 1438.565
487.4214, 1436.689
487.9035, 1432.264
488.3856, 1430.364
488.8677, 1432.108
489.3498, 1433.605
489.8319, 1430.903
490.3141, 1424.452
490.7962, 1420.820
491.2783, 1423.023
491.7604, 1424.797
492.2425, 1422.461
492.7246, 1417.845
493.2068, 1414.420
493.6889, 1413.412
494.1710, 1413.683
494.6531, 1413.539
495.1352, 1412.799
495.6173, 1412.211
496.0995, 1412.301
496.5816, 1412.017
497.0637, 1410.618
497.5458, 1408.458
498.0279, 1406.338
498.5100, 1404.702
498.9922, 1403.377
499.4743, 1401.701
499.9564, 1398.962
500.4385, 1397.711
500.9206, 1400.295
501.4027, 1402.872
501.8849, 1402.560
502.3670, 1399.713
502.8491, 1397.219
503.3312, 1397.408
503.8133, 1399.302
504.2954, 1400.284
504.7776, 1400.232
505.2597, 1399.857
505.7418, 1399.596
506.2239, 1399.112
506.7060, 1397.740
507.1881, 1395.123
507.6703, 1393.012
508.1524, 1392.888
508.6345, 1393.640
509.1166, 1393.048
509.5987, 1390.775
510.0808, 1389.000
510.5630, 1389.682
511.0451, 1392.579
511.5272, 1394.699
512.0093, 1395.837
512.4914, 1396.560
512.9735, 1397.538
513.4556, 1397.996
513.9377, 1396.592
514.4199, 1393.105
514.9020, 1388.873
515.3841, 1385.488
515.8662, 1382.933
516.3483, 1381.406
516.8304, 1382.103
517.3126, 1382.593
517.7947, 1382.251
518.2768, 1381.266
518.7589, 1379.610
519.2410, 1377.195
519.7231, 1375.311
520.2053, 1376.663
520.6874, 1381.636
521.1695, 1384.034
521.6516, 1382.121
522.1337, 1378.527
522.6158, 1374.500
523.0980, 1370.335
523.5801, 1366.909
524.0622, 1365.014
524.5443, 1363.533
525.0264, 1360.767
525.5085, 1357.122
525.9907, 1355.398
526.4728, 1357.068
526.9549, 1359.958
527.4370, 1360.670
527.9191, 1358.756
528.4012, 1357.758
528.8834, 1359.271
529.3655, 1360.742
529.8476, 1359.891
530.3297, 1357.434
530.8118, 1355.931
531.2939, 1356.868
531.7761, 1358.867
532.2582, 1358.183
532.7403, 1351.701
533.2224, 1348.303
533.7045, 1350.955
534.1866, 1353.828
534.6688, 1353.177
535.1509, 1349.576
535.6330, 1345.709
536.1151, 1343.119
536.5972, 1341.727
537.0793, 1341.606
537.5615, 1343.208
538.0436, 1344.264
538.5257, 1343.981
539.0078, 1342.978
539.4899, 1341.437
539.9720, 1339.460
540.4542, 1338.207
540.9363, 1339.292
541.4184, 1340.932
541.9005, 1339.538
542.3826, 1335.277
542.8647, 1333.733
543.3469, 1339.184
543.8290, 1347.802
544.3111, 1348.986
544.7932, 1338.701
545.2753, 1331.619
545.7574, 1332.391
546.2396, 1335.273
546.7217, 1335.025
547.2038, 1331.865
547.6859, 1329.533
548.1680, 1330.883
548.6501, 1334.706
549.1323, 1335.482
549.6144, 1330.936
550.0965, 1327.225
550.5786, 1324.270
551.0607, 1322.824
551.5428, 1324.437
552.0250, 1328.506
552.5071, 1331.963
552.9892, 1332.516
553.4713, 1330.835
553.9534, 1328.451
554.4355, 1325.023
554.9177, 1322.730
555.3998, 1323.382
555.8819, 1324.935
556.3640, 1324.369
556.8461, 1321.326
557.3282, 1318.801
557.8104, 1319.073
558.2925, 1319.810
558.7746, 1317.245
559.2567, 1311.762
559.7388, 1308.037
560.2209, 1308.998
560.7031, 1313.503
561.1852, 1317.930
561.6673, 1324.347
562.1494, 1327.665
562.6315, 1326.292
563.1136, 1322.993
563.5958, 1319.312
564.0779, 1315.549
564.5600, 1311.356
565.0421, 1305.999
565.5242, 1300.844
566.0063, 1301.273
566.4885, 1309.762
566.9706, 1316.580
567.4527, 1319.173
567.9348, 1319.417
568.4169, 1317.967
568.8990, 1315.085
569.3812, 1311.770
569.8633, 1307.491
570.3454, 1303.663
570.8275, 1302.910
571.3096, 1305.037
571.7917, 1307.122
572.2739, 1308.214
572.7560, 1308.191
573.2381, 1306.453
573.7202, 1302.273
574.2023, 1299.358
574.6844, 1299.192
575.1666, 1299.400
575.6487, 1298.065
576.1308, 1295.723
576.6129, 1294.159
577.0950, 1294.330
577.5771, 1295.381
578.0593, 1295.302
578.5414, 1293.402
579.0235, 1292.251
579.5056, 1291.988
579.9877, 1292.496
580.4698, 1294.614
580.9520, 1297.422
581.4341, 1298.889
581.9162, 1297.857
582.3983, 1295.611
582.8804, 1293.332
583.3625, 1291.129
583.8447, 1290.636
584.3268, 1292.995
584.8089, 1295.417
585.2910, 1294.721
585.7732, 1291.217
586.2553, 1288.048
586.7374, 1284.526
587.2195, 1282.411
587.7017, 1284.071
588.1838, 1287.400
588.6659, 1288.316
589.1480, 1285.714
589.6301, 1282.486
590.1122, 1282.338
590.5944, 1285.691
591.0765, 1288.111
591.5586, 1290.580
592.0407, 1290.803
592.5228, 1285.944
593.0049, 1279.638
593.4871, 1276.452
593.9692, 1277.483
594.4513, 1279.462
594.9334, 1279.531
595.4155, 1277.962
595.8976, 1275.479
596.3798, 1271.601
596.8619, 1269.276
597.3440, 1271.493
597.8261, 1275.985
598.3082, 1276.902
598.7903, 1272.295
599.2725, 1269.068
599.7546, 1271.200
600.2367, 1274.722
600.7188, 1274.805
601.2009, 1271.628
601.6830, 1269.176
602.1652, 1270.313
602.6473, 1273.783
603.1294, 1274.857
603.6115, 1271.970
604.0936, 1269.506
604.5757, 1268.324
605.0579, 1267.124
605.5400, 1264.238
606.0221, 1260.537
606.5042, 1258.831
606.9863, 1261.243
607.4684, 1265.651
607.9506, 1269.467
608.4327, 1272.642
608.9148, 1272.623
609.3969, 1267.625
609.8790, 1261.294
610.3611, 1257.314
610.8433, 1255.535
611.3254, 1254.820
611.8075, 1255.928
612.2896, 1257.166
612.7717, 1257.858
613.2538, 1258.012
613.7360, 1257.433
614.2181, 1256.141
614.7002, 1255.044
615.1823, 1255.484
615.6644, 1257.634
616.1465, 1257.586
616.6287, 1253.299
617.1108, 1249.583
617.5929, 1247.847
618.0750, 1247.141
618.5571, 1246.512
619.0392, 1245.782
619.5214, 1245.313
620.0035, 1246.140
620.4856, 1247.248
620.9677, 1245.778
621.4498, 1241.522
621.9319, 1237.977
622.4141, 1237.046
622.8962, 1237.681
623.3783, 1237.541
623.8604, 1235.972
624.3425, 1235.781
624.8246, 1238.760
625.3068, 1241.905
625.7889, 1243.924
626.2710, 1244.370
626.7531, 1241.894
627.2352, 1235.732
627.7173, 1229.220
628.1995, 1229.511
628.6816, 1238.507
629.1637, 1243.678
629.6458, 1242.656
630.1279, 1239.775
630.6100, 1235.780
631.0922, 1231.941
631.5743, 1231.095
632.0564, 1235.229
632.5385, 1238.527
633.0206, 1235.076
633.5027, 1228.263
633.9849, 1225.402
634.4670, 1227.471
634.9491, 1229.485
635.4312, 1227.528
635.9133, 1222.747
636.3954, 1220.550
636.8776, 1223.208
637.3597, 1225.535
637.8418, 1228.375
638.3239, 1230.019
638.8060, 1228.521
639.2881, 1224.633
639.7703, 1220.785
640.2524, 1218.299
640.7345, 1216.997
641.2166, 1216.740
641.6987, 1217.557
642.1808, 1218.950
642.6630, 1221.976
643.1451, 1223.670
643.6272, 1219.583
644.1093, 1211.550
644.5914, 1206.466
645.0735, 1206.811
645.5557, 1208.544
646.0378, 1210.896
646.5199, 1213.032
647.0020, 1213.494
647.4841, 1212.149
647.9662, 1210.331
