##NAMES=Moraesite
##RRUFFID=R070480
##IDEAL CHEMISTRY=Be_2_PO_4_(OH)&#183;4H_2_O
##LOCALITY=Itinga, Minas Gerais, Brazil
##OWNER=RRUFF
##SOURCE=Bob Jenkins
##DESCRIPTION=Unconsolidated colorless flat fragments
##STATUS=The identification of this mineral has been confirmed by X-ray diffraction.
##URL=rruff.info/R070480
148.8803, 16131.06
149.3624, 16487.37
149.8445, 16843.60
150.3267, 17149.44
150.8088, 17387.75
151.2909, 17565.91
151.7730, 17700.61
152.2551, 17799.06
152.7372, 17854.94
153.2194, 17860.13
153.7015, 17820.14
154.1836, 17741.73
154.6657, 17612.89
155.1478, 17465.60
155.6299, 17356.24
156.1121, 17284.13
156.5942, 17242.19
157.0763, 17228.85
157.5584, 17243.47
158.0405, 17283.23
158.5226, 17345.15
159.0048, 17437.84
159.4869, 17574.22
159.9690, 17767.47
160.4511, 17957.77
160.9332, 18084.58
161.4153, 18122.11
161.8975, 18102.33
162.3796, 18147.97
162.8617, 18220.72
163.3438, 18279.57
163.8259, 18328.41
164.3080, 18347.02
164.7902, 18304.78
165.2723, 18207.99
165.7544, 18130.67
166.2365, 18114.34
166.7186, 18112.59
167.2007, 18078.78
167.6829, 18008.06
168.1650, 17927.62
168.6471, 17865.37
169.1292, 17821.78
169.6113, 17760.85
170.0934, 17659.84
170.5756, 17549.46
171.0577, 17453.97
171.5398, 17376.84
172.0219, 17307.74
172.5040, 17240.84
172.9861, 17176.59
173.4683, 17102.40
173.9504, 16989.03
174.4325, 16881.79
174.9146, 16819.88
175.3967, 16808.23
175.8788, 16807.15
176.3610, 16771.76
176.8431, 16696.47
177.3252, 16635.00
177.8073, 16594.98
178.2894, 16574.76
178.7715, 16585.07
179.2537, 16625.55
179.7358, 16662.30
180.2179, 16654.78
180.7000, 16596.22
181.1821, 16541.20
181.6642, 16489.37
182.1464, 16450.57
182.6285, 16439.30
183.1106, 16455.10
183.5927, 16472.97
184.0748, 16465.70
184.5569, 16430.65
185.0391, 16390.21
185.5212, 16326.90
186.0033, 16274.13
186.4854, 16256.56
186.9675, 16273.54
187.4496, 16296.68
187.9318, 16293.56
188.4139, 16258.35
188.8960, 16231.45
189.3781, 16219.46
189.8602, 16214.06
190.3423, 16212.86
190.8245, 16215.06
191.3066, 16219.88
191.7887, 16231.10
192.2708, 16252.94
192.7529, 16255.13
193.2350, 16203.52
193.7172, 16158.14
194.1993, 16149.32
194.6814, 16174.63
195.1635, 16209.34
195.6456, 16231.06
196.1277, 16238.74
196.6099, 16242.55
197.0920, 16229.34
197.5741, 16223.99
198.0562, 16251.93
198.5383, 16301.87
199.0204, 16333.77
199.5026, 16302.64
199.9847, 16200.89
200.4668, 16128.99
200.9489, 16110.27
201.4310, 16103.53
201.9131, 16099.98
202.3953, 16097.96
202.8774, 16098.59
203.3595, 16106.58
203.8416, 16122.41
204.3237, 16115.49
204.8058, 16050.67
205.2880, 15995.62
205.7701, 15971.80
206.2522, 15973.67
206.7343, 15986.96
207.2164, 16003.93
207.6985, 16023.67
208.1807, 16032.86
208.6628, 16016.01
209.1449, 16004.19
209.6270, 16011.51
210.1091, 16028.90
210.5912, 16039.58
211.0734, 16031.37
211.5555, 16007.49
212.0376, 15989.58
212.5197, 15972.65
213.0018, 15969.28
213.4839, 15999.29
213.9661, 16040.45
214.4482, 16058.19
214.9303, 16030.03
215.4124, 15970.79
215.8945, 15941.67
216.3766, 15964.82
216.8587, 15988.73
217.3409, 16004.17
217.8230, 16014.33
218.3051, 16023.41
218.7872, 16033.53
219.2693, 16043.26
219.7514, 16047.24
220.2336, 16036.12
220.7157, 16036.47
221.1978, 16073.55
221.6799, 16112.78
222.1620, 16113.16
222.6441, 16059.21
223.1263, 15983.95
223.6084, 15957.84
224.0905, 16016.32
224.5726, 16047.50
225.0547, 16015.10
225.5368, 15967.86
226.0190, 15946.97
226.5011, 15962.76
226.9832, 15988.24
227.4653, 15975.68
227.9474, 15899.05
228.4296, 15862.10
228.9117, 15912.20
229.3938, 15974.67
229.8759, 16003.58
230.3580, 15992.53
230.8401, 15966.94
231.3223, 15959.94
231.8044, 15980.70
232.2865, 15977.89
232.7686, 15907.47
233.2507, 15846.11
233.7328, 15834.30
234.2150, 15869.29
234.6971, 15917.67
235.1792, 15950.77
235.6613, 15967.67
236.1434, 15979.93
236.6255, 15977.81
237.1077, 15980.34
237.5898, 16006.39
238.0719, 16045.14
238.5540, 16066.84
239.0361, 16039.59
239.5182, 15970.62
240.0004, 15935.19
240.4825, 15955.58
240.9646, 15983.80
241.4467, 16011.03
241.9288, 16031.98
242.4109, 16037.02
242.8931, 16016.78
243.3752, 15979.21
243.8573, 15949.31
244.3394, 15923.71
244.8215, 15913.78
245.3036, 15936.75
245.7858, 15971.24
246.2679, 15988.79
246.7500, 15974.72
247.2321, 15944.87
247.7142, 15925.95
248.1963, 15915.58
248.6785, 15923.71
249.1606, 15985.87
249.6427, 16051.42
250.1248, 16071.21
250.6069, 16027.61
251.0890, 15959.22
251.5712, 15908.96
252.0533, 15877.70
252.5354, 15858.62
253.0175, 15850.37
253.4996, 15854.65
253.9817, 15883.05
254.4639, 15937.43
254.9460, 15979.67
255.4281, 15962.00
255.9102, 15889.09
256.3923, 15847.22
256.8745, 15867.24
257.3566, 15905.50
257.8387, 15927.70
258.3208, 15934.66
258.8029, 15937.53
259.2850, 15943.64
259.7672, 15951.14
260.2493, 15954.10
260.7314, 15953.16
261.2135, 15944.88
261.6956, 15916.49
262.1777, 15876.90
262.6599, 15854.71
263.1420, 15877.01
263.6241, 15918.61
264.1062, 15936.12
264.5883, 15924.70
265.0704, 15906.90
265.5526, 15893.89
266.0347, 15885.76
266.5168, 15883.11
266.9989, 15886.03
267.4810, 15894.79
267.9631, 15915.11
268.4453, 15946.37
268.9274, 15967.92
269.4095, 15965.52
269.8916, 15947.62
270.3737, 15935.54
270.8558, 15927.84
271.3380, 15928.23
271.8201, 15948.31
272.3022, 15980.21
272.7843, 15993.14
273.2664, 15969.03
273.7485, 15930.89
274.2307, 15920.93
274.7128, 15940.80
275.1949, 15971.61
275.6770, 16018.68
276.1591, 16069.88
276.6412, 16106.06
277.1234, 16122.62
277.6055, 16124.42
278.0876, 16113.70
278.5697, 16087.02
279.0518, 16069.45
279.5339, 16062.82
280.0161, 16066.50
280.4982, 16086.06
280.9803, 16119.92
281.4624, 16150.67
281.9445, 16162.38
282.4266, 16153.75
282.9088, 16148.34
283.3909, 16150.58
283.8730, 16151.74
284.3551, 16145.49
284.8372, 16134.30
285.3193, 16123.91
285.8015, 16116.81
286.2836, 16114.62
286.7657, 16128.19
287.2478, 16178.94
287.7299, 16218.85
288.2120, 16234.79
288.6942, 16235.69
289.1763, 16231.13
289.6584, 16225.05
290.1405, 16221.10
290.6226, 16227.83
291.1047, 16260.00
291.5869, 16280.58
292.0690, 16285.94
292.5511, 16282.92
293.0332, 16269.91
293.5153, 16250.08
293.9974, 16238.75
294.4796, 16261.05
294.9617, 16336.21
295.4438, 16366.87
295.9259, 16303.55
296.4080, 16243.70
296.8901, 16233.42
297.3723, 16264.78
297.8544, 16305.10
298.3365, 16332.49
298.8186, 16346.63
299.3007, 16343.50
299.7828, 16307.58
300.2650, 16273.39
300.7471, 16247.44
301.2292, 16229.66
301.7113, 16219.84
302.1934, 16218.04
302.6755, 16223.55
303.1577, 16237.21
303.6398, 16263.99
304.1219, 16284.60
304.6040, 16297.53
305.0861, 16300.58
305.5682, 16285.37
306.0504, 16250.09
306.5325, 16217.43
307.0146, 16215.73
307.4967, 16244.58
307.9788, 16265.12
308.4609, 16267.90
308.9431, 16263.89
309.4252, 16262.70
309.9073, 16263.67
310.3894, 16261.04
310.8715, 16250.17
311.3536, 16233.67
311.8358, 16213.81
312.3179, 16185.74
312.8000, 16170.82
313.2821, 16199.19
313.7642, 16252.98
314.2463, 16290.92
314.7285, 16291.86
315.2106, 16283.48
315.6927, 16291.82
316.1748, 16315.33
316.6569, 16339.30
317.1390, 16355.53
317.6212, 16368.33
318.1033, 16389.90
318.5854, 16429.79
319.0675, 16459.44
319.5496, 16454.72
320.0317, 16434.44
320.5139, 16436.11
320.9960, 16472.56
321.4781, 16520.89
321.9602, 16545.45
322.4423, 16532.52
322.9244, 16540.64
323.4066, 16578.30
323.8887, 16633.70
324.3708, 16707.19
324.8529, 16793.53
325.3350, 16872.41
325.8171, 16925.80
326.2993, 16953.17
326.7814, 16972.57
327.2635, 16978.93
327.7456, 16984.13
328.2277, 16993.12
328.7098, 17003.34
329.1920, 17010.53
329.6741, 17012.61
330.1562, 17009.84
330.6383, 17002.07
331.1204, 16981.39
331.6025, 16969.11
332.0847, 16980.82
332.5668, 16992.05
333.0489, 16980.16
333.5310, 16942.14
334.0131, 16895.82
334.4952, 16864.04
334.9774, 16850.47
335.4595, 16829.34
335.9416, 16786.92
336.4237, 16749.91
336.9058, 16733.69
337.3879, 16732.53
337.8701, 16730.25
338.3522, 16716.97
338.8343, 16695.21
339.3164, 16669.37
339.7985, 16632.51
340.2806, 16609.52
340.7627, 16629.49
341.2448, 16662.53
341.7270, 16671.55
342.2091, 16640.99
342.6912, 16604.29
343.1733, 16593.38
343.6554, 16605.89
344.1375, 16622.68
344.6197, 16638.85
345.1018, 16656.69
345.5839, 16680.42
346.0660, 16710.17
346.5481, 16737.83
347.0302, 16767.95
347.5124, 16791.41
347.9945, 16788.71
348.4766, 16757.18
348.9587, 16727.39
349.4408, 16725.02
349.9229, 16750.11
350.4051, 16772.50
350.8872, 16801.86
351.3693, 16819.64
351.8514, 16806.68
352.3335, 16775.25
352.8156, 16755.84
353.2978, 16764.29
353.7799, 16788.57
354.2620, 16797.97
354.7441, 16768.81
355.2262, 16755.88
355.7083, 16762.29
356.1905, 16804.29
356.6726, 16843.03
357.1547, 16878.67
357.6368, 16902.00
358.1189, 16941.23
358.6010, 16974.09
359.0832, 17006.70
359.5653, 17048.17
360.0474, 17073.29
360.5295, 17114.62
361.0116, 17169.75
361.4937, 17236.18
361.9759, 17293.81
362.4580, 17343.52
362.9401, 17385.93
363.4222, 17415.82
363.9043, 17452.17
364.3864, 17506.98
364.8686, 17566.01
365.3507, 17615.01
365.8328, 17651.26
366.3149, 17694.64
366.7970, 17765.75
367.2791, 17859.98
367.7613, 17952.39
368.2434, 18037.85
368.7255, 18124.91
369.2076, 18226.21
369.6897, 18336.26
370.1718, 18437.55
370.6540, 18517.98
371.1361, 18564.78
371.6182, 18647.03
372.1003, 18724.93
372.5824, 18798.72
373.0645, 18856.08
373.5467, 18934.67
374.0288, 19004.75
374.5109, 19074.47
374.9930, 19156.04
375.4751, 19202.37
375.9572, 19239.47
376.4394, 19247.42
376.9215, 19217.15
377.4036, 19147.55
377.8857, 19032.42
378.3678, 18859.46
378.8499, 18700.69
379.3321, 18566.25
379.8142, 18433.78
380.2963, 18298.09
380.7784, 18156.46
381.2605, 18006.99
381.7426, 17847.90
382.2248, 17682.30
382.7069, 17519.71
383.1890, 17346.49
383.6711, 17204.70
384.1532, 17122.57
384.6353, 17055.50
385.1175, 16964.79
385.5996, 16846.24
386.0817, 16730.20
386.5638, 16636.51
387.0459, 16558.57
387.5280, 16538.46
388.0102, 16512.47
388.4923, 16480.99
388.9744, 16422.92
389.4565, 16402.79
389.9386, 16369.66
390.4207, 16337.50
390.9029, 16327.20
391.3850, 16281.07
391.8671, 16273.59
392.3492, 16252.88
392.8313, 16240.52
393.3134, 16215.05
393.7956, 16195.69
394.2777, 16192.57
394.7598, 16182.89
395.2419, 16162.02
395.7240, 16159.51
396.2061, 16128.56
396.6883, 16125.51
397.1704, 16135.39
397.6525, 16123.11
398.1346, 16128.71
398.6167, 16129.67
399.0988, 16103.95
399.5810, 16128.92
400.0631, 16134.22
400.5452, 16119.28
401.0273, 16147.28
401.5094, 16138.49
401.9915, 16144.95
402.4737, 16163.30
402.9558, 16171.21
403.4379, 16179.27
403.9200, 16173.99
404.4021, 16167.48
404.8842, 16164.88
405.3664, 16165.99
405.8485, 16168.44
406.3306, 16171.80
406.8127, 16174.77
407.2948, 16170.69
407.7769, 16154.38
408.2591, 16150.22
408.7412, 16187.60
409.2233, 16233.95
409.7054, 16243.92
410.1875, 16202.79
410.6696, 16163.07
411.1518, 16149.72
411.6339, 16162.09
412.1160, 16208.35
412.5981, 16294.67
413.0802, 16380.60
413.5623, 16424.68
414.0445, 16422.81
414.5266, 16419.54
415.0087, 16416.20
415.4908, 16410.30
415.9729, 16401.98
416.4550, 16390.03
416.9372, 16370.83
417.4193, 16342.26
417.9014, 16308.88
418.3835, 16281.54
418.8656, 16271.54
419.3477, 16246.97
419.8299, 16206.17
420.3120, 16154.17
420.7941, 16083.60
421.2762, 16002.17
421.7583, 15934.01
422.2404, 15902.48
422.7226, 15899.13
423.2047, 15877.38
423.6868, 15822.28
424.1689, 15781.85
424.6510, 15801.32
425.1331, 15831.20
425.6153, 15811.09
426.0974, 15720.86
426.5795, 15634.44
427.0616, 15623.59
427.5437, 15664.97
428.0258, 15677.09
428.5080, 15641.18
428.9901, 15592.53
429.4722, 15559.55
429.9543, 15541.95
430.4364, 15533.03
430.9185, 15537.76
431.4007, 15545.47
431.8828, 15557.89
432.3649, 15568.04
432.8470, 15554.76
433.3291, 15507.37
433.8112, 15450.38
434.2934, 15435.32
434.7755, 15503.44
435.2576, 15527.62
435.7397, 15470.50
436.2218, 15407.34
436.7039, 15381.69
437.1861, 15389.97
437.6682, 15407.10
438.1503, 15417.86
438.6324, 15422.54
439.1145, 15422.34
439.5966, 15419.62
440.0788, 15406.62
440.5609, 15363.29
441.0430, 15319.80
441.5251, 15306.41
442.0072, 15327.42
442.4893, 15346.32
442.9715, 15330.69
443.4536, 15295.65
443.9357, 15277.25
444.4178, 15279.41
444.8999, 15294.89
445.3820, 15325.81
445.8642, 15366.38
446.3463, 15388.02
446.8284, 15386.01
447.3105, 15370.83
447.7926, 15335.98
448.2747, 15293.63
448.7569, 15259.32
449.2390, 15238.11
449.7211, 15233.80
450.2032, 15257.46
450.6853, 15323.84
451.1674, 15341.61
451.6496, 15251.46
452.1317, 15178.49
452.6138, 15183.79
453.0959, 15232.44
453.5780, 15262.00
454.0602, 15243.02
454.5423, 15201.48
455.0244, 15179.06
455.5065, 15177.68
455.9886, 15181.24
456.4707, 15188.51
456.9529, 15198.66
457.4350, 15215.15
457.9171, 15235.25
458.3992, 15245.37
458.8813, 15232.27
459.3634, 15211.31
459.8456, 15198.98
460.3277, 15194.80
460.8098, 15192.48
461.2919, 15187.07
461.7740, 15185.05
462.2561, 15202.69
462.7383, 15251.03
463.2204, 15292.67
463.7025, 15327.63
464.1846, 15352.27
464.6667, 15359.27
465.1488, 15352.21
465.6310, 15343.82
466.1131, 15343.13
466.5952, 15349.19
467.0773, 15358.02
467.5594, 15377.95
468.0415, 15385.46
468.5237, 15355.61
469.0058, 15327.37
469.4879, 15344.50
469.9700, 15407.41
470.4521, 15457.37
470.9342, 15426.21
471.4164, 15346.71
471.8985, 15331.42
472.3806, 15397.10
472.8627, 15459.04
473.3448, 15467.11
473.8269, 15435.69
474.3091, 15407.33
474.7912, 15380.37
475.2733, 15359.75
475.7554, 15346.11
476.2375, 15340.37
476.7196, 15351.79
477.2018, 15378.92
477.6839, 15394.10
478.1660, 15366.28
478.6481, 15295.27
479.1302, 15260.93
479.6123, 15316.68
480.0945, 15346.98
480.5766, 15309.47
481.0587, 15247.40
481.5408, 15205.73
482.0229, 15197.22
482.5050, 15210.23
482.9872, 15240.76
483.4693, 15286.81
483.9514, 15318.70
484.4335, 15340.75
484.9156, 15337.05
485.3977, 15278.68
485.8799, 15190.92
486.3620, 15115.63
486.8441, 15058.67
487.3262, 15017.69
487.8083, 15007.01
488.2904, 15008.99
488.7726, 14981.96
489.2547, 14915.66
489.7368, 14844.17
490.2189, 14807.16
490.7010, 14810.26
491.1831, 14776.47
491.6653, 14656.22
492.1474, 14561.32
492.6295, 14541.45
493.1116, 14559.95
493.5937, 14568.75
494.0758, 14551.93
494.5580, 14527.37
495.0401, 14523.78
495.5222, 14543.30
496.0043, 14536.06
496.4864, 14487.58
496.9685, 14431.19
497.4507, 14377.35
497.9328, 14330.27
498.4149, 14299.51
498.8970, 14292.52
499.3791, 14292.12
499.8612, 14284.92
500.3434, 14274.32
500.8255, 14271.70
501.3076, 14280.49
501.7897, 14285.57
502.2718, 14268.02
502.7539, 14224.85
503.2361, 14203.12
503.7182, 14230.65
504.2003, 14244.53
504.6824, 14201.46
505.1645, 14142.31
505.6466, 14132.25
506.1288, 14187.82
506.6109, 14250.90
507.0930, 14234.76
507.5751, 14133.15
508.0572, 14080.47
508.5393, 14098.68
509.0215, 14134.42
509.5036, 14174.33
509.9857, 14209.96
510.4678, 14228.03
510.9499, 14225.55
511.4320, 14205.39
511.9142, 14156.59
512.3963, 14093.44
512.8784, 14047.35
513.3605, 14024.29
513.8427, 14017.52
514.3248, 14023.72
514.8069, 14042.71
515.2890, 14055.52
515.7711, 14055.46
516.2532, 14058.35
516.7354, 14077.38
517.2175, 14096.08
517.6996, 14090.81
518.1817, 14059.32
518.6638, 14027.19
519.1459, 14026.96
519.6281, 14054.65
520.1102, 14055.09
520.5923, 14009.98
521.0744, 13977.52
521.5565, 14009.88
522.0386, 14059.81
522.5208, 14063.12
523.0029, 13999.50
523.4850, 13943.52
523.9671, 13941.92
524.4492, 13968.35
524.9313, 13985.90
525.4135, 13990.09
525.8956, 13987.94
526.3777, 13981.35
526.8598, 13974.68
527.3419, 13991.16
527.8240, 14073.83
528.3062, 14122.49
528.7883, 14112.49
529.2704, 14081.70
529.7525, 14051.46
530.2346, 14028.46
530.7167, 14017.96
531.1989, 14026.17
531.6810, 14048.29
532.1631, 14071.86
532.6452, 14097.58
533.1273, 14121.97
533.6094, 14148.01
534.0916, 14168.04
534.5737, 14169.71
535.0558, 14151.68
535.5379, 14137.14
536.0200, 14129.74
536.5021, 14130.20
536.9843, 14144.08
537.4664, 14166.77
537.9485, 14186.91
538.4306, 14199.22
538.9127, 14201.63
539.3948, 14189.09
539.8770, 14157.51
540.3591, 14121.04
540.8412, 14050.37
541.3233, 14003.86
541.8054, 14018.71
542.2875, 14075.61
542.7697, 14136.00
543.2518, 14187.79
543.7339, 14226.37
544.2160, 14248.94
544.6981, 14254.42
545.1802, 14227.20
545.6624, 14153.19
546.1445, 14087.12
546.6266, 14058.34
547.1087, 14096.43
547.5908, 14127.06
548.0729, 14150.64
548.5551, 14146.06
549.0372, 14177.84
549.5193, 14195.05
550.0014, 14211.66
550.4835, 14248.57
550.9656, 14248.08
551.4478, 14284.67
551.9299, 14306.45
552.4120, 14335.01
552.8941, 14348.91
553.3762, 14388.50
553.8583, 14413.27
554.3405, 14424.82
554.8226, 14405.43
555.3047, 14363.00
555.7868, 14349.25
556.2689, 14330.48
556.7510, 14307.08
557.2332, 14257.94
557.7153, 14247.61
558.1974, 14225.13
558.6795, 14204.48
559.1616, 14206.56
559.6437, 14173.67
560.1259, 14180.29
560.6080, 14134.38
561.0901, 14121.91
561.5722, 14115.09
562.0543, 14118.06
562.5364, 14127.38
563.0186, 14136.57
563.5007, 14143.74
563.9828, 14146.08
564.4649, 14139.67
564.9470, 14124.72
565.4291, 14098.10
565.9113, 14050.96
566.3934, 14017.27
566.8755, 14038.06
567.3576, 14108.25
567.8397, 14144.31
568.3218, 14122.39
568.8040, 14094.77
569.2861, 14067.69
569.7682, 14049.77
570.2503, 14055.73
570.7324, 14085.18
571.2145, 14117.86
571.6967, 14133.23
572.1788, 14135.38
572.6609, 14154.07
573.1430, 14197.61
573.6251, 14234.92
574.1072, 14248.47
574.5894, 14256.38
575.0715, 14279.47
575.5536, 14318.75
576.0357, 14349.90
576.5178, 14350.54
576.9999, 14348.85
577.4821, 14380.01
577.9642, 14433.80
578.4463, 14470.26
578.9284, 14471.63
579.4105, 14459.79
579.8926, 14471.59
580.3748, 14512.79
580.8569, 14555.56
581.3390, 14610.86
581.8211, 14656.44
582.3032, 14681.00
582.7853, 14692.78
583.2675, 14703.23
583.7496, 14715.62
584.2317, 14727.32
584.7138, 14741.14
585.1959, 14751.77
585.6780, 14744.27
586.1602, 14717.05
586.6422, 14681.61
587.1243, 14645.98
587.6064, 14607.40
588.0886, 14556.20
588.5707, 14480.83
589.0528, 14409.68
589.5349, 14338.60
590.0170, 14275.73
590.4991, 14238.30
590.9813, 14214.20
591.4634, 14167.93
591.9455, 14073.62
592.4276, 13968.67
592.9097, 13925.72
593.3918, 13941.77
593.8740, 13927.74
594.3561, 13856.34
594.8382, 13778.02
595.3203, 13736.32
595.8024, 13727.21
596.2845, 13711.49
596.7667, 13678.64
597.2488, 13650.93
597.7309, 13643.95
598.2130, 13640.33
598.6951, 13617.25
599.1772, 13574.47
599.6594, 13531.21
600.1415, 13501.57
600.6236, 13485.08
601.1057, 13484.82
601.5878, 13508.47
602.0699, 13515.47
602.5521, 13487.98
603.0342, 13447.58
603.5163, 13412.24
603.9984, 13382.24
604.4805, 13358.15
604.9626, 13346.00
605.4448, 13334.22
605.9269, 13314.05
606.4090, 13289.44
606.8911, 13267.13
607.3732, 13249.06
607.8553, 13234.24
608.3375, 13223.22
608.8196, 13215.46
609.3017, 13194.83
609.7838, 13147.49
610.2659, 13113.62
610.7480, 13120.83
611.2302, 13136.69
611.7123, 13127.99
612.1944, 13093.43
612.6765, 13070.91
613.1586, 13092.92
613.6407, 13122.06
614.1229, 13120.90
614.6050, 13094.98
615.0871, 13059.90
615.5692, 13021.11
616.0513, 12991.08
616.5334, 12991.19
617.0156, 13027.89
617.4977, 13041.50
617.9798, 13015.03
618.4619, 12986.84
618.9440, 12960.54
619.4261, 12942.01
619.9083, 12941.53
620.3904, 12960.70
620.8725, 12979.38
621.3546, 12984.73
621.8367, 12982.77
622.3188, 12982.12
622.8010, 12982.28
623.2831, 12979.08
623.7652, 12971.10
624.2473, 12956.27
624.7294, 12927.95
625.2115, 12876.49
625.6937, 12850.91
626.1758, 12870.76
626.6579, 12895.73
627.1400, 12933.40
627.6221, 12961.10
628.1042, 12939.29
628.5864, 12857.33
629.0685, 12783.76
629.5506, 12780.05
630.0327, 12812.21
630.5148, 12817.93
630.9969, 12796.85
631.4791, 12780.62
631.9612, 12785.08
632.4433, 12801.00
632.9254, 12813.19
633.4075, 12829.65
633.8896, 12817.31
634.3718, 12743.40
634.8539, 12678.12
635.3360, 12646.98
635.8181, 12639.90
636.3002, 12645.61
636.7823, 12661.65
637.2645, 12672.17
637.7466, 12661.19
638.2287, 12636.81
638.7108, 12612.50
639.1929, 12589.51
639.6750, 12570.76
640.1572, 12555.00
640.6393, 12551.60
641.1214, 12583.79
641.6035, 12680.88
642.0856, 12728.48
642.5677, 12692.30
643.0499, 12648.06
643.5320, 12621.19
644.0141, 12604.86
644.4962, 12583.64
644.9783, 12552.63
645.4604, 12534.64
645.9426, 12562.84
646.4247, 12611.45
646.9068, 12630.00
647.3889, 12617.44
