##NAMES=Moraesite
##RRUFFID=R060876
##IDEAL CHEMISTRY=Be_2_PO_4_(OH)&#183;4H_2_O
##LOCALITY=Galileia, Minas Gerais, Brazil
##OWNER=RRUFF
##SOURCE=Bob Jenkins
##DESCRIPTION=Colorless to tan fibrous crystals associated with beryllonite
##STATUS=The identification of this mineral is confirmed by single-crystal X-ray diffraction and chemical analysis.
##URL=rruff.info/R060876
##MEASURED CHEMISTRY=Be_2.00_P_1.00_O_4_((OH)_0.85_F_0.15_)_Σ=1_·4H_2_O; trace amounts of Al and Fe; Be and H not measured but assumed by stoichiometry
156.1903, 906.4733
156.6724, 924.8364
157.1546, 938.2850
157.6367, 941.2795
158.1188, 942.4326
158.6009, 943.8003
159.0830, 944.2489
159.5652, 948.8547
160.0473, 962.1983
160.5294, 980.5229
161.0115, 996.3138
161.4936, 1007.219
161.9757, 1015.186
162.4579, 1020.849
162.9400, 1022.313
163.4221, 1024.862
163.9042, 1032.171
164.3863, 1042.646
164.8684, 1050.988
165.3506, 1052.119
165.8327, 1051.367
166.3148, 1053.196
166.7969, 1062.732
167.2790, 1071.244
167.7611, 1071.492
168.2433, 1064.654
168.7254, 1060.861
169.2075, 1068.317
169.6896, 1081.373
170.1717, 1093.386
170.6538, 1104.776
171.1360, 1112.312
171.6181, 1110.531
172.1002, 1098.997
172.5823, 1089.703
173.0644, 1096.095
173.5465, 1110.518
174.0287, 1119.356
174.5108, 1112.758
174.9929, 1099.120
175.4750, 1086.537
175.9571, 1075.296
176.4392, 1066.539
176.9214, 1063.183
177.4035, 1063.618
177.8856, 1063.322
178.3677, 1060.740
178.8498, 1055.676
179.3319, 1045.918
179.8141, 1028.569
180.2962, 1013.321
180.7783, 1015.183
181.2604, 1031.282
181.7425, 1046.601
182.2246, 1049.062
182.7068, 1043.464
183.1889, 1041.095
183.6710, 1044.324
184.1531, 1051.198
184.6352, 1061.507
185.1173, 1074.914
185.5995, 1083.563
186.0816, 1076.812
186.5637, 1059.062
187.0458, 1046.287
187.5279, 1042.646
188.0100, 1046.238
188.4922, 1054.191
188.9743, 1066.795
189.4564, 1080.531
189.9385, 1093.752
190.4206, 1106.018
190.9027, 1113.685
191.3849, 1113.693
191.8670, 1108.373
192.3491, 1106.146
192.8312, 1107.054
193.3133, 1110.771
193.7955, 1119.313
194.2776, 1132.502
194.7597, 1141.409
195.2418, 1139.284
195.7239, 1128.278
196.2060, 1126.980
196.6882, 1137.530
197.1703, 1152.480
197.6524, 1161.243
198.1345, 1163.440
198.6166, 1163.832
199.0987, 1164.025
199.5809, 1164.017
200.0630, 1164.197
200.5451, 1164.666
201.0272, 1165.168
201.5093, 1164.668
201.9914, 1162.679
202.4736, 1162.256
202.9557, 1168.266
203.4378, 1182.250
203.9199, 1182.383
204.4020, 1162.756
204.8841, 1132.830
205.3663, 1117.881
205.8484, 1121.929
206.3305, 1127.176
206.8126, 1120.859
207.2947, 1099.779
207.7768, 1088.045
208.2590, 1091.325
208.7411, 1104.141
209.2232, 1106.057
209.7053, 1093.275
210.1874, 1078.608
210.6695, 1070.646
211.1517, 1070.697
211.6338, 1072.411
212.1159, 1077.003
212.5980, 1082.874
213.0801, 1078.333
213.5622, 1057.535
214.0444, 1037.420
214.5265, 1033.959
215.0086, 1053.754
215.4907, 1068.572
215.9728, 1072.543
216.4549, 1066.639
216.9371, 1064.312
217.4192, 1067.648
217.9013, 1071.515
218.3834, 1070.404
218.8655, 1061.816
219.3476, 1055.050
219.8298, 1052.033
220.3119, 1052.806
220.7940, 1054.917
221.2761, 1058.474
221.7582, 1063.256
222.2403, 1069.487
222.7225, 1078.126
223.2046, 1085.843
223.6867, 1092.450
224.1688, 1098.309
224.6509, 1098.711
225.1330, 1090.103
225.6152, 1079.366
226.0973, 1076.065
226.5794, 1084.079
227.0615, 1091.581
227.5436, 1094.835
228.0257, 1092.751
228.5079, 1093.359
228.9900, 1098.258
229.4721, 1104.651
229.9542, 1108.047
230.4363, 1105.832
230.9185, 1105.463
231.4006, 1110.478
231.8827, 1123.612
232.3648, 1129.949
232.8469, 1125.682
233.3290, 1116.903
233.8112, 1114.692
234.2933, 1123.803
234.7754, 1131.556
235.2575, 1133.472
235.7396, 1127.932
236.2217, 1121.422
236.7039, 1111.909
237.1860, 1102.312
237.6681, 1098.480
238.1502, 1102.035
238.6323, 1108.856
239.1144, 1119.233
239.5966, 1138.536
240.0787, 1145.585
240.5608, 1132.913
241.0429, 1110.727
241.5250, 1102.820
242.0071, 1117.694
242.4893, 1133.999
242.9714, 1142.373
243.4535, 1138.333
243.9356, 1137.382
244.4177, 1141.345
244.8998, 1147.940
245.3820, 1150.995
245.8641, 1148.720
246.3462, 1145.523
246.8283, 1143.175
247.3104, 1141.303
247.7925, 1141.484
248.2747, 1145.640
248.7568, 1151.439
249.2389, 1151.285
249.7210, 1139.776
250.2031, 1130.499
250.6852, 1131.507
251.1674, 1150.754
251.6495, 1160.730
252.1316, 1156.827
252.6137, 1143.775
253.0958, 1136.697
253.5779, 1138.323
254.0601, 1141.696
254.5422, 1142.934
255.0243, 1140.277
255.5064, 1140.079
255.9885, 1143.087
256.4706, 1148.646
256.9528, 1155.070
257.4349, 1163.624
257.9170, 1170.958
258.3991, 1175.248
258.8812, 1175.732
259.3633, 1174.829
259.8455, 1171.095
260.3276, 1166.344
260.8097, 1167.697
261.2918, 1178.302
261.7739, 1189.266
262.2560, 1195.681
262.7382, 1196.532
263.2203, 1195.746
263.7024, 1193.072
264.1845, 1189.057
264.6666, 1184.783
265.1487, 1178.664
265.6309, 1175.649
266.1130, 1180.099
266.5951, 1195.331
267.0772, 1206.249
267.5593, 1211.428
268.0414, 1211.809
268.5236, 1209.513
269.0057, 1202.905
269.4878, 1197.517
269.9699, 1196.213
270.4520, 1198.925
270.9341, 1207.345
271.4163, 1225.200
271.8984, 1247.115
272.3805, 1254.011
272.8626, 1240.697
273.3447, 1227.866
273.8268, 1230.130
274.3090, 1250.261
274.7911, 1265.974
275.2732, 1274.353
275.7553, 1277.565
276.2374, 1281.341
276.7195, 1286.052
277.2017, 1290.024
277.6838, 1291.548
278.1659, 1290.285
278.6480, 1291.142
279.1301, 1295.417
279.6122, 1301.223
280.0944, 1303.463
280.5765, 1301.405
281.0586, 1299.859
281.5407, 1301.488
282.0229, 1306.302
282.5050, 1313.563
282.9871, 1323.689
283.4692, 1335.632
283.9513, 1348.240
284.4334, 1361.730
284.9156, 1373.335
285.3977, 1380.120
285.8798, 1382.559
286.3619, 1387.104
286.8440, 1394.595
287.3261, 1403.971
287.8083, 1414.452
288.2904, 1426.068
288.7725, 1435.742
289.2546, 1440.464
289.7367, 1441.138
290.2188, 1443.862
290.7010, 1450.082
291.1831, 1456.363
291.6652, 1454.815
292.1473, 1446.143
292.6294, 1440.351
293.1115, 1443.758
293.5937, 1454.667
294.0758, 1468.225
294.5579, 1485.051
295.0400, 1501.538
295.5221, 1515.279
296.0042, 1525.573
296.4864, 1527.541
296.9685, 1513.359
297.4506, 1489.320
297.9327, 1469.838
298.4148, 1455.710
298.8969, 1446.428
299.3791, 1444.719
299.8612, 1448.390
300.3433, 1449.920
300.8254, 1446.306
301.3075, 1437.819
301.7896, 1423.312
302.2718, 1401.706
302.7539, 1380.061
303.2360, 1365.563
303.7181, 1356.500
304.2002, 1348.507
304.6823, 1337.608
305.1645, 1327.617
305.6466, 1324.668
306.1287, 1329.554
306.6108, 1334.777
307.0929, 1334.416
307.5750, 1330.052
308.0572, 1324.571
308.5393, 1318.807
309.0214, 1312.793
309.5035, 1306.421
309.9856, 1299.711
310.4677, 1292.923
310.9499, 1285.959
311.4320, 1279.050
311.9141, 1272.393
312.3962, 1264.239
312.8783, 1257.685
313.3604, 1254.105
313.8426, 1253.582
314.3247, 1257.095
314.8068, 1270.926
315.2889, 1286.907
315.7710, 1296.614
316.2531, 1292.504
316.7353, 1285.973
317.2174, 1279.405
317.6995, 1273.462
318.1816, 1273.969
318.6637, 1291.122
319.1458, 1311.651
319.6280, 1324.898
320.1101, 1324.485
320.5922, 1320.185
321.0743, 1308.963
321.5564, 1293.626
322.0385, 1289.737
322.5207, 1314.130
323.0028, 1343.227
323.4849, 1362.242
323.9670, 1364.454
324.4491, 1362.003
324.9312, 1351.544
325.4134, 1336.435
325.8955, 1329.306
326.3776, 1339.984
326.8597, 1352.745
327.3418, 1360.251
327.8239, 1356.159
328.3061, 1355.035
328.7882, 1357.671
329.2703, 1363.504
329.7524, 1371.284
330.2345, 1385.835
330.7166, 1397.613
331.1988, 1403.053
331.6809, 1400.216
332.1630, 1395.188
332.6451, 1386.699
333.1272, 1376.441
333.6093, 1367.741
334.0915, 1361.411
334.5736, 1355.253
335.0557, 1348.176
335.5378, 1339.517
336.0199, 1333.323
336.5020, 1329.886
336.9842, 1328.572
337.4663, 1328.876
337.9484, 1331.681
338.4305, 1333.677
338.9126, 1333.702
339.3947, 1331.739
339.8769, 1330.834
340.3590, 1332.189
340.8411, 1332.154
341.3232, 1324.923
341.8053, 1309.168
342.2874, 1297.022
342.7696, 1292.317
343.2517, 1293.801
343.7338, 1295.760
344.2159, 1298.467
344.6980, 1300.376
345.1801, 1298.724
345.6623, 1293.947
346.1444, 1292.484
346.6265, 1296.355
347.1086, 1303.760
347.5907, 1313.244
348.0728, 1324.610
348.5550, 1330.569
349.0371, 1319.216
349.5192, 1297.061
350.0013, 1285.443
350.4834, 1289.536
350.9655, 1302.704
351.4477, 1319.578
351.9298, 1338.888
352.4119, 1353.104
352.8940, 1353.763
353.3762, 1347.416
353.8583, 1344.402
354.3404, 1346.190
354.8225, 1350.645
355.3046, 1354.934
355.7867, 1360.233
356.2689, 1369.366
356.7510, 1387.523
357.2331, 1407.973
357.7152, 1424.808
358.1973, 1437.480
358.6794, 1447.616
359.1616, 1451.719
359.6437, 1454.939
360.1258, 1464.482
360.6079, 1487.943
361.0900, 1514.495
361.5721, 1540.043
362.0543, 1564.339
362.5364, 1584.477
363.0185, 1596.568
363.5006, 1605.260
363.9827, 1614.589
364.4648, 1621.788
364.9470, 1633.728
365.4291, 1654.964
365.9112, 1683.913
366.3933, 1710.588
366.8754, 1730.691
367.3575, 1749.682
367.8397, 1770.452
368.3218, 1797.576
368.8039, 1821.382
369.2860, 1836.839
369.7681, 1848.003
370.2502, 1867.551
370.7324, 1902.350
371.2145, 1938.815
371.6966, 1971.818
372.1787, 2000.306
372.6608, 2027.862
373.1429, 2056.148
373.6251, 2082.541
374.1072, 2103.546
374.5893, 2120.000
375.0714, 2129.311
375.5535, 2129.732
376.0356, 2120.885
376.5178, 2110.365
376.9999, 2100.389
377.4820, 2085.061
377.9641, 2055.755
378.4462, 2010.213
378.9283, 1964.726
379.4105, 1923.750
379.8926, 1886.226
380.3747, 1847.235
380.8568, 1806.166
381.3389, 1765.390
381.8210, 1726.726
382.3032, 1690.179
382.7853, 1651.182
383.2674, 1605.583
383.7495, 1562.296
384.2316, 1545.373
384.7137, 1551.916
385.1959, 1556.274
385.6780, 1537.670
386.1601, 1505.423
386.6422, 1479.300
387.1243, 1461.622
387.6064, 1449.391
388.0886, 1440.863
388.5707, 1435.107
389.0528, 1429.946
389.5349, 1423.230
390.0170, 1417.203
390.4991, 1415.157
390.9813, 1417.623
391.4634, 1418.608
391.9455, 1412.639
392.4276, 1403.352
392.9097, 1395.365
393.3918, 1386.697
393.8740, 1382.978
394.3561, 1391.420
394.8382, 1410.167
395.3203, 1422.139
395.8024, 1412.091
396.2845, 1398.392
396.7667, 1393.734
397.2488, 1408.590
397.7309, 1422.382
398.2130, 1433.114
398.6951, 1440.374
399.1772, 1442.872
399.6594, 1437.243
400.1415, 1429.516
400.6236, 1420.217
401.1057, 1402.649
401.5878, 1399.945
402.0699, 1420.134
402.5521, 1451.276
403.0342, 1475.931
403.5163, 1491.294
403.9984, 1505.298
404.4805, 1521.028
404.9626, 1538.481
405.4448, 1548.417
405.9269, 1546.750
406.4090, 1545.067
406.8911, 1555.960
407.3732, 1581.590
407.8553, 1606.087
408.3375, 1627.543
408.8196, 1645.350
409.3017, 1654.859
409.7838, 1655.194
410.2659, 1657.131
410.7480, 1667.133
411.2302, 1684.874
411.7123, 1710.945
412.1944, 1747.890
412.6765, 1785.468
413.1586, 1811.123
413.6407, 1825.847
414.1229, 1833.603
414.6050, 1831.953
415.0871, 1826.335
415.5692, 1826.658
416.0513, 1833.682
416.5334, 1837.750
417.0156, 1833.053
417.4977, 1820.099
417.9798, 1799.809
418.4619, 1769.085
418.9440, 1733.968
419.4261, 1692.814
419.9083, 1648.427
420.3904, 1612.721
420.8725, 1597.750
421.3546, 1589.753
421.8367, 1579.337
422.3188, 1563.269
422.8010, 1547.057
423.2831, 1533.227
423.7652, 1520.103
424.2473, 1503.752
424.7295, 1472.903
425.2116, 1448.454
425.6937, 1439.600
426.1758, 1452.438
426.6579, 1457.394
427.1400, 1450.681
427.6222, 1438.622
428.1043, 1426.660
428.5864, 1411.663
429.0685, 1403.354
429.5506, 1405.434
430.0327, 1416.300
430.5149, 1424.553
430.9970, 1430.037
431.4791, 1433.134
431.9612, 1434.583
432.4433, 1434.593
432.9254, 1429.073
433.4076, 1415.647
433.8897, 1399.857
434.3718, 1392.961
434.8539, 1394.723
435.3360, 1396.787
435.8181, 1391.634
436.3003, 1383.705
436.7824, 1387.794
437.2645, 1405.123
437.7466, 1423.598
438.2287, 1431.170
438.7108, 1430.989
439.1930, 1429.918
439.6751, 1429.974
440.1572, 1430.443
440.6393, 1430.598
441.1214, 1430.535
441.6035, 1430.732
442.0857, 1432.696
442.5678, 1434.340
443.0499, 1433.366
443.5320, 1427.628
444.0141, 1423.587
444.4962, 1423.272
444.9784, 1426.401
445.4605, 1432.500
445.9426, 1449.662
446.4247, 1462.100
446.9068, 1462.702
447.3889, 1449.270
447.8711, 1438.480
448.3532, 1429.125
448.8353, 1424.114
449.3174, 1426.433
449.7995, 1445.520
450.2816, 1455.486
450.7638, 1448.452
451.2459, 1430.601
451.7280, 1427.451
452.2101, 1444.135
452.6922, 1463.159
453.1743, 1476.943
453.6565, 1485.436
454.1386, 1486.771
454.6207, 1478.827
455.1028, 1468.404
455.5849, 1464.929
456.0670, 1468.123
456.5492, 1473.433
457.0313, 1480.486
457.5134, 1488.032
457.9955, 1492.917
458.4776, 1495.217
458.9597, 1495.909
459.4419, 1496.738
459.9240, 1496.300
460.4061, 1490.435
460.8882, 1474.432
461.3703, 1462.153
461.8524, 1471.702
462.3346, 1494.600
462.8167, 1510.994
463.2988, 1498.966
463.7809, 1486.777
464.2630, 1496.292
464.7451, 1531.585
465.2273, 1558.929
465.7094, 1558.224
466.1915, 1548.222
466.6736, 1545.774
467.1557, 1564.543
467.6378, 1579.062
468.1200, 1584.985
468.6021, 1583.503
469.0842, 1579.275
469.5663, 1567.161
470.0484, 1558.324
470.5305, 1557.997
471.0127, 1568.906
471.4948, 1580.380
471.9769, 1595.456
472.4590, 1607.469
472.9411, 1605.010
473.4232, 1585.685
473.9054, 1567.224
474.3875, 1553.437
474.8696, 1544.624
475.3517, 1544.463
475.8338, 1553.426
476.3159, 1561.994
476.7981, 1561.271
477.2802, 1554.116
477.7623, 1548.865
478.2444, 1546.420
478.7265, 1547.102
479.2086, 1553.385
479.6908, 1563.262
480.1729, 1571.646
480.6550, 1578.368
481.1371, 1581.005
481.6192, 1573.516
482.1013, 1556.339
482.5835, 1545.535
483.0656, 1553.443
483.5477, 1569.070
484.0298, 1583.765
484.5119, 1603.327
484.9940, 1611.391
485.4762, 1591.710
485.9583, 1557.482
486.4404, 1542.686
486.9225, 1579.775
487.4046, 1607.808
487.8867, 1606.647
488.3689, 1569.818
488.8510, 1542.120
489.3331, 1525.498
489.8152, 1515.357
490.2973, 1508.079
490.7794, 1504.476
491.2616, 1500.611
491.7437, 1496.417
492.2258, 1491.183
492.7079, 1479.917
493.1900, 1462.071
493.6722, 1450.875
494.1543, 1461.015
494.6364, 1484.648
495.1185, 1492.998
495.6006, 1483.265
496.0828, 1470.275
496.5649, 1470.213
497.0470, 1477.865
497.5291, 1482.358
498.0112, 1477.056
498.4933, 1464.109
498.9755, 1471.398
499.4576, 1475.390
499.9397, 1476.260
500.4218, 1464.662
500.9039, 1469.164
501.3860, 1467.214
501.8682, 1465.000
502.3503, 1471.768
502.8324, 1461.983
503.3145, 1468.610
503.7966, 1468.685
504.2787, 1471.758
504.7609, 1468.339
505.2430, 1466.926
505.7251, 1468.141
506.2072, 1469.376
506.6893, 1471.163
507.1714, 1471.607
507.6536, 1469.118
508.1357, 1463.191
508.6178, 1458.097
509.0999, 1453.298
509.5820, 1450.916
510.0641, 1455.912
510.5463, 1467.574
511.0284, 1476.654
511.5105, 1480.117
511.9926, 1479.425
512.4747, 1474.041
512.9568, 1465.095
513.4390, 1462.046
513.9211, 1479.323
514.4032, 1502.978
514.8853, 1514.310
515.3674, 1508.247
515.8495, 1500.390
516.3317, 1502.798
516.8138, 1508.562
517.2959, 1508.126
517.7780, 1492.417
518.2601, 1476.041
518.7422, 1461.080
519.2244, 1448.277
519.7065, 1444.422
520.1886, 1458.797
520.6707, 1475.005
521.1528, 1485.492
521.6349, 1486.413
522.1171, 1492.136
522.5992, 1506.273
523.0813, 1521.595
523.5634, 1528.806
524.0455, 1527.261
524.5276, 1520.389
525.0098, 1506.256
525.4919, 1488.636
525.9740, 1479.943
526.4561, 1480.293
526.9382, 1485.344
527.4203, 1494.665
527.9025, 1506.242
528.3846, 1515.201
528.8667, 1521.040
529.3488, 1524.918
529.8309, 1526.640
530.3130, 1527.315
530.7952, 1528.771
531.2773, 1534.837
531.7594, 1539.005
532.2415, 1534.558
532.7236, 1524.115
533.2057, 1519.150
533.6879, 1526.817
534.1700, 1537.977
534.6521, 1548.901
535.1342, 1560.618
535.6163, 1568.028
536.0984, 1568.821
536.5806, 1566.777
537.0627, 1565.632
537.5448, 1565.318
538.0269, 1565.836
538.5090, 1566.335
538.9911, 1568.023
539.4733, 1576.414
539.9554, 1592.720
540.4375, 1607.412
540.9196, 1615.552
541.4017, 1617.785
541.8839, 1615.057
542.3660, 1606.787
542.8481, 1599.509
543.3302, 1599.838
543.8123, 1605.536
544.2944, 1612.275
544.7766, 1619.141
545.2587, 1626.185
545.7408, 1633.457
546.2229, 1640.851
546.7050, 1648.279
547.1871, 1657.672
547.6693, 1665.397
548.1514, 1666.062
548.6335, 1657.687
549.1156, 1661.322
549.5977, 1696.748
550.0798, 1734.017
550.5620, 1751.424
551.0441, 1732.843
551.5262, 1727.597
552.0083, 1745.436
552.4904, 1771.964
552.9725, 1776.741
553.4547, 1755.431
553.9368, 1734.939
554.4189, 1724.603
554.9010, 1722.411
555.3831, 1722.421
555.8652, 1724.715
556.3474, 1724.996
556.8295, 1716.761
557.3116, 1704.561
557.7937, 1698.289
558.2758, 1700.047
558.7579, 1704.376
559.2401, 1708.168
559.7222, 1711.148
560.2043, 1712.859
560.6864, 1708.713
561.1685, 1707.542
561.6506, 1715.609
562.1328, 1730.953
562.6149, 1743.128
563.0970, 1749.091
563.5791, 1752.331
564.0612, 1753.297
564.5433, 1749.807
565.0255, 1752.366
565.5076, 1761.339
565.9897, 1775.891
566.4718, 1798.244
566.9539, 1830.856
567.4360, 1853.120
567.9182, 1857.752
568.4003, 1855.059
568.8824, 1869.095
569.3645, 1898.353
569.8466, 1925.951
570.3287, 1938.025
570.8109, 1944.254
571.2930, 1960.741
571.7751, 1987.553
572.2572, 2017.537
572.7393, 2045.317
573.2214, 2074.279
573.7036, 2109.696
574.1857, 2158.634
574.6678, 2199.907
575.1499, 2213.522
575.6320, 2217.522
576.1141, 2238.594
576.5963, 2298.978
577.0784, 2356.264
577.5605, 2403.057
578.0426, 2439.881
578.5247, 2473.464
579.0068, 2502.698
579.4890, 2530.393
579.9711, 2559.410
580.4532, 2590.037
580.9353, 2612.021
581.4174, 2623.365
581.8995, 2634.332
582.3817, 2660.959
582.8638, 2697.746
583.3459, 2723.944
583.8280, 2732.726
584.3101, 2732.589
584.7922, 2731.311
585.2744, 2728.520
585.7565, 2723.233
586.2386, 2722.776
586.7207, 2713.171
587.2028, 2681.583
587.6849, 2628.616
588.1671, 2578.302
588.6492, 2542.883
589.1313, 2507.984
589.6134, 2464.646
590.0955, 2406.469
590.5776, 2353.428
591.0598, 2307.841
591.5419, 2265.312
592.0240, 2218.617
592.5061, 2165.488
592.9882, 2120.398
593.4703, 2090.835
593.9525, 2068.168
594.4346, 2025.669
594.9167, 1965.470
595.3988, 1917.542
595.8809, 1908.433
596.3630, 1919.103
596.8452, 1921.675
597.3273, 1914.978
597.8094, 1898.671
598.2915, 1861.220
598.7736, 1819.797
599.2557, 1791.471
599.7379, 1785.084
600.2200, 1781.999
600.7021, 1781.492
601.1843, 1779.942
601.6664, 1771.247
602.1485, 1746.523
602.6306, 1726.659
603.1127, 1715.952
603.5948, 1712.946
604.0770, 1712.011
604.5591, 1715.033
605.0412, 1713.865
605.5233, 1700.580
606.0054, 1677.317
606.4875, 1665.436
606.9697, 1665.880
607.4518, 1669.244
607.9339, 1667.100
608.4160, 1661.243
608.8981, 1655.104
609.3802, 1648.721
609.8624, 1643.794
610.3445, 1641.932
610.8266, 1642.288
611.3087, 1643.408
611.7908, 1646.188
612.2729, 1648.231
612.7551, 1647.192
613.2372, 1643.913
613.7193, 1644.866
614.2014, 1655.970
614.6835, 1664.160
615.1656, 1663.233
615.6478, 1652.000
616.1299, 1643.340
616.6120, 1638.001
617.0941, 1633.379
617.5762, 1625.451
618.0583, 1615.057
618.5405, 1610.591
619.0226, 1614.488
619.5047, 1621.006
619.9868, 1621.458
620.4689, 1618.859
620.9510, 1620.536
621.4332, 1636.998
621.9153, 1652.272
622.3974, 1654.043
622.8795, 1645.172
623.3616, 1637.741
623.8438, 1637.149
624.3259, 1637.657
624.8080, 1635.596
625.2901, 1629.534
625.7722, 1630.346
626.2543, 1644.043
626.7365, 1657.142
627.2186, 1657.270
627.7007, 1641.136
628.1828, 1634.348
628.6649, 1640.978
629.1470, 1651.980
629.6292, 1653.007
630.1113, 1646.162
630.5934, 1642.661
631.0755, 1649.002
631.5576, 1656.993
632.0397, 1653.929
632.5219, 1643.538
633.0040, 1637.545
633.4861, 1650.203
633.9682, 1662.106
634.4503, 1658.614
634.9324, 1638.522
635.4146, 1626.172
635.8967, 1634.872
636.3788, 1645.952
636.8609, 1649.166
637.3430, 1640.871
637.8251, 1634.555
638.3073, 1630.104
638.7894, 1627.896
639.2715, 1630.198
639.7536, 1637.067
640.2357, 1638.611
640.7178, 1630.587
641.2000, 1620.590
641.6821, 1623.585
642.1642, 1635.695
642.6463, 1643.074
643.1284, 1631.075
643.6105, 1617.629
644.0927, 1620.243
644.5748, 1636.400
645.0569, 1649.401
645.5390, 1649.837
646.0211, 1647.847
646.5032, 1649.455
646.9854, 1657.376
647.4675, 1659.675
647.9496, 1652.177
648.4317, 1643.790
648.9138, 1642.679
649.3959, 1650.805
