##NAMES=Moraesite
##RRUFFID=R070480
##IDEAL CHEMISTRY=Be_2_PO_4_(OH)&#183;4H_2_O
##LOCALITY=Itinga, Minas Gerais, Brazil
##OWNER=RRUFF
##SOURCE=Bob Jenkins
##DESCRIPTION=Unconsolidated colorless flat fragments
##STATUS=The identification of this mineral has been confirmed by X-ray diffraction.
##URL=rruff.info/R070480
159.3156, 13926.14
159.7977, 13874.09
160.2798, 13850.77
160.7619, 13904.57
161.2440, 13952.04
161.7261, 13963.50
162.2083, 13939.17
162.6904, 13909.77
163.1725, 13892.63
163.6546, 13874.74
164.1367, 13841.54
164.6188, 13759.75
165.1010, 13682.01
165.5831, 13634.28
166.0652, 13618.62
166.5473, 13627.23
167.0294, 13673.10
167.5115, 13738.35
167.9937, 13792.98
168.4758, 13816.38
168.9579, 13826.34
169.4400, 13833.61
169.9221, 13835.49
170.4042, 13845.09
170.8864, 13883.11
171.3685, 13938.57
171.8506, 13980.71
172.3327, 13981.91
172.8148, 13963.57
173.2969, 13949.58
173.7791, 13946.03
174.2612, 13947.68
174.7433, 13951.22
175.2254, 13956.53
175.7075, 13961.85
176.1896, 13970.12
176.6718, 13977.44
177.1539, 13977.44
177.6360, 13970.35
178.1181, 13954.00
178.6002, 13917.25
179.0823, 13860.44
179.5645, 13812.08
180.0466, 13803.17
180.5287, 13822.89
181.0108, 13843.31
181.4929, 13853.71
181.9750, 13857.84
182.4572, 13862.00
182.9393, 13866.03
183.4214, 13870.55
183.9035, 13877.55
184.3856, 13885.93
184.8677, 13891.92
185.3499, 13893.37
185.8320, 13890.68
186.3141, 13886.31
186.7962, 13881.18
187.2783, 13871.05
187.7604, 13835.72
188.2426, 13779.48
188.7247, 13747.79
189.2068, 13789.91
189.6889, 13887.62
190.1710, 13942.48
190.6531, 13934.28
191.1353, 13897.38
191.6174, 13903.58
192.0995, 13953.81
192.5816, 14002.41
193.0637, 14007.63
193.5458, 13974.84
194.0280, 13966.33
194.5101, 14001.94
194.9922, 14060.48
195.4743, 14078.60
195.9564, 14051.49
196.4385, 14017.23
196.9207, 14013.87
197.4028, 14042.04
197.8849, 14048.02
198.3670, 14008.33
198.8491, 13939.44
199.3312, 13923.82
199.8134, 13972.20
200.2955, 14036.70
200.7776, 14068.73
201.2597, 14064.63
201.7418, 14064.69
202.2239, 14085.83
202.7061, 14124.20
203.1882, 14126.86
203.6703, 14081.67
204.1524, 14025.84
204.6345, 14007.20
205.1166, 14031.12
205.5988, 14061.83
206.0809, 14091.84
206.5630, 14121.60
207.0451, 14137.72
207.5272, 14139.61
208.0093, 14128.97
208.4915, 14102.88
208.9736, 14053.21
209.4557, 14016.59
209.9378, 14011.64
210.4199, 14044.40
210.9020, 14069.27
211.3842, 14084.53
211.8663, 14093.99
212.3484, 14104.28
212.8305, 14115.13
213.3126, 14128.07
213.7947, 14146.67
214.2769, 14176.26
214.7590, 14192.09
215.2411, 14193.91
215.7232, 14181.72
216.2053, 14147.73
216.6875, 14072.34
217.1696, 14015.14
217.6517, 14013.16
218.1338, 14090.19
218.6159, 14148.45
219.0980, 14175.22
219.5802, 14180.82
220.0623, 14207.52
220.5444, 14270.56
221.0265, 14328.14
221.5086, 14351.85
221.9907, 14327.60
222.4729, 14306.42
222.9550, 14290.83
223.4371, 14281.65
223.9192, 14282.51
224.4013, 14294.88
224.8834, 14315.69
225.3656, 14346.12
225.8477, 14396.72
226.3298, 14432.32
226.8119, 14448.24
227.2940, 14444.99
227.7761, 14426.44
228.2583, 14374.58
228.7404, 14328.41
229.2225, 14324.75
229.7046, 14393.69
230.1867, 14438.74
230.6688, 14435.13
231.1510, 14384.02
231.6331, 14359.38
232.1152, 14371.72
232.5973, 14399.41
233.0794, 14425.19
233.5615, 14458.78
234.0437, 14472.52
234.5258, 14454.96
235.0079, 14404.74
235.4900, 14373.76
235.9721, 14372.78
236.4542, 14381.99
236.9364, 14377.96
237.4185, 14341.95
237.9006, 14329.33
238.3827, 14360.97
238.8648, 14444.06
239.3469, 14497.75
239.8291, 14515.21
240.3112, 14508.19
240.7933, 14484.72
241.2754, 14419.84
241.7575, 14383.43
242.2396, 14401.59
242.7218, 14485.06
243.2039, 14541.20
243.6860, 14561.32
244.1681, 14559.60
244.6502, 14553.65
245.1323, 14541.34
245.6145, 14528.35
246.0966, 14510.81
246.5787, 14481.62
247.0608, 14490.46
247.5429, 14560.59
248.0250, 14651.80
248.5072, 14704.32
248.9893, 14698.53
249.4714, 14688.86
249.9535, 14693.93
250.4356, 14721.19
250.9177, 14726.30
251.3999, 14697.84
251.8820, 14655.16
252.3641, 14627.78
252.8462, 14620.45
253.3283, 14620.35
253.8104, 14626.78
254.2926, 14644.85
254.7747, 14645.64
255.2568, 14618.43
255.7389, 14581.36
256.2210, 14565.49
256.7031, 14574.66
257.1852, 14598.10
257.6674, 14639.27
258.1495, 14711.34
258.6316, 14743.53
259.1137, 14714.71
259.5958, 14660.94
260.0779, 14652.64
260.5601, 14718.09
261.0422, 14769.33
261.5243, 14763.34
262.0064, 14677.10
262.4885, 14635.36
262.9706, 14651.13
263.4528, 14701.75
263.9349, 14748.52
264.4170, 14796.33
264.8991, 14829.94
265.3812, 14840.63
265.8633, 14823.31
266.3455, 14806.17
266.8276, 14785.39
267.3097, 14768.29
267.7918, 14771.52
268.2739, 14802.43
268.7560, 14833.11
269.2382, 14850.08
269.7203, 14849.61
270.2024, 14857.23
270.6845, 14876.00
271.1666, 14899.45
271.6487, 14917.43
272.1309, 14931.94
272.6130, 14933.88
273.0951, 14913.98
273.5772, 14868.23
274.0593, 14833.86
274.5414, 14809.50
275.0236, 14798.11
275.5057, 14811.16
275.9878, 14855.56
276.4699, 14892.84
276.9520, 14898.07
277.4341, 14867.56
277.9163, 14863.96
278.3984, 14895.33
278.8805, 14941.45
279.3626, 14970.02
279.8447, 14980.65
280.3268, 14978.42
280.8090, 14951.75
281.2911, 14900.00
281.7732, 14898.01
282.2553, 14957.91
282.7374, 15041.57
283.2195, 15095.15
283.7017, 15118.11
284.1838, 15114.94
284.6659, 15069.89
285.1480, 14988.22
285.6301, 14946.58
286.1122, 14950.29
286.5944, 14979.91
287.0765, 15012.90
287.5586, 15049.33
288.0407, 15082.65
288.5228, 15115.95
289.0049, 15146.33
289.4871, 15150.64
289.9692, 15125.29
290.4513, 15088.90
290.9334, 15058.84
291.4155, 15036.14
291.8976, 15030.04
292.3798, 15056.18
292.8619, 15103.26
293.3440, 15132.97
293.8261, 15143.62
294.3082, 15142.45
294.7903, 15130.58
295.2725, 15111.29
295.7546, 15100.66
296.2367, 15113.84
296.7188, 15139.68
297.2009, 15152.90
297.6830, 15152.84
298.1652, 15145.16
298.6473, 15127.71
299.1294, 15105.90
299.6115, 15095.88
300.0936, 15117.30
300.5757, 15150.49
301.0579, 15161.99
301.5400, 15151.08
302.0221, 15133.47
302.5042, 15116.41
302.9863, 15103.04
303.4684, 15100.55
303.9506, 15123.13
304.4327, 15152.01
304.9148, 15159.43
305.3969, 15145.96
305.8790, 15139.92
306.3611, 15182.07
306.8433, 15243.37
307.3254, 15276.48
307.8075, 15238.35
308.2896, 15184.15
308.7717, 15161.85
309.2538, 15169.45
309.7360, 15186.83
310.2181, 15208.60
310.7002, 15229.92
311.1823, 15244.33
311.6644, 15238.22
312.1465, 15234.94
312.6287, 15254.48
313.1108, 15293.35
313.5929, 15328.43
314.0750, 15348.11
314.5571, 15359.10
315.0392, 15367.87
315.5214, 15379.91
316.0035, 15386.30
316.4856, 15373.50
316.9677, 15348.20
317.4498, 15339.14
317.9319, 15372.68
318.4141, 15418.35
318.8962, 15455.65
319.3783, 15481.60
319.8604, 15497.54
320.3425, 15490.05
320.8246, 15470.08
321.3068, 15471.71
321.7889, 15524.08
322.2710, 15585.98
322.7531, 15636.15
323.2352, 15668.29
323.7173, 15693.12
324.1995, 15706.04
324.6816, 15712.38
325.1637, 15725.02
325.6458, 15754.61
326.1279, 15783.46
326.6100, 15807.13
327.0922, 15834.06
327.5743, 15838.55
328.0564, 15797.67
328.5385, 15737.04
329.0206, 15702.80
329.5027, 15714.99
329.9849, 15734.60
330.4670, 15754.83
330.9491, 15782.36
331.4312, 15790.10
331.9133, 15763.61
332.3954, 15725.33
332.8776, 15707.38
333.3597, 15727.93
333.8418, 15739.85
334.3239, 15725.67
334.8060, 15679.26
335.2881, 15658.75
335.7703, 15678.07
336.2524, 15707.22
336.7345, 15707.34
337.2166, 15659.15
337.6987, 15634.46
338.1808, 15662.51
338.6630, 15737.49
339.1451, 15756.20
339.6272, 15698.56
340.1093, 15628.18
340.5915, 15609.42
341.0736, 15650.86
341.5557, 15688.44
342.0378, 15716.28
342.5199, 15729.83
343.0020, 15699.41
343.4842, 15616.67
343.9663, 15538.52
344.4484, 15517.93
344.9305, 15551.81
345.4126, 15575.83
345.8947, 15574.20
346.3769, 15566.06
346.8590, 15601.46
347.3411, 15680.08
347.8232, 15749.85
348.3053, 15769.62
348.7874, 15751.50
349.2696, 15739.89
349.7517, 15740.94
350.2338, 15746.47
350.7159, 15738.86
351.1980, 15722.66
351.6801, 15719.78
352.1623, 15752.35
352.6444, 15802.74
353.1265, 15843.01
353.6086, 15869.74
354.0907, 15888.70
354.5728, 15900.90
355.0550, 15909.37
355.5371, 15921.27
356.0192, 15950.96
356.5013, 15979.54
356.9834, 15987.62
357.4655, 15974.32
357.9477, 15954.37
358.4298, 15928.45
358.9119, 15904.89
359.3940, 15893.81
359.8761, 15913.40
360.3582, 15935.42
360.8404, 15935.37
361.3225, 15916.71
361.8046, 15919.53
362.2867, 15984.95
362.7688, 16066.14
363.2509, 16125.17
363.7331, 16137.85
364.2152, 16142.53
364.6973, 16142.12
365.1794, 16139.49
365.6615, 16147.83
366.1436, 16170.06
366.6258, 16203.75
367.1079, 16249.04
367.5900, 16321.07
368.0721, 16382.04
368.5542, 16435.12
369.0363, 16475.90
369.5185, 16491.88
370.0006, 16451.31
370.4827, 16419.36
370.9648, 16417.39
371.4469, 16452.88
371.9290, 16499.25
372.4112, 16571.86
372.8933, 16646.74
373.3754, 16686.96
373.8575, 16676.96
374.3396, 16660.48
374.8217, 16643.64
375.3039, 16625.47
375.7860, 16630.95
376.2681, 16676.15
376.7502, 16717.13
377.2323, 16701.31
377.7144, 16615.59
378.1966, 16544.90
378.6787, 16510.74
379.1608, 16503.61
379.6429, 16479.05
380.1250, 16434.50
380.6071, 16391.89
381.0893, 16375.80
381.5714, 16383.14
382.0535, 16375.51
382.5356, 16346.47
383.0177, 16303.14
383.4998, 16248.56
383.9820, 16185.25
384.4641, 16135.05
384.9462, 16115.36
385.4283, 16118.11
385.9104, 16129.13
386.3925, 16149.17
386.8747, 16164.48
387.3568, 16149.26
387.8389, 16116.09
388.3210, 16096.86
388.8031, 16119.18
389.2852, 16156.03
389.7674, 16182.14
390.2495, 16197.06
390.7316, 16199.96
391.2137, 16187.48
391.6958, 16164.11
392.1779, 16135.57
392.6601, 16083.36
393.1422, 16045.66
393.6243, 16050.47
394.1064, 16091.52
394.5885, 16131.26
395.0706, 16165.22
395.5528, 16186.56
396.0349, 16188.33
396.5170, 16143.67
396.9991, 16117.40
397.4812, 16136.58
397.9633, 16184.08
398.4455, 16216.25
398.9276, 16211.67
399.4097, 16204.08
399.8918, 16207.51
400.3739, 16231.50
400.8560, 16240.38
401.3382, 16218.16
401.8203, 16188.78
402.3024, 16185.38
402.7845, 16226.91
403.2666, 16262.95
403.7487, 16282.08
404.2309, 16284.45
404.7130, 16281.75
405.1951, 16265.99
405.6772, 16259.42
406.1593, 16289.13
406.6414, 16364.99
407.1236, 16418.65
407.6057, 16433.74
408.0878, 16423.20
408.5699, 16426.28
409.0520, 16444.27
409.5341, 16462.37
410.0163, 16467.52
410.4984, 16462.48
410.9805, 16469.14
411.4626, 16492.75
411.9447, 16517.03
412.4268, 16508.63
412.9090, 16476.32
413.3911, 16460.90
413.8732, 16499.90
414.3553, 16561.90
414.8374, 16595.28
415.3195, 16598.17
415.8017, 16596.02
416.2838, 16613.63
416.7659, 16639.04
417.2480, 16654.01
417.7301, 16648.94
418.2122, 16634.70
418.6944, 16619.38
419.1765, 16601.77
419.6586, 16576.48
420.1407, 16530.77
420.6228, 16482.87
421.1049, 16444.00
421.5871, 16413.12
422.0692, 16398.87
422.5513, 16419.57
423.0334, 16456.82
423.5155, 16476.55
423.9977, 16458.64
424.4798, 16434.55
424.9619, 16409.74
425.4440, 16379.43
425.9261, 16369.31
426.4082, 16395.34
426.8904, 16430.58
427.3725, 16447.92
427.8546, 16429.71
428.3367, 16425.66
428.8188, 16449.94
429.3009, 16496.50
429.7831, 16524.44
430.2652, 16530.38
430.7473, 16526.32
431.2294, 16516.93
431.7115, 16501.15
432.1936, 16496.13
432.6758, 16508.49
433.1579, 16524.12
433.6400, 16508.74
434.1221, 16462.43
434.6042, 16428.36
435.0863, 16428.13
435.5685, 16455.28
436.0506, 16492.17
436.5327, 16539.33
437.0148, 16586.82
437.4969, 16630.80
437.9790, 16667.04
438.4612, 16685.35
438.9433, 16669.94
439.4254, 16649.29
439.9075, 16661.10
440.3896, 16698.09
440.8717, 16725.69
441.3539, 16717.69
441.8360, 16694.83
442.3181, 16673.75
442.8002, 16654.65
443.2823, 16646.73
443.7644, 16664.41
444.2466, 16694.60
444.7287, 16716.27
445.2108, 16728.50
445.6929, 16726.25
446.1750, 16697.63
446.6571, 16638.06
447.1393, 16602.43
447.6214, 16603.46
448.1035, 16625.80
448.5856, 16658.92
449.0677, 16722.36
449.5498, 16767.41
450.0320, 16791.22
450.5141, 16794.13
450.9962, 16769.92
451.4783, 16695.39
451.9604, 16641.12
452.4425, 16646.17
452.9247, 16721.15
453.4068, 16781.61
453.8889, 16826.14
454.3710, 16858.83
454.8531, 16879.05
455.3352, 16886.82
455.8174, 16902.43
456.2995, 16937.70
456.7816, 16981.62
457.2637, 17006.65
457.7458, 17012.38
458.2279, 17009.51
458.7101, 17004.35
459.1922, 16996.57
459.6743, 16985.00
460.1564, 16967.79
460.6385, 16951.92
461.1206, 16947.14
461.6028, 16949.50
462.0849, 16949.06
462.5670, 16941.90
463.0491, 16931.18
463.5312, 16916.71
464.0133, 16898.61
464.4955, 16887.04
464.9776, 16872.93
465.4597, 16873.95
465.9418, 16905.40
466.4239, 17023.31
466.9060, 17111.69
467.3882, 17135.01
467.8703, 17107.78
468.3524, 17094.72
468.8345, 17104.06
469.3166, 17118.66
469.7987, 17133.49
470.2809, 17151.81
470.7630, 17155.00
471.2451, 17132.75
471.7272, 17106.49
472.2093, 17111.26
472.6914, 17159.45
473.1736, 17181.39
473.6557, 17151.62
474.1378, 17086.19
474.6199, 17050.43
475.1020, 17047.01
475.5841, 17049.70
476.0663, 17036.02
476.5484, 17012.18
477.0305, 17002.26
477.5126, 17011.31
477.9947, 17027.50
478.4768, 17035.94
478.9590, 17039.61
479.4411, 17047.05
479.9232, 17069.45
480.4053, 17091.74
480.8874, 17091.30
481.3695, 17069.58
481.8517, 17062.98
482.3338, 17106.23
482.8159, 17165.11
483.2980, 17211.46
483.7801, 17245.46
484.2622, 17255.97
484.7444, 17222.56
485.2265, 17163.50
485.7086, 17120.49
486.1907, 17105.98
486.6728, 17101.79
487.1549, 17108.39
487.6371, 17130.72
488.1192, 17129.92
488.6013, 17093.81
489.0834, 17048.20
489.5655, 17014.16
490.0476, 16991.11
490.5298, 16984.24
491.0119, 17002.43
491.4940, 17031.51
491.9761, 17028.55
492.4582, 16990.12
492.9403, 16955.09
493.4225, 16935.76
493.9046, 16935.38
494.3867, 16980.83
494.8688, 17079.38
495.3509, 17168.82
495.8330, 17180.30
496.3152, 17134.73
496.7973, 17077.94
497.2794, 17010.96
497.7615, 16955.50
498.2436, 16944.96
498.7257, 16966.71
499.2079, 16977.90
499.6900, 16941.32
500.1721, 16897.09
500.6542, 16870.61
501.1363, 16865.54
501.6184, 16877.29
502.1006, 16929.55
502.5827, 16988.42
503.0648, 17017.04
503.5469, 16985.38
504.0290, 16953.27
504.5111, 16924.42
504.9933, 16900.61
505.4754, 16891.54
505.9575, 16900.40
506.4396, 16918.98
506.9217, 16948.15
507.4038, 16993.25
507.8860, 17013.73
508.3681, 17002.42
508.8502, 16980.59
509.3323, 16973.21
509.8144, 16979.78
510.2965, 17000.89
510.7787, 17045.24
511.2608, 17096.00
511.7429, 17114.46
512.2250, 17103.16
512.7071, 17085.87
513.1892, 17080.99
513.6713, 17078.93
514.1534, 17062.42
514.6356, 17025.56
515.1177, 16997.77
515.5998, 17005.08
516.0819, 17032.36
516.5640, 17059.47
517.0461, 17085.95
517.5283, 17104.73
518.0104, 17116.21
518.4925, 17119.18
518.9746, 17106.48
519.4567, 17047.12
519.9388, 16997.44
520.4210, 16982.12
520.9031, 17012.26
521.3852, 17048.28
521.8673, 17101.86
522.3494, 17150.97
522.8315, 17165.01
523.3137, 17136.02
523.7958, 17103.93
524.2779, 17072.50
524.7600, 17046.25
525.2421, 17045.96
525.7242, 17072.57
526.2064, 17101.00
526.6885, 17115.21
527.1706, 17118.94
527.6527, 17120.17
528.1348, 17118.60
528.6169, 17121.00
529.0991, 17138.38
529.5812, 17163.10
530.0633, 17181.74
530.5454, 17176.69
531.0275, 17177.62
531.5096, 17211.21
531.9918, 17267.44
532.4739, 17314.92
532.9560, 17339.93
533.4381, 17352.85
533.9202, 17355.77
534.4023, 17345.65
534.8845, 17339.04
535.3666, 17350.92
535.8487, 17358.57
536.3308, 17338.71
536.8129, 17266.29
537.2950, 17222.69
537.7772, 17225.36
538.2593, 17259.81
538.7414, 17285.60
539.2235, 17300.82
539.7056, 17319.29
540.1877, 17358.33
540.6699, 17410.12
541.1520, 17413.28
541.6341, 17363.48
542.1162, 17314.84
542.5983, 17324.93
543.0804, 17373.08
543.5626, 17415.78
544.0447, 17445.49
544.5268, 17460.59
545.0089, 17449.26
545.4910, 17422.40
545.9731, 17404.47
546.4553, 17397.12
546.9374, 17408.85
547.4195, 17459.03
547.9016, 17548.47
548.3837, 17607.47
548.8658, 17607.36
549.3480, 17581.20
549.8301, 17547.68
550.3122, 17491.35
550.7943, 17457.88
551.2764, 17454.96
551.7585, 17470.06
552.2407, 17485.16
552.7228, 17501.80
553.2049, 17511.27
553.6870, 17506.50
554.1691, 17493.89
554.6512, 17505.28
555.1334, 17541.72
555.6155, 17569.73
556.0976, 17563.86
556.5797, 17531.95
557.0618, 17485.07
557.5439, 17420.38
558.0261, 17367.95
558.5082, 17368.51
558.9903, 17396.00
559.4724, 17410.24
559.9545, 17376.21
560.4366, 17347.70
560.9188, 17360.70
561.4009, 17402.07
561.8830, 17427.75
562.3651, 17413.69
562.8472, 17393.83
563.3293, 17379.98
563.8115, 17371.79
564.2936, 17373.12
564.7757, 17386.29
565.2578, 17406.46
565.7399, 17434.14
566.2220, 17476.22
566.7042, 17492.62
567.1863, 17469.21
567.6684, 17432.01
568.1505, 17435.42
568.6326, 17477.72
569.1147, 17519.27
569.5969, 17546.50
570.0790, 17560.44
570.5611, 17557.63
571.0432, 17539.76
571.5253, 17525.73
572.0074, 17531.47
572.4896, 17546.84
572.9717, 17562.48
573.4538, 17578.04
573.9359, 17589.69
574.4180, 17594.56
574.9001, 17595.00
575.3823, 17593.98
575.8644, 17575.01
576.3465, 17574.71
576.8286, 17618.61
577.3107, 17688.40
577.7928, 17712.67
578.2750, 17664.60
578.7571, 17619.97
579.2392, 17614.23
579.7213, 17648.96
580.2034, 17658.49
580.6855, 17639.45
581.1677, 17611.54
581.6498, 17587.30
582.1319, 17568.69
582.6140, 17566.48
583.0961, 17586.36
583.5782, 17612.62
584.0604, 17632.18
584.5425, 17644.44
585.0246, 17648.09
585.5067, 17643.88
585.9888, 17629.79
586.4709, 17591.83
586.9531, 17536.54
587.4352, 17505.80
587.9174, 17541.07
588.3995, 17582.51
588.8816, 17598.92
589.3637, 17580.97
589.8458, 17555.53
590.3279, 17512.38
590.8101, 17469.89
591.2922, 17445.80
591.7743, 17441.94
592.2564, 17451.08
592.7385, 17478.38
593.2206, 17510.49
593.7028, 17514.77
594.1849, 17492.45
594.6670, 17474.49
595.1491, 17488.31
595.6312, 17511.11
596.1133, 17492.11
596.5955, 17435.13
597.0776, 17382.79
597.5597, 17362.44
598.0418, 17361.85
598.5239, 17373.32
599.0060, 17401.40
599.4882, 17420.72
599.9703, 17410.25
600.4524, 17391.19
600.9345, 17386.99
601.4166, 17420.95
601.8987, 17444.36
602.3809, 17444.93
602.8630, 17432.43
603.3451, 17437.21
603.8272, 17465.82
604.3093, 17492.28
604.7914, 17508.57
605.2736, 17514.44
605.7557, 17507.03
606.2378, 17485.27
606.7199, 17462.32
607.2020, 17446.25
607.6841, 17437.39
608.1663, 17440.24
608.6484, 17459.22
609.1305, 17469.72
609.6126, 17435.56
610.0947, 17384.31
610.5768, 17354.78
611.0590, 17388.13
611.5411, 17415.31
612.0232, 17402.31
612.5053, 17364.19
612.9874, 17346.75
613.4695, 17371.56
613.9517, 17399.76
614.4338, 17424.94
614.9159, 17447.08
615.3980, 17452.19
615.8801, 17436.38
616.3622, 17413.65
616.8444, 17392.78
617.3265, 17373.72
617.8086, 17352.57
618.2907, 17327.44
618.7728, 17308.11
619.2549, 17310.36
619.7371, 17327.22
620.2192, 17343.43
620.7013, 17359.25
621.1834, 17365.36
621.6655, 17348.06
622.1476, 17315.40
622.6298, 17286.23
623.1119, 17246.78
623.5940, 17232.85
624.0761, 17278.83
624.5582, 17385.60
625.0403, 17442.38
625.5225, 17414.23
626.0046, 17374.39
626.4867, 17362.48
626.9688, 17388.25
627.4509, 17384.67
627.9330, 17341.30
628.4152, 17294.73
628.8973, 17289.18
629.3794, 17319.28
629.8615, 17350.41
630.3436, 17376.79
630.8257, 17397.93
631.3079, 17418.73
631.7900, 17434.21
632.2721, 17432.61
632.7542, 17388.71
633.2363, 17344.07
633.7184, 17318.91
634.2006, 17313.81
634.6827, 17328.36
635.1648, 17396.46
635.6469, 17454.43
636.1290, 17470.42
636.6111, 17435.69
637.0933, 17416.98
637.5754, 17423.14
638.0575, 17432.57
638.5396, 17422.14
639.0217, 17389.01
639.5038, 17381.60
639.9860, 17408.21
640.4681, 17448.78
640.9502, 17480.83
641.4323, 17503.43
641.9144, 17512.41
642.3965, 17497.21
642.8787, 17478.39
643.3608, 17478.85
643.8429, 17491.63
644.3250, 17497.97
644.8071, 17477.85
645.2892, 17460.49
645.7714, 17466.29
646.2535, 17496.83
646.7356, 17506.65
647.2177, 17468.98
647.6998, 17438.95
648.1819, 17453.47
648.6641, 17531.24
649.1462, 17552.16
649.6283, 17498.15
650.1104, 17435.18
650.5925, 17450.38
651.0746, 17528.45
651.5568, 17571.86
652.0389, 17556.25
652.5210, 17519.46
653.0031, 17502.62
653.4852, 17499.09
653.9673, 17494.85
654.4495, 17468.86
654.9316, 17454.95
655.4137, 17481.11
655.8958, 17536.46
656.3779, 17578.91
656.8600, 17592.65
657.3422, 17598.33
657.8243, 17602.07
