##NAMES=Moraesite
##RRUFFID=R060876
##IDEAL CHEMISTRY=Be_2_PO_4_(OH)&#183;4H_2_O
##LOCALITY=Galileia, Minas Gerais, Brazil
##OWNER=RRUFF
##SOURCE=Bob Jenkins
##DESCRIPTION=Colorless to tan fibrous crystals associated with beryllonite
##STATUS=The identification of this mineral is confirmed by single-crystal X-ray diffraction and chemical analysis.
##URL=rruff.info/R060876
##MEASURED CHEMISTRY=Be_2.00_P_1.00_O_4_((OH)_0.85_F_0.15_)_Σ=1_·4H_2_O; trace amounts of Al and Fe; Be and H not measured but assumed by stoichiometry
184.1864, 2036.913
184.6686, 2051.941
185.1507, 2066.433
185.6328, 2067.484
186.1149, 2062.161
186.5970, 2058.197
187.0791, 2059.026
187.5613, 2063.688
188.0434, 2070.506
188.5255, 2083.438
189.0076, 2091.170
189.4897, 2086.062
189.9718, 2077.512
190.4540, 2076.501
190.9361, 2088.475
191.4182, 2106.821
191.9003, 2114.783
192.3824, 2104.677
192.8645, 2097.588
193.3467, 2095.166
193.8288, 2097.735
194.3109, 2108.786
194.7930, 2129.958
195.2751, 2152.582
195.7572, 2155.373
196.2394, 2119.938
196.7215, 2099.464
197.2036, 2106.895
197.6857, 2126.106
198.1678, 2145.336
198.6499, 2160.355
199.1321, 2170.767
199.6142, 2175.498
200.0963, 2172.652
200.5784, 2167.343
201.0605, 2158.279
201.5426, 2148.507
202.0248, 2138.932
202.5069, 2130.211
202.9890, 2125.077
203.4711, 2128.872
203.9532, 2146.785
204.4353, 2162.128
204.9175, 2176.440
205.3996, 2186.896
205.8817, 2190.740
206.3638, 2187.798
206.8459, 2180.954
207.3280, 2172.737
207.8102, 2159.488
208.2923, 2154.942
208.7744, 2165.344
209.2565, 2178.512
209.7386, 2190.261
210.2207, 2198.557
210.7029, 2200.645
211.1850, 2190.450
211.6671, 2160.759
212.1492, 2145.994
212.6313, 2157.539
213.1134, 2173.159
213.5956, 2183.571
214.0777, 2187.908
214.5598, 2189.692
215.0419, 2192.862
215.5240, 2198.477
216.0061, 2198.128
216.4883, 2184.820
216.9704, 2172.110
217.4525, 2164.555
217.9346, 2162.041
218.4167, 2162.110
218.8988, 2162.097
219.3810, 2161.784
219.8631, 2169.499
220.3452, 2196.792
220.8273, 2221.227
221.3094, 2237.360
221.7915, 2245.897
222.2737, 2248.964
222.7558, 2247.309
223.2379, 2241.524
223.7200, 2238.062
224.2021, 2234.808
224.6842, 2236.794
225.1664, 2252.644
225.6485, 2272.917
226.1306, 2282.662
226.6127, 2272.125
227.0948, 2247.156
227.5770, 2232.730
228.0591, 2239.619
228.5412, 2242.922
229.0233, 2233.472
229.5054, 2220.198
229.9875, 2214.141
230.4697, 2220.453
230.9518, 2234.073
231.4339, 2242.745
231.9160, 2244.822
232.3981, 2244.124
232.8802, 2238.763
233.3624, 2232.606
233.8445, 2229.600
234.3266, 2230.940
234.8087, 2233.646
235.2908, 2231.737
235.7729, 2220.941
236.2551, 2215.880
236.7372, 2219.818
237.2193, 2227.615
237.7014, 2237.525
238.1835, 2248.534
238.6656, 2258.303
239.1478, 2264.142
239.6299, 2265.881
240.1120, 2264.125
240.5941, 2254.983
241.0762, 2245.555
241.5583, 2237.072
242.0405, 2230.836
242.5226, 2229.991
243.0047, 2240.868
243.4868, 2265.374
243.9689, 2278.583
244.4510, 2271.118
244.9332, 2260.386
245.4153, 2249.799
245.8974, 2240.937
246.3795, 2236.094
246.8616, 2237.130
247.3437, 2243.726
247.8259, 2253.445
248.3080, 2271.730
248.7901, 2285.640
249.2722, 2288.364
249.7543, 2284.639
250.2364, 2282.767
250.7186, 2288.654
251.2007, 2297.677
251.6828, 2294.351
252.1649, 2268.654
252.6470, 2251.244
253.1291, 2258.479
253.6113, 2275.410
254.0934, 2286.035
254.5755, 2284.113
255.0576, 2275.726
255.5397, 2269.262
256.0219, 2264.057
256.5040, 2263.485
256.9861, 2275.811
257.4682, 2288.995
257.9503, 2291.909
258.4324, 2281.844
258.9146, 2271.704
259.3967, 2278.430
259.8788, 2303.121
260.3609, 2319.002
260.8430, 2315.784
261.3251, 2306.424
261.8073, 2297.751
262.2894, 2290.650
262.7715, 2288.780
263.2536, 2299.785
263.7357, 2320.325
264.2178, 2330.281
264.7000, 2324.464
265.1821, 2312.099
265.6642, 2294.073
266.1463, 2274.038
266.6284, 2265.383
267.1105, 2282.821
267.5927, 2314.383
268.0748, 2334.782
268.5569, 2341.746
269.0390, 2342.995
269.5211, 2338.317
270.0032, 2331.876
270.4854, 2331.844
270.9675, 2347.582
271.4496, 2364.640
271.9317, 2362.621
272.4138, 2340.807
272.8959, 2325.275
273.3781, 2335.045
273.8602, 2356.470
274.3423, 2362.012
274.8244, 2341.961
275.3065, 2321.385
275.7886, 2320.025
276.2708, 2333.201
276.7529, 2340.514
277.2350, 2331.825
277.7171, 2318.177
278.1992, 2318.651
278.6813, 2335.077
279.1635, 2352.821
279.6456, 2371.163
280.1277, 2386.390
280.6098, 2390.387
281.0919, 2380.418
281.5740, 2365.216
282.0562, 2355.253
282.5383, 2351.273
283.0204, 2343.625
283.5025, 2321.956
283.9846, 2302.057
284.4667, 2299.612
284.9489, 2315.207
285.4310, 2338.218
285.9131, 2362.536
286.3952, 2387.486
286.8773, 2401.552
287.3594, 2398.528
287.8416, 2391.775
288.3237, 2386.732
288.8058, 2383.121
289.2879, 2378.526
289.7700, 2370.907
290.2521, 2362.427
290.7343, 2362.681
291.2164, 2382.934
291.6985, 2397.406
292.1806, 2401.632
292.6627, 2398.202
293.1448, 2387.418
293.6270, 2369.694
294.1091, 2352.033
294.5912, 2347.589
295.0733, 2368.079
295.5554, 2379.872
296.0375, 2374.516
296.5197, 2367.170
297.0018, 2371.567
297.4839, 2387.236
297.9660, 2401.058
298.4481, 2398.524
298.9302, 2376.573
299.4124, 2359.305
299.8945, 2343.414
300.3766, 2335.284
300.8587, 2344.837
301.3408, 2363.892
301.8229, 2375.653
302.3050, 2368.352
302.7871, 2345.649
303.2693, 2325.484
303.7514, 2303.170
304.2335, 2291.427
304.7156, 2298.421
305.1977, 2313.600
305.6798, 2327.172
306.1620, 2335.674
306.6441, 2338.426
307.1262, 2331.447
307.6083, 2309.860
308.0904, 2296.900
308.5725, 2307.924
309.0547, 2321.098
309.5368, 2322.233
310.0189, 2310.625
310.5010, 2297.343
310.9831, 2293.372
311.4652, 2297.519
311.9474, 2295.616
312.4295, 2280.493
312.9116, 2268.436
313.3937, 2272.853
313.8758, 2288.152
314.3579, 2299.690
314.8401, 2298.386
315.3222, 2290.396
315.8043, 2285.323
316.2864, 2282.847
316.7685, 2285.454
317.2506, 2299.709
317.7328, 2318.225
318.2149, 2328.640
318.6970, 2327.547
319.1791, 2321.517
319.6612, 2312.526
320.1433, 2301.829
320.6255, 2295.233
321.1076, 2295.539
321.5897, 2299.564
322.0718, 2301.938
322.5539, 2301.933
323.0360, 2304.464
323.5182, 2312.847
324.0003, 2323.734
324.4824, 2333.779
324.9645, 2342.431
325.4466, 2347.848
325.9287, 2347.471
326.4109, 2340.564
326.8930, 2336.115
327.3751, 2333.480
327.8572, 2333.727
328.3393, 2339.319
328.8214, 2348.573
329.3036, 2356.636
329.7857, 2360.551
330.2678, 2361.355
330.7499, 2363.617
331.2320, 2375.774
331.7141, 2378.860
332.1963, 2363.482
332.6784, 2341.459
333.1605, 2324.963
333.6426, 2317.839
334.1247, 2316.561
334.6068, 2316.850
335.0890, 2321.717
335.5711, 2319.612
336.0532, 2303.716
336.5353, 2287.743
337.0174, 2279.124
337.4995, 2277.017
337.9817, 2276.185
338.4638, 2272.417
338.9459, 2266.225
339.4280, 2262.692
339.9101, 2266.407
340.3922, 2265.774
340.8744, 2252.656
341.3565, 2235.460
341.8386, 2225.824
342.3207, 2229.037
342.8028, 2236.588
343.2849, 2233.403
343.7671, 2216.804
344.2492, 2208.996
344.7313, 2223.810
345.2134, 2242.656
345.6955, 2251.166
346.1776, 2248.672
346.6598, 2242.021
347.1419, 2232.989
347.6240, 2223.131
348.1061, 2216.196
348.5882, 2212.017
349.0703, 2212.505
349.5525, 2222.658
350.0346, 2239.179
350.5167, 2252.242
350.9988, 2257.959
351.4809, 2261.375
351.9630, 2266.259
352.4452, 2272.431
352.9273, 2278.562
353.4094, 2283.558
353.8915, 2288.662
354.3736, 2297.838
354.8557, 2313.625
355.3379, 2327.189
355.8200, 2336.036
356.3021, 2341.861
356.7842, 2346.120
357.2663, 2349.252
357.7484, 2351.219
358.2306, 2350.700
358.7127, 2345.038
359.1948, 2353.254
359.6769, 2383.911
360.1590, 2417.625
360.6411, 2450.859
361.1233, 2480.151
361.6054, 2498.628
362.0875, 2501.230
362.5696, 2493.849
363.0517, 2498.488
363.5338, 2523.847
364.0160, 2547.793
364.4981, 2565.896
364.9802, 2582.737
365.4623, 2602.696
365.9444, 2626.405
366.4265, 2650.716
366.9087, 2670.793
367.3908, 2686.281
367.8729, 2706.242
368.3550, 2733.488
368.8371, 2762.670
369.3192, 2790.431
369.8014, 2817.935
370.2835, 2847.879
370.7656, 2881.731
371.2477, 2918.615
371.7298, 2960.257
372.2119, 3008.171
372.6941, 3045.143
373.1762, 3057.278
373.6583, 3057.682
374.1404, 3067.825
374.6225, 3091.665
375.1046, 3113.162
375.5868, 3126.437
376.0689, 3130.984
376.5510, 3124.054
377.0331, 3104.337
377.5152, 3079.148
377.9973, 3057.407
378.4795, 3039.872
378.9616, 3008.680
379.4437, 2957.721
379.9258, 2898.432
380.4079, 2832.712
380.8900, 2764.069
381.3722, 2700.797
381.8543, 2647.322
382.3364, 2602.375
382.8185, 2561.318
383.3006, 2525.473
383.7827, 2492.731
384.2649, 2464.175
384.7470, 2437.973
385.2291, 2411.176
385.7112, 2384.178
386.1933, 2361.329
386.6754, 2348.386
387.1576, 2346.092
387.6397, 2340.259
388.1218, 2326.229
388.6039, 2313.960
389.0860, 2309.642
389.5681, 2308.469
390.0503, 2302.607
390.5324, 2288.020
391.0145, 2269.187
391.4966, 2251.159
391.9787, 2233.371
392.4608, 2222.888
392.9430, 2226.535
393.4251, 2234.077
393.9072, 2234.596
394.3893, 2228.077
394.8714, 2224.122
395.3535, 2232.424
395.8357, 2244.588
396.3178, 2244.239
396.7999, 2229.254
397.2820, 2214.769
397.7641, 2211.091
398.2462, 2217.048
398.7284, 2223.630
399.2105, 2236.509
399.6926, 2243.675
400.1747, 2235.435
400.6568, 2219.578
401.1389, 2208.117
401.6211, 2204.959
402.1032, 2209.043
402.5853, 2219.864
403.0674, 2242.162
403.5495, 2256.269
404.0316, 2260.183
404.5138, 2259.155
404.9959, 2252.466
405.4780, 2243.063
405.9601, 2237.387
406.4422, 2240.217
406.9243, 2248.179
407.4065, 2248.215
407.8886, 2233.450
408.3707, 2225.026
408.8528, 2229.175
409.3349, 2239.215
409.8170, 2252.084
410.2992, 2266.696
410.7813, 2279.077
411.2634, 2284.755
411.7455, 2284.938
412.2276, 2284.304
412.7097, 2280.542
413.1919, 2282.272
413.6740, 2302.482
414.1561, 2332.063
414.6382, 2352.249
415.1203, 2356.215
415.6024, 2354.126
416.0846, 2352.500
416.5667, 2350.804
417.0488, 2347.294
417.5309, 2341.294
418.0130, 2333.667
418.4951, 2326.177
418.9773, 2320.337
419.4594, 2308.715
419.9415, 2286.053
420.4236, 2261.689
420.9057, 2239.379
421.3878, 2220.637
421.8700, 2208.988
422.3521, 2207.738
422.8342, 2212.907
423.3163, 2206.549
423.7984, 2174.378
424.2805, 2153.113
424.7627, 2153.737
425.2448, 2160.852
425.7269, 2163.707
426.2090, 2159.949
426.6911, 2151.261
427.1732, 2136.464
427.6554, 2116.419
428.1375, 2102.527
428.6196, 2094.399
429.1017, 2093.426
429.5838, 2108.491
430.0659, 2128.806
430.5481, 2137.369
431.0302, 2127.233
431.5123, 2111.023
431.9944, 2094.139
432.4765, 2078.992
432.9586, 2076.701
433.4408, 2092.921
433.9229, 2113.064
434.4050, 2119.323
434.8871, 2110.022
435.3692, 2103.139
435.8513, 2103.414
436.3335, 2102.913
436.8156, 2093.510
437.2977, 2079.244
437.7798, 2071.394
438.2619, 2076.129
438.7440, 2088.195
439.2262, 2093.744
439.7083, 2084.647
440.1904, 2083.711
440.6725, 2103.578
441.1546, 2120.776
441.6367, 2115.751
442.1189, 2092.406
442.6010, 2070.957
443.0831, 2067.467
443.5652, 2077.447
444.0473, 2083.304
444.5294, 2083.175
445.0116, 2084.188
445.4937, 2093.872
445.9758, 2103.474
446.4579, 2101.780
446.9400, 2085.623
447.4221, 2072.602
447.9043, 2078.429
448.3864, 2094.065
448.8685, 2099.590
449.3506, 2091.844
449.8327, 2081.799
450.3148, 2077.774
450.7970, 2079.218
451.2791, 2079.396
451.7612, 2075.896
452.2433, 2074.021
452.7254, 2077.664
453.2076, 2083.207
453.6897, 2084.888
454.1718, 2081.281
454.6539, 2076.503
455.1360, 2075.987
455.6181, 2080.536
456.1003, 2084.795
456.5824, 2091.833
457.0645, 2095.238
457.5466, 2092.124
458.0287, 2084.242
458.5108, 2072.424
458.9930, 2055.467
459.4751, 2042.260
459.9572, 2049.546
460.4393, 2077.698
460.9214, 2098.415
461.4035, 2103.466
461.8857, 2103.370
462.3678, 2109.015
462.8499, 2118.686
463.3320, 2122.680
463.8141, 2112.171
464.2962, 2099.761
464.7784, 2096.398
465.2605, 2100.958
465.7426, 2107.350
466.2247, 2112.315
466.7068, 2110.296
467.1889, 2122.209
467.6711, 2131.352
468.1532, 2137.828
468.6353, 2136.131
469.1174, 2143.090
469.5995, 2145.421
470.0816, 2146.769
470.5638, 2152.582
471.0459, 2144.054
471.5280, 2121.276
472.0101, 2111.685
472.4922, 2121.734
472.9743, 2127.531
473.4565, 2120.386
473.9386, 2109.884
474.4207, 2101.718
474.9028, 2096.144
475.3849, 2090.586
475.8670, 2079.909
476.3492, 2069.757
476.8313, 2073.955
477.3134, 2092.934
477.7955, 2104.215
478.2776, 2093.425
478.7597, 2070.429
479.2419, 2059.453
479.7240, 2064.266
480.2061, 2069.460
480.6882, 2074.768
481.1703, 2077.438
481.6524, 2074.030
482.1346, 2065.028
482.6167, 2053.385
483.0988, 2040.313
483.5809, 2027.469
484.0630, 2024.689
484.5451, 2042.006
485.0273, 2052.880
485.5094, 2050.832
485.9915, 2043.623
486.4736, 2035.657
486.9557, 2028.225
487.4378, 2023.307
487.9200, 2025.095
488.4021, 2030.459
488.8842, 2029.044
489.3663, 2019.704
489.8484, 2009.685
490.3305, 2001.783
490.8127, 1996.008
491.2948, 1992.630
491.7769, 1993.422
492.2590, 1991.485
492.7411, 1981.156
493.2232, 1968.776
493.7054, 1960.303
494.1875, 1956.905
494.6696, 1959.961
495.1517, 1972.082
495.6338, 1990.519
496.1159, 1997.450
496.5981, 1983.194
497.0802, 1970.471
497.5623, 1959.620
498.0444, 1952.361
498.5265, 1951.940
499.0086, 1957.560
499.4908, 1963.182
499.9729, 1965.127
500.4550, 1963.052
500.9371, 1952.918
501.4192, 1931.126
501.9013, 1916.992
502.3835, 1925.107
502.8656, 1942.216
503.3477, 1946.793
503.8298, 1935.763
504.3119, 1923.597
504.7940, 1911.653
505.2762, 1903.739
505.7583, 1907.256
506.2404, 1920.992
506.7225, 1933.969
507.2046, 1938.627
507.6867, 1937.091
508.1689, 1938.959
508.6510, 1955.300
509.1331, 1958.204
509.6152, 1929.227
510.0973, 1899.998
510.5794, 1897.618
511.0616, 1919.494
511.5437, 1941.471
512.0258, 1945.461
512.5079, 1937.578
512.9901, 1935.079
513.4722, 1939.301
513.9543, 1940.919
514.4364, 1936.524
514.9185, 1927.942
515.4006, 1915.687
515.8828, 1898.883
516.3649, 1889.026
516.8470, 1892.979
517.3291, 1902.830
517.8112, 1913.538
518.2933, 1923.794
518.7755, 1931.518
519.2576, 1935.658
519.7397, 1936.157
520.2218, 1932.369
520.7039, 1919.500
521.1860, 1911.555
521.6682, 1910.226
522.1503, 1911.598
522.6324, 1914.906
523.1145, 1919.162
523.5966, 1922.689
524.0787, 1924.708
524.5609, 1925.385
525.0430, 1924.181
525.5251, 1921.121
526.0072, 1920.835
526.4893, 1927.417
526.9714, 1932.175
527.4536, 1919.800
527.9357, 1893.231
528.4178, 1882.075
528.8999, 1902.367
529.3820, 1927.421
529.8641, 1946.726
530.3463, 1958.421
530.8284, 1957.436
531.3105, 1942.422
531.7926, 1922.570
532.2747, 1909.560
532.7568, 1903.002
533.2390, 1905.849
533.7211, 1933.846
534.2032, 1953.044
534.6853, 1946.558
535.1674, 1927.870
535.6495, 1915.022
536.1317, 1913.234
536.6138, 1916.621
537.0959, 1921.735
537.5780, 1927.681
538.0601, 1931.456
538.5422, 1932.605
539.0244, 1932.303
539.5065, 1931.299
539.9886, 1929.493
540.4707, 1926.489
540.9528, 1920.597
541.4349, 1915.917
541.9171, 1912.707
542.3992, 1911.437
542.8813, 1915.170
543.3634, 1922.303
543.8455, 1924.640
544.3276, 1914.050
544.8098, 1894.974
545.2919, 1887.510
545.7740, 1895.155
546.2561, 1904.924
546.7382, 1918.685
547.2203, 1929.421
547.7025, 1929.176
548.1846, 1918.912
548.6666, 1911.308
549.1487, 1913.406
549.6309, 1919.870
550.1130, 1925.886
550.5951, 1931.282
551.0772, 1935.520
551.5593, 1938.184
552.0414, 1940.938
552.5236, 1946.910
553.0057, 1958.371
553.4878, 1965.300
553.9699, 1967.598
554.4520, 1966.222
554.9341, 1957.297
555.4163, 1946.273
555.8984, 1942.153
556.3805, 1948.381
556.8626, 1957.607
557.3447, 1959.115
557.8268, 1954.552
558.3090, 1959.323
558.7911, 1978.515
559.2732, 1995.161
559.7553, 1995.252
560.2374, 1984.492
560.7195, 1982.186
561.2017, 1995.378
561.6838, 2004.928
562.1659, 2000.542
562.6480, 1992.191
563.1301, 1987.937
563.6122, 1990.076
564.0944, 2001.991
564.5765, 2028.169
565.0586, 2062.716
565.5407, 2081.712
566.0228, 2078.643
566.5049, 2076.469
566.9871, 2078.642
567.4692, 2083.337
567.9513, 2088.819
568.4334, 2095.659
568.9155, 2106.578
569.3976, 2124.109
569.8798, 2145.044
570.3619, 2166.847
570.8440, 2189.476
571.3261, 2213.051
571.8082, 2237.703
572.2903, 2262.408
572.7725, 2285.794
573.2546, 2307.844
573.7367, 2329.471
574.2188, 2350.338
574.7009, 2371.496
575.1830, 2392.021
575.6652, 2413.575
576.1473, 2440.141
576.6294, 2471.790
577.1115, 2500.368
577.5936, 2513.932
578.0757, 2518.588
578.5579, 2536.178
579.0400, 2568.189
579.5221, 2602.329
580.0042, 2633.128
580.4863, 2662.631
580.9684, 2696.590
581.4506, 2739.172
581.9327, 2769.485
582.4148, 2776.441
582.8969, 2777.423
583.3790, 2783.000
583.8611, 2791.885
584.3433, 2799.982
584.8254, 2805.398
585.3075, 2807.088
585.7896, 2803.325
586.2717, 2793.989
586.7538, 2780.820
587.2360, 2765.046
587.7181, 2743.228
588.2002, 2708.655
588.6823, 2667.986
589.1644, 2632.690
589.6465, 2606.973
590.1287, 2579.081
590.6108, 2546.479
591.0929, 2506.728
591.5750, 2451.370
592.0571, 2383.567
592.5392, 2321.628
593.0214, 2278.146
593.5035, 2248.517
593.9856, 2218.214
594.4677, 2186.835
594.9498, 2156.090
595.4319, 2122.974
595.9141, 2093.719
596.3962, 2074.542
596.8783, 2061.822
597.3604, 2046.394
597.8425, 2024.263
598.3246, 1999.748
598.8068, 1972.945
599.2889, 1947.042
599.7710, 1931.314
600.2531, 1927.511
600.7352, 1928.642
601.2173, 1929.940
601.6995, 1930.808
602.1816, 1926.324
602.6637, 1912.054
603.1458, 1898.276
603.6279, 1883.897
604.1100, 1871.736
604.5922, 1862.627
605.0743, 1857.486
605.5564, 1859.746
606.0385, 1877.497
606.5206, 1895.377
607.0027, 1882.740
607.4849, 1844.727
607.9670, 1825.910
608.4491, 1841.629
608.9312, 1861.656
609.4133, 1853.792
609.8954, 1817.864
610.3776, 1794.665
610.8597, 1789.977
611.3418, 1789.419
611.8239, 1791.639
612.3060, 1795.187
612.7881, 1799.667
613.2703, 1804.421
613.7524, 1807.349
614.2345, 1806.056
614.7166, 1802.484
615.1987, 1802.090
615.6808, 1805.104
616.1630, 1806.096
616.6451, 1803.383
617.1272, 1798.286
617.6093, 1791.132
618.0914, 1781.855
618.5735, 1776.120
619.0557, 1778.245
619.5378, 1779.215
620.0199, 1775.396
620.5020, 1768.536
620.9841, 1757.510
621.4662, 1744.177
621.9484, 1738.765
622.4305, 1754.218
622.9126, 1783.356
623.3947, 1796.445
623.8768, 1790.777
624.3589, 1785.070
624.8411, 1786.573
625.3232, 1788.526
625.8053, 1780.291
626.2874, 1762.572
626.7695, 1751.822
627.2516, 1757.926
627.7338, 1763.287
628.2159, 1756.594
628.6980, 1744.554
629.1801, 1736.881
629.6622, 1735.958
630.1443, 1738.828
630.6265, 1743.606
631.1086, 1749.543
631.5907, 1752.988
632.0728, 1754.579
632.5549, 1750.561
633.0370, 1733.846
633.5192, 1716.756
634.0013, 1716.061
634.4834, 1730.644
634.9655, 1737.776
635.4476, 1724.535
635.9297, 1711.589
636.4119, 1711.185
636.8940, 1718.443
637.3761, 1727.537
637.8582, 1735.985
638.3403, 1739.208
638.8224, 1729.701
639.3046, 1711.493
639.7867, 1713.603
640.2688, 1745.876
640.7509, 1762.476
641.2330, 1737.716
641.7151, 1703.994
642.1973, 1695.421
642.6794, 1710.099
643.1615, 1725.962
643.6436, 1744.085
644.1257, 1756.288
644.6078, 1754.674
645.0900, 1745.588
645.5721, 1739.009
646.0542, 1736.783
646.5363, 1732.780
647.0184, 1719.388
647.5005, 1700.618
647.9827, 1697.747
648.4648, 1715.750
648.9469, 1729.765
649.4290, 1732.307
649.9111, 1729.917
650.3932, 1729.624
650.8754, 1730.646
651.3575, 1726.871
651.8396, 1707.267
652.3217, 1694.004
652.8038, 1706.925
653.2859, 1727.742
653.7681, 1728.974
654.2502, 1708.736
654.7323, 1687.830
655.2144, 1682.745
655.6965, 1690.214
656.1786, 1702.468
656.6608, 1721.974
657.1429, 1729.431
657.6250, 1712.297
658.1071, 1694.292
658.5892, 1703.185
659.0714, 1731.377
659.5535, 1744.191
660.0356, 1723.903
660.5177, 1706.051
660.9998, 1706.335
661.4819, 1712.681
661.9641, 1711.848
662.4462, 1703.641
662.9283, 1695.436
663.4104, 1691.482
663.8925, 1692.443
664.3746, 1702.991
664.8568, 1723.698
665.3389, 1733.721
665.8210, 1725.900
666.3031, 1716.381
666.7852, 1716.526
667.2673, 1724.949
667.7495, 1735.012
668.2316, 1754.177
668.7137, 1762.896
669.1958, 1747.765
669.6779, 1728.729
670.1600, 1722.929
670.6422, 1727.125
671.1243, 1727.084
671.6064, 1715.035
672.0885, 1701.250
672.5706, 1700.291
673.0527, 1710.902
673.5349, 1726.093
674.0170, 1746.960
674.4991, 1761.686
674.9812, 1760.778
675.4633, 1750.922
675.9454, 1749.721
676.4276, 1762.619
676.9097, 1772.322
677.3918, 1776.695
