##NAMES=Mordenite
##RRUFFID=R070524
##IDEAL CHEMISTRY=(Na_2_,Ca,K_2_)_4_(Al_8_Si_40_)O_96_&#183;28H_2_O
##LOCALITY=Calapooya River, near Dollar, Linn County, Oregon, USA
##OWNER=RRUFF
##SOURCE=James Shigley
##DESCRIPTION=Aggregates of fine white fibers
##STATUS=The identification of this mineral is confirmed by single-crystal X-ray diffraction and chemical analysis.
##URL=rruff.info/R070524
##MEASURED CHEMISTRY=(Na_3.08_Ca_2.37_K_0.15_)_Σ=5.60_(Al_7.97_Si_40.03_)O_96_·22H_2_O; H_2_O estimated by difference
158.8335, 6047.576
159.3156, 6101.895
159.7977, 6148.055
160.2798, 6173.738
160.7619, 6159.489
161.2440, 6147.861
161.7262, 6160.082
162.2083, 6188.984
162.6904, 6202.813
163.1725, 6166.954
163.6546, 6122.313
164.1367, 6101.307
164.6189, 6140.320
165.1010, 6180.935
165.5831, 6192.113
166.0652, 6174.837
166.5473, 6158.058
167.0294, 6160.036
167.5116, 6170.180
167.9937, 6175.972
168.4758, 6159.747
168.9579, 6145.783
169.4400, 6154.767
169.9221, 6189.759
170.4043, 6225.160
170.8864, 6248.038
171.3685, 6258.755
171.8506, 6258.489
172.3327, 6232.735
172.8148, 6203.542
173.2970, 6194.622
173.7791, 6211.784
174.2612, 6237.362
174.7433, 6257.476
175.2254, 6273.453
175.7076, 6289.333
176.1897, 6317.272
176.6718, 6344.089
177.1539, 6347.214
177.6360, 6312.204
178.1181, 6272.112
178.6003, 6272.004
179.0824, 6305.944
179.5645, 6335.007
180.0466, 6326.054
180.5287, 6293.136
181.0108, 6265.513
181.4930, 6246.116
181.9751, 6238.805
182.4572, 6257.343
182.9393, 6301.112
183.4214, 6344.005
183.9035, 6362.242
184.3857, 6360.564
184.8678, 6354.676
185.3499, 6346.776
185.8320, 6338.654
186.3141, 6337.645
186.7962, 6344.692
187.2784, 6348.578
187.7605, 6325.751
188.2426, 6282.712
188.7247, 6260.960
189.2068, 6293.649
189.6889, 6363.420
190.1711, 6400.749
190.6532, 6401.227
191.1353, 6385.074
191.6174, 6380.286
192.0995, 6386.247
192.5816, 6385.772
193.0638, 6361.000
193.5459, 6317.263
194.0280, 6303.032
194.5101, 6326.908
194.9922, 6365.048
195.4743, 6373.157
195.9565, 6349.560
196.4386, 6326.877
196.9207, 6325.716
197.4028, 6345.563
197.8849, 6361.190
198.3671, 6370.664
198.8492, 6375.594
199.3313, 6379.107
199.8134, 6380.995
200.2955, 6382.627
200.7776, 6383.726
201.2598, 6383.925
201.7419, 6388.838
202.2240, 6400.776
202.7061, 6416.872
203.1882, 6425.600
203.6703, 6423.729
204.1525, 6424.584
204.6346, 6444.072
205.1167, 6487.681
205.5988, 6510.807
206.0809, 6500.062
206.5630, 6462.597
207.0452, 6440.930
207.5273, 6440.102
208.0094, 6443.565
208.4915, 6434.179
208.9736, 6407.180
209.4557, 6390.046
209.9379, 6391.060
210.4200, 6408.811
210.9021, 6421.608
211.3842, 6428.519
211.8663, 6432.370
212.3484, 6437.043
212.8306, 6444.667
213.3127, 6446.104
213.7948, 6436.522
214.2769, 6415.371
214.7590, 6401.877
215.2411, 6394.646
215.7233, 6396.925
216.2054, 6416.399
216.6875, 6461.785
217.1696, 6500.690
217.6517, 6523.786
218.1338, 6529.807
218.6160, 6527.787
219.0981, 6512.628
219.5802, 6493.929
220.0623, 6487.188
220.5444, 6496.872
221.0265, 6508.523
221.5087, 6516.960
221.9908, 6520.363
222.4729, 6529.256
222.9550, 6547.218
223.4371, 6568.508
223.9192, 6583.545
224.4014, 6592.755
224.8835, 6594.678
225.3656, 6586.494
225.8477, 6561.844
226.3298, 6547.197
226.8119, 6546.388
227.2941, 6553.659
227.7762, 6555.638
228.2583, 6548.281
228.7404, 6541.800
229.2225, 6540.647
229.7046, 6546.512
230.1868, 6553.037
230.6689, 6560.447
231.1510, 6568.184
231.6331, 6575.093
232.1152, 6581.361
232.5974, 6586.503
233.0795, 6591.176
233.5616, 6598.565
234.0437, 6598.675
234.5258, 6589.344
235.0079, 6573.146
235.4901, 6556.819
235.9722, 6533.654
236.4543, 6520.317
236.9364, 6529.344
237.4185, 6581.364
237.9006, 6610.078
238.3828, 6600.646
238.8649, 6564.383
239.3470, 6551.350
239.8291, 6574.342
240.3112, 6603.943
240.7933, 6622.412
241.2755, 6623.449
241.7576, 6626.123
242.2397, 6630.161
242.7218, 6636.321
243.2039, 6651.426
243.6860, 6686.928
244.1682, 6716.579
244.6503, 6721.561
245.1324, 6688.247
245.6145, 6659.571
246.0966, 6638.141
246.5787, 6624.266
247.0609, 6620.874
247.5430, 6634.208
248.0251, 6650.288
248.5072, 6659.235
248.9893, 6657.072
249.4714, 6656.395
249.9536, 6660.150
250.4357, 6667.266
250.9178, 6667.576
251.3999, 6656.375
251.8820, 6644.415
252.3641, 6639.781
252.8463, 6644.914
253.3284, 6652.403
253.8105, 6662.947
254.2926, 6675.867
254.7747, 6682.921
255.2568, 6680.045
255.7390, 6676.780
256.2211, 6682.632
256.7032, 6706.140
257.1853, 6716.824
257.6674, 6701.796
258.1495, 6665.520
258.6317, 6662.349
259.1138, 6712.544
259.5959, 6766.961
260.0780, 6779.548
260.5601, 6727.397
261.0422, 6694.207
261.5244, 6698.303
262.0065, 6735.749
262.4886, 6762.358
262.9707, 6779.067
263.4528, 6783.938
263.9349, 6771.355
264.4171, 6731.033
264.8992, 6703.293
265.3813, 6696.796
265.8634, 6709.579
266.3455, 6722.020
266.8276, 6734.917
267.3098, 6746.203
267.7919, 6753.559
268.2740, 6755.456
268.7561, 6759.097
269.2382, 6767.521
269.7203, 6779.292
270.2025, 6780.850
270.6846, 6766.946
271.1667, 6753.728
271.6488, 6758.187
272.1309, 6785.607
272.6130, 6805.724
273.0952, 6811.125
273.5773, 6804.364
274.0594, 6802.371
274.5415, 6807.266
275.0236, 6811.433
275.5057, 6803.714
275.9879, 6780.330
276.4700, 6773.524
276.9521, 6795.665
277.4342, 6839.013
277.9163, 6863.670
278.3984, 6866.678
278.8806, 6861.615
279.3627, 6858.014
279.8448, 6855.666
280.3269, 6858.434
280.8090, 6869.323
281.2911, 6885.063
281.7733, 6893.718
282.2554, 6894.659
282.7375, 6890.776
283.2196, 6881.065
283.7017, 6865.451
284.1838, 6856.652
284.6660, 6855.853
285.1481, 6864.108
285.6302, 6892.298
286.1123, 6943.629
286.5944, 6986.920
287.0765, 6990.720
287.5587, 6958.583
288.0408, 6930.443
288.5229, 6913.789
289.0050, 6905.593
289.4871, 6897.327
289.9692, 6888.858
290.4514, 6886.084
290.9335, 6897.802
291.4156, 6921.026
291.8977, 6939.052
292.3798, 6949.080
292.8619, 6952.381
293.3441, 6947.267
293.8262, 6934.160
294.3083, 6925.487
294.7904, 6933.800
295.2726, 6954.221
295.7547, 6971.315
296.2368, 6982.204
296.7189, 6988.771
297.2010, 6992.384
297.6831, 6993.434
298.1653, 6994.686
298.6474, 6995.744
299.1295, 6998.502
299.6116, 7009.193
300.0937, 7032.597
300.5758, 7055.852
301.0580, 7060.519
301.5401, 7049.602
302.0222, 7036.160
302.5043, 7023.918
302.9864, 7015.521
303.4685, 7016.706
303.9507, 7030.584
304.4328, 7047.771
304.9149, 7064.375
305.3970, 7077.673
305.8791, 7079.622
306.3612, 7049.243
306.8434, 7011.943
307.3255, 6999.944
307.8076, 7021.854
308.2897, 7050.999
308.7718, 7065.866
309.2539, 7071.499
309.7361, 7079.167
310.2182, 7098.647
310.7003, 7119.965
311.1824, 7132.190
311.6645, 7131.833
312.1466, 7134.763
312.6288, 7160.419
313.1109, 7194.855
313.5930, 7215.057
314.0751, 7200.899
314.5572, 7177.354
315.0393, 7157.702
315.5215, 7142.739
316.0036, 7135.400
316.4857, 7139.291
316.9678, 7151.120
317.4499, 7166.504
317.9320, 7187.966
318.4142, 7209.386
318.8963, 7230.937
319.3784, 7253.152
319.8605, 7265.001
320.3426, 7250.207
320.8247, 7227.874
321.3069, 7217.560
321.7890, 7241.168
322.2711, 7260.144
322.7532, 7256.784
323.2353, 7230.284
323.7174, 7217.292
324.1996, 7233.739
324.6817, 7261.430
325.1638, 7285.916
325.6459, 7315.434
326.1280, 7330.981
326.6101, 7320.887
327.0923, 7287.492
327.5744, 7267.801
328.0565, 7279.925
328.5386, 7295.579
329.0207, 7297.923
329.5028, 7273.351
329.9850, 7253.637
330.4671, 7239.582
330.9492, 7231.765
331.4313, 7232.472
331.9134, 7247.447
332.3955, 7265.241
332.8777, 7281.042
333.3598, 7298.899
333.8419, 7305.078
334.3240, 7291.077
334.8061, 7266.460
335.2882, 7259.839
335.7704, 7279.188
336.2525, 7302.303
336.7346, 7320.400
337.2167, 7333.400
337.6988, 7340.006
338.1809, 7338.506
338.6631, 7331.913
339.1452, 7323.590
339.6273, 7310.021
340.1094, 7306.824
340.5915, 7327.452
341.0736, 7374.967
341.5558, 7396.144
342.0379, 7386.573
342.5200, 7361.452
343.0021, 7336.762
343.4842, 7312.051
343.9663, 7299.426
344.4485, 7308.211
344.9306, 7334.516
345.4127, 7352.703
345.8948, 7362.048
346.3769, 7368.900
346.8590, 7382.051
347.3412, 7400.234
347.8233, 7411.931
348.3054, 7409.148
348.7875, 7399.901
349.2696, 7404.488
349.7517, 7422.657
350.2339, 7443.253
350.7160, 7462.762
351.1981, 7477.137
351.6802, 7473.095
352.1623, 7433.713
352.6444, 7391.157
353.1266, 7393.327
353.6087, 7433.977
354.0908, 7479.504
354.5729, 7514.344
355.0550, 7537.845
355.5371, 7548.477
356.0193, 7544.423
356.5014, 7531.458
356.9835, 7507.591
357.4656, 7478.156
357.9477, 7457.049
358.4298, 7454.932
358.9120, 7462.406
359.3941, 7473.201
359.8762, 7487.447
360.3583, 7501.758
360.8404, 7514.949
361.3225, 7526.875
361.8047, 7537.456
362.2868, 7551.765
362.7689, 7560.315
363.2510, 7553.370
363.7331, 7527.122
364.2152, 7511.750
364.6974, 7528.833
365.1795, 7555.967
365.6616, 7570.491
366.1437, 7553.160
366.6258, 7537.897
367.1079, 7533.103
367.5901, 7539.025
368.0722, 7546.991
368.5543, 7556.956
369.0364, 7568.637
369.5185, 7582.114
370.0006, 7608.338
370.4828, 7622.504
370.9649, 7616.820
371.4470, 7596.443
371.9291, 7584.934
372.4112, 7584.330
372.8933, 7590.148
373.3755, 7599.570
373.8576, 7610.413
374.3397, 7631.205
374.8218, 7668.436
375.3039, 7711.203
375.7861, 7733.685
376.2682, 7729.011
376.7503, 7721.644
377.2324, 7720.894
377.7145, 7727.006
378.1967, 7736.285
378.6788, 7750.278
379.1609, 7764.193
379.6430, 7769.001
380.1251, 7764.136
380.6072, 7765.358
381.0894, 7782.682
381.5715, 7810.612
382.0536, 7822.958
382.5357, 7818.629
383.0178, 7812.281
383.4999, 7821.982
383.9821, 7842.943
384.4642, 7852.924
384.9463, 7839.716
385.4284, 7820.014
385.9105, 7819.083
386.3926, 7835.767
386.8748, 7861.669
387.3569, 7902.330
387.8390, 7945.503
388.3211, 7970.628
388.8032, 7970.548
389.2853, 7961.575
389.7675, 7948.387
390.2496, 7936.827
390.7317, 7941.556
391.2138, 7992.084
391.6959, 8047.587
392.1780, 8077.027
392.6602, 8075.142
393.1423, 8060.510
393.6244, 8026.791
394.1065, 7990.735
394.5886, 7972.906
395.0707, 8006.138
395.5529, 8034.826
396.0350, 8031.470
396.5171, 7995.820
396.9992, 7971.049
397.4813, 7979.724
397.9634, 7995.180
398.4456, 7998.901
398.9277, 7963.993
399.4098, 7945.514
399.8919, 7956.160
400.3740, 7989.382
400.8561, 8018.221
401.3383, 8047.659
401.8204, 8067.234
402.3025, 8070.267
402.7846, 8044.475
403.2667, 8032.569
403.7488, 8041.496
404.2310, 8059.941
404.7131, 8067.906
405.1952, 8062.548
405.6773, 8054.476
406.1594, 8044.458
406.6415, 8032.517
407.1237, 8037.021
407.6058, 8064.676
408.0879, 8090.109
408.5700, 8079.485
409.0521, 8032.095
409.5342, 7993.860
410.0164, 7976.113
410.4985, 7974.298
410.9806, 7980.804
411.4627, 7995.621
411.9448, 8009.660
412.4269, 8013.792
412.9091, 8011.875
413.3912, 8016.036
413.8733, 8030.435
414.3554, 8044.810
414.8375, 8045.317
415.3196, 8035.411
415.8018, 8025.223
416.2839, 8019.104
416.7660, 8016.155
417.2481, 8016.778
417.7302, 8021.346
418.2123, 8025.039
418.6945, 8021.681
419.1766, 8016.561
419.6587, 8016.391
420.1408, 8029.718
420.6229, 8042.901
421.1050, 8049.589
421.5872, 8050.370
422.0693, 8050.585
422.5514, 8052.739
423.0335, 8054.224
423.5156, 8053.351
423.9977, 8048.553
424.4799, 8042.933
424.9620, 8028.113
425.4441, 8012.564
425.9262, 8017.743
426.4083, 8070.118
426.8904, 8113.032
427.3726, 8125.502
427.8547, 8098.085
428.3368, 8083.025
428.8189, 8087.992
429.3010, 8097.627
429.7831, 8091.477
430.2653, 8062.248
430.7474, 8043.109
431.2295, 8042.647
431.7116, 8058.618
432.1937, 8082.266
432.6758, 8116.968
433.1580, 8144.224
433.6401, 8141.102
434.1222, 8111.701
434.6043, 8103.290
435.0864, 8125.815
435.5685, 8162.038
436.0507, 8190.308
436.5328, 8209.687
437.0149, 8215.349
437.4970, 8192.502
437.9791, 8157.919
438.4612, 8142.209
438.9434, 8147.455
439.4255, 8155.968
439.9076, 8149.587
440.3897, 8137.398
440.8718, 8134.308
441.3539, 8161.103
441.8361, 8184.116
442.3182, 8178.466
442.8003, 8149.348
443.2824, 8120.362
443.7645, 8088.834
444.2466, 8069.703
444.7288, 8076.804
445.2109, 8131.451
445.6930, 8172.443
446.1751, 8178.815
446.6572, 8164.791
447.1393, 8154.725
447.6215, 8153.724
448.1036, 8153.994
448.5857, 8153.936
449.0678, 8153.569
449.5499, 8151.580
450.0320, 8143.433
450.5142, 8138.506
450.9963, 8145.112
451.4784, 8166.503
451.9605, 8192.797
452.4426, 8229.899
452.9247, 8268.030
453.4069, 8271.883
453.8890, 8233.499
454.3711, 8200.219
454.8532, 8202.731
455.3353, 8237.614
455.8174, 8259.946
456.2996, 8265.166
456.7817, 8269.478
457.2638, 8302.929
457.7459, 8355.972
458.2281, 8390.266
458.7102, 8384.922
459.1923, 8356.620
459.6744, 8320.847
460.1565, 8279.423
460.6386, 8252.189
461.1208, 8264.218
461.6029, 8292.531
462.0850, 8309.268
462.5671, 8302.316
463.0492, 8299.797
463.5313, 8328.367
464.0135, 8372.432
464.4956, 8400.938
464.9777, 8391.612
465.4598, 8375.999
465.9419, 8366.254
466.4240, 8363.379
466.9062, 8362.934
467.3883, 8364.067
467.8704, 8366.876
468.3525, 8371.438
468.8346, 8378.312
469.3167, 8384.471
469.7989, 8385.148
470.2810, 8384.538
470.7631, 8401.662
471.2452, 8450.900
471.7273, 8488.949
472.2094, 8493.935
472.6916, 8462.832
473.1737, 8427.542
473.6558, 8384.086
474.1379, 8347.467
474.6200, 8344.552
475.1021, 8374.049
475.5843, 8389.879
476.0664, 8372.912
476.5485, 8338.756
477.0306, 8318.574
477.5127, 8312.123
477.9948, 8318.307
478.4770, 8351.018
478.9591, 8391.499
479.4412, 8406.854
479.9233, 8387.305
480.4054, 8360.566
480.8875, 8346.229
481.3697, 8340.079
481.8518, 8335.319
482.3339, 8329.494
482.8160, 8323.802
483.2981, 8319.578
483.7802, 8316.601
484.2624, 8311.590
484.7445, 8295.835
485.2266, 8282.779
485.7087, 8281.370
486.1908, 8312.235
486.6729, 8327.036
487.1551, 8314.248
487.6372, 8287.326
488.1193, 8272.456
488.6014, 8275.393
489.0835, 8281.047
489.5656, 8284.838
490.0478, 8286.795
490.5299, 8296.022
491.0120, 8318.268
491.4941, 8334.069
491.9762, 8319.067
492.4583, 8273.523
492.9405, 8243.317
493.4226, 8237.397
493.9047, 8246.557
494.3868, 8257.857
494.8689, 8270.577
495.3510, 8280.792
495.8332, 8282.534
496.3153, 8281.467
496.7974, 8287.919
497.2795, 8302.324
497.7616, 8315.427
498.2437, 8323.016
498.7259, 8324.272
499.2080, 8317.390
499.6901, 8290.226
500.1722, 8269.934
500.6543, 8280.217
501.1364, 8308.326
501.6186, 8319.704
502.1007, 8285.835
502.5828, 8250.003
503.0649, 8228.446
503.5470, 8223.859
504.0291, 8230.181
504.5113, 8258.298
504.9934, 8289.526
505.4755, 8307.076
505.9576, 8307.715
506.4397, 8301.061
506.9218, 8282.842
507.4040, 8260.057
507.8861, 8257.025
508.3682, 8276.313
508.8503, 8302.235
509.3324, 8330.377
509.8145, 8359.397
510.2967, 8377.823
510.7788, 8384.419
511.2609, 8385.995
511.7430, 8384.655
512.2252, 8383.666
512.7073, 8394.289
513.1894, 8429.527
513.6715, 8464.551
514.1536, 8472.222
514.6357, 8456.889
515.1179, 8433.589
515.6000, 8404.269
516.0821, 8374.443
516.5642, 8340.594
517.0463, 8297.001
517.5284, 8284.668
518.0106, 8357.683
518.4927, 8450.168
518.9748, 8496.880
519.4569, 8434.805
519.9390, 8391.477
520.4211, 8390.611
520.9033, 8419.306
521.3854, 8428.560
521.8675, 8404.812
522.3496, 8384.460
522.8317, 8385.221
523.3138, 8410.301
523.7960, 8422.782
524.2781, 8420.925
524.7602, 8411.839
525.2423, 8400.014
525.7244, 8386.146
526.2065, 8378.962
526.6887, 8381.400
527.1708, 8390.234
527.6529, 8403.217
528.1350, 8418.847
528.6171, 8430.353
529.0992, 8425.927
529.5814, 8419.300
530.0635, 8428.988
530.5456, 8456.587
531.0277, 8481.950
531.5098, 8494.736
531.9919, 8497.764
532.4741, 8493.446
532.9562, 8468.236
533.4383, 8452.734
533.9204, 8459.261
534.4025, 8481.131
534.8846, 8501.091
535.3668, 8526.005
535.8489, 8540.144
536.3310, 8536.905
536.8131, 8514.826
537.2952, 8496.675
537.7773, 8482.713
538.2595, 8473.224
538.7416, 8467.589
539.2237, 8465.629
539.7058, 8474.584
540.1879, 8499.600
540.6700, 8528.186
541.1522, 8533.731
541.6343, 8519.667
542.1164, 8512.261
542.5985, 8535.730
543.0806, 8567.933
543.5627, 8569.727
544.0449, 8543.062
544.5270, 8514.180
545.0091, 8491.170
545.4912, 8479.355
545.9733, 8487.609
546.4554, 8527.805
546.9376, 8561.492
547.4197, 8565.069
547.9018, 8554.325
548.3839, 8552.021
548.8660, 8584.433
549.3481, 8602.197
549.8303, 8588.468
550.3124, 8547.417
550.7945, 8513.514
551.2766, 8483.743
551.7587, 8466.606
552.2408, 8470.260
552.7230, 8499.604
553.2051, 8521.564
553.6872, 8536.489
554.1693, 8543.076
554.6514, 8531.526
555.1335, 8504.860
555.6157, 8497.021
556.0978, 8525.229
556.5799, 8565.801
557.0620, 8583.187
557.5441, 8579.778
558.0262, 8566.361
558.5084, 8537.204
558.9905, 8508.648
559.4726, 8499.063
559.9547, 8511.010
560.4368, 8520.623
560.9189, 8518.112
561.4011, 8507.458
561.8832, 8491.738
562.3653, 8446.829
562.8474, 8427.830
563.3295, 8464.875
563.8116, 8528.906
564.2938, 8563.516
564.7759, 8555.844
565.2580, 8539.664
565.7401, 8517.413
566.2222, 8491.362
566.7043, 8499.140
567.1865, 8549.106
567.6686, 8600.048
568.1507, 8619.518
568.6328, 8611.384
569.1149, 8599.129
569.5970, 8582.367
570.0792, 8572.109
570.5613, 8586.761
571.0434, 8617.795
571.5255, 8646.370
572.0076, 8669.782
572.4897, 8683.194
572.9719, 8675.596
573.4540, 8652.634
573.9361, 8635.739
574.4182, 8639.653
574.9003, 8647.223
575.3824, 8649.911
575.8646, 8646.318
576.3467, 8640.987
576.8288, 8629.289
577.3109, 8619.772
577.7930, 8620.844
578.2751, 8641.530
578.7573, 8650.395
579.2394, 8641.725
579.7215, 8623.175
580.2036, 8609.344
580.6857, 8600.519
581.1678, 8594.974
581.6500, 8594.073
582.1321, 8595.462
582.6142, 8593.024
583.0963, 8586.878
583.5784, 8576.915
584.0605, 8548.999
584.5427, 8522.999
585.0248, 8533.177
585.5069, 8592.541
585.9890, 8644.626
586.4711, 8645.959
586.9532, 8624.354
587.4354, 8611.992
587.9175, 8636.328
588.3996, 8649.042
588.8817, 8623.666
589.3638, 8576.420
589.8459, 8564.504
590.3281, 8611.673
590.8102, 8659.578
591.2923, 8692.216
591.7744, 8709.654
592.2565, 8697.138
592.7386, 8645.885
593.2208, 8594.682
593.7029, 8577.218
594.1850, 8589.907
594.6671, 8610.948
595.1492, 8640.563
595.6313, 8667.777
596.1135, 8676.380
596.5956, 8672.697
597.0777, 8671.126
597.5598, 8685.665
598.0419, 8696.727
598.5240, 8678.584
599.0062, 8643.066
599.4883, 8631.805
599.9704, 8694.321
600.4525, 8754.652
600.9346, 8772.850
601.4167, 8735.497
601.8989, 8711.986
602.3810, 8706.903
602.8631, 8711.870
603.3452, 8724.503
603.8273, 8750.748
604.3094, 8755.836
604.7916, 8728.379
605.2737, 8693.500
605.7558, 8698.466
606.2379, 8739.568
606.7200, 8771.519
607.2021, 8774.696
607.6843, 8763.820
608.1664, 8762.652
608.6485, 8769.385
609.1306, 8774.701
609.6127, 8765.840
610.0948, 8758.109
610.5770, 8770.773
611.0591, 8808.030
611.5412, 8828.323
612.0233, 8801.538
612.5054, 8761.456
612.9875, 8733.915
613.4697, 8731.187
613.9518, 8726.209
614.4339, 8714.654
614.9160, 8703.518
615.3981, 8706.064
615.8802, 8726.288
616.3624, 8743.695
616.8445, 8752.905
617.3266, 8755.676
617.8087, 8755.561
618.2908, 8752.742
618.7729, 8751.666
619.2551, 8759.086
619.7372, 8768.390
620.2193, 8766.968
620.7014, 8754.302
621.1835, 8742.220
621.6656, 8734.808
622.1478, 8734.090
622.6299, 8742.937
623.1120, 8766.540
623.5941, 8790.267
624.0762, 8822.372
624.5583, 8848.596
625.0405, 8846.915
625.5226, 8790.804
626.0047, 8750.951
626.4868, 8739.520
626.9689, 8751.155
627.4510, 8770.771
627.9332, 8800.354
628.4153, 8825.717
628.8974, 8841.055
629.3795, 8846.497
629.8616, 8838.108
630.3438, 8816.020
630.8259, 8799.169
631.3080, 8813.491
631.7901, 8837.839
632.2722, 8839.335
632.7543, 8806.444
633.2365, 8778.885
633.7186, 8783.892
634.2007, 8803.728
634.6828, 8818.427
635.1649, 8827.130
635.6470, 8826.423
636.1292, 8805.208
636.6113, 8776.459
637.0934, 8771.894
637.5755, 8801.829
638.0576, 8831.760
638.5397, 8853.323
639.0219, 8866.208
639.5040, 8866.300
639.9861, 8852.641
640.4682, 8839.766
640.9503, 8838.029
641.4324, 8844.194
641.9146, 8852.221
642.3967, 8861.677
642.8788, 8870.563
643.3609, 8876.740
643.8430, 8881.498
644.3251, 8886.156
644.8073, 8890.769
645.2894, 8895.717
645.7715, 8904.134
646.2536, 8912.250
646.7357, 8913.823
647.2178, 8901.799
647.7000, 8894.516
648.1821, 8897.066
648.6642, 8906.216
649.1463, 8909.479
649.6284, 8905.602
650.1105, 8903.984
650.5927, 8912.751
651.0748, 8927.091
651.5569, 8925.975
652.0390, 8909.877
652.5211, 8895.271
