##NAMES=Mordenite
##RRUFFID=R061118
##IDEAL CHEMISTRY=(Na_2_,Ca,K_2_)_4_(Al_8_Si_40_)O_96_&#183;28H_2_O
##LOCALITY=Chipman's Brook, Nova Scotia, Canada
##OWNER=RRUFF
##SOURCE=Michael Scott
##DESCRIPTION=Water worn white pebbles
##STATUS=The identification of this mineral has been confirmed by X-ray diffraction and chemical analysis
##URL=rruff.info/R061118
##MEASURED CHEMISTRY=(Na_5.47_Ca_0.29_K_2.01_)_Σ=7.77_(Al_8.06_Si_39.94_)O_96_·28H_2_O; H_2_O estimated by difference
169.9485, 8587.222
170.4306, 8612.821
170.9127, 8638.045
171.3948, 8662.929
171.8769, 8687.896
172.3590, 8712.854
172.8412, 8735.614
173.3233, 8749.415
173.8054, 8760.211
174.2875, 8777.941
174.7696, 8814.239
175.2517, 8856.134
175.7339, 8888.739
176.2160, 8912.242
176.6981, 8927.677
177.1802, 8925.867
177.6623, 8915.265
178.1444, 8918.729
178.6266, 8960.463
179.1087, 9020.272
179.5908, 9059.714
180.0729, 9074.914
180.5550, 9081.325
181.0371, 9095.036
181.5193, 9115.027
182.0014, 9135.794
182.4835, 9151.282
182.9656, 9165.256
183.4477, 9190.144
183.9299, 9229.668
184.4120, 9273.718
184.8941, 9306.905
185.3762, 9330.144
185.8583, 9350.916
186.3404, 9373.911
186.8226, 9398.506
187.3047, 9424.357
187.7868, 9454.132
188.2689, 9481.356
188.7510, 9488.121
189.2331, 9473.823
189.7153, 9459.767
190.1974, 9459.738
190.6795, 9473.552
191.1616, 9503.208
191.6437, 9558.001
192.1258, 9624.291
192.6080, 9653.980
193.0901, 9643.014
193.5722, 9626.116
194.0543, 9638.964
194.5364, 9681.188
195.0185, 9717.939
195.5007, 9742.448
195.9828, 9754.302
196.4649, 9744.064
196.9470, 9704.533
197.4291, 9667.231
197.9112, 9672.903
198.3934, 9725.591
198.8755, 9776.565
199.3576, 9810.862
199.8397, 9829.409
200.3218, 9849.017
200.8039, 9871.573
201.2861, 9891.217
201.7682, 9895.310
202.2503, 9879.104
202.7324, 9873.035
203.2145, 9891.952
203.6966, 9937.949
204.1788, 9976.950
204.6609, 10010.00
205.1430, 10034.06
205.6251, 10040.40
206.1072, 10023.88
206.5893, 10007.82
207.0715, 10000.10
207.5536, 10000.29
208.0357, 10013.31
208.5178, 10043.91
208.9999, 10083.41
209.4820, 10113.81
209.9642, 10132.85
210.4463, 10148.71
210.9284, 10166.24
211.4105, 10187.45
211.8926, 10201.07
212.3748, 10204.10
212.8569, 10200.42
213.3390, 10200.79
213.8211, 10205.43
214.3032, 10213.59
214.7853, 10225.93
215.2675, 10244.49
215.7496, 10259.86
216.2317, 10269.41
216.7138, 10275.45
217.1959, 10288.04
217.6780, 10309.91
218.1602, 10333.82
218.6423, 10354.97
219.1244, 10372.44
219.6065, 10390.20
220.0886, 10409.62
220.5707, 10430.13
221.0529, 10446.06
221.5350, 10454.80
222.0171, 10463.12
222.4992, 10477.44
222.9813, 10503.75
223.4634, 10521.12
223.9456, 10522.22
224.4277, 10509.17
224.9098, 10510.72
225.3919, 10537.16
225.8740, 10565.41
226.3561, 10574.04
226.8383, 10547.18
227.3204, 10534.10
227.8025, 10546.45
228.2846, 10583.63
228.7667, 10615.95
229.2488, 10643.26
229.7310, 10665.10
230.2131, 10680.70
230.6952, 10687.71
231.1773, 10692.43
231.6594, 10693.42
232.1415, 10690.06
232.6237, 10698.47
233.1058, 10724.65
233.5879, 10756.94
234.0700, 10783.74
234.5521, 10804.20
235.0342, 10820.33
235.5164, 10828.90
235.9985, 10827.77
236.4806, 10843.50
236.9627, 10889.24
237.4448, 10940.01
237.9269, 10966.01
238.4091, 10952.11
238.8912, 10939.46
239.3733, 10938.81
239.8554, 10952.49
240.3375, 10960.83
240.8196, 10960.17
241.3018, 10957.04
241.7839, 10959.03
242.2660, 10965.12
242.7481, 10978.42
243.2302, 11002.85
243.7124, 11042.28
244.1945, 11069.73
244.6766, 11081.39
245.1587, 11083.85
245.6408, 11085.43
246.1229, 11083.80
246.6051, 11085.41
247.0872, 11092.65
247.5693, 11106.72
248.0514, 11120.74
248.5335, 11135.63
249.0156, 11149.89
249.4978, 11160.16
249.9799, 11161.69
250.4620, 11168.11
250.9441, 11186.40
251.4262, 11222.12
251.9083, 11243.48
252.3905, 11244.74
252.8726, 11235.53
253.3547, 11228.68
253.8368, 11216.91
254.3189, 11221.83
254.8010, 11257.50
255.2832, 11337.44
255.7653, 11385.16
256.2474, 11385.68
256.7295, 11364.79
257.2116, 11366.07
257.6937, 11399.40
258.1758, 11434.07
258.6580, 11459.61
259.1401, 11474.85
259.6222, 11487.10
260.1043, 11494.90
260.5865, 11500.81
261.0686, 11510.52
261.5507, 11528.39
262.0328, 11539.52
262.5149, 11533.00
262.9970, 11500.14
263.4792, 11498.56
263.9613, 11542.27
264.4434, 11604.24
264.9255, 11637.23
265.4076, 11631.86
265.8897, 11622.88
266.3719, 11621.98
266.8540, 11629.68
267.3361, 11642.64
267.8182, 11662.36
268.3003, 11685.48
268.7824, 11706.47
269.2646, 11724.14
269.7467, 11743.29
270.2288, 11770.55
270.7109, 11809.03
271.1930, 11822.56
271.6751, 11802.49
272.1573, 11769.17
272.6394, 11754.25
273.1215, 11759.22
273.6036, 11776.38
274.0857, 11807.17
274.5678, 11852.79
275.0500, 11888.71
275.5321, 11913.47
276.0142, 11931.53
276.4963, 11949.39
276.9784, 11967.09
277.4605, 11984.71
277.9427, 12006.74
278.4248, 12032.93
278.9069, 12034.79
279.3890, 12002.88
279.8711, 11966.77
280.3532, 11976.57
280.8354, 12036.63
281.3175, 12091.16
281.7996, 12114.19
282.2817, 12108.73
282.7638, 12108.68
283.2459, 12114.17
283.7281, 12124.66
284.2102, 12141.53
284.6923, 12164.81
285.1744, 12186.81
285.6565, 12204.55
286.1386, 12218.39
286.6208, 12226.58
287.1029, 12226.51
287.5850, 12231.72
288.0671, 12271.23
288.5492, 12340.67
289.0313, 12387.77
289.5135, 12377.79
289.9956, 12328.85
290.4777, 12307.21
290.9598, 12314.49
291.4419, 12335.98
291.9240, 12358.25
292.4062, 12381.51
292.8883, 12406.30
293.3704, 12433.54
293.8525, 12462.37
294.3346, 12491.16
294.8167, 12519.55
295.2989, 12549.25
295.7810, 12590.04
296.2631, 12635.06
296.7452, 12662.09
297.2273, 12649.30
297.7094, 12620.38
298.1916, 12615.31
298.6737, 12634.07
299.1558, 12662.93
299.6379, 12698.04
300.1200, 12734.25
300.6021, 12760.77
301.0843, 12772.06
301.5664, 12772.92
302.0485, 12755.49
302.5306, 12722.74
303.0127, 12715.61
303.4948, 12803.21
303.9770, 12930.25
304.4591, 13007.11
304.9412, 12981.08
305.4233, 12917.42
305.9054, 12864.03
306.3875, 12823.00
306.8697, 12806.78
307.3518, 12846.14
307.8339, 12907.98
308.3160, 12951.73
308.7981, 12959.98
309.2802, 12955.36
309.7624, 12946.42
310.2445, 12935.97
310.7266, 12936.03
311.2087, 12963.96
311.6908, 13000.23
312.1729, 13027.45
312.6551, 13042.45
313.1372, 13046.84
313.6193, 13028.01
314.1014, 12996.60
314.5835, 12984.77
315.0656, 13027.37
315.5478, 13081.32
316.0299, 13116.68
316.5120, 13120.62
316.9941, 13119.64
317.4762, 13113.57
317.9583, 13109.45
318.4405, 13122.91
318.9226, 13181.52
319.4047, 13242.15
319.8868, 13283.62
320.3690, 13299.86
320.8511, 13304.72
321.3332, 13288.87
321.8153, 13265.21
322.2974, 13255.98
322.7795, 13284.65
323.2617, 13311.71
323.7438, 13319.01
324.2259, 13292.33
324.7080, 13285.27
325.1901, 13322.37
325.6722, 13377.16
326.1544, 13412.83
326.6365, 13413.88
327.1186, 13409.46
327.6007, 13402.14
328.0828, 13387.85
328.5649, 13390.09
329.0471, 13420.28
329.5292, 13461.08
330.0113, 13495.08
330.4934, 13526.26
330.9755, 13544.85
331.4576, 13542.02
331.9398, 13516.08
332.4219, 13512.46
332.9040, 13545.23
333.3861, 13586.23
333.8682, 13609.95
334.3503, 13609.00
334.8325, 13608.07
335.3146, 13609.90
335.7967, 13614.73
336.2788, 13625.59
336.7609, 13645.70
337.2430, 13665.77
337.7252, 13677.18
338.2073, 13677.82
338.6894, 13682.15
339.1715, 13694.49
339.6536, 13710.66
340.1357, 13713.07
340.6179, 13697.77
341.1000, 13685.98
341.5821, 13696.33
342.0642, 13728.67
342.5463, 13748.61
343.0284, 13750.55
343.5106, 13742.09
343.9927, 13731.92
344.4748, 13719.88
344.9569, 13722.66
345.4390, 13761.53
345.9211, 13826.70
346.4033, 13869.75
346.8854, 13884.33
347.3675, 13889.32
347.8496, 13909.50
348.3317, 13942.45
348.8138, 13976.78
349.2960, 14012.45
349.7781, 14044.08
350.2602, 14057.66
350.7423, 14050.91
351.2244, 14044.61
351.7065, 14065.20
352.1887, 14101.84
352.6708, 14129.52
353.1529, 14124.24
353.6350, 14112.71
354.1171, 14132.31
354.5992, 14181.05
355.0814, 14218.43
355.5635, 14197.60
356.0456, 14153.55
356.5277, 14131.99
357.0098, 14161.44
357.4919, 14203.98
357.9741, 14238.78
358.4562, 14266.57
358.9383, 14291.91
359.4204, 14319.25
359.9025, 14343.56
360.3846, 14360.01
360.8668, 14360.93
361.3489, 14364.07
361.8310, 14377.32
362.3131, 14397.95
362.7952, 14418.96
363.2773, 14444.29
363.7595, 14464.63
364.2416, 14473.16
364.7237, 14459.90
365.2058, 14456.37
365.6879, 14475.02
366.1700, 14505.15
366.6522, 14529.36
367.1343, 14532.93
367.6164, 14542.85
368.0985, 14568.48
368.5806, 14614.09
369.0627, 14656.68
369.5449, 14693.35
370.0270, 14728.55
370.5091, 14769.41
370.9912, 14830.05
371.4733, 14873.09
371.9554, 14883.81
372.4376, 14863.59
372.9197, 14864.33
373.4018, 14897.65
373.8839, 14934.86
374.3660, 14952.20
374.8481, 14944.16
375.3303, 14935.35
375.8124, 14924.83
376.2945, 14917.38
376.7766, 14931.80
377.2587, 14971.57
377.7408, 15018.47
378.2230, 15064.31
378.7051, 15108.64
379.1872, 15144.54
379.6693, 15167.12
380.1514, 15189.00
380.6335, 15239.66
381.1157, 15317.81
381.5978, 15383.28
382.0799, 15405.15
382.5620, 15397.99
383.0442, 15406.41
383.5263, 15432.75
384.0084, 15468.01
384.4905, 15506.93
384.9726, 15547.95
385.4547, 15585.94
385.9369, 15619.91
386.4190, 15650.02
386.9011, 15673.67
387.3832, 15691.65
387.8653, 15713.30
388.3474, 15748.78
388.8296, 15791.05
389.3117, 15830.51
389.7938, 15861.69
390.2759, 15892.06
390.7580, 15934.03
391.2401, 15981.41
391.7223, 16012.37
392.2044, 15999.33
392.6865, 15977.50
393.1686, 15970.63
393.6507, 15987.09
394.1328, 16009.78
394.6150, 16038.88
395.0971, 16070.06
395.5792, 16095.69
396.0613, 16121.53
396.5434, 16134.83
397.0255, 16118.35
397.5077, 16052.27
397.9898, 16039.30
398.4719, 16140.75
398.9540, 16272.37
399.4361, 16353.38
399.9182, 16352.31
400.4004, 16343.57
400.8825, 16345.14
401.3646, 16354.46
401.8467, 16318.07
402.3288, 16200.10
402.8109, 16087.97
403.2931, 16045.96
403.7752, 16094.72
404.2573, 16145.22
404.7394, 16198.91
405.2215, 16243.64
405.7036, 16236.22
406.1858, 16166.00
406.6679, 16101.21
407.1500, 16081.79
407.6321, 16105.38
408.1142, 16123.60
408.5963, 16135.53
409.0785, 16140.31
409.5606, 16129.68
410.0427, 16106.81
410.5248, 16095.45
411.0069, 16112.25
411.4890, 16143.87
411.9712, 16164.43
412.4533, 16174.10
412.9354, 16173.24
413.4175, 16153.44
413.8996, 16124.80
414.3817, 16104.05
414.8639, 16092.91
415.3460, 16095.65
415.8281, 16126.89
416.3102, 16178.23
416.7923, 16220.84
417.2744, 16227.45
417.7566, 16224.93
418.2387, 16237.25
418.7208, 16276.18
419.2029, 16303.87
419.6850, 16289.63
420.1671, 16257.44
420.6493, 16242.85
421.1314, 16269.26
421.6135, 16302.56
422.0956, 16337.48
422.5777, 16374.91
423.0598, 16394.04
423.5420, 16366.78
424.0241, 16334.91
424.5062, 16330.53
424.9883, 16373.23
425.4704, 16417.40
425.9525, 16467.20
426.4347, 16517.23
426.9168, 16542.29
427.3989, 16528.55
427.8810, 16512.41
428.3631, 16511.58
428.8452, 16528.51
429.3274, 16551.88
429.8095, 16584.85
430.2916, 16619.24
430.7737, 16643.18
431.2558, 16656.73
431.7379, 16657.96
432.2201, 16635.04
432.7022, 16597.95
433.1843, 16598.62
433.6664, 16639.14
434.1485, 16696.15
434.6306, 16763.79
435.1128, 16832.65
435.5949, 16866.69
436.0770, 16842.89
436.5591, 16802.17
437.0412, 16804.89
437.5233, 16841.94
438.0055, 16875.22
438.4876, 16872.19
438.9697, 16857.77
439.4518, 16860.60
439.9339, 16887.07
440.4160, 16916.67
440.8982, 16938.19
441.3803, 16954.32
441.8624, 16969.36
442.3445, 16989.81
442.8266, 17004.93
443.3088, 17008.70
443.7909, 17001.18
444.2730, 16991.72
444.7551, 16963.96
445.2372, 16946.67
445.7194, 16958.50
446.2015, 17061.99
446.6836, 17118.85
447.1657, 17097.47
447.6478, 17027.92
448.1299, 16991.46
448.6121, 17004.78
449.0942, 17027.47
449.5763, 17046.04
450.0584, 17060.23
450.5405, 17072.20
451.0226, 17080.32
451.5048, 17088.94
451.9869, 17101.68
452.4690, 17117.92
452.9511, 17145.34
453.4332, 17190.59
453.9153, 17246.05
454.3975, 17285.54
454.8796, 17309.12
455.3617, 17325.13
455.8438, 17335.39
456.3259, 17342.78
456.8080, 17356.73
457.2902, 17378.88
457.7723, 17405.47
458.2544, 17433.72
458.7365, 17463.04
459.2186, 17491.11
459.7007, 17510.22
460.1829, 17532.25
460.6650, 17572.63
461.1471, 17631.18
461.6292, 17684.58
462.1113, 17714.51
462.5934, 17736.63
463.0756, 17765.87
463.5577, 17821.35
464.0398, 17865.70
464.5219, 17881.93
465.0040, 17878.21
465.4861, 17878.26
465.9683, 17885.10
466.4504, 17896.96
466.9325, 17911.81
467.4146, 17925.79
467.8967, 17956.95
468.3788, 18022.24
468.8610, 18091.62
469.3431, 18130.63
469.8252, 18129.00
470.3073, 18123.33
470.7894, 18120.69
471.2715, 18119.26
471.7537, 18109.25
472.2358, 18089.23
472.7179, 18067.24
473.2000, 18042.84
473.6821, 18017.97
474.1642, 18018.38
474.6464, 18052.51
475.1285, 18090.45
475.6106, 18085.07
476.0927, 18045.94
476.5748, 18013.22
477.0569, 18010.93
477.5391, 18020.74
478.0212, 18021.35
478.5033, 18012.79
478.9854, 17995.10
479.4675, 17955.85
479.9496, 17913.41
480.4318, 17887.27
480.9139, 17886.68
481.3960, 17894.03
481.8781, 17905.69
482.3602, 17919.55
482.8423, 17931.28
483.3245, 17940.06
483.8066, 17946.30
484.2887, 17949.45
484.7708, 17948.94
485.2529, 17949.34
485.7350, 17961.42
486.2172, 17966.62
486.6993, 17946.91
487.1814, 17875.38
487.6635, 17836.84
488.1456, 17852.84
488.6277, 17901.36
489.1099, 17914.69
489.5920, 17882.75
490.0741, 17854.93
490.5562, 17861.27
491.0383, 17898.70
491.5204, 17903.82
492.0026, 17869.86
492.4847, 17838.12
492.9668, 17864.45
493.4489, 17933.59
493.9310, 17990.45
494.4131, 18019.88
494.8953, 18029.25
495.3774, 18020.76
495.8595, 17997.71
496.3416, 17974.81
496.8237, 17944.70
497.3058, 17927.70
497.7880, 17951.81
498.2701, 18028.86
498.7522, 18091.49
499.2343, 18091.61
499.7164, 18065.50
500.1985, 18053.46
500.6807, 18084.88
501.1628, 18110.84
501.6449, 18113.78
502.1270, 18098.46
502.6091, 18099.09
503.0912, 18131.29
503.5734, 18163.94
504.0555, 18184.73
504.5376, 18192.55
505.0197, 18189.12
505.5019, 18165.02
505.9840, 18141.59
506.4661, 18148.81
506.9482, 18190.19
507.4303, 18240.07
507.9124, 18301.03
508.3946, 18361.16
508.8767, 18374.68
509.3588, 18342.44
509.8409, 18309.35
510.3230, 18307.93
510.8051, 18327.87
511.2873, 18349.24
511.7694, 18371.33
512.2515, 18387.11
512.7336, 18382.86
513.2157, 18369.28
513.6978, 18364.35
514.1799, 18380.69
514.6620, 18402.76
515.1442, 18419.93
515.6263, 18434.35
516.1084, 18457.21
516.5905, 18511.44
517.0726, 18560.86
517.5547, 18584.77
518.0369, 18572.43
518.5190, 18555.07
519.0011, 18520.36
519.4832, 18488.55
519.9653, 18485.85
520.4474, 18528.29
520.9296, 18567.53
521.4117, 18596.03
521.8938, 18614.41
522.3759, 18623.27
522.8580, 18620.10
523.3401, 18618.10
523.8223, 18620.06
524.3044, 18627.89
524.7865, 18663.53
525.2686, 18732.33
525.7507, 18806.30
526.2328, 18860.47
526.7150, 18893.66
527.1971, 18902.01
527.6792, 18862.35
528.1613, 18819.39
528.6434, 18826.35
529.1255, 18871.29
529.6077, 18906.04
530.0898, 18888.50
530.5719, 18863.78
531.0540, 18864.60
531.5361, 18901.50
532.0182, 18937.49
532.5004, 18961.17
532.9825, 18980.09
533.4646, 19001.87
533.9467, 19040.69
534.4288, 19064.77
534.9109, 19065.34
535.3931, 19048.73
535.8752, 19039.59
536.3574, 19039.97
536.8395, 19042.99
537.3216, 19043.19
537.8037, 19040.20
538.2858, 19053.48
538.7679, 19085.59
539.2501, 19124.31
539.7322, 19158.05
540.2143, 19187.42
540.6964, 19216.65
541.1785, 19250.54
541.6606, 19277.99
542.1428, 19270.88
542.6249, 19241.66
543.1070, 19230.68
543.5891, 19290.75
544.0712, 19355.99
544.5533, 19363.62
545.0355, 19308.53
545.5176, 19266.45
545.9997, 19274.78
546.4818, 19305.19
546.9639, 19335.98
547.4460, 19382.87
547.9282, 19403.72
548.4103, 19367.46
548.8924, 19310.15
549.3745, 19302.41
549.8566, 19372.70
550.3387, 19440.31
550.8209, 19484.29
551.3030, 19505.61
551.7851, 19512.36
552.2672, 19500.42
552.7493, 19491.56
553.2314, 19507.85
553.7136, 19544.57
554.1957, 19567.71
554.6778, 19570.16
555.1599, 19572.46
555.6420, 19610.23
556.1241, 19668.24
556.6063, 19708.52
557.0884, 19704.55
557.5705, 19685.40
558.0526, 19662.71
558.5347, 19641.15
559.0168, 19642.31
559.4990, 19704.62
559.9811, 19770.87
560.4632, 19805.13
560.9453, 19791.65
561.4274, 19785.96
561.9095, 19798.10
562.3917, 19819.60
562.8738, 19843.77
563.3559, 19872.75
563.8380, 19899.03
564.3201, 19921.08
564.8022, 19940.04
565.2844, 19960.76
565.7665, 19984.39
566.2486, 20003.61
566.7307, 20013.15
567.2128, 20015.17
567.6949, 20020.16
568.1771, 20028.21
568.6592, 20038.12
569.1413, 20047.92
569.6234, 20059.08
570.1055, 20075.72
570.5876, 20101.28
571.0698, 20125.31
571.5519, 20134.22
572.0340, 20137.10
572.5161, 20149.43
572.9982, 20202.06
573.4803, 20240.47
573.9625, 20227.02
574.4446, 20167.09
574.9267, 20145.46
575.4088, 20210.23
575.8909, 20274.02
576.3730, 20293.54
576.8552, 20250.45
577.3373, 20232.87
577.8194, 20249.89
578.3015, 20278.47
578.7836, 20284.06
579.2657, 20264.75
579.7479, 20281.56
580.2300, 20363.37
580.7121, 20464.45
581.1942, 20484.00
581.6763, 20435.84
582.1584, 20395.73
582.6406, 20418.49
583.1227, 20464.46
583.6048, 20487.92
584.0869, 20487.99
584.5690, 20487.65
585.0511, 20497.14
585.5333, 20513.26
586.0154, 20534.40
586.4975, 20566.15
586.9796, 20591.69
587.4617, 20601.50
587.9438, 20605.66
588.4260, 20619.48
588.9081, 20653.53
589.3902, 20679.17
589.8723, 20688.00
590.3544, 20684.31
590.8365, 20689.63
591.3187, 20706.46
591.8008, 20719.73
592.2829, 20711.11
592.7650, 20688.73
593.2471, 20702.98
593.7292, 20757.40
594.2114, 20817.99
594.6935, 20861.85
595.1756, 20888.24
595.6577, 20892.70
596.1398, 20862.01
596.6219, 20835.93
597.1041, 20846.72
597.5862, 20880.37
598.0683, 20911.53
598.5504, 20921.12
599.0325, 20937.51
599.5146, 20973.02
599.9968, 21026.80
600.4789, 21078.99
600.9610, 21149.47
601.4431, 21192.27
601.9252, 21172.36
602.4073, 21071.06
602.8895, 21029.31
603.3716, 21059.88
603.8537, 21118.17
604.3358, 21157.85
604.8179, 21181.02
605.3000, 21210.55
605.7822, 21256.32
606.2643, 21299.27
606.7464, 21313.16
607.2285, 21303.72
607.7106, 21287.49
608.1927, 21258.63
608.6749, 21237.00
609.1570, 21240.21
609.6391, 21266.35
610.1212, 21296.17
610.6033, 21333.48
611.0854, 21364.55
611.5676, 21378.47
612.0497, 21363.01
612.5318, 21365.26
613.0139, 21397.76
613.4960, 21436.05
613.9781, 21452.99
614.4603, 21442.70
614.9424, 21440.67
615.4245, 21453.90
615.9066, 21474.39
616.3887, 21483.92
616.8708, 21484.11
617.3530, 21492.65
617.8351, 21519.09
618.3172, 21557.15
618.7993, 21613.39
619.2814, 21680.98
619.7635, 21715.99
620.2457, 21639.12
620.7278, 21554.34
621.2099, 21555.87
621.6920, 21677.44
622.1741, 21771.99
622.6563, 21775.13
623.1384, 21749.20
623.6205, 21751.28
624.1026, 21810.01
624.5847, 21846.93
625.0668, 21847.55
625.5490, 21831.42
626.0311, 21840.15
626.5132, 21878.05
626.9953, 21907.30
627.4774, 21910.05
627.9595, 21899.02
628.4417, 21910.17
628.9238, 21941.90
629.4059, 21975.57
629.8880, 22003.71
630.3701, 22024.91
630.8522, 22033.81
631.3344, 22029.35
631.8165, 22028.98
632.2986, 22034.66
632.7807, 22052.77
633.2628, 22091.07
633.7449, 22183.97
634.2271, 22243.45
634.7092, 22243.64
635.1913, 22214.85
635.6734, 22196.75
636.1555, 22191.76
636.6376, 22192.89
637.1198, 22203.26
637.6019, 22216.25
638.0840, 22202.48
638.5661, 22161.12
639.0482, 22141.00
639.5303, 22183.12
640.0125, 22261.39
640.4946, 22324.74
640.9767, 22372.54
641.4588, 22408.50
641.9409, 22436.31
642.4230, 22452.38
642.9052, 22447.09
643.3873, 22407.28
643.8694, 22386.17
644.3515, 22427.52
644.8336, 22483.25
645.3157, 22498.61
645.7979, 22428.33
646.2800, 22390.39
646.7621, 22399.70
647.2442, 22443.37
647.7263, 22501.42
648.2084, 22580.46
648.6906, 22634.33
649.1727, 22640.23
649.6548, 22613.34
650.1369, 22582.13
650.6190, 22549.33
651.1011, 22539.47
651.5833, 22589.41
652.0654, 22660.18
652.5475, 22711.57
653.0296, 22740.30
653.5117, 22748.38
653.9938, 22707.10
654.4760, 22663.73
654.9581, 22656.99
655.4402, 22716.90
655.9223, 22771.46
656.4044, 22821.23
656.8865, 22861.66
657.3687, 22886.69
657.8508, 22894.94
658.3329, 22890.42
658.8150, 22866.97
659.2971, 22838.88
659.7793, 22842.74
660.2614, 22876.12
660.7435, 22910.41
661.2256, 22934.92
661.7078, 22951.04
662.1899, 22958.65
662.6720, 22958.68
663.1541, 22956.68
663.6362, 22961.76
664.1183, 22961.44
664.6005, 22936.71
