##NAMES=Mordenite
##RRUFFID=R061118
##IDEAL CHEMISTRY=(Na_2_,Ca,K_2_)_4_(Al_8_Si_40_)O_96_&#183;28H_2_O
##LOCALITY=Chipman's Brook, Nova Scotia, Canada
##OWNER=RRUFF
##SOURCE=Michael Scott
##DESCRIPTION=Water worn white pebbles
##STATUS=The identification of this mineral has been confirmed by X-ray diffraction and chemical analysis
##URL=rruff.info/R061118
##MEASURED CHEMISTRY=(Na_5.47_Ca_0.29_K_2.01_)_Σ=7.77_(Al_8.06_Si_39.94_)O_96_·28H_2_O; H_2_O estimated by difference
174.3429, 1830.276
174.8250, 1839.931
175.3071, 1834.326
175.7892, 1822.473
176.2713, 1819.252
176.7534, 1830.456
177.2356, 1847.842
177.7177, 1855.853
178.1998, 1852.099
178.6819, 1850.372
179.1640, 1857.731
179.6461, 1868.500
180.1283, 1872.188
180.6104, 1864.545
181.0925, 1853.139
181.5746, 1850.175
182.0567, 1855.536
182.5388, 1863.761
183.0210, 1875.160
183.5031, 1888.126
183.9852, 1900.935
184.4673, 1914.279
184.9494, 1924.293
185.4315, 1920.771
185.9137, 1902.943
186.3958, 1894.024
186.8779, 1909.169
187.3600, 1936.105
187.8421, 1953.063
188.3242, 1954.383
188.8064, 1948.425
189.2885, 1943.039
189.7706, 1938.031
190.2527, 1936.057
190.7348, 1941.753
191.2169, 1950.209
191.6991, 1951.453
192.1812, 1942.005
192.6633, 1931.220
193.1454, 1930.093
193.6275, 1936.884
194.1096, 1943.926
194.5918, 1949.546
195.0739, 1953.739
195.5560, 1956.220
196.0381, 1956.624
196.5202, 1956.391
197.0023, 1956.649
197.4845, 1957.310
197.9666, 1958.256
198.4487, 1960.963
198.9308, 1963.466
199.4129, 1961.087
199.8950, 1951.776
200.3772, 1944.260
200.8593, 1950.484
201.3414, 1964.618
201.8235, 1972.681
202.3056, 1964.301
202.7877, 1950.082
203.2699, 1946.512
203.7520, 1956.113
204.2341, 1966.348
204.7162, 1968.206
205.1983, 1964.388
205.6804, 1959.430
206.1626, 1953.726
206.6447, 1947.809
207.1268, 1941.691
207.6089, 1935.022
208.0910, 1930.532
208.5731, 1930.647
209.0553, 1933.974
209.5374, 1938.943
210.0195, 1948.593
210.5016, 1956.370
210.9837, 1951.466
211.4658, 1932.440
211.9480, 1918.942
212.4301, 1926.654
212.9122, 1943.724
213.3943, 1952.902
213.8764, 1950.132
214.3585, 1941.836
214.8407, 1931.424
215.3228, 1918.808
215.8049, 1911.874
216.2870, 1917.643
216.7691, 1928.817
217.2512, 1935.225
217.7334, 1934.605
218.2155, 1933.323
218.6976, 1938.836
219.1797, 1950.178
219.6618, 1955.432
220.1439, 1948.248
220.6261, 1934.790
221.1082, 1921.847
221.5903, 1908.975
222.0724, 1900.078
222.5545, 1899.602
223.0366, 1906.211
223.5188, 1912.733
224.0009, 1919.156
224.4830, 1922.562
224.9651, 1920.026
225.4472, 1911.571
225.9293, 1900.992
226.4115, 1886.141
226.8936, 1870.195
227.3757, 1864.812
227.8578, 1875.107
228.3399, 1891.087
228.8220, 1906.512
229.3041, 1920.824
229.7863, 1927.510
230.2684, 1918.467
230.7505, 1900.507
231.2326, 1888.477
231.7147, 1884.838
232.1968, 1884.620
232.6790, 1885.936
233.1611, 1887.773
233.6432, 1886.343
234.1253, 1877.261
234.6074, 1865.385
235.0895, 1858.066
235.5717, 1855.992
236.0538, 1856.119
236.5359, 1856.124
237.0180, 1856.796
237.5001, 1860.328
237.9822, 1871.676
238.4644, 1883.085
238.9465, 1884.106
239.4286, 1874.421
239.9107, 1866.602
240.3928, 1869.216
240.8749, 1878.285
241.3571, 1884.875
241.8392, 1889.540
242.3213, 1890.006
242.8034, 1880.743
243.2855, 1863.489
243.7676, 1852.035
244.2498, 1854.646
244.7319, 1865.006
245.2140, 1869.727
245.6961, 1866.531
246.1782, 1863.345
246.6603, 1865.878
247.1425, 1872.038
247.6246, 1874.537
248.1067, 1869.756
248.5888, 1862.538
249.0709, 1861.740
249.5530, 1868.908
250.0352, 1872.326
250.5173, 1863.362
250.9994, 1848.869
251.4815, 1840.210
251.9636, 1839.833
252.4457, 1846.245
252.9279, 1861.665
253.4100, 1886.764
253.8921, 1903.088
254.3742, 1902.557
254.8563, 1893.981
255.3384, 1886.521
255.8206, 1881.382
256.3027, 1876.705
256.7848, 1870.262
257.2669, 1862.168
257.7490, 1857.739
258.2311, 1862.678
258.7133, 1867.054
259.1954, 1861.756
259.6775, 1847.949
260.1596, 1834.665
260.6417, 1826.896
261.1238, 1825.227
261.6060, 1830.836
262.0881, 1850.660
262.5702, 1869.728
263.0523, 1882.930
263.5344, 1890.443
264.0165, 1892.229
264.4987, 1887.471
264.9808, 1878.471
265.4629, 1872.413
265.9450, 1867.930
266.4271, 1867.698
266.9092, 1877.500
267.3914, 1890.213
267.8735, 1895.286
268.3556, 1889.061
268.8377, 1877.431
269.3198, 1870.424
269.8019, 1871.482
270.2841, 1871.189
270.7662, 1865.473
271.2483, 1860.898
271.7304, 1866.084
272.2125, 1881.069
272.6946, 1894.645
273.1768, 1892.840
273.6589, 1869.072
274.1410, 1859.910
274.6231, 1876.091
275.1052, 1894.833
275.5873, 1906.742
276.0695, 1910.987
276.5516, 1908.875
277.0337, 1900.420
277.5158, 1886.020
277.9979, 1878.492
278.4800, 1883.847
278.9622, 1889.416
279.4443, 1892.270
279.9264, 1893.432
280.4085, 1894.349
280.8906, 1895.649
281.3727, 1898.074
281.8549, 1904.237
282.3370, 1916.690
282.8191, 1929.416
283.3012, 1943.239
283.7833, 1956.273
284.2654, 1968.810
284.7476, 1980.320
285.2297, 1986.734
285.7118, 1978.351
286.1939, 1943.867
286.6760, 1925.987
287.1581, 1941.407
287.6403, 1960.807
288.1224, 1966.878
288.6045, 1959.680
289.0866, 1951.259
289.5687, 1953.376
290.0508, 1966.487
290.5330, 1978.435
291.0151, 1990.229
291.4972, 1999.447
291.9793, 2003.982
292.4614, 2005.410
292.9435, 2006.996
293.4257, 2011.166
293.9078, 2016.564
294.3899, 2018.110
294.8720, 2012.901
295.3541, 2010.393
295.8362, 2014.190
296.3184, 2022.366
296.8005, 2034.456
297.2826, 2051.892
297.7647, 2068.073
298.2468, 2071.583
298.7289, 2060.830
299.2111, 2056.612
299.6932, 2071.497
300.1753, 2090.360
300.6574, 2098.426
301.1395, 2094.301
301.6216, 2088.878
302.1038, 2085.523
302.5859, 2077.178
303.0680, 2094.552
303.5501, 2105.526
304.0322, 2110.445
304.5143, 2091.169
304.9964, 2103.135
305.4785, 2102.581
305.9607, 2101.513
306.4428, 2117.877
306.9249, 2102.120
307.4070, 2118.207
307.8891, 2124.879
308.3712, 2124.204
308.8534, 2114.240
309.3355, 2108.023
309.8176, 2108.022
310.2997, 2109.653
310.7818, 2111.496
311.2639, 2113.040
311.7461, 2112.118
312.2282, 2107.069
312.7103, 2100.353
313.1924, 2098.100
313.6745, 2102.110
314.1566, 2105.630
314.6388, 2105.993
315.1209, 2105.724
315.6030, 2109.231
316.0851, 2117.293
316.5672, 2124.491
317.0493, 2124.092
317.5315, 2113.940
318.0136, 2103.910
318.4957, 2092.010
318.9778, 2081.969
319.4599, 2076.599
319.9420, 2075.252
320.4242, 2075.287
320.9063, 2074.861
321.3884, 2074.060
321.8705, 2073.831
322.3526, 2075.198
322.8347, 2075.980
323.3169, 2074.202
323.7990, 2072.197
324.2811, 2073.924
324.7632, 2080.977
325.2453, 2089.392
325.7274, 2090.485
326.2096, 2078.889
326.6917, 2071.844
327.1738, 2072.527
327.6559, 2075.869
328.1380, 2079.988
328.6201, 2083.971
329.1023, 2086.344
329.5844, 2085.559
330.0665, 2081.566
330.5486, 2076.081
331.0307, 2066.642
331.5128, 2058.824
331.9950, 2054.089
332.4771, 2052.572
332.9592, 2055.103
333.4413, 2064.008
333.9234, 2075.004
334.4055, 2079.004
334.8877, 2074.640
335.3698, 2069.420
335.8519, 2063.983
336.3340, 2060.456
336.8161, 2062.770
337.2982, 2073.037
337.7804, 2081.130
338.2625, 2075.545
338.7446, 2060.117
339.2267, 2053.295
339.7088, 2062.980
340.1909, 2074.596
340.6731, 2068.727
341.1552, 2047.614
341.6373, 2032.446
342.1194, 2031.966
342.6015, 2038.438
343.0836, 2045.487
343.5658, 2052.343
344.0479, 2054.615
344.5300, 2047.150
345.0121, 2032.536
345.4942, 2026.581
345.9763, 2038.517
346.4585, 2048.202
346.9406, 2045.787
347.4227, 2036.427
347.9048, 2029.538
348.3869, 2028.752
348.8690, 2031.302
349.3512, 2031.867
349.8333, 2013.653
350.3154, 2031.624
350.7975, 2043.195
351.2796, 2048.710
351.7617, 2030.031
352.2439, 2042.594
352.7260, 2042.637
353.2081, 2042.166
353.6902, 2059.125
354.1723, 2043.965
354.6544, 2060.648
355.1366, 2064.621
355.6187, 2074.411
356.1008, 2071.603
356.5829, 2072.686
357.0650, 2086.371
357.5471, 2093.078
358.0293, 2088.820
358.5114, 2098.980
358.9935, 2092.385
359.4756, 2110.367
359.9577, 2127.971
360.4398, 2137.279
360.9220, 2137.794
361.4041, 2133.973
361.8862, 2127.258
362.3683, 2118.586
362.8504, 2111.792
363.3326, 2105.143
363.8147, 2104.606
364.2968, 2119.881
364.7789, 2143.283
365.2610, 2160.392
365.7431, 2164.680
366.2253, 2164.302
366.7074, 2164.156
367.1895, 2164.951
367.6716, 2173.853
368.1537, 2197.741
368.6358, 2226.121
369.1180, 2237.497
369.6001, 2227.588
370.0822, 2222.199
370.5643, 2231.760
371.0464, 2247.970
371.5285, 2261.855
372.0107, 2271.863
372.4928, 2279.052
372.9749, 2283.285
373.4570, 2284.167
373.9391, 2292.355
374.4212, 2315.217
374.9034, 2336.240
375.3855, 2346.866
375.8676, 2351.778
376.3497, 2358.598
376.8318, 2370.833
377.3139, 2388.559
377.7961, 2413.765
378.2782, 2457.473
378.7603, 2487.019
379.2424, 2491.039
379.7245, 2490.836
380.2066, 2501.542
380.6888, 2522.940
381.1709, 2543.707
381.6530, 2551.923
382.1351, 2549.400
382.6172, 2556.384
383.0993, 2574.424
383.5815, 2600.329
384.0636, 2642.626
384.5457, 2687.821
385.0278, 2714.980
385.5099, 2712.497
385.9920, 2704.648
386.4742, 2725.072
386.9563, 2771.750
387.4384, 2802.173
387.9205, 2797.222
388.4026, 2782.773
388.8847, 2788.983
389.3669, 2814.860
389.8490, 2839.363
390.3311, 2855.530
390.8132, 2866.841
391.2953, 2874.881
391.7774, 2880.388
392.2596, 2891.427
392.7417, 2915.878
393.2238, 2949.912
393.7059, 2970.725
394.1880, 2971.823
394.6701, 2969.819
395.1523, 2968.115
395.6344, 2966.082
396.1165, 2964.280
396.5986, 2962.531
397.0807, 2956.609
397.5628, 2938.881
398.0450, 2902.349
398.5271, 2881.517
399.0092, 2888.123
399.4913, 2896.991
399.9734, 2899.810
400.4555, 2896.402
400.9377, 2888.307
401.4197, 2875.890
401.9019, 2860.743
402.3840, 2847.704
402.8661, 2839.160
403.3482, 2826.543
403.8303, 2804.778
404.3124, 2780.309
404.7946, 2756.694
405.2767, 2734.603
405.7588, 2714.447
406.2409, 2696.036
406.7230, 2679.662
407.2051, 2667.039
407.6873, 2659.731
408.1694, 2651.469
408.6515, 2637.472
409.1336, 2619.182
409.6157, 2600.161
410.0978, 2578.370
410.5800, 2558.903
411.0621, 2547.525
411.5442, 2540.934
412.0263, 2529.336
412.5084, 2508.726
412.9905, 2486.370
413.4727, 2473.391
413.9548, 2473.973
414.4369, 2472.629
414.9190, 2470.560
415.4011, 2465.556
415.8832, 2454.695
416.3654, 2439.473
416.8475, 2423.166
417.3296, 2406.981
417.8117, 2393.087
418.2938, 2390.998
418.7759, 2412.149
419.2581, 2426.355
419.7402, 2429.917
420.2223, 2426.299
420.7044, 2415.752
421.1865, 2399.573
421.6686, 2383.692
422.1508, 2371.901
422.6329, 2364.551
423.1150, 2367.458
423.5971, 2388.882
424.0792, 2404.412
424.5613, 2394.382
425.0435, 2371.472
425.5256, 2354.012
426.0077, 2345.157
426.4898, 2344.575
426.9719, 2356.447
427.4540, 2377.220
427.9362, 2393.603
428.4183, 2401.784
428.9004, 2405.471
429.3825, 2408.920
429.8646, 2412.264
430.3467, 2414.029
430.8289, 2410.192
431.3110, 2408.188
431.7931, 2415.331
432.2752, 2428.569
432.7573, 2438.524
433.2394, 2439.833
433.7216, 2435.958
434.2037, 2436.835
434.6858, 2447.516
435.1679, 2454.516
435.6500, 2453.854
436.1321, 2452.472
436.6143, 2456.728
437.0964, 2465.589
437.5785, 2472.004
438.0606, 2469.013
438.5427, 2458.932
439.0248, 2454.851
439.5070, 2461.619
439.9891, 2483.799
440.4712, 2488.405
440.9533, 2491.221
441.4354, 2492.344
441.9175, 2486.700
442.3997, 2489.794
442.8818, 2468.300
443.3639, 2455.042
443.8460, 2444.291
444.3281, 2439.231
444.8102, 2434.759
445.2924, 2427.141
445.7745, 2416.122
446.2566, 2402.647
446.7387, 2383.645
447.2208, 2365.617
447.7029, 2348.656
448.1851, 2335.144
448.6672, 2330.795
449.1493, 2337.355
449.6314, 2347.375
450.1135, 2348.997
450.5956, 2338.040
451.0778, 2333.753
451.5599, 2340.449
452.0420, 2349.145
452.5241, 2358.667
453.0062, 2367.248
453.4883, 2371.820
453.9705, 2370.194
454.4526, 2366.038
454.9347, 2366.181
455.4168, 2371.082
455.8989, 2376.804
456.3810, 2383.864
456.8632, 2390.071
457.3453, 2392.825
457.8274, 2392.581
458.3095, 2393.599
458.7916, 2397.042
459.2737, 2402.906
459.7559, 2410.415
460.2380, 2419.883
460.7201, 2434.861
461.2022, 2458.359
461.6843, 2486.558
462.1664, 2509.846
462.6486, 2531.096
463.1307, 2542.060
463.6128, 2529.890
464.0949, 2515.889
464.5770, 2516.199
465.0591, 2531.623
465.5413, 2556.927
466.0234, 2590.529
466.5055, 2628.291
466.9876, 2646.399
467.4697, 2629.465
467.9518, 2620.098
468.4340, 2636.941
468.9161, 2657.051
469.3982, 2658.582
469.8803, 2639.715
470.3624, 2620.895
470.8445, 2619.148
471.3267, 2629.698
471.8088, 2640.199
472.2909, 2651.777
472.7730, 2654.538
473.2551, 2638.281
473.7372, 2610.207
474.2194, 2591.240
474.7015, 2589.825
475.1836, 2581.367
475.6657, 2548.787
476.1478, 2507.187
476.6299, 2478.351
477.1121, 2465.018
477.5942, 2453.247
478.0763, 2429.871
478.5584, 2395.128
479.0405, 2364.062
479.5226, 2338.306
480.0048, 2314.170
480.4869, 2294.351
480.9690, 2274.144
481.4511, 2246.438
481.9332, 2210.185
482.4153, 2175.533
482.8975, 2154.543
483.3796, 2146.285
483.8617, 2136.928
484.3438, 2127.429
484.8259, 2114.199
485.3080, 2091.750
485.7902, 2065.107
486.2723, 2042.263
486.7544, 2026.116
487.2365, 2010.080
487.7186, 1986.045
488.2007, 1960.104
488.6829, 1948.388
489.1650, 1954.307
489.6471, 1957.272
490.1292, 1934.650
490.6113, 1885.414
491.0934, 1858.568
491.5756, 1871.272
492.0577, 1882.408
492.5398, 1882.730
493.0219, 1875.234
493.5040, 1861.765
493.9861, 1843.822
494.4683, 1826.782
494.9504, 1818.470
495.4325, 1819.185
495.9146, 1816.120
496.3967, 1809.022
496.8788, 1798.396
497.3610, 1782.286
497.8431, 1763.771
498.3252, 1746.474
498.8073, 1730.012
499.2894, 1718.639
499.7715, 1718.914
500.2536, 1726.166
500.7357, 1729.671
501.2179, 1727.518
501.7000, 1721.365
502.1821, 1711.288
502.6642, 1697.704
503.1463, 1689.790
503.6284, 1690.411
504.1106, 1692.439
504.5927, 1695.893
505.0748, 1698.903
505.5569, 1699.992
506.0390, 1698.569
506.5211, 1693.725
507.0033, 1682.003
507.4854, 1663.868
507.9675, 1659.202
508.4496, 1678.198
508.9317, 1693.138
509.4138, 1689.599
509.8960, 1678.358
510.3781, 1671.357
510.8602, 1671.207
511.3423, 1672.779
511.8244, 1674.636
512.3066, 1675.265
512.7887, 1669.691
513.2708, 1657.204
513.7529, 1647.003
514.2350, 1646.461
514.7172, 1653.544
515.1993, 1656.572
515.6814, 1654.555
516.1635, 1650.381
516.6456, 1641.943
517.1277, 1633.141
517.6099, 1626.871
518.0920, 1623.875
518.5741, 1624.840
519.0562, 1631.932
519.5383, 1642.854
520.0204, 1643.873
520.5026, 1629.105
520.9847, 1619.016
521.4668, 1610.266
521.9489, 1624.600
522.4310, 1632.534
522.9131, 1634.412
523.3953, 1612.095
523.8774, 1621.021
524.3595, 1617.427
524.8416, 1613.318
525.3237, 1626.641
525.8058, 1607.844
526.2880, 1620.890
526.7701, 1621.225
527.2522, 1627.378
527.7343, 1620.933
528.2164, 1618.379
528.6985, 1628.427
529.1807, 1631.497
529.6628, 1618.954
530.1449, 1621.565
530.6270, 1621.161
531.1091, 1612.989
531.5912, 1601.639
532.0734, 1595.952
532.5555, 1596.014
533.0376, 1602.030
533.5197, 1620.482
534.0018, 1636.900
534.4839, 1637.574
534.9661, 1625.682
535.4482, 1614.518
535.9303, 1605.053
536.4124, 1599.806
536.8945, 1603.803
537.3766, 1613.253
537.8588, 1619.577
538.3409, 1620.060
538.8230, 1616.432
539.3051, 1609.801
539.7872, 1598.835
540.2693, 1594.896
540.7515, 1604.848
541.2336, 1613.948
541.7157, 1620.239
542.1978, 1622.844
542.6799, 1619.732
543.1620, 1610.516
543.6442, 1600.673
544.1263, 1596.554
544.6084, 1596.647
545.0905, 1593.700
545.5726, 1586.619
546.0547, 1579.198
546.5369, 1571.767
547.0190, 1566.319
547.5011, 1568.532
547.9832, 1584.231
548.4653, 1594.822
548.9474, 1590.587
549.4296, 1582.076
549.9116, 1582.477
550.3937, 1589.891
550.8759, 1588.698
551.3580, 1566.150
551.8401, 1532.778
552.3222, 1527.560
552.8043, 1567.020
553.2864, 1593.124
553.7686, 1584.297
554.2507, 1570.165
554.7328, 1567.913
555.2149, 1575.577
555.6970, 1581.474
556.1791, 1579.887
556.6613, 1574.810
557.1434, 1569.436
557.6255, 1564.118
558.1076, 1560.639
558.5897, 1559.763
559.0718, 1559.443
559.5540, 1556.848
560.0361, 1551.257
560.5182, 1549.148
561.0003, 1552.927
561.4824, 1556.846
561.9645, 1560.288
562.4467, 1562.364
562.9288, 1561.231
563.4109, 1556.783
563.8930, 1552.434
564.3751, 1553.148
564.8572, 1557.644
565.3394, 1557.534
565.8215, 1552.304
566.3036, 1543.729
566.7857, 1529.134
567.2678, 1513.726
567.7499, 1506.463
568.2321, 1508.184
568.7142, 1514.600
569.1963, 1530.297
569.6784, 1545.821
570.1605, 1553.791
570.6426, 1553.897
571.1248, 1545.920
571.6069, 1529.068
572.0890, 1510.181
572.5711, 1505.332
573.0532, 1519.513
573.5353, 1531.443
574.0175, 1542.835
574.4996, 1548.567
574.9817, 1543.300
575.4638, 1531.219
575.9459, 1521.030
576.4280, 1515.726
576.9102, 1512.233
577.3923, 1506.945
577.8744, 1501.725
578.3565, 1501.553
578.8386, 1507.289
579.3207, 1515.318
579.8029, 1523.847
580.2850, 1531.959
580.7671, 1532.552
581.2492, 1514.508
581.7313, 1503.340
582.2134, 1506.286
582.6956, 1512.532
583.1777, 1513.389
583.6598, 1509.155
584.1419, 1505.746
584.6240, 1507.202
585.1061, 1511.453
585.5883, 1514.406
586.0704, 1516.125
586.5525, 1520.501
587.0346, 1530.554
587.5167, 1539.287
587.9988, 1537.617
588.4810, 1524.981
588.9631, 1516.402
589.4452, 1515.185
589.9273, 1514.717
590.4094, 1513.286
590.8915, 1510.678
591.3737, 1505.330
591.8558, 1497.661
592.3379, 1492.344
592.8200, 1495.169
593.3021, 1504.583
593.7842, 1510.322
594.2664, 1512.252
594.7485, 1510.616
595.2306, 1501.048
595.7127, 1491.336
596.1948, 1491.672
596.6769, 1502.626
597.1591, 1511.771
597.6412, 1518.416
598.1233, 1519.558
598.6054, 1507.385
599.0875, 1488.337
599.5696, 1478.236
600.0518, 1482.866
600.5339, 1493.498
601.0160, 1497.687
601.4981, 1494.523
601.9802, 1494.266
602.4623, 1499.401
602.9445, 1503.696
603.4266, 1506.723
603.9087, 1506.896
604.3908, 1500.463
604.8729, 1486.243
605.3550, 1475.034
605.8372, 1476.294
606.3193, 1481.793
606.8014, 1478.860
607.2835, 1469.076
607.7656, 1464.775
608.2477, 1472.611
608.7299, 1485.126
609.2120, 1487.737
609.6941, 1475.861
610.1762, 1468.538
610.6583, 1468.586
611.1404, 1470.222
611.6226, 1472.658
612.1047, 1475.068
612.5868, 1476.664
613.0689, 1477.305
613.5510, 1476.347
614.0331, 1471.452
614.5153, 1465.097
614.9974, 1463.221
615.4795, 1466.028
615.9616, 1468.842
616.4437, 1469.273
616.9258, 1467.603
617.4080, 1464.158
617.8901, 1455.747
618.3722, 1452.579
618.8543, 1462.133
619.3364, 1468.885
619.8185, 1459.832
620.3007, 1444.210
620.7828, 1439.644
621.2649, 1453.457
621.7470, 1471.017
622.2291, 1477.536
622.7112, 1475.520
623.1934, 1472.735
623.6755, 1469.857
624.1576, 1466.233
624.6397, 1460.465
625.1218, 1454.652
625.6039, 1454.531
626.0861, 1463.603
626.5682, 1472.093
627.0503, 1484.207
627.5324, 1491.548
628.0145, 1484.421
628.4966, 1469.766
628.9788, 1462.561
629.4609, 1469.499
629.9430, 1479.225
630.4251, 1476.871
630.9072, 1465.172
631.3893, 1456.853
631.8715, 1453.068
632.3536, 1453.387
632.8357, 1459.837
633.3178, 1468.735
633.7999, 1468.904
634.2820, 1453.769
634.7642, 1444.051
635.2463, 1447.056
635.7284, 1450.243
636.2105, 1443.561
636.6926, 1431.413
637.1747, 1424.305
637.6569, 1426.805
638.1390, 1433.039
638.6211, 1437.230
639.1032, 1439.050
639.5853, 1433.744
640.0674, 1418.393
640.5496, 1411.711
641.0317, 1429.893
641.5138, 1460.482
641.9959, 1469.451
642.4780, 1446.088
642.9601, 1428.750
643.4423, 1421.060
643.9244, 1419.319
644.4065, 1425.438
644.8886, 1434.849
645.3707, 1439.360
645.8528, 1435.666
646.3350, 1428.854
646.8171, 1424.123
647.2992, 1421.437
647.7813, 1421.863
648.2634, 1426.362
648.7455, 1427.420
649.2277, 1419.974
649.7098, 1407.534
650.1919, 1396.747
650.6740, 1385.508
651.1561, 1382.123
651.6382, 1394.165
652.1204, 1407.017
652.6025, 1412.039
653.0846, 1412.819
653.5667, 1418.180
654.0488, 1430.762
654.5309, 1439.533
655.0131, 1428.370
655.4952, 1403.459
655.9773, 1386.819
656.4594, 1379.095
656.9415, 1381.399
657.4236, 1397.745
657.9058, 1418.994
658.3879, 1429.648
658.8700, 1426.792
659.3521, 1422.558
659.8342, 1418.027
660.3163, 1410.924
660.7985, 1396.180
661.2806, 1380.210
661.7627, 1371.927
662.2448, 1373.219
662.7269, 1378.283
663.2090, 1383.904
663.6912, 1389.134
664.1733, 1392.038
664.6554, 1392.569
665.1375, 1389.521
665.6196, 1381.064
666.1017, 1373.344
666.5839, 1375.530
667.0660, 1389.679
667.5481, 1397.184
668.0302, 1392.899
668.5123, 1388.888
668.9944, 1389.533
