##NAMES=Mottramite
##RRUFFID=R050517
##IDEAL CHEMISTRY=Pb^2+^Cu^2+^V^5+^O_4_(OH)
##LOCALITY=Tsumeb mine, Tsumeb, Otavi District, Oshikoto, Namibia
##OWNER=RRUFF
##SOURCE=University of Arizona Mineral Museum
##DESCRIPTION=Coating of green prismatic crystals
##STATUS=The identification of this mineral has been confirmed by X-ray diffraction and chemical analysis
##URL=rruff.info/R050517
##MEASURED CHEMISTRY=Pb_1.00_Cu_1.00_((V_0.88_As_0.12_)_Î£=1_O_4_)(OH)
132.0062, 1294.162
132.4883, 1302.159
132.9705, 1311.485
133.4526, 1309.241
133.9347, 1281.779
134.4168, 1254.122
134.8989, 1242.497
135.3810, 1250.372
135.8632, 1271.917
136.3453, 1299.200
136.8274, 1337.940
137.3095, 1371.529
137.7916, 1392.978
138.2737, 1413.527
138.7559, 1443.132
139.2380, 1484.321
139.7201, 1532.386
140.2022, 1579.060
140.6843, 1622.069
141.1664, 1668.094
141.6486, 1715.805
142.1307, 1767.116
142.6128, 1824.340
143.0949, 1888.320
143.5770, 1957.003
144.0591, 2028.883
144.5413, 2114.185
145.0234, 2181.242
145.5055, 2209.985
145.9876, 2222.215
146.4697, 2251.357
146.9518, 2311.404
147.4340, 2382.374
147.9161, 2422.542
148.3982, 2427.574
148.8803, 2424.023
149.3624, 2413.915
149.8445, 2400.155
150.3266, 2388.512
150.8088, 2381.334
151.2909, 2376.232
151.7730, 2368.342
152.2551, 2356.868
152.7372, 2345.953
153.2193, 2338.583
153.7015, 2333.132
154.1836, 2324.066
154.6657, 2306.784
155.1478, 2289.262
155.6299, 2284.755
156.1120, 2294.904
156.5942, 2308.774
157.0763, 2319.225
157.5584, 2328.296
158.0405, 2344.703
158.5226, 2373.730
159.0047, 2409.090
159.4869, 2441.868
159.9690, 2471.763
160.4511, 2500.450
160.9332, 2528.104
161.4153, 2549.330
161.8974, 2556.924
162.3796, 2563.640
162.8617, 2566.770
163.3438, 2564.457
163.8259, 2556.618
164.3080, 2545.098
164.7901, 2530.160
165.2723, 2512.190
165.7544, 2495.279
166.2365, 2482.541
166.7186, 2469.662
167.2007, 2452.028
167.6828, 2429.133
168.1650, 2407.049
168.6471, 2391.041
169.1292, 2381.023
169.6113, 2372.752
170.0934, 2368.667
170.5755, 2363.370
171.0577, 2351.486
171.5398, 2332.531
172.0219, 2313.702
172.5040, 2302.295
172.9861, 2298.624
173.4682, 2294.261
173.9504, 2285.844
174.4325, 2277.386
174.9146, 2272.803
175.3967, 2272.191
175.8788, 2270.028
176.3609, 2258.421
176.8431, 2235.774
177.3252, 2219.309
177.8073, 2214.628
178.2894, 2215.078
178.7715, 2218.521
179.2536, 2224.289
179.7358, 2230.292
180.2179, 2235.273
180.7000, 2239.641
181.1821, 2239.930
181.6642, 2230.519
182.1463, 2220.566
182.6285, 2214.377
183.1106, 2212.371
183.5927, 2212.600
184.0748, 2212.565
184.5569, 2211.659
185.0390, 2214.580
185.5212, 2230.951
186.0033, 2244.137
186.4854, 2243.660
186.9675, 2230.543
187.4496, 2215.828
187.9317, 2210.722
188.4139, 2216.759
188.8960, 2223.010
189.3781, 2230.549
189.8602, 2237.064
190.3423, 2243.074
190.8244, 2247.627
191.3066, 2247.868
191.7887, 2239.025
192.2708, 2219.083
192.7529, 2204.310
193.2350, 2199.764
193.7171, 2196.242
194.1993, 2188.236
194.6814, 2177.412
195.1635, 2170.387
195.6456, 2175.046
196.1277, 2193.130
196.6098, 2204.410
197.0920, 2203.897
197.5741, 2200.624
198.0562, 2198.436
198.5383, 2196.229
199.0204, 2189.873
199.5025, 2173.952
199.9847, 2147.807
200.4668, 2131.050
200.9489, 2133.170
201.4310, 2136.633
201.9131, 2140.488
202.3952, 2142.033
202.8774, 2135.889
203.3595, 2115.470
203.8416, 2081.644
204.3237, 2061.526
204.8058, 2070.532
205.2879, 2078.823
205.7701, 2079.499
206.2522, 2073.949
206.7343, 2065.418
207.2164, 2055.511
207.6985, 2044.629
208.1806, 2036.489
208.6628, 2031.400
209.1449, 2029.093
209.6270, 2030.687
210.1091, 2034.704
210.5912, 2039.926
211.0733, 2046.355
211.5555, 2052.314
212.0376, 2048.860
212.5197, 2018.625
213.0018, 2001.545
213.4839, 2016.139
213.9660, 2044.070
214.4482, 2061.941
214.9303, 2057.692
215.4124, 2037.968
215.8945, 2023.329
216.3766, 2010.874
216.8587, 2009.287
217.3409, 2032.144
217.8230, 2060.003
218.3051, 2070.326
218.7872, 2053.678
219.2693, 2023.360
219.7514, 2010.150
220.2336, 2027.262
220.7157, 2038.130
221.1978, 2038.270
221.6799, 2031.837
222.1620, 2019.986
222.6441, 2003.559
223.1263, 1987.413
223.6084, 1980.405
224.0905, 1986.439
224.5726, 1993.223
225.0547, 2004.651
225.5368, 2013.288
226.0190, 2012.362
226.5011, 2001.226
226.9832, 1986.349
227.4653, 1976.216
227.9474, 1972.007
228.4296, 1969.098
228.9117, 1965.885
229.3938, 1964.968
229.8759, 1969.298
230.3580, 1978.235
230.8401, 1987.625
231.3223, 1993.717
231.8044, 1996.659
232.2865, 1995.234
232.7686, 1980.272
233.2507, 1968.863
233.7328, 1970.025
234.2150, 1981.507
234.6971, 1994.096
235.1792, 1999.409
235.6613, 1997.299
236.1434, 1999.610
236.6255, 2012.990
237.1077, 2024.067
237.5898, 2026.417
238.0719, 2023.258
238.5540, 2021.630
239.0361, 2026.719
239.5182, 2037.255
240.0004, 2045.279
240.4825, 2049.557
240.9646, 2052.769
241.4467, 2057.424
241.9288, 2061.314
242.4109, 2060.268
242.8931, 2050.777
243.3752, 2037.477
243.8573, 2033.815
244.3394, 2044.149
244.8215, 2055.971
245.3036, 2065.515
245.7858, 2074.769
246.2679, 2087.313
246.7500, 2105.266
247.2321, 2122.130
247.7142, 2123.919
248.1963, 2103.225
248.6785, 2091.286
249.1606, 2103.994
249.6427, 2122.644
250.1248, 2133.898
250.6069, 2134.628
251.0890, 2131.962
251.5712, 2133.483
252.0533, 2139.445
252.5354, 2147.442
253.0175, 2160.521
253.4996, 2172.848
253.9817, 2180.075
254.4639, 2182.242
254.9460, 2183.485
255.4281, 2185.740
255.9102, 2189.259
256.3923, 2198.406
256.8744, 2220.086
257.3565, 2239.244
257.8387, 2244.591
258.3208, 2239.143
258.8029, 2234.049
259.2850, 2234.212
259.7671, 2239.662
260.2492, 2251.159
260.7314, 2270.582
261.2135, 2292.309
261.6956, 2312.627
262.1777, 2332.618
262.6598, 2355.123
263.1419, 2385.890
263.6241, 2416.790
264.1062, 2433.190
264.5883, 2432.560
265.0704, 2430.521
265.5525, 2433.926
266.0346, 2441.494
266.5168, 2451.547
266.9989, 2463.150
267.4810, 2478.194
267.9631, 2500.495
268.4452, 2529.639
268.9273, 2556.752
269.4095, 2577.273
269.8916, 2594.780
270.3737, 2616.243
270.8558, 2643.815
271.3379, 2668.493
271.8200, 2682.353
272.3022, 2688.849
272.7843, 2698.884
273.2664, 2714.999
273.7485, 2736.499
274.2306, 2764.062
274.7127, 2797.735
275.1949, 2831.315
275.6770, 2862.554
276.1591, 2892.644
276.6412, 2923.807
277.1233, 2956.854
277.6054, 2988.236
278.0876, 3014.554
278.5697, 3035.706
279.0518, 3053.344
279.5339, 3062.064
280.0160, 3071.311
280.4981, 3091.223
280.9803, 3121.086
281.4624, 3150.161
281.9445, 3171.030
282.4266, 3184.077
282.9087, 3196.073
283.3908, 3203.949
283.8730, 3214.013
284.3551, 3232.808
284.8372, 3256.007
285.3193, 3272.760
285.8014, 3276.491
286.2835, 3272.203
286.7657, 3276.027
287.2478, 3299.948
287.7299, 3315.756
288.2120, 3314.420
288.6941, 3305.077
289.1762, 3299.258
289.6584, 3300.456
290.1405, 3302.786
290.6226, 3296.111
291.1047, 3270.817
291.5868, 3257.733
292.0689, 3263.538
292.5511, 3275.462
293.0332, 3286.798
293.5153, 3295.863
293.9974, 3302.758
294.4795, 3307.645
294.9616, 3310.678
295.4438, 3310.281
295.9259, 3300.401
296.4080, 3293.323
296.8901, 3294.608
297.3722, 3302.016
297.8543, 3310.262
298.3365, 3315.808
298.8186, 3319.659
299.3007, 3327.438
299.7828, 3343.771
300.2649, 3357.525
300.7470, 3357.448
301.2292, 3357.789
301.7113, 3378.478
302.1934, 3427.376
302.6755, 3484.519
303.1576, 3513.503
303.6397, 3504.731
304.1219, 3497.755
304.6040, 3497.962
305.0861, 3502.021
305.5682, 3508.362
306.0503, 3516.695
306.5324, 3527.403
307.0146, 3541.097
307.4967, 3557.703
307.9788, 3576.037
308.4609, 3597.552
308.9430, 3618.808
309.4251, 3639.453
309.9073, 3658.580
310.3894, 3673.580
310.8715, 3682.844
311.3536, 3687.226
311.8357, 3686.803
312.3178, 3679.538
312.8000, 3674.970
313.2821, 3679.579
313.7642, 3689.943
314.2463, 3701.537
314.7284, 3712.731
315.2105, 3726.321
315.6927, 3751.896
316.1748, 3786.207
316.6569, 3801.898
317.1390, 3782.695
317.6211, 3746.946
318.1032, 3723.742
318.5854, 3714.101
319.0675, 3709.718
319.5496, 3710.789
320.0317, 3714.198
320.5138, 3714.859
320.9959, 3711.702
321.4781, 3706.192
321.9602, 3700.308
322.4423, 3694.195
322.9244, 3683.393
323.4065, 3663.804
323.8886, 3642.507
324.3708, 3623.362
324.8529, 3606.853
325.3350, 3594.086
325.8171, 3587.056
326.2992, 3584.211
326.7813, 3572.812
327.2635, 3545.123
327.7456, 3519.292
328.2277, 3500.744
328.7098, 3486.394
329.1919, 3472.851
329.6740, 3458.753
330.1562, 3442.748
330.6383, 3421.760
331.1204, 3390.316
331.6025, 3363.699
332.0846, 3338.766
332.5667, 3320.291
333.0489, 3317.407
333.5310, 3326.864
334.0131, 3331.568
334.4952, 3311.584
334.9773, 3265.099
335.4594, 3235.532
335.9416, 3239.994
336.4237, 3244.198
336.9058, 3236.749
337.3879, 3222.276
337.8700, 3209.239
338.3521, 3201.850
338.8343, 3198.534
339.3164, 3197.841
339.7985, 3204.190
340.2806, 3199.859
340.7627, 3165.923
341.2448, 3126.735
341.7270, 3103.544
342.2091, 3100.600
342.6912, 3101.823
343.1733, 3091.008
343.6554, 3070.308
344.1375, 3058.033
344.6197, 3063.017
345.1018, 3067.508
345.5839, 3053.933
346.0660, 3025.827
346.5481, 2998.779
347.0302, 2975.982
347.5124, 2958.365
347.9945, 2952.448
348.4766, 2958.582
348.9587, 2954.775
349.4408, 2923.961
349.9229, 2872.970
350.4051, 2830.461
350.8872, 2800.200
351.3693, 2773.406
351.8514, 2748.818
352.3335, 2724.714
352.8156, 2696.806
353.2978, 2663.452
353.7799, 2627.949
354.2620, 2595.209
354.7441, 2563.740
355.2262, 2539.804
355.7083, 2534.422
356.1905, 2528.454
356.6726, 2505.101
357.1547, 2465.802
357.6368, 2424.949
358.1189, 2394.675
358.6010, 2374.807
359.0832, 2353.389
359.5653, 2328.133
360.0474, 2303.758
360.5295, 2281.938
361.0116, 2261.456
361.4937, 2239.906
361.9759, 2216.209
362.4580, 2193.234
362.9401, 2177.149
363.4222, 2171.141
363.9043, 2162.673
364.3864, 2152.416
364.8686, 2137.537
365.3507, 2111.415
365.8328, 2076.511
366.3149, 2046.508
366.7970, 2034.963
367.2791, 2038.284
367.7613, 2038.506
368.2434, 2035.846
368.7255, 2029.084
369.2076, 2013.600
369.6897, 1994.346
370.1718, 1979.512
370.6540, 1973.211
371.1361, 1969.107
371.6182, 1959.701
372.1003, 1946.190
372.5824, 1937.481
373.0645, 1938.260
373.5467, 1943.126
374.0288, 1943.427
374.5109, 1939.078
374.9930, 1932.887
375.4751, 1924.437
375.9572, 1915.099
376.4394, 1906.891
376.9215, 1899.914
377.4036, 1891.165
377.8857, 1876.339
378.3678, 1855.433
378.8499, 1849.204
379.3321, 1873.708
379.8142, 1892.301
380.2963, 1887.633
380.7784, 1870.543
381.2605, 1858.890
381.7426, 1860.298
382.2248, 1868.634
382.7069, 1871.215
383.1890, 1863.325
383.6711, 1859.592
384.1532, 1863.543
384.6353, 1868.580
385.1175, 1869.362
385.5996, 1866.975
386.0817, 1867.695
386.5638, 1879.669
387.0459, 1899.634
387.5280, 1904.024
388.0102, 1881.463
388.4923, 1864.806
388.9744, 1874.105
389.4565, 1893.605
389.9386, 1903.220
390.4207, 1895.590
390.9029, 1884.161
391.3850, 1883.103
391.8671, 1890.972
392.3492, 1896.910
392.8313, 1898.447
393.3134, 1897.011
393.7956, 1892.357
394.2777, 1884.779
394.7598, 1881.062
395.2419, 1890.618
395.7240, 1899.765
396.2061, 1893.121
396.6883, 1871.587
397.1704, 1847.058
397.6525, 1825.573
398.1346, 1807.939
398.6167, 1798.145
399.0988, 1801.669
399.5810, 1804.993
400.0631, 1809.948
400.5452, 1811.671
401.0273, 1801.389
401.5094, 1778.346
401.9915, 1754.876
402.4737, 1747.731
402.9558, 1762.405
403.4379, 1764.068
403.9200, 1738.891
404.4021, 1714.540
404.8842, 1700.192
405.3664, 1693.149
405.8485, 1687.003
406.3306, 1678.343
406.8127, 1669.127
407.2948, 1664.248
407.7769, 1665.087
408.2591, 1664.062
408.7412, 1656.395
409.2233, 1648.277
409.7054, 1646.940
410.1875, 1652.341
410.6696, 1652.824
411.1518, 1634.851
411.6339, 1608.735
412.1160, 1597.871
412.5981, 1605.626
413.0802, 1615.189
413.5623, 1615.539
414.0445, 1608.063
414.5266, 1601.256
415.0087, 1594.969
415.4908, 1589.501
415.9729, 1584.255
416.4550, 1580.071
416.9372, 1579.220
417.4193, 1582.416
417.9014, 1586.528
418.3835, 1587.496
418.8656, 1585.521
419.3477, 1579.080
419.8299, 1564.122
420.3120, 1549.328
420.7941, 1536.727
421.2762, 1527.655
421.7583, 1524.342
422.2404, 1528.563
422.7226, 1537.818
423.2047, 1545.870
423.6868, 1553.863
424.1689, 1557.713
424.6510, 1555.732
425.1331, 1550.090
425.6153, 1540.155
426.0974, 1526.627
426.5795, 1515.028
427.0616, 1511.655
427.5437, 1513.228
428.0258, 1508.503
428.5080, 1495.011
428.9901, 1483.486
429.4722, 1482.204
429.9543, 1487.439
430.4364, 1489.568
430.9185, 1485.678
431.4007, 1482.230
431.8828, 1484.073
432.3649, 1488.341
432.8470, 1489.149
433.3291, 1484.860
433.8112, 1479.115
434.2934, 1476.635
434.7755, 1478.645
435.2576, 1477.260
435.7397, 1469.076
436.2218, 1461.405
436.7039, 1457.573
437.1861, 1456.608
437.6682, 1456.513
438.1503, 1456.363
438.6324, 1455.907
439.1145, 1454.271
439.5966, 1450.499
440.0788, 1448.369
440.5609, 1451.172
441.0430, 1453.424
441.5251, 1451.028
442.0072, 1444.891
442.4893, 1439.850
442.9715, 1440.644
443.4536, 1443.894
443.9357, 1441.008
444.4178, 1430.962
444.8999, 1423.281
445.3820, 1423.988
445.8642, 1428.756
446.3463, 1428.679
446.8284, 1421.635
447.3105, 1416.399
447.7926, 1420.059
448.2747, 1425.689
448.7569, 1422.184
449.2390, 1408.752
449.7211, 1396.219
450.2032, 1394.552
450.6853, 1403.259
451.1674, 1406.642
451.6496, 1396.138
452.1317, 1390.964
452.6138, 1400.926
453.0959, 1415.623
453.5780, 1422.727
454.0602, 1418.883
454.5423, 1410.154
455.0244, 1402.877
455.5065, 1396.837
455.9886, 1395.163
456.4707, 1402.666
456.9529, 1408.225
457.4349, 1404.587
457.9171, 1395.955
458.3992, 1390.163
458.8813, 1390.345
459.3634, 1393.250
459.8455, 1397.194
460.3276, 1401.488
460.8098, 1401.195
461.2919, 1393.281
461.7740, 1384.534
462.2561, 1385.435
462.7382, 1397.106
463.2203, 1400.444
463.7025, 1383.541
464.1846, 1366.950
464.6667, 1366.280
465.1488, 1376.785
465.6309, 1384.471
466.1130, 1382.221
466.5952, 1374.972
467.0773, 1374.798
467.5594, 1390.151
468.0415, 1395.159
468.5236, 1382.668
469.0057, 1366.827
469.4879, 1353.728
469.9700, 1344.149
470.4521, 1336.972
470.9342, 1330.000
471.4163, 1326.455
471.8984, 1338.083
472.3806, 1368.599
472.8627, 1389.360
473.3448, 1386.223
473.8269, 1371.679
474.3090, 1359.931
474.7911, 1350.761
475.2733, 1347.811
475.7554, 1357.575
476.2375, 1371.346
476.7196, 1380.791
477.2017, 1384.822
477.6838, 1380.847
478.1660, 1364.961
478.6481, 1342.366
479.1302, 1333.549
479.6123, 1354.522
480.0944, 1368.650
480.5765, 1370.400
481.0587, 1367.824
481.5408, 1366.983
482.0229, 1368.589
482.5050, 1370.322
482.9871, 1370.208
483.4692, 1368.610
483.9514, 1367.522
484.4335, 1367.159
484.9156, 1366.822
485.3977, 1367.353
485.8798, 1367.196
486.3619, 1364.649
486.8441, 1359.415
487.3262, 1353.164
487.8083, 1344.032
488.2904, 1335.459
488.7725, 1334.996
489.2546, 1343.350
489.7368, 1353.289
490.2189, 1360.748
490.7010, 1365.620
491.1831, 1367.232
491.6652, 1364.554
492.1473, 1360.504
492.6295, 1354.708
493.1116, 1348.277
493.5937, 1341.397
494.0758, 1334.659
494.5579, 1329.749
495.0400, 1328.148
495.5222, 1329.806
496.0043, 1335.233
496.4864, 1350.008
496.9685, 1358.250
497.4506, 1346.444
497.9327, 1331.112
498.4149, 1331.212
498.8970, 1350.495
499.3791, 1367.748
499.8612, 1364.069
500.3433, 1348.681
500.8254, 1342.669
501.3076, 1348.340
501.7897, 1353.919
502.2718, 1350.857
502.7539, 1341.705
503.2360, 1338.096
503.7181, 1345.787
504.2003, 1350.132
504.6824, 1343.316
505.1645, 1334.970
505.6466, 1337.125
506.1287, 1349.431
506.6108, 1359.791
507.0930, 1356.488
507.5751, 1341.990
508.0572, 1336.351
508.5393, 1344.920
509.0214, 1352.446
509.5035, 1355.220
509.9857, 1355.213
510.4678, 1352.501
510.9499, 1347.330
511.4320, 1345.173
511.9141, 1354.600
512.3962, 1367.993
512.8784, 1368.000
513.3605, 1353.574
513.8426, 1340.537
514.3247, 1338.666
514.8068, 1343.952
515.2889, 1343.601
515.7711, 1332.246
516.2532, 1325.707
516.7353, 1330.426
517.2174, 1337.462
517.6995, 1339.082
518.1816, 1335.493
518.6638, 1331.232
519.1459, 1329.158
519.6280, 1329.595
520.1101, 1335.011
520.5922, 1349.317
521.0743, 1358.381
521.5565, 1354.735
522.0386, 1347.727
522.5207, 1343.168
523.0028, 1341.305
523.4849, 1340.150
523.9670, 1340.866
524.4492, 1340.486
524.9313, 1331.916
525.4134, 1316.764
525.8955, 1309.162
526.3776, 1316.799
526.8597, 1331.410
527.3419, 1337.350
527.8240, 1328.883
528.3061, 1325.147
528.7882, 1328.985
529.2703, 1334.799
529.7524, 1342.923
530.2346, 1350.199
530.7167, 1349.117
531.1988, 1334.945
531.6809, 1317.296
532.1630, 1316.379
532.6451, 1335.123
533.1273, 1346.695
533.6094, 1345.748
534.0915, 1338.870
534.5736, 1326.196
535.0557, 1311.175
535.5378, 1305.317
536.0200, 1317.355
536.5021, 1333.216
536.9842, 1346.887
537.4663, 1356.273
537.9484, 1354.452
538.4305, 1339.425
538.9127, 1320.695
539.3948, 1308.880
539.8769, 1304.299
540.3590, 1302.818
540.8411, 1307.159
541.3232, 1311.440
541.8054, 1313.767
542.2875, 1315.598
542.7696, 1319.012
543.2517, 1324.456
543.7338, 1329.883
544.2159, 1334.398
544.6981, 1337.412
545.1802, 1335.299
545.6623, 1326.725
546.1444, 1318.153
546.6265, 1311.768
547.1086, 1308.546
547.5908, 1311.107
548.0729, 1323.797
548.5550, 1331.968
549.0371, 1326.812
549.5192, 1318.630
550.0013, 1317.905
550.4835, 1324.366
550.9656, 1331.798
551.4477, 1336.328
551.9298, 1337.958
552.4119, 1336.005
552.8940, 1327.678
553.3762, 1322.789
553.8583, 1327.988
554.3404, 1332.780
554.8225, 1328.805
555.3046, 1318.428
555.7867, 1312.103
556.2689, 1317.166
556.7510, 1325.928
557.2331, 1331.256
557.7152, 1333.211
558.1973, 1331.090
558.6794, 1324.053
559.1616, 1316.413
559.6437, 1313.711
560.1258, 1316.968
560.6079, 1318.405
561.0900, 1318.131
561.5721, 1316.259
562.0543, 1309.076
562.5364, 1301.992
563.0185, 1303.324
563.5006, 1314.850
563.9827, 1327.867
564.4648, 1332.870
564.9470, 1330.886
565.4291, 1328.283
565.9112, 1324.701
566.3933, 1322.398
566.8754, 1323.397
567.3575, 1326.060
567.8397, 1327.025
568.3218, 1326.014
568.8039, 1324.116
569.2860, 1319.177
569.7681, 1315.250
570.2502, 1317.214
570.7324, 1324.017
571.2145, 1330.905
571.6966, 1335.222
572.1787, 1337.115
572.6608, 1336.339
573.1429, 1331.300
573.6251, 1328.814
574.1072, 1333.744
574.5893, 1337.091
575.0714, 1330.051
575.5535, 1317.621
576.0356, 1313.489
576.5178, 1326.632
576.9999, 1342.542
577.4820, 1350.328
577.9641, 1351.422
578.4462, 1348.085
578.9283, 1340.793
579.4105, 1332.665
579.8926, 1326.147
580.3747, 1321.333
580.8568, 1320.678
581.3389, 1328.934
581.8210, 1335.639
582.3032, 1340.319
582.7853, 1342.458
583.2674, 1339.819
583.7495, 1333.370
584.2316, 1328.923
584.7137, 1332.224
585.1959, 1339.474
585.6780, 1342.614
586.1601, 1341.690
586.6422, 1340.190
587.1243, 1339.063
587.6064, 1338.411
588.0886, 1338.473
588.5707, 1339.396
589.0528, 1340.239
589.5349, 1340.186
590.0170, 1340.906
590.4991, 1346.940
590.9813, 1352.926
591.4634, 1348.128
591.9455, 1330.078
592.4276, 1311.970
592.9097, 1311.773
593.3918, 1327.897
593.8740, 1337.735
594.3561, 1340.196
594.8382, 1339.340
595.3203, 1335.606
595.8024, 1330.332
596.2845, 1325.403
596.7667, 1320.245
597.2488, 1317.688
597.7309, 1319.687
598.2130, 1323.689
598.6951, 1328.258
599.1772, 1332.885
599.6594, 1337.182
600.1415, 1341.034
600.6236, 1343.270
601.1057, 1340.719
601.5878, 1331.778
602.0699, 1326.771
602.5521, 1329.376
603.0342, 1331.555
603.5163, 1326.110
603.9984, 1318.426
604.4805, 1319.096
604.9626, 1334.194
605.4448, 1345.845
605.9269, 1336.820
606.4090, 1321.744
606.8911, 1326.424
607.3732, 1349.716
607.8553, 1364.018
608.3375, 1349.488
608.8196, 1317.789
609.3017, 1305.730
609.7838, 1325.350
610.2659, 1337.640
610.7480, 1334.615
611.2302, 1328.915
611.7123, 1325.417
612.1944, 1324.121
612.6765, 1324.276
613.1586, 1325.954
613.6407, 1328.275
614.1229, 1331.231
614.6050, 1334.125
615.0871, 1335.162
615.5692, 1334.061
616.0513, 1332.203
616.5334, 1330.496
617.0156, 1329.059
617.4977, 1328.507
617.9798, 1327.166
618.4619, 1329.502
618.9440, 1341.648
619.4261, 1352.285
619.9083, 1351.686
620.3904, 1342.588
620.8725, 1335.337
621.3546, 1335.285
621.8367, 1338.701
622.3188, 1342.457
622.8010, 1346.073
623.2831, 1347.246
623.7652, 1345.305
624.2473, 1343.120
624.7294, 1343.733
625.2115, 1346.614
625.6937, 1345.568
626.1758, 1333.272
626.6579, 1326.741
627.1400, 1332.163
