##NAMES=Mottramite
##RRUFFID=R120112
##IDEAL CHEMISTRY=Pb^2+^Cu^2+^V^5+^O_4_(OH)
##LOCALITY=Copperopolis, Yavapai County, Arizona, USA
##OWNER=RRUFF
##SOURCE=Joe Ruiz
##DESCRIPTION=Radial sprays of yellow transparent needles, variety duhamelite; associated with goethite
##STATUS=The identification of this mineral has been confirmed only by single crystal X-ray diffraction.
##URL=rruff.info/R120112
9.160352e+001, 1.039897e+003
9.208563e+001, 1.010055e+003
9.256775e+001, 1.006602e+003
9.304987e+001, 1.043986e+003
9.353198e+001, 1.088784e+003
9.401410e+001, 1.118297e+003
9.449622e+001, 1.133479e+003
9.497833e+001, 1.141013e+003
9.546045e+001, 1.146385e+003
9.594257e+001, 1.149630e+003
9.642468e+001, 1.150088e+003
9.690680e+001, 1.147543e+003
9.738892e+001, 1.144619e+003
9.787103e+001, 1.142583e+003
9.835315e+001, 1.139900e+003
9.883527e+001, 1.134845e+003
9.931738e+001, 1.128727e+003
9.979950e+001, 1.121310e+003
1.002816e+002, 1.115155e+003
1.007637e+002, 1.109347e+003
1.012458e+002, 1.104623e+003
1.017280e+002, 1.102040e+003
1.022101e+002, 1.101894e+003
1.026922e+002, 1.102809e+003
1.031743e+002, 1.102499e+003
1.036564e+002, 1.100859e+003
1.041385e+002, 1.099284e+003
1.046207e+002, 1.098294e+003
1.051028e+002, 1.097697e+003
1.055849e+002, 1.096884e+003
1.060670e+002, 1.095410e+003
1.065491e+002, 1.093400e+003
1.070313e+002, 1.090954e+003
1.075134e+002, 1.087931e+003
1.079955e+002, 1.085030e+003
1.084776e+002, 1.083029e+003
1.089597e+002, 1.082056e+003
1.094418e+002, 1.081228e+003
1.099240e+002, 1.080284e+003
1.104061e+002, 1.079339e+003
1.108882e+002, 1.078478e+003
1.113703e+002, 1.077728e+003
1.118524e+002, 1.077081e+003
1.123345e+002, 1.076477e+003
1.128167e+002, 1.075426e+003
1.132988e+002, 1.075169e+003
1.137809e+002, 1.076949e+003
1.142630e+002, 1.079341e+003
1.147451e+002, 1.080325e+003
1.152272e+002, 1.078481e+003
1.157094e+002, 1.074034e+003
1.161915e+002, 1.071705e+003
1.166736e+002, 1.073169e+003
1.171557e+002, 1.074698e+003
1.176378e+002, 1.074976e+003
1.181199e+002, 1.074156e+003
1.186021e+002, 1.073112e+003
1.190842e+002, 1.072513e+003
1.195663e+002, 1.072411e+003
1.200484e+002, 1.072495e+003
1.205305e+002, 1.072441e+003
1.210126e+002, 1.072730e+003
1.214948e+002, 1.073993e+003
1.219769e+002, 1.076389e+003
1.224590e+002, 1.078969e+003
1.229411e+002, 1.080965e+003
1.234232e+002, 1.082433e+003
1.239053e+002, 1.083136e+003
1.243875e+002, 1.082437e+003
1.248696e+002, 1.080863e+003
1.253517e+002, 1.079977e+003
1.258338e+002, 1.080458e+003
1.263159e+002, 1.080956e+003
1.267980e+002, 1.080061e+003
1.272802e+002, 1.078126e+003
1.277623e+002, 1.076804e+003
1.282444e+002, 1.078116e+003
1.287265e+002, 1.082476e+003
1.292086e+002, 1.085015e+003
1.296907e+002, 1.083149e+003
1.301729e+002, 1.080910e+003
1.306550e+002, 1.080453e+003
1.311371e+002, 1.081880e+003
1.316192e+002, 1.083526e+003
1.321013e+002, 1.082933e+003
1.325834e+002, 1.078489e+003
1.330656e+002, 1.074877e+003
1.335477e+002, 1.072479e+003
1.340298e+002, 1.070609e+003
1.345119e+002, 1.068848e+003
1.349940e+002, 1.067036e+003
1.354761e+002, 1.065154e+003
1.359583e+002, 1.063168e+003
1.364404e+002, 1.060998e+003
1.369225e+002, 1.058841e+003
1.374046e+002, 1.056808e+003
1.378867e+002, 1.054769e+003
1.383688e+002, 1.052685e+003
1.388510e+002, 1.050617e+003
1.393331e+002, 1.048279e+003
1.398152e+002, 1.044682e+003
1.402973e+002, 1.039005e+003
1.407794e+002, 1.033520e+003
1.412615e+002, 1.029242e+003
1.417437e+002, 1.026005e+003
1.422258e+002, 1.023025e+003
1.427079e+002, 1.020135e+003
1.431900e+002, 1.017128e+003
1.436721e+002, 1.013664e+003
1.441542e+002, 1.009644e+003
1.446364e+002, 1.005246e+003
1.451185e+002, 1.000629e+003
1.456006e+002, 9.957997e+002
1.460827e+002, 9.907100e+002
1.465648e+002, 9.848787e+002
1.470469e+002, 9.788857e+002
1.475291e+002, 9.733341e+002
1.480112e+002, 9.684828e+002
1.484933e+002, 9.641502e+002
1.489754e+002, 9.599403e+002
1.494575e+002, 9.557887e+002
1.499396e+002, 9.518722e+002
1.504218e+002, 9.483635e+002
1.509039e+002, 9.450336e+002
1.513860e+002, 9.415751e+002
1.518681e+002, 9.377523e+002
1.523502e+002, 9.336181e+002
1.528323e+002, 9.298618e+002
1.533145e+002, 9.269647e+002
1.537966e+002, 9.239938e+002
1.542787e+002, 9.206864e+002
1.547608e+002, 9.171390e+002
1.552429e+002, 9.135201e+002
1.557250e+002, 9.099001e+002
1.562072e+002, 9.062501e+002
1.566893e+002, 9.031592e+002
1.571714e+002, 9.007151e+002
1.576535e+002, 8.985930e+002
1.581356e+002, 8.967146e+002
1.586177e+002, 8.950447e+002
1.590999e+002, 8.935759e+002
1.595820e+002, 8.924258e+002
1.600641e+002, 8.917051e+002
1.605462e+002, 8.899442e+002
1.610283e+002, 8.860306e+002
1.615104e+002, 8.818967e+002
1.619926e+002, 8.791198e+002
1.624747e+002, 8.779051e+002
1.629568e+002, 8.771982e+002
1.634389e+002, 8.761530e+002
1.639210e+002, 8.747607e+002
1.644031e+002, 8.726398e+002
1.648853e+002, 8.688324e+002
1.653674e+002, 8.645143e+002
1.658495e+002, 8.615969e+002
1.663316e+002, 8.606179e+002
1.668137e+002, 8.602946e+002
1.672958e+002, 8.595354e+002
1.677780e+002, 8.584223e+002
1.682601e+002, 8.571738e+002
1.687422e+002, 8.560191e+002
1.692243e+002, 8.548459e+002
1.697064e+002, 8.532111e+002
1.701885e+002, 8.509741e+002
1.706707e+002, 8.483249e+002
1.711528e+002, 8.450707e+002
1.716349e+002, 8.414314e+002
1.721170e+002, 8.382421e+002
1.725991e+002, 8.362468e+002
1.730812e+002, 8.354905e+002
1.735634e+002, 8.349705e+002
1.740455e+002, 8.349573e+002
1.745276e+002, 8.349298e+002
1.750097e+002, 8.347706e+002
1.754918e+002, 8.344222e+002
1.759739e+002, 8.337960e+002
1.764561e+002, 8.327840e+002
1.769382e+002, 8.313157e+002
1.774203e+002, 8.296339e+002
1.779024e+002, 8.275486e+002
1.783845e+002, 8.254211e+002
1.788666e+002, 8.234116e+002
1.793488e+002, 8.215649e+002
1.798309e+002, 8.198356e+002
1.803130e+002, 8.181662e+002
1.807951e+002, 8.164016e+002
1.812772e+002, 8.151276e+002
1.817593e+002, 8.147802e+002
1.822415e+002, 8.145815e+002
1.827236e+002, 8.137523e+002
1.832057e+002, 8.121794e+002
1.836878e+002, 8.106364e+002
1.841699e+002, 8.103881e+002
1.846520e+002, 8.127194e+002
1.851342e+002, 8.137823e+002
1.856163e+002, 8.128158e+002
1.860984e+002, 8.108516e+002
1.865805e+002, 8.089268e+002
1.870626e+002, 8.073465e+002
1.875447e+002, 8.058768e+002
1.880269e+002, 8.040101e+002
1.885090e+002, 8.015102e+002
1.889911e+002, 7.995665e+002
1.894732e+002, 7.984703e+002
1.899553e+002, 7.980986e+002
1.904374e+002, 7.983616e+002
1.909196e+002, 7.993839e+002
1.914017e+002, 8.007091e+002
1.918838e+002, 8.019117e+002
1.923659e+002, 8.031017e+002
1.928480e+002, 8.034772e+002
1.933301e+002, 8.022272e+002
1.938123e+002, 7.997444e+002
1.942944e+002, 7.974861e+002
1.947765e+002, 7.958877e+002
1.952586e+002, 7.945534e+002
1.957407e+002, 7.928945e+002
1.962228e+002, 7.909021e+002
1.967050e+002, 7.892513e+002
1.971871e+002, 7.885801e+002
1.976692e+002, 7.888472e+002
1.981513e+002, 7.891510e+002
1.986334e+002, 7.900295e+002
1.991155e+002, 7.902131e+002
1.995977e+002, 7.882606e+002
2.000798e+002, 7.842543e+002
2.005619e+002, 7.804590e+002
2.010440e+002, 7.796086e+002
2.015261e+002, 7.823548e+002
2.020082e+002, 7.836813e+002
2.024904e+002, 7.809092e+002
2.029725e+002, 7.780155e+002
2.034546e+002, 7.770308e+002
2.039367e+002, 7.781652e+002
2.044188e+002, 7.802786e+002
2.049009e+002, 7.822793e+002
2.053831e+002, 7.846177e+002
2.058652e+002, 7.853409e+002
2.063473e+002, 7.831572e+002
2.068294e+002, 7.804212e+002
2.073115e+002, 7.783304e+002
2.077936e+002, 7.771437e+002
2.082758e+002, 7.764959e+002
2.087579e+002, 7.759064e+002
2.092400e+002, 7.753343e+002
2.097221e+002, 7.749301e+002
2.102042e+002, 7.748741e+002
2.106863e+002, 7.748305e+002
2.111685e+002, 7.747206e+002
2.116506e+002, 7.744633e+002
2.121327e+002, 7.738033e+002
2.126148e+002, 7.722361e+002
2.130969e+002, 7.686104e+002
2.135790e+002, 7.666717e+002
2.140612e+002, 7.674928e+002
2.145433e+002, 7.691983e+002
2.150254e+002, 7.705400e+002
2.155075e+002, 7.711592e+002
2.159896e+002, 7.711260e+002
2.164718e+002, 7.704581e+002
2.169539e+002, 7.687048e+002
2.174360e+002, 7.673708e+002
2.179181e+002, 7.667924e+002
2.184002e+002, 7.664860e+002
2.188823e+002, 7.658661e+002
2.193645e+002, 7.647897e+002
2.198466e+002, 7.637677e+002
2.203287e+002, 7.635345e+002
2.208108e+002, 7.641859e+002
2.212929e+002, 7.650549e+002
2.217750e+002, 7.669581e+002
2.222572e+002, 7.686937e+002
2.227393e+002, 7.681946e+002
2.232214e+002, 7.647146e+002
2.237035e+002, 7.609144e+002
2.241856e+002, 7.606911e+002
2.246677e+002, 7.637338e+002
2.251499e+002, 7.662121e+002
2.256320e+002, 7.671140e+002
2.261141e+002, 7.668600e+002
2.265962e+002, 7.657849e+002
2.270783e+002, 7.635363e+002
2.275604e+002, 7.616655e+002
2.280426e+002, 7.624875e+002
2.285247e+002, 7.653084e+002
2.290068e+002, 7.672177e+002
2.294889e+002, 7.665453e+002
2.299710e+002, 7.642181e+002
2.304531e+002, 7.621201e+002
2.309353e+002, 7.601875e+002
2.314174e+002, 7.590714e+002
2.318995e+002, 7.595512e+002
2.323816e+002, 7.612049e+002
2.328637e+002, 7.629654e+002
2.333458e+002, 7.646671e+002
2.338280e+002, 7.661143e+002
2.343101e+002, 7.665534e+002
2.347922e+002, 7.653912e+002
2.352743e+002, 7.641572e+002
2.357564e+002, 7.635408e+002
2.362385e+002, 7.634875e+002
2.367207e+002, 7.639578e+002
2.372028e+002, 7.653533e+002
2.376849e+002, 7.672842e+002
2.381670e+002, 7.680076e+002
2.386491e+002, 7.667906e+002
2.391312e+002, 7.653795e+002
2.396134e+002, 7.645704e+002
2.400955e+002, 7.640858e+002
2.405776e+002, 7.633928e+002
2.410597e+002, 7.620596e+002
2.415418e+002, 7.603029e+002
2.420239e+002, 7.592330e+002
2.425061e+002, 7.593516e+002
2.429882e+002, 7.595153e+002
2.434703e+002, 7.591427e+002
2.439524e+002, 7.586365e+002
2.444345e+002, 7.586334e+002
2.449166e+002, 7.595637e+002
2.453988e+002, 7.612022e+002
2.458809e+002, 7.625314e+002
2.463630e+002, 7.641179e+002
2.468451e+002, 7.645064e+002
2.473272e+002, 7.623906e+002
2.478093e+002, 7.592601e+002
2.482915e+002, 7.570316e+002
2.487736e+002, 7.567691e+002
2.492557e+002, 7.580511e+002
2.497378e+002, 7.591820e+002
2.502199e+002, 7.603409e+002
2.507020e+002, 7.610778e+002
2.511842e+002, 7.611819e+002
2.516663e+002, 7.608962e+002
2.521484e+002, 7.604493e+002
2.526305e+002, 7.599461e+002
2.531126e+002, 7.594420e+002
2.535947e+002, 7.591005e+002
2.540769e+002, 7.591601e+002
2.545590e+002, 7.591129e+002
2.550411e+002, 7.587910e+002
2.555232e+002, 7.584028e+002
2.560053e+002, 7.581891e+002
2.564874e+002, 7.582528e+002
2.569695e+002, 7.584970e+002
2.574517e+002, 7.586843e+002
2.579338e+002, 7.581656e+002
2.584159e+002, 7.584282e+002
2.588980e+002, 7.604641e+002
2.593801e+002, 7.628605e+002
2.598622e+002, 7.639579e+002
2.603444e+002, 7.632037e+002
2.608265e+002, 7.615876e+002
2.613086e+002, 7.609836e+002
2.617907e+002, 7.623199e+002
2.622728e+002, 7.632599e+002
2.627549e+002, 7.638815e+002
2.632371e+002, 7.640410e+002
2.637192e+002, 7.633535e+002
2.642013e+002, 7.617523e+002
2.646834e+002, 7.599279e+002
2.651655e+002, 7.588717e+002
2.656476e+002, 7.587520e+002
2.661298e+002, 7.592207e+002
2.666119e+002, 7.604865e+002
2.670940e+002, 7.622275e+002
2.675761e+002, 7.645151e+002
2.680582e+002, 7.673082e+002
2.685403e+002, 7.696313e+002
2.690225e+002, 7.701816e+002
2.695046e+002, 7.683990e+002
2.699867e+002, 7.672574e+002
2.704688e+002, 7.670659e+002
2.709509e+002, 7.673963e+002
2.714330e+002, 7.679695e+002
2.719152e+002, 7.687333e+002
2.723973e+002, 7.696086e+002
2.728794e+002, 7.704774e+002
2.733615e+002, 7.713527e+002
2.738436e+002, 7.725701e+002
2.743257e+002, 7.744270e+002
2.748079e+002, 7.764255e+002
2.752900e+002, 7.782010e+002
2.757721e+002, 7.797335e+002
2.762542e+002, 7.810526e+002
2.767363e+002, 7.820188e+002
2.772184e+002, 7.827548e+002
2.777006e+002, 7.841377e+002
2.781827e+002, 7.865317e+002
2.786648e+002, 7.892750e+002
2.791469e+002, 7.919963e+002
2.796290e+002, 7.946755e+002
2.801111e+002, 7.972523e+002
2.805933e+002, 7.995450e+002
2.810754e+002, 8.017740e+002
2.815575e+002, 8.046257e+002
2.820396e+002, 8.086962e+002
2.825217e+002, 8.126601e+002
2.830038e+002, 8.154896e+002
2.834860e+002, 8.174061e+002
2.839681e+002, 8.195822e+002
2.844502e+002, 8.225277e+002
2.849323e+002, 8.261078e+002
2.854144e+002, 8.298938e+002
2.858965e+002, 8.338087e+002
2.863787e+002, 8.380754e+002
2.868608e+002, 8.429942e+002
2.873429e+002, 8.483984e+002
2.878250e+002, 8.537858e+002
2.883071e+002, 8.590458e+002
2.887892e+002, 8.641292e+002
2.892714e+002, 8.689066e+002
2.897535e+002, 8.733016e+002
2.902356e+002, 8.778841e+002
2.907177e+002, 8.831865e+002
2.911998e+002, 8.888893e+002
2.916819e+002, 8.940906e+002
2.921641e+002, 8.983405e+002
2.926462e+002, 9.025612e+002
2.931283e+002, 9.082017e+002
2.936104e+002, 9.150419e+002
2.940925e+002, 9.210797e+002
2.945746e+002, 9.250667e+002
2.950568e+002, 9.277691e+002
2.955389e+002, 9.306559e+002
2.960210e+002, 9.338966e+002
2.965031e+002, 9.373135e+002
2.969852e+002, 9.409861e+002
2.974673e+002, 9.447685e+002
2.979495e+002, 9.482186e+002
2.984316e+002, 9.513295e+002
2.989137e+002, 9.539623e+002
2.993958e+002, 9.558445e+002
2.998779e+002, 9.569109e+002
3.003600e+002, 9.575101e+002
3.008422e+002, 9.578239e+002
3.013243e+002, 9.578143e+002
3.018064e+002, 9.573084e+002
3.022885e+002, 9.558973e+002
3.027706e+002, 9.543245e+002
3.032527e+002, 9.535662e+002
3.037349e+002, 9.536863e+002
3.042170e+002, 9.536898e+002
3.046991e+002, 9.532988e+002
3.051812e+002, 9.523914e+002
3.056633e+002, 9.507183e+002
3.061454e+002, 9.480040e+002
3.066276e+002, 9.451317e+002
3.071097e+002, 9.427007e+002
3.075918e+002, 9.407234e+002
3.080739e+002, 9.395173e+002
3.085560e+002, 9.403760e+002
3.090381e+002, 9.409434e+002
3.095203e+002, 9.383271e+002
3.100024e+002, 9.321562e+002
3.104845e+002, 9.257768e+002
3.109666e+002, 9.211992e+002
3.114487e+002, 9.182648e+002
3.119308e+002, 9.165535e+002
3.124130e+002, 9.170286e+002
3.128951e+002, 9.171660e+002
3.133772e+002, 9.142145e+002
3.138593e+002, 9.086286e+002
3.143414e+002, 9.034367e+002
3.148235e+002, 9.001837e+002
3.153057e+002, 8.984242e+002
3.157878e+002, 8.971931e+002
3.162699e+002, 8.967926e+002
3.167520e+002, 8.960172e+002
3.172341e+002, 8.935818e+002
3.177162e+002, 8.901212e+002
3.181984e+002, 8.869633e+002
3.186805e+002, 8.849639e+002
3.191626e+002, 8.833824e+002
3.196447e+002, 8.809145e+002
3.201268e+002, 8.773660e+002
3.206089e+002, 8.739220e+002
3.210911e+002, 8.709575e+002
3.215732e+002, 8.686090e+002
3.220553e+002, 8.673929e+002
3.225374e+002, 8.682034e+002
3.230195e+002, 8.688671e+002
3.235016e+002, 8.667028e+002
3.239838e+002, 8.616718e+002
3.244659e+002, 8.569795e+002
3.249480e+002, 8.540623e+002
3.254301e+002, 8.519800e+002
3.259122e+002, 8.493256e+002
3.263943e+002, 8.457429e+002
3.268765e+002, 8.429639e+002
3.273586e+002, 8.430475e+002
3.278407e+002, 8.453561e+002
3.283228e+002, 8.463038e+002
3.288049e+002, 8.448347e+002
3.292870e+002, 8.420055e+002
3.297692e+002, 8.385779e+002
3.302513e+002, 8.346418e+002
3.307334e+002, 8.313242e+002
3.312155e+002, 8.296956e+002
3.316976e+002, 8.290399e+002
3.321797e+002, 8.276623e+002
3.326619e+002, 8.252635e+002
3.331440e+002, 8.224852e+002
3.336261e+002, 8.194537e+002
3.341082e+002, 8.164041e+002
3.345903e+002, 8.140016e+002
3.350724e+002, 8.127766e+002
3.355546e+002, 8.121619e+002
3.360367e+002, 8.118058e+002
3.365188e+002, 8.118224e+002
3.370009e+002, 8.108168e+002
3.374830e+002, 8.071211e+002
3.379651e+002, 8.021027e+002
3.384473e+002, 7.983201e+002
3.389294e+002, 7.961646e+002
3.394115e+002, 7.951106e+002
3.398936e+002, 7.953391e+002
3.403758e+002, 7.966272e+002
3.408579e+002, 7.972661e+002
3.413400e+002, 7.965106e+002
3.418221e+002, 7.948668e+002
3.423042e+002, 7.929284e+002
3.427863e+002, 7.904580e+002
3.432685e+002, 7.888636e+002
3.437506e+002, 7.898383e+002
3.442327e+002, 7.921652e+002
3.447148e+002, 7.925292e+002
3.451969e+002, 7.896322e+002
3.456790e+002, 7.862628e+002
3.461612e+002, 7.861027e+002
3.466433e+002, 7.886145e+002
3.471254e+002, 7.907245e+002
3.476075e+002, 7.906886e+002
3.480896e+002, 7.902825e+002
3.485717e+002, 7.922785e+002
3.490539e+002, 7.970231e+002
3.495360e+002, 8.011873e+002
3.500181e+002, 8.017253e+002
3.505002e+002, 7.995341e+002
3.509823e+002, 7.989996e+002
3.514644e+002, 8.017183e+002
3.519466e+002, 8.049942e+002
3.524287e+002, 8.069139e+002
3.529108e+002, 8.077490e+002
3.533929e+002, 8.088970e+002
3.538750e+002, 8.111279e+002
3.543571e+002, 8.139859e+002
3.548393e+002, 8.162407e+002
3.553214e+002, 8.174127e+002
3.558035e+002, 8.191073e+002
3.562856e+002, 8.221793e+002
3.567677e+002, 8.261035e+002
3.572498e+002, 8.298504e+002
3.577320e+002, 8.330743e+002
3.582141e+002, 8.364178e+002
3.586962e+002, 8.411722e+002
3.591783e+002, 8.477972e+002
3.596604e+002, 8.529224e+002
3.601425e+002, 8.546839e+002
3.606247e+002, 8.557216e+002
3.611068e+002, 8.584800e+002
3.615889e+002, 8.631944e+002
3.620710e+002, 8.687244e+002
3.625531e+002, 8.743951e+002
3.630352e+002, 8.801541e+002
3.635174e+002, 8.846520e+002
3.639995e+002, 8.868467e+002
3.644816e+002, 8.889606e+002
3.649637e+002, 8.922170e+002
3.654458e+002, 8.962431e+002
3.659279e+002, 9.000725e+002
3.664101e+002, 9.032460e+002
3.668922e+002, 9.057735e+002
3.673743e+002, 9.075799e+002
3.678564e+002, 9.080073e+002
3.683385e+002, 9.086924e+002
3.688206e+002, 9.106313e+002
3.693028e+002, 9.125970e+002
3.697849e+002, 9.131522e+002
3.702670e+002, 9.119001e+002
3.707491e+002, 9.093972e+002
3.712312e+002, 9.062926e+002
3.717133e+002, 9.022479e+002
3.721955e+002, 8.986962e+002
3.726776e+002, 8.967801e+002
3.731597e+002, 8.943947e+002
3.736418e+002, 8.899128e+002
3.741239e+002, 8.836055e+002
3.746060e+002, 8.769630e+002
3.750882e+002, 8.710764e+002
3.755703e+002, 8.659520e+002
3.760524e+002, 8.608806e+002
3.765345e+002, 8.563743e+002
3.770166e+002, 8.513209e+002
3.774987e+002, 8.447170e+002
3.779809e+002, 8.375828e+002
3.784630e+002, 8.315733e+002
3.789451e+002, 8.274623e+002
3.794272e+002, 8.242742e+002
3.799093e+002, 8.196312e+002
3.803914e+002, 8.121912e+002
3.808736e+002, 8.054525e+002
3.813557e+002, 7.991326e+002
3.818378e+002, 7.937504e+002
3.823199e+002, 7.900059e+002
3.828020e+002, 7.877798e+002
3.832841e+002, 7.860585e+002
3.837663e+002, 7.837631e+002
3.842484e+002, 7.808204e+002
3.847305e+002, 7.777247e+002
3.852126e+002, 7.741829e+002
3.856947e+002, 7.707444e+002
3.861768e+002, 7.677601e+002
3.866590e+002, 7.649997e+002
3.871411e+002, 7.618771e+002
3.876232e+002, 7.578746e+002
3.881053e+002, 7.534778e+002
3.885874e+002, 7.505845e+002
3.890695e+002, 7.500964e+002
3.895517e+002, 7.494557e+002
3.900338e+002, 7.478680e+002
3.905159e+002, 7.459861e+002
3.909980e+002, 7.445994e+002
3.914801e+002, 7.439090e+002
3.919622e+002, 7.430285e+002
3.924444e+002, 7.404267e+002
3.929265e+002, 7.357995e+002
3.934086e+002, 7.324972e+002
3.938907e+002, 7.322246e+002
3.943728e+002, 7.322099e+002
3.948549e+002, 7.309694e+002
3.953371e+002, 7.286002e+002
3.958192e+002, 7.257766e+002
3.963013e+002, 7.224399e+002
3.967834e+002, 7.189846e+002
3.972655e+002, 7.169306e+002
3.977477e+002, 7.168058e+002
3.982298e+002, 7.167255e+002
3.987119e+002, 7.150355e+002
3.991940e+002, 7.129880e+002
3.996761e+002, 7.125078e+002
4.001582e+002, 7.147546e+002
4.006404e+002, 7.171695e+002
4.011225e+002, 7.168146e+002
4.016046e+002, 7.138539e+002
4.020867e+002, 7.111664e+002
4.025688e+002, 7.095418e+002
4.030509e+002, 7.086531e+002
4.035331e+002, 7.081632e+002
4.040152e+002, 7.080807e+002
4.044973e+002, 7.079183e+002
4.049794e+002, 7.074280e+002
4.054615e+002, 7.067296e+002
4.059436e+002, 7.061969e+002
4.064258e+002, 7.059617e+002
4.069079e+002, 7.051455e+002
4.073900e+002, 7.022723e+002
4.078721e+002, 6.980506e+002
4.083542e+002, 6.960234e+002
4.088363e+002, 6.987562e+002
4.093185e+002, 7.016804e+002
4.098006e+002, 7.017398e+002
4.102827e+002, 6.994872e+002
4.107648e+002, 6.968356e+002
4.112469e+002, 6.945698e+002
4.117290e+002, 6.924998e+002
4.122112e+002, 6.900921e+002
4.126933e+002, 6.868405e+002
4.131754e+002, 6.845189e+002
4.136575e+002, 6.843173e+002
4.141396e+002, 6.847199e+002
4.146217e+002, 6.839934e+002
4.151039e+002, 6.819030e+002
4.155860e+002, 6.795799e+002
4.160681e+002, 6.781967e+002
4.165502e+002, 6.778900e+002
