##NAMES=Mottramite
##RRUFFID=R050521
##IDEAL CHEMISTRY=Pb^2+^Cu^2+^V^5+^O_4_(OH)
##LOCALITY=Tsumeb mine, Tsumeb, Otavi District, Oshikoto, Namibia
##OWNER=RRUFF
##SOURCE=University of Arizona Mineral Museum
##DESCRIPTION=Green tubular sprays
##STATUS=The identification of this mineral has been confirmed by X-ray diffraction and chemical analysis
##URL=rruff.info/R050521
##MEASURED CHEMISTRY=Pb_1.00_Cu_1.00_((V_0.97_As_0.03_)_Î£=1_O_4_)(OH)
92.37695, 112.4396
92.85907, 111.1079
93.34119, 111.4258
93.82330, 112.4864
94.30542, 113.1977
94.78754, 113.2977
95.26965, 113.0475
95.75177, 112.8138
96.23389, 112.8653
96.71600, 112.9719
97.19812, 113.0031
97.68024, 112.9636
98.16235, 112.8995
98.64447, 112.8466
99.12659, 112.7824
99.60870, 112.5452
100.0908, 112.4493
100.5729, 112.4742
101.0551, 112.5640
101.5372, 112.6815
102.0193, 112.8053
102.5014, 112.8841
102.9835, 112.6667
103.4656, 112.6451
103.9478, 113.0083
104.4299, 113.6213
104.9120, 114.2335
105.3941, 114.6483
105.8762, 114.8476
106.3583, 114.9886
106.8405, 115.1833
107.3226, 115.2165
107.8047, 114.9369
108.2868, 114.3411
108.7689, 113.5694
109.2510, 112.7805
109.7332, 111.9786
110.2153, 110.9856
110.6974, 109.7392
111.1795, 108.2979
111.6616, 106.7268
112.1437, 105.0378
112.6259, 103.2407
113.1080, 101.4377
113.5901, 99.63919
114.0722, 97.55232
114.5543, 94.81533
115.0364, 91.45971
115.5185, 88.40766
116.0007, 86.12632
116.4828, 84.00989
116.9649, 81.61171
117.4470, 78.88749
117.9291, 76.15003
118.4112, 73.79107
118.8934, 71.89277
119.3755, 70.23764
119.8576, 68.95496
120.3397, 67.76152
120.8218, 66.36359
121.3039, 64.64870
121.7861, 62.81955
122.2682, 61.45255
122.7503, 61.30775
123.2324, 60.83863
123.7145, 59.60292
124.1966, 58.02730
124.6788, 56.75686
125.1609, 56.17780
125.6430, 56.20282
126.1251, 56.06438
126.6072, 55.67466
127.0893, 55.25336
127.5715, 54.89806
128.0536, 54.59610
128.5357, 54.27196
129.0178, 53.86146
129.4999, 53.37417
129.9821, 52.90229
130.4642, 52.44690
130.9463, 52.00593
131.4284, 51.56515
131.9105, 51.11595
132.3926, 50.70697
132.8748, 50.33308
133.3569, 50.01837
133.8390, 49.84888
134.3211, 50.02012
134.8032, 50.38975
135.2853, 50.43805
135.7674, 49.94114
136.2496, 49.40461
136.7317, 49.11385
137.2138, 48.99853
137.6959, 48.87237
138.1780, 48.56221
138.6601, 48.04206
139.1423, 47.61509
139.6244, 47.42102
140.1065, 47.20720
140.5886, 46.86008
141.0707, 46.38723
141.5528, 45.87131
142.0350, 45.40829
142.5171, 45.01339
142.9992, 44.63760
143.4813, 44.29178
143.9634, 43.95494
144.4455, 43.58918
144.9277, 43.19390
145.4098, 42.82335
145.8919, 42.57868
146.3740, 42.62043
146.8561, 42.48241
147.3382, 42.01946
147.8204, 41.40653
148.3025, 40.83271
148.7846, 40.35252
149.2667, 39.97905
149.7488, 39.78830
150.2309, 39.84301
150.7131, 39.82511
151.1952, 39.55206
151.6773, 39.09915
152.1594, 38.71939
152.6415, 38.55072
153.1236, 38.45799
153.6058, 38.20444
154.0879, 37.73198
154.5700, 37.28062
155.0521, 37.06753
155.5342, 37.10267
156.0163, 37.15749
156.4985, 37.14898
156.9806, 37.12380
157.4627, 37.13240
157.9448, 37.19676
158.4269, 37.25248
158.9090, 37.18457
159.3912, 36.92645
159.8733, 36.71162
160.3554, 36.61430
160.8375, 36.57165
161.3196, 36.54839
161.8017, 36.53460
162.2839, 36.50052
162.7660, 36.34349
163.2481, 35.84623
163.7302, 35.52425
164.2123, 35.54041
164.6944, 35.73791
165.1766, 35.94535
165.6587, 36.07206
166.1408, 36.11298
166.6229, 36.02892
167.1050, 35.63196
167.5871, 35.31446
168.0693, 35.23183
168.5514, 35.28806
169.0335, 35.28080
169.5156, 35.06636
169.9977, 34.66228
170.4798, 34.38287
170.9620, 34.30402
171.4441, 34.24868
171.9262, 34.12441
172.4083, 33.94594
172.8904, 33.79727
173.3725, 33.75296
173.8547, 33.80177
174.3368, 33.79939
174.8189, 33.66311
175.3010, 33.53267
175.7831, 33.53873
176.2652, 33.68923
176.7474, 33.86557
177.2295, 34.01189
177.7116, 34.11680
178.1937, 34.14214
178.6758, 33.98087
179.1579, 33.77043
179.6401, 33.73327
180.1222, 33.92088
180.6043, 34.13361
181.0864, 34.22264
181.5685, 34.25162
182.0506, 34.32729
182.5328, 34.54658
183.0149, 34.84273
183.4970, 34.99670
183.9791, 34.92189
184.4612, 34.82882
184.9433, 34.80754
185.4255, 34.83522
185.9076, 34.87500
186.3897, 34.91534
186.8718, 34.95135
187.3539, 34.92686
187.8360, 34.76629
188.3182, 34.62116
188.8003, 34.57686
189.2824, 34.58357
189.7645, 34.52699
190.2466, 34.29053
190.7287, 33.85750
191.2109, 33.63605
191.6930, 33.84969
192.1751, 34.05659
192.6572, 34.12623
193.1393, 34.06693
193.6214, 33.94934
194.1036, 33.83985
194.5857, 33.75216
195.0678, 33.54365
195.5499, 33.11745
196.0320, 32.68728
196.5141, 32.34143
196.9963, 32.08538
197.4784, 31.88624
197.9605, 31.71866
198.4426, 31.58670
198.9247, 31.47519
199.4068, 31.44689
199.8890, 31.39042
200.3711, 31.23515
200.8532, 30.97468
201.3353, 30.63655
201.8174, 30.21353
202.2995, 29.70157
202.7817, 29.29252
203.2638, 29.03129
203.7459, 28.85395
204.2280, 28.70624
204.7101, 28.58190
205.1922, 28.49310
205.6744, 28.51596
206.1565, 28.60673
206.6386, 28.53561
207.1207, 28.07889
207.6028, 27.50302
208.0849, 27.20428
208.5671, 27.26604
209.0492, 27.38890
209.5313, 27.31243
210.0134, 27.11457
210.4955, 26.95629
210.9776, 26.91684
211.4598, 26.95428
211.9419, 26.98685
212.4240, 27.03389
212.9061, 27.02855
213.3882, 26.88167
213.8703, 26.66166
214.3525, 26.49487
214.8346, 26.45339
215.3167, 26.51491
215.7988, 26.60499
216.2809, 26.74570
216.7630, 26.88180
217.2451, 27.04939
217.7273, 27.19316
218.2094, 27.20515
218.6915, 26.97049
219.1736, 26.54891
219.6557, 26.30990
220.1378, 26.39587
220.6200, 26.50695
221.1021, 26.53623
221.5842, 26.52698
222.0663, 26.55237
222.5484, 26.65746
223.0305, 26.84013
223.5127, 27.08428
223.9948, 27.56914
224.4769, 27.91927
224.9590, 28.02442
225.4411, 27.94404
225.9232, 27.75933
226.4054, 27.50201
226.8875, 27.19543
227.3696, 27.11035
227.8517, 27.50546
228.3338, 27.85938
228.8159, 28.01069
229.2981, 28.04578
229.7802, 28.14543
230.2623, 28.44092
230.7444, 28.90028
231.2265, 29.14666
231.7086, 28.97495
232.1908, 28.83306
232.6729, 28.84051
233.1550, 28.95901
233.6371, 29.11006
234.1192, 29.25309
234.6013, 29.38198
235.0835, 29.44457
235.5656, 29.30062
236.0477, 29.25440
236.5298, 29.46225
237.0119, 29.83778
237.4940, 30.19517
237.9762, 30.43242
238.4583, 30.56954
238.9404, 30.70224
239.4225, 30.78661
239.9046, 30.91298
240.3867, 31.20984
240.8689, 31.58140
241.3510, 31.76116
241.8331, 31.56733
242.3152, 31.14808
242.7973, 30.94894
243.2794, 31.02552
243.7616, 31.18570
244.2437, 31.38729
244.7258, 31.61513
245.2079, 31.80300
245.6900, 31.87746
246.1721, 31.95712
246.6543, 32.30977
247.1364, 33.05877
247.6185, 33.71949
248.1006, 33.98029
248.5827, 33.93554
249.0648, 33.92879
249.5470, 34.08569
250.0291, 34.32066
250.5112, 34.48088
250.9933, 34.54403
251.4754, 34.66832
251.9576, 34.98771
252.4397, 35.45708
252.9218, 35.88842
253.4039, 36.23013
253.8860, 36.51527
254.3681, 36.78315
254.8503, 37.03449
255.3324, 37.27079
255.8145, 37.42486
256.2966, 37.53885
256.7787, 37.84446
257.2608, 38.46593
257.7430, 39.18953
258.2251, 39.85626
258.7072, 40.46529
259.1893, 41.01093
259.6714, 41.42847
260.1535, 41.75474
260.6357, 42.20435
261.1178, 42.82258
261.5999, 43.54531
262.0820, 44.37773
262.5641, 45.27863
263.0462, 46.12304
263.5284, 46.73963
264.0105, 47.19280
264.4926, 47.90111
264.9747, 48.99386
265.4568, 50.17008
265.9389, 51.34195
266.4211, 52.47758
266.9032, 53.49899
267.3853, 54.29766
267.8674, 54.94818
268.3495, 55.80683
268.8316, 57.04180
269.3138, 58.23769
269.7959, 59.20509
270.2780, 60.04682
270.7601, 60.91607
271.2422, 61.89438
271.7243, 62.95520
272.2065, 64.01730
272.6886, 65.16765
273.1707, 66.14610
273.6528, 66.76753
274.1349, 67.25282
274.6170, 67.84787
275.0992, 68.67036
275.5813, 69.64528
276.0634, 70.57724
276.5455, 71.42203
277.0276, 72.31429
277.5097, 73.38848
277.9919, 74.45934
278.4740, 75.33733
278.9561, 75.95972
279.4382, 76.43542
279.9203, 76.98715
280.4024, 77.70777
280.8846, 78.29453
281.3667, 78.61679
281.8488, 78.88100
282.3309, 79.27288
282.8130, 79.82457
283.2951, 80.38279
283.7773, 80.72173
284.2594, 80.79077
284.7415, 80.74932
285.2236, 80.55989
285.7057, 80.31084
286.1878, 80.03624
286.6700, 79.75014
287.1521, 79.46278
287.6342, 79.18668
288.1163, 78.93118
288.5984, 78.65560
289.0805, 78.43001
289.5627, 78.12680
290.0448, 77.66883
290.5269, 77.07003
291.0090, 76.39890
291.4911, 75.70874
291.9732, 74.99759
292.4554, 74.30908
292.9375, 73.53647
293.4196, 72.88902
293.9017, 72.48149
294.3838, 72.25652
294.8659, 72.08801
295.3481, 71.88832
295.8302, 71.66166
296.3123, 71.47534
296.7944, 71.21774
297.2765, 71.12846
297.7586, 71.28873
298.2408, 71.64260
298.7229, 72.10438
299.2050, 72.62411
299.6871, 73.21902
300.1692, 73.95616
300.6513, 74.95865
301.1335, 75.96474
301.6156, 77.01622
302.0977, 78.02699
302.5798, 78.84119
303.0619, 79.40340
303.5440, 79.91182
304.0262, 80.81560
304.5083, 82.51888
304.9904, 84.01841
305.4725, 85.14064
305.9546, 86.16611
306.4367, 87.33224
306.9189, 88.68847
307.4010, 90.12230
307.8831, 91.47395
308.3652, 92.69401
308.8473, 93.95489
309.3294, 95.28928
309.8116, 96.63753
310.2937, 97.93092
310.7758, 99.18643
311.2579, 100.5059
311.7400, 102.0171
312.2221, 103.8105
312.7043, 105.2080
313.1864, 105.8391
313.6685, 106.5041
314.1506, 107.6867
314.6327, 109.1859
315.1148, 110.4337
315.5970, 110.9697
316.0791, 110.8697
316.5612, 111.1759
317.0433, 112.3910
317.5254, 113.4574
318.0075, 114.1004
318.4897, 114.4649
318.9718, 114.8154
319.4539, 115.2944
319.9360, 115.7894
320.4181, 115.9357
320.9002, 115.3647
321.3824, 114.8793
321.8645, 114.5421
322.3466, 114.2976
322.8287, 114.1380
323.3108, 114.0483
323.7929, 113.9213
324.2751, 113.5737
324.7572, 112.9282
325.2393, 112.1807
325.7214, 111.2852
326.2035, 110.3329
326.6856, 109.3798
327.1678, 108.4339
327.6499, 107.4636
328.1320, 106.4286
328.6141, 105.3169
329.0962, 104.1864
329.5783, 102.9634
330.0605, 101.7919
330.5426, 100.8452
331.0247, 100.0126
331.5068, 99.00278
331.9889, 97.55751
332.4710, 95.72021
332.9532, 94.20440
333.4353, 93.22704
333.9174, 92.34533
334.3995, 91.59184
334.8816, 90.85929
335.3637, 89.99113
335.8459, 88.91045
336.3280, 87.69643
336.8101, 86.61640
337.2922, 85.75796
337.7743, 84.90870
338.2564, 84.03703
338.7386, 83.17059
339.2206, 82.29868
339.7028, 81.42895
340.1849, 80.65334
340.6670, 80.15573
341.1491, 80.15736
341.6312, 79.88057
342.1133, 79.27927
342.5955, 78.48294
343.0776, 77.44862
343.5597, 76.25013
344.0418, 75.09901
344.5239, 74.21191
345.0060, 73.60766
345.4882, 72.93530
345.9703, 72.13450
346.4524, 71.31799
346.9345, 70.50282
347.4166, 69.69418
347.8987, 68.90679
348.3809, 68.16595
348.8630, 67.43273
349.3451, 66.55539
349.8272, 65.41214
350.3093, 64.29218
350.7914, 63.27471
351.2736, 62.29211
351.7557, 61.25264
352.2378, 60.12298
352.7199, 59.01698
353.2020, 58.17189
353.6841, 57.71954
354.1663, 57.12381
354.6484, 56.12337
355.1305, 55.12040
355.6126, 54.38211
356.0947, 53.90997
356.5768, 53.49645
357.0590, 52.92467
357.5411, 52.18882
358.0232, 51.53989
358.5053, 51.06183
358.9874, 50.58453
359.4695, 50.05030
359.9517, 49.46513
360.4338, 48.83838
360.9159, 48.13854
361.3980, 47.42614
361.8801, 46.92991
362.3622, 46.83870
362.8444, 46.54466
363.3265, 45.73089
363.8086, 44.66831
364.2907, 43.60253
364.7728, 42.59329
365.2549, 41.64600
365.7371, 40.76662
366.2192, 39.95205
366.7013, 39.19828
367.1834, 38.47324
367.6655, 37.84429
368.1476, 37.47111
368.6298, 37.32507
369.1119, 37.01419
369.5940, 36.04192
370.0761, 34.60105
370.5582, 33.68859
371.0403, 33.64022
371.5225, 33.66755
372.0046, 33.13027
372.4867, 32.25495
372.9688, 31.56098
373.4509, 31.35454
373.9330, 31.37281
374.4152, 31.21128
374.8973, 30.84451
375.3794, 30.51739
375.8615, 30.35792
376.3436, 30.31474
376.8257, 30.31410
377.3079, 30.36824
377.7900, 30.41802
378.2721, 30.38952
378.7542, 30.31066
379.2363, 30.30363
379.7184, 30.40565
380.2006, 30.58837
380.6827, 30.83139
381.1648, 31.13115
381.6469, 31.43503
382.1290, 31.73185
382.6111, 32.02240
383.0933, 32.30875
383.5754, 32.59274
384.0575, 32.86300
384.5396, 33.10143
385.0217, 33.31599
385.5038, 33.57187
385.9860, 33.87727
386.4681, 34.21751
386.9502, 34.59674
387.4323, 35.00520
387.9144, 35.43655
388.3965, 35.91195
388.8787, 36.36583
389.3608, 36.58976
389.8429, 36.44234
390.3250, 36.40771
390.8071, 36.61262
391.2892, 36.97030
391.7714, 37.44349
392.2535, 38.01107
392.7356, 38.51369
393.2177, 38.75650
393.6998, 38.68710
394.1819, 38.55632
394.6641, 38.30137
395.1462, 38.04625
395.6283, 37.84442
396.1104, 37.70153
396.5925, 37.62294
397.0746, 37.61823
397.5568, 37.67094
398.0389, 37.68828
398.5210, 37.73104
399.0031, 37.66063
399.4852, 37.40132
399.9673, 37.04818
400.4495, 36.69473
400.9316, 36.37347
401.4137, 36.06683
401.8958, 35.75976
402.3779, 35.49743
402.8600, 35.10472
403.3422, 34.47307
403.8243, 33.82413
404.3064, 33.28389
404.7885, 32.82967
405.2706, 32.35965
405.7527, 31.79961
406.2349, 31.15566
406.7170, 30.49415
407.1991, 29.74946
407.6812, 29.09285
408.1633, 28.63622
408.6454, 28.24906
409.1276, 27.76860
409.6097, 27.13516
410.0918, 26.46577
410.5739, 25.94388
411.0560, 25.60358
411.5381, 25.23775
412.0203, 24.74152
412.5024, 24.27813
412.9845, 23.97660
413.4666, 23.81205
413.9487, 23.63789
414.4308, 23.34786
414.9130, 22.96715
415.3951, 22.57770
415.8772, 22.15575
416.3593, 21.78437
416.8414, 21.53735
417.3235, 21.35993
417.8057, 21.17988
418.2878, 20.96514
418.7699, 20.77268
419.2520, 20.68410
419.7341, 20.68559
420.2162, 20.64885
420.6984, 20.55092
421.1805, 20.37558
421.6626, 20.05356
422.1447, 19.57787
422.6268, 19.22467
423.1089, 19.15780
423.5911, 19.24179
424.0732, 19.33402
424.5553, 19.42006
425.0374, 19.40401
425.5195, 19.16716
426.0016, 18.75181
426.4838, 18.47431
426.9659, 18.44189
427.4480, 18.42928
427.9301, 18.36702
428.4122, 18.24836
428.8943, 18.02816
429.3765, 17.67555
429.8586, 17.31082
430.3407, 17.15381
430.8228, 17.34707
431.3049, 17.44609
431.7870, 17.44743
432.2692, 17.35401
432.7513, 17.10461
433.2334, 16.74120
433.7155, 16.42063
434.1976, 16.27834
434.6797, 16.29973
435.1619, 16.26910
435.6440, 16.13287
436.1261, 16.00432
436.6082, 15.89609
437.0903, 15.80735
437.5724, 15.74073
438.0546, 15.69601
438.5367, 15.65786
439.0188, 15.60606
439.5009, 15.54612
439.9830, 15.45387
440.4651, 15.31237
440.9473, 15.15167
441.4294, 14.95058
441.9115, 14.73818
442.3936, 14.58883
442.8757, 14.57051
443.3578, 14.64044
443.8400, 14.65914
444.3221, 14.62443
444.8042, 14.54290
445.2863, 14.34462
445.7684, 14.13906
446.2505, 14.04125
446.7327, 14.07896
447.2148, 14.15266
447.6969, 14.19331
448.1790, 14.20027
448.6611, 14.16500
449.1432, 14.07482
449.6254, 13.96411
450.1075, 13.85019
450.5896, 13.73783
451.0717, 13.64469
451.5538, 13.57171
452.0359, 13.52305
452.5181, 13.52466
453.0002, 13.56590
453.4823, 13.56305
453.9644, 13.45343
454.4465, 13.30672
454.9286, 13.29196
455.4108, 13.43971
455.8929, 13.59159
456.3750, 13.77813
456.8571, 13.91534
457.3392, 13.87021
457.8214, 13.64164
458.3035, 13.39610
458.7856, 13.27779
459.2677, 13.28794
459.7498, 13.32004
460.2319, 13.40370
460.7141, 13.47179
461.1962, 13.52137
461.6783, 13.53890
462.1604, 13.48834
462.6425, 13.35925
463.1246, 13.21135
463.6068, 13.15177
464.0889, 13.22249
464.5710, 13.27208
465.0531, 13.27580
465.5352, 13.28263
466.0173, 13.35747
466.4995, 13.45758
466.9816, 13.46557
467.4637, 13.28057
467.9458, 12.97753
468.4279, 12.79452
468.9100, 12.75567
469.3922, 12.77435
469.8743, 12.91254
470.3564, 13.04437
470.8385, 13.04125
471.3206, 12.88686
471.8027, 12.72966
472.2849, 12.69561
472.7670, 12.75484
473.2491, 12.80607
473.7312, 12.85524
474.2133, 12.85226
474.6954, 12.72259
475.1776, 12.51411
475.6597, 12.33351
476.1418, 12.17041
476.6239, 12.07367
477.1060, 12.11651
477.5881, 12.25715
478.0703, 12.37970
478.5524, 12.44984
479.0345, 12.46896
479.5166, 12.42707
479.9987, 12.30516
480.4808, 12.21049
480.9630, 12.15589
481.4451, 12.12442
481.9272, 12.12689
482.4093, 12.14577
482.8914, 12.12432
483.3735, 12.02137
483.8557, 11.87367
484.3378, 11.81385
484.8199, 11.92934
485.3020, 12.01148
485.7841, 12.03390
486.2662, 12.03454
486.7484, 12.06113
487.2305, 12.10617
487.7126, 12.10408
488.1947, 11.97882
488.6768, 11.74103
489.1589, 11.55819
489.6411, 11.40694
490.1232, 11.35518
490.6053, 11.46955
491.0874, 11.65785
491.5695, 11.83104
492.0516, 11.96780
492.5338, 12.04530
493.0159, 12.01858
493.4980, 11.89854
493.9801, 11.77752
494.4622, 11.65425
494.9443, 11.55961
495.4265, 11.54558
495.9086, 11.58321
496.3907, 11.59153
496.8728, 11.51669
497.3549, 11.43586
497.8370, 11.41634
498.3192, 11.44629
498.8013, 11.49039
499.2834, 11.54407
499.7655, 11.58002
500.2476, 11.54513
500.7297, 11.41153
501.2119, 11.30684
501.6940, 11.20160
502.1761, 11.15800
502.6582, 11.29936
503.1403, 11.55352
503.6224, 11.67559
504.1045, 11.49448
504.5866, 11.12626
505.0688, 11.00001
505.5509, 11.37908
506.0330, 11.58667
506.5151, 11.44084
506.9972, 11.23237
507.4793, 11.20133
507.9615, 11.34170
508.4436, 11.46276
508.9257, 11.38877
509.4078, 11.15702
509.8899, 10.99654
510.3720, 10.91815
510.8542, 10.88784
511.3363, 10.93263
511.8184, 10.99757
512.3005, 11.01313
512.7827, 10.95982
513.2648, 10.93887
513.7469, 11.09330
514.2290, 11.33956
514.7111, 11.40767
515.1932, 11.23277
515.6754, 11.02746
516.1575, 10.94621
516.6396, 10.97212
517.1217, 11.00359
517.6038, 11.02643
518.0859, 11.06744
518.5681, 11.17401
519.0502, 11.29790
519.5323, 11.35197
520.0144, 11.31243
520.4965, 11.22342
520.9786, 11.13087
521.4608, 11.02560
521.9429, 10.97564
522.4250, 11.03670
522.9071, 11.08276
523.3892, 11.04124
523.8713, 10.96350
524.3535, 10.94401
524.8356, 11.02039
525.3177, 11.11869
525.7998, 11.09702
526.2819, 10.91597
526.7640, 10.81468
527.2462, 10.88749
527.7283, 10.96034
528.2104, 10.91912
528.6925, 10.81499
529.1746, 10.77395
529.6567, 10.87302
530.1389, 11.02159
530.6210, 11.09904
531.1031, 11.10904
531.5852, 11.11915
532.0673, 11.15978
532.5494, 11.19041
533.0316, 11.15386
533.5137, 11.05560
533.9958, 10.94547
534.4779, 10.78372
534.9600, 10.65486
535.4421, 10.65639
535.9243, 10.75309
536.4064, 10.82034
536.8885, 10.79705
537.3706, 10.71980
537.8527, 10.66702
538.3348, 10.66817
538.8170, 10.63233
539.2991, 10.51669
539.7812, 10.40560
540.2633, 10.34175
540.7454, 10.32422
541.2275, 10.32879
541.7097, 10.33609
542.1918, 10.37103
542.6739, 10.53995
543.1560, 10.94531
543.6381, 11.15613
544.1202, 10.85859
544.6024, 10.52400
545.0845, 10.48702
545.5666, 10.70705
546.0487, 10.88858
546.5308, 10.84453
547.0129, 10.68456
547.4951, 10.57168
547.9772, 10.50483
548.4593, 10.45034
548.9414, 10.38532
549.4235, 10.33626
549.9056, 10.36743
550.3878, 10.49338
550.8699, 10.59231
551.3520, 10.63480
551.8341, 10.64636
552.3162, 10.62257
552.7983, 10.58273
553.2805, 10.60019
553.7626, 10.72900
554.2447, 10.89751
554.7268, 10.88396
555.2089, 10.48992
555.6910, 10.26902
556.1732, 10.35785
556.6553, 10.49537
557.1374, 10.51457
557.6195, 10.43573
558.1016, 10.37918
558.5837, 10.43175
559.0659, 10.53848
559.5480, 10.55981
560.0301, 10.47811
560.5122, 10.41194
560.9943, 10.36647
561.4764, 10.37940
561.9586, 10.52025
562.4407, 10.77628
562.9228, 10.96206
563.4049, 10.96348
563.8870, 10.89323
564.3691, 10.86989
564.8513, 10.88635
565.3334, 10.88711
565.8155, 10.84954
566.2976, 10.77538
566.7797, 10.66094
567.2618, 10.46364
567.7440, 10.32961
568.2261, 10.27236
568.7082, 10.26599
569.1903, 10.33251
569.6724, 10.43543
570.1545, 10.49243
570.6367, 10.45564
571.1188, 10.38295
571.6009, 10.40448
572.0830, 10.54880
572.5651, 10.68162
573.0472, 10.84999
573.5294, 10.93793
574.0115, 10.83522
574.4936, 10.60151
574.9757, 10.40021
575.4578, 10.29726
575.9399, 10.25658
576.4221, 10.24320
576.9042, 10.25707
577.3863, 10.31179
577.8684, 10.42950
578.3505, 10.53314
578.8326, 10.51202
579.3148, 10.35333
579.7969, 10.27768
580.2790, 10.34233
580.7611, 10.43756
581.2432, 10.57847
581.7253, 10.69544
582.2075, 10.62351
582.6896, 10.32074
583.1717, 10.01858
583.6538, 10.08417
584.1359, 10.60671
584.6180, 10.85205
585.1002, 10.54588
585.5823, 10.28333
586.0643, 10.29597
586.5464, 10.44158
587.0286, 10.52458
587.5107, 10.48621
587.9928, 10.42441
