##NAMES=Mottramite
##RRUFFID=R050521
##IDEAL CHEMISTRY=Pb^2+^Cu^2+^V^5+^O_4_(OH)
##LOCALITY=Tsumeb mine, Tsumeb, Otavi District, Oshikoto, Namibia
##OWNER=RRUFF
##SOURCE=University of Arizona Mineral Museum
##DESCRIPTION=Green tubular sprays
##STATUS=The identification of this mineral has been confirmed by X-ray diffraction and chemical analysis
##URL=rruff.info/R050521
##MEASURED CHEMISTRY=Pb_1.00_Cu_1.00_((V_0.97_As_0.03_)_Î£=1_O_4_)(OH)
90.92609, 0.0000000E+00
91.40820, 25.92363
91.89032, 25.53224
92.37244, 25.76585
92.85455, 26.51599
93.33667, 27.13459
93.81879, 27.01321
94.30090, 26.37050
94.78302, 25.84913
95.26514, 25.56605
95.74725, 25.50721
96.22937, 25.83215
96.71149, 26.58875
97.19360, 27.15515
97.67572, 26.59684
98.15784, 24.94995
98.63995, 23.94215
99.12207, 24.26323
99.60419, 25.73626
100.0863, 26.74625
100.5684, 27.12510
101.0505, 27.38078
101.5327, 28.21944
102.0148, 29.78816
102.4969, 31.42439
102.9790, 32.86109
103.4611, 33.96854
103.9432, 35.45850
104.4253, 37.07331
104.9075, 39.20851
105.3896, 42.59691
105.8717, 47.46800
106.3538, 53.32936
106.8359, 60.06906
107.3180, 67.31651
107.8002, 75.99614
108.2823, 86.64363
108.7644, 98.80104
109.2465, 111.2405
109.7286, 122.9569
110.2107, 135.5112
110.6929, 149.7977
111.1750, 166.3186
111.6571, 183.8520
112.1392, 202.0399
112.6213, 221.0039
113.1034, 242.0731
113.5856, 265.4315
114.0677, 291.2903
114.5498, 319.5630
115.0319, 346.4151
115.5140, 379.5071
115.9961, 421.8769
116.4783, 473.4984
116.9604, 528.9227
117.4425, 590.1952
117.9246, 653.6946
118.4067, 714.8823
118.8888, 773.1820
119.3710, 828.6327
119.8531, 882.0293
120.3352, 933.4972
120.8173, 980.1331
121.2994, 1019.528
121.7815, 1052.441
122.2637, 1080.309
122.7458, 1100.391
123.2279, 1117.126
123.7100, 1134.588
124.1921, 1153.295
124.6742, 1172.355
125.1564, 1189.758
125.6385, 1206.504
126.1206, 1225.847
126.6027, 1249.019
127.0848, 1276.016
127.5669, 1307.427
128.0491, 1344.523
128.5312, 1383.601
129.0133, 1419.874
129.4954, 1453.210
129.9775, 1485.435
130.4596, 1518.446
130.9418, 1551.347
131.4239, 1581.730
131.9060, 1608.669
132.3881, 1633.348
132.8702, 1657.378
133.3523, 1680.754
133.8345, 1704.993
134.3166, 1732.379
134.7987, 1763.099
135.2808, 1791.498
135.7629, 1815.791
136.2450, 1837.263
136.7272, 1861.708
137.2093, 1889.701
137.6914, 1919.295
138.1735, 1948.495
138.6556, 1976.871
139.1377, 2006.077
139.6199, 2036.039
140.1020, 2066.510
140.5841, 2102.959
141.0662, 2147.456
141.5483, 2194.562
142.0304, 2237.063
142.5126, 2272.475
142.9947, 2307.245
143.4768, 2336.348
143.9589, 2355.624
144.4410, 2370.644
144.9231, 2382.701
145.4053, 2390.218
145.8874, 2390.668
146.3695, 2382.458
146.8516, 2369.937
147.3337, 2355.158
147.8158, 2339.985
148.2980, 2317.589
148.7801, 2285.260
149.2622, 2246.337
149.7443, 2208.326
150.2264, 2172.312
150.7085, 2135.536
151.1907, 2097.474
151.6728, 2055.932
152.1549, 2015.498
152.6370, 1976.289
153.1191, 1937.939
153.6012, 1900.667
154.0834, 1863.531
154.5655, 1828.161
155.0476, 1794.630
155.5297, 1762.621
156.0118, 1733.671
156.4939, 1708.698
156.9761, 1686.887
157.4582, 1666.499
157.9403, 1646.224
158.4224, 1627.764
158.9045, 1612.026
159.3866, 1599.479
159.8688, 1589.508
160.3509, 1582.625
160.8330, 1578.489
161.3151, 1575.554
161.7972, 1573.993
162.2793, 1573.050
162.7615, 1572.137
163.2436, 1569.937
163.7257, 1568.828
164.2078, 1570.049
164.6899, 1573.381
165.1720, 1577.379
165.6541, 1582.570
166.1363, 1587.581
166.6184, 1591.059
167.1005, 1593.800
167.5826, 1593.892
168.0647, 1591.320
168.5468, 1585.886
169.0290, 1574.709
169.5111, 1553.373
169.9932, 1525.895
170.4753, 1497.451
170.9574, 1470.329
171.4395, 1443.252
171.9217, 1414.161
172.4038, 1383.078
172.8859, 1353.141
173.3680, 1326.307
173.8501, 1302.404
174.3322, 1280.612
174.8144, 1260.283
175.2965, 1241.901
175.7786, 1226.102
176.2607, 1212.647
176.7428, 1202.754
177.2249, 1200.664
177.7071, 1203.329
178.1892, 1203.219
178.6713, 1193.515
179.1534, 1179.873
179.6355, 1171.727
180.1176, 1169.535
180.5998, 1170.149
181.0819, 1170.248
181.5640, 1170.295
182.0461, 1172.010
182.5282, 1177.443
183.0103, 1184.983
183.4925, 1191.041
183.9746, 1195.411
184.4567, 1198.534
184.9388, 1199.416
185.4209, 1198.746
185.9030, 1200.627
186.3852, 1208.928
186.8673, 1221.621
187.3494, 1231.455
187.8315, 1237.549
188.3136, 1242.760
188.7957, 1251.474
189.2779, 1263.408
189.7600, 1275.671
190.2421, 1286.045
190.7242, 1295.084
191.2063, 1306.847
191.6884, 1322.198
192.1706, 1338.393
192.6527, 1350.791
193.1348, 1359.236
193.6169, 1368.774
194.0990, 1383.339
194.5811, 1402.362
195.0633, 1418.542
195.5454, 1431.550
196.0275, 1441.665
196.5096, 1449.168
196.9917, 1454.185
197.4738, 1455.895
197.9560, 1453.925
198.4381, 1448.338
198.9202, 1439.263
199.4023, 1426.694
199.8844, 1410.750
200.3665, 1391.142
200.8487, 1367.293
201.3308, 1342.894
201.8129, 1319.713
202.2950, 1297.816
202.7771, 1276.208
203.2592, 1254.199
203.7414, 1232.855
204.2235, 1214.339
204.7056, 1199.123
205.1877, 1185.474
205.6698, 1173.025
206.1519, 1162.094
206.6341, 1149.981
207.1162, 1136.306
207.5983, 1121.782
208.0804, 1108.030
208.5625, 1095.230
209.0446, 1083.040
209.5268, 1071.168
210.0089, 1059.382
210.4910, 1049.339
210.9731, 1042.071
211.4552, 1035.872
211.9373, 1026.141
212.4195, 1011.145
212.9016, 997.1457
213.3837, 987.8137
213.8658, 984.9846
214.3479, 979.8687
214.8300, 971.4671
215.3121, 961.1257
215.7943, 951.9126
216.2764, 943.7305
216.7585, 937.0063
217.2406, 932.2858
217.7227, 930.6644
218.2048, 927.4449
218.6870, 921.6982
219.1691, 914.7726
219.6512, 909.8210
220.1333, 907.6285
220.6154, 905.9221
221.0975, 903.4772
221.5797, 899.4775
222.0618, 897.4238
222.5439, 898.5815
223.0260, 901.1128
223.5081, 900.4445
223.9902, 894.2321
224.4724, 888.9745
224.9545, 887.8045
225.4366, 892.6105
225.9187, 896.0067
226.4008, 897.5579
226.8829, 897.9505
227.3651, 898.6384
227.8472, 899.7906
228.3293, 900.9530
228.8114, 901.6711
229.2935, 901.0995
229.7757, 902.7679
230.2578, 907.6878
230.7399, 914.3088
231.2220, 919.6719
231.7041, 923.2057
232.1862, 926.2651
232.6684, 928.9017
233.1505, 930.0934
233.6326, 934.3929
234.1147, 943.5702
234.5968, 954.9028
235.0789, 963.0960
235.5611, 966.2368
236.0432, 969.3156
236.5253, 973.8878
237.0074, 979.9576
237.4895, 987.3636
237.9716, 996.5788
238.4538, 1006.850
238.9359, 1017.040
239.4180, 1027.663
239.9001, 1037.526
240.3822, 1045.856
240.8643, 1051.779
241.3465, 1060.032
241.8286, 1071.790
242.3107, 1085.044
242.7928, 1097.065
243.2749, 1107.922
243.7570, 1117.382
244.2392, 1125.055
244.7213, 1130.586
245.2034, 1136.629
245.6855, 1143.301
246.1676, 1150.438
246.6497, 1158.108
247.1319, 1167.609
247.6140, 1175.253
248.0961, 1179.490
248.5782, 1179.778
249.0603, 1182.085
249.5424, 1187.224
250.0246, 1193.647
250.5067, 1199.711
250.9888, 1205.048
251.4709, 1210.754
251.9530, 1216.992
252.4351, 1223.807
252.9173, 1231.270
253.3994, 1239.466
253.8815, 1248.277
254.3636, 1257.596
254.8457, 1267.202
255.3278, 1277.553
255.8100, 1289.059
256.2921, 1301.701
256.7742, 1313.180
257.2563, 1322.817
257.7384, 1332.173
258.2205, 1341.988
258.7026, 1351.229
259.1848, 1363.855
259.6669, 1381.086
260.1490, 1402.563
260.6311, 1423.752
261.1132, 1444.298
261.5953, 1465.135
262.0775, 1486.548
262.5596, 1508.591
263.0417, 1531.378
263.5238, 1554.052
264.0059, 1577.442
264.4880, 1607.232
264.9702, 1644.761
265.4523, 1685.691
265.9344, 1727.253
266.4165, 1769.657
266.8986, 1812.825
267.3807, 1856.053
267.8629, 1900.622
268.3450, 1951.536
268.8271, 2010.887
269.3092, 2072.867
269.7913, 2135.361
270.2734, 2197.438
270.7556, 2262.972
271.2377, 2332.846
271.7198, 2406.585
272.2019, 2484.184
272.6840, 2566.364
273.1661, 2650.221
273.6483, 2733.947
274.1304, 2816.749
274.6125, 2903.899
275.0946, 2996.017
275.5767, 3090.904
276.0588, 3183.376
276.5410, 3271.534
277.0231, 3365.562
277.5052, 3470.015
277.9873, 3585.477
278.4694, 3695.794
278.9515, 3798.692
279.4337, 3900.947
279.9158, 4012.117
280.3979, 4132.086
280.8800, 4257.325
281.3621, 4385.774
281.8442, 4517.448
282.3264, 4646.804
282.8085, 4773.053
283.2906, 4899.910
283.7727, 5033.834
284.2548, 5175.006
284.7369, 5312.039
285.2191, 5444.097
285.7012, 5568.820
286.1833, 5682.712
286.6654, 5786.324
287.1475, 5876.109
287.6296, 5951.605
288.1118, 6012.075
288.5939, 6045.365
289.0760, 6048.766
289.5581, 6023.022
290.0402, 5967.586
290.5223, 5881.790
291.0045, 5774.678
291.4866, 5650.333
291.9687, 5509.278
292.4508, 5352.479
292.9329, 5175.631
293.4150, 4989.411
293.8972, 4801.638
294.3793, 4612.954
294.8614, 4429.652
295.3435, 4256.477
295.8256, 4093.011
296.3077, 3940.059
296.7899, 3799.579
297.2720, 3668.246
297.7541, 3543.125
298.2362, 3425.395
298.7183, 3317.762
299.2004, 3220.842
299.6826, 3135.771
300.1647, 3063.035
300.6468, 3003.408
301.1289, 2954.410
301.6110, 2914.785
302.0931, 2883.720
302.5753, 2857.957
303.0574, 2834.914
303.5395, 2817.032
304.0216, 2808.703
304.5037, 2810.026
304.9858, 2816.893
305.4680, 2823.457
305.9501, 2833.514
306.4322, 2853.530
306.9143, 2889.770
307.3964, 2934.258
307.8785, 2980.053
308.3607, 3027.422
308.8428, 3080.268
309.3249, 3141.079
309.8070, 3208.857
310.2891, 3282.136
310.7712, 3361.343
311.2534, 3446.062
311.7355, 3536.468
312.2176, 3632.835
312.6997, 3733.519
313.1818, 3837.675
313.6639, 3944.303
314.1461, 4053.160
314.6282, 4162.368
315.1103, 4275.887
315.5924, 4395.808
316.0745, 4520.909
316.5566, 4650.812
317.0388, 4785.073
317.5209, 4922.874
318.0030, 5065.312
318.4851, 5212.954
318.9672, 5363.237
319.4493, 5515.229
319.9315, 5668.773
320.4136, 5825.818
320.8957, 5989.194
321.3778, 6152.468
321.8599, 6315.226
322.3420, 6477.550
322.8242, 6637.220
323.3063, 6798.257
323.7884, 6954.296
324.2705, 7099.782
324.7526, 7235.706
325.2347, 7360.138
325.7169, 7473.342
326.1990, 7575.642
326.6811, 7656.180
327.1632, 7711.379
327.6453, 7746.569
328.1274, 7764.634
328.6096, 7767.284
329.0917, 7750.728
329.5738, 7713.788
330.0559, 7657.799
330.5380, 7585.627
331.0201, 7493.461
331.5023, 7389.272
331.9844, 7274.820
332.4665, 7148.236
332.9486, 7018.251
333.4307, 6886.158
333.9128, 6750.505
334.3950, 6611.348
334.8771, 6465.458
335.3592, 6319.700
335.8413, 6176.828
336.3234, 6035.926
336.8055, 5899.573
337.2877, 5768.683
337.7698, 5642.972
338.2519, 5520.387
338.7340, 5401.658
339.2161, 5287.046
339.6982, 5177.038
340.1803, 5071.326
340.6624, 4973.843
341.1446, 4882.798
341.6267, 4802.454
342.1088, 4734.294
342.5909, 4678.978
343.0730, 4633.221
343.5551, 4598.144
344.0373, 4571.118
344.5194, 4546.872
345.0015, 4525.067
345.4836, 4508.535
345.9657, 4498.956
346.4478, 4496.063
346.9300, 4500.460
347.4121, 4514.049
347.8942, 4528.293
348.3763, 4533.146
348.8584, 4528.967
349.3405, 4518.026
349.8227, 4500.885
350.3048, 4477.884
350.7869, 4450.110
351.2690, 4417.804
351.7511, 4379.040
352.2332, 4330.118
352.7154, 4273.804
353.1975, 4215.702
353.6796, 4155.555
354.1617, 4096.377
354.6438, 4041.034
355.1259, 3989.423
355.6081, 3941.474
356.0902, 3894.535
356.5723, 3851.675
357.0544, 3815.590
357.5365, 3786.320
358.0186, 3765.868
358.5008, 3756.283
358.9829, 3756.593
359.4650, 3764.748
359.9471, 3785.271
360.4292, 3809.387
360.9113, 3831.254
361.3935, 3849.558
361.8756, 3869.936
362.3577, 3899.433
362.8398, 3930.650
363.3219, 3955.169
363.8040, 3974.973
364.2862, 3983.725
364.7683, 3981.536
365.2504, 3967.960
365.7325, 3936.725
366.2146, 3885.823
366.6967, 3817.442
367.1789, 3732.944
367.6610, 3626.231
368.1431, 3510.744
368.6252, 3385.002
369.1073, 3249.803
369.5894, 3110.337
370.0716, 2956.258
370.5537, 2807.380
371.0358, 2669.585
371.5179, 2544.712
372.0000, 2424.542
372.4821, 2308.280
372.9643, 2198.357
373.4464, 2098.599
373.9285, 2011.144
374.4106, 1931.014
374.8927, 1856.612
375.3748, 1787.698
375.8570, 1726.223
376.3391, 1672.299
376.8212, 1624.444
377.3033, 1581.306
377.7854, 1543.437
378.2675, 1508.052
378.7497, 1474.590
379.2318, 1443.261
379.7139, 1412.817
380.1960, 1383.241
380.6781, 1357.841
381.1602, 1340.392
381.6424, 1329.731
382.1245, 1318.257
382.6066, 1305.238
383.0887, 1292.651
383.5708, 1281.940
384.0529, 1273.434
384.5351, 1268.292
385.0172, 1268.238
385.4993, 1271.323
385.9814, 1273.841
386.4635, 1275.869
386.9456, 1279.646
387.4278, 1286.093
387.9099, 1295.598
388.3920, 1309.485
388.8741, 1329.984
389.3562, 1351.490
389.8383, 1368.094
390.3205, 1381.784
390.8026, 1397.718
391.2847, 1419.016
391.7668, 1443.279
392.2489, 1469.243
392.7310, 1496.772
393.2132, 1525.206
393.6953, 1553.626
394.1774, 1582.590
394.6595, 1613.033
395.1416, 1645.235
395.6237, 1678.659
396.1059, 1712.865
396.5880, 1747.927
397.0701, 1785.109
397.5522, 1823.579
398.0343, 1864.603
398.5164, 1908.863
398.9986, 1957.995
399.4807, 2008.360
399.9628, 2060.969
400.4449, 2114.703
400.9270, 2167.237
401.4091, 2217.686
401.8913, 2267.410
402.3734, 2317.643
402.8555, 2369.582
403.3376, 2415.422
403.8197, 2455.232
404.3018, 2488.853
404.7840, 2516.956
405.2661, 2541.177
405.7482, 2554.132
406.2303, 2554.137
406.7124, 2541.965
407.1945, 2521.065
407.6767, 2491.712
408.1588, 2452.115
408.6409, 2398.167
409.1230, 2330.863
409.6051, 2262.373
410.0872, 2193.105
410.5694, 2123.003
411.0515, 2051.752
411.5336, 1979.661
412.0157, 1910.463
412.4978, 1845.474
412.9799, 1784.571
413.4621, 1726.561
413.9442, 1671.019
414.4263, 1620.634
414.9084, 1577.365
415.3905, 1540.304
415.8727, 1507.284
416.3548, 1477.870
416.8369, 1452.044
417.3190, 1430.527
417.8011, 1412.662
418.2832, 1396.339
418.7654, 1379.738
419.2475, 1365.017
419.7296, 1354.250
420.2117, 1347.927
420.6938, 1342.917
421.1759, 1336.029
421.6581, 1330.574
422.1402, 1330.013
422.6223, 1340.163
423.1044, 1350.048
423.5865, 1355.423
424.0686, 1357.216
424.5508, 1363.187
425.0329, 1377.697
425.5150, 1393.562
425.9971, 1407.516
426.4792, 1418.089
426.9613, 1429.802
427.4435, 1443.121
427.9256, 1457.274
428.4077, 1471.268
428.8898, 1486.154
429.3719, 1498.987
429.8540, 1509.383
430.3362, 1517.258
430.8183, 1521.529
431.3004, 1521.816
431.7825, 1519.477
432.2646, 1515.867
432.7467, 1511.024
433.2289, 1502.900
433.7110, 1491.172
434.1931, 1476.356
434.6752, 1459.784
435.1573, 1441.304
435.6394, 1419.350
436.1216, 1391.475
436.6036, 1359.700
437.0858, 1329.152
437.5679, 1299.841
438.0500, 1269.998
438.5321, 1237.499
439.0142, 1203.525
439.4963, 1169.915
439.9785, 1136.403
440.4606, 1104.456
440.9427, 1076.337
441.4248, 1051.100
441.9069, 1026.308
442.3890, 999.8597
442.8712, 974.1426
443.3533, 950.9244
443.8354, 930.7787
444.3175, 911.1281
444.7996, 891.2897
445.2817, 871.6609
445.7639, 852.4875
446.2460, 832.5023
446.7281, 814.3234
447.2102, 798.9797
447.6923, 786.1371
448.1744, 774.0226
448.6566, 763.5471
449.1387, 752.7549
449.6208, 740.5130
450.1029, 725.5714
450.5850, 712.7942
451.0671, 703.0499
451.5493, 694.7350
452.0314, 685.4288
452.5135, 674.7621
452.9956, 665.0981
453.4777, 657.2626
453.9598, 650.9808
454.4420, 644.9537
454.9241, 639.2366
455.4062, 633.7579
455.8883, 628.6227
456.3704, 623.7578
456.8525, 618.9934
457.3347, 614.4967
457.8168, 609.7361
458.2989, 603.2899
458.7810, 595.9513
459.2631, 590.2646
459.7452, 589.3488
460.2274, 589.3624
460.7095, 585.2239
461.1916, 577.4894
461.6737, 570.8386
462.1558, 568.8566
462.6379, 568.7943
463.1201, 568.1978
463.6022, 566.5094
464.0843, 564.3914
464.5664, 561.0306
465.0485, 557.6110
465.5306, 556.0242
466.0128, 559.0276
466.4949, 561.6160
466.9770, 562.4963
467.4591, 561.5995
467.9412, 559.3365
468.4233, 554.2689
468.9055, 549.1085
469.3876, 545.4398
469.8697, 544.1888
470.3518, 542.4736
470.8339, 540.3004
471.3160, 537.5654
471.7982, 533.9784
472.2803, 529.4105
472.7624, 524.4409
473.2445, 518.9362
473.7266, 513.1588
474.2087, 509.1714
474.6909, 507.1709
475.1730, 505.3327
475.6551, 501.8382
476.1372, 497.1354
476.6193, 493.2088
477.1014, 490.5598
477.5836, 488.2018
478.0657, 484.9942
478.5478, 481.0869
479.0299, 476.9880
479.5120, 472.4445
479.9941, 468.0875
480.4763, 464.5878
480.9584, 461.8997
481.4405, 459.6337
481.9226, 457.8773
482.4047, 456.2855
482.8868, 454.5366
483.3690, 452.3866
483.8511, 450.5030
484.3332, 449.7836
484.8153, 449.3167
485.2974, 447.5968
485.7795, 442.7092
486.2617, 438.3814
486.7438, 435.4455
487.2259, 433.8794
487.7080, 432.7570
488.1901, 432.4163
488.6722, 432.0708
489.1544, 431.1187
489.6365, 429.2433
490.1186, 428.1234
490.6007, 428.0766
491.0828, 428.4078
491.5649, 427.9919
492.0471, 426.8035
492.5292, 425.4669
493.0113, 423.9867
493.4934, 422.6095
493.9755, 422.3255
494.4576, 423.0709
494.9398, 423.4727
495.4219, 422.1396
495.9040, 419.8435
496.3861, 418.0109
496.8682, 416.8058
497.3503, 415.9417
497.8325, 415.4529
498.3146, 415.0830
498.7967, 414.4236
499.2788, 413.0002
499.7609, 411.5626
500.2430, 410.5991
500.7252, 409.9910
501.2073, 409.1570
501.6894, 407.7149
502.1715, 406.2036
502.6536, 404.8234
503.1357, 403.5336
503.6179, 402.5983
504.1000, 402.2304
504.5821, 402.0755
505.0642, 401.7125
505.5463, 400.7353
506.0284, 400.5315
506.5106, 401.7885
506.9927, 403.7790
507.4748, 403.7661
507.9569, 401.2613
508.4390, 399.0862
508.9211, 399.0696
509.4033, 400.8542
509.8854, 401.3860
510.3675, 400.5726
510.8496, 399.2748
511.3317, 397.9913
511.8138, 396.8851
512.2960, 396.5161
512.7781, 397.2809
513.2602, 398.2269
513.7423, 398.6308
514.2244, 398.4528
514.7065, 397.5914
515.1887, 395.2551
515.6708, 392.8022
516.1529, 391.2201
516.6350, 390.5127
517.1171, 389.8067
517.5992, 388.4854
518.0814, 387.2811
518.5635, 386.6860
519.0456, 387.0428
519.5277, 387.5656
520.0098, 388.5623
520.4919, 389.5552
520.9741, 389.7400
521.4562, 388.5031
521.9383, 387.7252
522.4204, 388.1057
522.9025, 389.3375
523.3846, 389.3570
523.8668, 387.9398
524.3489, 386.2315
524.8310, 384.5816
525.3131, 383.0954
525.7952, 383.0966
526.2773, 384.8836
526.7595, 386.7105
527.2416, 386.2319
527.7237, 384.2075
528.2058, 382.6002
528.6879, 382.2679
529.1700, 382.2259
529.6522, 381.3775
530.1343, 380.0214
530.6164, 378.9922
531.0985, 378.8397
531.5806, 379.0532
532.0627, 379.4797
532.5449, 380.1308
533.0270, 380.4609
533.5091, 379.7236
533.9912, 378.9787
534.4733, 378.9941
534.9554, 380.9105
535.4376, 382.0475
535.9197, 382.1200
536.4018, 381.5405
536.8839, 381.0272
537.3660, 380.6693
537.8481, 380.0695
538.3303, 378.8956
538.8124, 377.3874
539.2945, 376.9966
539.7766, 377.8474
540.2587, 378.7644
540.7408, 378.9320
541.2230, 378.5065
541.7051, 377.9738
542.1872, 377.3423
542.6693, 376.8422
543.1514, 376.6660
543.6335, 376.7924
544.1157, 377.2016
544.5978, 378.1023
545.0799, 378.9813
545.5620, 379.5792
546.0441, 379.8800
546.5262, 379.8427
547.0084, 379.1317
547.4905, 378.3687
547.9726, 377.5689
548.4547, 376.6764
548.9368, 376.7691
549.4189, 379.3373
549.9011, 381.7593
550.3832, 382.3579
550.8653, 379.6835
551.3474, 378.7045
551.8295, 380.1855
552.3116, 382.5443
552.7938, 383.2533
553.2759, 382.0935
553.7580, 381.4723
554.2401, 382.3261
554.7222, 383.8704
555.2043, 383.8372
555.6865, 382.3860
556.1686, 381.2589
556.6507, 382.2323
557.1328, 383.9291
557.6149, 383.9883
558.0970, 382.2737
558.5792, 380.7242
559.0613, 380.8657
559.5434, 381.8023
560.0255, 382.6747
560.5076, 383.3829
560.9897, 383.8095
561.4719, 383.7654
561.9540, 383.4441
562.4361, 383.1685
562.9182, 383.0174
563.4003, 382.8715
563.8824, 382.7975
564.3646, 382.7404
564.8467, 382.2261
565.3288, 380.9205
565.8109, 379.8290
566.2930, 379.4439
566.7751, 379.7775
567.2573, 380.7414
567.7394, 382.5540
568.2215, 384.0133
568.7036, 383.0872
569.1857, 380.6159
569.6678, 380.1160
570.1500, 383.1555
570.6321, 386.3227
571.1142, 384.3339
571.5963, 379.4609
572.0784, 376.8246
572.5605, 381.4713
573.0427, 386.6072
573.5248, 388.0707
574.0069, 386.2304
574.4890, 384.1184
574.9711, 381.7734
575.4532, 380.1532
575.9354, 380.0493
576.4175, 382.2165
576.8996, 383.2833
577.3817, 382.5778
577.8638, 381.4207
578.3459, 380.8746
578.8281, 380.9066
579.3102, 381.9029
579.7923, 384.3367
580.2744, 387.1006
580.7565, 387.6925
581.2386, 386.2460
581.7208, 385.1723
582.2029, 385.5921
582.6850, 386.8051
583.1671, 387.7346
583.6492, 388.3723
584.1313, 388.6670
584.6134, 388.3359
585.0955, 387.8078
585.5776, 387.5033
586.0598, 387.4892
586.5419, 387.4682
