##NAMES=Mottramite
##RRUFFID=R120112
##IDEAL CHEMISTRY=Pb^2+^Cu^2+^V^5+^O_4_(OH)
##LOCALITY=Copperopolis, Yavapai County, Arizona, USA
##OWNER=RRUFF
##SOURCE=Joe Ruiz
##DESCRIPTION=Radial sprays of yellow transparent needles, variety duhamelite; associated with goethite
##STATUS=The identification of this mineral has been confirmed only by single crystal X-ray diffraction.
##URL=rruff.info/R120112
9.001007e+001, 0.000000e+000
9.049219e+001, 1.249003e+001
9.097430e+001, 1.229569e+001
9.145642e+001, 1.233522e+001
9.193854e+001, 1.259150e+001
9.242065e+001, 1.292170e+001
9.290277e+001, 1.331266e+001
9.338489e+001, 1.369873e+001
9.386700e+001, 1.391852e+001
9.434912e+001, 1.384841e+001
9.483124e+001, 1.359516e+001
9.531335e+001, 1.338091e+001
9.579547e+001, 1.321208e+001
9.627759e+001, 1.302946e+001
9.675970e+001, 1.262128e+001
9.724182e+001, 1.202628e+001
9.772394e+001, 1.173967e+001
9.820605e+001, 1.227583e+001
9.868817e+001, 1.352306e+001
9.917029e+001, 1.397121e+001
9.965240e+001, 1.340140e+001
1.001345e+002, 1.236456e+001
1.006166e+002, 1.195158e+001
1.010988e+002, 1.227227e+001
1.015809e+002, 1.272124e+001
1.020630e+002, 1.299777e+001
1.025451e+002, 1.308607e+001
1.030272e+002, 1.309412e+001
1.035093e+002, 1.303711e+001
1.039915e+002, 1.290487e+001
1.044736e+002, 1.259323e+001
1.049557e+002, 1.189395e+001
1.054378e+002, 1.132143e+001
1.059199e+002, 1.130234e+001
1.064020e+002, 1.235832e+001
1.068842e+002, 1.299283e+001
1.073663e+002, 1.290568e+001
1.078484e+002, 1.208724e+001
1.083305e+002, 1.139764e+001
1.088126e+002, 1.070001e+001
1.092947e+002, 1.021534e+001
1.097769e+002, 1.015019e+001
1.102590e+002, 1.107280e+001
1.107411e+002, 1.183932e+001
1.112232e+002, 1.220117e+001
1.117053e+002, 1.204851e+001
1.121874e+002, 1.196250e+001
1.126696e+002, 1.212033e+001
1.131517e+002, 1.232883e+001
1.136338e+002, 1.233771e+001
1.141159e+002, 1.182178e+001
1.145980e+002, 1.133727e+001
1.150801e+002, 1.110972e+001
1.155623e+002, 1.129535e+001
1.160444e+002, 1.142746e+001
1.165265e+002, 1.129453e+001
1.170086e+002, 1.101930e+001
1.174907e+002, 1.086111e+001
1.179728e+002, 1.107848e+001
1.184550e+002, 1.133819e+001
1.189371e+002, 1.141803e+001
1.194192e+002, 1.117214e+001
1.199013e+002, 1.089332e+001
1.203834e+002, 1.066065e+001
1.208655e+002, 1.049668e+001
1.213477e+002, 1.048977e+001
1.218298e+002, 1.094207e+001
1.223119e+002, 1.148718e+001
1.227940e+002, 1.173077e+001
1.232761e+002, 1.143373e+001
1.237582e+002, 1.089883e+001
1.242404e+002, 1.022309e+001
1.247225e+002, 9.434848e+000
1.252046e+002, 8.882214e+000
1.256867e+002, 9.019536e+000
1.261688e+002, 9.573020e+000
1.266509e+002, 1.004641e+001
1.271331e+002, 1.018225e+001
1.276152e+002, 1.014945e+001
1.280973e+002, 1.018154e+001
1.285794e+002, 1.027974e+001
1.290615e+002, 1.042788e+001
1.295436e+002, 1.069243e+001
1.300258e+002, 1.102599e+001
1.305079e+002, 1.121715e+001
1.309900e+002, 1.108316e+001
1.314721e+002, 1.072574e+001
1.319542e+002, 1.045870e+001
1.324363e+002, 1.030528e+001
1.329185e+002, 1.020216e+001
1.334006e+002, 9.977818e+000
1.338827e+002, 9.632952e+000
1.343648e+002, 9.491501e+000
1.348469e+002, 9.887677e+000
1.353290e+002, 1.076702e+001
1.358112e+002, 1.132481e+001
1.362933e+002, 1.145988e+001
1.367754e+002, 1.129195e+001
1.372575e+002, 1.101973e+001
1.377396e+002, 1.059974e+001
1.382217e+002, 1.026729e+001
1.387039e+002, 1.022085e+001
1.391860e+002, 1.051660e+001
1.396681e+002, 1.069273e+001
1.401502e+002, 1.066523e+001
1.406323e+002, 1.048646e+001
1.411144e+002, 1.038288e+001
1.415966e+002, 1.037135e+001
1.420787e+002, 1.040299e+001
1.425608e+002, 1.047166e+001
1.430429e+002, 1.064637e+001
1.435250e+002, 1.064839e+001
1.440071e+002, 1.033303e+001
1.444893e+002, 9.726707e+000
1.449714e+002, 9.471344e+000
1.454535e+002, 9.770698e+000
1.459356e+002, 1.022563e+001
1.464177e+002, 1.044575e+001
1.468998e+002, 1.024536e+001
1.473820e+002, 1.010755e+001
1.478641e+002, 1.011644e+001
1.483462e+002, 1.028250e+001
1.488283e+002, 1.053173e+001
1.493104e+002, 1.100092e+001
1.497925e+002, 1.149038e+001
1.502747e+002, 1.177294e+001
1.507568e+002, 1.163672e+001
1.512389e+002, 1.150593e+001
1.517210e+002, 1.147444e+001
1.522031e+002, 1.157508e+001
1.526852e+002, 1.167004e+001
1.531674e+002, 1.167670e+001
1.536495e+002, 1.169450e+001
1.541316e+002, 1.186655e+001
1.546137e+002, 1.225697e+001
1.550958e+002, 1.275719e+001
1.555779e+002, 1.335301e+001
1.560601e+002, 1.409585e+001
1.565422e+002, 1.480633e+001
1.570243e+002, 1.533981e+001
1.575064e+002, 1.582534e+001
1.579885e+002, 1.651278e+001
1.584706e+002, 1.727763e+001
1.589528e+002, 1.838684e+001
1.594349e+002, 2.000040e+001
1.599170e+002, 2.236179e+001
1.603991e+002, 2.483857e+001
1.608812e+002, 2.718252e+001
1.613633e+002, 2.950110e+001
1.618455e+002, 3.207639e+001
1.623276e+002, 3.491323e+001
1.628097e+002, 3.807723e+001
1.632918e+002, 4.167130e+001
1.637739e+002, 4.571278e+001
1.642560e+002, 5.015327e+001
1.647382e+002, 5.487691e+001
1.652203e+002, 5.995032e+001
1.657024e+002, 6.562840e+001
1.661845e+002, 7.255349e+001
1.666666e+002, 7.993495e+001
1.671487e+002, 8.695890e+001
1.676309e+002, 9.296655e+001
1.681130e+002, 9.912315e+001
1.685951e+002, 1.060695e+002
1.690772e+002, 1.137674e+002
1.695593e+002, 1.218256e+002
1.700414e+002, 1.298205e+002
1.705236e+002, 1.381383e+002
1.710057e+002, 1.471913e+002
1.714878e+002, 1.592104e+002
1.719699e+002, 1.705279e+002
1.724520e+002, 1.772351e+002
1.729341e+002, 1.796659e+002
1.734163e+002, 1.815535e+002
1.738984e+002, 1.854867e+002
1.743805e+002, 1.907342e+002
1.748626e+002, 1.959415e+002
1.753447e+002, 2.006868e+002
1.758268e+002, 2.051928e+002
1.763090e+002, 2.096331e+002
1.767911e+002, 2.139678e+002
1.772732e+002, 2.184329e+002
1.777553e+002, 2.223053e+002
1.782374e+002, 2.254187e+002
1.787195e+002, 2.284408e+002
1.792017e+002, 2.314571e+002
1.796838e+002, 2.346783e+002
1.801659e+002, 2.383719e+002
1.806480e+002, 2.425776e+002
1.811301e+002, 2.471254e+002
1.816122e+002, 2.521099e+002
1.820944e+002, 2.574247e+002
1.825765e+002, 2.625849e+002
1.830586e+002, 2.670512e+002
1.835407e+002, 2.712765e+002
1.840228e+002, 2.766485e+002
1.845049e+002, 2.832765e+002
1.849871e+002, 2.902337e+002
1.854692e+002, 2.963782e+002
1.859513e+002, 3.018472e+002
1.864334e+002, 3.070156e+002
1.869155e+002, 3.119865e+002
1.873976e+002, 3.168186e+002
1.878798e+002, 3.217815e+002
1.883619e+002, 3.268628e+002
1.888440e+002, 3.320744e+002
1.893261e+002, 3.375869e+002
1.898082e+002, 3.433884e+002
1.902903e+002, 3.486320e+002
1.907725e+002, 3.527173e+002
1.912546e+002, 3.558576e+002
1.917367e+002, 3.589171e+002
1.922188e+002, 3.619573e+002
1.927009e+002, 3.649205e+002
1.931830e+002, 3.676581e+002
1.936652e+002, 3.701615e+002
1.941473e+002, 3.725099e+002
1.946294e+002, 3.746931e+002
1.951115e+002, 3.767186e+002
1.955936e+002, 3.786944e+002
1.960757e+002, 3.806428e+002
1.965579e+002, 3.825166e+002
1.970400e+002, 3.842933e+002
1.975221e+002, 3.859967e+002
1.980042e+002, 3.873800e+002
1.984863e+002, 3.880929e+002
1.989684e+002, 3.881198e+002
1.994506e+002, 3.887404e+002
1.999327e+002, 3.901862e+002
2.004148e+002, 3.920711e+002
2.008969e+002, 3.934777e+002
2.013790e+002, 3.943212e+002
2.018611e+002, 3.952324e+002
2.023433e+002, 3.966795e+002
2.028254e+002, 3.987295e+002
2.033075e+002, 4.005251e+002
2.037896e+002, 4.019497e+002
2.042717e+002, 4.031129e+002
2.047538e+002, 4.042026e+002
2.052360e+002, 4.051483e+002
2.057181e+002, 4.062497e+002
2.062002e+002, 4.077162e+002
2.066823e+002, 4.095909e+002
2.071644e+002, 4.114665e+002
2.076465e+002, 4.132226e+002
2.081287e+002, 4.149917e+002
2.086108e+002, 4.175116e+002
2.090929e+002, 4.212798e+002
2.095750e+002, 4.244339e+002
2.100571e+002, 4.256361e+002
2.105392e+002, 4.245125e+002
2.110214e+002, 4.232101e+002
2.115035e+002, 4.216725e+002
2.119856e+002, 4.201649e+002
2.124677e+002, 4.197007e+002
2.129498e+002, 4.206754e+002
2.134319e+002, 4.218305e+002
2.139140e+002, 4.223589e+002
2.143962e+002, 4.220338e+002
2.148783e+002, 4.219231e+002
2.153604e+002, 4.221133e+002
2.158425e+002, 4.225886e+002
2.163246e+002, 4.233075e+002
2.168067e+002, 4.243701e+002
2.172889e+002, 4.254874e+002
2.177710e+002, 4.265027e+002
2.182531e+002, 4.274137e+002
2.187352e+002, 4.281972e+002
2.192173e+002, 4.287554e+002
2.196994e+002, 4.291810e+002
2.201816e+002, 4.299322e+002
2.206637e+002, 4.311831e+002
2.211458e+002, 4.324544e+002
2.216279e+002, 4.333861e+002
2.221100e+002, 4.337696e+002
2.225921e+002, 4.343821e+002
2.230743e+002, 4.353437e+002
2.235564e+002, 4.365848e+002
2.240385e+002, 4.379316e+002
2.245206e+002, 4.397187e+002
2.250027e+002, 4.410656e+002
2.254848e+002, 4.412682e+002
2.259670e+002, 4.396142e+002
2.264491e+002, 4.386027e+002
2.269312e+002, 4.387079e+002
2.274133e+002, 4.396339e+002
2.278954e+002, 4.398962e+002
2.283775e+002, 4.391560e+002
2.288597e+002, 4.382497e+002
2.293418e+002, 4.376175e+002
2.298239e+002, 4.371110e+002
2.303060e+002, 4.372512e+002
2.307881e+002, 4.383638e+002
2.312702e+002, 4.401803e+002
2.317524e+002, 4.413527e+002
2.322345e+002, 4.414749e+002
2.327166e+002, 4.414875e+002
2.331987e+002, 4.419654e+002
2.336808e+002, 4.432141e+002
2.341629e+002, 4.441995e+002
2.346451e+002, 4.446805e+002
2.351272e+002, 4.448315e+002
2.356093e+002, 4.454615e+002
2.360914e+002, 4.467717e+002
2.365735e+002, 4.482819e+002
2.370556e+002, 4.497876e+002
2.375378e+002, 4.515012e+002
2.380199e+002, 4.527466e+002
2.385020e+002, 4.533347e+002
2.389841e+002, 4.534421e+002
2.394662e+002, 4.537148e+002
2.399483e+002, 4.541196e+002
2.404305e+002, 4.547619e+002
2.409126e+002, 4.557567e+002
2.413947e+002, 4.573778e+002
2.418768e+002, 4.587601e+002
2.423589e+002, 4.597413e+002
2.428410e+002, 4.604667e+002
2.433232e+002, 4.614673e+002
2.438053e+002, 4.627984e+002
2.442874e+002, 4.643203e+002
2.447695e+002, 4.660280e+002
2.452516e+002, 4.682983e+002
2.457337e+002, 4.698810e+002
2.462159e+002, 4.704735e+002
2.466980e+002, 4.703746e+002
2.471801e+002, 4.705115e+002
2.476622e+002, 4.708253e+002
2.481443e+002, 4.714454e+002
2.486264e+002, 4.725728e+002
2.491086e+002, 4.748503e+002
2.495907e+002, 4.760345e+002
2.500728e+002, 4.755741e+002
2.505549e+002, 4.741509e+002
2.510370e+002, 4.736686e+002
2.515191e+002, 4.748068e+002
2.520013e+002, 4.758260e+002
2.524834e+002, 4.758447e+002
2.529655e+002, 4.741984e+002
2.534476e+002, 4.733785e+002
2.539297e+002, 4.738388e+002
2.544118e+002, 4.749317e+002
2.548940e+002, 4.751451e+002
2.553761e+002, 4.740117e+002
2.558582e+002, 4.728224e+002
2.563403e+002, 4.722315e+002
2.568224e+002, 4.726629e+002
2.573046e+002, 4.721827e+002
2.577867e+002, 4.703131e+002
2.582688e+002, 4.678272e+002
2.587509e+002, 4.663198e+002
2.592330e+002, 4.662690e+002
2.597151e+002, 4.662299e+002
2.601973e+002, 4.656020e+002
2.606794e+002, 4.642195e+002
2.611615e+002, 4.630697e+002
2.616436e+002, 4.623288e+002
2.621257e+002, 4.616882e+002
2.626078e+002, 4.605341e+002
2.630900e+002, 4.585651e+002
2.635721e+002, 4.568580e+002
2.640542e+002, 4.558751e+002
2.645363e+002, 4.557395e+002
2.650184e+002, 4.555179e+002
2.655005e+002, 4.552376e+002
2.659827e+002, 4.548579e+002
2.664648e+002, 4.542587e+002
2.669469e+002, 4.533339e+002
2.674290e+002, 4.525208e+002
2.679111e+002, 4.519877e+002
2.683932e+002, 4.517582e+002
2.688754e+002, 4.513474e+002
2.693575e+002, 4.506187e+002
2.698396e+002, 4.498998e+002
2.703217e+002, 4.496768e+002
2.708038e+002, 4.500791e+002
2.712859e+002, 4.504042e+002
2.717681e+002, 4.502589e+002
2.722502e+002, 4.496806e+002
2.727323e+002, 4.501743e+002
2.732144e+002, 4.520462e+002
2.736965e+002, 4.543454e+002
2.741786e+002, 4.560872e+002
2.746608e+002, 4.572305e+002
2.751429e+002, 4.581018e+002
2.756250e+002, 4.586563e+002
2.761071e+002, 4.589720e+002
2.765892e+002, 4.596177e+002
2.770714e+002, 4.605508e+002
2.775535e+002, 4.619122e+002
2.780356e+002, 4.638745e+002
2.785177e+002, 4.664631e+002
2.789998e+002, 4.693841e+002
2.794819e+002, 4.726652e+002
2.799641e+002, 4.762212e+002
2.804462e+002, 4.796034e+002
2.809283e+002, 4.828425e+002
2.814104e+002, 4.858075e+002
2.818925e+002, 4.881212e+002
2.823746e+002, 4.897640e+002
2.828568e+002, 4.922423e+002
2.833389e+002, 4.958714e+002
2.838210e+002, 5.004492e+002
2.843031e+002, 5.055255e+002
2.847852e+002, 5.111675e+002
2.852673e+002, 5.170217e+002
2.857495e+002, 5.230038e+002
2.862316e+002, 5.291033e+002
2.867137e+002, 5.349576e+002
2.871958e+002, 5.403323e+002
2.876779e+002, 5.457396e+002
2.881600e+002, 5.523636e+002
2.886422e+002, 5.602194e+002
2.891243e+002, 5.684103e+002
2.896064e+002, 5.763077e+002
2.900885e+002, 5.839827e+002
2.905706e+002, 5.913220e+002
2.910527e+002, 5.981277e+002
2.915349e+002, 6.050204e+002
2.920170e+002, 6.133149e+002
2.924991e+002, 6.228061e+002
2.929812e+002, 6.321545e+002
2.934633e+002, 6.401706e+002
2.939454e+002, 6.473622e+002
2.944276e+002, 6.554524e+002
2.949097e+002, 6.646293e+002
2.953918e+002, 6.739293e+002
2.958739e+002, 6.820092e+002
2.963560e+002, 6.890166e+002
2.968381e+002, 6.960264e+002
2.973203e+002, 7.038011e+002
2.978024e+002, 7.117942e+002
2.982845e+002, 7.191133e+002
2.987666e+002, 7.257940e+002
2.992487e+002, 7.315300e+002
2.997308e+002, 7.356271e+002
3.002130e+002, 7.385467e+002
3.006951e+002, 7.415589e+002
3.011772e+002, 7.457157e+002
3.016593e+002, 7.499811e+002
3.021414e+002, 7.526798e+002
3.026235e+002, 7.538167e+002
3.031057e+002, 7.547035e+002
3.035878e+002, 7.567908e+002
3.040699e+002, 7.593528e+002
3.045520e+002, 7.609896e+002
3.050341e+002, 7.609241e+002
3.055162e+002, 7.600479e+002
3.059984e+002, 7.591805e+002
3.064805e+002, 7.583129e+002
3.069626e+002, 7.573164e+002
3.074447e+002, 7.559063e+002
3.079268e+002, 7.543835e+002
3.084089e+002, 7.531964e+002
3.088911e+002, 7.526640e+002
3.093732e+002, 7.521825e+002
3.098553e+002, 7.514186e+002
3.103374e+002, 7.503475e+002
3.108195e+002, 7.488531e+002
3.113016e+002, 7.463978e+002
3.117838e+002, 7.437509e+002
3.122659e+002, 7.416412e+002
3.127480e+002, 7.404424e+002
3.132301e+002, 7.392462e+002
3.137122e+002, 7.376570e+002
3.141943e+002, 7.356590e+002
3.146765e+002, 7.332526e+002
3.151586e+002, 7.301622e+002
3.156407e+002, 7.268709e+002
3.161228e+002, 7.235886e+002
3.166049e+002, 7.203185e+002
3.170870e+002, 7.172515e+002
3.175692e+002, 7.150314e+002
3.180513e+002, 7.129700e+002
3.185334e+002, 7.101144e+002
3.190155e+002, 7.053219e+002
3.194976e+002, 7.003898e+002
3.199797e+002, 6.961218e+002
3.204619e+002, 6.926106e+002
3.209440e+002, 6.892576e+002
3.214261e+002, 6.862762e+002
3.219082e+002, 6.832249e+002
3.223903e+002, 6.796950e+002
3.228724e+002, 6.751176e+002
3.233546e+002, 6.705245e+002
3.238367e+002, 6.661255e+002
3.243188e+002, 6.619257e+002
3.248009e+002, 6.578820e+002
3.252830e+002, 6.542357e+002
3.257651e+002, 6.506415e+002
3.262473e+002, 6.468889e+002
3.267294e+002, 6.427392e+002
3.272115e+002, 6.387129e+002
3.276936e+002, 6.349361e+002
3.281757e+002, 6.313893e+002
3.286578e+002, 6.277586e+002
3.291400e+002, 6.238370e+002
3.296221e+002, 6.200206e+002
3.301042e+002, 6.164629e+002
3.305863e+002, 6.134136e+002
3.310684e+002, 6.102007e+002
3.315505e+002, 6.068118e+002
3.320327e+002, 6.032673e+002
3.325148e+002, 5.996340e+002
3.329969e+002, 5.957444e+002
3.334790e+002, 5.919355e+002
3.339611e+002, 5.882666e+002
3.344432e+002, 5.847638e+002
3.349254e+002, 5.811603e+002
3.354075e+002, 5.772776e+002
3.358896e+002, 5.734544e+002
3.363717e+002, 5.701194e+002
3.368538e+002, 5.672112e+002
3.373359e+002, 5.650241e+002
3.378180e+002, 5.638820e+002
3.383001e+002, 5.637688e+002
3.387823e+002, 5.631545e+002
3.392644e+002, 5.619293e+002
3.397465e+002, 5.604648e+002
3.402286e+002, 5.590648e+002
3.407107e+002, 5.577309e+002
3.411928e+002, 5.565818e+002
3.416750e+002, 5.556404e+002
3.421571e+002, 5.549293e+002
3.426392e+002, 5.545897e+002
3.431213e+002, 5.546428e+002
3.436034e+002, 5.549678e+002
3.440855e+002, 5.553734e+002
3.445677e+002, 5.558776e+002
3.450498e+002, 5.570788e+002
3.455319e+002, 5.591702e+002
3.460140e+002, 5.617794e+002
3.464961e+002, 5.640540e+002
3.469782e+002, 5.660135e+002
3.474604e+002, 5.684777e+002
3.479425e+002, 5.719570e+002
3.484246e+002, 5.763254e+002
3.489067e+002, 5.810338e+002
3.493888e+002, 5.860616e+002
3.498709e+002, 5.913957e+002
3.503531e+002, 5.969404e+002
3.508352e+002, 6.027538e+002
3.513173e+002, 6.090254e+002
3.517994e+002, 6.161297e+002
3.522815e+002, 6.236953e+002
3.527636e+002, 6.309880e+002
3.532458e+002, 6.380024e+002
3.537279e+002, 6.454742e+002
3.542100e+002, 6.541723e+002
3.546921e+002, 6.637204e+002
3.551742e+002, 6.734208e+002
3.556563e+002, 6.830075e+002
3.561385e+002, 6.928455e+002
3.566206e+002, 7.034644e+002
3.571027e+002, 7.147838e+002
3.575848e+002, 7.261030e+002
3.580669e+002, 7.369938e+002
3.585490e+002, 7.478123e+002
3.590312e+002, 7.588849e+002
3.595133e+002, 7.705050e+002
3.599954e+002, 7.821596e+002
3.604775e+002, 7.935792e+002
3.609596e+002, 8.048972e+002
3.614417e+002, 8.161907e+002
3.619239e+002, 8.275868e+002
3.624060e+002, 8.390353e+002
3.628881e+002, 8.505295e+002
3.633702e+002, 8.620865e+002
3.638523e+002, 8.736180e+002
3.643344e+002, 8.857838e+002
3.648166e+002, 8.976747e+002
3.652987e+002, 9.083424e+002
3.657808e+002, 9.166879e+002
3.662629e+002, 9.243809e+002
3.667450e+002, 9.320736e+002
3.672271e+002, 9.397646e+002
3.677093e+002, 9.460774e+002
3.681914e+002, 9.512366e+002
3.686735e+002, 9.547167e+002
3.691556e+002, 9.561607e+002
3.696377e+002, 9.542243e+002
3.701198e+002, 9.518790e+002
3.706020e+002, 9.497180e+002
3.710841e+002, 9.472832e+002
3.715662e+002, 9.428990e+002
3.720483e+002, 9.362109e+002
3.725304e+002, 9.280641e+002
3.730125e+002, 9.187513e+002
3.734947e+002, 9.083412e+002
3.739768e+002, 8.966927e+002
3.744589e+002, 8.835001e+002
3.749410e+002, 8.691822e+002
3.754231e+002, 8.545851e+002
3.759052e+002, 8.396648e+002
3.763874e+002, 8.243369e+002
3.768695e+002, 8.086296e+002
3.773516e+002, 7.923740e+002
3.778337e+002, 7.764647e+002
3.783158e+002, 7.607117e+002
3.787979e+002, 7.452926e+002
3.792801e+002, 7.306327e+002
3.797622e+002, 7.166326e+002
3.802443e+002, 7.029178e+002
3.807264e+002, 6.891851e+002
3.812085e+002, 6.756887e+002
3.816906e+002, 6.628502e+002
3.821728e+002, 6.507047e+002
3.826549e+002, 6.393448e+002
3.831370e+002, 6.291624e+002
3.836191e+002, 6.199017e+002
3.841012e+002, 6.110206e+002
3.845833e+002, 6.023716e+002
3.850655e+002, 5.939997e+002
3.855476e+002, 5.860574e+002
3.860297e+002, 5.784340e+002
3.865118e+002, 5.711801e+002
3.869939e+002, 5.642620e+002
3.874760e+002, 5.576706e+002
3.879582e+002, 5.512556e+002
3.884403e+002, 5.449617e+002
3.889224e+002, 5.392531e+002
3.894045e+002, 5.348685e+002
3.898866e+002, 5.312709e+002
3.903687e+002, 5.276523e+002
3.908509e+002, 5.234686e+002
3.913330e+002, 5.195654e+002
3.918151e+002, 5.168633e+002
3.922972e+002, 5.150558e+002
3.927793e+002, 5.128347e+002
3.932614e+002, 5.087143e+002
3.937436e+002, 5.044850e+002
3.942257e+002, 5.014353e+002
3.947078e+002, 5.002486e+002
3.951899e+002, 4.991780e+002
3.956720e+002, 4.974463e+002
3.961541e+002, 4.954591e+002
3.966363e+002, 4.938716e+002
3.971184e+002, 4.933927e+002
3.976005e+002, 4.928195e+002
3.980826e+002, 4.916250e+002
3.985647e+002, 4.896757e+002
3.990468e+002, 4.880384e+002
3.995290e+002, 4.871493e+002
4.000111e+002, 4.864249e+002
4.004932e+002, 4.853813e+002
4.009753e+002, 4.833542e+002
4.014574e+002, 4.819042e+002
4.019395e+002, 4.813202e+002
4.024217e+002, 4.814557e+002
4.029038e+002, 4.816753e+002
4.033859e+002, 4.821318e+002
4.038680e+002, 4.824520e+002
4.043501e+002, 4.823928e+002
4.048322e+002, 4.817680e+002
4.053144e+002, 4.814627e+002
4.057965e+002, 4.816363e+002
4.062786e+002, 4.819426e+002
4.067607e+002, 4.818008e+002
4.072428e+002, 4.811421e+002
4.077249e+002, 4.804026e+002
4.082071e+002, 4.797539e+002
4.086892e+002, 4.791542e+002
4.091713e+002, 4.783780e+002
4.096534e+002, 4.774251e+002
4.101355e+002, 4.762537e+002
4.106176e+002, 4.748633e+002
4.110998e+002, 4.732319e+002
4.115819e+002, 4.712064e+002
4.120640e+002, 4.686183e+002
4.125461e+002, 4.658462e+002
4.130282e+002, 4.633782e+002
4.135103e+002, 4.612161e+002
4.139925e+002, 4.593122e+002
4.144746e+002, 4.578756e+002
4.149567e+002, 4.565775e+002
