##NAMES=Mozartite
##RRUFFID=R070265
##IDEAL CHEMISTRY=CaMn^3+^SiO_4_(OH)
##LOCALITY=Wessels mine, Kalahari Manganese Field, South Africa
##OWNER=RRUFF
##SOURCE=Michael Scott
##DESCRIPTION=Red to very dark red short prismatic striated crystals associated with datolite, calcite, hausmannite, and pectolite
##STATUS=The identification of this mineral is confirmed by single-crystal X-ray diffraction and chemical analysis.
##URL=rruff.info/R070265
##MEASURED CHEMISTRY=Ca_1.00_Mn^3+^_1.00_Si_1.00_O_4_(OH); = dark phase, trace amounts of Fe and Al; OH estimated by charge balance : Mn^2+^Mn^3+^_2_O_4_ (light phase = hausmannite)
130.3772, 672.3977
130.8593, 698.2995
131.3414, 721.1116
131.8235, 736.2069
132.3056, 742.2877
132.7877, 745.6822
133.2699, 753.6810
133.7520, 766.4509
134.2341, 781.2567
134.7162, 797.4174
135.1983, 815.0009
135.6804, 832.2797
136.1626, 848.1864
136.6447, 864.9623
137.1268, 887.8170
137.6089, 918.1214
138.0910, 949.0959
138.5731, 977.2753
139.0553, 1003.281
139.5374, 1024.940
140.0195, 1040.834
140.5016, 1052.429
140.9837, 1064.840
141.4658, 1078.869
141.9480, 1092.642
142.4301, 1105.550
142.9122, 1120.334
143.3943, 1127.835
143.8764, 1122.362
144.3585, 1104.469
144.8407, 1100.727
145.3228, 1118.825
145.8049, 1145.290
146.2870, 1167.666
146.7691, 1183.409
147.2512, 1198.019
147.7334, 1211.670
148.2155, 1223.797
148.6976, 1238.044
149.1797, 1248.569
149.6618, 1262.993
150.1439, 1291.131
150.6261, 1356.923
151.1082, 1414.617
151.5903, 1448.826
152.0724, 1442.527
152.5545, 1450.180
153.0366, 1484.620
153.5188, 1535.241
154.0009, 1580.996
154.4830, 1624.018
154.9651, 1658.240
155.4472, 1680.813
155.9293, 1684.212
156.4115, 1686.501
156.8936, 1688.090
157.3757, 1690.546
157.8578, 1699.212
158.3399, 1723.623
158.8221, 1750.122
159.3042, 1770.052
159.7863, 1778.821
160.2684, 1783.174
160.7505, 1779.238
161.2326, 1769.186
161.7148, 1770.217
162.1969, 1802.767
162.6790, 1844.928
163.1611, 1875.159
163.6432, 1872.213
164.1253, 1867.138
164.6075, 1879.349
165.0896, 1909.646
165.5717, 1936.624
166.0538, 1943.287
166.5359, 1939.982
167.0180, 1941.549
167.5002, 1964.719
167.9823, 1988.497
168.4644, 1996.701
168.9465, 1987.213
169.4286, 1968.640
169.9107, 1948.814
170.3929, 1924.682
170.8750, 1889.239
171.3571, 1829.251
171.8392, 1760.706
172.3213, 1701.469
172.8034, 1656.177
173.2856, 1614.267
173.7677, 1564.495
174.2498, 1509.318
174.7319, 1458.082
175.2140, 1419.737
175.6961, 1388.052
176.1783, 1353.387
176.6604, 1313.307
177.1425, 1271.741
177.6246, 1231.934
178.1067, 1194.512
178.5888, 1160.868
179.0710, 1135.068
179.5531, 1114.304
180.0352, 1092.388
180.5173, 1066.191
180.9994, 1040.105
181.4815, 1022.111
181.9637, 1011.933
182.4458, 1005.785
182.9279, 1001.491
183.4100, 998.7545
183.8921, 996.3763
184.3742, 993.9514
184.8564, 991.6856
185.3385, 990.2338
185.8206, 989.6249
186.3027, 989.3291
186.7848, 989.2101
187.2669, 989.1364
187.7491, 988.0508
188.2312, 984.3430
188.7133, 979.2906
189.1954, 977.4581
189.6775, 978.9473
190.1596, 983.3161
190.6418, 990.7796
191.1239, 1001.261
191.6060, 1012.569
192.0881, 1023.458
192.5702, 1034.179
193.0524, 1047.383
193.5345, 1063.588
194.0166, 1080.832
194.4987, 1095.166
194.9808, 1106.309
195.4629, 1118.814
195.9451, 1136.151
196.4272, 1158.377
196.9093, 1176.174
197.3914, 1188.681
197.8735, 1197.660
198.3556, 1206.854
198.8378, 1216.706
199.3199, 1223.842
199.8020, 1225.441
200.2841, 1221.082
200.7662, 1217.144
201.2483, 1213.714
201.7305, 1211.155
202.2126, 1210.345
202.6947, 1211.333
203.1768, 1213.885
203.6589, 1216.296
204.1410, 1217.309
204.6232, 1228.019
205.1053, 1252.963
205.5874, 1286.687
206.0695, 1309.311
206.5516, 1316.549
207.0337, 1323.943
207.5159, 1342.663
207.9980, 1374.230
208.4801, 1408.152
208.9622, 1443.225
209.4443, 1479.664
209.9264, 1518.484
210.4086, 1559.664
210.8907, 1603.464
211.3728, 1651.445
211.8549, 1707.555
212.3370, 1755.469
212.8191, 1791.732
213.3013, 1817.304
213.7834, 1843.972
214.2655, 1875.205
214.7476, 1902.025
215.2297, 1918.871
215.7118, 1930.365
216.1940, 1918.393
216.6761, 1874.741
217.1582, 1800.802
217.6403, 1730.010
218.1224, 1663.361
218.6045, 1599.615
219.0867, 1536.483
219.5688, 1470.845
220.0509, 1414.574
220.5330, 1373.136
221.0151, 1346.313
221.4972, 1317.954
221.9794, 1284.339
222.4615, 1253.056
222.9436, 1232.503
223.4257, 1226.910
223.9078, 1223.258
224.3899, 1218.312
224.8721, 1211.606
225.3542, 1208.846
225.8363, 1210.472
226.3184, 1215.587
226.8005, 1223.370
227.2827, 1234.323
227.7648, 1246.896
228.2469, 1260.475
228.7290, 1274.735
229.2111, 1292.084
229.6932, 1313.013
230.1754, 1336.420
230.6575, 1360.632
231.1396, 1382.612
231.6217, 1410.694
232.1038, 1448.798
232.5859, 1499.538
233.0681, 1546.071
233.5502, 1586.434
234.0323, 1623.826
234.5144, 1663.165
234.9965, 1703.771
235.4786, 1747.051
235.9608, 1793.621
236.4429, 1842.919
236.9250, 1895.895
237.4071, 1956.222
237.8892, 2017.566
238.3713, 2068.714
238.8535, 2101.803
239.3356, 2137.982
239.8177, 2186.113
240.2998, 2252.390
240.7819, 2306.797
241.2640, 2346.386
241.7462, 2376.702
242.2283, 2407.313
242.7104, 2438.444
243.1925, 2469.455
243.6746, 2499.398
244.1567, 2526.562
244.6389, 2560.673
245.1210, 2610.833
245.6031, 2662.495
246.0852, 2687.732
246.5673, 2673.649
247.0494, 2655.125
247.5316, 2645.336
248.0137, 2649.607
248.4958, 2644.636
248.9779, 2629.830
249.4600, 2606.083
249.9421, 2575.524
250.4243, 2538.273
250.9064, 2493.604
251.3885, 2438.693
251.8706, 2366.869
252.3527, 2306.857
252.8348, 2262.409
253.3170, 2227.518
253.7991, 2191.257
254.2812, 2152.955
254.7633, 2115.367
255.2454, 2080.779
255.7275, 2052.582
256.2097, 2014.251
256.6918, 1958.391
257.1739, 1897.906
257.6560, 1858.399
258.1381, 1850.150
258.6202, 1841.506
259.1024, 1818.182
259.5845, 1774.263
260.0666, 1741.841
260.5487, 1724.865
261.0308, 1716.471
261.5129, 1703.037
261.9951, 1682.333
262.4772, 1662.219
262.9593, 1647.117
263.4414, 1639.150
263.9235, 1624.784
264.4056, 1601.197
264.8878, 1573.654
265.3699, 1551.116
265.8520, 1534.813
266.3341, 1519.452
266.8162, 1502.608
267.2983, 1483.967
267.7805, 1466.929
268.2626, 1452.124
268.7447, 1438.382
269.2268, 1423.447
269.7089, 1406.768
270.1910, 1390.878
270.6732, 1375.172
271.1553, 1358.946
271.6374, 1351.922
272.1195, 1356.598
272.6016, 1366.814
273.0837, 1374.510
273.5659, 1380.840
274.0480, 1379.091
274.5301, 1363.997
275.0122, 1335.023
275.4943, 1308.793
275.9764, 1284.273
276.4586, 1264.448
276.9407, 1257.722
277.4228, 1266.436
277.9049, 1268.701
278.3870, 1252.221
278.8691, 1218.169
279.3513, 1194.633
279.8334, 1183.747
280.3155, 1177.890
280.7976, 1166.926
281.2798, 1150.755
281.7619, 1134.114
282.2440, 1118.579
282.7261, 1104.064
283.2082, 1089.791
283.6903, 1075.614
284.1725, 1062.214
284.6546, 1050.817
285.1367, 1041.439
285.6188, 1031.926
286.1009, 1021.263
286.5830, 1009.836
287.0652, 998.9438
287.5473, 988.5495
288.0294, 979.5064
288.5115, 973.3324
288.9936, 969.7271
289.4757, 966.4449
289.9579, 962.7816
290.4400, 958.8704
290.9221, 954.4556
291.4042, 949.4044
291.8863, 945.5117
292.3684, 944.9434
292.8506, 947.2222
293.3327, 950.3516
293.8148, 954.6176
294.2969, 958.8411
294.7790, 961.2680
295.2611, 961.8940
295.7433, 959.9193
296.2254, 950.0567
296.7075, 936.4715
297.1896, 931.6630
297.6717, 943.6913
298.1538, 962.2914
298.6360, 971.5970
299.1181, 972.3043
299.6002, 971.6415
300.0823, 974.8615
300.5644, 980.7020
301.0465, 987.0651
301.5287, 994.5377
302.0108, 1000.879
302.4929, 1002.377
302.9750, 999.7933
303.4571, 997.4028
303.9392, 998.8340
304.4214, 1001.968
304.9035, 1003.742
305.3856, 1002.328
305.8677, 1001.092
306.3498, 1001.805
306.8319, 1004.817
307.3141, 1011.460
307.7962, 1026.753
308.2783, 1044.006
308.7604, 1057.110
309.2425, 1064.705
309.7246, 1067.647
310.2068, 1062.553
310.6889, 1052.732
311.1710, 1046.703
311.6531, 1052.876
312.1352, 1061.787
312.6173, 1065.655
313.0995, 1060.936
313.5816, 1057.784
314.0637, 1060.730
314.5458, 1068.564
315.0279, 1078.977
315.5100, 1098.638
315.9922, 1114.956
316.4743, 1118.266
316.9564, 1102.844
317.4385, 1093.607
317.9206, 1102.794
318.4027, 1122.174
318.8849, 1140.245
319.3670, 1154.922
319.8491, 1166.889
320.3312, 1176.390
320.8133, 1183.493
321.2954, 1187.960
321.7776, 1184.242
322.2597, 1180.005
322.7418, 1183.420
323.2239, 1207.590
323.7060, 1227.613
324.1881, 1234.174
324.6703, 1225.314
325.1524, 1225.158
325.6345, 1243.030
326.1166, 1266.168
326.5987, 1284.493
327.0808, 1296.023
327.5630, 1304.957
328.0451, 1310.867
328.5272, 1313.911
329.0093, 1317.301
329.4914, 1317.743
329.9735, 1321.398
330.4557, 1332.751
330.9378, 1357.241
331.4199, 1380.061
331.9020, 1400.038
332.3841, 1417.543
332.8662, 1433.937
333.3484, 1446.978
333.8305, 1462.069
334.3126, 1484.441
334.7947, 1519.924
335.2768, 1542.816
335.7589, 1546.422
336.2411, 1539.693
336.7232, 1546.255
337.2053, 1569.711
337.6874, 1595.832
338.1695, 1617.480
338.6516, 1633.451
339.1338, 1653.883
339.6159, 1679.043
340.0980, 1708.280
340.5801, 1742.235
341.0622, 1782.357
341.5443, 1817.341
342.0265, 1839.736
342.5086, 1851.361
342.9907, 1871.155
343.4728, 1899.316
343.9549, 1934.238
344.4370, 1977.602
344.9192, 2027.921
345.4013, 2072.918
345.8834, 2105.306
346.3655, 2129.524
346.8476, 2155.171
347.3297, 2182.135
347.8119, 2210.543
348.2940, 2241.275
348.7761, 2273.539
349.2582, 2303.962
349.7403, 2330.629
350.2225, 2356.817
350.7046, 2389.629
351.1867, 2428.156
351.6688, 2463.109
352.1509, 2487.913
352.6331, 2504.946
353.1152, 2517.150
353.5973, 2523.528
354.0794, 2528.351
354.5615, 2537.406
355.0436, 2548.470
355.5258, 2554.771
356.0079, 2551.507
356.4900, 2542.450
356.9721, 2530.940
357.4542, 2517.840
357.9363, 2501.085
358.4185, 2475.919
358.9006, 2446.689
359.3827, 2420.915
359.8648, 2408.876
360.3469, 2395.222
360.8290, 2368.332
361.3112, 2324.188
361.7933, 2288.825
362.2754, 2277.377
362.7575, 2276.092
363.2396, 2270.002
363.7217, 2248.063
364.2039, 2228.758
364.6860, 2219.610
365.1681, 2220.807
365.6502, 2216.156
366.1323, 2189.184
366.6144, 2164.563
367.0966, 2159.438
367.5787, 2193.978
368.0608, 2224.007
368.5429, 2246.329
369.0250, 2261.909
369.5071, 2275.219
369.9893, 2286.214
370.4714, 2294.962
370.9535, 2301.252
371.4356, 2303.883
371.9177, 2307.181
372.3998, 2314.014
372.8820, 2320.096
373.3641, 2313.606
373.8462, 2288.124
374.3283, 2266.741
374.8104, 2258.768
375.2925, 2264.836
375.7747, 2277.915
376.2568, 2300.782
376.7389, 2325.376
377.2210, 2340.059
377.7031, 2344.258
378.1852, 2346.506
378.6674, 2347.666
379.1495, 2349.058
379.6316, 2358.263
380.1137, 2376.031
380.5958, 2394.132
381.0779, 2401.428
381.5601, 2401.110
382.0422, 2408.646
382.5243, 2429.346
383.0064, 2457.399
383.4885, 2487.375
383.9706, 2518.370
384.4528, 2541.660
384.9349, 2543.527
385.4170, 2535.968
385.8991, 2541.230
386.3812, 2566.611
386.8633, 2592.158
387.3455, 2597.947
387.8276, 2589.625
388.3097, 2580.122
388.7918, 2579.609
389.2739, 2578.216
389.7560, 2569.260
390.2382, 2552.384
390.7203, 2525.992
391.2024, 2480.353
391.6845, 2427.888
392.1666, 2382.323
392.6487, 2355.405
393.1309, 2329.828
393.6130, 2300.012
394.0951, 2265.850
394.5772, 2229.162
395.0593, 2182.557
395.5414, 2138.476
396.0236, 2105.183
396.5057, 2095.747
396.9878, 2082.856
397.4699, 2060.231
397.9520, 2031.927
398.4341, 2010.869
398.9163, 2000.513
399.3984, 1993.852
399.8805, 1988.302
400.3626, 1982.930
400.8447, 1982.081
401.3268, 1990.101
401.8090, 1999.428
402.2911, 1998.312
402.7732, 1982.181
403.2553, 1967.400
403.7374, 1957.305
404.2195, 1951.980
404.7017, 1954.333
405.1838, 1966.527
405.6659, 1980.637
406.1480, 1988.918
406.6301, 1991.310
407.1122, 1995.317
407.5944, 2003.549
408.0765, 2012.878
408.5586, 2013.645
409.0407, 2006.054
409.5228, 2000.587
410.0049, 2006.900
410.4871, 2020.765
410.9692, 2029.627
411.4513, 2031.233
411.9334, 2031.899
412.4155, 2039.919
412.8976, 2053.163
413.3798, 2065.134
413.8619, 2075.886
414.3440, 2082.367
414.8261, 2079.324
415.3082, 2066.719
415.7903, 2054.130
416.2725, 2046.855
416.7546, 2043.345
417.2367, 2041.663
417.7188, 2039.401
418.2009, 2040.929
418.6830, 2053.133
419.1652, 2072.167
419.6473, 2083.437
420.1294, 2069.445
420.6115, 2055.812
421.0937, 2056.696
421.5758, 2078.645
422.0579, 2105.106
422.5400, 2142.331
423.0221, 2181.122
423.5042, 2206.830
423.9864, 2199.041
424.4685, 2200.383
424.9506, 2223.707
425.4327, 2270.915
425.9148, 2312.129
426.3969, 2347.504
426.8791, 2376.713
427.3612, 2396.336
427.8433, 2399.646
428.3254, 2415.558
428.8075, 2453.243
429.2896, 2504.245
429.7718, 2538.886
430.2539, 2555.656
430.7360, 2564.933
431.2181, 2568.764
431.7002, 2567.999
432.1823, 2577.039
432.6645, 2598.808
433.1466, 2623.076
433.6287, 2635.627
434.1108, 2637.995
434.5929, 2637.583
435.0750, 2636.937
435.5572, 2635.583
436.0393, 2631.401
436.5214, 2624.608
437.0035, 2619.771
437.4856, 2627.966
437.9677, 2638.183
438.4499, 2633.183
438.9320, 2599.469
439.4141, 2565.087
439.8962, 2552.414
440.3783, 2554.948
440.8604, 2555.551
441.3426, 2549.750
441.8247, 2537.568
442.3068, 2518.084
442.7889, 2490.163
443.2710, 2459.994
443.7531, 2427.985
444.2353, 2395.121
444.7174, 2361.931
445.1995, 2322.752
445.6816, 2290.065
446.1637, 2269.976
446.6458, 2260.938
447.1280, 2244.104
447.6101, 2213.752
448.0922, 2181.798
448.5743, 2154.722
449.0564, 2132.725
449.5385, 2114.958
450.0207, 2103.299
450.5028, 2094.162
450.9849, 2078.433
451.4670, 2053.358
451.9491, 2036.484
452.4312, 2036.776
452.9134, 2052.100
453.3955, 2065.531
453.8776, 2076.645
454.3597, 2088.533
454.8418, 2104.743
455.3239, 2124.445
455.8061, 2143.272
456.2882, 2159.683
456.7703, 2176.044
457.2524, 2195.630
457.7345, 2218.066
458.2166, 2242.385
458.6988, 2268.747
459.1809, 2296.119
459.6630, 2323.028
460.1451, 2349.568
460.6272, 2375.867
461.1093, 2403.857
461.5915, 2431.000
462.0736, 2453.550
462.5557, 2462.650
463.0378, 2474.460
463.5199, 2497.816
464.0020, 2530.740
464.4842, 2558.894
464.9663, 2573.612
465.4484, 2586.746
465.9305, 2606.022
466.4126, 2649.095
466.8947, 2667.294
467.3769, 2644.412
467.8590, 2603.796
468.3411, 2584.343
468.8232, 2597.298
469.3053, 2609.312
469.7874, 2610.795
470.2696, 2602.493
470.7517, 2599.001
471.2338, 2601.897
471.7159, 2604.772
472.1980, 2602.164
472.6801, 2594.118
473.1623, 2583.787
473.6444, 2570.940
474.1265, 2557.205
474.6086, 2546.002
475.0907, 2536.828
475.5728, 2526.414
476.0550, 2512.519
476.5371, 2496.400
477.0192, 2481.229
477.5013, 2467.108
477.9834, 2449.808
478.4655, 2424.851
478.9477, 2395.020
479.4298, 2364.167
479.9119, 2331.719
480.3940, 2300.179
480.8761, 2268.907
481.3582, 2239.421
481.8404, 2216.564
482.3225, 2210.582
482.8046, 2204.462
483.2867, 2190.502
483.7688, 2166.939
484.2509, 2139.384
484.7331, 2098.892
485.2152, 2059.617
485.6973, 2035.608
486.1794, 2043.928
486.6615, 2037.537
487.1436, 2004.137
487.6258, 1950.700
488.1079, 1910.256
488.5900, 1885.526
489.0721, 1867.030
489.5542, 1851.360
490.0363, 1838.494
490.5185, 1823.507
491.0006, 1806.663
491.4827, 1786.805
491.9648, 1757.726
492.4470, 1722.358
492.9291, 1698.400
493.4112, 1699.804
493.8933, 1709.525
494.3754, 1700.270
494.8575, 1674.323
495.3397, 1646.637
495.8218, 1623.249
496.3039, 1604.736
496.7860, 1593.593
497.2681, 1592.339
497.7502, 1588.976
498.2324, 1576.438
498.7145, 1558.119
499.1966, 1538.381
499.6787, 1511.485
500.1608, 1490.620
500.6429, 1484.517
501.1251, 1491.808
501.6072, 1490.127
502.0893, 1472.865
502.5714, 1450.770
503.0535, 1427.554
503.5356, 1398.508
504.0178, 1380.438
504.4999, 1377.757
504.9820, 1382.225
505.4641, 1381.218
505.9462, 1373.708
506.4283, 1366.136
506.9105, 1360.454
507.3926, 1356.133
507.8747, 1351.472
508.3568, 1346.497
508.8389, 1340.234
509.3210, 1330.337
509.8032, 1318.500
510.2853, 1309.189
510.7674, 1302.978
511.2495, 1299.217
511.7316, 1299.266
512.2137, 1301.170
512.6959, 1300.967
513.1780, 1294.710
513.6601, 1287.710
514.1422, 1281.583
514.6243, 1276.947
515.1064, 1277.575
515.5886, 1294.534
516.0707, 1310.514
516.5528, 1313.135
517.0349, 1289.338
517.5170, 1276.345
517.9991, 1285.054
518.4813, 1303.655
518.9634, 1317.629
519.4455, 1324.855
519.9276, 1330.911
520.4097, 1335.861
520.8918, 1340.262
521.3740, 1348.676
521.8561, 1361.683
522.3382, 1376.785
522.8203, 1393.781
523.3024, 1412.248
523.7845, 1425.810
524.2667, 1432.692
524.7488, 1440.464
525.2309, 1458.409
525.7130, 1485.366
526.1951, 1517.238
526.6772, 1557.535
527.1594, 1597.795
527.6415, 1624.650
528.1236, 1641.119
528.6057, 1661.188
529.0878, 1693.687
529.5699, 1732.072
530.0521, 1770.775
530.5342, 1808.719
531.0163, 1850.201
531.4984, 1896.411
531.9805, 1947.347
532.4626, 2003.174
532.9448, 2071.312
533.4269, 2135.446
533.9090, 2192.492
534.3911, 2244.067
534.8732, 2292.927
535.3553, 2334.499
535.8375, 2383.313
536.3196, 2448.049
536.8017, 2530.712
537.2838, 2601.956
537.7659, 2659.348
538.2480, 2715.590
538.7302, 2784.872
539.2123, 2866.300
539.6944, 2949.483
540.1765, 3032.497
540.6586, 3115.783
541.1407, 3204.604
541.6229, 3296.727
542.1050, 3385.468
542.5871, 3463.136
543.0692, 3538.624
543.5513, 3619.516
544.0334, 3705.526
544.5156, 3792.195
544.9977, 3881.986
545.4798, 3968.947
545.9619, 4047.213
546.4440, 4111.428
546.9261, 4173.360
547.4083, 4242.730
547.8904, 4309.238
548.3725, 4352.508
548.8546, 4359.195
549.3367, 4365.064
549.8188, 4379.077
550.3010, 4400.327
550.7831, 4418.263
551.2652, 4432.501
551.7473, 4444.741
552.2294, 4456.273
552.7115, 4466.982
553.1937, 4473.014
553.6758, 4472.132
554.1579, 4474.622
554.6400, 4492.589
555.1221, 4524.335
555.6042, 4564.699
556.0864, 4615.512
556.5685, 4671.009
557.0506, 4727.369
557.5327, 4783.958
558.0148, 4837.514
558.4969, 4881.772
558.9791, 4926.231
559.4612, 4977.983
559.9433, 5039.921
560.4254, 5096.770
560.9075, 5152.880
561.3896, 5198.216
561.8718, 5224.513
562.3539, 5218.156
562.8360, 5217.661
563.3181, 5237.593
563.8002, 5259.520
564.2823, 5235.535
564.7645, 5158.947
565.2466, 5066.835
565.7287, 4970.091
566.2108, 4869.953
566.6929, 4776.884
567.1750, 4692.178
567.6572, 4602.073
568.1393, 4490.417
568.6214, 4367.288
569.1035, 4259.465
569.5856, 4174.295
570.0677, 4087.359
570.5499, 3965.375
571.0320, 3829.804
571.5141, 3713.777
571.9962, 3642.015
572.4783, 3579.518
572.9604, 3513.224
573.4426, 3444.985
573.9247, 3383.634
574.4068, 3341.757
574.8889, 3297.170
575.3710, 3236.510
575.8531, 3151.682
576.3353, 3098.802
576.8174, 3089.165
577.2995, 3095.487
577.7816, 3093.424
578.2637, 3082.443
578.7458, 3066.966
579.2280, 3044.611
579.7101, 3023.564
580.1922, 3019.386
580.6743, 3030.299
581.1564, 3046.251
581.6385, 3065.187
582.1207, 3085.171
582.6028, 3103.233
583.0849, 3119.473
583.5670, 3135.914
584.0491, 3152.010
584.5313, 3169.852
585.0134, 3191.350
585.4955, 3217.478
585.9776, 3244.763
586.4597, 3270.953
586.9418, 3298.368
587.4240, 3329.279
587.9061, 3363.114
588.3882, 3402.020
588.8703, 3450.193
589.3524, 3502.513
589.8345, 3543.278
590.3167, 3570.518
590.7988, 3593.662
591.2809, 3612.732
591.7630, 3630.292
592.2451, 3662.643
592.7272, 3710.455
593.2094, 3756.644
593.6915, 3785.202
594.1736, 3802.389
594.6557, 3820.820
595.1378, 3843.191
595.6199, 3862.438
596.1021, 3873.438
596.5842, 3877.802
597.0663, 3877.827
597.5485, 3872.350
598.0306, 3864.683
598.5127, 3856.643
598.9948, 3847.481
599.4769, 3833.827
599.9590, 3814.737
600.4412, 3792.127
600.9233, 3767.720
601.4054, 3741.863
601.8875, 3706.163
602.3696, 3658.401
602.8517, 3606.764
603.3339, 3558.781
603.8160, 3513.894
604.2981, 3471.793
604.7802, 3434.696
605.2623, 3393.664
605.7444, 3333.864
606.2266, 3260.609
606.7087, 3191.046
607.1908, 3130.340
607.6729, 3075.243
608.1550, 3026.521
608.6371, 2981.670
609.1193, 2930.862
609.6014, 2863.990
610.0835, 2795.820
610.5656, 2733.829
611.0477, 2678.697
611.5298, 2628.214
612.0120, 2588.753
612.4941, 2547.861
612.9762, 2496.573
613.4583, 2430.924
613.9404, 2368.855
614.4225, 2309.482
614.9047, 2257.273
615.3868, 2221.539
615.8689, 2200.660
616.3510, 2177.135
616.8331, 2145.040
617.3152, 2108.821
617.7974, 2073.804
618.2795, 2040.237
618.7616, 2007.259
619.2437, 1976.990
619.7258, 1945.424
620.2079, 1905.916
620.6901, 1858.556
621.1722, 1819.087
