##NAMES=Mozartite
##RRUFFID=R070265
##IDEAL CHEMISTRY=CaMn^3+^SiO_4_(OH)
##LOCALITY=Wessels mine, Kalahari Manganese Field, South Africa
##OWNER=RRUFF
##SOURCE=Michael Scott
##DESCRIPTION=Red to very dark red short prismatic striated crystals associated with datolite, calcite, hausmannite, and pectolite
##STATUS=The identification of this mineral is confirmed by single-crystal X-ray diffraction and chemical analysis.
##URL=rruff.info/R070265
##MEASURED CHEMISTRY=Ca_1.00_Mn^3+^_1.00_Si_1.00_O_4_(OH); = dark phase, trace amounts of Fe and Al; OH estimated by charge balance : Mn^2+^Mn^3+^_2_O_4_ (light phase = hausmannite)
122.9479, 641.1389
123.4300, 671.0746
123.9121, 701.9930
124.3942, 735.8137
124.8763, 776.5869
125.3585, 825.0817
125.8406, 881.1840
126.3227, 945.3201
126.8048, 1015.373
127.2869, 1091.226
127.7690, 1173.300
128.2512, 1258.807
128.7333, 1333.520
129.2154, 1392.825
129.6975, 1445.249
130.1796, 1496.667
130.6617, 1541.709
131.1439, 1572.531
131.6260, 1584.206
132.1081, 1577.862
132.5902, 1562.093
133.0723, 1527.815
133.5544, 1492.733
134.0366, 1461.287
134.5187, 1431.322
135.0008, 1397.659
135.4829, 1356.205
135.9650, 1307.692
136.4471, 1268.648
136.9293, 1240.845
137.4114, 1219.609
137.8935, 1202.864
138.3756, 1191.527
138.8577, 1187.715
139.3398, 1193.052
139.8220, 1207.671
140.3041, 1230.370
140.7862, 1264.285
141.2683, 1301.177
141.7504, 1335.887
142.2325, 1369.729
142.7147, 1408.944
143.1968, 1460.444
143.6789, 1524.145
144.1610, 1575.268
144.6431, 1604.869
145.1252, 1630.869
145.6074, 1666.532
146.0895, 1710.286
146.5716, 1748.491
147.0537, 1770.474
147.5358, 1774.694
148.0179, 1773.251
148.5001, 1761.566
148.9822, 1747.735
149.4643, 1738.711
149.9464, 1734.508
150.4285, 1728.546
150.9106, 1714.678
151.3928, 1693.386
151.8749, 1673.183
152.3570, 1651.097
152.8391, 1632.392
153.3212, 1623.617
153.8033, 1625.523
154.2855, 1629.349
154.7676, 1629.290
155.2497, 1625.506
155.7318, 1618.760
156.2139, 1609.287
156.6960, 1596.814
157.1782, 1579.079
157.6603, 1554.957
158.1424, 1532.586
158.6245, 1517.975
159.1066, 1510.030
159.5887, 1507.677
160.0709, 1515.525
160.5530, 1527.053
161.0351, 1531.690
161.5172, 1527.257
161.9993, 1523.181
162.4814, 1530.172
162.9636, 1542.345
163.4457, 1548.521
163.9278, 1540.679
164.4099, 1525.588
164.8920, 1515.127
165.3741, 1509.806
165.8563, 1507.891
166.3384, 1512.713
166.8205, 1519.780
167.3026, 1520.885
167.7847, 1510.003
168.2668, 1491.908
168.7490, 1478.204
169.2311, 1472.813
169.7132, 1462.442
170.1953, 1436.376
170.6774, 1401.702
171.1595, 1369.809
171.6417, 1350.166
172.1238, 1334.867
172.6059, 1301.019
173.0880, 1236.556
173.5701, 1177.778
174.0522, 1141.331
174.5344, 1119.507
175.0165, 1103.138
175.4986, 1089.869
175.9807, 1077.746
176.4628, 1060.719
176.9449, 1036.109
177.4271, 1011.311
177.9092, 988.4443
178.3913, 967.3466
178.8734, 948.2410
179.3555, 931.7485
179.8376, 916.5715
180.3197, 897.7437
180.8019, 870.2694
181.2840, 848.4055
181.7661, 838.6409
182.2482, 835.3820
182.7303, 831.9219
183.2124, 824.9332
183.6946, 815.7974
184.1767, 808.6523
184.6588, 805.2526
185.1409, 800.8501
185.6230, 792.3814
186.1051, 783.0248
186.5873, 776.7545
187.0694, 775.7861
187.5515, 777.9185
188.0336, 776.9594
188.5157, 769.9957
188.9978, 765.0138
189.4800, 763.4464
189.9621, 764.4873
190.4442, 767.8594
190.9263, 773.6347
191.4084, 780.4709
191.8905, 784.4639
192.3727, 781.2455
192.8548, 783.3502
193.3369, 794.5654
193.8190, 810.3231
194.3011, 825.8998
194.7832, 839.3843
195.2654, 853.1901
195.7475, 873.7106
196.2296, 909.8169
196.7117, 935.7209
197.1938, 944.6061
197.6759, 945.7681
198.1581, 946.8086
198.6402, 950.3623
199.1223, 954.3989
199.6044, 954.9401
200.0865, 950.0226
200.5686, 945.3419
201.0508, 942.8157
201.5329, 939.8510
202.0150, 933.7881
202.4971, 924.0843
202.9792, 913.3368
203.4613, 905.0803
203.9435, 897.7542
204.4256, 897.0957
204.9077, 908.0588
205.3898, 921.3597
205.8719, 930.9710
206.3540, 935.6240
206.8362, 937.7784
207.3183, 940.8216
207.8004, 945.5134
208.2825, 949.0498
208.7646, 949.3260
209.2467, 950.1757
209.7289, 951.8227
210.2110, 955.3983
210.6931, 964.3203
211.1752, 983.7938
211.6573, 1017.209
212.1395, 1048.464
212.6216, 1076.429
213.1037, 1103.221
213.5858, 1130.838
214.0679, 1158.502
214.5500, 1183.480
215.0322, 1203.612
215.5143, 1219.291
215.9964, 1226.630
216.4785, 1226.775
216.9606, 1217.750
217.4427, 1196.986
217.9249, 1165.812
218.4070, 1127.084
218.8891, 1081.540
219.3712, 1028.788
219.8533, 983.5403
220.3354, 949.8755
220.8176, 920.2806
221.2997, 893.9125
221.7818, 870.1619
222.2639, 848.1407
222.7460, 827.1501
223.2281, 807.3227
223.7103, 791.9771
224.1924, 786.5627
224.6745, 779.8937
225.1566, 766.2161
225.6387, 750.4504
226.1208, 740.0555
226.6030, 739.5764
227.0851, 747.2125
227.5672, 755.5332
228.0493, 765.1027
228.5314, 774.7067
229.0135, 785.0606
229.4957, 794.9772
229.9778, 802.7048
230.4599, 807.3746
230.9420, 810.5012
231.4241, 815.8499
231.9062, 824.1415
232.3884, 833.6573
232.8705, 843.8678
233.3526, 855.0981
233.8347, 867.1161
234.3168, 879.9192
234.7989, 895.0694
235.2811, 916.1832
235.7632, 947.7919
236.2453, 974.6479
236.7274, 991.2525
237.2095, 1006.428
237.6916, 1027.014
238.1738, 1053.878
238.6559, 1082.026
239.1380, 1104.416
239.6201, 1118.314
240.1022, 1136.831
240.5843, 1165.986
241.0665, 1195.278
241.5486, 1220.289
242.0307, 1240.662
242.5128, 1257.987
242.9949, 1272.885
243.4770, 1285.005
243.9592, 1299.234
244.4413, 1317.161
244.9234, 1336.036
245.4055, 1357.687
245.8876, 1379.807
246.3697, 1396.904
246.8519, 1404.137
247.3340, 1402.588
247.8161, 1401.835
248.2982, 1404.183
248.7803, 1404.035
249.2624, 1399.677
249.7446, 1391.798
250.2267, 1381.484
250.7088, 1369.014
251.1909, 1354.727
251.6730, 1339.505
252.1551, 1323.210
252.6373, 1306.062
253.1194, 1286.014
253.6015, 1266.121
254.0836, 1250.309
254.5657, 1240.554
255.0478, 1233.221
255.5300, 1222.404
256.0121, 1207.362
256.4942, 1191.714
256.9763, 1172.899
257.4584, 1156.001
257.9406, 1145.607
258.4227, 1142.852
258.9048, 1142.931
259.3869, 1141.079
259.8690, 1137.200
260.3511, 1133.701
260.8333, 1133.404
261.3154, 1131.259
261.7975, 1123.512
262.2796, 1110.194
262.7617, 1094.386
263.2438, 1077.184
263.7260, 1058.904
264.2081, 1041.898
264.6902, 1027.595
265.1723, 1012.705
265.6544, 994.5400
266.1365, 973.7918
266.6187, 952.8960
267.1008, 930.7864
267.5829, 909.6848
268.0650, 895.0002
268.5471, 888.1449
269.0292, 883.5390
269.5114, 878.5121
269.9935, 873.0852
270.4756, 867.1575
270.9577, 861.0345
271.4398, 854.1309
271.9219, 845.9351
272.4041, 836.4326
272.8862, 825.3787
273.3683, 812.5770
273.8504, 797.9944
274.3325, 781.1807
274.8146, 758.7717
275.2968, 740.1884
275.7789, 734.4930
276.2610, 738.7707
276.7431, 741.2181
277.2252, 738.0148
277.7073, 730.5635
278.1895, 720.8379
278.6716, 708.5636
279.1537, 696.0687
279.6358, 682.2944
280.1179, 669.2859
280.6000, 661.5804
281.0822, 660.7043
281.5643, 661.7090
282.0464, 658.2087
282.5285, 649.6700
283.0106, 643.7134
283.4927, 644.4535
283.9749, 646.0700
284.4570, 643.7195
284.9391, 636.9349
285.4212, 626.7686
285.9033, 613.2490
286.3854, 596.5266
286.8676, 582.5529
287.3497, 570.0099
287.8318, 561.1443
288.3139, 560.0254
288.7960, 563.7552
289.2781, 564.3839
289.7603, 556.9623
290.2424, 544.0213
290.7245, 536.4131
291.2066, 541.1779
291.6887, 542.2076
292.1708, 533.3987
292.6530, 520.8585
293.1351, 511.9826
293.6172, 509.3812
294.0993, 511.1217
294.5814, 514.0077
295.0635, 519.4578
295.5457, 523.3216
296.0278, 524.0657
296.5099, 524.4301
296.9920, 527.2090
297.4741, 532.1635
297.9562, 535.9734
298.4384, 534.5128
298.9205, 526.2866
299.4026, 523.3265
299.8847, 529.1837
300.3668, 536.5698
300.8489, 545.9194
301.3311, 554.8353
301.8131, 558.4486
302.2953, 552.6041
302.7774, 539.9211
303.2595, 534.0945
303.7416, 540.2091
304.2237, 546.0548
304.7058, 549.7288
305.1880, 551.6002
305.6701, 551.5473
306.1522, 549.4429
306.6343, 547.0406
307.1164, 547.3849
307.5985, 551.1302
308.0807, 555.1879
308.5628, 559.3081
309.0449, 563.3870
309.5270, 568.0700
310.0091, 573.1407
310.4912, 576.4097
310.9734, 575.4555
311.4555, 570.6124
311.9376, 564.8810
312.4197, 555.3597
312.9018, 549.8011
313.3839, 554.5956
313.8661, 566.7353
314.3482, 578.4744
314.8303, 586.9195
315.3124, 592.5831
315.7945, 595.1951
316.2766, 593.9167
316.7588, 594.6126
317.2409, 603.0328
317.7230, 614.5603
318.2051, 621.3043
318.6872, 620.5053
319.1693, 617.9808
319.6515, 617.1259
320.1336, 617.9443
320.6157, 620.7883
321.0978, 626.4888
321.5799, 633.1340
322.0620, 637.8540
322.5442, 640.6946
323.0263, 642.2905
323.5084, 640.6581
323.9905, 638.7996
324.4726, 640.6009
324.9547, 646.7225
325.4369, 655.8162
325.9190, 667.7086
326.4011, 682.8167
326.8832, 692.7186
327.3653, 689.8251
327.8474, 688.9011
328.3296, 702.4938
328.8117, 725.7194
329.2938, 742.7274
329.7759, 743.5865
330.2580, 732.3596
330.7401, 727.4312
331.2223, 730.9908
331.7044, 738.2170
332.1865, 750.8268
332.6686, 765.8900
333.1507, 781.5485
333.6328, 796.8412
334.1150, 809.6414
334.5971, 815.7351
335.0792, 809.8007
335.5613, 811.7658
336.0434, 827.9796
336.5255, 845.4717
337.0077, 856.9333
337.4898, 863.3948
337.9719, 870.5327
338.4540, 883.0540
338.9361, 900.2716
339.4182, 916.3036
339.9004, 932.6699
340.3825, 945.0714
340.8646, 947.7099
341.3467, 947.8340
341.8288, 955.3951
342.3109, 974.9764
342.7931, 999.2071
343.2752, 1016.209
343.7573, 1024.550
344.2394, 1035.951
344.7215, 1052.428
345.2036, 1074.054
345.6858, 1103.782
346.1679, 1141.326
346.6500, 1175.160
347.1321, 1196.105
347.6142, 1207.822
348.0963, 1220.025
348.5785, 1233.330
349.0606, 1248.200
349.5427, 1265.423
350.0248, 1284.595
350.5069, 1304.697
350.9890, 1329.949
351.4712, 1352.679
351.9533, 1365.176
352.4354, 1368.990
352.9175, 1371.730
353.3996, 1375.954
353.8817, 1382.476
354.3639, 1395.233
354.8460, 1421.531
355.3281, 1437.818
355.8102, 1433.234
356.2923, 1418.407
356.7744, 1404.660
357.2566, 1394.632
357.7387, 1387.315
358.2208, 1382.721
358.7029, 1383.098
359.1850, 1372.424
359.6671, 1342.312
360.1493, 1311.301
360.6314, 1288.410
361.1135, 1271.117
361.5956, 1251.736
362.0777, 1225.067
362.5598, 1194.897
363.0420, 1175.430
363.5241, 1175.084
364.0062, 1172.314
364.4883, 1162.769
364.9704, 1151.142
365.4525, 1140.435
365.9347, 1131.679
366.4168, 1125.609
366.8989, 1122.735
367.3810, 1122.961
367.8631, 1128.323
368.3452, 1144.822
368.8274, 1159.386
369.3095, 1161.502
369.7916, 1156.702
370.2737, 1158.810
370.7558, 1178.954
371.2379, 1205.874
371.7201, 1218.725
372.2022, 1215.880
372.6843, 1214.734
373.1664, 1225.074
373.6485, 1239.674
374.1306, 1246.828
374.6128, 1243.952
375.0949, 1241.714
375.5770, 1245.526
376.0591, 1253.883
376.5412, 1264.868
377.0233, 1278.533
377.5055, 1291.438
377.9876, 1300.115
378.4697, 1304.034
378.9518, 1306.354
379.4339, 1302.946
379.9160, 1301.672
380.3982, 1308.500
380.8803, 1321.503
381.3624, 1335.023
381.8445, 1346.104
382.3266, 1355.246
382.8087, 1364.070
383.2909, 1368.522
383.7730, 1378.279
384.2551, 1397.877
384.7372, 1419.917
385.2193, 1439.076
385.7014, 1454.167
386.1836, 1466.502
386.6657, 1477.166
387.1478, 1486.048
387.6299, 1494.778
388.1120, 1506.384
388.5941, 1514.069
389.0763, 1517.921
389.5584, 1516.064
390.0405, 1503.898
390.5226, 1476.962
391.0047, 1446.044
391.4868, 1430.981
391.9690, 1434.313
392.4511, 1429.716
392.9332, 1407.974
393.4153, 1377.223
393.8974, 1343.975
394.3795, 1308.376
394.8617, 1275.301
395.3438, 1248.829
395.8259, 1225.843
396.3080, 1200.624
396.7901, 1172.593
397.2722, 1144.876
397.7544, 1118.369
398.2365, 1094.264
398.7186, 1076.362
399.2007, 1069.930
399.6828, 1063.813
400.1649, 1052.924
400.6471, 1039.725
401.1292, 1027.104
401.6113, 1015.934
402.0934, 1008.813
402.5755, 1010.319
403.0576, 1025.269
403.5398, 1034.122
404.0219, 1031.283
404.5040, 1028.500
404.9861, 1033.102
405.4682, 1042.917
405.9503, 1051.159
406.4325, 1053.218
406.9146, 1051.258
407.3967, 1052.852
407.8788, 1058.816
408.3609, 1066.819
408.8430, 1079.731
409.3252, 1092.202
409.8073, 1099.707
410.2894, 1101.674
410.7715, 1101.382
411.2536, 1100.608
411.7357, 1099.684
412.2179, 1100.402
412.7000, 1103.041
413.1821, 1106.906
413.6642, 1109.711
414.1463, 1113.544
414.6284, 1123.786
415.1106, 1148.752
415.5927, 1171.508
416.0748, 1176.633
416.5569, 1169.091
417.0390, 1164.492
417.5211, 1168.524
418.0033, 1175.839
418.4854, 1177.459
418.9675, 1169.106
419.4496, 1170.531
419.9317, 1191.264
420.4138, 1214.715
420.8960, 1229.899
421.3781, 1237.719
421.8602, 1244.132
422.3423, 1252.825
422.8244, 1263.604
423.3065, 1275.213
423.7887, 1283.490
424.2708, 1299.746
424.7529, 1330.838
425.2350, 1365.759
425.7171, 1396.960
426.1992, 1422.769
426.6814, 1443.585
427.1635, 1456.614
427.6456, 1463.132
428.1277, 1478.235
428.6098, 1506.583
429.0919, 1534.553
429.5741, 1556.853
430.0562, 1574.026
430.5383, 1584.959
431.0204, 1585.676
431.5025, 1588.178
431.9846, 1605.591
432.4668, 1633.595
432.9489, 1656.996
433.4310, 1671.965
433.9131, 1681.059
434.3952, 1685.468
434.8773, 1684.364
435.3595, 1687.862
435.8416, 1704.988
436.3237, 1719.194
436.8058, 1716.499
437.2879, 1702.459
437.7701, 1692.886
438.2522, 1696.248
438.7343, 1706.491
439.2164, 1708.143
439.6985, 1696.263
440.1806, 1684.201
440.6628, 1674.923
441.1449, 1663.366
441.6270, 1643.753
442.1091, 1618.126
442.5912, 1594.785
443.0733, 1581.377
443.5555, 1574.693
444.0376, 1562.242
444.5197, 1542.843
445.0018, 1520.924
445.4839, 1495.061
445.9660, 1468.889
446.4482, 1446.869
446.9303, 1430.313
447.4124, 1412.492
447.8945, 1388.414
448.3766, 1360.299
448.8587, 1332.323
449.3409, 1304.799
449.8230, 1279.161
450.3051, 1257.088
450.7872, 1238.063
451.2693, 1216.964
451.7514, 1184.132
452.2336, 1160.527
452.7157, 1159.458
453.1978, 1169.505
453.6799, 1175.020
454.1620, 1171.456
454.6441, 1164.222
455.1263, 1159.885
455.6084, 1158.474
456.0905, 1159.811
456.5726, 1164.229
457.0547, 1171.267
457.5368, 1182.708
458.0190, 1196.277
458.5011, 1208.791
458.9832, 1219.091
459.4653, 1227.055
459.9474, 1231.303
460.4295, 1231.726
460.9117, 1234.836
461.3938, 1242.308
461.8759, 1252.310
462.3580, 1264.180
462.8401, 1277.444
463.3222, 1289.618
463.8044, 1298.182
464.2865, 1306.892
464.7686, 1320.038
465.2507, 1336.482
465.7328, 1351.886
466.2149, 1364.567
466.6971, 1374.510
467.1792, 1381.495
467.6613, 1385.007
468.1434, 1386.193
468.6255, 1381.089
469.1076, 1377.128
469.5898, 1381.557
470.0719, 1391.432
470.5540, 1397.542
471.0361, 1393.648
471.5182, 1383.316
472.0003, 1377.012
472.4825, 1376.330
472.9646, 1375.443
473.4467, 1373.302
473.9288, 1370.433
474.4109, 1369.700
474.8930, 1370.003
475.3752, 1362.750
475.8573, 1334.575
476.3394, 1299.083
476.8215, 1281.427
477.3036, 1282.348
477.7857, 1285.015
478.2679, 1283.451
478.7500, 1276.369
479.2321, 1258.371
479.7142, 1222.479
480.1963, 1194.966
480.6784, 1185.771
481.1606, 1183.765
481.6427, 1181.262
482.1248, 1176.308
482.6069, 1167.195
483.0890, 1152.058
483.5711, 1132.280
484.0533, 1115.248
484.5354, 1102.288
485.0175, 1090.006
485.4996, 1077.663
485.9817, 1065.866
486.4638, 1056.260
486.9460, 1048.406
487.4281, 1038.719
487.9102, 1020.506
488.3923, 998.4642
488.8744, 989.8091
489.3565, 997.7029
489.8387, 1001.051
490.3208, 986.0142
490.8029, 961.2830
491.2850, 946.0706
491.7671, 944.3180
492.2492, 940.4401
492.7314, 927.5172
493.2135, 910.7430
493.6956, 894.9288
494.1777, 881.0876
494.6598, 870.0221
495.1419, 863.0110
495.6241, 858.8918
496.1062, 849.6628
496.5883, 827.9231
497.0704, 811.5983
497.5525, 806.0075
498.0346, 803.7368
498.5168, 798.8597
498.9989, 790.6880
499.4810, 782.1149
499.9631, 776.5791
500.4452, 772.4989
500.9273, 762.8234
501.4095, 745.7231
501.8916, 730.7859
502.3737, 723.3896
502.8558, 719.8947
503.3379, 714.2424
503.8200, 705.6429
504.3022, 697.9025
504.7843, 694.3934
505.2664, 691.3941
505.7485, 683.1072
506.2306, 670.0933
506.7127, 659.3104
507.1949, 655.5848
507.6770, 657.4440
508.1591, 658.6509
508.6412, 662.3965
509.1233, 660.4323
509.6054, 645.2445
510.0876, 629.9237
510.5697, 626.7725
511.0518, 633.9556
511.5339, 638.1226
512.0161, 626.6138
512.4982, 607.1766
512.9803, 602.8434
513.4624, 616.3825
513.9445, 628.6068
514.4266, 633.5257
514.9088, 633.2067
515.3909, 629.8162
515.8730, 623.0223
516.3551, 617.4868
516.8372, 615.0809
517.3193, 614.1889
517.8015, 613.3151
518.2836, 612.5385
518.7657, 612.6851
519.2478, 614.2569
519.7299, 616.7303
520.2120, 618.5303
520.6942, 616.4051
521.1763, 620.0804
521.6584, 636.5708
522.1405, 651.6039
522.6226, 655.5101
523.1047, 651.6108
523.5869, 649.4459
524.0690, 654.2906
524.5511, 662.7693
525.0332, 669.3558
525.5153, 674.0692
525.9974, 680.0305
526.4796, 688.3566
526.9617, 697.5362
527.4438, 704.3493
527.9259, 709.4462
528.4080, 720.5032
528.8901, 744.8195
529.3723, 769.2644
529.8544, 784.4494
530.3365, 794.5017
530.8186, 806.7944
531.3007, 824.0182
531.7828, 845.8619
532.2650, 872.6019
532.7471, 905.4916
533.2292, 936.1069
533.7113, 964.1199
534.1934, 990.2130
534.6755, 1010.113
535.1577, 1029.932
535.6398, 1058.913
536.1219, 1100.423
536.6040, 1145.489
537.0861, 1185.920
537.5682, 1223.127
538.0504, 1260.306
538.5325, 1296.985
539.0146, 1338.859
539.4967, 1391.947
539.9788, 1453.204
540.4609, 1506.219
540.9431, 1539.960
541.4252, 1582.117
541.9073, 1643.142
542.3894, 1711.836
542.8715, 1778.516
543.3536, 1842.009
543.8358, 1905.857
544.3179, 1973.660
544.8000, 2043.509
545.2821, 2106.507
545.7642, 2160.288
546.2463, 2213.584
546.7285, 2272.653
547.2106, 2328.490
547.6927, 2374.942
548.1748, 2411.743
548.6569, 2441.049
549.1390, 2464.576
549.6211, 2480.162
550.1032, 2480.314
550.5853, 2468.945
551.0674, 2463.098
551.5496, 2470.040
552.0317, 2483.057
552.5138, 2491.491
552.9959, 2494.267
553.4780, 2495.997
553.9601, 2492.766
554.4423, 2492.807
554.9244, 2498.220
555.4065, 2509.457
555.8886, 2527.624
556.3707, 2553.322
556.8528, 2582.649
557.3350, 2611.281
557.8171, 2639.410
558.2992, 2669.111
558.7813, 2701.449
559.2634, 2732.400
559.7455, 2757.108
560.2277, 2778.798
560.7098, 2807.775
561.1919, 2852.179
561.6740, 2889.887
562.1561, 2917.477
562.6382, 2932.817
563.1204, 2929.932
563.6025, 2911.091
564.0846, 2889.124
564.5667, 2874.233
565.0488, 2861.513
565.5309, 2830.601
566.0131, 2775.926
566.4952, 2717.233
566.9773, 2656.855
567.4594, 2593.730
567.9415, 2527.375
568.4236, 2457.646
568.9058, 2384.214
569.3879, 2303.628
569.8700, 2221.808
570.3521, 2143.800
570.8342, 2069.068
571.3163, 1995.611
571.7985, 1922.735
572.2806, 1851.688
572.7627, 1784.420
573.2448, 1720.875
573.7269, 1659.603
574.2090, 1597.207
574.6912, 1540.187
575.1733, 1491.640
575.6554, 1448.588
576.1375, 1408.106
576.6196, 1369.276
577.1017, 1331.728
577.5839, 1293.147
578.0660, 1255.541
578.5481, 1227.221
579.0302, 1209.372
579.5123, 1191.338
579.9944, 1166.985
580.4766, 1140.867
580.9587, 1122.860
581.4408, 1114.819
581.9229, 1105.109
582.4050, 1089.308
582.8871, 1074.062
583.3693, 1063.638
583.8514, 1057.357
584.3335, 1053.205
584.8156, 1050.336
585.2977, 1048.027
585.7798, 1044.073
586.2620, 1037.887
586.7441, 1038.035
587.2262, 1050.032
587.7083, 1059.965
588.1904, 1055.898
588.6725, 1045.639
589.1547, 1042.691
589.6368, 1052.188
590.1189, 1060.109
590.6010, 1055.448
591.0831, 1047.733
591.5652, 1050.910
592.0474, 1064.490
592.5295, 1077.546
593.0116, 1082.995
593.4937, 1082.271
593.9758, 1079.096
594.4579, 1070.500
594.9401, 1066.562
595.4222, 1071.639
595.9043, 1078.456
596.3864, 1084.403
596.8685, 1089.201
597.3506, 1092.919
597.8328, 1096.305
598.3149, 1097.160
598.7970, 1093.109
599.2791, 1085.001
599.7612, 1073.515
600.2433, 1058.716
600.7255, 1046.525
601.2076, 1042.721
601.6897, 1045.934
602.1718, 1045.033
602.6539, 1040.752
603.1360, 1030.890
603.6182, 1010.397
604.1003, 988.2220
604.5824, 971.1476
605.0645, 958.8295
605.5466, 946.6638
606.0287, 930.7324
606.5109, 915.1308
606.9930, 908.8386
607.4751, 910.0286
607.9572, 903.8242
608.4393, 885.7642
608.9214, 862.0093
609.4036, 836.9025
609.8857, 810.4327
610.3678, 791.6240
610.8499, 787.8467
611.3320, 781.7043
611.8141, 767.0892
612.2963, 749.4833
612.7784, 733.1378
613.2605, 719.4387
613.7426, 710.2299
