##NAMES=Muirite
##RRUFFID=R120160
##IDEAL CHEMISTRY=Ba_10_Ca_2_Mn^2+^Ti^4+^Si_10_O_30_(OH)_10_
##LOCALITY=Gun Claim, MacMillian Pass, Itsy Mts, Watson Lake Mining District, Yukon Territory, Canada
##OWNER=RRUFF
##SOURCE=Donald Doell
##DESCRIPTION=Orange-red massive, associated with colorless sanbornite with good cleavage, diopside, and witherite.
##STATUS=The identification of this mineral has been confirmed by single-crystal X-ray diffraction.
##URL=rruff.info/R120160
8.936163e+001, 0.000000e+000
8.984375e+001, 4.218069e+002
9.032587e+001, 4.262376e+002
9.080798e+001, 4.270900e+002
9.129010e+001, 4.229621e+002
9.177222e+001, 4.168828e+002
9.225433e+001, 4.124147e+002
9.273645e+001, 4.094330e+002
9.321857e+001, 4.068230e+002
9.370068e+001, 4.041811e+002
9.418280e+001, 4.012900e+002
9.466492e+001, 3.974178e+002
9.514703e+001, 3.917523e+002
9.562915e+001, 3.850554e+002
9.611127e+001, 3.792976e+002
9.659338e+001, 3.745810e+002
9.707550e+001, 3.704817e+002
9.755762e+001, 3.662840e+002
9.803973e+001, 3.619570e+002
9.852185e+001, 3.584637e+002
9.900397e+001, 3.566221e+002
9.948608e+001, 3.564792e+002
9.996820e+001, 3.554671e+002
1.004503e+002, 3.535179e+002
1.009324e+002, 3.507451e+002
1.014146e+002, 3.473307e+002
1.018967e+002, 3.431708e+002
1.023788e+002, 3.385822e+002
1.028609e+002, 3.333355e+002
1.033430e+002, 3.267912e+002
1.038251e+002, 3.218339e+002
1.043073e+002, 3.189526e+002
1.047894e+002, 3.178780e+002
1.052715e+002, 3.174803e+002
1.057536e+002, 3.191817e+002
1.062357e+002, 3.199951e+002
1.067178e+002, 3.175564e+002
1.072000e+002, 3.082110e+002
1.076821e+002, 3.009855e+002
1.081642e+002, 2.980595e+002
1.086463e+002, 2.998948e+002
1.091284e+002, 2.996076e+002
1.096105e+002, 2.954918e+002
1.100927e+002, 2.899823e+002
1.105748e+002, 2.853893e+002
1.110569e+002, 2.820866e+002
1.115390e+002, 2.793840e+002
1.120211e+002, 2.774172e+002
1.125032e+002, 2.765590e+002
1.129854e+002, 2.750268e+002
1.134675e+002, 2.721122e+002
1.139496e+002, 2.684812e+002
1.144317e+002, 2.650528e+002
1.149138e+002, 2.616914e+002
1.153959e+002, 2.588668e+002
1.158781e+002, 2.570181e+002
1.163602e+002, 2.569673e+002
1.168423e+002, 2.562472e+002
1.173244e+002, 2.533823e+002
1.178065e+002, 2.491076e+002
1.182886e+002, 2.452931e+002
1.187708e+002, 2.432440e+002
1.192529e+002, 2.417013e+002
1.197350e+002, 2.396439e+002
1.202171e+002, 2.361189e+002
1.206992e+002, 2.328369e+002
1.211813e+002, 2.312538e+002
1.216635e+002, 2.310816e+002
1.221456e+002, 2.307780e+002
1.226277e+002, 2.292825e+002
1.231098e+002, 2.271046e+002
1.235919e+002, 2.249072e+002
1.240740e+002, 2.226551e+002
1.245562e+002, 2.206440e+002
1.250383e+002, 2.191980e+002
1.255204e+002, 2.183068e+002
1.260025e+002, 2.178784e+002
1.264846e+002, 2.187976e+002
1.269667e+002, 2.202419e+002
1.274489e+002, 2.201553e+002
1.279310e+002, 2.164702e+002
1.284131e+002, 2.108439e+002
1.288952e+002, 2.063475e+002
1.293773e+002, 2.030548e+002
1.298594e+002, 2.008859e+002
1.303416e+002, 2.003194e+002
1.308237e+002, 2.011201e+002
1.313058e+002, 2.015366e+002
1.317879e+002, 2.004650e+002
1.322700e+002, 1.981586e+002
1.327521e+002, 1.957898e+002
1.332343e+002, 1.933601e+002
1.337164e+002, 1.910374e+002
1.341985e+002, 1.889828e+002
1.346806e+002, 1.871894e+002
1.351627e+002, 1.857532e+002
1.356448e+002, 1.850610e+002
1.361270e+002, 1.851313e+002
1.366091e+002, 1.844222e+002
1.370912e+002, 1.825003e+002
1.375733e+002, 1.797960e+002
1.380554e+002, 1.776319e+002
1.385375e+002, 1.760903e+002
1.390197e+002, 1.748375e+002
1.395018e+002, 1.735134e+002
1.399839e+002, 1.719915e+002
1.404660e+002, 1.710741e+002
1.409481e+002, 1.712381e+002
1.414302e+002, 1.723244e+002
1.419124e+002, 1.721849e+002
1.423945e+002, 1.704702e+002
1.428766e+002, 1.680258e+002
1.433587e+002, 1.655398e+002
1.438408e+002, 1.627007e+002
1.443229e+002, 1.605103e+002
1.448051e+002, 1.592875e+002
1.452872e+002, 1.591297e+002
1.457693e+002, 1.591813e+002
1.462514e+002, 1.598387e+002
1.467335e+002, 1.604612e+002
1.472156e+002, 1.601815e+002
1.476978e+002, 1.581492e+002
1.481799e+002, 1.562722e+002
1.486620e+002, 1.551379e+002
1.491441e+002, 1.552878e+002
1.496262e+002, 1.547192e+002
1.501083e+002, 1.527136e+002
1.505905e+002, 1.501145e+002
1.510726e+002, 1.483963e+002
1.515547e+002, 1.488047e+002
1.520368e+002, 1.490343e+002
1.525189e+002, 1.482881e+002
1.530010e+002, 1.455725e+002
1.534832e+002, 1.435948e+002
1.539653e+002, 1.429725e+002
1.544474e+002, 1.432296e+002
1.549295e+002, 1.432236e+002
1.554116e+002, 1.425860e+002
1.558937e+002, 1.418186e+002
1.563759e+002, 1.411602e+002
1.568580e+002, 1.408450e+002
1.573401e+002, 1.403683e+002
1.578222e+002, 1.393007e+002
1.583043e+002, 1.378991e+002
1.587864e+002, 1.371113e+002
1.592686e+002, 1.378745e+002
1.597507e+002, 1.389357e+002
1.602328e+002, 1.394878e+002
1.607149e+002, 1.384398e+002
1.611970e+002, 1.377654e+002
1.616791e+002, 1.383358e+002
1.621613e+002, 1.399701e+002
1.626434e+002, 1.415304e+002
1.631255e+002, 1.419434e+002
1.636076e+002, 1.423295e+002
1.640897e+002, 1.436867e+002
1.645718e+002, 1.471096e+002
1.650540e+002, 1.509395e+002
1.655361e+002, 1.541650e+002
1.660182e+002, 1.568405e+002
1.665003e+002, 1.600574e+002
1.669824e+002, 1.646633e+002
1.674645e+002, 1.701281e+002
1.679467e+002, 1.757277e+002
1.684288e+002, 1.804083e+002
1.689109e+002, 1.857089e+002
1.693930e+002, 1.928754e+002
1.698751e+002, 2.020276e+002
1.703572e+002, 2.119572e+002
1.708394e+002, 2.218899e+002
1.713215e+002, 2.321576e+002
1.718036e+002, 2.431530e+002
1.722857e+002, 2.561824e+002
1.727678e+002, 2.695421e+002
1.732499e+002, 2.811562e+002
1.737321e+002, 2.907449e+002
1.742142e+002, 3.004076e+002
1.746963e+002, 3.127912e+002
1.751784e+002, 3.268863e+002
1.756605e+002, 3.403570e+002
1.761426e+002, 3.517066e+002
1.766248e+002, 3.617151e+002
1.771069e+002, 3.712869e+002
1.775890e+002, 3.805150e+002
1.780711e+002, 3.894127e+002
1.785532e+002, 3.977502e+002
1.790353e+002, 4.057627e+002
1.795175e+002, 4.139648e+002
1.799996e+002, 4.227943e+002
1.804817e+002, 4.320313e+002
1.809638e+002, 4.414134e+002
1.814459e+002, 4.509146e+002
1.819280e+002, 4.606033e+002
1.824102e+002, 4.706474e+002
1.828923e+002, 4.809300e+002
1.833744e+002, 4.919243e+002
1.838565e+002, 5.038378e+002
1.843386e+002, 5.166464e+002
1.848207e+002, 5.300054e+002
1.853029e+002, 5.441992e+002
1.857850e+002, 5.585518e+002
1.862671e+002, 5.718205e+002
1.867492e+002, 5.840367e+002
1.872313e+002, 5.970099e+002
1.877134e+002, 6.126378e+002
1.881956e+002, 6.304189e+002
1.886777e+002, 6.471705e+002
1.891598e+002, 6.624334e+002
1.896419e+002, 6.766215e+002
1.901240e+002, 6.907238e+002
1.906061e+002, 7.049379e+002
1.910883e+002, 7.186483e+002
1.915704e+002, 7.315920e+002
1.920525e+002, 7.438799e+002
1.925346e+002, 7.554547e+002
1.930167e+002, 7.662707e+002
1.934988e+002, 7.758511e+002
1.939810e+002, 7.814599e+002
1.944631e+002, 7.823165e+002
1.949452e+002, 7.827362e+002
1.954273e+002, 7.829072e+002
1.959094e+002, 7.828331e+002
1.963915e+002, 7.829921e+002
1.968737e+002, 7.837155e+002
1.973558e+002, 7.846603e+002
1.978379e+002, 7.844295e+002
1.983200e+002, 7.828743e+002
1.988021e+002, 7.809821e+002
1.992842e+002, 7.795710e+002
1.997664e+002, 7.786484e+002
2.002485e+002, 7.779919e+002
2.007306e+002, 7.774760e+002
2.012127e+002, 7.771950e+002
2.016948e+002, 7.779266e+002
2.021769e+002, 7.800626e+002
2.026591e+002, 7.820576e+002
2.031412e+002, 7.818427e+002
2.036233e+002, 7.789172e+002
2.041054e+002, 7.776687e+002
2.045875e+002, 7.795123e+002
2.050696e+002, 7.840374e+002
2.055518e+002, 7.875933e+002
2.060339e+002, 7.899396e+002
2.065160e+002, 7.918691e+002
2.069981e+002, 7.942098e+002
2.074802e+002, 7.970211e+002
2.079623e+002, 7.997479e+002
2.084445e+002, 8.019572e+002
2.089266e+002, 8.037261e+002
2.094087e+002, 8.071847e+002
2.098908e+002, 8.129413e+002
2.103729e+002, 8.192700e+002
2.108550e+002, 8.244297e+002
2.113372e+002, 8.283361e+002
2.118193e+002, 8.312139e+002
2.123014e+002, 8.327798e+002
2.127835e+002, 8.330170e+002
2.132656e+002, 8.341019e+002
2.137477e+002, 8.362068e+002
2.142299e+002, 8.389015e+002
2.147120e+002, 8.417106e+002
2.151941e+002, 8.447200e+002
2.156762e+002, 8.476608e+002
2.161583e+002, 8.506231e+002
2.166404e+002, 8.536223e+002
2.171226e+002, 8.557572e+002
2.176047e+002, 8.567739e+002
2.180868e+002, 8.572292e+002
2.185689e+002, 8.578243e+002
2.190510e+002, 8.587107e+002
2.195331e+002, 8.593870e+002
2.200153e+002, 8.596739e+002
2.204974e+002, 8.595258e+002
2.209795e+002, 8.596251e+002
2.214616e+002, 8.601161e+002
2.219437e+002, 8.607322e+002
2.224258e+002, 8.612391e+002
2.229080e+002, 8.619034e+002
2.233901e+002, 8.618806e+002
2.238722e+002, 8.606536e+002
2.243543e+002, 8.579410e+002
2.248364e+002, 8.563367e+002
2.253185e+002, 8.559982e+002
2.258007e+002, 8.565956e+002
2.262828e+002, 8.578346e+002
2.267649e+002, 8.600505e+002
2.272470e+002, 8.621674e+002
2.277291e+002, 8.638270e+002
2.282112e+002, 8.649803e+002
2.286934e+002, 8.660829e+002
2.291755e+002, 8.669319e+002
2.296576e+002, 8.678898e+002
2.301397e+002, 8.694670e+002
2.306218e+002, 8.720549e+002
2.311039e+002, 8.745849e+002
2.315861e+002, 8.766102e+002
2.320682e+002, 8.779772e+002
2.325503e+002, 8.802626e+002
2.330324e+002, 8.837744e+002
2.335145e+002, 8.879639e+002
2.339966e+002, 8.922037e+002
2.344788e+002, 8.963997e+002
2.349609e+002, 9.007987e+002
2.354430e+002, 9.053892e+002
2.359251e+002, 9.101063e+002
2.364072e+002, 9.154505e+002
2.368893e+002, 9.211771e+002
2.373715e+002, 9.277140e+002
2.378536e+002, 9.356630e+002
2.383357e+002, 9.457616e+002
2.388178e+002, 9.561290e+002
2.392999e+002, 9.666000e+002
2.397820e+002, 9.772540e+002
2.402642e+002, 9.864622e+002
2.407463e+002, 9.932617e+002
2.412284e+002, 9.993859e+002
2.417105e+002, 1.006921e+003
2.421926e+002, 1.016133e+003
2.426747e+002, 1.026201e+003
2.431569e+002, 1.037054e+003
2.436390e+002, 1.048864e+003
2.441211e+002, 1.060290e+003
2.446032e+002, 1.071225e+003
2.450853e+002, 1.081955e+003
2.455674e+002, 1.092664e+003
2.460496e+002, 1.102758e+003
2.465317e+002, 1.114019e+003
2.470138e+002, 1.127229e+003
2.474959e+002, 1.142673e+003
2.479780e+002, 1.157474e+003
2.484601e+002, 1.171070e+003
2.489423e+002, 1.184744e+003
2.494244e+002, 1.199893e+003
2.499065e+002, 1.216777e+003
2.503886e+002, 1.234664e+003
2.508707e+002, 1.253356e+003
2.513528e+002, 1.272655e+003
2.518350e+002, 1.293799e+003
2.523171e+002, 1.316777e+003
2.527992e+002, 1.341314e+003
2.532813e+002, 1.367147e+003
2.537634e+002, 1.393982e+003
2.542455e+002, 1.422139e+003
2.547277e+002, 1.451807e+003
2.552098e+002, 1.483120e+003
2.556919e+002, 1.514746e+003
2.561740e+002, 1.545996e+003
2.566561e+002, 1.578313e+003
2.571382e+002, 1.612614e+003
2.576204e+002, 1.649534e+003
2.581025e+002, 1.687544e+003
2.585846e+002, 1.726433e+003
2.590667e+002, 1.766262e+003
2.595488e+002, 1.805032e+003
2.600309e+002, 1.841419e+003
2.605131e+002, 1.877575e+003
2.609952e+002, 1.914970e+003
2.614773e+002, 1.954839e+003
2.619594e+002, 1.993340e+003
2.624415e+002, 2.029492e+003
2.629236e+002, 2.063705e+003
2.634058e+002, 2.096996e+003
2.638879e+002, 2.131009e+003
2.643700e+002, 2.161965e+003
2.648521e+002, 2.187441e+003
2.653342e+002, 2.206339e+003
2.658163e+002, 2.222780e+003
2.662985e+002, 2.237145e+003
2.667806e+002, 2.249374e+003
2.672627e+002, 2.259912e+003
2.677448e+002, 2.269660e+003
2.682269e+002, 2.275616e+003
2.687090e+002, 2.275443e+003
2.691912e+002, 2.268592e+003
2.696733e+002, 2.257739e+003
2.701554e+002, 2.242989e+003
2.706375e+002, 2.224454e+003
2.711196e+002, 2.203134e+003
2.716017e+002, 2.179074e+003
2.720839e+002, 2.152155e+003
2.725660e+002, 2.123089e+003
2.730481e+002, 2.091991e+003
2.735302e+002, 2.057202e+003
2.740123e+002, 2.017633e+003
2.744944e+002, 1.974544e+003
2.749766e+002, 1.931025e+003
2.754587e+002, 1.887379e+003
2.759408e+002, 1.842588e+003
2.764229e+002, 1.796588e+003
2.769050e+002, 1.749027e+003
2.773871e+002, 1.702094e+003
2.778693e+002, 1.655760e+003
2.783514e+002, 1.610357e+003
2.788335e+002, 1.566580e+003
2.793156e+002, 1.523942e+003
2.797977e+002, 1.483405e+003
2.802798e+002, 1.445401e+003
2.807620e+002, 1.410246e+003
2.812441e+002, 1.376423e+003
2.817262e+002, 1.343592e+003
2.822083e+002, 1.312514e+003
2.826904e+002, 1.284497e+003
2.831725e+002, 1.259554e+003
2.836547e+002, 1.237266e+003
2.841368e+002, 1.217776e+003
2.846189e+002, 1.201106e+003
2.851010e+002, 1.185523e+003
2.855831e+002, 1.170938e+003
2.860652e+002, 1.157576e+003
2.865474e+002, 1.146049e+003
2.870295e+002, 1.136333e+003
2.875116e+002, 1.127197e+003
2.879937e+002, 1.117641e+003
2.884758e+002, 1.107975e+003
2.889579e+002, 1.100705e+003
2.894401e+002, 1.095944e+003
2.899222e+002, 1.092527e+003
2.904043e+002, 1.089084e+003
2.908864e+002, 1.085696e+003
2.913685e+002, 1.083036e+003
2.918506e+002, 1.081736e+003
2.923328e+002, 1.081318e+003
2.928149e+002, 1.080164e+003
2.932970e+002, 1.078173e+003
2.937791e+002, 1.076573e+003
2.942612e+002, 1.076886e+003
2.947433e+002, 1.078751e+003
2.952255e+002, 1.080707e+003
2.957076e+002, 1.081849e+003
2.961897e+002, 1.083013e+003
2.966718e+002, 1.085921e+003
2.971539e+002, 1.090530e+003
2.976360e+002, 1.095944e+003
2.981182e+002, 1.103114e+003
2.986003e+002, 1.110544e+003
2.990824e+002, 1.114462e+003
2.995645e+002, 1.112756e+003
3.000466e+002, 1.108237e+003
3.005287e+002, 1.104729e+003
3.010109e+002, 1.102082e+003
3.014930e+002, 1.099078e+003
3.019751e+002, 1.095027e+003
3.024572e+002, 1.090016e+003
3.029393e+002, 1.084262e+003
3.034214e+002, 1.077707e+003
3.039036e+002, 1.070500e+003
3.043857e+002, 1.062481e+003
3.048678e+002, 1.053872e+003
3.053499e+002, 1.045275e+003
3.058320e+002, 1.037546e+003
3.063141e+002, 1.029926e+003
3.067963e+002, 1.021542e+003
3.072784e+002, 1.011956e+003
3.077605e+002, 1.002187e+003
3.082426e+002, 9.927087e+002
3.087247e+002, 9.836342e+002
3.092068e+002, 9.752462e+002
3.096890e+002, 9.681948e+002
3.101711e+002, 9.615582e+002
3.106532e+002, 9.545211e+002
3.111353e+002, 9.468785e+002
3.116174e+002, 9.394665e+002
3.120995e+002, 9.331412e+002
3.125817e+002, 9.274337e+002
3.130638e+002, 9.215060e+002
3.135459e+002, 9.143367e+002
3.140280e+002, 9.072877e+002
3.145101e+002, 9.012275e+002
3.149922e+002, 8.962803e+002
3.154744e+002, 8.917021e+002
3.159565e+002, 8.874177e+002
3.164386e+002, 8.832780e+002
3.169207e+002, 8.791677e+002
3.174028e+002, 8.753524e+002
3.178849e+002, 8.712721e+002
3.183671e+002, 8.665031e+002
3.188492e+002, 8.610586e+002
3.193313e+002, 8.559501e+002
3.198134e+002, 8.520468e+002
3.202955e+002, 8.483129e+002
3.207776e+002, 8.439693e+002
3.212598e+002, 8.383086e+002
3.217419e+002, 8.325280e+002
3.222240e+002, 8.270380e+002
3.227061e+002, 8.217055e+002
3.231882e+002, 8.158675e+002
3.236703e+002, 8.087151e+002
3.241525e+002, 8.014490e+002
3.246346e+002, 7.948201e+002
3.251167e+002, 7.895779e+002
3.255988e+002, 7.839807e+002
3.260809e+002, 7.773857e+002
3.265630e+002, 7.702880e+002
3.270452e+002, 7.640115e+002
3.275273e+002, 7.593959e+002
3.280094e+002, 7.550463e+002
3.284915e+002, 7.504828e+002
3.289736e+002, 7.456812e+002
3.294557e+002, 7.408358e+002
3.299379e+002, 7.357884e+002
3.304200e+002, 7.307249e+002
3.309021e+002, 7.260310e+002
3.313842e+002, 7.219696e+002
3.318663e+002, 7.178572e+002
3.323484e+002, 7.133602e+002
3.328306e+002, 7.084070e+002
3.333127e+002, 7.040169e+002
3.337948e+002, 7.003259e+002
3.342769e+002, 6.970539e+002
3.347590e+002, 6.939622e+002
3.352411e+002, 6.910769e+002
3.357233e+002, 6.882994e+002
3.362054e+002, 6.858041e+002
3.366875e+002, 6.835205e+002
3.371696e+002, 6.804343e+002
3.376517e+002, 6.762491e+002
3.381339e+002, 6.718729e+002
3.386160e+002, 6.680676e+002
3.390981e+002, 6.648572e+002
3.395802e+002, 6.620422e+002
3.400623e+002, 6.597593e+002
3.405444e+002, 6.577750e+002
3.410266e+002, 6.553505e+002
3.415087e+002, 6.523253e+002
3.419908e+002, 6.494218e+002
3.424729e+002, 6.472116e+002
3.429550e+002, 6.456989e+002
3.434371e+002, 6.436841e+002
3.439193e+002, 6.409210e+002
3.444014e+002, 6.379199e+002
3.448835e+002, 6.355748e+002
3.453656e+002, 6.338851e+002
3.458477e+002, 6.327039e+002
3.463298e+002, 6.322390e+002
3.468120e+002, 6.322913e+002
3.472941e+002, 6.318213e+002
3.477762e+002, 6.306785e+002
3.482583e+002, 6.297316e+002
3.487404e+002, 6.302062e+002
3.492225e+002, 6.318432e+002
3.497047e+002, 6.335207e+002
3.501868e+002, 6.347064e+002
3.506689e+002, 6.357060e+002
3.511510e+002, 6.370854e+002
3.516331e+002, 6.388326e+002
3.521152e+002, 6.407369e+002
3.525974e+002, 6.430151e+002
3.530795e+002, 6.452748e+002
3.535616e+002, 6.467568e+002
3.540437e+002, 6.470282e+002
3.545258e+002, 6.467235e+002
3.550079e+002, 6.463624e+002
3.554901e+002, 6.459490e+002
3.559722e+002, 6.454926e+002
3.564543e+002, 6.449498e+002
3.569364e+002, 6.443984e+002
3.574185e+002, 6.439767e+002
3.579006e+002, 6.438486e+002
3.583828e+002, 6.434879e+002
3.588649e+002, 6.420530e+002
3.593470e+002, 6.401575e+002
3.598291e+002, 6.390269e+002
3.603112e+002, 6.399465e+002
3.607933e+002, 6.412269e+002
3.612755e+002, 6.418400e+002
3.617576e+002, 6.416010e+002
3.622397e+002, 6.413202e+002
3.627218e+002, 6.410808e+002
3.632039e+002, 6.410342e+002
3.636860e+002, 6.413505e+002
3.641682e+002, 6.423725e+002
3.646503e+002, 6.434753e+002
3.651324e+002, 6.441260e+002
3.656145e+002, 6.443807e+002
3.660966e+002, 6.456804e+002
3.665787e+002, 6.490447e+002
3.670609e+002, 6.530404e+002
3.675430e+002, 6.567497e+002
3.680251e+002, 6.593991e+002
3.685072e+002, 6.626246e+002
3.689893e+002, 6.670707e+002
3.694714e+002, 6.722386e+002
3.699536e+002, 6.763226e+002
3.704357e+002, 6.781350e+002
3.709178e+002, 6.801337e+002
3.713999e+002, 6.833088e+002
3.718820e+002, 6.881600e+002
3.723641e+002, 6.929659e+002
3.728463e+002, 6.976558e+002
3.733284e+002, 7.022899e+002
3.738105e+002, 7.070211e+002
3.742926e+002, 7.119102e+002
3.747747e+002, 7.167908e+002
3.752568e+002, 7.217623e+002
3.757390e+002, 7.268466e+002
3.762211e+002, 7.311413e+002
3.767032e+002, 7.344105e+002
3.771853e+002, 7.374568e+002
3.776674e+002, 7.411954e+002
3.781495e+002, 7.457239e+002
3.786317e+002, 7.502738e+002
3.791138e+002, 7.550305e+002
3.795959e+002, 7.595466e+002
3.800780e+002, 7.621307e+002
3.805601e+002, 7.625867e+002
3.810422e+002, 7.632068e+002
3.815244e+002, 7.660222e+002
3.820065e+002, 7.705764e+002
3.824886e+002, 7.740283e+002
3.829707e+002, 7.759275e+002
3.834528e+002, 7.772738e+002
3.839349e+002, 7.800244e+002
3.844171e+002, 7.837794e+002
3.848992e+002, 7.863503e+002
3.853813e+002, 7.858062e+002
3.858634e+002, 7.836979e+002
3.863455e+002, 7.828643e+002
3.868276e+002, 7.834418e+002
3.873098e+002, 7.839093e+002
3.877919e+002, 7.827131e+002
3.882740e+002, 7.805078e+002
3.887561e+002, 7.785349e+002
3.892382e+002, 7.780488e+002
3.897203e+002, 7.770905e+002
3.902025e+002, 7.734477e+002
3.906846e+002, 7.676588e+002
3.911667e+002, 7.621832e+002
3.916488e+002, 7.588876e+002
3.921309e+002, 7.562782e+002
3.926130e+002, 7.530248e+002
3.930952e+002, 7.485652e+002
3.935773e+002, 7.442232e+002
3.940594e+002, 7.404314e+002
3.945415e+002, 7.371945e+002
3.950236e+002, 7.345179e+002
3.955057e+002, 7.334073e+002
3.959879e+002, 7.319943e+002
3.964700e+002, 7.293495e+002
3.969521e+002, 7.251890e+002
3.974342e+002, 7.212893e+002
3.979163e+002, 7.179454e+002
3.983984e+002, 7.149788e+002
3.988806e+002, 7.122274e+002
3.993627e+002, 7.097288e+002
3.998448e+002, 7.073885e+002
4.003269e+002, 7.050996e+002
4.008090e+002, 7.029030e+002
4.012911e+002, 7.012412e+002
4.017733e+002, 7.005983e+002
4.022554e+002, 6.998970e+002
4.027375e+002, 6.984343e+002
4.032196e+002, 6.954540e+002
4.037017e+002, 6.937248e+002
4.041838e+002, 6.938776e+002
4.046660e+002, 6.948485e+002
4.051481e+002, 6.943782e+002
4.056302e+002, 6.919110e+002
4.061123e+002, 6.900594e+002
4.065944e+002, 6.899328e+002
4.070765e+002, 6.914465e+002
4.075587e+002, 6.926855e+002
4.080408e+002, 6.935914e+002
4.085229e+002, 6.944545e+002
4.090050e+002, 6.953241e+002
4.094871e+002, 6.962507e+002
4.099692e+002, 6.981666e+002
4.104514e+002, 7.016820e+002
4.109335e+002, 7.058435e+002
4.114156e+002, 7.087932e+002
4.118977e+002, 7.105466e+002
4.123798e+002, 7.116277e+002
4.128619e+002, 7.121832e+002
4.133441e+002, 7.123328e+002
