##NAMES=Munakataite
##RRUFFID=R110006
##IDEAL CHEMISTRY=Pb^2+^_2_Cu^2+^_2_(Se^4+^O_3_)S^6+^O_4_(OH)_4_
##LOCALITY=Tonopah-Belmont mine, Maricopa County, Arizona, USA
##OWNER=RRUFF
##SOURCE=Marcus Origlieri
##DESCRIPTION=Jackstraw aggregate of blue bladed crystals
##STATUS=The identification of this mineral has been confirmed only by single crystal X-ray diffraction.
##URL=rruff.info/R110006
205.7791, 166.6106
206.2612, 166.1024
206.7433, 163.5186
207.2254, 159.9680
207.7075, 158.4406
208.1896, 159.4375
208.6718, 160.9826
209.1539, 162.0900
209.6360, 162.7044
210.1181, 163.1304
210.6002, 163.3882
211.0824, 163.4712
211.5645, 163.2601
212.0466, 162.5455
212.5287, 162.0401
213.0108, 162.2395
213.4929, 163.4087
213.9751, 164.2098
214.4572, 164.3844
214.9393, 164.2210
215.4214, 164.6672
215.9035, 166.0463
216.3856, 167.3802
216.8678, 168.1963
217.3499, 168.5713
217.8320, 168.1103
218.3141, 166.3111
218.7962, 163.8007
219.2783, 162.6602
219.7605, 163.4013
220.2426, 164.5861
220.7247, 165.6054
221.2068, 166.7233
221.6889, 166.8462
222.1710, 165.5369
222.6532, 163.2943
223.1353, 161.7224
223.6174, 161.0054
224.0995, 160.6275
224.5816, 160.3726
225.0638, 160.3307
225.5459, 160.1687
226.0280, 159.7974
226.5101, 159.3178
226.9922, 159.0714
227.4743, 159.2040
227.9565, 159.3370
228.4386, 159.2840
228.9207, 158.9834
229.4028, 158.6583
229.8849, 158.3817
230.3670, 158.0644
230.8492, 157.4104
231.3313, 156.2218
231.8134, 155.0058
232.2955, 153.8917
232.7776, 152.5859
233.2597, 152.1780
233.7419, 153.1292
234.2240, 154.8582
234.7061, 155.7872
235.1882, 155.5191
235.6703, 155.0657
236.1524, 154.8214
236.6346, 154.7720
237.1167, 155.0049
237.5988, 155.7048
238.0809, 156.6205
238.5630, 157.1567
239.0452, 157.1233
239.5273, 156.9872
240.0094, 156.9837
240.4915, 157.3450
240.9736, 157.1559
241.4557, 155.9800
241.9379, 154.4404
242.4200, 153.8669
242.9021, 154.6452
243.3842, 155.7864
243.8663, 157.0726
244.3484, 158.8665
244.8306, 159.6348
245.3127, 158.7886
245.7948, 157.2239
246.2769, 156.6628
246.7590, 157.7188
247.2411, 158.7475
247.7233, 159.1953
248.2054, 158.9594
248.6875, 158.5139
249.1696, 157.7836
249.6517, 156.9026
250.1338, 156.0893
250.6160, 155.3751
251.0981, 154.6607
251.5802, 153.7993
252.0623, 152.6012
252.5444, 152.3184
253.0266, 153.5872
253.5087, 155.2529
253.9908, 155.5373
254.4729, 153.6802
254.9550, 151.9946
255.4371, 151.1540
255.9193, 151.2644
256.4014, 151.4109
256.8835, 151.5724
257.3656, 151.7913
257.8477, 152.1918
258.3298, 153.0064
258.8120, 153.4629
259.2941, 153.2289
259.7762, 152.2354
260.2583, 151.7664
260.7404, 152.1225
261.2225, 152.6200
261.7047, 152.4523
262.1868, 151.2810
262.6689, 150.3264
263.1510, 149.9045
263.6331, 149.9995
264.1152, 149.8480
264.5974, 149.1387
265.0795, 148.6675
265.5616, 149.5025
266.0437, 152.3795
266.5258, 154.0973
267.0079, 153.6396
267.4901, 151.3533
267.9722, 150.4668
268.4543, 151.4344
268.9364, 152.8830
269.4185, 153.7287
269.9006, 153.8763
270.3828, 153.8169
270.8649, 153.5075
271.3470, 153.0562
271.8291, 153.0786
272.3112, 153.7926
272.7933, 154.3988
273.2755, 154.0757
273.7576, 152.5709
274.2397, 151.9380
274.7218, 152.7269
275.2039, 154.3630
275.6861, 154.9067
276.1682, 154.0295
276.6503, 153.3163
277.1324, 154.2053
277.6145, 156.9158
278.0966, 158.0084
278.5788, 156.6750
279.0609, 154.2408
279.5430, 153.9184
280.0251, 156.0875
280.5072, 158.0637
280.9893, 158.2881
281.4715, 156.7717
281.9536, 155.0474
282.4357, 152.9842
282.9178, 151.1067
283.3999, 150.5802
283.8820, 151.4838
284.3642, 152.2598
284.8463, 151.9404
285.3284, 150.6571
285.8105, 150.0729
286.2926, 150.3034
286.7747, 150.8623
287.2569, 151.1709
287.7390, 151.2289
288.2211, 151.0614
288.7032, 150.3172
289.1853, 149.2993
289.6674, 149.6175
290.1496, 151.4515
290.6317, 153.4524
291.1138, 153.9905
291.5959, 153.2518
292.0780, 152.5177
292.5602, 152.2948
293.0423, 152.3309
293.5244, 151.8462
294.0065, 150.8171
294.4886, 149.9014
294.9707, 149.8092
295.4529, 150.3513
295.9350, 150.8074
296.4171, 150.8229
296.8992, 150.8140
297.3813, 151.8736
297.8634, 153.8765
298.3456, 155.4439
298.8277, 155.0064
299.3098, 153.3722
299.7919, 152.3877
300.2740, 152.6851
300.7561, 153.3423
301.2383, 153.0908
301.7204, 152.0987
302.2025, 151.1423
302.6846, 150.4839
303.1667, 150.2293
303.6489, 150.6950
304.1310, 152.1514
304.6131, 153.6217
305.0952, 154.0588
305.5773, 153.7092
306.0594, 153.2409
306.5416, 152.8761
307.0237, 152.6339
307.5058, 152.5732
307.9879, 152.7252
308.4700, 152.8784
308.9521, 152.3545
309.4343, 151.7718
309.9164, 152.1930
310.3985, 155.8773
310.8806, 159.5194
311.3627, 160.0044
311.8448, 157.1659
312.3270, 154.6358
312.8091, 154.8401
313.2912, 156.4936
313.7733, 158.0782
314.2554, 159.3629
314.7375, 160.1800
315.2197, 160.0011
315.7018, 159.0033
316.1839, 158.6568
316.6660, 160.3123
317.1481, 162.5475
317.6302, 164.1921
318.1124, 164.8921
318.5945, 165.0747
319.0766, 164.2609
319.5587, 162.8968
320.0408, 162.5095
320.5229, 164.5854
321.0051, 167.0620
321.4872, 168.7784
321.9693, 169.1642
322.4514, 169.4868
322.9335, 169.6929
323.4156, 170.0273
323.8978, 170.9625
324.3799, 173.2490
324.8620, 175.5673
325.3441, 177.3306
325.8262, 178.1018
326.3083, 179.5175
326.7905, 182.2459
327.2726, 185.5188
327.7547, 188.3535
328.2368, 190.7265
328.7189, 192.6730
329.2010, 194.1000
329.6832, 194.9482
330.1653, 195.7982
330.6474, 196.4628
331.1295, 197.2634
331.6116, 198.4784
332.0938, 200.2877
332.5759, 202.2568
333.0580, 204.5268
333.5401, 206.9979
334.0222, 208.7263
334.5044, 209.3850
334.9865, 209.7723
335.4686, 210.3980
335.9507, 211.4582
336.4328, 212.1462
336.9149, 212.0787
337.3971, 211.7871
337.8792, 212.7726
338.3613, 215.4029
338.8434, 218.3033
339.3255, 221.0290
339.8076, 223.6510
340.2898, 225.4650
340.7719, 226.1630
341.2540, 226.6160
341.7361, 228.1477
342.2182, 230.7952
342.7003, 233.9607
343.1825, 237.7891
343.6646, 242.0635
344.1467, 245.1184
344.6288, 246.9490
345.1109, 247.7191
345.5930, 247.7049
346.0752, 246.8556
346.5573, 244.5838
347.0394, 240.1665
347.5215, 234.7237
348.0036, 230.6913
348.4857, 228.0630
348.9679, 225.8159
349.4500, 223.3319
349.9321, 220.6146
350.4142, 217.5289
350.8963, 213.7845
351.3784, 210.3235
351.8606, 208.6710
352.3427, 208.4868
352.8248, 208.4881
353.3069, 207.7835
353.7890, 206.9106
354.2711, 206.6373
354.7533, 207.0611
355.2354, 207.7293
355.7175, 208.9107
356.1996, 209.9999
356.6817, 209.9395
357.1638, 207.0636
357.6460, 203.7577
358.1281, 201.7669
358.6102, 201.0596
359.0923, 200.8283
359.5744, 200.9235
360.0565, 201.1479
360.5387, 201.3049
361.0208, 201.2424
361.5029, 201.2264
361.9850, 201.3011
362.4672, 201.5013
362.9493, 201.9379
363.4314, 202.9245
363.9135, 203.9585
364.3956, 204.6717
364.8777, 204.6637
365.3599, 205.1927
365.8420, 206.7921
366.3241, 209.0254
366.8062, 211.2317
367.2883, 213.8725
367.7704, 215.9438
368.2526, 216.8752
368.7347, 216.3288
369.2168, 216.5949
369.6989, 218.2160
370.1810, 220.3428
370.6631, 222.2967
371.1453, 223.8622
371.6274, 225.5856
372.1095, 227.6272
372.5916, 229.9272
373.0737, 231.9972
373.5558, 233.7073
374.0380, 235.4044
374.5201, 237.4334
375.0022, 240.1308
375.4843, 241.8687
375.9664, 242.1815
376.4485, 241.8706
376.9307, 242.7211
377.4128, 245.0679
377.8949, 247.1301
378.3770, 248.2122
378.8591, 248.3375
379.3412, 248.0452
379.8234, 247.4205
380.3055, 246.0869
380.7876, 242.9110
381.2697, 238.0435
381.7518, 234.8377
382.2339, 235.0235
382.7161, 236.7757
383.1982, 235.4771
383.6803, 231.2314
384.1624, 226.6772
384.6445, 224.1394
385.1266, 222.8089
385.6088, 220.5178
386.0909, 216.7011
386.5730, 212.6501
387.0551, 209.9030
387.5372, 208.1988
388.0193, 206.7450
388.5015, 205.6142
388.9836, 204.2840
389.4657, 202.0713
389.9478, 198.9195
390.4300, 195.5626
390.9121, 191.8490
391.3942, 188.4128
391.8763, 186.1045
392.3584, 186.2434
392.8405, 186.5905
393.3227, 185.8536
393.8048, 184.2843
394.2869, 183.0329
394.7690, 183.0541
395.2511, 183.1878
395.7332, 182.6191
396.2154, 180.6372
396.6975, 179.1814
397.1796, 179.0755
397.6617, 179.6764
398.1438, 179.8786
398.6259, 178.9393
399.1081, 178.1670
399.5902, 177.9043
400.0723, 178.1828
400.5544, 178.7654
401.0365, 179.9329
401.5186, 181.1950
402.0008, 182.2170
402.4829, 183.4173
402.9650, 183.5025
403.4471, 181.6782
403.9292, 178.6292
404.4113, 177.5075
404.8935, 179.1635
405.3756, 180.7707
405.8577, 180.5190
406.3398, 177.9817
406.8219, 177.0008
407.3040, 178.0615
407.7862, 179.8355
408.2683, 180.3441
408.7504, 179.5531
409.2325, 178.7280
409.7146, 178.2422
410.1967, 178.0664
410.6789, 178.1485
411.1610, 178.4999
411.6431, 178.8626
412.1252, 179.0179
412.6073, 179.0073
413.0894, 178.9434
413.5716, 178.8537
414.0537, 178.7075
414.5358, 178.4004
415.0179, 177.9888
415.5000, 177.6502
415.9821, 177.2295
416.4643, 177.0655
416.9464, 177.9108
417.4285, 179.9159
417.9106, 181.2153
418.3927, 179.4979
418.8748, 176.7543
419.3570, 175.3778
419.8391, 177.6230
420.3212, 179.9712
420.8033, 180.9392
421.2855, 180.7421
421.7676, 180.4397
422.2497, 179.8452
422.7318, 179.6149
423.2139, 180.1404
423.6960, 181.7096
424.1782, 183.4975
424.6603, 185.7399
425.1424, 188.0668
425.6245, 189.9051
426.1066, 190.8932
426.5887, 191.8323
427.0709, 193.0053
427.5530, 194.4106
428.0351, 195.0855
428.5172, 194.5965
428.9993, 193.9752
429.4814, 193.8965
429.9636, 194.3532
430.4457, 195.3766
430.9278, 196.9754
431.4099, 199.1344
431.8920, 201.7490
432.3741, 204.8054
432.8563, 208.6257
433.3384, 213.8391
433.8205, 220.1485
434.3026, 225.1800
434.7847, 228.8377
435.2668, 232.1897
435.7490, 236.2878
436.2311, 241.0051
436.7132, 245.6645
437.1953, 249.7892
437.6774, 254.2168
438.1595, 261.3381
438.6417, 270.2494
439.1238, 277.2052
439.6059, 280.3039
440.0880, 280.1220
440.5701, 276.9341
441.0522, 270.5674
441.5344, 262.5004
442.0165, 252.7875
442.4986, 242.2063
442.9807, 231.7554
443.4628, 220.5375
443.9449, 210.7100
444.4271, 203.2884
444.9092, 198.0717
445.3913, 193.8291
445.8734, 190.3120
446.3555, 187.7545
446.8376, 186.3947
447.3198, 186.9197
447.8019, 187.3112
448.2840, 187.2781
448.7661, 187.1841
449.2483, 187.6222
449.7304, 189.3364
450.2125, 190.2356
450.6946, 189.2789
451.1767, 186.7297
451.6588, 186.7590
452.1410, 190.2145
452.6231, 194.2785
453.1052, 196.7989
453.5873, 197.6462
454.0694, 198.9755
454.5515, 200.9864
455.0337, 203.4625
455.5158, 206.1425
455.9979, 209.0249
456.4800, 211.7381
456.9621, 213.9814
457.4442, 216.0135
457.9264, 218.4449
458.4085, 221.2594
458.8906, 224.3557
459.3727, 227.4084
459.8548, 230.7293
460.3369, 234.9596
460.8191, 240.8024
461.3012, 246.3522
461.7833, 249.5194
462.2654, 251.2923
462.7475, 253.7110
463.2296, 257.7130
463.7118, 262.5984
464.1939, 268.3388
464.6760, 274.9893
465.1581, 281.1279
465.6402, 285.9692
466.1223, 290.2934
466.6045, 294.5807
467.0866, 299.4217
467.5687, 303.5516
468.0508, 307.2769
468.5329, 310.2314
469.0150, 311.4904
469.4972, 309.7752
469.9793, 308.3449
470.4614, 308.8706
470.9435, 311.6214
471.4256, 310.6440
471.9077, 304.9523
472.3899, 297.5158
472.8720, 290.5897
473.3541, 284.0457
473.8362, 278.8698
474.3183, 275.6654
474.8004, 273.0715
475.2826, 268.1558
475.7647, 261.0663
476.2468, 253.9121
476.7289, 247.7311
477.2110, 242.2245
477.6932, 236.6326
478.1753, 230.9264
478.6574, 225.9991
479.1395, 223.1535
479.6216, 221.3984
480.1038, 219.2726
480.5859, 216.2852
481.0680, 213.0467
481.5501, 209.6815
482.0322, 206.3777
482.5143, 203.5609
482.9965, 201.7188
483.4786, 200.1273
483.9607, 198.4413
484.4428, 196.6392
484.9249, 194.9539
485.4070, 193.3291
485.8892, 191.9187
486.3713, 190.8521
486.8534, 190.5170
487.3355, 189.9610
487.8176, 189.1279
488.2997, 188.0735
488.7819, 186.8074
489.2640, 185.0303
489.7461, 183.7310
490.2282, 183.4157
490.7103, 183.9960
491.1924, 183.8849
491.6746, 182.8977
492.1567, 181.9685
492.6388, 182.1015
493.1209, 183.1530
493.6030, 183.8568
494.0851, 184.0413
494.5673, 183.8552
495.0494, 183.2058
495.5315, 182.2874
496.0136, 181.8236
496.4957, 183.0016
496.9778, 184.3021
497.4600, 183.7056
497.9421, 181.3953
498.4242, 179.2419
498.9063, 178.2212
499.3884, 177.9184
499.8705, 178.1115
500.3527, 179.1600
500.8348, 179.6923
501.3169, 178.1716
501.7990, 176.1181
502.2811, 175.6770
502.7632, 179.5607
503.2454, 182.5949
503.7275, 183.2287
504.2096, 181.7208
504.6917, 180.9124
505.1738, 180.9819
505.6559, 181.5172
506.1381, 182.4181
506.6202, 183.8731
507.1023, 184.9017
507.5844, 185.3947
508.0666, 185.6618
508.5487, 185.9610
509.0308, 186.2847
509.5129, 187.1669
509.9950, 188.9436
510.4771, 191.1604
510.9593, 192.8301
511.4414, 193.9937
511.9235, 195.1455
512.4056, 196.8641
512.8877, 198.6595
513.3698, 199.5605
513.8519, 199.4136
514.3340, 199.6334
514.8162, 201.3276
515.2983, 203.9547
515.7804, 206.8891
516.2625, 210.2126
516.7446, 213.4846
517.2267, 216.8627
517.7089, 220.0607
518.1910, 222.3252
518.6731, 222.3484
519.1552, 222.5029
519.6373, 223.7684
520.1194, 226.2976
520.6016, 228.4102
521.0837, 230.0761
521.5659, 231.3317
522.0480, 232.1836
522.5301, 232.5945
523.0122, 232.7066
523.4943, 232.5375
523.9764, 232.0592
524.4586, 231.3428
524.9407, 230.4140
525.4228, 228.6669
525.9049, 225.5423
526.3870, 221.6259
526.8691, 218.3940
527.3513, 215.7838
527.8334, 213.0652
528.3155, 209.3068
528.7976, 205.2220
529.2797, 201.8688
529.7618, 199.4161
530.2440, 197.3161
530.7261, 195.6102
531.2082, 193.9050
531.6903, 191.7304
532.1724, 188.0702
532.6545, 184.8044
533.1367, 182.4324
533.6188, 180.9001
534.1009, 179.9100
534.5830, 179.5289
535.0651, 179.6239
535.5472, 180.4809
536.0294, 182.4153
536.5115, 182.7612
536.9936, 180.8001
537.4757, 178.2577
537.9578, 176.4394
538.4399, 175.3316
538.9221, 175.1304
539.4042, 176.2240
539.8863, 177.5869
540.3684, 177.2827
540.8505, 175.4221
541.3326, 173.2839
541.8148, 170.9057
542.2969, 168.8657
542.7790, 168.5593
543.2611, 169.7889
543.7432, 170.9530
544.2253, 171.0664
544.7075, 170.5122
545.1896, 169.4377
545.6717, 167.6682
546.1538, 166.5079
546.6359, 166.8724
547.1180, 168.0613
547.6002, 169.3287
548.0823, 171.5049
548.5644, 172.5916
549.0465, 171.5556
549.5286, 169.1399
550.0107, 167.4782
550.4929, 166.7364
550.9750, 166.5319
551.4571, 167.0512
551.9392, 168.3020
552.4213, 168.0514
552.9034, 165.7619
553.3856, 163.6436
553.8677, 164.0145
554.3498, 166.5862
554.8319, 167.6815
555.3140, 166.7034
555.7961, 165.0563
556.2783, 164.4887
556.7604, 164.7363
557.2425, 165.0733
557.7246, 165.2857
558.2067, 165.4199
558.6888, 165.5071
559.1710, 165.5522
559.6531, 165.5653
560.1352, 165.6849
560.6173, 165.6706
561.0994, 165.2983
561.5815, 164.4937
562.0637, 163.8452
562.5458, 163.7895
563.0279, 163.7182
563.5100, 163.1564
563.9921, 161.4992
564.4742, 160.3911
564.9564, 159.8493
565.4385, 159.8790
565.9206, 160.7706
566.4027, 162.8249
566.8848, 164.1024
567.3669, 163.6750
567.8491, 162.2627
568.3312, 162.3993
568.8133, 164.0228
569.2954, 165.5627
569.7775, 165.8869
570.2596, 165.4674
570.7418, 165.0874
571.2239, 164.7896
571.7060, 164.5764
572.1881, 164.5319
572.6702, 164.5373
573.1523, 164.4493
573.6345, 164.1570
574.1166, 163.9075
574.5987, 163.5408
575.0808, 163.3274
575.5629, 163.7185
576.0450, 166.0562
576.5272, 167.5551
577.0093, 167.5238
577.4914, 166.1562
577.9735, 164.5868
578.4556, 162.5624
578.9377, 160.8864
579.4199, 159.9450
579.9020, 159.7586
580.3842, 160.0807
580.8663, 160.9991
581.3484, 161.9572
581.8305, 162.3615
582.3126, 162.3313
582.7947, 162.3021
583.2769, 162.4001
583.7590, 162.3787
584.2411, 161.6974
584.7232, 160.7242
585.2053, 160.1879
585.6874, 160.5155
586.1696, 161.2462
586.6517, 162.4178
587.1338, 163.8667
587.6159, 164.9001
588.0980, 164.9209
588.5801, 164.8532
589.0623, 165.2725
589.5444, 166.4050
590.0265, 166.4286
590.5086, 164.4045
590.9907, 162.4738
591.4728, 162.6347
591.9550, 165.3906
592.4371, 166.8522
592.9192, 166.4278
593.4013, 165.3592
593.8834, 165.3269
594.3655, 166.2499
594.8477, 167.6999
595.3298, 169.9077
595.8119, 172.0872
596.2940, 173.0698
596.7761, 173.0800
597.2582, 172.9028
597.7404, 172.6736
598.2225, 172.6141
598.7046, 172.9938
599.1867, 173.8140
599.6688, 174.4770
600.1509, 174.5802
600.6331, 174.6334
601.1152, 174.8858
601.5973, 175.0802
602.0794, 176.1775
602.5615, 178.8132
603.0436, 181.7339
603.5258, 183.4572
604.0079, 183.8025
604.4900, 183.8620
604.9721, 183.6798
605.4542, 183.4902
605.9363, 184.0858
606.4185, 185.3160
606.9006, 185.8403
607.3827, 184.4726
607.8648, 182.4024
608.3469, 181.5721
608.8290, 181.7419
609.3112, 181.6056
609.7933, 179.4497
610.2754, 177.3414
610.7575, 177.0635
611.2396, 179.0587
611.7217, 180.9096
612.2039, 181.9744
612.6860, 182.6060
613.1681, 183.0877
613.6502, 183.6501
614.1323, 183.6270
614.6144, 182.6419
615.0966, 181.3919
615.5787, 181.0657
616.0608, 181.9134
616.5429, 182.0719
617.0250, 181.0144
617.5071, 179.1303
617.9893, 177.1183
618.4714, 175.0125
618.9535, 173.1458
619.4356, 171.6599
619.9177, 170.4903
620.3998, 169.5252
620.8820, 168.7756
621.3641, 168.3449
621.8462, 168.2253
622.3283, 168.4873
622.8104, 169.4514
623.2925, 171.6019
623.7747, 172.6373
624.2568, 170.7646
624.7389, 168.4743
625.2210, 167.8738
625.7031, 170.1792
626.1852, 171.4408
626.6674, 171.1264
627.1495, 170.0410
627.6316, 169.4374
628.1137, 169.3262
628.5958, 169.4561
629.0779, 169.8459
629.5601, 170.3329
630.0422, 170.6132
630.5243, 170.7066
631.0064, 170.7113
631.4885, 170.5722
631.9706, 170.4468
632.4528, 170.4986
632.9349, 170.7220
633.4170, 170.9879
633.8991, 171.2998
634.3812, 171.5930
634.8633, 171.8384
635.3455, 172.0381
635.8276, 172.1724
636.3097, 172.3901
636.7918, 172.4066
637.2740, 171.7250
637.7561, 169.8216
638.2382, 169.4985
638.7203, 171.3427
639.2025, 174.1307
639.6846, 176.4106
640.1667, 178.1244
640.6488, 178.6042
641.1309, 176.9265
641.6130, 174.9553
642.0952, 175.8254
642.5773, 178.6121
643.0594, 180.6793
643.5415, 179.8780
644.0236, 178.7381
644.5057, 178.8844
644.9879, 180.2171
645.4700, 181.2929
645.9521, 181.2066
646.4342, 181.3428
646.9163, 182.5014
647.3984, 184.9948
647.8806, 186.4233
648.3627, 186.4702
648.8448, 186.0852
649.3269, 185.8527
649.8090, 185.7802
650.2911, 186.3863
650.7733, 187.7867
651.2554, 189.5572
651.7375, 191.6869
652.2196, 193.7918
652.7017, 194.8559
653.1838, 194.1866
653.6660, 193.2018
654.1481, 192.6483
654.6302, 192.5908
655.1123, 193.1455
655.5944, 194.6584
656.0765, 196.4607
656.5587, 198.7817
657.0408, 201.3210
657.5229, 202.7707
658.0050, 202.6273
658.4871, 202.1608
658.9692, 201.5666
659.4514, 200.9351
659.9335, 201.6337
660.4156, 203.8651
660.8977, 205.7405
661.3798, 205.5898
661.8619, 204.0564
662.3441, 202.7717
662.8262, 201.8307
663.3083, 201.1402
663.7904, 200.8044
664.2725, 200.5962
664.7546, 200.3235
665.2368, 200.0794
665.7189, 199.4070
666.2010, 197.8011
666.6831, 195.8459
667.1652, 194.1882
667.6473, 192.5693
668.1295, 191.7653
668.6116, 192.2055
669.0937, 193.2059
669.5758, 193.5025
670.0579, 193.0843
670.5400, 191.9743
671.0222, 189.6717
671.5043, 187.2256
671.9864, 187.3694
672.4685, 189.5643
672.9506, 191.1525
673.4327, 190.1897
673.9149, 188.2798
674.3970, 186.6934
674.8791, 185.4306
675.3612, 184.2819
675.8433, 182.9808
676.3254, 181.9080
676.8076, 181.4090
677.2897, 181.6563
677.7718, 181.3701
678.2539, 179.9173
678.7360, 178.8246
679.2181, 179.5950
679.7003, 182.5842
680.1824, 183.3437
680.6645, 181.3673
681.1466, 178.7573
681.6287, 177.4227
682.1108, 177.2883
682.5930, 178.5588
683.0751, 181.8338
683.5572, 184.5679
684.0393, 183.9938
684.5214, 181.7086
685.0035, 180.0035
685.4857, 179.8739
685.9678, 180.0892
686.4499, 180.3911
686.9320, 180.8369
687.4141, 181.6107
687.8962, 183.2044
688.3784, 184.1495
688.8605, 183.9314
689.3426, 182.9192
689.8247, 182.3161
690.3068, 182.1239
690.7889, 182.2298
691.2711, 182.8697
691.7532, 183.6392
692.2353, 183.5408
692.7174, 182.7117
693.1995, 182.0069
693.6816, 182.0640
694.1638, 182.3586
694.6459, 182.6414
695.1280, 182.9033
695.6102, 182.6932
696.0923, 180.9201
696.5744, 179.4871
697.0565, 179.5986
697.5386, 181.8871
698.0208, 182.9580
698.5029, 182.3901
698.9850, 181.5033
699.4671, 181.6683
699.9492, 182.7552
700.4313, 183.3845
700.9135, 183.3673
701.3956, 183.0413
701.8777, 182.3109
702.3598, 181.6248
