##NAMES=Munakataite
##RRUFFID=R110006
##IDEAL CHEMISTRY=Pb^2+^_2_Cu^2+^_2_(Se^4+^O_3_)S^6+^O_4_(OH)_4_
##LOCALITY=Tonopah-Belmont mine, Maricopa County, Arizona, USA
##OWNER=RRUFF
##SOURCE=Marcus Origlieri
##DESCRIPTION=Jackstraw aggregate of blue bladed crystals
##STATUS=The identification of this mineral has been confirmed only by single crystal X-ray diffraction.
##URL=rruff.info/R110006
215.9557, 26.48987
216.4378, 26.22958
216.9200, 25.71753
217.4021, 24.86532
217.8842, 23.92740
218.3663, 23.68065
218.8484, 24.97019
219.3305, 25.73630
219.8127, 25.40701
220.2948, 24.61557
220.7769, 24.01290
221.2590, 23.89524
221.7411, 24.12515
222.2232, 24.29985
222.7054, 24.41814
223.1875, 24.47038
223.6696, 24.52475
224.1517, 24.49079
224.6338, 24.18191
225.1159, 23.51029
225.5980, 22.68287
226.0802, 22.30651
226.5623, 22.78541
227.0444, 23.25409
227.5265, 23.77880
228.0086, 24.22439
228.4907, 24.37633
228.9729, 24.13602
229.4550, 23.64221
229.9371, 23.25456
230.4192, 23.12904
230.9013, 22.86279
231.3834, 22.33866
231.8656, 21.64939
232.3477, 20.77808
232.8298, 19.63470
233.3119, 18.64195
233.7940, 18.94207
234.2761, 21.06671
234.7583, 22.85482
235.2404, 23.76490
235.7225, 23.98898
236.2046, 23.69836
236.6867, 22.77389
237.1688, 21.79508
237.6510, 22.02023
238.1331, 23.67947
238.6152, 24.87791
239.0973, 24.68781
239.5794, 23.60615
240.0615, 22.68947
240.5437, 22.23808
241.0258, 21.98036
241.5079, 21.45900
241.9900, 20.65531
242.4721, 20.16324
242.9542, 20.48016
243.4364, 21.30231
243.9185, 21.88325
244.4006, 22.11831
244.8827, 21.98833
245.3648, 21.24014
245.8469, 19.97992
246.3290, 19.09720
246.8112, 19.19655
247.2933, 20.02304
247.7754, 20.88380
248.2575, 21.89493
248.7396, 22.55854
249.2217, 22.39478
249.7039, 21.58442
250.1860, 20.70702
250.6681, 20.06102
251.1502, 19.59527
251.6323, 19.05765
252.1144, 18.22995
252.5966, 17.70561
253.0787, 18.02351
253.5608, 18.87140
254.0429, 19.55150
254.5250, 19.62238
255.0071, 19.21460
255.4893, 18.77356
255.9714, 18.07586
256.4535, 17.74673
256.9356, 18.19420
257.4177, 19.10743
257.8998, 20.00186
258.3820, 20.64653
258.8641, 21.06354
259.3462, 21.31109
259.8283, 21.29609
260.3104, 21.25395
260.7925, 21.46198
261.2747, 21.64539
261.7568, 21.37857
262.2389, 20.36522
262.7210, 18.92690
263.2031, 17.97838
263.6852, 17.63376
264.1674, 17.64878
264.6495, 18.09535
265.1316, 18.74891
265.6137, 19.42658
266.0958, 20.06154
266.5779, 20.57421
267.0601, 20.67750
267.5422, 19.78208
268.0243, 19.58353
268.5064, 21.00549
268.9885, 22.75831
269.4706, 23.67931
269.9528, 23.36508
270.4349, 22.27395
270.9170, 21.19626
271.3991, 19.91680
271.8812, 19.13271
272.3633, 19.17807
272.8455, 19.46098
273.3276, 19.48331
273.8097, 19.14579
274.2918, 18.76035
274.7739, 18.79188
275.2560, 19.33087
275.7382, 20.14571
276.2202, 21.77094
276.7024, 23.22248
277.1845, 23.84034
277.6666, 23.56543
278.1487, 22.79085
278.6308, 21.87189
279.1129, 20.48625
279.5951, 20.15105
280.0772, 22.13227
280.5593, 23.89071
281.0414, 23.87283
281.5235, 22.22857
282.0056, 20.19436
282.4878, 18.93295
282.9699, 18.52835
283.4520, 18.28970
283.9341, 18.44305
284.4162, 18.51943
284.8983, 18.11632
285.3805, 17.44391
285.8626, 17.09941
286.3447, 17.60201
286.8268, 18.92865
287.3089, 19.76832
287.7910, 20.10073
288.2732, 20.02170
288.7553, 18.98493
289.2374, 17.57986
289.7195, 16.99885
290.2016, 18.04686
290.6837, 20.31314
291.1659, 21.50982
291.6480, 20.65227
292.1301, 19.87697
292.6122, 19.65464
293.0943, 19.68769
293.5764, 19.43823
294.0586, 18.64108
294.5407, 17.64503
295.0228, 17.39581
295.5049, 18.98384
295.9870, 20.00626
296.4691, 19.86182
296.9513, 19.33427
297.4334, 19.38400
297.9155, 20.29926
298.3976, 21.45664
298.8797, 21.80062
299.3618, 20.79897
299.8440, 19.88911
300.3261, 18.98642
300.8082, 18.23065
301.2903, 17.74731
301.7724, 17.55534
302.2545, 17.53942
302.7367, 17.52829
303.2188, 17.40285
303.7009, 17.88490
304.1830, 19.92574
304.6651, 21.75358
305.1472, 22.00751
305.6294, 20.83042
306.1115, 19.45743
306.5936, 18.94000
307.0757, 19.33259
307.5578, 19.64415
308.0399, 20.04057
308.5221, 20.21552
309.0042, 19.59652
309.4863, 18.59616
309.9684, 18.43862
310.4505, 20.09665
310.9326, 23.11743
311.4148, 24.21214
311.8969, 21.39952
312.3790, 19.26809
312.8611, 19.10101
313.3432, 20.29340
313.8253, 22.10707
314.3075, 24.29117
314.7896, 26.33001
315.2717, 26.83132
315.7538, 24.07038
316.2359, 22.26203
316.7180, 22.32337
317.2001, 23.23880
317.6823, 24.02826
318.1644, 24.39202
318.6465, 24.37313
319.1286, 23.95389
319.6107, 22.62336
320.0928, 22.23435
320.5750, 23.57104
321.0571, 25.27679
321.5392, 26.28572
322.0213, 26.50103
322.5034, 26.52835
322.9855, 26.94371
323.4677, 27.79404
323.9498, 28.82310
324.4319, 30.43090
324.9140, 31.82568
325.3961, 32.62565
325.8782, 32.86987
326.3604, 32.68404
326.8425, 32.04025
327.3246, 31.05656
327.8067, 31.11154
328.2888, 33.43044
328.7709, 35.24709
329.2531, 35.50690
329.7352, 34.85911
330.2173, 34.39611
330.6994, 34.64189
331.1815, 35.32159
331.6636, 35.69428
332.1458, 35.43784
332.6279, 35.25634
333.1100, 35.11819
333.5921, 35.09011
334.0742, 35.29209
334.5563, 35.74078
335.0385, 36.27230
335.5206, 36.63929
336.0027, 36.74247
336.4848, 36.93406
336.9669, 37.39433
337.4490, 37.79530
337.9312, 37.69458
338.4133, 37.22120
338.8954, 37.09598
339.3775, 38.09899
339.8596, 40.39938
340.3417, 41.70737
340.8239, 41.17301
341.3060, 40.67102
341.7881, 40.80342
342.2702, 41.47826
342.7523, 42.54370
343.2344, 43.97997
343.7166, 45.52813
344.1987, 45.90322
344.6808, 43.57113
345.1629, 41.74903
345.6450, 41.09078
346.1271, 40.94429
346.6093, 40.47986
347.0914, 39.41523
347.5735, 38.22285
348.0556, 37.91213
348.5377, 39.58144
349.0198, 40.10333
349.5020, 38.68506
349.9841, 36.87853
350.4662, 35.55540
350.9483, 34.91364
351.4304, 34.83684
351.9125, 35.26260
352.3947, 36.26490
352.8768, 37.27396
353.3589, 38.15352
353.8410, 39.17109
354.3231, 40.63857
354.8052, 42.31439
355.2874, 43.79836
355.7695, 44.88431
356.2516, 45.47712
356.7337, 44.98193
357.2158, 42.25264
357.6979, 39.95797
358.1800, 38.44126
358.6621, 37.62810
359.1443, 37.55977
359.6264, 38.24535
360.1085, 39.31092
360.5906, 40.12943
361.0727, 40.71166
361.5548, 40.99801
362.0370, 40.71651
362.5191, 40.36066
363.0012, 40.31632
363.4833, 40.56836
363.9654, 40.73289
364.4475, 40.15439
364.9297, 38.72300
365.4118, 38.44444
365.8939, 40.44600
366.3760, 42.42094
366.8581, 43.58686
367.3402, 44.02816
367.8224, 43.95187
368.3045, 43.29862
368.7866, 42.35761
369.2687, 42.16018
369.7508, 43.36336
370.2329, 43.82299
370.7151, 41.81476
371.1972, 39.24346
371.6793, 38.05302
372.1614, 38.88980
372.6435, 40.57317
373.1256, 41.74686
373.6078, 42.37671
374.0899, 43.01736
374.5720, 44.40857
375.0541, 45.21774
375.5362, 43.77965
376.0183, 40.39776
376.5005, 37.92934
376.9826, 39.23165
377.4647, 43.09159
377.9468, 44.88860
378.4289, 43.74868
378.9110, 41.85434
379.3932, 40.70416
379.8753, 39.87330
380.3574, 38.43142
380.8395, 35.21143
381.3216, 32.06197
381.8037, 31.83683
382.2859, 34.60755
382.7680, 36.70547
383.2501, 36.16070
383.7322, 34.22475
384.2143, 33.02184
384.6964, 32.77291
385.1786, 32.63183
385.6607, 32.03720
386.1428, 31.18497
386.6249, 30.64413
387.1070, 30.62581
387.5891, 30.72576
388.0713, 30.50139
388.5534, 29.98337
389.0355, 29.27674
389.5176, 28.31446
389.9997, 27.22721
390.4818, 25.98001
390.9640, 24.61083
391.4461, 23.65516
391.9282, 23.63397
392.4103, 24.32228
392.8924, 24.45085
393.3745, 23.12453
393.8567, 22.26268
394.3388, 23.50336
394.8209, 25.64219
395.3030, 25.93257
395.7851, 23.15557
396.2672, 19.35868
396.7494, 18.30021
397.2315, 21.68276
397.7136, 23.79118
398.1957, 23.43570
398.6778, 22.36757
399.1599, 21.94219
399.6420, 22.31965
400.1241, 23.04910
400.6063, 23.78151
401.0884, 24.52774
401.5705, 24.97271
402.0526, 25.21848
402.5347, 25.10537
403.0168, 24.19240
403.4990, 22.96576
403.9811, 22.37337
404.4632, 22.88974
404.9453, 23.80957
405.4274, 23.26982
405.9095, 19.30754
406.3917, 17.26940
406.8738, 18.76013
407.3559, 20.96993
407.8380, 21.96868
408.3201, 21.51157
408.8022, 20.45955
409.2844, 19.52134
409.7665, 18.66872
410.2486, 18.50136
410.7307, 19.81759
411.2128, 20.97891
411.6949, 21.53834
412.1771, 21.61753
412.6592, 21.40086
413.1413, 20.93149
413.6234, 20.37758
414.1055, 20.09794
414.5876, 20.13177
415.0698, 20.32216
415.5519, 20.60299
416.0340, 21.05037
416.5161, 21.89815
416.9982, 23.12498
417.4803, 24.14120
417.9625, 24.22228
418.4446, 23.54897
418.9267, 23.40880
419.4088, 24.07284
419.8909, 24.95098
420.3730, 25.68279
420.8552, 26.33398
421.3373, 27.05338
421.8194, 28.07432
422.3015, 28.99521
422.7836, 29.16903
423.2657, 28.60695
423.7479, 28.23638
424.2300, 28.46365
424.7121, 29.05546
425.1942, 29.63317
425.6763, 30.19676
426.1584, 30.74081
426.6406, 31.33740
427.1227, 31.89296
427.6048, 32.27552
428.0869, 32.47221
428.5690, 32.39921
429.0511, 31.85125
429.5333, 30.84182
430.0154, 30.27486
430.4975, 30.09972
430.9796, 30.41849
431.4617, 31.57021
431.9438, 33.27312
432.4260, 34.88725
432.9081, 36.12911
433.3902, 37.00396
433.8723, 37.48326
434.3544, 37.05731
434.8365, 37.08474
435.3187, 38.27819
435.8008, 39.49750
436.2829, 39.43057
436.7650, 38.17409
437.2471, 37.26548
437.7292, 38.36967
438.2114, 41.59297
438.6935, 42.71206
439.1756, 39.80131
439.6577, 36.88957
440.1398, 34.87653
440.6219, 33.40241
441.1040, 31.91537
441.5862, 30.18877
442.0683, 28.40488
442.5504, 26.87912
443.0325, 25.57608
443.5146, 24.63320
443.9967, 24.32708
444.4789, 24.16732
444.9610, 23.73733
445.4431, 23.18325
445.9252, 23.09003
446.4073, 24.03442
446.8894, 25.75176
447.3716, 27.22403
447.8537, 28.37173
448.3358, 29.46832
448.8179, 31.01889
449.3000, 32.42156
449.7821, 32.84585
450.2643, 31.95562
450.7464, 30.87446
451.2285, 30.63951
451.7106, 31.08046
452.1927, 31.32251
452.6748, 31.10469
453.1570, 30.83326
453.6391, 30.85731
454.1212, 31.14977
454.6033, 31.73775
455.0854, 32.89218
455.5675, 34.14689
456.0497, 35.12057
456.5318, 35.81689
457.0139, 36.34942
457.4960, 36.75849
457.9781, 37.05956
458.4602, 37.23619
458.9424, 36.95928
459.4245, 37.23774
459.9066, 39.16481
460.3887, 41.21786
460.8708, 41.55338
461.3529, 40.05308
461.8351, 38.21881
462.3172, 37.42835
462.7993, 37.71448
463.2814, 38.20282
463.7635, 39.20447
464.2456, 40.03733
464.7278, 40.51959
465.2099, 40.73876
465.6920, 40.83858
466.1741, 40.87414
466.6562, 40.77156
467.1383, 40.41957
467.6205, 39.82071
468.1026, 38.94582
468.5847, 36.93217
469.0668, 35.42358
469.5489, 35.89066
470.0310, 37.56247
470.5132, 38.27467
470.9953, 36.37502
471.4774, 32.94323
471.9595, 30.66063
472.4416, 29.62158
472.9237, 29.40281
473.4059, 30.83792
473.8880, 32.45138
474.3701, 32.89531
474.8522, 32.00455
475.3343, 30.51461
475.8164, 28.38215
476.2986, 26.05292
476.7807, 24.72000
477.2628, 24.64047
477.7449, 24.91277
478.2270, 24.91976
478.7091, 24.73139
479.1913, 24.66208
479.6734, 25.03247
480.1555, 25.18577
480.6376, 24.63017
481.1197, 23.62745
481.6018, 22.59339
482.0839, 21.63156
482.5660, 21.08799
483.0482, 21.63598
483.5303, 23.96169
484.0124, 24.71459
484.4945, 22.49407
484.9766, 20.11851
485.4587, 19.13741
485.9409, 19.23831
486.4230, 19.38831
486.9051, 19.00617
487.3872, 18.28785
487.8693, 17.77121
488.3514, 17.31992
488.8336, 17.35790
489.3157, 18.16619
489.7978, 19.19187
490.2799, 20.14512
490.7620, 20.96904
491.2441, 21.68611
491.7263, 22.37610
492.2084, 22.96828
492.6905, 23.05853
493.1726, 22.44941
493.6547, 21.81340
494.1368, 21.36311
494.6190, 21.05920
495.1011, 20.96589
495.5832, 21.14443
496.0653, 21.13601
496.5474, 20.08189
497.0295, 18.54640
497.5117, 18.53726
497.9938, 20.68555
498.4759, 22.95568
498.9580, 23.74335
499.4401, 23.19837
499.9222, 22.36141
500.4044, 20.14451
500.8865, 18.82679
501.3686, 20.41521
501.8507, 23.64187
502.3328, 25.90117
502.8149, 26.29117
503.2971, 25.68720
503.7792, 25.27130
504.2613, 25.06130
504.7434, 24.99939
505.2255, 25.41249
505.7076, 25.63714
506.1898, 25.11738
506.6719, 24.19165
507.1540, 23.56201
507.6361, 23.59947
508.1182, 24.09823
508.6003, 24.59904
509.0825, 25.09351
509.5646, 25.61459
510.0467, 26.22010
510.5288, 26.80465
511.0109, 27.51270
511.4930, 28.18981
511.9752, 28.31601
512.4573, 27.20057
512.9394, 25.54925
513.4215, 25.09706
513.9036, 26.01979
514.3857, 27.02971
514.8679, 27.70485
515.3500, 28.17476
515.8321, 28.76153
516.3142, 29.55060
516.7963, 29.71684
517.2784, 28.19225
517.7606, 26.16697
518.2427, 25.46915
518.7248, 26.20225
519.2069, 27.04494
519.6890, 27.10710
520.1711, 26.57254
520.6533, 26.35781
521.1354, 27.00023
521.6175, 27.19895
522.0996, 26.14087
522.5817, 24.88402
523.0638, 24.75858
523.5460, 25.81064
524.0281, 26.79749
524.5102, 26.45101
524.9923, 24.82301
525.4744, 23.69095
525.9565, 23.59805
526.4387, 23.31446
526.9208, 22.39559
527.4029, 21.27295
527.8850, 20.32975
528.3671, 19.67901
528.8492, 19.36503
529.3314, 19.71011
529.8135, 20.59144
530.2956, 20.68412
530.7777, 19.54263
531.2598, 18.38427
531.7419, 18.15342
532.2241, 18.36837
532.7062, 18.17178
533.1883, 17.03586
533.6704, 16.23320
534.1525, 17.04099
534.6346, 18.79023
535.1168, 19.97454
535.5989, 20.26116
536.0810, 19.84182
536.5631, 18.70536
537.0452, 16.80303
537.5273, 15.70232
538.0095, 15.94532
538.4916, 16.30275
538.9737, 16.60068
539.4558, 16.63402
539.9379, 15.85326
540.4200, 14.16905
540.9022, 12.57676
541.3843, 12.64247
541.8664, 14.81050
542.3485, 16.12719
542.8306, 16.30331
543.3127, 15.86158
543.7948, 14.17334
544.2769, 12.20240
544.7590, 11.51526
545.2411, 12.79232
545.7233, 14.68212
546.2054, 15.57997
546.6875, 15.53634
547.1696, 15.16621
547.6517, 14.33368
548.1339, 13.62640
548.6160, 13.67122
549.0981, 14.25015
549.5802, 14.80842
550.0623, 15.68652
550.5444, 16.04469
551.0266, 14.55143
551.5087, 12.19317
551.9908, 11.59721
552.4729, 13.62642
552.9550, 16.13383
553.4371, 16.29600
553.9193, 13.48492
554.4014, 12.15919
554.8835, 13.35976
555.3656, 14.66389
555.8477, 15.35101
556.3298, 15.53496
556.8120, 15.37065
557.2941, 14.93545
557.7762, 14.45533
558.2583, 14.31139
558.7404, 14.57460
559.2225, 14.58319
559.7047, 14.22451
560.1868, 13.72022
560.6689, 13.16822
561.1510, 12.56108
561.6331, 11.80344
562.1152, 10.72241
562.5974, 9.904388
563.0795, 9.935300
563.5616, 10.68697
564.0437, 11.92261
564.5258, 13.79840
565.0079, 15.18849
565.4901, 14.74871
565.9722, 12.59864
566.4543, 11.54890
566.9364, 12.34027
567.4185, 13.37121
567.9006, 14.46332
568.3828, 15.26073
568.8649, 15.02669
569.3470, 13.68400
569.8291, 12.24582
570.3112, 11.93371
570.7933, 12.81914
571.2755, 13.53110
571.7576, 14.10160
572.2397, 14.43945
572.7218, 14.17077
573.2039, 13.84360
573.6860, 14.20388
574.1682, 15.41697
574.6503, 16.66470
575.1324, 17.48513
575.6145, 17.74501
576.0966, 16.49220
576.5787, 13.18674
577.0609, 10.26509
577.5430, 9.218211
578.0251, 9.651915
578.5072, 10.54302
578.9893, 12.26028
579.4714, 13.55822
579.9536, 13.74524
580.4357, 13.36565
580.9178, 13.07398
581.3999, 12.94559
581.8820, 12.62996
582.3641, 11.73804
582.8463, 10.53802
583.3284, 10.63684
583.8105, 13.89114
584.2926, 15.73891
584.7747, 14.86365
585.2568, 13.27949
585.7390, 12.17056
586.2211, 11.81093
586.7032, 12.33362
587.1853, 14.27350
587.6674, 16.84560
588.1495, 17.70162
588.6317, 16.55834
589.1138, 15.44700
589.5959, 15.01055
590.0780, 14.89724
590.5601, 14.56269
591.0422, 14.01238
591.5244, 13.97803
592.0065, 15.18072
592.4886, 16.60438
592.9707, 17.15544
593.4528, 17.08623
593.9349, 17.56763
594.4171, 19.19879
594.8992, 20.94553
595.3813, 20.85580
595.8634, 17.86114
596.3455, 16.19999
596.8276, 16.58131
597.3098, 17.34957
597.7919, 18.33291
598.2740, 19.09154
598.7561, 18.74772
599.2382, 16.88421
599.7203, 14.93267
600.2025, 15.04577
600.6846, 17.16025
601.1667, 18.94483
601.6488, 20.26299
602.1309, 21.03151
602.6130, 20.65604
603.0952, 19.75256
603.5773, 19.69967
604.0594, 21.40715
604.5415, 22.58675
605.0236, 21.35600
605.5057, 19.13244
605.9879, 18.36160
606.4700, 19.31239
606.9521, 20.11482
607.4342, 19.05688
607.9163, 16.54086
608.3984, 15.64995
608.8806, 18.11690
609.3627, 19.87368
609.8448, 20.28189
610.3269, 20.10177
610.8090, 19.87425
611.2911, 19.65040
611.7733, 19.16730
612.2554, 17.92141
612.7375, 16.58332
613.2196, 17.07273
613.7017, 19.62749
614.1838, 21.53880
614.6660, 22.04024
615.1481, 21.51439
615.6302, 20.08704
616.1123, 17.83215
616.5944, 15.94536
617.0765, 14.49643
617.5587, 13.65254
618.0408, 13.74848
618.5229, 14.51219
619.0050, 15.48036
619.4871, 16.47773
619.9692, 17.29520
620.4514, 17.68040
620.9335, 17.65277
621.4156, 17.02479
621.8977, 14.37292
622.3798, 12.84242
622.8619, 14.24803
623.3441, 16.68246
623.8262, 17.91471
624.3083, 17.42474
624.7904, 16.42725
625.2725, 15.86826
625.7546, 15.59913
626.2367, 15.10125
626.7188, 14.29686
627.2009, 13.89921
627.6830, 14.36469
628.1652, 15.39985
628.6473, 16.51383
629.1294, 18.07577
629.6115, 18.59030
630.0936, 16.57936
630.5757, 14.52760
631.0579, 14.61923
631.5400, 16.20972
632.0221, 17.25903
632.5042, 16.72038
632.9863, 15.35879
633.4684, 14.59061
633.9506, 14.53748
634.4327, 14.45461
634.9148, 14.18157
635.3969, 14.04131
635.8790, 14.00761
636.3611, 14.24300
636.8433, 15.27501
637.3254, 17.70055
637.8075, 19.40824
638.2896, 17.94417
638.7717, 14.94767
639.2538, 13.81591
639.7360, 14.96796
640.2181, 16.22299
640.7002, 15.94320
641.1823, 14.64579
641.6644, 14.44591
642.1465, 16.76066
642.6287, 18.23630
643.1108, 18.20956
643.5929, 17.87261
644.0750, 18.06384
644.5571, 18.65326
645.0392, 19.05164
645.5214, 18.92999
646.0035, 18.46048
646.4856, 17.57452
646.9677, 16.27882
647.4498, 16.47169
647.9319, 19.17400
648.4141, 21.99796
648.8962, 22.82209
649.3783, 22.11256
649.8604, 21.60511
650.3425, 21.83025
650.8246, 21.73331
651.3068, 20.56347
651.7889, 19.02008
652.2710, 17.78368
652.7531, 17.04957
653.2352, 17.04663
653.7173, 18.06203
654.1995, 19.76966
654.6816, 20.81830
655.1637, 21.07994
655.6458, 20.97846
656.1279, 19.70314
656.6100, 18.82668
657.0922, 19.85806
657.5743, 22.16166
658.0564, 23.48128
658.5385, 22.54444
659.0206, 20.86744
659.5027, 19.51474
659.9849, 18.59029
660.4670, 18.60936
660.9491, 19.72320
661.4312, 20.83281
661.9133, 20.90318
662.3954, 20.01605
662.8776, 19.34543
663.3597, 19.27981
663.8418, 18.91925
664.3239, 17.40063
664.8060, 16.13452
665.2881, 16.64008
665.7703, 18.60670
666.2524, 20.35501
666.7345, 20.87800
667.2166, 20.50000
667.6987, 19.50042
668.1808, 17.91295
668.6630, 17.10507
669.1451, 17.62876
669.6272, 18.47382
670.1093, 18.75301
670.5914, 18.47281
671.0735, 17.98148
671.5557, 16.77942
672.0378, 15.98514
672.5199, 16.34164
673.0020, 17.07178
673.4841, 17.36866
673.9662, 17.11392
674.4484, 16.50020
674.9305, 15.51280
675.4126, 14.53314
675.8947, 15.26250
676.3768, 18.47852
676.8589, 19.83912
677.3411, 17.03631
677.8232, 13.73132
678.3053, 12.78850
678.7874, 13.77756
679.2695, 15.23706
679.7516, 17.76228
680.2338, 19.50533
680.7159, 18.64011
681.1980, 16.57129
681.6801, 15.63587
682.1622, 16.14649
682.6443, 16.66097
683.1265, 15.88371
683.6086, 14.28189
684.0907, 14.27931
684.5728, 17.01245
685.0549, 18.85442
685.5370, 18.83662
686.0192, 18.21264
686.5013, 17.31219
686.9834, 16.37814
687.4655, 15.96367
687.9476, 16.45324
688.4297, 17.20691
688.9119, 17.89670
689.3940, 18.37977
689.8761, 18.15276
690.3582, 17.14839
690.8403, 16.16497
691.3224, 15.83240
691.8046, 16.01102
692.2867, 16.01467
692.7688, 15.38928
693.2509, 15.33911
693.7330, 16.48105
694.2151, 17.64480
694.6973, 18.23460
695.1794, 18.26926
695.6615, 17.85407
696.1436, 16.88906
696.6257, 16.00071
697.1078, 16.07653
697.5900, 16.81524
698.0721, 17.16837
698.5542, 16.98013
699.0363, 16.47536
699.5184, 15.64440
700.0005, 14.72412
700.4827, 14.57160
700.9648, 15.82868
701.4469, 16.82189
701.9290, 17.53897
702.4111, 17.97942
702.8932, 17.82902
703.3754, 17.46048
703.8575, 17.72831
704.3396, 19.03306
704.8217, 20.36352
705.3038, 20.31298
705.7859, 19.17971
706.2681, 18.38702
706.7502, 18.07173
707.2323, 17.95567
707.7144, 17.96604
708.1965, 18.00757
708.6786, 17.79258
709.1607, 17.04509
709.6428, 16.85842
710.1249, 18.06549
710.6071, 19.09232
711.0892, 18.59957
711.5713, 17.44250
712.0534, 17.16414
712.5355, 18.26987
