##NAMES=Murdochite
##RRUFFID=R110122
##IDEAL CHEMISTRY=Cu^2+^_12_Pb^4+^_2_O_15_Cl_2_
##LOCALITY=Mapimi, Mexico
##OWNER=RRUFF
##SOURCE=Rob Lavinsky
##DESCRIPTION=Coating of black cubes
##STATUS=The identification of this mineral is confirmed by single-crystal X-ray diffraction and chemical analysis.
##URL=rruff.info/R110122
##MEASURED CHEMISTRY=Pb_1.88_Cu_11.26_O_14.02_(Cl_1.07_Br_0.83_)_Î£=1.90_
180.3130, 39.68564
180.7951, 39.76696
181.2772, 39.68713
181.7593, 39.16317
182.2415, 38.67816
182.7236, 38.78740
183.2057, 39.55703
183.6878, 40.35415
184.1699, 40.16286
184.6520, 38.10033
185.1342, 36.79010
185.6163, 36.71615
186.0984, 37.23022
186.5805, 37.72590
187.0626, 38.03605
187.5447, 38.17171
188.0269, 38.08257
188.5090, 37.69355
188.9911, 37.42137
189.4732, 37.45131
189.9553, 37.64381
190.4374, 37.73052
190.9196, 37.59056
191.4017, 37.42316
191.8838, 37.55989
192.3659, 38.01721
192.8480, 38.42989
193.3301, 38.61597
193.8123, 38.61755
194.2944, 38.62217
194.7765, 38.79808
195.2586, 38.81509
195.7407, 38.23774
196.2228, 37.05501
196.7050, 36.00183
197.1871, 35.66842
197.6692, 36.02619
198.1513, 36.44185
198.6334, 36.92936
199.1155, 37.31712
199.5977, 37.40075
200.0798, 37.19392
200.5619, 37.02799
201.0440, 37.32863
201.5261, 38.21199
202.0082, 38.79422
202.4904, 38.74988
202.9725, 38.52131
203.4546, 38.28086
203.9367, 38.06393
204.4188, 37.84479
204.9009, 37.59971
205.3831, 37.33920
205.8652, 37.01663
206.3473, 36.39671
206.8294, 35.88925
207.3115, 35.80581
207.7936, 36.15974
208.2758, 36.68273
208.7579, 36.97494
209.2400, 36.79737
209.7221, 36.92798
210.2042, 37.70473
210.6863, 38.49951
211.1685, 38.92031
211.6506, 38.87777
212.1327, 38.49623
212.6148, 37.91096
213.0969, 36.83909
213.5790, 36.21277
214.0612, 36.26895
214.5433, 36.58574
215.0254, 36.89525
215.5075, 37.11636
215.9896, 37.22941
216.4717, 37.17957
216.9539, 36.81123
217.4360, 36.67453
217.9181, 37.14718
218.4002, 37.67233
218.8823, 37.55790
219.3644, 36.63142
219.8466, 35.56187
220.3287, 35.33839
220.8108, 36.14448
221.2929, 36.71435
221.7750, 36.62288
222.2571, 36.30561
222.7393, 36.37385
223.2214, 37.00173
223.7035, 37.72791
224.1856, 37.88942
224.6677, 37.53482
225.1498, 37.30458
225.6320, 37.50816
226.1141, 37.90136
226.5962, 38.05820
227.0783, 37.85964
227.5604, 37.57286
228.0425, 37.43626
228.5247, 37.42656
229.0068, 37.49678
229.4889, 37.70535
229.9710, 37.97503
230.4531, 38.08742
230.9352, 37.90542
231.4174, 37.81645
231.8995, 38.23100
232.3816, 38.98308
232.8637, 39.62239
233.3458, 39.89433
233.8279, 39.88278
234.3101, 39.85619
234.7922, 39.81389
235.2743, 39.76630
235.7564, 39.77913
236.2385, 39.79455
236.7206, 39.67004
237.2028, 39.12615
237.6849, 38.36519
238.1670, 38.32062
238.6491, 39.52490
239.1312, 40.67766
239.6133, 41.37510
240.0955, 41.65704
240.5776, 41.56713
241.0597, 41.00950
241.5418, 40.12938
242.0239, 39.66557
242.5060, 39.95992
242.9882, 40.22326
243.4703, 40.23381
243.9524, 40.06633
244.4345, 39.82090
244.9166, 39.53703
245.3987, 39.23973
245.8809, 39.06384
246.3630, 39.18716
246.8451, 39.20038
247.3272, 39.00092
247.8093, 38.65594
248.2914, 38.23195
248.7736, 37.75589
249.2557, 37.26109
249.7378, 36.87973
250.2199, 36.48977
250.7020, 36.40242
251.1841, 36.92716
251.6663, 37.67867
252.1484, 38.21189
252.6305, 38.31384
253.1126, 38.07909
253.5947, 37.80262
254.0768, 37.49475
254.5590, 37.12590
255.0411, 36.45866
255.5232, 35.81933
256.0053, 35.67692
256.4874, 36.22561
256.9695, 37.09484
257.4517, 37.38667
257.9338, 35.91953
258.4159, 35.30151
258.8980, 36.33146
259.3801, 37.87960
259.8622, 38.73904
260.3444, 38.49698
260.8265, 37.63451
261.3086, 37.04338
261.7907, 36.81210
262.2728, 36.75811
262.7549, 37.12104
263.2371, 37.54232
263.7192, 37.63760
264.2013, 37.30949
264.6834, 36.76980
265.1655, 36.30420
265.6476, 35.86467
266.1298, 35.67576
266.6119, 35.83582
267.0940, 36.19561
267.5761, 36.70094
268.0582, 37.32825
268.5403, 37.90005
269.0225, 38.22806
269.5046, 38.28209
269.9867, 38.07927
270.4688, 36.98997
270.9509, 36.03543
271.4330, 36.43374
271.9152, 38.24418
272.3973, 40.00166
272.8794, 40.17729
273.3615, 38.62145
273.8436, 37.71706
274.3257, 37.95216
274.8079, 38.52855
275.2900, 38.92279
275.7721, 39.08944
276.2542, 39.03771
276.7363, 38.71399
277.2184, 38.14442
277.7006, 37.66005
278.1827, 37.06747
278.6648, 36.71881
279.1469, 37.01468
279.6290, 37.87952
280.1111, 38.70714
280.5933, 39.09051
281.0754, 39.17770
281.5575, 39.53983
282.0396, 40.56808
282.5217, 41.39740
283.0038, 41.37632
283.4860, 40.63615
283.9681, 39.83980
284.4502, 39.20241
284.9323, 38.77037
285.4144, 38.59710
285.8965, 38.75021
286.3787, 38.97812
286.8608, 39.26809
287.3429, 39.54948
287.8250, 39.49116
288.3071, 38.77441
288.7892, 37.96646
289.2714, 38.00580
289.7535, 39.00845
290.2356, 39.80289
290.7177, 39.58498
291.1998, 38.73594
291.6819, 38.31830
292.1641, 38.70189
292.6462, 39.29875
293.1283, 39.47500
293.6104, 39.27911
294.0925, 38.97650
294.5746, 38.70383
295.0568, 38.38984
295.5389, 37.77818
296.0210, 36.67857
296.5031, 35.76568
296.9852, 35.89336
297.4673, 36.71340
297.9495, 37.30324
298.4316, 37.13711
298.9137, 36.65734
299.3958, 36.58667
299.8779, 37.03484
300.3600, 37.43224
300.8422, 37.29087
301.3243, 36.85393
301.8064, 36.51829
302.2885, 36.33564
302.7706, 36.31879
303.2527, 36.56252
303.7349, 37.09191
304.2170, 37.54290
304.6991, 37.79568
305.1812, 37.83042
305.6633, 37.54319
306.1454, 36.74508
306.6276, 36.06230
307.1097, 36.23755
307.5918, 37.20803
308.0739, 37.86982
308.5560, 37.77757
309.0381, 37.26251
309.5203, 36.63919
310.0024, 35.88168
310.4845, 35.34375
310.9666, 35.35303
311.4487, 35.81787
311.9308, 36.31752
312.4130, 36.84754
312.8951, 37.27082
313.3772, 37.49748
313.8593, 37.53571
314.3414, 37.38927
314.8235, 36.80811
315.3057, 36.05257
315.7878, 35.91203
316.2699, 36.72974
316.7520, 37.49000
317.2341, 37.24430
317.7162, 36.37704
318.1984, 35.70185
318.6805, 35.64322
319.1626, 35.88339
319.6447, 35.94878
320.1268, 35.82861
320.6089, 35.58475
321.0911, 35.01362
321.5732, 34.40689
322.0553, 34.24841
322.5374, 34.87080
323.0195, 35.57726
323.5016, 35.49565
323.9838, 34.61724
324.4659, 34.04020
324.9480, 34.53294
325.4301, 35.28516
325.9122, 35.20641
326.3943, 34.07993
326.8765, 32.96772
327.3586, 32.73423
327.8407, 33.22389
328.3228, 33.58241
328.8049, 33.60008
329.2870, 33.44331
329.7692, 33.19553
330.2513, 32.87577
330.7334, 32.76738
331.2155, 33.24485
331.6976, 34.01112
332.1797, 34.36946
332.6619, 34.20560
333.1440, 33.74967
333.6261, 32.95374
334.1082, 31.98902
334.5903, 31.29101
335.0724, 31.19948
335.5546, 31.34525
336.0367, 31.21545
336.5188, 30.77737
337.0009, 30.40314
337.4830, 30.37231
337.9651, 30.52887
338.4473, 30.55688
338.9294, 30.30239
339.4115, 30.10496
339.8936, 30.34552
340.3757, 30.95354
340.8578, 31.37760
341.3400, 31.35220
341.8221, 31.10140
342.3042, 31.02507
342.7863, 31.18330
343.2684, 31.18639
343.7505, 30.68023
344.2327, 29.88340
344.7148, 29.31417
345.1969, 29.08689
345.6790, 29.09156
346.1611, 29.34367
346.6432, 29.79592
347.1254, 30.07918
347.6075, 30.11076
348.0896, 29.91561
348.5717, 29.35303
349.0538, 28.38635
349.5359, 27.68025
350.0181, 27.86694
350.5002, 28.75785
350.9823, 29.38384
351.4644, 29.75949
351.9465, 29.79683
352.4286, 29.21036
352.9108, 28.14530
353.3929, 27.29602
353.8750, 27.03989
354.3571, 27.17501
354.8392, 27.17731
355.3214, 26.95608
355.8035, 26.82151
356.2856, 27.03704
356.7677, 27.38655
357.2498, 27.36922
357.7319, 26.77541
358.2141, 26.17185
358.6962, 26.50012
359.1783, 27.99816
359.6604, 28.89864
360.1425, 28.68318
360.6246, 27.98472
361.1068, 27.17845
361.5889, 26.36133
362.0710, 25.95803
362.5531, 26.49735
363.0352, 27.93887
363.5173, 28.44760
363.9995, 27.06828
364.4816, 25.79655
364.9637, 25.74409
365.4458, 26.57168
365.9279, 27.37795
366.4100, 27.71995
366.8922, 27.66632
367.3743, 27.40781
367.8564, 26.68428
368.3385, 26.13654
368.8206, 25.84882
369.3027, 25.77720
369.7849, 25.92429
370.2670, 26.27944
370.7491, 26.73287
371.2312, 27.17285
371.7133, 27.73171
372.1954, 27.78541
372.6776, 26.94271
373.1597, 25.96603
373.6418, 25.17569
374.1239, 24.66150
374.6060, 24.53871
375.0881, 24.97497
375.5703, 25.93718
376.0524, 26.32019
376.5345, 25.34307
377.0166, 24.69459
377.4987, 25.12388
377.9808, 26.02200
378.4630, 26.40900
378.9451, 25.82941
379.4272, 24.75875
379.9093, 24.36280
380.3914, 25.32158
380.8735, 25.82386
381.3557, 25.66272
381.8378, 25.17838
382.3199, 24.36374
382.8020, 23.36286
383.2841, 22.70683
383.7662, 23.14763
384.2484, 24.94630
384.7305, 26.01676
385.2126, 25.63283
385.6947, 25.19027
386.1768, 25.16985
386.6589, 25.42120
387.1411, 25.55865
387.6232, 25.32402
388.1053, 24.84818
388.5874, 24.61170
389.0695, 24.73577
389.5516, 24.88014
390.0338, 25.04479
390.5159, 25.14986
390.9980, 25.06418
391.4801, 24.75609
391.9622, 24.44650
392.4443, 24.43701
392.9265, 24.76202
393.4086, 25.05628
393.8907, 25.31456
394.3728, 25.48722
394.8549, 25.52829
395.3370, 25.45614
395.8192, 25.34171
396.3013, 25.27400
396.7834, 25.19724
397.2655, 24.85290
397.7476, 24.06512
398.2297, 23.47083
398.7119, 23.41573
399.1940, 23.74794
399.6761, 24.41152
400.1582, 25.59533
400.6403, 26.65232
401.1224, 26.83388
401.6046, 26.18547
402.0867, 25.42254
402.5688, 24.58921
403.0509, 23.92918
403.5330, 23.79171
404.0151, 24.18730
404.4973, 24.50582
404.9794, 24.40378
405.4615, 24.07352
405.9436, 23.84081
406.4257, 23.74851
406.9078, 23.71520
407.3900, 23.67179
407.8721, 23.63443
408.3542, 23.67337
408.8363, 23.87063
409.3184, 24.07654
409.8005, 24.25198
410.2827, 24.36712
410.7648, 24.27810
411.2469, 23.86825
411.7290, 23.32538
412.2111, 23.09893
412.6932, 23.29157
413.1754, 23.48356
413.6575, 23.55807
414.1396, 23.62172
414.6217, 23.82663
415.1038, 24.18344
415.5859, 24.52215
416.0681, 24.66195
416.5502, 24.57677
417.0323, 24.57333
417.5144, 24.91470
417.9965, 25.05438
418.4786, 24.65609
418.9608, 23.90661
419.4429, 23.08058
419.9250, 22.29776
420.4071, 21.72256
420.8892, 21.86308
421.3713, 23.70532
421.8535, 24.75481
422.3356, 24.52545
422.8177, 23.83235
423.2998, 23.07118
423.7819, 22.42629
424.2640, 22.18248
424.7462, 22.77725
425.2283, 24.31369
425.7104, 25.17935
426.1925, 24.78536
426.6746, 24.31299
427.1567, 24.15147
427.6389, 24.12145
428.1210, 23.84709
428.6031, 23.09080
429.0852, 22.23672
429.5673, 22.16050
430.0494, 23.12376
430.5316, 23.91565
431.0137, 24.07512
431.4958, 24.08768
431.9779, 24.29115
432.4600, 24.69081
432.9421, 24.99146
433.4243, 24.90988
433.9064, 24.53023
434.3885, 24.20021
434.8706, 23.90963
435.3527, 23.72893
435.8348, 23.69613
436.3170, 23.80155
436.7991, 24.08475
437.2812, 24.72320
437.7633, 25.30466
438.2454, 25.39947
438.7275, 25.06240
439.2097, 24.63706
439.6918, 24.16466
440.1739, 23.77050
440.6560, 23.71502
441.1381, 24.02621
441.6202, 24.22209
442.1024, 23.94747
442.5845, 23.60957
443.0666, 23.82349
443.5487, 24.59565
444.0308, 25.18932
444.5129, 24.96666
444.9951, 24.04837
445.4772, 23.60862
445.9593, 24.09085
446.4414, 24.46335
446.9235, 24.28008
447.4056, 23.83017
447.8878, 23.55744
448.3699, 23.61233
448.8520, 23.83436
449.3341, 23.98996
449.8162, 24.08340
450.2983, 24.08387
450.7805, 24.00591
451.2626, 23.83829
451.7447, 23.36546
452.2268, 22.78578
452.7089, 22.62139
453.1910, 23.28250
453.6732, 24.50525
454.1553, 25.15602
454.6374, 24.90104
455.1195, 24.61533
455.6016, 24.48450
456.0837, 24.36089
456.5659, 24.07549
457.0480, 23.61452
457.5301, 23.17976
458.0122, 23.01528
458.4943, 23.11408
458.9764, 23.12334
459.4586, 22.91478
459.9407, 22.79835
460.4228, 22.99902
460.9049, 23.37971
461.3870, 23.69909
461.8691, 23.86690
462.3513, 23.94988
462.8334, 24.05205
463.3155, 24.16791
463.7976, 24.11862
464.2797, 23.71129
464.7618, 23.28225
465.2440, 23.40946
465.7261, 24.11680
466.2082, 24.39749
466.6903, 23.49200
467.1724, 22.20559
467.6545, 21.54570
468.1367, 21.57001
468.6188, 21.75260
469.1009, 21.79154
469.5830, 21.69264
470.0651, 21.48632
470.5472, 20.84368
471.0294, 20.52020
471.5115, 20.90922
471.9936, 21.63790
472.4757, 22.29467
472.9578, 22.75747
473.4399, 23.04318
473.9221, 23.15957
474.4042, 23.08225
474.8863, 22.96999
475.3684, 22.78785
475.8505, 22.61099
476.3326, 22.43859
476.8148, 22.29660
477.2969, 22.24487
477.7790, 22.31662
478.2611, 22.42996
478.7432, 22.39761
479.2253, 22.15643
479.7075, 21.94904
480.1896, 21.84608
480.6717, 21.74790
481.1538, 21.48020
481.6359, 21.13263
482.1180, 21.06606
482.6002, 21.73557
483.0823, 22.79549
483.5644, 23.18576
484.0465, 22.70966
484.5286, 22.28647
485.0107, 22.60262
485.4929, 23.03431
485.9750, 22.64556
486.4571, 21.11324
486.9392, 19.97318
487.4213, 20.52115
487.9034, 22.08123
488.3856, 23.16851
488.8677, 23.53860
489.3498, 23.57276
489.8319, 23.51303
490.3140, 23.37399
490.7961, 23.33221
491.2783, 23.50019
491.7604, 23.64520
492.2425, 23.81096
492.7246, 23.85270
493.2067, 23.34411
493.6888, 22.13648
494.1710, 20.85387
494.6531, 20.51506
495.1352, 21.52136
495.6173, 22.23424
496.0994, 22.70540
496.5815, 22.88209
497.0637, 22.51656
497.5458, 21.85014
498.0279, 21.34584
498.5100, 21.26176
498.9921, 21.51117
499.4742, 21.91463
499.9564, 22.57284
500.4385, 23.12622
500.9206, 23.86323
501.4027, 24.21641
501.8848, 23.44703
502.3669, 21.78873
502.8491, 20.49517
503.3312, 20.73553
503.8133, 21.89141
504.2954, 22.16122
504.7775, 21.31584
505.2596, 20.67575
505.7418, 21.04197
506.2239, 21.86573
506.7060, 22.34466
507.1881, 22.36962
507.6702, 22.33998
508.1523, 22.53076
508.6345, 22.77209
509.1166, 22.72944
509.5987, 22.35228
510.0808, 21.94285
510.5629, 21.73870
511.0450, 21.72832
511.5272, 21.73531
512.0093, 21.68489
512.4914, 21.73670
512.9735, 22.12135
513.4556, 22.56026
513.9377, 22.62326
514.4199, 22.22159
514.9020, 21.70017
515.3841, 21.48001
515.8662, 21.58086
516.3483, 21.84653
516.8304, 22.67215
517.3126, 23.23862
517.7947, 23.12194
518.2768, 22.65683
518.7589, 22.33015
519.2410, 22.33602
519.7231, 22.51178
520.2053, 22.64446
520.6874, 22.73165
521.1695, 22.80830
521.6516, 22.89857
522.1337, 22.95085
522.6158, 22.84238
523.0980, 22.66339
523.5801, 22.68600
524.0622, 23.15306
524.5443, 23.71696
525.0264, 24.04665
525.5085, 24.15720
525.9907, 24.05729
526.4728, 23.64874
526.9549, 23.26021
527.4370, 23.48979
527.9191, 24.49229
528.4012, 25.09673
528.8834, 24.80583
529.3655, 24.40945
529.8476, 24.42186
530.3297, 24.79861
530.8118, 25.37472
531.2939, 26.09313
531.7761, 26.75464
532.2582, 26.82170
532.7403, 25.88641
533.2224, 25.08961
533.7045, 24.42883
534.1866, 23.91224
534.6688, 23.61132
535.1509, 23.46320
535.6330, 23.27761
536.1151, 22.87262
536.5972, 22.42272
537.0793, 22.50282
537.5615, 23.31253
538.0436, 23.82037
538.5257, 23.44352
539.0078, 22.85792
539.4899, 22.76803
539.9720, 23.15403
540.4542, 23.24744
540.9363, 22.31870
541.4184, 21.05480
541.9005, 20.42209
542.3826, 20.44219
542.8647, 20.79593
543.3469, 21.43635
543.8290, 22.18518
544.3111, 22.56612
544.7932, 22.49032
545.2753, 22.32302
545.7574, 22.16377
546.2396, 21.89642
546.7217, 21.30629
547.2038, 20.47605
547.6859, 19.73970
548.1680, 19.31044
548.6501, 19.19563
549.1323, 19.47326
549.6144, 20.55371
550.0965, 21.30765
550.5786, 21.60959
551.0607, 21.59593
551.5428, 21.20180
552.0250, 20.53133
552.5071, 19.97676
552.9892, 19.85042
553.4713, 20.04054
553.9534, 20.26733
554.4355, 20.56286
554.9177, 20.72749
555.3998, 20.65782
555.8819, 20.42458
556.3640, 20.08758
556.8461, 19.61778
557.3282, 19.29190
557.8104, 19.32317
558.2925, 19.49123
558.7746, 19.54358
559.2567, 19.47037
559.7388, 19.35574
560.2209, 19.23262
560.7031, 19.13111
561.1852, 19.14783
561.6673, 19.48649
562.1494, 19.65407
562.6315, 19.42304
563.1136, 19.19199
563.5958, 19.34143
564.0779, 19.78707
564.5600, 20.10853
565.0421, 19.97005
565.5242, 19.55842
566.0063, 19.54589
566.4885, 20.11365
566.9706, 20.55117
567.4527, 20.67839
567.9348, 20.62045
568.4169, 20.31937
568.8990, 19.84383
569.3812, 19.58468
569.8633, 20.04358
570.3454, 20.68387
570.8275, 20.63227
571.3096, 19.93197
571.7917, 19.27405
572.2739, 18.90623
572.7560, 18.79479
573.2381, 18.93113
573.7202, 19.40398
574.2023, 19.76021
574.6844, 19.98623
575.1666, 20.06026
575.6487, 19.85937
576.1308, 19.49476
576.6129, 19.23460
577.0950, 19.21995
577.5771, 19.36164
578.0593, 19.46512
578.5414, 19.51084
579.0235, 19.57148
579.5056, 19.81510
579.9877, 19.91684
580.4698, 19.63530
580.9520, 19.09858
581.4341, 18.59332
581.9162, 18.22315
582.3983, 17.99114
582.8804, 17.88003
583.3625, 17.89779
583.8447, 18.20656
584.3268, 18.99178
584.8089, 19.73537
585.2910, 19.75062
585.7731, 19.13177
586.2552, 18.87186
586.7374, 19.36076
587.2195, 19.90975
587.7016, 20.26872
588.1837, 20.41673
588.6658, 20.26514
589.1479, 19.80529
589.6301, 19.27532
590.1122, 18.96719
590.5943, 18.90296
591.0764, 18.85496
591.5585, 18.79301
592.0406, 18.78599
592.5228, 18.83233
593.0049, 18.95032
593.4870, 19.24921
593.9691, 19.74401
594.4512, 20.08074
594.9333, 19.76447
595.4155, 18.97814
595.8976, 18.52526
596.3797, 18.47723
596.8618, 18.66033
597.3439, 19.17392
597.8260, 19.77112
598.3082, 19.82772
598.7903, 19.04426
599.2724, 18.47929
599.7545, 18.75173
600.2366, 19.23812
600.7188, 19.19796
601.2009, 18.64824
601.6830, 18.13577
602.1651, 18.03197
602.6472, 18.23663
603.1293, 18.37343
603.6115, 18.32874
604.0936, 18.43052
604.5757, 18.93234
605.0578, 19.36867
605.5399, 19.43402
606.0220, 19.17533
606.5042, 18.78458
606.9863, 18.24447
607.4684, 17.81929
607.9505, 18.18080
608.4326, 19.29623
608.9147, 19.74624
609.3969, 18.90435
609.8790, 17.75979
610.3611, 17.48920
610.8432, 18.00077
611.3253, 18.16119
611.8074, 17.36782
612.2896, 16.70189
612.7717, 16.88971
613.2538, 17.54585
613.7359, 18.07217
614.2180, 18.27154
614.7001, 18.13478
615.1823, 17.54462
615.6644, 16.44694
616.1465, 16.04266
616.6286, 16.83967
617.1107, 17.65588
617.5928, 18.32509
618.0750, 18.78592
618.5571, 18.92862
619.0392, 18.74327
619.5213, 18.45824
620.0034, 18.21775
620.4855, 18.00816
620.9677, 17.72514
621.4498, 17.35550
621.9319, 17.29358
622.4140, 17.88732
622.8961, 18.74226
623.3782, 18.93856
623.8604, 18.17952
624.3425, 17.78733
624.8246, 18.29234
625.3067, 18.87099
625.7888, 19.04148
626.2709, 18.81794
626.7531, 18.29081
627.2352, 17.49734
627.7173, 16.66909
628.1994, 16.23783
628.6815, 16.24755
629.1636, 16.42581
629.6458, 16.99406
630.1279, 17.42031
630.6100, 17.31648
631.0921, 16.93820
631.5742, 16.72420
632.0563, 16.77878
632.5385, 17.02534
633.0206, 17.66023
633.5027, 18.38402
633.9848, 18.45461
634.4669, 17.78365
634.9490, 17.21466
635.4312, 17.44026
635.9133, 18.21676
636.3954, 18.38472
636.8775, 17.06284
637.3596, 16.31239
637.8417, 16.75670
638.3239, 17.33752
638.8060, 17.18362
639.2881, 16.45847
639.7702, 15.92775
640.2523, 16.07523
640.7344, 16.60371
641.2166, 16.97083
641.6987, 17.17288
642.1808, 17.32063
642.6629, 17.41242
643.1450, 17.49417
643.6271, 17.64381
644.1093, 17.82673
644.5914, 17.89868
645.0735, 17.79928
645.5556, 17.63162
646.0377, 17.38182
646.5198, 17.11852
647.0020, 16.94292
647.4841, 16.87278
647.9662, 16.86269
648.4483, 16.87624
648.9304, 16.91246
649.4125, 16.96336
649.8947, 17.01215
650.3768, 17.10845
650.8589, 17.28854
651.3410, 17.49380
651.8231, 17.74202
652.3052, 17.99436
652.7874, 18.09684
653.2695, 17.88221
653.7516, 17.56605
654.2337, 17.35934
654.7158, 17.27203
655.1979, 17.40101
655.6801, 17.80826
656.1622, 18.23928
656.6443, 18.42953
657.1264, 18.37304
657.6085, 18.16490
658.0906, 17.70013
658.5728, 17.23877
659.0549, 16.72432
659.5370, 16.31117
660.0191, 16.22856
660.5012, 16.45574
660.9833, 16.67121
661.4655, 16.56449
661.9476, 16.27251
662.4297, 16.25492
662.9118, 16.54986
663.3939, 16.82085
663.8760, 16.97606
664.3582, 17.05025
664.8403, 17.01300
665.3224, 16.87940
665.8045, 16.93673
666.2866, 17.54870
666.7687, 18.03004
667.2509, 17.90063
667.7330, 17.41636
668.2151, 16.94251
668.6972, 16.60044
669.1793, 16.43592
669.6614, 16.52639
670.1436, 16.84929
670.6257, 17.09371
671.1078, 17.31942
671.5899, 17.34398
672.0720, 16.99268
672.5541, 16.50376
673.0363, 15.87326
673.5184, 15.17817
674.0005, 14.99023
674.4826, 16.17685
674.9647, 17.47966
675.4468, 17.38839
675.9290, 16.35623
676.4111, 15.85116
676.8932, 16.33788
