##NAMES=Murmanite
##RRUFFID=R060886
##IDEAL CHEMISTRY=Na_2_Ti^4+^_2_Na_2_Ti^4+^_2_(Si_2_O_7_)_2_O_4_(H_2_O)_4_
##LOCALITY=Lovozero Massif, Kola Peninsula, Russia
##OWNER=RRUFF
##SOURCE=Bob Jenkins
##DESCRIPTION=Lilac lamellar aggregate
##STATUS=The identification of this mineral has been confirmed by single-crystal X-ray diffraction.
##URL=rruff.info/R060886
191.9171, 5495.517
192.3992, 5495.532
192.8813, 5516.531
193.3634, 5531.275
193.8455, 5515.563
194.3277, 5497.179
194.8098, 5503.410
195.2919, 5545.457
195.7740, 5593.961
196.2561, 5607.328
196.7382, 5578.375
197.2204, 5551.845
197.7025, 5535.152
198.1846, 5530.280
198.6667, 5546.276
199.1488, 5588.259
199.6309, 5631.013
200.1131, 5637.629
200.5952, 5599.600
201.0773, 5572.703
201.5594, 5588.159
202.0415, 5612.517
202.5236, 5623.242
203.0058, 5614.966
203.4879, 5597.390
203.9700, 5577.960
204.4521, 5555.251
204.9342, 5541.182
205.4163, 5554.578
205.8985, 5567.877
206.3806, 5556.893
206.8627, 5516.597
207.3448, 5473.919
207.8269, 5462.976
208.3090, 5487.722
208.7912, 5499.268
209.2733, 5473.841
209.7554, 5440.310
210.2375, 5417.859
210.7196, 5408.917
211.2017, 5404.996
211.6839, 5397.404
212.1660, 5385.868
212.6481, 5379.433
213.1302, 5383.575
213.6123, 5390.546
214.0944, 5395.544
214.5765, 5398.215
215.0587, 5399.548
215.5408, 5398.846
216.0229, 5396.314
216.5050, 5398.476
216.9871, 5411.458
217.4692, 5424.487
217.9514, 5430.648
218.4335, 5429.975
218.9156, 5425.898
219.3977, 5415.765
219.8798, 5401.442
220.3619, 5403.484
220.8441, 5442.605
221.3262, 5476.121
221.8083, 5469.921
222.2904, 5429.958
222.7725, 5391.042
223.2546, 5377.262
223.7368, 5383.857
224.2189, 5389.713
224.7010, 5396.949
225.1831, 5396.923
225.6652, 5379.712
226.1473, 5349.974
226.6295, 5324.284
227.1116, 5310.720
227.5937, 5307.688
228.0758, 5312.147
228.5579, 5328.008
229.0400, 5343.099
229.5222, 5351.597
230.0043, 5353.535
230.4864, 5347.807
230.9685, 5323.968
231.4506, 5294.112
231.9327, 5286.736
232.4149, 5310.191
232.8970, 5332.162
233.3791, 5326.572
233.8612, 5304.989
234.3433, 5287.030
234.8254, 5278.963
235.3076, 5277.530
235.7897, 5279.963
236.2718, 5287.332
236.7539, 5292.179
237.2360, 5286.725
237.7181, 5276.388
238.2003, 5270.606
238.6824, 5272.692
239.1645, 5278.500
239.6466, 5286.166
240.1287, 5295.861
240.6108, 5299.777
241.0930, 5288.979
241.5751, 5271.853
242.0572, 5264.682
242.5393, 5274.072
243.0214, 5285.538
243.5035, 5286.570
243.9857, 5278.795
244.4678, 5274.481
244.9499, 5280.224
245.4320, 5291.356
245.9141, 5298.578
246.3962, 5301.041
246.8784, 5301.797
247.3605, 5301.480
247.8426, 5300.583
248.3247, 5301.155
248.8068, 5304.822
249.2889, 5308.688
249.7710, 5306.661
250.2532, 5296.702
250.7353, 5289.559
251.2174, 5286.792
251.6995, 5289.562
252.1816, 5301.599
252.6637, 5325.060
253.1459, 5353.064
253.6280, 5376.822
254.1101, 5396.546
254.5922, 5412.630
255.0743, 5428.565
255.5564, 5439.306
256.0386, 5433.500
256.5207, 5408.985
257.0028, 5386.320
257.4849, 5390.965
257.9670, 5430.257
258.4492, 5454.126
258.9313, 5451.338
259.4134, 5439.763
259.8955, 5429.973
260.3776, 5423.925
260.8597, 5424.459
261.3419, 5435.930
261.8240, 5459.252
262.3061, 5472.029
262.7882, 5467.802
263.2703, 5460.334
263.7524, 5454.856
264.2346, 5451.864
264.7167, 5451.771
265.1988, 5455.793
265.6809, 5462.930
266.1630, 5461.741
266.6451, 5438.419
267.1272, 5423.337
267.6093, 5431.181
268.0915, 5451.636
268.5736, 5465.772
269.0557, 5463.413
269.5378, 5451.335
270.0199, 5452.044
270.5020, 5487.335
270.9842, 5510.410
271.4663, 5510.539
271.9484, 5500.869
272.4305, 5494.389
272.9126, 5495.850
273.3947, 5502.842
273.8769, 5512.105
274.3590, 5531.549
274.8411, 5537.856
275.3232, 5519.430
275.8053, 5497.372
276.2874, 5483.325
276.7696, 5480.854
277.2517, 5490.591
277.7338, 5517.809
278.2159, 5572.181
278.6980, 5606.166
279.1801, 5602.809
279.6623, 5594.033
280.1444, 5593.140
280.6265, 5599.723
281.1086, 5606.619
281.5907, 5608.226
282.0728, 5604.621
282.5550, 5597.870
283.0371, 5577.274
283.5192, 5566.984
284.0013, 5584.210
284.4834, 5616.305
284.9655, 5639.973
285.4477, 5640.247
285.9298, 5624.735
286.4119, 5616.450
286.8940, 5620.468
287.3761, 5620.658
287.8582, 5603.964
288.3404, 5583.305
288.8225, 5574.792
289.3046, 5586.567
289.7867, 5604.416
290.2688, 5608.872
290.7509, 5598.472
291.2331, 5587.347
291.7152, 5578.467
292.1973, 5571.951
292.6794, 5568.847
293.1615, 5569.932
293.6436, 5570.000
294.1258, 5563.236
294.6079, 5551.272
295.0900, 5543.515
295.5721, 5543.613
296.0542, 5546.147
296.5363, 5542.135
297.0185, 5531.776
297.5006, 5530.436
297.9827, 5551.962
298.4648, 5583.886
298.9469, 5605.299
299.4290, 5612.484
299.9112, 5615.363
300.3933, 5622.554
300.8754, 5633.500
301.3575, 5642.233
301.8396, 5647.634
302.3217, 5650.997
302.8039, 5653.625
303.2860, 5655.374
303.7681, 5653.603
304.2502, 5643.967
304.7323, 5629.954
305.2144, 5632.492
305.6966, 5674.535
306.1787, 5705.560
306.6608, 5700.631
307.1429, 5673.514
307.6250, 5648.550
308.1071, 5635.859
308.5893, 5633.064
309.0714, 5634.544
309.5535, 5646.655
310.0356, 5654.421
310.5177, 5657.463
310.9998, 5656.006
311.4820, 5647.067
311.9641, 5631.297
312.4462, 5617.228
312.9283, 5617.730
313.4104, 5642.804
313.8925, 5649.448
314.3747, 5620.144
314.8568, 5591.241
315.3389, 5582.596
315.8210, 5591.185
316.3031, 5601.590
316.7852, 5601.647
317.2674, 5591.946
317.7495, 5581.980
318.2316, 5567.887
318.7137, 5558.550
319.1958, 5557.688
319.6779, 5562.358
320.1601, 5569.226
320.6422, 5577.471
321.1243, 5584.699
321.6064, 5583.316
322.0885, 5567.286
322.5706, 5560.816
323.0528, 5583.895
323.5349, 5611.392
324.0170, 5620.629
324.4991, 5606.504
324.9812, 5590.725
325.4633, 5597.302
325.9455, 5623.842
326.4276, 5641.864
326.9097, 5645.149
327.3918, 5639.566
327.8739, 5624.421
328.3560, 5602.101
328.8382, 5593.095
329.3203, 5618.663
329.8024, 5659.364
330.2845, 5681.915
330.7666, 5682.450
331.2487, 5676.501
331.7309, 5675.713
332.2130, 5677.876
332.6951, 5672.679
333.1772, 5650.486
333.6593, 5628.824
334.1414, 5620.377
334.6236, 5622.385
335.1057, 5623.157
335.5878, 5615.796
336.0699, 5605.612
336.5520, 5609.518
337.0341, 5647.615
337.5162, 5666.762
337.9984, 5636.568
338.4805, 5592.311
338.9626, 5581.726
339.4447, 5615.211
339.9268, 5657.429
340.4089, 5658.381
340.8911, 5597.235
341.3732, 5561.417
341.8553, 5561.421
342.3374, 5572.960
342.8195, 5590.498
343.3016, 5609.046
343.7838, 5619.694
344.2659, 5614.576
344.7480, 5595.518
345.2301, 5581.084
345.7122, 5573.885
346.1943, 5568.316
346.6765, 5557.840
347.1586, 5550.068
347.6407, 5558.727
348.1228, 5591.148
348.6049, 5626.964
349.0870, 5627.851
349.5692, 5584.298
350.0513, 5550.888
350.5334, 5544.537
351.0155, 5548.742
351.4976, 5555.845
351.9797, 5564.522
352.4619, 5569.959
352.9440, 5569.688
353.4261, 5563.560
353.9082, 5548.926
354.3903, 5521.854
354.8724, 5495.759
355.3546, 5482.678
355.8367, 5479.080
356.3188, 5476.664
356.8009, 5478.885
357.2830, 5477.706
357.7651, 5459.735
358.2473, 5428.089
358.7294, 5407.684
359.2115, 5414.341
359.6936, 5437.897
360.1757, 5448.252
360.6578, 5441.685
361.1400, 5431.242
361.6221, 5411.978
362.1042, 5393.883
362.5863, 5394.871
363.0684, 5418.657
363.5505, 5445.613
364.0327, 5449.356
364.5148, 5421.313
364.9969, 5399.078
365.4790, 5382.710
365.9611, 5370.994
366.4432, 5362.169
366.9254, 5357.418
367.4075, 5361.435
367.8896, 5379.463
368.3717, 5406.831
368.8538, 5416.589
369.3359, 5393.017
369.8181, 5374.810
370.3002, 5371.684
370.7823, 5375.780
371.2644, 5379.928
371.7465, 5381.919
372.2286, 5382.591
372.7108, 5381.506
373.1929, 5378.217
373.6750, 5380.932
374.1571, 5398.743
374.6392, 5414.183
375.1213, 5416.515
375.6035, 5406.271
376.0856, 5387.623
376.5677, 5353.446
377.0498, 5315.062
377.5319, 5292.040
378.0140, 5285.606
378.4962, 5290.327
378.9783, 5310.251
379.4604, 5337.779
379.9425, 5348.947
380.4246, 5332.781
380.9067, 5314.114
381.3889, 5305.260
381.8710, 5302.419
382.3531, 5298.602
382.8352, 5291.682
383.3173, 5281.501
383.7994, 5266.889
384.2816, 5242.516
384.7637, 5228.196
385.2458, 5232.169
385.7279, 5239.480
386.2100, 5240.338
386.6921, 5235.096
387.1743, 5229.585
387.6564, 5228.642
388.1385, 5231.400
388.6206, 5229.801
389.1027, 5220.417
389.5848, 5210.828
390.0670, 5199.630
390.5491, 5190.141
391.0312, 5186.459
391.5133, 5189.891
391.9954, 5197.021
392.4775, 5204.748
392.9597, 5213.396
393.4418, 5217.908
393.9239, 5214.090
394.4060, 5209.656
394.8881, 5209.688
395.3702, 5213.687
395.8524, 5218.979
396.3345, 5227.858
396.8166, 5235.773
397.2987, 5234.330
397.7808, 5222.973
398.2629, 5209.225
398.7451, 5195.437
399.2272, 5182.895
399.7093, 5174.685
400.1914, 5171.352
400.6735, 5170.975
401.1556, 5176.799
401.6378, 5183.957
402.1199, 5182.481
402.6020, 5169.908
403.0841, 5156.845
403.5662, 5157.394
404.0483, 5176.095
404.5305, 5190.339
405.0126, 5201.627
405.4947, 5207.986
405.9768, 5207.841
406.4589, 5202.103
406.9410, 5191.788
407.4231, 5176.878
407.9052, 5159.964
408.3874, 5148.371
408.8695, 5140.702
409.3516, 5141.988
409.8337, 5170.671
410.3158, 5196.110
410.7979, 5186.454
411.2801, 5139.785
411.7622, 5097.131
412.2443, 5099.956
412.7264, 5138.679
413.2085, 5163.572
413.6906, 5167.492
414.1728, 5166.350
414.6549, 5170.135
415.1370, 5177.095
415.6191, 5183.838
416.1012, 5193.601
416.5833, 5198.917
417.0655, 5189.218
417.5476, 5169.719
418.0297, 5159.511
418.5118, 5167.552
418.9939, 5181.240
419.4760, 5177.693
419.9582, 5144.688
420.4403, 5125.305
420.9224, 5132.774
421.4045, 5145.038
421.8866, 5147.637
422.3687, 5140.139
422.8509, 5127.408
423.3330, 5111.643
423.8151, 5094.813
424.2972, 5090.273
424.7793, 5111.707
425.2614, 5125.429
425.7436, 5119.827
426.2257, 5107.924
426.7078, 5105.049
427.1899, 5114.295
427.6720, 5120.040
428.1541, 5098.636
428.6363, 5053.172
429.1184, 5028.909
429.6005, 5039.196
430.0826, 5055.140
430.5647, 5055.812
431.0468, 5046.355
431.5290, 5039.200
432.0111, 5041.059
432.4932, 5043.387
432.9753, 5037.083
433.4574, 5024.406
433.9395, 5014.509
434.4217, 5011.102
434.9038, 5011.686
435.3859, 5011.666
435.8680, 5009.595
436.3501, 5010.756
436.8322, 5018.485
437.3144, 5027.213
437.7965, 5033.456
438.2786, 5036.861
438.7607, 5037.916
439.2428, 5036.447
439.7249, 5033.375
440.2071, 5035.025
440.6892, 5049.582
441.1713, 5055.481
441.6534, 5034.932
442.1355, 5013.373
442.6176, 5021.499
443.0998, 5063.663
443.5819, 5101.736
444.0640, 5087.719
444.5461, 5032.700
445.0282, 5010.978
445.5103, 5039.199
445.9925, 5075.263
446.4746, 5092.422
446.9567, 5095.372
447.4388, 5093.456
447.9209, 5090.111
448.4030, 5080.078
448.8852, 5049.605
449.3673, 5009.942
449.8494, 4991.625
450.3315, 5005.787
450.8136, 5035.686
451.2957, 5058.999
451.7779, 5077.970
452.2600, 5080.994
452.7421, 5058.308
453.2242, 5030.443
453.7063, 5001.191
454.1884, 4975.683
454.6706, 4964.853
455.1527, 4976.934
455.6348, 4999.469
456.1169, 4995.705
456.5990, 4950.879
457.0811, 4920.354
457.5633, 4923.741
458.0454, 4937.992
458.5275, 4952.497
459.0096, 4965.463
459.4917, 4974.840
459.9738, 4979.563
460.4560, 4979.731
460.9381, 4973.494
461.4202, 4960.229
461.9023, 4950.048
462.3844, 4951.327
462.8665, 4958.277
463.3487, 4953.867
463.8308, 4930.396
464.3129, 4910.926
464.7950, 4900.440
465.2771, 4898.027
465.7592, 4908.747
466.2414, 4930.526
466.7235, 4944.772
467.2056, 4930.338
467.6877, 4887.421
468.1698, 4870.831
468.6519, 4914.569
469.1341, 4945.209
469.6162, 4942.802
470.0983, 4922.555
470.5804, 4898.032
471.0625, 4873.459
471.5446, 4856.712
472.0268, 4862.425
472.5089, 4887.985
472.9910, 4901.481
473.4731, 4897.589
473.9552, 4885.427
474.4373, 4863.457
474.9195, 4837.950
475.4016, 4826.606
475.8837, 4848.097
476.3658, 4868.138
476.8479, 4859.822
477.3300, 4833.532
477.8121, 4812.094
478.2943, 4802.755
478.7764, 4802.923
479.2585, 4811.474
479.7406, 4835.792
480.2227, 4839.112
480.7048, 4796.664
481.1870, 4761.673
481.6691, 4764.316
482.1512, 4789.833
482.6333, 4809.229
483.1154, 4808.502
483.5975, 4796.148
484.0797, 4786.130
484.5618, 4778.632
485.0439, 4772.007
485.5260, 4761.081
486.0081, 4756.763
486.4902, 4771.574
486.9724, 4801.105
487.4545, 4823.447
487.9366, 4824.885
488.4187, 4819.558
488.9008, 4823.232
489.3829, 4833.563
489.8651, 4837.115
490.3472, 4826.640
490.8293, 4811.395
491.3114, 4809.385
491.7935, 4832.641
492.2756, 4842.449
492.7578, 4821.632
493.2399, 4802.763
493.7220, 4812.667
494.2041, 4841.889
494.6862, 4861.189
495.1683, 4851.768
495.6505, 4825.746
496.1326, 4814.678
496.6147, 4823.374
497.0968, 4829.504
497.5789, 4826.052
498.0610, 4820.586
498.5432, 4818.490
499.0253, 4819.641
499.5074, 4821.219
499.9895, 4826.799
500.4716, 4829.225
500.9537, 4814.451
501.4359, 4785.164
501.9180, 4763.611
502.4001, 4761.686
502.8822, 4771.169
503.3643, 4774.230
503.8464, 4762.451
504.3286, 4761.132
504.8107, 4779.033
505.2928, 4800.842
505.7749, 4820.345
506.2570, 4834.791
506.7391, 4839.495
507.2213, 4830.057
507.7034, 4812.274
508.1855, 4802.257
508.6676, 4801.825
509.1497, 4802.752
509.6318, 4799.482
510.1140, 4800.444
510.5961, 4816.164
511.0782, 4844.857
511.5603, 4867.421
512.0424, 4876.811
512.5245, 4875.021
513.0067, 4857.243
513.4888, 4827.261
513.9709, 4808.234
514.4530, 4811.936
514.9351, 4830.034
515.4172, 4845.992
515.8994, 4861.924
516.3815, 4870.486
516.8636, 4861.434
517.3457, 4854.224
517.8278, 4864.212
518.3099, 4886.135
518.7921, 4904.611
519.2742, 4910.448
519.7563, 4908.061
520.2384, 4906.064
520.7205, 4904.185
521.2026, 4904.258
521.6848, 4906.250
522.1669, 4910.898
522.6490, 4918.314
523.1311, 4928.543
523.6132, 4941.835
524.0953, 4963.723
524.5775, 4984.261
525.0596, 4993.293
525.5417, 4993.486
526.0238, 4994.888
526.5059, 5001.941
526.9880, 5008.917
527.4702, 5005.781
527.9523, 4988.105
528.4344, 4973.533
528.9165, 4957.450
529.3986, 4948.781
529.8807, 4955.671
530.3629, 4971.946
530.8450, 4988.316
531.3271, 5001.987
531.8092, 5007.775
532.2913, 4992.219
532.7734, 4956.924
533.2556, 4935.121
533.7377, 4935.333
534.2198, 4943.911
534.7019, 4946.780
535.1840, 4946.948
535.6661, 4961.277
536.1483, 5008.901
536.6304, 5052.300
537.1125, 5070.233
537.5946, 5072.617
538.0767, 5074.915
538.5588, 5081.585
539.0410, 5089.000
539.5231, 5091.943
540.0052, 5089.653
540.4873, 5095.595
540.9694, 5123.280
541.4515, 5140.945
541.9337, 5134.567
542.4158, 5116.410
542.8979, 5098.452
543.3800, 5083.114
543.8621, 5075.029
544.3442, 5083.104
544.8264, 5100.350
545.3085, 5108.635
545.7906, 5105.827
546.2727, 5103.621
546.7548, 5111.555
547.2369, 5125.563
547.7191, 5127.610
548.2012, 5104.066
548.6833, 5088.485
549.1654, 5089.435
549.6475, 5096.064
550.1296, 5101.661
550.6118, 5104.259
551.0939, 5101.040
551.5760, 5086.379
552.0581, 5068.499
552.5402, 5076.744
553.0223, 5117.780
553.5045, 5155.663
553.9866, 5184.839
554.4687, 5202.593
554.9508, 5205.072
555.4329, 5192.741
555.9150, 5179.551
556.3972, 5166.743
556.8793, 5157.260
557.3614, 5156.038
557.8435, 5160.336
558.3256, 5162.351
558.8077, 5158.816
559.2899, 5152.093
559.7720, 5144.810
560.2541, 5133.500
560.7362, 5134.199
561.2183, 5163.685
561.7004, 5188.095
562.1826, 5189.302
562.6647, 5179.766
563.1468, 5183.047
563.6289, 5210.254
564.1110, 5234.973
564.5931, 5224.280
565.0753, 5189.799
565.5574, 5170.637
566.0395, 5173.422
566.5216, 5181.650
567.0037, 5184.867
567.4858, 5182.828
567.9680, 5173.261
568.4501, 5150.694
568.9322, 5128.979
569.4143, 5095.830
569.8964, 5074.245
570.3785, 5099.483
570.8607, 5163.021
571.3428, 5212.800
571.8249, 5202.358
572.3070, 5153.189
572.7891, 5132.370
573.2712, 5144.085
573.7534, 5161.966
574.2355, 5187.911
574.7176, 5207.063
575.1997, 5195.711
575.6818, 5154.282
576.1639, 5127.669
576.6461, 5136.653
577.1282, 5153.362
577.6103, 5161.863
578.0924, 5162.579
578.5745, 5156.105
579.0566, 5142.877
579.5388, 5131.272
580.0209, 5135.968
580.5030, 5160.891
580.9851, 5174.609
581.4672, 5174.877
581.9493, 5166.266
582.4314, 5143.256
582.9135, 5116.215
583.3956, 5100.156
583.8777, 5099.260
584.3599, 5102.689
584.8420, 5106.833
585.3241, 5109.439
585.8062, 5104.958
586.2883, 5093.739
586.7704, 5084.370
587.2526, 5083.135
587.7347, 5086.809
588.2168, 5084.319
588.6989, 5070.442
589.1810, 5059.174
589.6631, 5056.172
590.1453, 5051.022
590.6274, 5034.728
591.1095, 5011.037
591.5916, 4990.978
592.0737, 4981.118
592.5558, 4975.134
593.0380, 4964.185
593.5201, 4949.484
594.0022, 4938.909
594.4843, 4935.327
594.9664, 4930.189
595.4485, 4913.771
595.9307, 4886.323
596.4128, 4868.371
596.8949, 4866.277
597.3770, 4864.085
597.8591, 4856.806
598.3412, 4848.613
598.8234, 4844.849
599.3055, 4845.491
599.7876, 4845.204
600.2697, 4838.750
600.7518, 4828.633
601.2339, 4808.616
601.7161, 4832.661
602.1982, 4841.973
602.6803, 4837.338
603.1624, 4776.990
603.6445, 4788.585
604.1266, 4771.349
604.6088, 4752.927
605.0909, 4774.647
605.5730, 4722.403
606.0551, 4743.486
606.5372, 4735.300
607.0193, 4740.508
607.5015, 4716.706
607.9836, 4701.867
608.4657, 4689.676
608.9478, 4707.670
609.4299, 4701.848
609.9120, 4662.279
610.3942, 4625.405
610.8763, 4608.378
611.3584, 4603.143
611.8405, 4598.197
612.3226, 4594.662
612.8047, 4585.052
613.2869, 4550.030
613.7690, 4522.168
614.2511, 4542.212
614.7332, 4592.841
615.2153, 4622.627
615.6974, 4607.111
616.1796, 4568.481
616.6617, 4544.007
617.1438, 4536.168
617.6259, 4524.474
618.1080, 4506.780
618.5901, 4487.695
619.0723, 4463.485
619.5544, 4441.244
620.0365, 4436.026
620.5186, 4457.758
621.0007, 4472.428
621.4828, 4458.622
621.9650, 4433.149
622.4471, 4409.132
622.9292, 4391.224
623.4113, 4391.739
623.8934, 4420.147
624.3755, 4460.259
624.8577, 4470.342
625.3398, 4438.875
625.8219, 4418.841
626.3040, 4420.718
626.7861, 4427.221
627.2682, 4430.578
627.7504, 4431.140
628.2325, 4430.035
628.7146, 4428.542
629.1967, 4423.275
629.6788, 4407.620
630.1609, 4389.066
630.6431, 4378.143
631.1252, 4375.995
631.6073, 4380.176
632.0894, 4390.035
632.5715, 4402.250
633.0536, 4404.091
633.5358, 4388.437
634.0179, 4381.736
634.5000, 4394.262
634.9821, 4409.152
635.4642, 4420.281
635.9464, 4426.025
636.4285, 4421.470
636.9106, 4394.819
637.3927, 4375.326
637.8748, 4395.816
638.3569, 4431.695
638.8391, 4436.658
639.3212, 4407.113
639.8033, 4379.424
640.2854, 4382.364
640.7675, 4407.938
641.2496, 4421.993
641.7318, 4418.486
642.2139, 4418.654
642.6960, 4433.588
643.1781, 4445.217
643.6602, 4441.098
644.1423, 4424.576
644.6245, 4407.019
645.1066, 4388.311
645.5887, 4374.592
646.0708, 4373.891
646.5529, 4379.644
647.0350, 4378.010
647.5172, 4368.384
647.9993, 4365.652
648.4814, 4383.079
648.9635, 4415.029
649.4456, 4438.398
649.9277, 4456.257
650.4099, 4456.901
650.8920, 4417.450
651.3741, 4380.277
651.8562, 4374.946
652.3383, 4395.197
652.8204, 4418.730
653.3026, 4445.187
653.7847, 4465.344
654.2668, 4468.610
654.7489, 4464.000
655.2310, 4464.176
655.7131, 4471.406
656.1953, 4484.693
656.6774, 4505.615
657.1595, 4527.649
657.6416, 4522.668
658.1237, 4477.813
658.6058, 4450.120
659.0880, 4455.996
659.5701, 4472.957
660.0522, 4487.301
660.5343, 4499.254
661.0164, 4509.509
661.4985, 4518.599
661.9807, 4525.432
662.4628, 4529.777
662.9449, 4531.447
663.4270, 4530.110
663.9091, 4525.831
664.3912, 4517.952
664.8734, 4504.965
665.3555, 4491.205
665.8376, 4488.859
666.3197, 4499.136
666.8018, 4514.011
667.2839, 4537.769
667.7661, 4557.281
668.2482, 4555.747
668.7303, 4541.572
669.2124, 4541.430
669.6945, 4566.952
670.1766, 4591.747
670.6588, 4614.177
671.1409, 4627.205
671.6230, 4616.319
672.1051, 4588.414
672.5872, 4567.879
673.0693, 4570.104
673.5515, 4583.851
674.0336, 4588.523
674.5157, 4584.348
674.9978, 4582.161
675.4799, 4582.928
675.9620, 4587.086
676.4442, 4595.766
676.9263, 4607.964
677.4084, 4620.127
677.8905, 4634.375
678.3726, 4644.940
678.8547, 4654.397
679.3369, 4657.046
679.8190, 4642.958
680.3011, 4619.556
680.7832, 4603.162
681.2653, 4601.121
681.7474, 4607.602
682.2296, 4621.633
682.7117, 4638.797
683.1938, 4637.597
683.6759, 4614.680
684.1580, 4599.850
684.6401, 4613.067
685.1223, 4641.018
685.6044, 4651.222
686.0865, 4630.327
686.5686, 4622.248
687.0507, 4646.001
687.5328, 4661.184
688.0150, 4635.075
688.4971, 4595.099
688.9792, 4588.457
689.4613, 4629.208
