##NAMES=Murmanite
##RRUFFID=R110202
##IDEAL CHEMISTRY=Na_2_Ti^4+^_2_Na_2_Ti^4+^_2_(Si_2_O_7_)_2_O_4_(H_2_O)_4_
##LOCALITY=Kvanefjeld Mt., Kuannersuit plateau, Ilimaussaq complex, Narsaq, Kitaa Province, Greenland
##OWNER=RRUFF
##SOURCE=Donald Doell
##DESCRIPTION=Pink plates frozen in matrix
##STATUS=The identification of this mineral has been confirmed only by single crystal X-ray diffraction.
##URL=rruff.info/R110202
175.8268, 148.9327
176.3090, 151.3994
176.7911, 154.1525
177.2732, 156.9526
177.7553, 159.0405
178.2374, 160.2889
178.7195, 161.1580
179.2017, 161.8353
179.6838, 162.3084
180.1659, 162.4948
180.6480, 162.3932
181.1301, 162.1860
181.6122, 162.0542
182.0944, 161.9697
182.5765, 161.8333
183.0586, 161.5265
183.5407, 161.1521
184.0228, 160.9655
184.5049, 161.0055
184.9871, 161.0305
185.4692, 160.6568
185.9513, 159.9600
186.4334, 159.3779
186.9155, 159.2109
187.3976, 159.3219
187.8798, 159.2063
188.3619, 158.7901
188.8440, 158.3512
189.3261, 158.4129
189.8082, 158.9267
190.2903, 159.2540
190.7725, 158.8484
191.2546, 157.8833
191.7367, 157.4494
192.2188, 157.6741
192.7009, 158.2156
193.1830, 158.5970
193.6652, 158.8207
194.1473, 158.8406
194.6294, 158.3943
195.1115, 157.5551
195.5936, 157.3686
196.0757, 158.0137
196.5579, 159.1147
197.0400, 159.9091
197.5221, 160.3524
198.0042, 160.9521
198.4863, 162.2572
198.9684, 164.2801
199.4506, 165.4638
199.9327, 165.4935
200.4148, 164.8969
200.8969, 164.8052
201.3790, 165.2811
201.8611, 165.9165
202.3433, 166.5664
202.8254, 167.2576
203.3075, 167.6315
203.7896, 167.5627
204.2717, 167.2457
204.7538, 167.1566
205.2360, 167.3083
205.7181, 167.6230
206.2002, 168.1652
206.6823, 169.0252
207.1644, 169.4721
207.6465, 169.3210
208.1287, 168.7870
208.6108, 168.5282
209.0929, 168.6249
209.5750, 168.7684
210.0571, 168.7370
210.5392, 168.4625
211.0214, 168.3562
211.5035, 168.5363
211.9856, 168.8846
212.4677, 168.9316
212.9498, 168.5147
213.4319, 168.1711
213.9140, 168.3338
214.3962, 169.2680
214.8783, 169.7432
215.3604, 169.5079
215.8425, 168.7591
216.3246, 168.3084
216.8067, 168.2634
217.2889, 168.2964
217.7710, 168.2036
218.2531, 167.9368
218.7352, 167.6713
219.2173, 167.3998
219.6994, 167.1325
220.1816, 166.9060
220.6637, 166.6140
221.1458, 166.5261
221.6279, 166.8566
222.1100, 167.7935
222.5921, 168.6662
223.0743, 169.4816
223.5564, 170.1979
224.0385, 170.6172
224.5206, 170.5960
225.0027, 170.4995
225.4848, 170.5428
225.9670, 170.7569
226.4491, 171.0481
226.9312, 171.4301
227.4133, 171.8878
227.8954, 172.3616
228.3775, 172.8195
228.8597, 173.3287
229.3418, 173.9653
229.8239, 174.9033
230.3060, 175.5600
230.7881, 175.8626
231.2702, 175.8429
231.7524, 175.5880
232.2345, 174.8445
232.7166, 174.2181
233.1987, 174.1288
233.6808, 174.9541
234.1629, 175.4689
234.6451, 175.5489
235.1272, 175.2563
235.6093, 174.8565
236.0914, 174.2909
236.5735, 173.6994
237.0556, 173.1690
237.5378, 172.7653
238.0199, 172.2831
238.5020, 171.6824
238.9841, 170.9973
239.4662, 170.3740
239.9483, 169.8010
240.4305, 169.3150
240.9126, 168.9708
241.3947, 168.9604
241.8768, 168.6584
242.3589, 167.8809
242.8410, 166.8067
243.3232, 166.0776
243.8053, 165.9173
244.2874, 165.7971
244.7695, 165.4014
245.2516, 164.4060
245.7337, 163.8603
246.2159, 163.9472
246.6980, 164.4798
247.1801, 164.8502
247.6622, 164.9325
248.1443, 165.0412
248.6264, 165.3331
249.1086, 165.8977
249.5907, 166.4258
250.0728, 166.8717
250.5549, 167.2912
251.0370, 167.8222
251.5191, 168.4456
252.0013, 169.2187
252.4834, 170.2395
252.9655, 171.7337
253.4476, 172.8269
253.9297, 173.2595
254.4118, 173.4081
254.8940, 174.1659
255.3761, 175.8080
255.8582, 177.5786
256.3403, 179.1859
256.8224, 180.6270
257.3046, 181.8674
257.7867, 182.7747
258.2688, 183.5480
258.7509, 184.5833
259.2330, 185.9568
259.7151, 187.4111
260.1973, 188.9731
260.6794, 190.7911
261.1615, 191.8893
261.6436, 192.0527
262.1257, 191.6763
262.6078, 191.3791
263.0900, 191.1527
263.5721, 191.0518
264.0542, 191.2142
264.5363, 191.7680
265.0184, 191.7053
265.5005, 190.8252
265.9827, 189.5765
266.4648, 188.5591
266.9469, 187.8084
267.4290, 187.2172
267.9111, 186.8078
268.3932, 186.6025
268.8754, 186.2207
269.3575, 185.6726
269.8396, 184.9269
270.3217, 183.8568
270.8038, 182.3223
271.2859, 181.0083
271.7681, 180.1707
272.2502, 179.7912
272.7323, 179.3291
273.2144, 178.8253
273.6965, 178.1676
274.1786, 177.1669
274.6608, 175.7306
275.1429, 174.4216
275.6250, 173.4519
276.1071, 172.7534
276.5892, 171.7127
277.0714, 170.2603
277.5535, 168.7127
278.0356, 167.4292
278.5177, 166.4546
278.9998, 165.2242
279.4819, 163.4481
279.9641, 161.3560
280.4462, 160.1449
280.9283, 159.9754
281.4104, 159.9815
281.8925, 159.3569
282.3746, 158.0895
282.8568, 157.1191
283.3389, 156.6256
283.8210, 156.5096
284.3031, 156.5712
284.7852, 156.8393
285.2673, 157.0771
285.7495, 157.0301
286.2316, 156.7368
286.7137, 156.7070
287.1958, 157.0724
287.6779, 157.6355
288.1600, 157.8854
288.6422, 157.8125
289.1243, 157.9780
289.6064, 158.9362
290.0885, 160.5072
290.5706, 161.6766
291.0527, 162.2655
291.5349, 162.6295
292.0170, 163.3161
292.4991, 164.2989
292.9812, 165.3821
293.4633, 166.3419
293.9454, 167.2991
294.4276, 168.7098
294.9097, 170.6498
295.3918, 172.7531
295.8739, 174.5678
296.3560, 176.1272
296.8381, 177.6733
297.3203, 179.4248
297.8024, 181.2039
298.2845, 182.6101
298.7666, 183.6156
299.2487, 184.5061
299.7308, 185.5785
300.2130, 186.7849
300.6951, 187.9755
301.1772, 189.2993
301.6593, 190.4687
302.1414, 190.9227
302.6235, 190.6723
303.1057, 190.3905
303.5878, 190.9052
304.0699, 191.7586
304.5520, 192.0758
305.0341, 191.2863
305.5162, 190.1083
305.9984, 189.3184
306.4805, 188.8584
306.9626, 188.2738
307.4447, 187.1022
307.9268, 185.6732
308.4089, 184.4690
308.8911, 183.8200
309.3732, 183.1070
309.8553, 181.8177
310.3374, 180.0517
310.8195, 178.1085
311.3016, 175.8236
311.7838, 173.6362
312.2659, 171.9910
312.7480, 171.1997
313.2301, 170.4358
313.7122, 169.0713
314.1943, 167.3599
314.6765, 165.8661
315.1586, 165.1990
315.6407, 164.5832
316.1228, 163.3918
316.6049, 161.3540
317.0870, 159.6018
317.5692, 158.8450
318.0513, 158.6418
318.5334, 158.3813
319.0155, 157.8337
319.4976, 157.2151
319.9797, 156.6186
320.4619, 156.0539
320.9440, 155.4641
321.4261, 154.6660
321.9082, 153.9094
322.3903, 153.4348
322.8724, 153.3590
323.3546, 153.4996
323.8367, 153.9019
324.3188, 154.5508
324.8009, 155.1207
325.2830, 155.6211
325.7651, 155.9857
326.2473, 156.1708
326.7294, 155.7068
327.2115, 155.6068
327.6936, 156.1001
328.1757, 157.0844
328.6578, 158.0576
329.1400, 159.0758
329.6221, 160.0360
330.1042, 160.8919
330.5863, 161.4855
331.0684, 162.2420
331.5505, 163.1754
332.0327, 164.2616
332.5148, 165.4399
332.9969, 166.7019
333.4790, 168.0627
333.9611, 169.5635
334.4432, 171.2445
334.9254, 172.8703
335.4075, 174.3315
335.8896, 175.8011
336.3717, 177.5756
336.8538, 179.8410
337.3359, 181.8989
337.8180, 183.4147
338.3001, 184.3977
338.7823, 185.9436
339.2644, 188.1874
339.7465, 190.7001
340.2286, 193.0275
340.7107, 195.0759
341.1928, 197.4459
341.6750, 200.3311
342.1571, 203.5759
342.6392, 206.3663
343.1213, 208.6682
343.6034, 210.8387
344.0855, 213.1850
344.5677, 215.6783
345.0498, 218.1011
345.5319, 220.4348
346.0140, 222.6444
346.4961, 224.7645
346.9782, 226.7761
347.4604, 228.3649
347.9425, 229.2753
348.4246, 229.5994
348.9067, 229.6377
349.3888, 229.4133
349.8709, 228.8702
350.3531, 227.8932
350.8352, 226.5252
351.3173, 224.9337
351.7994, 223.2752
352.2815, 221.3924
352.7636, 218.9397
353.2458, 215.9155
353.7279, 212.6622
354.2100, 209.4114
354.6921, 206.1350
355.1742, 202.7962
355.6563, 199.3164
356.1385, 195.7887
356.6206, 192.2032
357.1027, 188.5849
357.5848, 185.1591
358.0669, 182.0379
358.5490, 179.1454
359.0312, 176.4548
359.5133, 174.0218
359.9954, 171.5854
360.4775, 168.8527
360.9596, 165.9944
361.4417, 163.4159
361.9239, 161.5193
362.4060, 159.7374
362.8881, 157.7204
363.3702, 155.3673
363.8523, 153.1335
364.3344, 151.1089
364.8166, 149.3011
365.2987, 147.7057
365.7808, 146.6943
366.2629, 145.5662
366.7450, 143.9793
367.2271, 141.9361
367.7093, 140.2803
368.1914, 139.4758
368.6735, 138.8558
369.1556, 137.9767
369.6377, 136.2478
370.1198, 135.0049
370.6020, 134.4950
371.0841, 134.5330
371.5662, 134.4398
372.0483, 133.9960
372.5304, 133.6877
373.0125, 133.7952
373.4947, 134.6398
373.9768, 134.9197
374.4589, 134.3224
374.9410, 133.4138
375.4231, 133.1896
375.9052, 133.9614
376.3874, 134.5308
376.8695, 134.4198
377.3516, 133.6553
377.8337, 133.4326
378.3158, 133.8998
378.7979, 134.4957
379.2801, 134.5729
379.7622, 134.0982
380.2443, 133.9069
380.7264, 134.2601
381.2085, 134.9157
381.6906, 135.2110
382.1728, 135.1388
382.6549, 134.9884
383.1370, 134.8941
383.6191, 134.8685
384.1012, 134.9873
384.5833, 135.2763
385.0655, 135.6410
385.5476, 136.0323
386.0297, 136.4140
386.5118, 136.6353
386.9939, 136.4391
387.4760, 136.1172
387.9582, 136.1645
388.4403, 136.5955
388.9224, 137.0008
389.4045, 137.0114
389.8866, 136.7989
390.3687, 136.5984
390.8509, 136.4526
391.3330, 136.3874
391.8151, 136.5259
392.2972, 136.7965
392.7793, 136.9084
393.2614, 136.6274
393.7436, 136.1922
394.2257, 135.7501
394.7078, 135.3035
395.1899, 134.9135
395.6720, 134.5751
396.1541, 134.3091
396.6363, 134.1496
397.1184, 134.2168
397.6005, 134.2858
398.0826, 134.3429
398.5647, 134.4153
399.0468, 134.2152
399.5290, 133.3491
400.0111, 132.4047
400.4932, 131.8646
400.9753, 132.3484
401.4574, 132.3961
401.9395, 131.6760
402.4217, 130.3802
402.9038, 129.4197
403.3859, 128.8800
403.8680, 128.5518
404.3501, 128.3892
404.8322, 128.5035
405.3144, 128.3771
405.7965, 127.9271
406.2786, 127.3371
406.7607, 126.9058
407.2428, 126.6585
407.7249, 126.4257
408.2071, 126.1271
408.6892, 125.7901
409.1713, 125.6538
409.6534, 125.7572
410.1355, 125.8277
410.6176, 125.5083
411.0998, 124.8864
411.5819, 124.4938
412.0640, 124.4602
412.5461, 124.6542
413.0282, 124.9939
413.5103, 125.4284
413.9925, 125.6710
414.4746, 125.3302
414.9567, 124.7658
415.4388, 124.6029
415.9209, 124.9294
416.4030, 125.2838
416.8852, 125.2185
417.3673, 124.9347
417.8494, 124.7610
418.3315, 124.9728
418.8136, 125.2140
419.2957, 125.2442
419.7779, 125.0906
420.2600, 124.9324
420.7421, 124.8344
421.2242, 124.7761
421.7063, 124.7735
422.1884, 124.9824
422.6706, 124.9602
423.1527, 124.3596
423.6348, 123.4830
424.1169, 122.8969
424.5990, 122.6470
425.0811, 122.7245
425.5633, 123.3159
426.0454, 124.5687
426.5275, 125.2412
427.0096, 124.9253
427.4917, 124.3533
427.9738, 124.1082
428.4560, 124.2440
428.9381, 124.6057
429.4202, 125.2760
429.9023, 126.1332
430.3844, 126.7987
430.8665, 127.2425
431.3487, 127.5663
431.8308, 127.7372
432.3129, 127.7335
432.7950, 128.0856
433.2771, 128.9128
433.7592, 129.7912
434.2414, 130.0296
434.7235, 129.7007
435.2056, 129.6868
435.6877, 130.3814
436.1698, 131.4842
436.6519, 132.4240
437.1341, 133.2032
437.6162, 133.8649
438.0983, 134.3435
438.5804, 134.7577
439.0625, 135.3406
439.5446, 136.1768
440.0268, 137.0289
440.5089, 137.6788
440.9910, 138.1908
441.4731, 138.6865
441.9552, 139.3031
442.4373, 139.8607
442.9195, 140.1987
443.4016, 140.3188
443.8837, 140.4839
444.3658, 140.8880
444.8479, 141.3304
445.3300, 141.6505
445.8122, 141.7869
446.2943, 141.8389
446.7764, 141.8625
447.2585, 141.8152
447.7406, 141.5894
448.2227, 141.1225
448.7049, 140.5291
449.1870, 139.8194
449.6691, 138.9870
450.1512, 138.1136
450.6333, 137.1691
451.1154, 136.2319
451.5976, 135.4017
452.0797, 134.7522
452.5618, 134.0043
453.0439, 133.1229
453.5260, 132.1191
454.0081, 130.9120
454.4903, 129.4580
454.9724, 128.0623
455.4545, 126.8707
455.9366, 125.8790
456.4187, 125.0155
456.9008, 124.3025
457.3830, 123.6128
457.8651, 122.8258
458.3472, 121.9506
458.8293, 121.0474
459.3114, 120.0620
459.7935, 119.1199
460.2757, 118.3906
460.7578, 117.8470
461.2399, 117.3390
461.7220, 116.6914
462.2041, 116.0791
462.6862, 115.7212
463.1684, 115.7125
463.6505, 115.6766
464.1326, 115.4756
464.6147, 115.1228
465.0968, 114.6285
465.5789, 113.7806
466.0611, 113.0272
466.5432, 112.5297
467.0253, 112.2742
467.5074, 112.0277
467.9895, 111.9656
468.4716, 111.7433
468.9538, 111.1432
469.4359, 109.7803
469.9180, 108.9202
470.4001, 108.7998
470.8822, 109.0089
471.3643, 108.9139
471.8465, 108.3951
472.3286, 107.9173
472.8107, 107.6106
473.2928, 107.4458
473.7749, 107.2382
474.2570, 106.9862
474.7392, 106.6995
475.2213, 106.3636
475.7034, 105.9897
476.1855, 105.6577
476.6676, 105.3816
477.1497, 105.1318
477.6319, 104.8934
478.1140, 104.6557
478.5961, 104.3843
479.0782, 104.0303
479.5603, 103.6565
480.0424, 103.3300
480.5246, 103.0477
481.0067, 102.7958
481.4888, 102.6062
481.9709, 102.4194
482.4530, 102.1772
482.9352, 101.8460
483.4173, 101.5134
483.8994, 101.2232
484.3815, 100.9489
484.8636, 100.6541
485.3457, 100.3232
485.8279, 99.97855
486.3100, 99.63820
486.7921, 99.30041
487.2742, 98.90706
487.7563, 98.42240
488.2384, 97.91719
488.7206, 97.43700
489.2027, 97.00595
489.6848, 96.51135
490.1669, 95.82985
490.6490, 95.21875
491.1311, 95.21999
491.6133, 95.96458
492.0954, 96.39428
492.5775, 96.04037
493.0596, 95.15955
493.5417, 94.77515
494.0238, 94.89519
494.5060, 94.99857
494.9881, 94.57838
495.4702, 93.85050
495.9523, 93.34081
496.4344, 93.12887
496.9165, 93.09420
497.3987, 93.33696
497.8808, 93.65140
498.3629, 93.64446
498.8450, 92.75066
499.3271, 91.82392
499.8092, 91.40186
500.2914, 91.43652
500.7735, 91.66964
501.2556, 92.43929
501.7377, 93.05547
502.2198, 93.03146
502.7019, 91.96529
503.1841, 91.17545
503.6662, 90.99239
504.1483, 91.10159
504.6304, 91.14148
505.1125, 91.03658
505.5946, 90.97697
506.0768, 90.94575
506.5589, 90.97720
507.0410, 91.30587
507.5231, 92.06831
508.0052, 92.73975
508.4873, 92.96296
508.9695, 92.72892
509.4516, 92.80129
509.9337, 93.25831
510.4158, 93.70936
510.8979, 93.59987
511.3800, 93.05914
511.8622, 92.67980
512.3443, 92.65885
512.8264, 92.81250
513.3085, 92.88023
513.7906, 92.90567
514.2728, 93.04463
514.7549, 93.56972
515.2370, 94.12729
515.7191, 94.37941
516.2012, 94.28844
516.6833, 94.18001
517.1655, 94.14437
517.6476, 94.19186
518.1297, 94.33440
518.6118, 94.77260
519.0939, 95.06010
519.5760, 94.96127
520.0582, 94.67348
520.5403, 94.67036
521.0224, 95.15049
521.5045, 95.63393
521.9866, 95.95676
522.4688, 96.12058
522.9509, 96.51344
523.4330, 97.23985
523.9151, 97.95452
524.3972, 98.29002
524.8793, 98.23012
525.3615, 98.56151
525.8436, 99.43952
526.3257, 100.4928
526.8078, 101.1590
527.2899, 101.5007
527.7720, 101.7962
528.2542, 102.0742
528.7363, 102.4222
529.2184, 102.9767
529.7005, 103.7164
530.1826, 104.5522
530.6647, 105.4909
531.1469, 106.4630
531.6290, 107.4366
532.1111, 108.4136
532.5932, 109.3368
533.0753, 110.0524
533.5574, 110.7637
534.0396, 111.6697
534.5217, 113.0061
535.0038, 114.3155
535.4859, 115.5902
535.9680, 116.8031
536.4501, 117.8537
536.9323, 118.5614
537.4144, 119.4148
537.8965, 120.6385
538.3786, 122.2384
538.8607, 123.6893
539.3428, 124.9594
539.8250, 126.1376
540.3071, 127.2500
540.7892, 128.2958
541.2713, 129.4447
541.7534, 130.7457
542.2355, 132.0645
542.7177, 133.2376
543.1998, 134.2820
543.6819, 135.2193
544.1640, 135.9647
544.6461, 136.6629
545.1282, 137.4870
545.6104, 138.4078
546.0925, 139.2615
546.5746, 139.9781
547.0567, 140.5869
547.5388, 141.1031
548.0209, 141.5076
548.5031, 141.8838
548.9852, 142.1203
549.4673, 142.4002
549.9494, 142.9357
550.4315, 144.1109
550.9136, 144.9356
551.3958, 145.2208
551.8779, 145.1105
552.3600, 144.9971
552.8421, 144.8495
553.3242, 144.8078
553.8063, 145.0256
554.2885, 145.4362
554.7706, 145.4200
555.2527, 144.9357
555.7348, 144.4625
556.2169, 144.4944
556.6990, 144.8599
557.1812, 145.0904
557.6633, 145.0744
558.1454, 145.0681
558.6275, 145.5011
559.1096, 146.0905
559.5917, 146.3453
560.0739, 145.3749
560.5560, 144.6742
561.0381, 145.4115
561.5202, 147.1871
562.0023, 148.2562
562.4844, 147.3758
562.9666, 146.3808
563.4487, 146.1519
563.9308, 146.9036
564.4129, 147.3980
564.8950, 147.5461
565.3771, 147.5310
565.8593, 147.4052
566.3414, 147.0213
566.8235, 147.2419
567.3056, 148.3554
567.7877, 149.7983
568.2698, 150.4890
568.7520, 150.4758
569.2341, 150.4710
569.7162, 150.8287
570.1983, 151.3124
570.6804, 151.5078
571.1625, 151.4338
571.6447, 151.2214
572.1268, 150.7734
572.6089, 150.3367
573.0910, 150.2404
573.5731, 150.5814
574.0552, 150.7712
574.5374, 150.3804
575.0195, 149.7921
575.5016, 149.3627
575.9837, 149.3662
576.4658, 149.2735
576.9479, 149.1104
577.4301, 148.7987
577.9122, 148.1348
578.3943, 146.8366
578.8764, 145.7343
579.3585, 145.1240
579.8406, 144.9141
580.3228, 144.4970
580.8049, 143.8728
581.2870, 143.0437
581.7691, 141.8491
582.2512, 140.4233
582.7333, 139.3272
583.2155, 138.6147
583.6975, 138.0094
584.1796, 137.1699
584.6617, 136.2660
585.1439, 135.6004
585.6260, 135.4105
586.1081, 135.1996
586.5902, 134.6096
587.0723, 133.7873
587.5544, 133.0286
588.0366, 132.2375
588.5187, 131.6850
589.0008, 131.6131
589.4829, 131.9804
589.9650, 132.0049
590.4471, 131.4121
590.9293, 130.8246
591.4114, 130.5770
591.8935, 130.7394
592.3756, 130.7359
592.8577, 130.5772
593.3398, 130.2190
593.8220, 129.4146
594.3041, 128.2653
594.7862, 127.6476
595.2683, 127.8727
595.7504, 128.2760
596.2325, 127.9535
596.7147, 127.1122
597.1968, 126.2970
597.6789, 125.6944
598.1610, 125.2455
598.6431, 124.9771
599.1252, 124.8505
599.6074, 124.6817
600.0895, 124.5452
600.5716, 124.2310
601.0537, 123.5497
601.5358, 122.3627
602.0179, 121.4658
602.5001, 121.1010
602.9822, 120.7933
603.4643, 120.1693
603.9464, 119.1192
604.4285, 118.1588
604.9106, 117.3078
605.3928, 116.5604
605.8749, 115.9703
606.3570, 115.5122
606.8391, 114.8810
607.3212, 113.9062
607.8033, 112.8104
608.2855, 111.8356
608.7676, 111.0078
609.2497, 110.3886
609.7318, 110.2500
610.2139, 110.1662
610.6960, 109.8019
611.1782, 109.1462
611.6603, 108.4231
612.1424, 107.5547
612.6245, 106.7500
613.1066, 106.1634
613.5887, 105.9557
614.0709, 105.5928
614.5530, 104.8920
615.0351, 104.1998
615.5172, 103.9203
615.9993, 104.1696
616.4814, 104.3009
616.9636, 104.2191
617.4457, 103.9818
617.9278, 103.6288
618.4099, 103.1787
618.8920, 102.8217
619.3741, 102.5954
619.8563, 102.5294
620.3384, 102.8101
620.8205, 103.3510
621.3026, 103.7229
621.7847, 103.5544
622.2668, 103.2105
622.7490, 102.9119
623.2311, 102.6699
623.7132, 102.5900
624.1953, 102.8078
624.6774, 103.1282
625.1595, 103.4219
625.6417, 103.7150
626.1238, 103.9117
626.6059, 103.9130
627.0880, 103.9276
627.5701, 104.2867
628.0522, 105.0364
628.5344, 105.6784
629.0165, 106.0658
629.4986, 106.3535
629.9807, 106.8744
630.4628, 107.5867
630.9449, 108.2518
631.4271, 108.6944
631.9092, 109.0710
632.3913, 109.5806
632.8734, 110.1968
633.3555, 110.7393
633.8376, 111.0002
634.3198, 111.2550
634.8019, 111.6834
635.2840, 112.3361
635.7661, 112.9928
636.2482, 113.6059
636.7303, 114.2416
637.2125, 114.9577
637.6946, 115.8099
638.1767, 116.5985
638.6588, 117.3230
639.1409, 117.9719
639.6230, 118.4264
640.1052, 118.7140
640.5873, 119.2502
641.0694, 120.2181
641.5515, 121.3417
642.0336, 122.0907
642.5157, 122.6197
642.9979, 123.3981
643.4800, 125.0637
643.9621, 126.7129
644.4442, 127.5414
644.9263, 127.6982
645.4084, 128.0885
645.8906, 129.1964
646.3727, 130.4287
646.8548, 131.4681
647.3369, 132.2424
647.8190, 133.3138
648.3011, 134.7814
648.7833, 136.3857
649.2654, 137.9552
649.7475, 139.5177
650.2296, 140.8841
650.7117, 141.9976
651.1938, 143.1110
651.6760, 144.5466
652.1581, 146.2334
652.6402, 147.9158
653.1223, 149.5392
653.6044, 151.1139
654.0865, 152.5879
654.5687, 154.0565
655.0508, 155.7066
655.5329, 157.9240
656.0150, 160.0337
656.4971, 161.6878
656.9792, 162.9852
657.4614, 164.4720
657.9435, 166.2708
658.4256, 168.1081
658.9077, 169.8329
659.3898, 171.4639
659.8719, 173.5498
660.3541, 176.1802
660.8362, 178.8330
661.3183, 181.1961
661.8004, 183.2847
662.2825, 185.2193
662.7646, 186.9929
663.2468, 188.8486
663.7289, 190.9872
664.2110, 193.3434
664.6931, 195.8673
665.1752, 198.6476
665.6573, 201.3508
666.1395, 203.7932
666.6216, 206.1186
667.1037, 208.5033
667.5858, 211.2290
668.0679, 213.6792
668.5500, 215.6489
669.0322, 217.3752
669.5143, 219.3469
669.9964, 221.6346
670.4785, 223.8569
670.9606, 225.8616
671.4427, 227.7533
671.9249, 229.8499
