##NAMES=Muscovite
##RRUFFID=R050080
##IDEAL CHEMISTRY=KAl_2_(Si_3_Al)O_10_(OH)_2_
##LOCALITY=Brazil
##OWNER=RRUFF
##SOURCE=Rock Currier
##DESCRIPTION=Tan colored micaceous crystals of 2M1 polytype
##STATUS=The identification of this mineral has been confirmed by X-ray diffraction and chemical analysis
##URL=rruff.info/R050080
##MEASURED CHEMISTRY=(K_0.93_Na_0.07_)(Al_0.99_Fe^3+^_0.01_)_2_(Si_3.00_Al_1.00_)O_10_((OH)_0.97_F_0.03_)_2_
176.1783, 35178.65
176.6604, 35288.66
177.1425, 35386.23
177.6246, 35479.32
178.1067, 35567.23
178.5888, 35651.96
179.0710, 35726.86
179.5531, 35798.30
180.0352, 35880.17
180.5173, 35978.45
180.9994, 36085.15
181.4815, 36193.65
181.9637, 36304.20
182.4458, 36395.16
182.9279, 36433.98
183.4100, 36434.42
183.8921, 36448.53
184.3742, 36488.84
184.8564, 36553.41
185.3385, 36645.07
185.8206, 36766.75
186.3027, 36889.20
186.7848, 36968.60
187.2669, 37013.59
187.7491, 37093.27
188.2312, 37253.46
188.7133, 37467.31
189.1954, 37633.83
189.6775, 37745.15
190.1596, 37839.43
190.6418, 37962.80
191.1239, 38114.32
191.6060, 38273.90
192.0881, 38435.50
192.5702, 38598.98
193.0524, 38764.41
193.5345, 38932.70
194.0166, 39099.54
194.4987, 39258.64
194.9808, 39410.52
195.4629, 39547.20
195.9451, 39660.65
196.4272, 39752.67
196.9093, 39838.62
197.3914, 39920.91
197.8735, 39994.11
198.3556, 40044.12
198.8378, 40067.68
199.3199, 40087.84
199.8020, 40129.02
200.2841, 40195.67
200.7662, 40203.07
201.2483, 40124.23
201.7305, 40003.71
202.2126, 39956.55
202.6947, 39997.41
203.1768, 40057.05
203.6589, 40093.64
204.1410, 40102.66
204.6232, 40119.50
205.1053, 40150.19
205.5874, 40189.40
206.0695, 40212.69
206.5516, 40207.56
207.0337, 40219.32
207.5159, 40289.78
207.9980, 40434.25
208.4801, 40555.10
208.9622, 40627.43
209.4443, 40667.21
209.9264, 40757.35
210.4086, 40913.62
210.8907, 41089.29
211.3728, 41253.94
211.8549, 41416.85
212.3370, 41540.57
212.8191, 41614.68
213.3013, 41643.11
213.7834, 41665.64
214.2655, 41688.50
214.7476, 41695.31
215.2297, 41670.93
215.7118, 41609.55
216.1940, 41531.47
216.6761, 41437.39
217.1582, 41327.61
217.6403, 41215.70
218.1224, 41099.51
218.6045, 40985.80
219.0867, 40879.87
219.5688, 40780.16
220.0509, 40694.20
220.5330, 40628.06
221.0151, 40581.29
221.4972, 40534.40
221.9794, 40488.99
222.4615, 40441.27
222.9436, 40382.30
223.4257, 40294.64
223.9078, 40232.38
224.3899, 40217.81
224.8721, 40256.51
225.3542, 40262.00
225.8363, 40206.65
226.3184, 40144.30
226.8005, 40142.82
227.2827, 40234.17
227.7648, 40325.97
228.2469, 40396.43
228.7290, 40443.43
229.2111, 40482.21
229.6932, 40503.27
230.1754, 40523.32
230.6575, 40568.53
231.1396, 40661.21
231.6217, 40738.47
232.1038, 40776.39
232.5859, 40762.87
233.0681, 40776.06
233.5502, 40825.39
234.0323, 40894.41
234.5144, 40960.64
234.9965, 41021.54
235.4786, 41083.55
235.9608, 41152.83
236.4429, 41235.31
236.9250, 41288.30
237.4071, 41276.39
237.8892, 41256.77
238.3713, 41328.14
238.8535, 41548.87
239.3356, 41762.97
239.8177, 41918.26
240.2998, 41998.13
240.7819, 42082.44
241.2640, 42168.54
241.7462, 42261.94
242.2283, 42373.60
242.7104, 42509.89
243.1925, 42653.95
243.6746, 42799.53
244.1567, 42944.17
244.6389, 43100.49
245.1210, 43265.21
245.6031, 43442.97
246.0852, 43639.40
246.5673, 43849.05
247.0494, 44087.26
247.5316, 44369.51
248.0137, 44721.94
248.4958, 45025.54
248.9779, 45243.33
249.4600, 45431.69
249.9421, 45692.00
250.4243, 46052.38
250.9064, 46437.08
251.3885, 46817.36
251.8706, 47185.38
252.3527, 47579.62
252.8348, 47994.04
253.3170, 48437.00
253.7991, 48928.34
254.2812, 49482.93
254.7633, 50046.89
255.2454, 50593.47
255.7275, 51096.15
256.2097, 51669.99
256.6918, 52347.95
257.1739, 53067.90
257.6560, 53723.77
258.1381, 54305.53
258.6202, 54846.12
259.1024, 55362.12
259.5845, 55847.82
260.0666, 56321.09
260.5487, 56818.39
261.0308, 57274.18
261.5129, 57593.58
261.9951, 57775.35
262.4772, 57816.25
262.9593, 57698.80
263.4414, 57397.95
263.9235, 57049.62
264.4056, 56642.92
264.8878, 56194.40
265.3699, 55725.65
265.8520, 55236.74
266.3341, 54715.54
266.8162, 54136.99
267.2983, 53490.88
267.7805, 52886.96
268.2626, 52338.59
268.7447, 51823.21
269.2268, 51291.73
269.7089, 50725.52
270.1910, 50212.07
270.6732, 49789.90
271.1553, 49469.83
271.6374, 49156.36
272.1195, 48847.25
272.6016, 48547.33
273.0837, 48274.46
273.5659, 48028.75
274.0480, 47802.53
274.5301, 47584.19
275.0122, 47373.51
275.4943, 47217.35
275.9764, 47128.04
276.4586, 47070.08
276.9407, 46986.73
277.4228, 46874.51
277.9049, 46776.26
278.3870, 46712.72
278.8691, 46682.52
279.3513, 46656.59
279.8334, 46637.74
280.3155, 46615.98
280.7976, 46575.49
281.2798, 46515.93
281.7619, 46453.08
282.2440, 46381.45
282.7261, 46306.94
283.2082, 46287.63
283.6903, 46336.49
284.1725, 46392.77
284.6546, 46361.50
285.1367, 46247.38
285.6188, 46168.56
286.1009, 46188.11
286.5830, 46278.88
287.0652, 46322.06
287.5473, 46312.83
288.0294, 46282.53
288.5115, 46250.49
288.9936, 46220.32
289.4757, 46223.93
289.9579, 46296.99
290.4400, 46405.24
290.9221, 46444.60
291.4042, 46410.26
291.8863, 46366.90
292.3684, 46377.53
292.8506, 46434.59
293.3327, 46507.69
293.8148, 46609.00
294.2969, 46708.41
294.7790, 46730.94
295.2611, 46676.44
295.7433, 46624.44
296.2254, 46654.27
296.7075, 46742.87
297.1896, 46825.07
297.6717, 46889.23
298.1538, 46933.13
298.6360, 46934.83
299.1181, 46899.13
299.6002, 46882.44
300.0823, 46954.90
300.5644, 47074.07
301.0465, 47156.44
301.5287, 47158.06
302.0108, 47141.82
302.4929, 47187.66
302.9750, 47285.25
303.4571, 47372.65
303.9392, 47389.44
304.4214, 47377.00
304.9035, 47395.96
305.3856, 47479.80
305.8677, 47567.09
306.3498, 47597.02
306.8319, 47582.23
307.3141, 47567.88
307.7962, 47580.05
308.2783, 47605.79
308.7604, 47632.04
309.2425, 47653.13
309.7246, 47680.15
310.2068, 47729.45
310.6889, 47791.50
311.1710, 47842.16
311.6531, 47866.98
312.1352, 47877.77
312.6173, 47874.26
313.0995, 47840.80
313.5816, 47839.32
314.0637, 47927.75
314.5458, 48066.82
315.0279, 48183.20
315.5100, 48242.88
315.9922, 48276.95
316.4743, 48300.18
316.9564, 48313.88
317.4385, 48318.54
317.9206, 48290.57
318.4027, 48259.01
318.8849, 48264.37
319.3670, 48355.87
319.8491, 48452.43
320.3312, 48525.79
320.8133, 48572.20
321.2954, 48606.20
321.7776, 48629.11
322.2597, 48641.96
322.7418, 48645.89
323.2239, 48606.22
323.7060, 48592.40
324.1881, 48637.93
324.6703, 48751.17
325.1524, 48826.16
325.6345, 48815.59
326.1166, 48784.41
326.5987, 48784.92
327.0808, 48851.45
327.5630, 48909.67
328.0451, 48949.70
328.5272, 48972.28
329.0093, 48992.46
329.4914, 49003.63
329.9735, 49017.93
330.4557, 49044.80
330.9378, 49100.13
331.4199, 49139.60
331.9020, 49152.43
332.3841, 49145.66
332.8662, 49151.85
333.3484, 49165.48
333.8305, 49200.32
334.3126, 49274.88
334.7947, 49417.26
335.2768, 49507.22
335.7589, 49522.81
336.2411, 49491.39
336.7232, 49481.12
337.2053, 49496.23
337.6874, 49520.44
338.1695, 49544.20
338.6516, 49565.25
339.1338, 49608.59
339.6159, 49683.81
340.0980, 49766.25
340.5801, 49806.72
341.0622, 49800.73
341.5443, 49798.23
342.0265, 49819.14
342.5086, 49861.78
342.9907, 49917.00
343.4728, 49987.72
343.9549, 50057.70
344.4370, 50107.46
344.9192, 50137.59
345.4013, 50153.17
345.8834, 50138.24
346.3655, 50114.60
346.8476, 50148.93
347.3297, 50242.52
347.8119, 50350.13
348.2940, 50438.22
348.7761, 50507.11
349.2582, 50554.16
349.7403, 50568.36
350.2225, 50572.38
350.7046, 50591.61
351.1867, 50627.01
351.6688, 50684.91
352.1509, 50806.12
352.6331, 50943.56
353.1152, 51018.68
353.5973, 50986.69
354.0794, 50940.01
354.5615, 50961.55
355.0436, 51036.37
355.5258, 51119.02
356.0079, 51176.33
356.4900, 51235.08
356.9721, 51327.98
357.4542, 51476.49
357.9363, 51603.50
358.4185, 51639.65
358.9006, 51627.80
359.3827, 51642.11
359.8648, 51708.75
360.3469, 51811.14
360.8290, 51964.68
361.3112, 52185.63
361.7933, 52347.06
362.2754, 52354.88
362.7575, 52304.05
363.2396, 52297.78
363.7217, 52392.87
364.2039, 52501.25
364.6860, 52607.69
365.1681, 52711.87
365.6502, 52800.57
366.1323, 52853.23
366.6144, 52902.20
367.0966, 52969.99
367.5787, 53061.20
368.0608, 53166.06
368.5429, 53296.25
369.0250, 53444.03
369.5071, 53567.86
369.9893, 53670.19
370.4714, 53745.52
370.9535, 53780.84
371.4356, 53724.96
371.9177, 53750.95
372.3998, 53899.98
372.8820, 54112.70
373.3641, 54248.58
373.8462, 54276.02
374.3283, 54307.98
374.8104, 54391.72
375.2925, 54533.04
375.7747, 54661.37
376.2568, 54766.72
376.7389, 54880.99
377.2210, 55083.62
377.7031, 55387.98
378.1852, 55580.90
378.6674, 55548.84
379.1495, 55356.22
379.6316, 55278.18
380.1137, 55321.42
380.5958, 55424.63
381.0779, 55566.58
381.5601, 55732.70
382.0422, 55833.33
382.5243, 55823.52
383.0064, 55774.29
383.4885, 55815.30
383.9706, 55935.29
384.4528, 56048.32
384.9349, 56072.92
385.4170, 56058.86
385.8991, 56092.21
386.3812, 56193.79
386.8633, 56318.71
387.3455, 56424.14
387.8276, 56520.45
388.3097, 56633.41
388.7918, 56787.62
389.2739, 56955.12
389.7560, 57120.86
390.2382, 57285.44
390.7203, 57426.50
391.2024, 57515.20
391.6845, 57579.05
392.1666, 57650.84
392.6487, 57740.30
393.1309, 57840.17
393.6130, 57946.89
394.0951, 58060.88
394.5772, 58183.68
395.0593, 58334.10
395.5414, 58482.01
396.0236, 58607.14
396.5057, 58697.51
396.9878, 58776.31
397.4699, 58831.69
397.9520, 58874.70
398.4341, 58939.61
398.9163, 59043.02
399.3984, 59151.07
399.8805, 59250.59
400.3626, 59334.88
400.8447, 59433.48
401.3268, 59567.29
401.8090, 59699.81
402.2911, 59780.72
402.7732, 59799.87
403.2553, 59790.52
403.7374, 59751.73
404.2195, 59686.14
404.7017, 59646.38
405.1838, 59640.34
405.6659, 59638.39
406.1480, 59608.82
406.6301, 59550.95
407.1122, 59507.45
407.5944, 59494.43
408.0765, 59491.26
408.5586, 59445.77
409.0407, 59358.47
409.5228, 59261.00
410.0049, 59164.61
410.4871, 59074.88
410.9692, 59014.63
411.4513, 58994.04
411.9334, 58970.43
412.4155, 58876.73
412.8976, 58736.25
413.3798, 58619.97
413.8619, 58588.14
414.3440, 58578.41
414.8261, 58520.94
415.3082, 58414.02
415.7903, 58302.55
416.2725, 58195.63
416.7546, 58107.23
417.2367, 58053.18
417.7188, 58092.85
418.2009, 58109.56
418.6830, 58029.83
419.1652, 57877.36
419.6473, 57742.11
420.1294, 57643.19
420.6115, 57576.35
421.0937, 57546.73
421.5758, 57592.91
422.0579, 57595.66
422.5400, 57496.11
423.0221, 57352.97
423.5042, 57260.98
423.9864, 57273.86
424.4685, 57281.85
424.9506, 57255.75
425.4327, 57191.84
425.9148, 57146.21
426.3969, 57122.80
426.8791, 57113.14
427.3612, 57112.64
427.8433, 57125.88
428.3254, 57136.70
428.8075, 57152.81
429.2896, 57160.91
429.7718, 57094.59
430.2539, 56933.16
430.7360, 56805.24
431.2181, 56810.51
431.7002, 56938.18
432.1823, 57031.16
432.6645, 57079.59
433.1466, 57100.30
433.6287, 57123.11
434.1108, 57141.67
434.5929, 57121.23
435.0750, 57006.40
435.5572, 56861.43
436.0393, 56802.03
436.5214, 56825.81
437.0035, 56882.19
437.4856, 56963.79
437.9677, 57043.63
438.4499, 57080.52
438.9320, 57048.09
439.4141, 56997.51
439.8962, 56947.59
440.3783, 56906.38
440.8604, 56893.23
441.3426, 56958.56
441.8247, 57022.93
442.3068, 57030.52
442.7889, 56958.22
443.2710, 56911.77
443.7531, 56950.41
444.2353, 57017.18
444.7174, 57049.79
445.1995, 56987.85
445.6816, 56947.37
446.1637, 56956.81
446.6458, 57010.89
447.1280, 57056.64
447.6101, 57107.54
448.0922, 57135.20
448.5743, 57112.46
449.0564, 56992.39
449.5385, 56952.57
450.0207, 57024.20
450.5028, 57153.43
450.9849, 57241.35
451.4670, 57282.27
451.9491, 57306.13
452.4312, 57316.79
452.9134, 57317.53
453.3955, 57341.77
453.8776, 57393.75
454.3597, 57438.44
454.8418, 57428.00
455.3239, 57376.95
455.8061, 57348.03
456.2882, 57362.57
456.7703, 57393.73
457.2524, 57391.18
457.7345, 57367.23
458.2166, 57372.71
458.6988, 57471.60
459.1809, 57598.90
459.6630, 57680.96
460.1451, 57706.89
460.6272, 57718.82
461.1093, 57741.56
461.5915, 57766.42
462.0736, 57782.11
462.5557, 57763.24
463.0378, 57755.83
463.5199, 57785.36
464.0020, 57846.36
464.4842, 57897.60
464.9663, 57906.61
465.4484, 57921.07
465.9305, 57968.81
466.4126, 58088.04
466.8947, 58175.38
467.3769, 58214.82
467.8590, 58229.22
468.3411, 58257.43
468.8232, 58310.41
469.3053, 58355.43
469.7874, 58385.61
470.2696, 58400.91
470.7517, 58391.39
471.2338, 58343.18
471.7159, 58312.59
472.1980, 58368.19
472.6801, 58507.37
473.1623, 58599.22
473.6444, 58612.15
474.1265, 58497.75
474.6086, 58654.09
475.0907, 58756.34
475.5728, 58807.39
476.0550, 58653.93
476.5371, 58764.55
477.0192, 58769.34
477.5013, 58769.80
477.9834, 58917.59
478.4655, 58793.88
478.9477, 58939.34
479.4298, 58977.35
479.9119, 59064.53
480.3940, 59045.23
480.8761, 59058.82
481.3582, 59178.93
481.8404, 59240.06
482.3225, 59208.50
482.8046, 59298.81
483.2867, 59171.38
483.7688, 59235.02
484.2509, 59381.10
484.7331, 59369.17
485.2152, 59520.35
485.6973, 59605.69
486.1794, 59596.36
486.6615, 59568.70
487.1436, 59524.79
487.6258, 59470.21
488.1079, 59424.95
488.5900, 59379.00
489.0721, 59371.42
489.5542, 59451.66
490.0363, 59621.44
490.5185, 59701.54
491.0006, 59671.50
491.4827, 59602.53
491.9648, 59583.26
492.4470, 59606.41
492.9291, 59632.39
493.4112, 59639.31
493.8933, 59648.66
494.3754, 59625.11
494.8575, 59772.20
495.3397, 59865.20
495.8218, 59907.01
496.3039, 59744.30
496.7860, 59845.68
497.2681, 59841.22
497.7502, 59832.42
498.2324, 59970.97
498.7145, 59838.01
499.1966, 59974.22
499.6787, 60002.98
500.1608, 60080.91
500.6429, 60052.36
501.1251, 60056.71
501.6072, 60167.57
502.0893, 60219.45
502.5714, 60178.64
503.0535, 60259.70
503.5356, 60151.19
504.0178, 60204.52
504.4999, 60296.54
504.9820, 60392.71
505.4641, 60440.84
505.9462, 60435.73
506.4283, 60407.05
506.9105, 60350.93
507.3926, 60280.52
507.8747, 60248.08
508.3568, 60254.37
508.8389, 60285.02
509.3210, 60344.48
509.8032, 60420.23
510.2853, 60477.81
510.7674, 60511.63
511.2495, 60532.83
511.7316, 60550.41
512.2137, 60563.96
512.6959, 60572.46
513.1780, 60545.67
513.6601, 60538.53
514.1422, 60610.93
514.6243, 60748.43
515.1064, 60851.72
515.5886, 60855.70
516.0707, 60831.95
516.5528, 60821.22
517.0349, 60824.43
517.5170, 60849.44
517.9991, 60909.46
518.4813, 60986.79
518.9634, 61061.14
519.4455, 61141.98
519.9276, 61201.91
520.4097, 61223.93
520.8918, 61217.39
521.3740, 61255.32
521.8561, 61353.70
522.3382, 61443.69
522.8203, 61469.89
523.3024, 61436.91
523.7845, 61428.74
524.2667, 61452.24
524.7488, 61492.25
525.2309, 61540.55
525.7130, 61592.28
526.1951, 61628.04
526.6772, 61624.04
527.1594, 61617.74
527.6415, 61664.88
528.1236, 61752.76
528.6057, 61826.65
529.0878, 61836.13
529.5699, 61831.60
530.0521, 61853.66
530.5342, 61915.08
531.0163, 61969.50
531.4984, 62003.76
531.9805, 62023.31
532.4626, 62034.25
532.9448, 62007.86
533.4269, 62008.77
533.9090, 62053.48
534.3911, 62131.73
534.8732, 62203.31
535.3553, 62271.68
535.8375, 62328.24
536.3196, 62366.31
536.8017, 62385.45
537.2838, 62406.54
537.7659, 62431.27
538.2480, 62453.04
538.7302, 62442.61
539.2123, 62412.06
539.6944, 62460.80
540.1765, 62649.77
540.6586, 62854.84
541.1407, 62885.63
541.6229, 62780.19
542.1050, 62676.59
542.5871, 62643.99
543.0692, 62649.58
543.5513, 62670.61
544.0334, 62705.48
544.5156, 62745.39
544.9977, 62790.24
545.4798, 62836.16
545.9619, 62879.04
546.4440, 62908.25
546.9261, 62949.16
547.4083, 63016.07
547.8904, 63095.00
548.3725, 63158.88
548.8546, 63195.62
549.3367, 63239.24
549.8188, 63308.59
550.3010, 63397.82
550.7831, 63431.33
551.2652, 63395.61
551.7473, 63349.08
552.2294, 63326.52
552.7115, 63327.83
553.1937, 63363.65
553.6758, 63443.03
554.1579, 63522.70
554.6400, 63544.85
555.1221, 63523.31
555.6042, 63495.66
556.0864, 63452.00
556.5685, 63431.33
557.0506, 63490.50
557.5327, 63610.04
558.0148, 63716.88
558.4969, 63771.89
558.9791, 63806.09
559.4612, 63829.98
559.9433, 63837.78
560.4254, 63871.58
560.9075, 63972.32
561.3896, 64083.45
561.8718, 64154.38
562.3539, 64142.06
562.8360, 64165.60
563.3181, 64253.75
563.8002, 64373.12
564.2823, 64436.37
564.7645, 64427.96
565.2466, 64432.91
565.7287, 64503.80
566.2108, 64616.88
566.6929, 64637.83
567.1750, 64562.76
567.6572, 64479.62
568.1393, 64462.37
568.6214, 64490.75
569.1035, 64527.92
569.5856, 64570.25
570.0677, 64613.21
570.5499, 64657.09
571.0320, 64698.72
571.5141, 64733.53
571.9962, 64743.84
572.4783, 64762.88
572.9604, 64814.27
573.4426, 64889.58
573.9247, 64946.23
574.4068, 64960.49
574.8889, 64969.46
575.3710, 64984.29
575.8531, 65002.89
576.3353, 65042.95
576.8174, 65127.31
577.2995, 65198.57
577.7816, 65185.27
578.2637, 65075.73
578.7458, 65011.05
579.2280, 65020.34
579.7101, 65067.09
580.1922, 65074.60
580.6743, 65054.81
581.1564, 65075.11
581.6385, 65221.82
582.1207, 65396.88
582.6028, 65451.14
583.0849, 65399.17
583.5670, 65358.73
584.0491, 65418.79
584.5313, 65505.59
585.0134, 65559.62
585.4955, 65560.09
585.9776, 65566.08
586.4597, 65592.47
586.9418, 65631.99
587.4240, 65678.28
587.9061, 65767.25
588.3882, 65804.27
588.8703, 65752.59
589.3524, 65649.70
589.8345, 65609.59
590.3167, 65645.13
590.7988, 65694.41
591.2809, 65730.64
591.7630, 65758.09
592.2451, 65802.50
592.7272, 65864.88
593.2094, 65920.21
593.6915, 65923.73
594.1736, 65910.27
594.6557, 65958.11
595.1378, 66093.84
595.6199, 66226.95
596.1021, 66273.30
596.5842, 66278.14
597.0663, 66306.17
597.5485, 66420.66
598.0306, 66517.25
598.5127, 66558.52
598.9948, 66553.05
599.4769, 66539.66
599.9590, 66503.29
600.4412, 66480.20
600.9233, 66477.79
601.4054, 66494.74
601.8875, 66560.03
602.3696, 66691.36
602.8517, 66826.51
603.3339, 66903.45
603.8160, 66927.81
604.2981, 66966.35
604.7802, 67029.80
605.2623, 67095.74
605.7444, 67116.00
606.2266, 67113.91
606.7087, 67152.57
607.1908, 67297.39
607.6729, 67448.51
608.1550, 67521.79
608.6371, 67535.08
609.1193, 67549.03
609.6014, 67593.74
610.0835, 67639.46
610.5656, 67661.66
611.0477, 67650.72
611.5298, 67685.41
612.0120, 67805.28
612.4941, 67933.56
612.9762, 68012.22
613.4583, 68016.35
613.9404, 68066.02
614.4225, 68182.09
614.9047, 68315.82
615.3868, 68389.09
615.8689, 68408.04
616.3510, 68446.95
616.8331, 68534.55
617.3152, 68643.73
617.7974, 68743.60
618.2795, 68831.43
618.7616, 68902.05
619.2437, 68939.79
619.7258, 68968.33
620.2079, 68995.82
620.6901, 69023.42
621.1722, 69082.59
621.6543, 69224.43
622.1364, 69373.63
622.6185, 69477.95
623.1006, 69512.50
623.5828, 69551.78
624.0649, 69587.66
624.5470, 69635.71
625.0291, 69723.72
625.5112, 69864.13
625.9933, 69975.70
626.4755, 70036.00
626.9576, 70068.69
627.4397, 70124.52
627.9218, 70199.64
628.4039, 70264.75
628.8860, 70309.18
629.3682, 70333.35
629.8503, 70315.58
630.3324, 70265.34
630.8145, 70253.82
631.2966, 70341.41
631.7787, 70469.36
632.2609, 70612.46
632.7430, 70788.98
633.2251, 70894.27
633.7072, 70866.55
634.1893, 70782.68
634.6714, 70699.93
635.1536, 70596.60
635.6357, 70547.23
636.1178, 70576.90
636.5999, 70642.69
637.0820, 70661.96
637.5641, 70632.34
638.0463, 70610.80
638.5284, 70615.69
639.0105, 70639.81
639.4926, 70686.51
639.9747, 70747.57
640.4568, 70774.93
640.9390, 70702.12
641.4211, 70606.83
641.9032, 70568.48
642.3853, 70592.64
642.8674, 70607.89
643.3495, 70584.63
643.8317, 70543.23
644.3138, 70492.40
644.7959, 70393.77
645.2780, 70368.57
645.7601, 70462.92
646.2422, 70590.13
646.7244, 70645.68
647.2065, 70615.49
647.6886, 70584.88
648.1707, 70571.01
648.6528, 70560.99
649.1349, 70511.05
649.6171, 70431.34
650.0992, 70391.70
650.5813, 70472.27
651.0634, 70581.12
651.5455, 70601.66
652.0276, 70545.91
652.5098, 70477.16
652.9919, 70400.07
653.4740, 70343.05
653.9561, 70330.53
654.4382, 70372.99
654.9203, 70410.07
655.4025, 70448.08
655.8846, 70467.35
656.3667, 70442.73
656.8488, 70333.34
657.3309, 70317.22
657.8130, 70435.82
658.2952, 70584.30
658.7773, 70588.06
659.2594, 70462.95
659.7415, 70408.59
660.2236, 70512.19
660.7057, 70651.64
661.1879, 70622.23
661.6700, 70481.38
662.1521, 70389.68
662.6342, 70467.61
663.1163, 70582.73
663.5984, 70659.91
664.0806, 70700.59
664.5627, 70736.79
665.0448, 70786.27
665.5269, 70822.71
666.0090, 70832.42
666.4911, 70811.23
666.9733, 70795.87
667.4554, 70793.21
667.9375, 70782.67
668.4196, 70725.47
668.9017, 70625.34
669.3839, 70617.28
669.8660, 70727.90
670.3481, 70861.23
670.8302, 70884.41
671.3123, 70847.66
671.7944, 70865.77
