##NAMES=Muscovite
##RRUFFID=R060182
##IDEAL CHEMISTRY=KAl_2_(Si_3_Al)O_10_(OH)_2_
##LOCALITY=Reliance mine, Mica Mountain, Tete Juane Cache, British Columbia, Canada
##OWNER=RRUFF
##SOURCE=Lloyd Twaites
##DESCRIPTION=Pale-yellow transparent mica, polytype 2M1
##STATUS=The identification of this mineral has been confirmed by X-ray diffraction and chemical analysis
##URL=rruff.info/R060182
##MEASURED CHEMISTRY=(K_0.91_Na_0.09_)(Al_0.93_Fe^3+^_0.05_Mg_0.02_)_2_(Si_3.04_Al_0.96_)O_10_(OH)_2_
89.78156, 0.0000000E+00
90.26367, 31.25790
90.74579, 31.40304
91.22791, 31.35757
91.71002, 31.13986
92.19214, 30.90899
92.67426, 30.83319
93.15638, 30.85037
93.63850, 30.80043
94.12061, 30.63433
94.60273, 30.36501
95.08485, 30.00644
95.56696, 29.55627
96.04908, 29.05558
96.53120, 28.47116
97.01331, 27.82461
97.49543, 27.34869
97.97755, 27.17482
98.45966, 27.29296
98.94178, 27.54480
99.42390, 28.01883
99.90602, 28.49485
100.3881, 28.50245
100.8703, 27.92865
101.3524, 27.28150
101.8345, 26.74389
102.3166, 26.26406
102.7987, 26.19181
103.2808, 26.77412
103.7630, 27.77744
104.2451, 28.11515
104.7272, 27.50091
105.2093, 26.60305
105.6914, 25.83347
106.1735, 25.23566
106.6557, 24.69489
107.1378, 24.10031
107.6199, 23.43189
108.1020, 23.26925
108.5841, 24.10463
109.0662, 25.18724
109.5484, 25.85422
110.0305, 25.91535
110.5126, 25.75868
110.9947, 25.40094
111.4768, 24.79342
111.9590, 24.20481
112.4411, 23.45852
112.9232, 22.78818
113.4053, 22.51583
113.8874, 23.00073
114.3695, 23.64063
114.8517, 24.23953
115.3338, 24.81067
115.8159, 25.24135
116.2980, 25.33010
116.7801, 25.25039
117.2622, 25.37772
117.7444, 26.17407
118.2265, 27.03483
118.7086, 27.50202
119.1907, 27.12752
119.6728, 26.88791
120.1549, 27.40217
120.6371, 28.54263
121.1192, 29.79704
121.6013, 30.78099
122.0834, 31.73969
122.5655, 32.98537
123.0476, 35.18567
123.5298, 37.20870
124.0119, 37.45111
124.4940, 36.06918
124.9761, 35.26848
125.4582, 37.40362
125.9404, 41.36892
126.4225, 44.98481
126.9046, 47.24573
127.3867, 48.68802
127.8688, 50.13169
128.3509, 51.58644
128.8331, 52.94770
129.3152, 53.85913
129.7973, 54.47103
130.2794, 55.50490
130.7615, 57.51036
131.2436, 60.23356
131.7258, 62.80739
132.2079, 65.19645
132.6900, 67.44497
133.1721, 69.51677
133.6542, 71.39892
134.1364, 73.45598
134.6185, 75.85381
135.1006, 78.60632
135.5827, 81.78061
136.0648, 85.52269
136.5469, 89.56149
137.0291, 93.35101
137.5112, 96.91286
137.9933, 100.0279
138.4754, 102.4956
138.9575, 104.2009
139.4396, 105.8564
139.9218, 107.5754
140.4039, 109.2950
140.8860, 110.6026
141.3681, 111.2885
141.8502, 111.9201
142.3323, 112.8404
142.8145, 113.9295
143.2966, 115.6698
143.7787, 118.3267
144.2608, 121.9023
144.7429, 125.0263
145.2250, 127.3162
145.7072, 129.5355
146.1893, 132.4895
146.6714, 136.9721
147.1535, 140.9869
147.6356, 143.9346
148.1178, 145.5689
148.5999, 147.7284
149.0820, 150.3148
149.5641, 153.4641
150.0462, 157.3291
150.5283, 163.0588
151.0105, 168.3098
151.4926, 170.7823
151.9747, 171.1287
152.4568, 172.2843
152.9389, 175.1372
153.4210, 178.6162
153.9032, 181.2677
154.3853, 182.7478
154.8674, 183.5606
155.3495, 183.7283
155.8316, 182.8216
156.3137, 182.3198
156.7959, 182.5115
157.2780, 183.2375
157.7601, 184.2026
158.2422, 185.7249
158.7243, 187.1886
159.2065, 188.2736
159.6886, 188.6564
160.1707, 189.1421
160.6528, 190.0226
161.1349, 191.1830
161.6170, 192.3253
162.0992, 193.5281
162.5813, 194.5670
163.0634, 195.2665
163.5455, 195.3155
164.0276, 195.3940
164.5097, 195.7826
164.9919, 196.4456
165.4740, 197.2503
165.9561, 198.3952
166.4382, 199.5337
166.9203, 200.3648
167.4024, 200.7028
167.8846, 200.8206
168.3667, 200.9078
168.8488, 200.9452
169.3309, 200.7974
169.8130, 200.4753
170.2952, 199.8936
170.7773, 198.9416
171.2594, 197.0881
171.7415, 195.2159
172.2236, 194.1744
172.7057, 193.9109
173.1879, 193.6957
173.6700, 192.9839
174.1521, 191.9523
174.6342, 190.9020
175.1163, 189.6699
175.5984, 188.5938
176.0806, 188.2459
176.5627, 188.6277
177.0448, 189.0395
177.5269, 188.8269
178.0090, 188.1697
178.4911, 187.4871
178.9733, 186.8093
179.4554, 186.2675
179.9375, 186.2051
180.4196, 186.6773
180.9017, 187.1220
181.3838, 186.7585
181.8660, 185.8193
182.3481, 185.1136
182.8302, 184.8844
183.3123, 185.1683
183.7944, 186.2422
184.2766, 188.2439
184.7587, 190.3906
185.2408, 191.7310
185.7229, 192.3526
186.2050, 192.8503
186.6871, 193.1448
187.1693, 193.4837
187.6514, 194.8708
188.1335, 197.5053
188.6156, 200.6895
189.0977, 203.5757
189.5798, 206.1566
190.0620, 208.5661
190.5441, 210.9599
191.0262, 213.2915
191.5083, 215.1672
191.9904, 216.4732
192.4725, 217.6033
192.9547, 219.3619
193.4368, 221.7892
193.9189, 224.0578
194.4010, 225.8154
194.8831, 227.0624
195.3652, 227.7648
195.8474, 227.9378
196.3295, 227.5492
196.8116, 226.4298
197.2937, 224.5442
197.7758, 222.3439
198.2579, 219.8841
198.7401, 217.1450
199.2222, 215.0605
199.7043, 213.8831
200.1864, 213.2123
200.6685, 212.1047
201.1507, 210.4833
201.6328, 208.8016
202.1149, 207.3827
202.5970, 206.2711
203.0791, 204.8604
203.5612, 202.8921
204.0434, 200.7677
204.5255, 199.7684
205.0076, 200.1829
205.4897, 200.7306
205.9718, 200.4854
206.4539, 199.2254
206.9361, 198.5393
207.4182, 198.6761
207.9003, 199.4281
208.3824, 200.0966
208.8645, 200.5663
209.3466, 201.2619
209.8288, 202.6113
210.3109, 204.8844
210.7930, 206.5930
211.2751, 207.4324
211.7572, 207.6568
212.2393, 208.2771
212.7215, 209.4648
213.2036, 210.6544
213.6857, 211.5350
214.1678, 212.1418
214.6499, 212.3464
215.1320, 212.2489
215.6142, 211.7312
216.0963, 210.2881
216.5784, 207.8390
217.0605, 204.6501
217.5426, 200.7734
218.0247, 196.0172
218.5069, 191.2578
218.9890, 186.5638
219.4711, 181.9287
219.9532, 177.1788
220.4353, 172.0271
220.9175, 167.1644
221.3996, 163.0433
221.8817, 160.0476
222.3638, 156.8571
222.8459, 153.2240
223.3280, 149.2723
223.8102, 145.9249
224.2923, 143.2748
224.7744, 140.9895
225.2565, 138.8568
225.7386, 136.7594
226.2207, 135.1236
226.7029, 134.1473
227.1850, 133.6865
227.6671, 133.0371
228.1492, 132.0799
228.6313, 131.1035
229.1134, 130.2875
229.5956, 129.6768
230.0777, 129.0771
230.5598, 128.2519
231.0419, 127.3936
231.5240, 127.4810
232.0062, 128.9013
232.4883, 130.7407
232.9704, 132.4494
233.4525, 133.8514
233.9346, 135.4929
234.4167, 137.3573
234.8989, 139.4777
235.3810, 142.0063
235.8631, 145.0434
236.3452, 148.4008
236.8273, 151.9363
237.3094, 155.3023
237.7916, 159.6043
238.2737, 165.2318
238.7558, 171.8755
239.2379, 178.2302
239.7200, 183.5931
240.2021, 189.6196
240.6843, 197.3183
241.1664, 207.3001
241.6485, 217.6086
242.1306, 228.0650
242.6127, 238.8272
243.0948, 250.1050
243.5770, 261.9181
244.0591, 274.2780
244.5412, 287.0274
245.0233, 300.0672
245.5054, 313.9763
245.9876, 329.3656
246.4697, 345.5131
246.9518, 360.5029
247.4339, 373.6411
247.9160, 386.7295
248.3981, 400.4919
248.8803, 415.2453
249.3624, 430.0533
249.8445, 444.5599
250.3266, 459.1924
250.8087, 475.3589
251.2908, 493.7888
251.7730, 512.3378
252.2551, 529.5740
252.7372, 544.3537
253.2193, 561.1174
253.7014, 580.1453
254.1835, 600.8821
254.6657, 621.9655
255.1478, 643.5692
255.6299, 665.2826
256.1120, 687.3368
256.5941, 709.9823
257.0763, 731.7718
257.5584, 753.0807
258.0405, 773.5521
258.5226, 792.3761
259.0047, 810.2731
259.4868, 825.4173
259.9690, 837.2672
260.4511, 846.1002
260.9332, 850.5095
261.4153, 850.7932
261.8974, 846.4532
262.3795, 836.6130
262.8617, 820.6827
263.3438, 800.4466
263.8259, 775.7156
264.3080, 746.1064
264.7901, 715.2669
265.2722, 682.8080
265.7544, 649.5999
266.2365, 617.4203
266.7186, 586.5928
267.2007, 556.0287
267.6828, 525.3835
268.1649, 494.1363
268.6471, 465.4738
269.1292, 439.1254
269.6113, 414.9492
270.0934, 392.8094
270.5755, 372.6322
271.0576, 353.9828
271.5398, 336.8881
272.0219, 321.1897
272.5040, 306.4100
272.9861, 292.6572
273.4682, 279.9573
273.9503, 268.3539
274.4325, 258.0023
274.9146, 248.1954
275.3967, 238.7019
275.8788, 229.5325
276.3610, 221.5449
276.8431, 214.9827
277.3252, 209.0898
277.8073, 203.1944
278.2894, 197.2607
278.7715, 191.7631
279.2537, 186.7381
279.7358, 182.1993
280.2179, 178.1833
280.7000, 174.7433
281.1821, 171.5379
281.6642, 168.2003
282.1464, 164.7277
282.6285, 161.5668
283.1106, 158.8120
283.5927, 156.3931
284.0748, 154.1532
284.5569, 152.0886
285.0391, 150.1492
285.5212, 148.2997
286.0033, 146.5338
286.4854, 144.7688
286.9675, 142.9444
287.4496, 141.1890
287.9318, 139.7629
288.4139, 138.6586
288.8960, 137.7794
289.3781, 137.2314
289.8602, 136.9032
290.3423, 136.1441
290.8245, 134.7874
291.3066, 133.2740
291.7887, 132.3000
292.2708, 131.8285
292.7529, 131.5583
293.2350, 131.5592
293.7172, 131.6532
294.1993, 131.1814
294.6814, 130.0204
295.1635, 128.7281
295.6456, 128.0708
296.1277, 127.9197
296.6099, 127.7410
297.0920, 127.1060
297.5741, 126.3156
298.0562, 126.0638
298.5383, 126.3960
299.0204, 126.8166
299.5026, 126.8395
299.9847, 126.5628
300.4668, 126.2457
300.9489, 126.0099
301.4311, 125.7866
301.9132, 125.3966
302.3953, 124.8503
302.8774, 124.4788
303.3595, 124.6413
303.8416, 125.1460
304.3238, 125.6832
304.8059, 126.3096
305.2880, 126.7631
305.7701, 126.5880
306.2522, 125.8866
306.7343, 125.2949
307.2165, 125.2017
307.6986, 125.4668
308.1807, 125.9680
308.6628, 126.9017
309.1449, 127.6991
309.6270, 127.8486
310.1092, 127.4867
310.5913, 127.0480
311.0734, 126.6733
311.5555, 126.3765
312.0376, 126.1673
312.5197, 126.0336
313.0019, 126.0219
313.4840, 126.2334
313.9661, 126.5833
314.4482, 126.9002
314.9303, 127.2981
315.4124, 127.5088
315.8946, 127.2503
316.3767, 126.3642
316.8588, 125.6560
317.3409, 125.5933
317.8230, 125.8636
318.3051, 126.0541
318.7873, 125.8473
319.2694, 125.7062
319.7515, 126.0119
320.2336, 126.8450
320.7157, 127.1522
321.1978, 126.1618
321.6800, 124.7291
322.1621, 123.6284
322.6442, 123.1745
323.1263, 122.8981
323.6084, 122.8833
324.0905, 123.0845
324.5727, 122.8670
325.0548, 121.5194
325.5369, 120.1269
326.0190, 119.3489
326.5012, 120.1636
326.9833, 120.5132
327.4654, 119.7554
327.9475, 118.2827
328.4296, 117.6976
328.9117, 119.3025
329.3939, 120.6438
329.8760, 120.6276
330.3581, 117.8965
330.8402, 116.3322
331.3223, 116.6479
331.8044, 117.9205
332.2866, 118.2280
332.7687, 116.8384
333.2508, 115.5462
333.7329, 114.9384
334.2150, 115.1613
334.6971, 115.3784
335.1793, 115.6514
335.6614, 115.8618
336.1435, 115.7809
336.6256, 115.1885
337.1077, 114.9042
337.5898, 115.2209
338.0720, 116.1069
338.5541, 116.8251
339.0362, 117.3700
339.5183, 117.7836
340.0004, 118.0942
340.4825, 118.3052
340.9647, 118.4009
341.4468, 118.3099
341.9289, 118.1386
342.4110, 118.2560
342.8931, 118.6861
343.3752, 119.2329
343.8574, 119.7845
344.3395, 120.3417
344.8216, 120.8220
345.3037, 121.1382
345.7858, 121.5258
346.2679, 122.5346
346.7501, 124.1292
347.2322, 125.6143
347.7143, 126.4688
348.1964, 126.9193
348.6785, 127.7223
349.1607, 128.9424
349.6428, 130.3648
350.1249, 131.9435
350.6070, 133.5710
351.0891, 134.9323
351.5713, 135.7136
352.0534, 136.2281
352.5355, 136.9348
353.0176, 137.8220
353.4997, 138.7863
353.9818, 139.5118
354.4640, 140.3062
354.9461, 141.7253
355.4282, 144.3466
355.9103, 147.0913
356.3924, 148.9536
356.8745, 150.1070
357.3567, 151.1950
357.8388, 152.4276
358.3209, 153.8479
358.8030, 155.5925
359.2851, 157.8493
359.7672, 159.9455
360.2494, 161.2194
360.7315, 162.1111
361.2136, 163.4103
361.6957, 165.7140
362.1778, 168.2657
362.6599, 170.7442
363.1421, 173.1268
363.6242, 175.3765
364.1063, 177.5585
364.5884, 179.5775
365.0705, 181.3175
365.5526, 181.9726
366.0348, 183.1549
366.5169, 185.5993
366.9990, 189.2045
367.4811, 192.1899
367.9632, 193.8487
368.4453, 195.2191
368.9275, 196.8840
369.4096, 199.2046
369.8917, 201.3181
370.3738, 203.1187
370.8559, 204.7131
371.3380, 206.3453
371.8202, 207.9065
372.3023, 209.6829
372.7844, 211.9034
373.2665, 214.8427
373.7487, 217.0407
374.2308, 218.2746
374.7129, 218.9932
375.1950, 219.7833
375.6771, 220.6489
376.1592, 221.5846
376.6414, 222.5948
377.1235, 223.6794
377.6056, 224.9256
378.0877, 226.4251
378.5698, 227.8279
379.0519, 228.7139
379.5341, 229.0717
380.0162, 229.7483
380.4983, 230.9353
380.9804, 232.4558
381.4625, 233.8225
381.9446, 235.0576
382.4268, 236.4285
382.9089, 238.3263
383.3910, 240.5128
383.8731, 242.0929
384.3552, 242.8398
384.8373, 243.7027
385.3195, 246.0152
385.8016, 249.3821
386.2837, 252.6907
386.7658, 255.3960
387.2479, 257.7557
387.7300, 259.9777
388.2122, 262.0719
388.6943, 264.4336
389.1764, 267.3748
389.6585, 270.7307
390.1406, 274.2736
390.6227, 278.1280
391.1049, 281.8798
391.5870, 284.9833
392.0691, 287.6860
392.5512, 290.7345
393.0333, 295.0219
393.5154, 299.3820
393.9976, 302.9562
394.4797, 305.3411
394.9618, 307.9373
395.4439, 311.1599
395.9260, 314.8586
396.4081, 318.8175
396.8903, 323.7813
397.3724, 328.2718
397.8545, 331.7901
398.3366, 334.2926
398.8188, 336.7521
399.3009, 338.9792
399.7830, 341.3533
400.2651, 344.1311
400.7472, 347.7955
401.2293, 351.1654
401.7115, 354.3806
402.1936, 357.2615
402.6757, 359.1840
403.1578, 359.7038
403.6399, 360.0297
404.1220, 360.7344
404.6042, 361.9832
405.0863, 362.6484
405.5684, 362.6529
406.0505, 362.1874
406.5326, 361.5799
407.0147, 360.8947
407.4969, 359.4954
407.9790, 356.9852
408.4611, 353.6762
408.9432, 351.0683
409.4253, 349.2925
409.9074, 346.9825
410.3896, 342.6748
410.8717, 336.7938
411.3538, 331.2524
411.8359, 326.4835
412.3180, 321.9059
412.8001, 316.5811
413.2823, 310.7670
413.7644, 305.1024
414.2465, 300.2170
414.7286, 295.5804
415.2107, 290.3233
415.6928, 284.4378
416.1750, 278.4374
416.6571, 272.6437
417.1392, 267.0413
417.6213, 261.4003
418.1034, 255.5513
418.5855, 249.8272
419.0677, 244.5715
419.5498, 239.6501
420.0319, 234.7672
420.5140, 229.6539
420.9961, 224.5809
421.4782, 219.6840
421.9604, 214.9856
422.4425, 210.4893
422.9246, 206.2830
423.4067, 202.3050
423.8889, 198.4133
424.3710, 194.6454
424.8531, 190.9343
425.3352, 187.3441
425.8173, 183.8764
426.2994, 180.3560
426.7816, 176.5762
427.2637, 172.9836
427.7458, 169.9151
428.2279, 167.5664
428.7100, 165.1867
429.1921, 162.7599
429.6743, 160.2761
430.1564, 157.7981
430.6385, 155.3372
431.1206, 152.8345
431.6027, 150.1941
432.0848, 147.4138
432.5670, 145.0139
433.0491, 143.0361
433.5312, 141.2410
434.0133, 139.2935
434.4954, 137.2447
434.9775, 135.4596
435.4597, 134.1120
435.9418, 132.9704
436.4239, 131.7875
436.9060, 130.5359
437.3881, 128.9716
437.8702, 126.6040
438.3524, 123.9498
438.8345, 121.7089
439.3166, 119.9522
439.7987, 118.6214
440.2808, 118.0422
440.7629, 117.7850
441.2451, 117.1876
441.7272, 115.7099
442.2093, 114.0786
442.6914, 112.6914
443.1735, 111.5107
443.6556, 110.2525
444.1378, 108.4757
444.6199, 106.8142
445.1020, 105.7269
445.5841, 105.6632
446.0662, 105.4315
446.5483, 104.8311
447.0305, 103.9808
447.5126, 103.0657
447.9947, 101.9969
448.4768, 100.9925
448.9590, 100.0873
449.4411, 99.28482
449.9232, 98.60636
450.4053, 98.11426
450.8874, 97.64349
451.3695, 97.01783
451.8517, 96.12285
452.3338, 95.61223
452.8159, 95.70378
453.2980, 96.02763
453.7801, 95.72324
454.2622, 94.74213
454.7444, 93.88323
455.2265, 93.60856
455.7086, 93.76646
456.1907, 93.68483
456.6728, 93.34287
457.1549, 93.02506
457.6371, 93.05086
458.1192, 93.29881
458.6013, 93.48168
459.0834, 93.53938
459.5655, 93.48722
460.0476, 93.23771
460.5298, 92.87083
461.0119, 92.63487
461.4940, 92.88052
461.9761, 93.15156
462.4582, 92.94803
462.9403, 92.17591
463.4225, 91.72108
463.9046, 92.36780
464.3867, 93.35023
464.8688, 93.92894
465.3509, 93.48344
465.8330, 93.13465
466.3152, 93.24421
466.7973, 93.65515
467.2794, 93.79544
467.7615, 93.33653
468.2436, 92.89155
468.7257, 92.66293
469.2079, 92.68944
469.6900, 92.78352
470.1721, 93.05772
470.6542, 93.27391
471.1363, 93.11606
471.6184, 92.44262
472.1006, 91.96751
472.5827, 91.86632
473.0648, 92.01244
473.5469, 92.00498
474.0291, 91.82906
474.5112, 91.67846
474.9933, 91.67867
475.4754, 91.80106
475.9575, 91.97897
476.4396, 92.23525
476.9218, 92.35284
477.4039, 91.95718
477.8860, 91.24625
478.3681, 90.70478
478.8502, 90.64875
479.3323, 90.62280
479.8145, 90.00467
480.2966, 88.97891
480.7787, 88.25149
481.2608, 88.60693
481.7429, 89.07879
482.2250, 88.92332
482.7072, 87.94327
483.1893, 87.00414
483.6714, 86.32234
484.1535, 85.86479
484.6356, 85.59495
485.1177, 85.76156
485.5999, 85.82142
486.0820, 85.68633
486.5641, 85.38411
487.0462, 84.98621
487.5283, 84.37440
488.0104, 83.82951
488.4926, 83.49696
488.9747, 83.44198
489.4568, 83.17274
489.9389, 82.60562
490.4210, 81.97883
490.9031, 81.56082
491.3853, 81.35662
491.8674, 81.26195
492.3495, 81.34609
492.8316, 81.42003
493.3137, 80.91788
493.7958, 79.89816
494.2780, 79.04883
494.7601, 78.97260
495.2422, 79.29353
495.7243, 79.23228
496.2064, 78.73576
496.6885, 78.31267
497.1707, 78.63698
497.6528, 79.19855
498.1349, 79.26589
498.6170, 78.28071
499.0992, 77.27451
499.5813, 76.91596
500.0634, 76.96444
500.5455, 76.82401
501.0276, 76.00813
501.5097, 75.22763
501.9919, 74.79714
502.4740, 74.79323
502.9561, 74.76319
503.4382, 74.58534
503.9203, 74.43237
504.4024, 74.44421
504.8846, 74.80114
505.3667, 74.93014
505.8488, 74.66582
506.3309, 74.23779
506.8130, 74.22435
507.2951, 74.76065
507.7773, 75.10369
508.2594, 74.90696
508.7415, 74.27416
509.2236, 73.71867
509.7057, 73.22940
510.1878, 72.95757
510.6700, 73.23222
511.1521, 73.83360
511.6342, 74.08900
512.1163, 73.84981
512.5984, 73.40406
513.0806, 72.90030
513.5627, 72.41993
514.0448, 72.13325
514.5269, 72.16747
515.0090, 72.37648
515.4911, 72.79963
515.9733, 73.37729
516.4554, 73.72604
516.9375, 73.38081
517.4196, 72.99672
517.9017, 72.98477
518.3839, 73.56204
518.8660, 74.09486
519.3481, 74.67149
519.8302, 75.09509
520.3123, 75.09758
520.7944, 74.27454
521.2766, 73.77553
521.7587, 73.84064
522.2408, 74.34924
522.7229, 74.84426
523.2050, 75.31564
523.6871, 75.81617
524.1693, 76.42464
524.6514, 77.11387
525.1335, 77.64907
525.6156, 78.02496
526.0977, 78.29386
526.5798, 78.50468
527.0620, 78.65524
527.5441, 78.73777
528.0262, 78.75261
528.5083, 78.69305
528.9904, 78.34881
529.4725, 77.90986
529.9547, 77.84764
530.4368, 78.61584
530.9189, 79.66017
531.4010, 80.78850
531.8831, 81.98350
532.3652, 82.75148
532.8474, 82.62493
533.3295, 82.25005
533.8116, 82.01879
534.2937, 81.90108
534.7758, 82.07301
535.2579, 82.74881
535.7401, 83.61195
536.2222, 84.19001
536.7043, 84.42227
537.1864, 84.52808
537.6685, 84.50944
538.1506, 84.40805
538.6328, 84.39825
539.1149, 84.47753
539.5970, 84.67176
540.0791, 85.14390
540.5612, 85.78196
541.0433, 85.93815
541.5255, 85.54698
542.0076, 85.09100
542.4897, 85.12048
542.9718, 85.42034
543.4539, 85.54604
543.9360, 85.29357
544.4182, 84.97351
544.9003, 84.78782
545.3824, 84.71866
545.8645, 84.72754
546.3466, 84.82739
546.8287, 84.97453
547.3109, 85.14828
547.7930, 85.34574
548.2751, 85.58658
548.7572, 85.98188
549.2393, 86.33653
549.7214, 86.54994
550.2036, 86.60803
550.6857, 86.52741
551.1678, 86.16140
551.6499, 85.80839
552.1320, 85.94182
552.6141, 86.64243
553.0963, 87.33945
553.5784, 87.99969
554.0605, 88.48926
554.5426, 88.23246
555.0247, 87.28091
555.5068, 86.56547
555.9890, 86.81422
556.4711, 87.61450
556.9532, 88.29716
557.4353, 88.83400
557.9174, 89.25294
558.3995, 89.60908
558.8817, 89.83791
559.3638, 89.85318
559.8459, 89.57101
560.3281, 89.20193
560.8102, 88.63194
561.2923, 88.07388
561.7744, 87.86824
562.2565, 88.41207
562.7386, 88.95035
563.2208, 89.37965
563.7029, 89.69018
564.1850, 89.82207
564.6671, 89.71963
565.1492, 89.53458
565.6313, 89.26537
566.1135, 88.88269
566.5956, 88.91886
567.0777, 89.47536
567.5598, 90.09190
568.0419, 90.25620
568.5240, 90.04337
569.0062, 89.84773
569.4883, 89.75370
569.9704, 89.68987
570.4525, 89.57926
570.9346, 89.42822
571.4167, 89.25893
571.8989, 88.92038
572.3810, 88.69653
572.8631, 88.93551
573.3452, 89.54404
573.8273, 89.90775
574.3094, 89.42551
574.7916, 88.92457
575.2737, 88.92264
575.7558, 89.73439
576.2379, 90.17378
576.7200, 90.02144
577.2021, 89.64577
577.6843, 89.37455
578.1664, 89.28210
578.6485, 89.05108
579.1306, 88.56834
579.6127, 88.01556
580.0948, 87.76192
580.5770, 87.80757
581.0591, 87.92924
581.5412, 88.03218
582.0233, 88.15730
582.5054, 88.45477
582.9875, 88.89256
583.4697, 89.25616
583.9518, 89.39574
