##NAMES=Muscovite
##RRUFFID=R060182
##IDEAL CHEMISTRY=KAl_2_(Si_3_Al)O_10_(OH)_2_
##LOCALITY=Reliance mine, Mica Mountain, Tete Juane Cache, British Columbia, Canada
##OWNER=RRUFF
##SOURCE=Lloyd Twaites
##DESCRIPTION=Pale-yellow transparent mica, polytype 2M1
##STATUS=The identification of this mineral has been confirmed by X-ray diffraction and chemical analysis
##URL=rruff.info/R060182
##MEASURED CHEMISTRY=(K_0.91_Na_0.09_)(Al_0.93_Fe^3+^_0.05_Mg_0.02_)_2_(Si_3.04_Al_0.96_)O_10_(OH)_2_
92.02539, 527.0135
92.50751, 551.1013
92.98962, 566.3115
93.47174, 553.6683
93.95386, 531.2358
94.43597, 513.0610
94.91809, 507.5418
95.40021, 510.1803
95.88232, 503.8164
96.36444, 484.9840
96.84656, 462.1389
97.32867, 433.9621
97.81078, 404.4189
98.29290, 379.6934
98.77502, 364.8721
99.25713, 360.3929
99.73925, 354.7824
100.2214, 350.8438
100.7035, 343.9984
101.1856, 329.6706
101.6677, 308.7952
102.1498, 287.6511
102.6320, 273.6936
103.1141, 268.9041
103.5962, 268.1837
104.0783, 272.1952
104.5604, 279.8271
105.0425, 291.9517
105.5247, 310.2661
106.0068, 327.9393
106.4889, 332.5351
106.9710, 324.4141
107.4531, 310.7392
107.9352, 292.5009
108.4173, 270.4438
108.8995, 248.3142
109.3816, 225.9054
109.8637, 205.3117
110.3458, 188.5308
110.8279, 175.9353
111.3100, 166.2320
111.7922, 158.1883
112.2743, 152.1875
112.7564, 146.7869
113.2385, 141.4334
113.7206, 136.4520
114.2027, 132.1940
114.6849, 128.8644
115.1670, 126.2747
115.6491, 123.8225
116.1312, 121.1820
116.6133, 119.1017
117.0954, 117.8283
117.5776, 117.1525
118.0597, 116.7461
118.5418, 116.3720
119.0239, 116.0244
119.5060, 116.1333
119.9881, 117.3357
120.4703, 118.3110
120.9524, 118.2794
121.4345, 117.3919
121.9166, 116.5294
122.3987, 116.6139
122.8808, 117.8489
123.3630, 118.2946
123.8451, 117.1723
124.3272, 115.6563
124.8093, 115.2185
125.2914, 116.2873
125.7735, 117.2064
126.2557, 115.3272
126.7378, 111.2852
127.2199, 107.9836
127.7020, 106.9717
128.1841, 107.6350
128.6662, 108.0918
129.1483, 108.1819
129.6305, 107.7727
130.1126, 106.8053
130.5947, 105.3070
131.0768, 103.5355
131.5589, 101.5369
132.0410, 99.22814
132.5232, 97.38264
133.0053, 95.99503
133.4874, 95.18032
133.9695, 95.40108
134.4516, 96.62266
134.9337, 98.01220
135.4159, 98.25066
135.8980, 96.63303
136.3801, 95.10191
136.8622, 93.59997
137.3443, 92.28819
137.8264, 91.31802
138.3086, 90.74159
138.7907, 90.48985
139.2728, 90.39135
139.7549, 90.91989
140.2370, 91.05144
140.7191, 90.41809
141.2013, 89.38686
141.6834, 88.51778
142.1655, 88.12976
142.6476, 88.08463
143.1297, 87.76877
143.6118, 87.00031
144.0939, 86.21745
144.5761, 85.59236
145.0582, 85.10479
145.5403, 84.66801
146.0224, 84.28954
146.5045, 83.90018
146.9866, 83.32812
147.4688, 82.42696
147.9509, 81.45777
148.4330, 80.62481
148.9151, 79.91802
149.3972, 79.40704
149.8793, 79.44572
150.3615, 79.64495
150.8436, 79.45437
151.3257, 78.37593
151.8078, 76.93436
152.2899, 76.43745
152.7720, 77.47087
153.2542, 78.44168
153.7363, 78.61223
154.2184, 78.31772
154.7005, 78.06509
155.1826, 78.17876
155.6647, 78.62020
156.1469, 78.99732
156.6290, 79.43791
157.1111, 79.65942
157.5932, 79.49232
158.0753, 79.03906
158.5574, 78.48994
159.0396, 77.96562
159.5217, 77.42848
160.0038, 77.29544
160.4859, 77.81255
160.9680, 78.44792
161.4501, 79.04201
161.9323, 79.55888
162.4144, 80.00081
162.8965, 80.35713
163.3786, 80.59830
163.8607, 80.89242
164.3428, 81.37209
164.8250, 81.81080
165.3071, 82.00547
165.7892, 81.93389
166.2713, 81.77993
166.7534, 81.78091
167.2355, 81.97434
167.7177, 82.03060
168.1998, 81.81712
168.6819, 81.48176
169.1640, 81.20095
169.6461, 81.00599
170.1282, 80.88538
170.6104, 80.93050
171.0925, 81.12174
171.5746, 81.10082
172.0567, 80.60837
172.5388, 79.78242
173.0209, 79.01611
173.5031, 78.36187
173.9852, 77.82055
174.4673, 77.38804
174.9494, 77.05630
175.4315, 76.74203
175.9136, 76.35239
176.3958, 75.89278
176.8779, 75.55947
177.3600, 75.48204
177.8421, 75.46163
178.3242, 75.44089
178.8063, 75.39598
179.2885, 75.25038
179.7706, 74.83963
180.2527, 74.03672
180.7348, 73.53032
181.2169, 73.69600
181.6990, 73.91910
182.1812, 73.85207
182.6633, 73.45432
183.1454, 72.94420
183.6275, 72.60628
184.1096, 72.42855
184.5917, 72.48569
185.0738, 72.78771
185.5560, 73.26151
186.0381, 73.91341
186.5202, 74.72329
187.0023, 75.59092
187.4844, 76.34016
187.9665, 76.88850
188.4487, 77.43922
188.9308, 77.85442
189.4129, 78.33311
189.8950, 79.16198
190.3771, 80.42363
190.8592, 81.80914
191.3414, 82.69303
191.8235, 82.78471
192.3056, 82.91686
192.7877, 83.27878
193.2698, 83.69787
193.7519, 83.90860
194.2341, 83.79076
194.7162, 83.52773
195.1983, 83.53019
195.6804, 83.88200
196.1625, 84.13878
196.6446, 84.24227
197.1268, 84.15482
197.6089, 83.75166
198.0910, 82.90738
198.5731, 81.84903
199.0552, 80.96829
199.5373, 80.30190
200.0195, 79.57206
200.5016, 78.46013
200.9837, 77.08212
201.4658, 76.08092
201.9479, 75.85467
202.4300, 75.88624
202.9122, 75.59159
203.3943, 74.93497
203.8764, 74.17269
204.3585, 73.44164
204.8406, 72.74078
205.3227, 72.19362
205.8048, 71.85005
206.2870, 71.68042
206.7691, 71.71449
207.2512, 71.95119
207.7333, 72.23672
208.2154, 72.40373
208.6975, 72.43025
209.1797, 72.46824
209.6618, 72.43287
210.1439, 72.49320
210.6260, 72.81128
211.1081, 73.39320
211.5902, 74.03923
212.0724, 74.44854
212.5545, 74.46665
213.0366, 74.71765
213.5187, 75.48682
214.0008, 76.30800
214.4829, 76.98605
214.9651, 77.44392
215.4472, 77.63103
215.9293, 77.44550
216.4114, 76.73079
216.8935, 75.93042
217.3756, 75.06196
217.8578, 74.12022
218.3399, 73.08627
218.8220, 71.96510
219.3041, 70.77685
219.7862, 69.56675
220.2683, 68.39211
220.7505, 67.06512
221.2326, 65.44959
221.7147, 63.77917
222.1968, 62.18741
222.6789, 60.72030
223.1610, 59.40618
223.6432, 58.29155
224.1253, 57.45556
224.6074, 56.70149
225.0895, 56.05705
225.5716, 55.47602
226.0537, 54.95006
226.5358, 54.47082
227.0180, 53.96404
227.5001, 53.25666
227.9822, 52.13011
228.4643, 51.58441
228.9464, 52.21582
229.4285, 53.21178
229.9107, 53.68851
230.3928, 53.44251
230.8749, 52.89071
231.3570, 52.54227
231.8391, 52.41853
232.3212, 52.25288
232.8034, 51.81964
233.2855, 51.39478
233.7676, 51.38410
234.2497, 51.90044
234.7318, 52.58944
235.2139, 53.00668
235.6961, 53.19427
236.1782, 53.58937
236.6603, 54.33114
237.1424, 55.33672
237.6245, 56.57638
238.1066, 58.14834
238.5888, 59.63086
239.0709, 60.40686
239.5530, 60.71154
240.0351, 61.33479
240.5172, 62.70815
240.9993, 64.54269
241.4815, 66.24253
241.9636, 67.67833
242.4457, 69.25388
242.9278, 71.45700
243.4099, 74.02099
243.8920, 76.38591
244.3742, 78.14489
244.8563, 79.56474
245.3384, 81.30717
245.8205, 83.54799
246.3026, 85.70744
246.7847, 87.26938
247.2668, 88.55872
247.7490, 90.12281
248.2311, 92.35806
248.7132, 94.94889
249.1953, 97.07841
249.6774, 98.38173
250.1595, 99.97066
250.6417, 102.4209
251.1238, 105.3548
251.6059, 108.2969
252.0880, 111.0147
252.5701, 113.6335
253.0522, 116.4852
253.5344, 119.5322
254.0165, 122.8945
254.4986, 126.5533
254.9807, 130.4994
255.4628, 134.7771
255.9449, 139.4021
256.4271, 144.3110
256.9092, 149.4799
257.3913, 155.2613
257.8734, 160.5693
258.3555, 165.0919
258.8376, 169.1813
259.3198, 173.3308
259.8019, 177.7260
260.2840, 181.8809
260.7661, 184.7329
261.2482, 185.7955
261.7303, 186.3535
262.2125, 187.2557
262.6946, 187.4680
263.1767, 186.0776
263.6588, 182.8073
264.1409, 178.1443
264.6230, 172.8086
265.1052, 166.3593
265.5873, 160.0575
266.0694, 154.0892
266.5515, 148.1990
267.0336, 142.2439
267.5157, 136.1950
267.9979, 130.0821
268.4800, 123.9026
268.9621, 117.4026
269.4442, 111.4874
269.9263, 106.2763
270.4084, 101.4357
270.8906, 96.72004
271.3727, 92.12693
271.8548, 87.89854
272.3369, 84.37118
272.8190, 81.81965
273.3011, 79.15651
273.7833, 76.15035
274.2654, 73.24828
274.7475, 70.67619
275.2296, 68.45617
275.7117, 66.54172
276.1938, 64.91612
276.6760, 63.63603
277.1581, 62.29258
277.6402, 60.71535
278.1223, 59.24044
278.6044, 58.04512
279.0865, 57.09389
279.5686, 56.23723
280.0508, 55.35247
280.5329, 54.43836
281.0150, 53.62755
281.4971, 52.82024
281.9792, 52.18694
282.4613, 51.86799
282.9435, 51.77892
283.4256, 51.71558
283.9077, 51.53828
284.3898, 51.27430
284.8719, 51.18636
285.3540, 51.74999
285.8362, 51.93519
286.3183, 51.28212
286.8004, 50.08086
287.2825, 48.81170
287.7646, 47.69612
288.2467, 46.75202
288.7289, 46.04371
289.2110, 45.72396
289.6931, 45.43132
290.1752, 44.97242
290.6573, 44.54771
291.1394, 44.56318
291.6216, 45.20494
292.1037, 46.04745
292.5858, 46.17640
293.0679, 45.12011
293.5500, 44.26123
294.0321, 43.73259
294.5143, 43.46665
294.9964, 43.48906
295.4785, 43.80317
295.9606, 44.14047
296.4427, 44.09568
296.9248, 43.48186
297.4070, 43.03740
297.8891, 42.90784
298.3712, 42.88527
298.8533, 42.73532
299.3354, 42.43869
299.8175, 42.23839
300.2997, 42.43591
300.7818, 43.12764
301.2639, 43.49585
301.7460, 43.22787
302.2281, 42.88592
302.7102, 42.93503
303.1924, 43.33883
303.6745, 43.63182
304.1566, 43.40404
304.6387, 42.69352
305.1208, 42.32360
305.6029, 42.42143
306.0851, 42.69351
306.5672, 43.13688
307.0493, 43.66140
307.5314, 43.98801
308.0135, 43.91811
308.4956, 43.56149
308.9778, 43.40297
309.4599, 43.42768
309.9420, 43.61915
310.4241, 44.17970
310.9062, 44.88842
311.3883, 45.30105
311.8705, 45.22302
312.3526, 44.79366
312.8347, 44.26114
313.3168, 43.48223
313.7989, 42.93613
314.2810, 42.83702
314.7632, 42.98280
315.2453, 43.10097
315.7274, 43.11545
316.2095, 43.13936
316.6916, 43.37159
317.1737, 43.91150
317.6559, 44.20053
318.1380, 44.02694
318.6201, 43.68309
319.1022, 43.41358
319.5843, 43.25414
320.0664, 43.15566
320.5485, 43.07885
321.0306, 43.02653
321.5128, 42.98363
321.9949, 43.05281
322.4770, 43.04607
322.9591, 42.75111
323.4412, 42.23204
323.9233, 41.80312
324.4055, 41.68867
324.8876, 41.84585
325.3697, 41.94283
325.8518, 42.13517
326.3339, 42.11668
326.8160, 41.51038
327.2982, 40.61245
327.7803, 40.13761
328.2624, 40.49084
328.7445, 41.28051
329.2266, 41.41092
329.7087, 40.43029
330.1909, 39.70517
330.6730, 39.71344
331.1551, 40.03729
331.6372, 40.09862
332.1193, 39.72600
332.6014, 39.22717
333.0836, 39.06976
333.5657, 39.45639
334.0478, 39.57270
334.5299, 39.09163
335.0120, 38.52769
335.4941, 38.35377
335.9763, 38.60052
336.4584, 38.91827
336.9405, 38.98068
337.4226, 38.75970
337.9047, 38.57528
338.3868, 38.37196
338.8690, 38.24863
339.3511, 38.30529
339.8332, 38.49373
340.3153, 38.66565
340.7974, 38.72250
341.2795, 38.68828
341.7617, 38.71692
342.2438, 38.86255
342.7259, 38.99723
343.2080, 39.10446
343.6901, 39.18058
344.1722, 39.22729
344.6544, 39.24609
345.1365, 39.21777
345.6186, 39.08957
346.1007, 38.51210
346.5828, 38.40530
347.0649, 39.12122
347.5471, 40.10885
348.0292, 41.00832
348.5113, 41.69706
348.9934, 42.06655
349.4755, 41.91335
349.9576, 40.99840
350.4398, 40.57148
350.9219, 40.83712
351.4040, 41.31767
351.8861, 41.93325
352.3682, 42.56836
352.8503, 42.99209
353.3325, 43.00367
353.8146, 42.63440
354.2967, 42.37563
354.7788, 42.04036
355.2609, 42.02606
355.7430, 42.63166
356.2252, 43.55461
356.7073, 44.39817
357.1894, 44.97368
357.6715, 45.34142
358.1536, 45.63990
358.6357, 45.63663
359.1179, 45.94094
359.5999, 46.83281
360.0821, 47.85173
360.5642, 48.71935
361.0463, 49.33742
361.5284, 49.62171
362.0105, 49.35686
362.4926, 48.22721
362.9748, 47.79208
363.4569, 48.54384
363.9390, 49.47897
364.4211, 50.22152
364.9032, 50.78377
365.3853, 51.33275
365.8675, 52.01972
366.3496, 52.80852
366.8317, 53.33283
367.3138, 53.21161
367.7959, 53.31142
368.2780, 54.01373
368.7602, 54.96253
369.2423, 55.69461
369.7244, 56.00048
370.2065, 56.09868
370.6886, 56.41285
371.1707, 56.99010
371.6529, 57.67507
372.1350, 58.76289
372.6171, 59.72097
373.0992, 60.09427
373.5813, 59.86990
374.0634, 59.52589
374.5456, 59.53337
375.0277, 59.90425
375.5098, 60.36571
375.9919, 61.07309
376.4740, 61.68610
376.9561, 62.04279
377.4383, 62.19167
377.9204, 62.24430
378.4025, 62.24205
378.8846, 62.20089
379.3667, 62.12609
379.8488, 61.92937
380.3310, 61.93435
380.8131, 62.48920
381.2952, 63.21119
381.7773, 63.69009
382.2594, 63.78841
382.7415, 63.78769
383.2237, 63.96912
383.7058, 64.33212
384.1879, 64.80833
384.6700, 65.52359
385.1521, 66.19639
385.6342, 66.53079
386.1164, 66.54936
386.5985, 66.61406
387.0806, 66.89738
387.5627, 67.37109
388.0448, 68.01844
388.5269, 68.89405
389.0091, 69.74771
389.4912, 70.30095
389.9733, 70.69695
390.4554, 71.26176
390.9375, 72.12964
391.4196, 73.12727
391.9018, 74.16115
392.3839, 75.22035
392.8660, 76.12444
393.3481, 76.65910
393.8302, 77.12854
394.3123, 78.22446
394.7945, 80.24574
395.2766, 81.88450
395.7587, 82.32130
396.2408, 82.11617
396.7229, 82.17354
397.2050, 82.69359
397.6872, 83.49476
398.1693, 84.44139
398.6514, 85.54947
399.1335, 86.57845
399.6156, 87.63106
400.0977, 88.52016
400.5798, 88.91800
401.0620, 88.96671
401.5441, 89.30503
402.0262, 90.38969
402.5083, 92.02900
402.9904, 93.22640
403.4725, 93.96593
403.9547, 94.36440
404.4368, 94.12131
404.9189, 93.66962
405.4010, 93.61327
405.8831, 94.12547
406.3652, 94.83940
406.8474, 95.24177
407.3295, 95.32584
407.8116, 95.04795
408.2937, 93.99436
408.7758, 92.98958
409.2579, 92.66942
409.7401, 92.84892
410.2222, 92.82608
410.7043, 92.04405
411.1864, 90.61294
411.6685, 89.48532
412.1506, 88.98434
412.6328, 88.40797
413.1149, 87.72172
413.5970, 86.87945
414.0791, 85.80718
414.5612, 84.48625
415.0433, 83.02389
415.5255, 81.59203
416.0076, 80.21648
416.4897, 78.75704
416.9718, 77.03784
417.4539, 75.38233
417.9360, 74.00948
418.4182, 72.84993
418.9003, 71.66664
419.3824, 70.23746
419.8645, 68.64670
420.3466, 67.27116
420.8287, 66.24567
421.3109, 65.16821
421.7930, 63.78441
422.2751, 62.31014
422.7572, 60.99633
423.2393, 59.92206
423.7214, 58.97337
424.2036, 58.02117
424.6857, 57.07168
425.1678, 56.25858
425.6499, 55.73406
426.1320, 55.20066
426.6141, 54.34484
427.0963, 53.20792
427.5784, 52.08955
428.0605, 51.09613
428.5426, 50.20329
429.0247, 49.40014
429.5068, 48.68518
429.9890, 47.99235
430.4711, 47.29507
430.9532, 46.58712
431.4353, 45.86373
431.9174, 45.14501
432.3995, 44.37926
432.8817, 43.47199
433.3638, 42.50885
433.8459, 41.65651
434.3280, 40.96807
434.8101, 40.41839
435.2922, 39.98046
435.7744, 39.66565
436.2565, 39.45183
436.7386, 39.53675
437.2207, 39.56380
437.7028, 39.24591
438.1849, 38.62410
438.6671, 37.91267
439.1492, 37.23689
439.6313, 36.61113
440.1134, 36.13906
440.5955, 35.97234
441.0776, 35.77390
441.5598, 35.56207
442.0418, 35.27530
442.5240, 34.77869
443.0061, 34.07214
443.4882, 33.38567
443.9703, 33.06004
444.4524, 33.21363
444.9345, 33.16807
445.4167, 32.58995
445.8988, 32.14153
446.3809, 32.20607
446.8630, 32.56372
447.3451, 32.76756
447.8272, 32.54731
448.3094, 32.05734
448.7915, 31.69533
449.2736, 31.52910
449.7557, 31.29650
450.2378, 30.76986
450.7199, 30.26133
451.2021, 30.05852
451.6842, 30.17257
452.1663, 30.27249
452.6484, 29.99086
453.1305, 29.45071
453.6126, 29.25549
454.0948, 29.58101
454.5769, 29.91962
455.0590, 29.85626
455.5411, 29.57733
456.0232, 29.40409
456.5053, 29.45837
456.9875, 29.56749
457.4696, 29.60330
457.9517, 29.57301
458.4338, 29.49530
458.9159, 29.35110
459.3980, 29.21145
459.8802, 29.21015
460.3623, 29.36146
460.8444, 29.46421
461.3265, 29.47401
461.8086, 29.42579
462.2907, 29.33555
462.7729, 29.21174
463.2550, 29.05830
463.7371, 28.84340
464.2192, 28.62085
464.7013, 28.70687
465.1834, 29.57037
465.6656, 30.12445
466.1477, 29.95793
466.6298, 29.53892
467.1119, 29.38796
467.5940, 29.61723
468.0761, 29.97330
468.5583, 30.16784
469.0404, 30.19525
469.5225, 30.10190
470.0046, 29.66929
470.4867, 29.34261
470.9688, 29.37121
471.4510, 29.57383
471.9331, 29.63346
472.4152, 29.38831
472.8973, 29.00629
473.3794, 28.81249
473.8615, 28.85032
474.3437, 28.89111
474.8258, 28.87328
475.3079, 28.86471
475.7900, 28.91105
476.2721, 29.00819
476.7542, 29.12107
477.2364, 29.31334
477.7185, 29.48896
478.2006, 29.38231
478.6827, 28.94605
479.1648, 28.50618
479.6469, 28.19184
480.1291, 28.00183
480.6112, 27.92124
481.0933, 27.96179
481.5754, 28.07781
482.0575, 28.35136
482.5396, 28.66110
483.0217, 28.77927
483.5038, 28.65884
483.9860, 28.37632
484.4681, 27.92327
484.9502, 27.29768
485.4323, 27.06078
485.9144, 27.71422
486.3965, 28.19977
486.8787, 27.93233
487.3608, 27.20651
487.8429, 26.53702
488.3250, 26.12890
488.8071, 25.94871
489.2892, 25.96293
489.7714, 26.31285
490.2535, 26.50887
490.7356, 26.48390
491.2177, 26.39469
491.6998, 26.29611
492.1819, 26.19990
492.6641, 26.11578
493.1462, 26.05813
493.6283, 25.99960
494.1104, 25.82126
494.5925, 25.40726
495.0746, 25.19033
495.5568, 25.50156
496.0389, 25.88758
496.5210, 25.97999
497.0031, 25.77663
497.4852, 25.63184
497.9673, 25.93426
498.4495, 26.47482
498.9316, 26.65373
499.4137, 26.40527
499.8958, 26.00184
500.3779, 25.49765
500.8600, 24.97021
501.3422, 24.58152
501.8243, 24.38182
502.3064, 24.22606
502.7885, 24.04387
503.2706, 23.85482
503.7527, 23.65385
504.2349, 23.43833
504.7170, 23.35427
505.1991, 23.60291
505.6812, 24.21484
506.1633, 24.49397
506.6454, 24.25241
507.1276, 23.92817
507.6097, 23.57350
508.0918, 23.27099
508.5739, 23.17750
509.0560, 23.34237
509.5381, 23.58669
510.0203, 23.59790
510.5024, 23.24791
510.9845, 23.10496
511.4666, 23.47839
511.9487, 23.75251
512.4308, 23.58411
512.9130, 23.14966
513.3951, 22.80685
513.8772, 22.73163
514.3593, 22.85085
514.8414, 23.05049
515.3235, 23.33824
515.8057, 23.67042
516.2878, 24.20421
516.7699, 24.60265
517.2520, 24.50082
517.7341, 23.96936
518.2162, 23.52345
518.6984, 23.41588
519.1805, 23.48900
519.6626, 23.61747
520.1447, 23.78154
520.6268, 23.74661
521.1089, 23.30219
521.5911, 22.70708
522.0732, 22.59075
522.5553, 23.04865
523.0374, 23.58409
523.5195, 24.33616
524.0016, 24.97762
524.4838, 25.10666
524.9659, 24.79007
525.4480, 24.48074
525.9301, 24.51555
526.4122, 24.81259
526.8943, 24.94647
527.3765, 24.76141
527.8586, 24.62885
528.3407, 24.68851
528.8228, 24.73575
529.3049, 24.52431
529.7870, 24.08142
530.2692, 23.71356
530.7513, 23.67519
531.2334, 23.94108
531.7155, 24.44529
532.1976, 25.41034
532.6797, 26.08842
533.1619, 25.90159
533.6440, 25.39203
534.1261, 25.05201
534.6082, 24.94880
535.0903, 25.05211
535.5724, 25.46275
536.0546, 26.04111
536.5367, 26.47452
537.0188, 26.71560
537.5009, 26.96078
537.9830, 27.42620
538.4651, 28.01255
538.9473, 28.19024
539.4294, 27.49137
539.9115, 27.01133
540.3936, 27.20309
540.8757, 27.70974
541.3578, 28.14379
541.8400, 28.40655
542.3221, 28.53269
542.8042, 28.53654
543.2863, 28.41495
543.7684, 28.37082
544.2505, 28.53843
544.7326, 28.62142
545.2147, 28.47798
545.6968, 28.26561
546.1790, 28.11493
546.6611, 28.07037
547.1432, 28.19381
547.6253, 28.66646
548.1074, 29.44149
548.5895, 29.95419
549.0717, 30.15444
549.5538, 30.15240
550.0359, 29.85579
550.5180, 29.43646
551.0001, 29.15878
551.4822, 29.11426
551.9644, 29.09666
552.4465, 28.92522
552.9286, 28.69819
553.4107, 28.69619
553.8928, 28.98115
554.3749, 29.14737
554.8571, 28.76328
555.3392, 27.85144
555.8213, 27.32860
556.3034, 27.36695
556.7855, 27.52007
557.2676, 27.79172
557.7498, 28.05921
558.2319, 28.17259
558.7140, 28.10374
559.1961, 27.94940
559.6782, 27.83773
560.1603, 27.77300
560.6425, 27.44858
561.1246, 26.52681
561.6067, 25.85280
562.0888, 25.78682
562.5709, 26.02324
563.0530, 26.22290
563.5352, 26.30393
564.0173, 26.39367
564.4994, 26.69153
564.9815, 27.08951
565.4636, 27.16873
565.9457, 26.82446
566.4279, 26.51340
566.9100, 26.59146
567.3921, 26.93686
567.8742, 27.08927
568.3563, 26.91878
568.8384, 26.77366
569.3206, 26.78113
569.8027, 26.87346
570.2848, 27.01594
570.7669, 27.17826
571.2490, 27.24571
571.7311, 27.10008
572.2133, 26.76718
572.6954, 26.53662
573.1775, 26.44877
573.6596, 26.41523
574.1417, 26.43199
574.6238, 26.49015
575.1060, 26.61567
575.5881, 26.79218
576.0702, 26.92518
576.5523, 26.92856
577.0344, 26.82660
577.5165, 26.71145
577.9987, 26.59071
578.4808, 26.41804
578.9629, 26.10169
579.4450, 25.77457
579.9271, 25.62917
580.4092, 25.69032
580.8914, 25.77610
581.3735, 25.85800
581.8556, 25.90499
582.3377, 25.85198
582.8198, 25.71713
583.3019, 25.60137
583.7841, 25.55443
584.2662, 25.58747
584.7483, 25.73779
585.2304, 26.17393
585.7125, 26.44724
586.1946, 26.50881
