##NAMES=Muscovite
##RRUFFID=R060266
##IDEAL CHEMISTRY=KAl_2_(Si_3_Al)O_10_(OH)_2_
##LOCALITY=Bolet, Vasterbotten, Sweden
##OWNER=RRUFF
##SOURCE=Michael Scott
##DESCRIPTION=Pink earthy massive
##STATUS=The identification of this mineral has been made only by X-ray diffraction.
##URL=rruff.info/R060266
##MEASURED CHEMISTRY=(K_0.26_Ca_0.16_Mn_0.05_Na_0.01_)_Σ=0.48_(Al_3.14_Mg_1.75_Fe^3+^_0.11_)_Σ=5_(Si_6.06_Al_1.94_)_Σ=8_O_20_(OH)_4_·3.5H_2_O; H_2_O estimated by difference; (OH) by charge balance 
95.87225, 1463.943
96.35437, 1461.362
96.83649, 1452.216
97.31860, 1440.027
97.80072, 1427.900
98.28284, 1415.648
98.76495, 1402.103
99.24707, 1388.690
99.72919, 1376.345
100.2113, 1363.605
100.6934, 1348.457
101.1755, 1332.202
101.6577, 1317.623
102.1398, 1306.915
102.6219, 1300.212
103.1040, 1296.485
103.5861, 1298.122
104.0682, 1299.722
104.5504, 1298.015
105.0325, 1292.614
105.5146, 1285.611
105.9967, 1279.832
106.4788, 1276.209
106.9609, 1270.907
107.4431, 1262.110
107.9252, 1251.829
108.4073, 1242.439
108.8894, 1234.328
109.3715, 1228.249
109.8536, 1226.189
110.3358, 1229.006
110.8179, 1231.117
111.3000, 1228.839
111.7821, 1222.621
112.2642, 1216.813
112.7463, 1212.732
113.2285, 1210.150
113.7106, 1209.265
114.1927, 1210.661
114.6748, 1212.258
115.1569, 1210.716
115.6390, 1204.356
116.1212, 1199.101
116.6033, 1197.263
117.0854, 1196.977
117.5675, 1196.355
118.0496, 1194.347
118.5317, 1191.451
119.0139, 1190.097
119.4960, 1191.455
119.9781, 1193.307
120.4602, 1196.014
120.9423, 1198.907
121.4244, 1200.989
121.9066, 1201.495
122.3887, 1200.363
122.8708, 1198.260
123.3529, 1193.228
123.8350, 1189.123
124.3171, 1188.638
124.7993, 1191.446
125.2814, 1194.458
125.7635, 1194.423
126.2456, 1190.447
126.7277, 1187.555
127.2098, 1185.617
127.6920, 1184.875
128.1741, 1186.205
128.6562, 1190.161
129.1383, 1194.298
129.6204, 1195.337
130.1025, 1193.686
130.5847, 1191.254
131.0668, 1188.349
131.5489, 1185.167
132.0310, 1182.346
132.5131, 1179.803
132.9952, 1177.985
133.4774, 1177.505
133.9595, 1178.346
134.4416, 1179.068
134.9237, 1178.122
135.4058, 1175.192
135.8879, 1172.829
136.3701, 1172.320
136.8522, 1172.047
137.3343, 1170.776
137.8164, 1168.254
138.2985, 1165.679
138.7806, 1165.445
139.2628, 1170.234
139.7449, 1172.358
140.2270, 1169.118
140.7091, 1164.274
141.1912, 1161.339
141.6733, 1161.905
142.1555, 1164.813
142.6376, 1166.099
143.1197, 1163.995
143.6018, 1162.096
144.0839, 1160.267
144.5660, 1158.923
145.0482, 1158.875
145.5303, 1160.789
146.0124, 1164.243
146.4945, 1166.097
146.9766, 1165.673
147.4587, 1164.716
147.9409, 1163.551
148.4230, 1162.329
148.9051, 1161.652
149.3872, 1162.230
149.8693, 1163.764
150.3514, 1164.390
150.8336, 1163.662
151.3157, 1162.277
151.7978, 1160.624
152.2799, 1158.623
152.7620, 1156.946
153.2441, 1156.450
153.7263, 1156.624
154.2084, 1156.637
154.6905, 1155.998
155.1726, 1155.049
155.6547, 1154.413
156.1368, 1153.805
156.6190, 1154.156
157.1011, 1157.311
157.5832, 1161.678
158.0653, 1164.044
158.5474, 1161.087
159.0295, 1153.403
159.5117, 1149.088
159.9938, 1151.599
160.4759, 1154.322
160.9580, 1154.572
161.4401, 1152.938
161.9222, 1151.401
162.4044, 1151.932
162.8865, 1155.074
163.3686, 1157.093
163.8507, 1158.628
164.3328, 1158.646
164.8149, 1155.533
165.2971, 1149.865
165.7792, 1144.192
166.2613, 1141.523
166.7434, 1143.084
167.2255, 1144.486
167.7076, 1146.638
168.1898, 1148.090
168.6719, 1147.488
169.1540, 1144.667
169.6361, 1140.910
170.1182, 1137.969
170.6003, 1136.199
171.0825, 1134.475
171.5646, 1131.800
172.0467, 1129.526
172.5288, 1129.555
173.0109, 1132.603
173.4930, 1136.968
173.9752, 1140.218
174.4573, 1142.618
174.9394, 1143.591
175.4215, 1141.930
175.9036, 1138.725
176.3857, 1136.446
176.8679, 1135.924
177.3500, 1136.381
177.8321, 1136.943
178.3142, 1137.694
178.7963, 1137.898
179.2784, 1136.728
179.7606, 1134.378
180.2427, 1132.491
180.7248, 1131.573
181.2069, 1131.284
181.6890, 1131.394
182.1711, 1131.904
182.6533, 1132.490
183.1354, 1132.746
183.6175, 1132.589
184.0996, 1132.782
184.5817, 1133.707
185.0638, 1134.938
185.5460, 1136.869
186.0281, 1139.494
186.5102, 1141.243
186.9923, 1139.047
187.4744, 1130.107
187.9565, 1124.810
188.4387, 1126.835
188.9208, 1130.980
189.4029, 1133.686
189.8850, 1133.853
190.3671, 1132.669
190.8492, 1132.320
191.3314, 1132.892
191.8135, 1134.349
192.2956, 1137.558
192.7777, 1141.093
193.2598, 1143.903
193.7419, 1145.540
194.2241, 1145.986
194.7062, 1145.188
195.1883, 1140.990
195.6704, 1138.001
196.1525, 1137.351
196.6346, 1137.637
197.1168, 1137.060
197.5989, 1134.801
198.0810, 1131.649
198.5631, 1129.944
199.0452, 1131.369
199.5273, 1131.925
200.0095, 1129.738
200.4916, 1126.439
200.9737, 1124.642
201.4558, 1125.521
201.9379, 1128.607
202.4200, 1132.996
202.9022, 1140.507
203.3843, 1146.058
203.8664, 1146.671
204.3485, 1143.771
204.8306, 1141.214
205.3127, 1140.587
205.7949, 1141.383
206.2770, 1142.494
206.7591, 1144.491
207.2412, 1145.633
207.7233, 1144.402
208.2054, 1141.156
208.6876, 1138.199
209.1697, 1136.801
209.6518, 1135.890
210.1339, 1133.638
210.6160, 1129.386
211.0981, 1125.528
211.5803, 1124.269
212.0624, 1125.614
212.5445, 1127.265
213.0266, 1128.936
213.5087, 1130.205
213.9908, 1130.729
214.4730, 1130.455
214.9551, 1129.419
215.4372, 1127.354
215.9193, 1124.026
216.4014, 1121.110
216.8836, 1119.274
217.3657, 1117.932
217.8478, 1116.732
218.3299, 1115.594
218.8120, 1114.647
219.2941, 1114.089
219.7763, 1113.970
220.2584, 1114.074
220.7405, 1114.738
221.2226, 1115.355
221.7047, 1115.584
222.1868, 1115.313
222.6690, 1114.505
223.1511, 1112.954
223.6332, 1110.101
224.1153, 1107.771
224.5974, 1106.032
225.0795, 1104.848
225.5617, 1104.331
226.0438, 1104.475
226.5259, 1105.008
227.0080, 1105.500
227.4901, 1106.087
227.9722, 1106.363
228.4544, 1106.464
228.9365, 1106.229
229.4186, 1105.255
229.9007, 1103.532
230.3828, 1101.729
230.8649, 1101.109
231.3471, 1103.224
231.8292, 1103.993
232.3113, 1102.358
232.7934, 1100.111
233.2755, 1098.662
233.7576, 1098.415
234.2398, 1098.869
234.7219, 1099.161
235.2040, 1098.508
235.6861, 1099.261
236.1682, 1103.553
236.6503, 1108.075
237.1325, 1109.523
237.6146, 1107.086
238.0967, 1102.754
238.5788, 1099.398
239.0609, 1097.485
239.5430, 1095.630
240.0252, 1093.605
240.5073, 1091.731
240.9894, 1090.336
241.4715, 1089.490
241.9536, 1089.090
242.4357, 1089.059
242.9179, 1089.480
243.4000, 1089.955
243.8821, 1089.804
244.3642, 1089.992
244.8463, 1092.154
245.3284, 1096.735
245.8106, 1101.337
246.2927, 1102.867
246.7748, 1101.226
247.2569, 1099.658
247.7390, 1099.065
248.2211, 1098.596
248.7033, 1096.641
249.1854, 1092.684
249.6675, 1089.427
250.1496, 1090.702
250.6317, 1095.722
251.1138, 1099.010
251.5960, 1097.785
252.0781, 1094.927
252.5602, 1094.479
253.0423, 1097.165
253.5244, 1100.156
254.0065, 1100.586
254.4887, 1099.308
254.9708, 1098.627
255.4529, 1099.485
255.9350, 1101.111
256.4171, 1102.341
256.8992, 1102.997
257.3813, 1103.920
257.8635, 1106.222
258.3456, 1109.173
258.8277, 1111.555
259.3098, 1112.859
259.7919, 1113.481
260.2740, 1113.692
260.7562, 1113.245
261.2383, 1113.414
261.7204, 1116.390
262.2025, 1120.058
262.6846, 1121.639
263.1667, 1119.785
263.6489, 1116.176
264.1310, 1112.875
264.6131, 1109.780
265.0952, 1107.440
265.5773, 1106.330
266.0594, 1106.046
266.5416, 1106.690
267.0237, 1108.788
267.5058, 1110.503
267.9879, 1108.744
268.4700, 1102.588
268.9521, 1097.290
269.4343, 1094.581
269.9164, 1093.522
270.3985, 1094.024
270.8806, 1096.198
271.3627, 1098.651
271.8448, 1099.818
272.3270, 1099.663
272.8091, 1098.392
273.2912, 1094.750
273.7733, 1090.767
274.2554, 1087.302
274.7375, 1084.545
275.2197, 1083.021
275.7018, 1083.742
276.1839, 1087.124
276.6660, 1089.991
277.1481, 1093.153
277.6302, 1094.658
278.1124, 1092.190
278.5945, 1086.190
279.0766, 1080.267
279.5587, 1078.232
280.0408, 1080.519
280.5229, 1082.751
281.0051, 1085.928
281.4872, 1087.953
281.9693, 1086.816
282.4514, 1083.398
282.9335, 1080.692
283.4156, 1082.094
283.8978, 1087.759
284.3799, 1090.039
284.8620, 1085.436
285.3441, 1080.723
285.8262, 1077.938
286.3083, 1076.857
286.7905, 1076.694
287.2726, 1077.156
287.7547, 1078.090
288.2368, 1077.996
288.7189, 1075.750
289.2010, 1073.754
289.6832, 1072.886
290.1653, 1072.644
290.6474, 1072.290
291.1295, 1071.445
291.6116, 1070.117
292.0938, 1068.132
292.5759, 1063.572
293.0580, 1061.323
293.5401, 1064.452
294.0222, 1069.365
294.5043, 1071.820
294.9865, 1069.870
295.4686, 1065.331
295.9507, 1062.529
296.4328, 1062.006
296.9149, 1062.464
297.3970, 1064.261
297.8792, 1066.505
298.3613, 1068.685
298.8434, 1070.584
299.3255, 1071.837
299.8076, 1071.616
300.2897, 1068.833
300.7719, 1067.041
301.2540, 1067.416
301.7361, 1067.937
302.2182, 1066.941
302.7003, 1064.371
303.1824, 1061.754
303.6646, 1061.122
304.1467, 1063.269
304.6288, 1064.528
305.1109, 1064.123
305.5930, 1063.569
306.0751, 1063.757
306.5573, 1064.517
307.0394, 1064.940
307.5215, 1063.977
308.0036, 1061.432
308.4857, 1060.360
308.9678, 1063.002
309.4500, 1064.958
309.9321, 1064.512
310.4142, 1062.400
310.8963, 1060.124
311.3784, 1058.530
311.8605, 1057.736
312.3427, 1058.735
312.8248, 1064.559
313.3069, 1068.652
313.7890, 1069.095
314.2711, 1067.383
314.7532, 1065.183
315.2354, 1063.257
315.7175, 1061.938
316.1996, 1062.497
316.6817, 1067.913
317.1638, 1070.344
317.6459, 1066.930
318.1281, 1061.608
318.6102, 1057.909
319.0923, 1056.936
319.5744, 1057.311
320.0565, 1056.515
320.5386, 1053.048
321.0208, 1051.997
321.5029, 1055.749
321.9850, 1059.934
322.4671, 1061.734
322.9492, 1060.915
323.4313, 1059.181
323.9135, 1058.403
324.3956, 1058.853
324.8777, 1058.862
325.3598, 1058.784
325.8419, 1057.924
326.3240, 1054.310
326.8062, 1049.435
327.2883, 1047.186
327.7704, 1051.280
328.2525, 1061.195
328.7346, 1067.648
329.2167, 1068.560
329.6989, 1068.029
330.1810, 1066.328
330.6631, 1064.033
331.1452, 1061.860
331.6273, 1060.202
332.1094, 1058.887
332.5916, 1057.296
333.0737, 1054.849
333.5558, 1053.183
334.0379, 1052.725
334.5200, 1052.959
335.0021, 1053.782
335.4843, 1055.106
335.9664, 1056.072
336.4485, 1054.721
336.9306, 1049.367
337.4127, 1046.785
337.8948, 1050.829
338.3770, 1055.252
338.8591, 1056.014
339.3412, 1053.010
339.8233, 1049.188
340.3055, 1047.547
340.7876, 1048.330
341.2697, 1048.891
341.7518, 1049.213
342.2339, 1049.294
342.7160, 1048.773
343.1982, 1047.992
343.6803, 1047.757
344.1624, 1048.813
344.6445, 1050.821
345.1266, 1052.052
345.6087, 1052.176
346.0909, 1052.009
346.5730, 1051.678
347.0551, 1051.321
347.5372, 1051.177
348.0193, 1051.396
348.5014, 1051.677
348.9836, 1051.244
349.4657, 1049.618
349.9478, 1048.902
350.4299, 1050.891
350.9120, 1053.236
351.3941, 1054.128
351.8763, 1053.243
352.3584, 1051.770
352.8405, 1050.446
353.3226, 1049.226
353.8047, 1049.813
354.2868, 1054.602
354.7690, 1058.991
355.2511, 1059.584
355.7332, 1057.063
356.2153, 1054.607
356.6974, 1055.048
357.1795, 1057.341
357.6617, 1056.838
358.1438, 1051.656
358.6259, 1047.550
359.1080, 1049.239
359.5901, 1053.816
360.0722, 1056.513
360.5544, 1054.660
361.0365, 1051.324
361.5186, 1051.324
362.0007, 1055.190
362.4828, 1058.163
362.9649, 1057.536
363.4471, 1055.414
363.9292, 1054.260
364.4113, 1054.513
364.8934, 1054.854
365.3755, 1053.710
365.8576, 1051.538
366.3398, 1051.167
366.8219, 1054.294
367.3040, 1057.841
367.7861, 1058.224
368.2682, 1055.769
368.7503, 1053.575
369.2325, 1052.493
369.7146, 1052.565
370.1967, 1054.579
370.6788, 1059.059
371.1609, 1062.611
371.6430, 1062.018
372.1252, 1058.282
372.6073, 1054.816
373.0894, 1051.111
373.5715, 1048.576
374.0536, 1048.865
374.5357, 1051.601
375.0179, 1054.717
375.5000, 1057.582
375.9821, 1059.819
376.4642, 1060.620
376.9463, 1059.771
377.4284, 1058.258
377.9106, 1055.822
378.3927, 1053.091
378.8748, 1050.984
379.3569, 1049.696
379.8390, 1049.507
380.3211, 1051.295
380.8033, 1055.692
381.2854, 1058.170
381.7675, 1057.219
382.2496, 1055.081
382.7317, 1053.322
383.2138, 1052.078
383.6960, 1050.792
384.1781, 1048.741
384.6602, 1046.152
385.1423, 1046.285
385.6244, 1051.541
386.1065, 1056.276
386.5887, 1058.624
387.0708, 1059.192
387.5529, 1058.812
388.0350, 1057.780
388.5171, 1056.709
388.9992, 1057.007
389.4814, 1060.768
389.9635, 1062.636
390.4456, 1061.460
390.9277, 1059.199
391.4098, 1057.237
391.8919, 1055.870
392.3741, 1054.688
392.8562, 1053.031
393.3383, 1050.479
393.8204, 1050.796
394.3025, 1058.565
394.7846, 1064.274
395.2668, 1062.823
395.7489, 1057.132
396.2310, 1053.091
396.7131, 1054.305
397.1952, 1058.937
397.6773, 1060.341
398.1595, 1055.053
398.6416, 1052.301
399.1237, 1055.097
399.6058, 1059.478
400.0879, 1062.108
400.5700, 1062.209
401.0522, 1061.213
401.5343, 1060.432
402.0164, 1059.620
402.4985, 1060.617
402.9806, 1066.766
403.4627, 1071.592
403.9449, 1071.122
404.4270, 1066.955
404.9091, 1063.486
405.3912, 1063.723
405.8733, 1066.475
406.3554, 1068.091
406.8376, 1068.385
407.3197, 1068.001
407.8018, 1066.650
408.2839, 1065.017
408.7660, 1063.664
409.2481, 1062.630
409.7303, 1062.320
410.2124, 1063.690
410.6945, 1066.579
411.1766, 1068.452
411.6587, 1068.625
412.1408, 1067.766
412.6230, 1066.040
413.1051, 1063.653
413.5872, 1062.231
414.0693, 1063.044
414.5514, 1065.022
415.0335, 1066.723
415.5157, 1068.117
415.9978, 1068.580
416.4799, 1066.823
416.9620, 1063.973
417.4441, 1063.594
417.9262, 1068.735
418.4084, 1072.473
418.8905, 1068.495
419.3726, 1059.981
419.8547, 1055.925
420.3368, 1060.169
420.8189, 1067.415
421.3011, 1068.617
421.7832, 1061.831
422.2653, 1057.678
422.7474, 1059.738
423.2295, 1063.237
423.7116, 1063.848
424.1938, 1061.477
424.6759, 1058.848
425.1580, 1058.059
425.6401, 1059.010
426.1222, 1059.850
426.6043, 1061.674
427.0865, 1062.141
427.5686, 1059.286
428.0507, 1055.144
428.5328, 1052.567
429.0149, 1052.631
429.4970, 1054.274
429.9792, 1055.647
430.4613, 1056.478
430.9434, 1057.654
431.4255, 1060.024
431.9076, 1061.953
432.3897, 1062.414
432.8719, 1061.562
433.3540, 1060.143
433.8361, 1058.600
434.3182, 1057.037
434.8003, 1056.331
435.2824, 1057.933
435.7646, 1058.101
436.2467, 1054.752
436.7288, 1050.247
437.2109, 1047.041
437.6930, 1045.900
438.1751, 1045.963
438.6573, 1046.566
439.1394, 1047.812
439.6215, 1048.047
440.1036, 1046.591
440.5857, 1044.514
441.0678, 1041.963
441.5500, 1039.284
442.0321, 1037.685
442.5142, 1038.522
442.9963, 1040.521
443.4784, 1041.250
443.9605, 1040.550
444.4427, 1039.843
444.9248, 1040.003
445.4069, 1040.496
445.8890, 1040.413
446.3711, 1039.631
446.8532, 1038.519
447.3354, 1037.045
447.8175, 1035.418
448.2996, 1033.980
448.7817, 1032.749
449.2638, 1032.128
449.7459, 1033.089
450.2281, 1035.758
450.7102, 1036.216
451.1923, 1032.204
451.6744, 1027.820
452.1565, 1025.223
452.6386, 1024.387
453.1208, 1025.031
453.6029, 1027.166
454.0850, 1030.148
454.5671, 1032.199
455.0492, 1033.718
455.5313, 1033.589
456.0135, 1030.481
456.4956, 1026.616
456.9777, 1023.325
457.4598, 1021.042
457.9419, 1020.032
458.4240, 1020.705
458.9062, 1023.093
459.3883, 1025.225
459.8704, 1027.732
460.3525, 1029.206
460.8346, 1029.560
461.3167, 1028.637
461.7989, 1025.540
462.2810, 1019.853
462.7631, 1014.171
463.2452, 1013.193
463.7273, 1017.985
464.2094, 1021.108
464.6916, 1020.775
465.1737, 1019.244
465.6558, 1017.289
466.1379, 1015.184
466.6200, 1013.593
467.1021, 1012.948
467.5843, 1013.018
468.0664, 1013.913
468.5485, 1015.986
469.0306, 1016.164
469.5127, 1011.224
469.9948, 1004.659
470.4770, 1002.194
470.9591, 1004.995
471.4412, 1008.224
471.9233, 1009.664
472.4054, 1009.862
472.8875, 1009.631
473.3697, 1009.090
473.8518, 1008.599
474.3339, 1008.678
474.8160, 1009.271
475.2981, 1008.751
475.7802, 1006.399
476.2624, 1003.722
476.7445, 1000.514
477.2266, 997.5794
477.7087, 996.8947
478.1908, 999.2775
478.6729, 1002.590
479.1551, 1002.843
479.6372, 998.0118
480.1193, 994.7961
480.6014, 993.9000
481.0835, 993.7344
481.5656, 993.5869
482.0478, 993.4113
482.5299, 993.4918
483.0120, 994.1144
483.4941, 994.9490
483.9762, 994.6390
484.4583, 992.5839
484.9405, 990.6072
485.4226, 988.6273
485.9047, 987.1486
486.3868, 986.7887
486.8689, 987.5430
487.3510, 988.5848
487.8332, 989.3885
488.3153, 989.9286
488.7974, 990.0506
489.2795, 989.6424
489.7616, 989.0717
490.2437, 988.7925
490.7259, 988.4318
491.2080, 987.1630
491.6901, 984.1232
492.1722, 981.5897
492.6543, 982.2809
493.1364, 984.8485
493.6186, 984.6827
494.1007, 979.9521
494.5828, 975.1606
495.0649, 976.2303
495.5470, 983.9442
496.0291, 988.3138
496.5113, 987.0463
496.9934, 984.2142
497.4755, 981.7307
497.9576, 979.6124
498.4397, 977.5381
498.9218, 975.3750
499.4040, 973.1043
499.8861, 970.5854
500.3682, 966.4333
500.8503, 964.7692
501.3324, 968.0252
501.8145, 971.3883
502.2967, 971.6073
502.7788, 969.1730
503.2609, 966.5713
503.7430, 965.4484
504.2251, 965.5702
504.7072, 966.0973
505.1894, 967.1603
505.6715, 968.3397
506.1536, 971.3197
506.6357, 973.2079
507.1178, 970.4730
507.5999, 963.0238
508.0821, 956.3172
508.5642, 954.5970
509.0463, 956.7197
509.5284, 959.8992
510.0105, 964.4786
510.4926, 967.8873
510.9748, 968.1284
511.4569, 966.0934
511.9390, 963.9069
512.4211, 961.1058
512.9032, 959.2277
513.3853, 960.1157
513.8674, 962.1400
514.3495, 962.1154
514.8317, 959.3342
515.3138, 956.2119
515.7959, 955.3166
516.2780, 956.8591
516.7601, 957.3781
517.2422, 955.0269
517.7244, 953.8851
518.2065, 956.6495
518.6886, 961.0415
519.1707, 963.8151
519.6528, 963.8156
520.1349, 962.1259
520.6171, 960.4782
521.0992, 959.2915
521.5813, 956.4374
522.0634, 948.1629
522.5455, 942.0163
523.0276, 942.1957
523.5098, 946.2778
523.9919, 949.5817
524.4740, 949.9399
524.9561, 948.9894
525.4382, 948.8187
525.9203, 949.4261
526.4025, 951.3005
526.8846, 956.1989
527.3667, 960.1463
527.8488, 957.7915
528.3309, 950.3282
528.8130, 945.6229
529.2952, 948.7296
529.7773, 953.4525
530.2594, 953.7383
530.7415, 950.3663
531.2236, 947.3666
531.7057, 946.4530
532.1879, 947.0585
532.6700, 948.2468
533.1521, 950.7736
533.6342, 952.0981
534.1163, 951.6689
534.5984, 950.4553
535.0806, 948.5734
535.5627, 946.4316
536.0448, 944.6751
536.5269, 943.6254
537.0090, 943.5767
537.4911, 945.9523
537.9733, 953.4551
538.4554, 957.3792
538.9375, 954.4254
539.4196, 949.6670
539.9017, 944.8973
540.3839, 940.8956
540.8660, 939.2738
541.3481, 942.2086
541.8302, 947.5822
542.3123, 950.7941
542.7944, 951.7365
543.2766, 951.3221
543.7587, 948.6173
544.2408, 945.8199
544.7229, 946.5829
545.2050, 951.4401
545.6871, 954.9661
546.1693, 954.5207
546.6514, 952.3036
547.1335, 950.0782
547.6156, 948.2160
548.0977, 947.7480
548.5798, 949.6171
549.0620, 952.8257
549.5441, 954.0034
550.0262, 949.5741
550.5083, 947.8905
550.9904, 951.3610
551.4725, 955.7778
551.9547, 958.6514
552.4368, 959.4920
552.9189, 958.1938
553.4010, 954.1940
553.8831, 948.5433
554.3652, 945.6763
554.8474, 946.5259
555.3295, 947.8514
555.8116, 949.8960
556.2937, 951.3952
556.7758, 950.9608
557.2579, 948.6974
557.7401, 946.6520
558.2222, 945.9014
558.7043, 946.1866
559.1864, 947.5984
559.6685, 950.1339
560.1506, 951.5068
560.6328, 950.1614
561.1149, 947.3861
561.5970, 946.1456
562.0791, 947.0902
562.5612, 947.1760
563.0433, 945.3055
563.5255, 942.7598
564.0076, 940.4987
564.4897, 938.5717
564.9718, 936.3851
565.4539, 933.3991
565.9360, 930.4083
566.4182, 930.3796
566.9003, 936.1281
567.3824, 939.5211
567.8645, 938.8376
568.3466, 936.9357
568.8287, 935.4453
569.3109, 934.3745
569.7930, 932.9747
570.2751, 930.4758
570.7572, 927.6589
571.2393, 926.3680
571.7214, 926.7370
572.2036, 927.0389
572.6857, 926.7593
573.1678, 926.1507
573.6499, 925.2357
574.1320, 924.0228
574.6141, 923.6600
575.0963, 925.5539
575.5784, 927.5524
576.0605, 927.9207
576.5426, 926.7767
577.0247, 924.4129
577.5068, 920.7881
577.9890, 917.1961
578.4711, 916.2991
578.9532, 920.1468
579.4353, 921.4364
579.9174, 918.1743
580.3995, 914.6909
580.8817, 912.7628
581.3638, 912.2231
581.8459, 912.7894
582.3280, 914.4909
582.8101, 915.9009
583.2922, 913.9381
583.7744, 908.2297
584.2565, 904.7996
584.7386, 905.3826
585.2207, 907.0297
585.7029, 907.7720
586.1850, 907.9056
586.6671, 908.2139
587.1492, 909.3315
587.6313, 910.0702
588.1135, 909.2599
588.5956, 907.4406
589.0777, 905.6006
589.5598, 903.9616
590.0419, 903.2772
