##NAMES=Muscovite
##RRUFFID=R040108
##IDEAL CHEMISTRY=KAl_2_(Si_3_Al)O_10_(OH)_2_
##LOCALITY=USSR
##OWNER=RRUFF
##SOURCE=University of Arizona Mineral Museum
##DESCRIPTION=Dark green hexagonal tablet
##STATUS=The identification of this mineral has been confirmed by X-ray diffraction and chemical analysis
##URL=rruff.info/R040108
##MEASURED CHEMISTRY=(K_0.96_Na_0.04_)_Σ=1_(Al_1.48_Fe^3+^_0.20_Mg_0.16_Fe^2+^_0.14_Ti_0.02_)_Σ=2_(Si_3.28_Al_0.72_)_Σ=4_O_10_(OH)_2_; OH estimated by charge balance
120.1184, 871.2241
120.6006, 922.4899
121.0827, 968.6251
121.5648, 1012.169
122.0469, 1060.246
122.5290, 1120.731
123.0111, 1187.127
123.4933, 1251.242
123.9754, 1309.860
124.4575, 1366.325
124.9396, 1421.016
125.4217, 1473.965
125.9038, 1534.283
126.3860, 1601.909
126.8681, 1660.060
127.3502, 1708.230
127.8323, 1765.275
128.3144, 1821.659
128.7965, 1853.648
129.2787, 1859.086
129.7608, 1856.260
130.2429, 1872.139
130.7250, 1903.243
131.2071, 1921.707
131.6892, 1903.349
132.1714, 1855.354
132.6535, 1823.086
133.1356, 1812.086
133.6177, 1814.016
134.0998, 1812.210
134.5819, 1806.192
135.0640, 1798.785
135.5462, 1790.275
136.0283, 1780.031
136.5104, 1775.436
136.9925, 1779.304
137.4746, 1790.020
137.9567, 1797.636
138.4389, 1803.895
138.9210, 1804.309
139.4031, 1791.143
139.8852, 1758.755
140.3673, 1732.862
140.8494, 1721.738
141.3316, 1727.798
141.8137, 1730.737
142.2958, 1728.832
142.7779, 1725.641
143.2600, 1710.569
143.7421, 1727.967
144.2243, 1737.392
144.7064, 1739.272
145.1885, 1711.011
145.6706, 1721.671
146.1527, 1716.734
146.6348, 1711.156
147.1170, 1727.295
147.5991, 1703.418
148.0812, 1719.212
148.5633, 1719.170
149.0454, 1726.375
149.5275, 1717.887
150.0097, 1716.861
150.4918, 1733.728
150.9739, 1740.497
151.4560, 1727.401
151.9381, 1708.804
152.4202, 1696.140
152.9024, 1695.286
153.3845, 1695.346
153.8666, 1694.010
154.3487, 1690.808
154.8308, 1687.736
155.3129, 1685.545
155.7950, 1683.501
156.2772, 1680.646
156.7593, 1679.656
157.2414, 1675.632
157.7235, 1664.524
158.2056, 1638.556
158.6877, 1621.922
159.1699, 1627.230
159.6520, 1647.157
160.1341, 1663.907
160.6162, 1671.186
161.0983, 1673.765
161.5804, 1674.611
162.0626, 1673.691
162.5447, 1672.124
163.0268, 1668.455
163.5089, 1663.605
163.9910, 1662.695
164.4731, 1672.631
164.9553, 1685.880
165.4374, 1695.155
165.9195, 1695.747
166.4016, 1693.334
166.8837, 1691.091
167.3658, 1689.040
167.8480, 1686.036
168.3301, 1674.503
168.8122, 1662.442
169.2943, 1661.947
169.7764, 1698.250
170.2585, 1737.403
170.7407, 1742.318
171.2228, 1704.488
171.7049, 1667.860
172.1870, 1673.297
172.6691, 1708.184
173.1512, 1740.788
173.6334, 1749.499
174.1155, 1748.092
174.5976, 1755.477
175.0797, 1777.169
175.5618, 1800.898
176.0439, 1813.528
176.5260, 1816.728
177.0082, 1817.938
177.4903, 1820.021
177.9724, 1823.835
178.4545, 1830.792
178.9366, 1841.048
179.4187, 1854.946
179.9009, 1874.256
180.3830, 1898.883
180.8651, 1924.040
181.3472, 1947.282
181.8293, 1968.514
182.3114, 1986.661
182.7936, 1999.667
183.2757, 2010.248
183.7578, 2027.283
184.2399, 2051.374
184.7220, 2072.162
185.2041, 2071.649
185.6863, 2054.329
186.1684, 2046.465
186.6505, 2065.285
187.1326, 2102.481
187.6147, 2128.358
188.0968, 2141.950
188.5790, 2148.522
189.0611, 2154.968
189.5432, 2161.104
190.0253, 2164.401
190.5074, 2164.357
190.9895, 2160.775
191.4717, 2151.435
191.9538, 2135.103
192.4359, 2115.383
192.9180, 2098.246
193.4001, 2083.711
193.8822, 2070.329
194.3644, 2058.048
194.8465, 2046.826
195.3286, 2033.306
195.8107, 2015.907
196.2928, 1997.280
196.7749, 1984.889
197.2570, 1979.559
197.7392, 1975.650
198.2213, 1968.594
198.7034, 1957.999
199.1855, 1949.589
199.6676, 1944.773
200.1497, 1942.494
200.6319, 1937.365
201.1140, 1927.767
201.5961, 1920.379
202.0782, 1924.990
202.5603, 1944.980
203.0424, 1954.508
203.5246, 1944.396
204.0067, 1917.219
204.4888, 1898.544
204.9709, 1889.216
205.4530, 1886.650
205.9352, 1891.249
206.4173, 1906.906
206.8994, 1913.490
207.3815, 1901.003
207.8636, 1868.822
208.3457, 1852.291
208.8279, 1856.331
209.3100, 1869.191
209.7921, 1874.446
210.2742, 1869.852
210.7563, 1864.230
211.2384, 1859.933
211.7206, 1856.568
212.2027, 1857.365
212.6848, 1864.495
213.1669, 1873.867
213.6490, 1877.740
214.1311, 1874.510
214.6133, 1869.593
215.0954, 1863.783
215.5775, 1854.772
216.0596, 1853.806
216.5417, 1863.933
217.0238, 1880.541
217.5059, 1893.715
217.9881, 1904.709
218.4702, 1910.003
218.9523, 1906.249
219.4344, 1888.070
219.9165, 1876.575
220.3986, 1875.719
220.8808, 1881.611
221.3629, 1879.806
221.8450, 1864.992
222.3271, 1850.725
222.8092, 1845.605
223.2913, 1855.406
223.7735, 1860.500
224.2556, 1857.910
224.7377, 1849.040
225.2198, 1841.757
225.7019, 1835.148
226.1840, 1831.091
226.6662, 1831.897
227.1483, 1842.584
227.6304, 1846.979
228.1125, 1840.426
228.5946, 1824.380
229.0767, 1812.689
229.5589, 1794.883
230.0410, 1784.958
230.5231, 1797.924
231.0052, 1805.151
231.4873, 1806.949
231.9694, 1787.055
232.4516, 1795.171
232.9337, 1792.063
233.4158, 1788.494
233.8979, 1800.552
234.3800, 1783.813
234.8621, 1795.097
235.3443, 1803.404
235.8264, 1811.674
236.3085, 1819.722
236.7906, 1831.212
237.2727, 1849.656
237.7548, 1868.359
238.2369, 1879.573
238.7191, 1877.453
239.2012, 1877.603
239.6833, 1882.292
240.1654, 1890.951
240.6475, 1909.203
241.1296, 1942.197
241.6118, 1980.758
242.0939, 2012.699
242.5760, 2032.543
243.0581, 2055.102
243.5402, 2084.336
244.0223, 2120.516
244.5045, 2160.305
244.9866, 2203.615
245.4687, 2250.639
245.9508, 2301.650
246.4329, 2356.704
246.9150, 2415.659
247.3972, 2477.716
247.8793, 2540.443
248.3614, 2614.388
248.8435, 2701.523
249.3256, 2799.192
249.8077, 2902.124
250.2899, 3013.472
250.7720, 3125.716
251.2541, 3235.231
251.7362, 3337.081
252.2183, 3451.006
252.7004, 3578.514
253.1826, 3716.072
253.6647, 3856.850
254.1468, 4003.107
254.6289, 4148.853
255.1110, 4293.282
255.5931, 4438.059
256.0753, 4579.044
256.5574, 4720.431
257.0395, 4857.995
257.5216, 4981.651
258.0037, 5093.816
258.4858, 5189.431
258.9680, 5265.308
259.4501, 5320.905
259.9322, 5361.633
260.4143, 5391.165
260.8964, 5404.059
261.3785, 5386.871
261.8607, 5335.673
262.3428, 5262.949
262.8249, 5171.907
263.3070, 5061.336
263.7891, 4938.096
264.2712, 4800.177
264.7534, 4652.855
265.2355, 4516.212
265.7176, 4396.947
266.1997, 4269.815
266.6818, 4116.032
267.1639, 3925.638
267.6461, 3751.938
268.1282, 3596.716
268.6103, 3459.136
269.0924, 3336.923
269.5745, 3233.951
270.0566, 3137.833
270.5387, 3040.680
271.0208, 2941.317
271.5030, 2849.627
271.9851, 2766.375
272.4672, 2690.692
272.9493, 2620.759
273.4314, 2556.982
273.9135, 2498.188
274.3957, 2445.498
274.8778, 2399.681
275.3599, 2353.894
275.8420, 2307.803
276.3241, 2261.633
276.8062, 2215.085
277.2884, 2167.541
277.7705, 2122.764
278.2526, 2082.934
278.7347, 2048.151
279.2168, 2016.524
279.6989, 1987.661
280.1811, 1961.696
280.6632, 1938.220
281.1453, 1917.300
281.6274, 1898.075
282.1095, 1879.558
282.5916, 1861.768
283.0738, 1848.201
283.5559, 1840.901
284.0380, 1835.091
284.5201, 1819.349
285.0022, 1793.017
285.4843, 1768.247
285.9665, 1752.240
286.4486, 1744.408
286.9307, 1739.988
287.4128, 1739.877
287.8949, 1740.719
288.3770, 1736.152
288.8592, 1726.331
289.3413, 1715.774
289.8234, 1709.439
290.3055, 1705.393
290.7876, 1691.795
291.2697, 1664.150
291.7519, 1635.250
292.2340, 1628.159
292.7161, 1641.128
293.1982, 1654.671
293.6803, 1658.497
294.1624, 1654.322
294.6446, 1645.875
295.1267, 1631.970
295.6088, 1618.428
296.0909, 1614.141
296.5730, 1617.835
297.0551, 1622.509
297.5373, 1624.596
298.0194, 1624.878
298.5015, 1624.662
298.9836, 1623.877
299.4657, 1623.318
299.9478, 1626.078
300.4300, 1630.427
300.9121, 1630.622
301.3942, 1616.458
301.8763, 1598.505
302.3584, 1594.800
302.8405, 1608.911
303.3227, 1626.013
303.8048, 1632.310
304.2869, 1630.585
304.7690, 1627.990
305.2511, 1627.039
305.7332, 1627.544
306.2154, 1629.635
306.6975, 1633.463
307.1796, 1637.652
307.6617, 1641.392
308.1438, 1644.628
308.6259, 1647.393
309.1081, 1648.757
309.5901, 1650.180
310.0723, 1652.611
310.5544, 1656.063
311.0365, 1660.971
311.5186, 1672.525
312.0007, 1684.885
312.4828, 1689.347
312.9650, 1672.584
313.4471, 1654.563
313.9292, 1649.331
314.4113, 1658.377
314.8934, 1665.791
315.3755, 1661.941
315.8577, 1652.974
316.3398, 1646.141
316.8219, 1642.516
317.3040, 1642.567
317.7861, 1650.302
318.2682, 1665.913
318.7504, 1673.458
319.2325, 1653.914
319.7146, 1629.806
320.1967, 1622.461
320.6788, 1660.675
321.1609, 1692.599
321.6431, 1699.745
322.1252, 1682.563
322.6073, 1669.122
323.0894, 1668.577
323.5715, 1671.790
324.0536, 1672.004
324.5358, 1665.621
325.0179, 1659.056
325.5000, 1652.149
325.9821, 1645.236
326.4642, 1641.365
326.9464, 1647.437
327.4285, 1652.109
327.9106, 1648.595
328.3927, 1622.508
328.8748, 1606.761
329.3569, 1607.547
329.8391, 1621.423
330.3212, 1631.355
330.8033, 1636.297
331.2854, 1638.483
331.7675, 1638.867
332.2496, 1636.453
332.7318, 1634.324
333.2139, 1633.250
333.6960, 1632.480
334.1781, 1629.382
334.6602, 1622.624
335.1423, 1615.780
335.6245, 1609.717
336.1066, 1602.911
336.5887, 1602.133
337.0708, 1609.138
337.5529, 1620.829
338.0350, 1631.054
338.5172, 1640.117
338.9993, 1646.868
339.4814, 1650.943
339.9635, 1652.282
340.4456, 1649.430
340.9277, 1639.779
341.4099, 1630.474
341.8920, 1633.956
342.3741, 1651.148
342.8562, 1669.949
343.3383, 1687.154
343.8204, 1702.249
344.3026, 1710.573
344.7847, 1710.928
345.2668, 1708.911
345.7489, 1712.417
346.2310, 1720.581
346.7131, 1724.972
347.1953, 1718.494
347.6774, 1707.180
348.1595, 1709.297
348.6416, 1725.273
349.1237, 1743.336
349.6058, 1751.034
350.0880, 1751.729
350.5700, 1754.974
351.0522, 1764.823
351.5343, 1777.865
352.0164, 1791.357
352.4985, 1804.883
352.9806, 1814.000
353.4627, 1809.689
353.9449, 1800.176
354.4270, 1798.804
354.9091, 1813.752
355.3912, 1830.665
355.8733, 1835.290
356.3554, 1830.247
356.8376, 1826.033
357.3197, 1824.513
357.8018, 1828.531
358.2839, 1842.954
358.7660, 1875.486
359.2481, 1903.202
359.7303, 1907.284
360.2124, 1897.336
360.6945, 1894.567
361.1766, 1918.365
361.6587, 1943.958
362.1408, 1956.207
362.6230, 1949.616
363.1051, 1942.904
363.5872, 1940.902
364.0693, 1942.272
364.5514, 1945.040
365.0335, 1951.489
365.5157, 1956.820
365.9978, 1957.075
366.4799, 1949.394
366.9620, 1951.252
367.4441, 1972.581
367.9262, 2000.558
368.4084, 2022.210
368.8905, 2035.874
369.3726, 2044.851
369.8547, 2046.937
370.3368, 2042.168
370.8189, 2043.259
371.3011, 2055.021
371.7832, 2067.939
372.2653, 2074.864
372.7474, 2072.723
373.2295, 2071.127
373.7116, 2070.371
374.1938, 2071.032
374.6759, 2076.638
375.1580, 2089.729
375.6401, 2102.153
376.1222, 2107.811
376.6043, 2105.151
377.0865, 2106.878
377.5686, 2115.231
378.0507, 2126.785
378.5328, 2132.884
379.0149, 2132.783
379.4970, 2135.176
379.9792, 2146.309
380.4613, 2165.051
380.9434, 2179.640
381.4255, 2189.451
381.9076, 2197.040
382.3897, 2204.779
382.8719, 2212.899
383.3540, 2222.578
383.8361, 2236.709
384.3182, 2252.143
384.8003, 2261.085
385.2824, 2263.357
385.7646, 2265.661
386.2467, 2274.318
386.7288, 2287.287
387.2109, 2300.398
387.6930, 2311.268
388.1751, 2322.961
388.6573, 2340.471
389.1394, 2362.745
389.6215, 2382.738
390.1036, 2391.666
390.5857, 2398.331
391.0678, 2412.459
391.5499, 2441.814
392.0320, 2468.883
392.5142, 2478.536
392.9963, 2478.476
393.4784, 2487.078
393.9605, 2523.128
394.4426, 2560.649
394.9247, 2586.054
395.4069, 2595.711
395.8890, 2599.544
396.3711, 2586.624
396.8532, 2572.509
397.3353, 2578.740
397.8174, 2630.655
398.2996, 2680.857
398.7817, 2718.316
399.2638, 2742.072
399.7459, 2758.381
400.2280, 2755.835
400.7101, 2753.896
401.1923, 2769.790
401.6744, 2814.004
402.1565, 2856.749
402.6386, 2895.406
403.1207, 2929.740
403.6028, 2956.620
404.0850, 2971.374
404.5671, 2988.056
405.0492, 3018.361
405.5313, 3066.003
406.0134, 3104.098
406.4955, 3128.486
406.9777, 3144.666
407.4598, 3162.457
407.9419, 3181.889
408.4240, 3203.625
408.9061, 3226.453
409.3882, 3251.336
409.8704, 3286.936
410.3525, 3336.142
410.8346, 3382.854
411.3167, 3406.491
411.7988, 3411.248
412.2809, 3413.749
412.7631, 3418.346
413.2452, 3425.461
413.7273, 3436.110
414.2094, 3450.183
414.6915, 3465.985
415.1736, 3491.634
415.6558, 3515.499
416.1379, 3518.591
416.6200, 3482.877
417.1021, 3446.602
417.5842, 3443.886
418.0663, 3463.194
418.5485, 3470.236
419.0306, 3437.633
419.5127, 3395.810
419.9948, 3364.683
420.4769, 3351.896
420.9590, 3336.589
421.4412, 3310.001
421.9233, 3277.991
422.4054, 3248.222
422.8875, 3223.471
423.3696, 3200.071
423.8517, 3179.916
424.3339, 3164.741
424.8160, 3138.651
425.2981, 3097.778
425.7802, 3049.208
426.2623, 2996.001
426.7444, 2927.270
427.2266, 2875.433
427.7087, 2850.451
428.1908, 2844.593
428.6729, 2824.342
429.1550, 2786.038
429.6371, 2742.318
430.1193, 2698.411
430.6014, 2653.606
431.0835, 2615.831
431.5656, 2587.052
432.0477, 2562.008
432.5298, 2530.714
433.0119, 2493.200
433.4940, 2460.186
433.9762, 2438.197
434.4583, 2423.803
434.9404, 2406.423
435.4225, 2385.934
435.9046, 2364.061
436.3867, 2342.857
436.8689, 2321.618
437.3510, 2298.859
437.8331, 2273.518
438.3152, 2247.412
438.7973, 2221.387
439.2794, 2195.927
439.7616, 2172.791
440.2437, 2155.125
440.7258, 2139.294
441.2079, 2122.621
441.6900, 2104.948
442.1721, 2085.608
442.6543, 2057.648
443.1364, 2029.272
443.6185, 2012.503
444.1006, 2026.121
444.5827, 2037.742
445.0648, 2034.983
445.5470, 2016.538
446.0291, 1999.421
446.5112, 1985.540
446.9933, 1973.680
447.4754, 1962.627
447.9576, 1949.908
448.4397, 1942.225
448.9218, 1943.186
449.4039, 1949.258
449.8860, 1948.270
450.3681, 1937.025
450.8503, 1925.085
451.3324, 1915.884
451.8145, 1909.127
452.2966, 1909.920
452.7787, 1922.446
453.2608, 1933.776
453.7430, 1920.326
454.2251, 1882.390
454.7072, 1856.376
455.1893, 1858.766
455.6714, 1879.186
456.1535, 1890.909
456.6357, 1894.042
457.1178, 1891.671
457.5999, 1881.076
458.0820, 1867.339
458.5641, 1861.389
459.0462, 1866.627
459.5284, 1876.800
460.0105, 1890.282
460.4926, 1904.224
460.9747, 1911.253
461.4568, 1900.361
461.9389, 1886.488
462.4211, 1879.841
462.9032, 1881.428
463.3853, 1886.415
463.8674, 1901.808
464.3495, 1915.467
464.8316, 1915.854
465.3138, 1880.983
465.7959, 1854.119
466.2780, 1848.128
466.7601, 1859.414
467.2422, 1865.666
467.7243, 1866.416
468.2065, 1862.152
468.6886, 1852.238
469.1707, 1833.654
469.6528, 1818.255
470.1349, 1806.745
470.6170, 1798.009
471.0992, 1789.867
471.5813, 1781.462
472.0634, 1777.701
472.5455, 1782.404
473.0276, 1792.887
473.5097, 1794.216
473.9918, 1785.516
474.4739, 1774.443
474.9561, 1766.090
475.4382, 1760.453
475.9203, 1758.454
476.4024, 1761.385
476.8845, 1764.917
477.3666, 1762.769
477.8488, 1756.332
478.3309, 1750.167
478.8130, 1746.659
479.2951, 1744.577
479.7772, 1743.281
480.2593, 1742.745
480.7415, 1741.140
481.2236, 1734.821
481.7057, 1728.042
482.1878, 1725.092
482.6699, 1736.111
483.1520, 1741.144
483.6342, 1730.128
484.1163, 1707.896
484.5984, 1690.604
485.0805, 1683.425
485.5626, 1679.127
486.0447, 1675.157
486.5269, 1671.616
487.0090, 1668.101
487.4911, 1664.687
487.9732, 1661.307
488.4553, 1658.378
488.9374, 1657.124
489.4196, 1652.021
489.9017, 1639.341
490.3838, 1622.613
490.8659, 1617.500
491.3480, 1625.409
491.8301, 1635.349
492.3123, 1641.409
492.7944, 1643.658
493.2765, 1641.818
493.7586, 1635.151
494.2407, 1627.504
494.7228, 1622.935
495.2050, 1621.116
495.6871, 1621.173
496.1692, 1626.834
496.6513, 1631.452
497.1334, 1626.302
497.6155, 1612.819
498.0977, 1601.513
498.5798, 1598.363
499.0619, 1599.970
499.5440, 1604.441
500.0261, 1614.242
500.5082, 1620.787
500.9904, 1619.878
501.4725, 1614.444
501.9546, 1609.290
502.4367, 1601.546
502.9188, 1597.903
503.4009, 1600.764
503.8831, 1610.250
504.3652, 1619.785
504.8473, 1631.877
505.3294, 1640.517
505.8115, 1639.311
506.2936, 1624.498
506.7758, 1617.429
507.2579, 1622.333
507.7400, 1632.198
508.2221, 1633.605
508.7042, 1626.531
509.1863, 1617.230
509.6685, 1607.699
510.1506, 1598.138
510.6327, 1588.675
511.1148, 1579.363
511.5969, 1571.362
512.0790, 1562.741
512.5612, 1556.824
513.0433, 1560.045
513.5254, 1577.599
514.0075, 1596.776
514.4896, 1607.101
514.9717, 1612.136
515.4539, 1619.706
515.9360, 1641.204
516.4181, 1658.647
516.9002, 1659.931
517.3823, 1642.550
517.8644, 1632.571
518.3466, 1637.814
518.8287, 1649.730
519.3108, 1662.425
519.7929, 1679.287
520.2750, 1691.314
520.7571, 1697.738
521.2393, 1699.269
521.7214, 1696.541
522.2035, 1687.623
522.6856, 1680.548
523.1677, 1677.516
523.6498, 1678.710
524.1320, 1688.290
524.6141, 1707.762
525.0962, 1726.179
525.5783, 1729.386
526.0604, 1722.587
526.5425, 1726.340
527.0247, 1748.646
527.5068, 1772.667
527.9889, 1778.335
528.4710, 1769.952
528.9531, 1759.073
529.4352, 1745.677
529.9174, 1736.312
530.3995, 1737.880
530.8816, 1750.462
531.3637, 1762.895
531.8458, 1741.482
532.3279, 1773.365
532.8101, 1794.328
533.2922, 1804.952
533.7743, 1774.281
534.2564, 1796.934
534.7385, 1798.218
535.2206, 1798.625
535.7027, 1828.783
536.1848, 1804.119
536.6669, 1833.805
537.1490, 1841.796
537.6312, 1814.020
538.1133, 1822.709
538.5954, 1838.202
539.0775, 1839.591
539.5596, 1828.382
540.0417, 1819.298
540.5239, 1814.253
541.0060, 1810.799
541.4881, 1804.021
541.9702, 1795.741
542.4523, 1791.686
542.9344, 1797.494
543.4166, 1806.669
543.8987, 1813.182
544.3808, 1817.379
544.8629, 1821.465
545.3450, 1831.462
545.8271, 1838.688
546.3093, 1835.125
546.7914, 1812.781
547.2735, 1796.473
547.7556, 1795.320
548.2377, 1801.860
548.7198, 1805.868
549.2020, 1805.120
549.6841, 1804.594
550.1662, 1805.258
550.6483, 1806.792
551.1304, 1807.536
551.6125, 1807.424
552.0947, 1806.542
552.5768, 1804.278
553.0589, 1800.675
553.5410, 1798.899
554.0231, 1799.083
554.5052, 1800.674
554.9874, 1805.978
555.4695, 1812.583
555.9516, 1811.501
556.4337, 1794.020
556.9158, 1776.161
557.3979, 1779.322
557.8801, 1797.413
558.3622, 1810.761
558.8443, 1803.148
559.3264, 1792.523
559.8085, 1792.126
560.2906, 1804.378
560.7728, 1812.930
561.2549, 1812.219
561.7370, 1806.854
562.2191, 1800.548
562.7012, 1794.267
563.1833, 1785.374
563.6655, 1768.996
564.1476, 1752.053
564.6297, 1752.367
565.1118, 1777.186
565.5939, 1795.677
566.0760, 1795.962
566.5582, 1780.887
567.0403, 1764.142
567.5224, 1745.233
568.0045, 1732.633
568.4866, 1738.945
568.9688, 1756.668
569.4509, 1765.421
569.9330, 1760.387
570.4151, 1754.326
570.8972, 1760.344
571.3793, 1773.374
571.8615, 1784.662
572.3436, 1791.724
572.8257, 1795.445
573.3078, 1793.787
573.7899, 1788.234
574.2720, 1786.070
574.7542, 1790.166
575.2363, 1796.904
575.7184, 1806.320
576.2005, 1821.286
576.6826, 1826.377
577.1647, 1816.053
577.6469, 1802.267
578.1290, 1797.046
578.6111, 1801.574
579.0932, 1807.340
579.5753, 1813.220
580.0574, 1819.677
580.5396, 1828.744
581.0217, 1840.111
581.5038, 1849.313
581.9859, 1851.677
582.4680, 1851.482
582.9501, 1856.962
583.4323, 1847.827
583.9144, 1878.107
584.3965, 1897.464
584.8786, 1906.485
585.3607, 1874.210
585.8428, 1895.259
586.3250, 1894.941
586.8071, 1893.744
587.2892, 1922.298
587.7713, 1896.031
588.2534, 1924.114
588.7355, 1930.500
589.2177, 1946.818
589.6998, 1941.634
590.1819, 1943.089
590.6640, 1966.054
591.1461, 1977.110
591.6282, 1969.449
592.1104, 1986.399
592.5925, 1959.380
593.0746, 1970.942
593.5567, 1999.151
594.0388, 1973.773
594.5209, 1965.174
595.0031, 1961.962
595.4852, 1966.114
595.9673, 1975.095
596.4494, 1993.015
596.9315, 2013.539
597.4136, 2024.333
597.8958, 2008.001
598.3779, 1992.959
598.8600, 1991.388
599.3421, 2002.605
599.8242, 2017.865
600.3063, 2043.113
600.7885, 2065.811
601.2706, 2079.741
601.7527, 2082.814
602.2348, 2087.856
602.7169, 2095.706
603.1990, 2104.052
603.6812, 2110.923
604.1633, 2116.250
604.6454, 2118.308
605.1275, 2114.964
605.6096, 2111.607
606.0917, 2120.722
606.5739, 2138.723
607.0560, 2151.123
607.5381, 2147.497
608.0202, 2136.917
608.5023, 2125.469
608.9844, 2114.150
609.4666, 2108.993
609.9487, 2119.702
610.4308, 2132.712
610.9129, 2138.922
611.3950, 2135.271
611.8771, 2131.886
612.3593, 2131.407
612.8414, 2130.973
613.3235, 2128.098
613.8056, 2122.168
614.2877, 2115.102
