##NAMES=Muscovite
##RRUFFID=R040104
##IDEAL CHEMISTRY=KAl_2_(Si_3_Al)O_10_(OH)_2_
##LOCALITY=unknown
##OWNER=RRUFF
##SOURCE=University of Arizona Mineral Museum
##DESCRIPTION=Dark green hexagonal tablet
##STATUS=The identification of this mineral has been confirmed by X-ray diffraction and chemical analysis
##URL=rruff.info/R040104
##MEASURED CHEMISTRY=(K_0.91_Na_0.09_)_Σ=1_(Al_1.70_Fe^3+^_0.14_Mg_0.08_Fe^2+^_0.06_Ti_0.02_)_Σ=2_(Si_3.12_Al_0.88_)_Σ=4_O_10_(OH)_2_; OH estimated by charge balance
136.0283, 4550.822
136.5104, 4569.552
136.9925, 4616.126
137.4746, 4686.181
137.9567, 4749.655
138.4389, 4810.092
138.9210, 4859.634
139.4031, 4882.827
139.8852, 4868.015
140.3673, 4869.797
140.8494, 4908.644
141.3316, 4992.872
141.8137, 5057.625
142.2958, 5097.548
142.7779, 5125.284
143.2600, 5162.479
143.7421, 5208.841
144.2243, 5264.975
144.7064, 5333.343
145.1885, 5433.810
145.6706, 5510.059
146.1527, 5553.515
146.6348, 5572.068
147.1170, 5598.155
147.5991, 5639.400
148.0812, 5680.992
148.5633, 5713.817
149.0454, 5719.439
149.5275, 5738.173
150.0097, 5782.059
150.4918, 5851.603
150.9739, 5900.034
151.4560, 5901.540
151.9381, 5893.571
152.4202, 5906.400
152.9024, 5956.941
153.3845, 6012.887
153.8666, 6072.866
154.3487, 6140.325
154.8308, 6190.166
155.3129, 6193.352
155.7950, 6182.721
156.2772, 6203.149
156.7593, 6305.982
157.2414, 6407.833
157.7235, 6471.112
158.2056, 6468.578
158.6877, 6475.963
159.1699, 6517.134
159.6520, 6582.963
160.1341, 6651.209
160.6162, 6728.692
161.0983, 6798.166
161.5804, 6848.396
162.0626, 6867.369
162.5447, 6878.111
163.0268, 6888.104
163.5089, 6897.227
163.9910, 6904.413
164.4731, 6910.198
164.9553, 6913.391
165.4374, 6912.805
165.9195, 6904.561
166.4016, 6894.849
166.8837, 6889.431
167.3658, 6888.252
167.8480, 6881.225
168.3301, 6858.109
168.8122, 6825.518
169.2943, 6793.489
169.7764, 6772.583
170.2585, 6750.434
170.7407, 6712.711
171.2228, 6655.468
171.7049, 6598.666
172.1870, 6556.808
172.6691, 6527.418
173.1512, 6505.046
173.6334, 6496.500
174.1155, 6489.675
174.5976, 6465.281
175.0797, 6413.756
175.5618, 6361.720
176.0439, 6338.422
176.5260, 6340.015
177.0082, 6348.708
177.4903, 6352.177
177.9724, 6354.817
178.4545, 6365.885
178.9366, 6391.440
179.4187, 6421.933
179.9009, 6440.055
180.3830, 6447.129
180.8651, 6458.599
181.3472, 6486.329
181.8293, 6528.868
182.3114, 6581.058
182.7936, 6646.299
183.2757, 6718.215
183.7578, 6787.581
184.2399, 6853.742
184.7220, 6916.799
185.2041, 6965.556
185.6863, 7005.386
186.1684, 7065.438
186.6505, 7171.819
187.1326, 7308.982
187.6147, 7426.374
188.0968, 7523.822
188.5790, 7604.768
189.0611, 7674.664
189.5432, 7733.027
190.0253, 7780.040
190.5074, 7813.379
190.9895, 7834.218
191.4717, 7853.636
191.9538, 7872.756
192.4359, 7890.724
192.9180, 7909.501
193.4001, 7930.322
193.8822, 7940.337
194.3644, 7929.442
194.8465, 7898.473
195.3286, 7864.695
195.8107, 7830.032
196.2928, 7793.545
196.7749, 7753.327
197.2570, 7709.831
197.7392, 7660.732
198.2213, 7601.058
198.7034, 7529.257
199.1855, 7464.751
199.6676, 7409.034
200.1497, 7362.301
200.6319, 7329.562
201.1140, 7315.021
201.5961, 7300.477
202.0782, 7263.670
202.5603, 7198.385
203.0424, 7151.759
203.5246, 7141.101
204.0067, 7161.462
204.4888, 7161.249
204.9709, 7132.715
205.4530, 7099.499
205.9352, 7093.340
206.4173, 7124.750
206.8994, 7139.492
207.3815, 7111.613
207.8636, 7039.522
208.3457, 7012.407
208.8279, 7043.549
209.3100, 7101.262
209.7921, 7142.078
210.2742, 7161.514
210.7563, 7177.680
211.2384, 7197.213
211.7206, 7221.893
212.2027, 7238.957
212.6848, 7246.866
213.1669, 7248.524
213.6490, 7251.256
214.1311, 7260.929
214.6133, 7258.013
215.0954, 7233.313
215.5775, 7183.580
216.0596, 7124.526
216.5417, 7053.557
217.0238, 6974.681
217.5059, 6899.513
217.9881, 6840.946
218.4702, 6762.003
218.9523, 6635.556
219.4344, 6433.794
219.9165, 6266.881
220.3986, 6149.993
220.8808, 6068.805
221.3629, 5967.444
221.8450, 5829.258
222.3271, 5696.454
222.8092, 5593.840
223.2913, 5536.859
223.7735, 5474.598
224.2556, 5401.193
224.7377, 5318.424
225.2198, 5240.214
225.7019, 5163.757
226.1840, 5094.216
226.6662, 5033.750
227.1483, 4981.622
227.6304, 4941.136
228.1125, 4914.961
228.5946, 4901.954
229.0767, 4886.220
229.5589, 4862.963
230.0410, 4842.689
230.5231, 4834.691
231.0052, 4846.760
231.4873, 4856.304
231.9694, 4859.290
232.4516, 4855.811
232.9337, 4853.840
233.4158, 4847.843
233.8979, 4849.130
234.3800, 4869.650
234.8621, 4918.185
235.3443, 4970.107
235.8264, 5021.669
236.3085, 5072.946
236.7906, 5121.646
237.2727, 5157.803
237.7548, 5199.966
238.2369, 5270.828
238.7191, 5385.946
239.2012, 5502.385
239.6833, 5606.031
240.1654, 5693.221
240.6475, 5801.669
241.1296, 5940.436
241.6118, 6093.323
242.0939, 6236.855
242.5760, 6351.095
243.0581, 6490.075
243.5402, 6670.097
244.0223, 6893.411
244.5045, 7135.228
244.9866, 7392.773
245.4687, 7670.884
245.9508, 7976.885
246.4329, 8313.726
246.9150, 8673.508
247.3972, 9051.299
247.8793, 9435.610
248.3614, 9872.662
248.8435, 10370.49
249.3256, 10919.02
249.8077, 11491.95
250.2899, 12086.18
250.7720, 12716.72
251.2541, 13392.11
251.7362, 14108.76
252.2183, 14864.65
252.7004, 15665.29
253.1826, 16494.63
253.6647, 17316.85
254.1468, 18130.61
254.6289, 18941.05
255.1110, 19758.69
255.5931, 20598.58
256.0753, 21413.46
256.5574, 22222.97
257.0395, 23009.94
257.5216, 23732.51
258.0037, 24411.24
258.4858, 24997.98
258.9680, 25478.95
259.4501, 25882.95
259.9322, 26102.90
260.4143, 26126.34
260.8964, 25974.78
261.3785, 25692.57
261.8607, 25269.44
262.3428, 24735.38
262.8249, 24086.61
263.3070, 23308.19
263.7891, 22480.64
264.2712, 21606.54
264.7534, 20695.42
265.2355, 19794.75
265.7176, 18884.10
266.1997, 18013.38
266.6818, 17201.07
267.1639, 16463.50
267.6461, 15730.11
268.1282, 14984.50
268.6103, 14253.78
269.0924, 13595.96
269.5745, 13028.60
270.0566, 12497.87
270.5387, 11968.38
271.0208, 11435.56
271.5030, 10940.82
271.9851, 10483.51
272.4672, 10066.96
272.9493, 9705.753
273.4314, 9410.063
273.9135, 9136.571
274.3957, 8866.523
274.8778, 8599.274
275.3599, 8341.041
275.8420, 8089.688
276.3241, 7850.323
276.8062, 7636.784
277.2884, 7451.820
277.7705, 7280.078
278.2526, 7112.031
278.7347, 6947.147
279.2168, 6798.790
279.6989, 6668.140
280.1811, 6551.729
280.6632, 6440.635
281.1453, 6335.722
281.6274, 6228.626
282.1095, 6110.127
282.5916, 5980.618
283.0738, 5863.272
283.5559, 5760.073
284.0380, 5668.815
284.5201, 5586.308
285.0022, 5511.965
285.4843, 5448.707
285.9665, 5404.199
286.4486, 5375.935
286.9307, 5338.695
287.4128, 5289.019
287.8949, 5233.617
288.3770, 5182.812
288.8592, 5136.529
289.3413, 5097.844
289.8234, 5081.183
290.3055, 5077.791
290.7876, 5037.146
291.2697, 4943.482
291.7519, 4839.750
292.2340, 4800.060
292.7161, 4819.550
293.1982, 4843.134
293.6803, 4837.879
294.1624, 4812.030
294.6446, 4789.330
295.1267, 4770.655
295.6088, 4758.086
296.0909, 4758.871
296.5730, 4770.325
297.0551, 4778.775
297.5373, 4772.641
298.0194, 4758.629
298.5015, 4751.658
298.9836, 4754.687
299.4657, 4758.373
299.9478, 4747.397
300.4300, 4726.877
300.9121, 4713.534
301.3942, 4724.346
301.8763, 4745.462
302.3584, 4755.918
302.8405, 4753.224
303.3227, 4745.071
303.8048, 4735.497
304.2869, 4726.025
304.7690, 4719.813
305.2511, 4718.395
305.7332, 4721.201
306.2154, 4729.217
306.6975, 4743.227
307.1796, 4756.505
307.6617, 4766.562
308.1438, 4771.725
308.6259, 4769.249
309.1081, 4742.157
309.5901, 4716.769
310.0723, 4718.840
310.5544, 4752.673
311.0365, 4786.060
311.5186, 4800.835
312.0007, 4802.401
312.4828, 4798.921
312.9650, 4783.062
313.4471, 4771.261
313.9292, 4779.959
314.4113, 4811.589
314.8934, 4832.305
315.3755, 4816.021
315.8577, 4783.126
316.3398, 4757.773
316.8219, 4751.389
317.3040, 4750.731
317.7861, 4752.699
318.2682, 4757.125
318.7504, 4757.666
319.2325, 4747.306
319.7146, 4734.112
320.1967, 4725.771
320.6788, 4726.571
321.1609, 4729.794
321.6431, 4735.000
322.1252, 4741.974
322.6073, 4746.521
323.0894, 4752.534
323.5715, 4753.166
324.0536, 4743.306
324.5358, 4706.101
325.0179, 4675.943
325.5000, 4663.416
325.9821, 4666.539
326.4642, 4660.019
326.9464, 4637.054
327.4285, 4607.650
327.9106, 4577.257
328.3927, 4538.301
328.8748, 4508.549
329.3569, 4490.903
329.8391, 4483.901
330.3212, 4481.458
330.8033, 4494.238
331.2854, 4501.050
331.7675, 4489.497
332.2496, 4443.092
332.7318, 4409.843
333.2139, 4396.005
333.6960, 4395.493
334.1781, 4387.808
334.6602, 4364.301
335.1423, 4348.085
335.6245, 4352.688
336.1066, 4388.354
336.5887, 4411.349
337.0708, 4415.890
337.5529, 4411.822
338.0350, 4422.896
338.5172, 4455.919
338.9993, 4482.161
339.4814, 4484.467
339.9635, 4458.959
340.4456, 4449.201
340.9277, 4458.104
341.4099, 4477.254
341.8920, 4495.180
342.3741, 4511.670
342.8562, 4527.037
343.3383, 4541.955
343.8204, 4555.951
344.3026, 4564.768
344.7847, 4567.165
345.2668, 4568.876
345.7489, 4576.080
346.2310, 4588.620
346.7131, 4604.287
347.1953, 4619.483
347.6774, 4638.045
348.1595, 4674.359
348.6416, 4728.728
349.1237, 4783.275
349.6058, 4817.873
350.0880, 4838.317
350.5700, 4861.467
351.0522, 4894.921
351.5343, 4931.721
352.0164, 4961.173
352.4985, 4983.976
352.9806, 5006.542
353.4627, 5026.423
353.9449, 5050.752
354.4270, 5092.700
354.9091, 5166.622
355.3912, 5242.465
355.8733, 5289.438
356.3554, 5313.102
356.8376, 5337.234
357.3197, 5374.086
357.8018, 5417.787
358.2839, 5463.702
358.7660, 5512.223
359.2481, 5559.693
359.7303, 5602.320
360.2124, 5642.116
360.6945, 5685.180
361.1766, 5738.934
361.6587, 5793.028
362.1408, 5840.264
362.6230, 5877.708
363.1051, 5917.374
363.5872, 5957.632
364.0693, 6003.862
364.5514, 6063.107
365.0335, 6157.857
365.5157, 6247.020
365.9978, 6315.108
366.4799, 6356.808
366.9620, 6401.772
367.4441, 6449.635
367.9262, 6502.808
368.4084, 6563.104
368.8905, 6640.811
369.3726, 6713.454
369.8547, 6776.895
370.3368, 6831.266
370.8189, 6879.762
371.3011, 6917.421
371.7832, 6953.706
372.2653, 6996.992
372.7474, 7052.287
373.2295, 7102.618
373.7116, 7143.010
374.1938, 7177.117
374.6759, 7221.512
375.1580, 7280.335
375.6401, 7339.968
376.1222, 7392.789
376.6043, 7437.524
377.0865, 7479.955
377.5686, 7519.986
378.0507, 7558.390
378.5328, 7594.010
379.0149, 7626.384
379.4970, 7662.560
379.9792, 7705.798
380.4613, 7756.206
380.9434, 7809.529
381.4255, 7866.192
381.9076, 7925.971
382.3897, 7990.900
382.8719, 8060.189
383.3540, 8126.101
383.8361, 8186.415
384.3182, 8241.265
384.8003, 8288.642
385.2824, 8328.217
385.7646, 8370.207
386.2467, 8422.487
386.7288, 8484.157
387.2109, 8554.190
387.6930, 8640.791
388.1751, 8728.374
388.6573, 8797.058
389.1394, 8851.557
389.6215, 8915.111
390.1036, 9009.167
390.5857, 9115.714
391.0678, 9218.715
391.5499, 9312.693
392.0320, 9404.896
392.5142, 9490.341
392.9963, 9575.509
393.4784, 9676.754
393.9605, 9812.121
394.4426, 9955.356
394.9247, 10092.68
395.4069, 10220.32
395.8890, 10349.25
396.3711, 10485.71
396.8532, 10622.97
397.3353, 10750.96
397.8174, 10848.83
398.2996, 10956.62
398.7817, 11092.67
399.2638, 11265.10
399.7459, 11405.12
400.2280, 11481.45
400.7101, 11547.27
401.1923, 11649.92
401.6744, 11812.04
402.1565, 11968.56
402.6386, 12117.63
403.1207, 12255.81
403.6028, 12359.09
404.0850, 12418.14
404.5671, 12461.04
405.0492, 12506.64
405.5313, 12557.71
406.0134, 12593.44
406.4955, 12607.94
406.9777, 12611.36
407.4598, 12628.29
407.9419, 12660.84
408.4240, 12682.15
408.9061, 12680.25
409.3882, 12656.19
409.8704, 12615.11
410.3525, 12556.42
410.8346, 12482.14
411.3167, 12393.68
411.7988, 12289.85
412.2809, 12171.40
412.7631, 12032.27
413.2452, 11879.56
413.7273, 11727.17
414.2094, 11573.94
414.6915, 11411.87
415.1736, 11237.66
415.6558, 11050.21
416.1379, 10852.04
416.6200, 10629.83
417.1021, 10413.24
417.5842, 10222.71
418.0663, 10052.15
418.5485, 9887.074
419.0306, 9728.298
419.5127, 9566.071
419.9948, 9385.590
420.4769, 9175.282
420.9590, 8987.251
421.4412, 8854.304
421.9233, 8747.457
422.4054, 8623.506
422.8875, 8455.311
423.3696, 8288.815
423.8517, 8136.658
424.3339, 8002.450
424.8160, 7872.192
425.2981, 7745.279
425.7802, 7624.296
426.2623, 7510.198
426.7444, 7406.701
427.2266, 7305.708
427.7087, 7206.858
428.1908, 7109.963
428.6729, 7006.384
429.1550, 6890.793
429.6371, 6781.828
430.1193, 6692.333
430.6014, 6624.362
431.0835, 6558.453
431.5656, 6494.921
432.0477, 6431.278
432.5298, 6362.548
433.0119, 6288.661
433.4940, 6215.502
433.9762, 6142.526
434.4583, 6072.132
434.9404, 6013.494
435.4225, 5966.890
435.9046, 5925.200
436.3867, 5889.308
436.8689, 5853.418
437.3510, 5804.033
437.8331, 5732.655
438.3152, 5652.949
438.7973, 5573.483
439.2794, 5496.327
439.7616, 5429.225
440.2437, 5383.505
440.7258, 5346.670
441.2079, 5309.207
441.6900, 5270.104
442.1721, 5228.947
442.6543, 5181.514
443.1364, 5132.813
443.6185, 5090.044
444.1006, 5064.938
444.5827, 5037.674
445.0648, 4998.862
445.5470, 4947.309
446.0291, 4901.629
446.5112, 4864.646
446.9933, 4833.978
447.4754, 4807.906
447.9576, 4795.365
448.4397, 4773.687
448.9218, 4736.990
449.4039, 4690.550
449.8860, 4652.368
450.3681, 4625.603
450.8503, 4601.275
451.3324, 4574.390
451.8145, 4543.829
452.2966, 4519.911
452.7787, 4503.427
453.2608, 4491.438
453.7430, 4478.820
454.2251, 4465.738
454.7072, 4458.881
455.1893, 4465.213
455.6714, 4477.374
456.1535, 4472.517
456.6357, 4451.152
457.1178, 4428.896
457.5999, 4420.477
458.0820, 4420.034
458.5641, 4414.505
459.0462, 4398.087
459.5284, 4383.861
460.0105, 4390.642
460.4926, 4409.959
460.9747, 4421.309
461.4568, 4402.387
461.9389, 4380.416
462.4211, 4376.342
462.9032, 4393.043
463.3853, 4409.932
463.8674, 4416.149
464.3495, 4419.431
464.8316, 4427.159
465.3138, 4454.464
465.7959, 4471.397
466.2780, 4466.729
466.7601, 4444.343
467.2422, 4428.094
467.7243, 4432.946
468.2065, 4429.687
468.6886, 4401.883
469.1707, 4330.555
469.6528, 4290.300
470.1349, 4291.565
470.6170, 4314.953
471.0992, 4332.937
471.5813, 4344.993
472.0634, 4354.614
472.5455, 4364.909
473.0276, 4373.695
473.5097, 4368.107
473.9918, 4346.978
474.4739, 4319.778
474.9561, 4288.943
475.4382, 4257.204
475.9203, 4237.837
476.4024, 4234.183
476.8845, 4239.657
477.3666, 4252.211
477.8488, 4268.172
478.3309, 4275.555
478.8130, 4263.698
479.2951, 4242.697
479.7772, 4218.281
480.2593, 4190.524
480.7415, 4172.541
481.2236, 4180.499
481.7057, 4198.126
482.1878, 4209.426
482.6699, 4218.703
483.1520, 4211.188
483.6342, 4166.477
484.1163, 4098.619
484.5984, 4054.959
485.0805, 4064.945
485.5626, 4080.351
486.0447, 4082.498
486.5269, 4065.481
487.0090, 4055.525
487.4911, 4059.563
487.9732, 4064.840
488.4553, 4054.751
488.9374, 4022.683
489.4196, 3997.219
489.9017, 3986.457
490.3838, 3986.200
490.8659, 3976.825
491.3480, 3956.850
491.8301, 3938.822
492.3123, 3935.504
492.7944, 3942.574
493.2765, 3935.761
493.7586, 3910.606
494.2407, 3882.380
494.7228, 3870.318
495.2050, 3870.311
495.6871, 3871.295
496.1692, 3872.880
496.6513, 3870.547
497.1334, 3855.709
497.6155, 3830.532
498.0977, 3810.291
498.5798, 3811.084
499.0619, 3816.360
499.5440, 3812.262
500.0261, 3792.610
500.5082, 3771.473
500.9904, 3745.065
501.4725, 3721.295
501.9546, 3712.979
502.4367, 3740.920
502.9188, 3764.738
503.4009, 3772.720
503.8831, 3764.264
504.3652, 3764.325
504.8473, 3780.495
505.3294, 3794.700
505.8115, 3791.526
506.2936, 3765.325
506.7758, 3746.964
507.2579, 3740.245
507.7400, 3740.458
508.2221, 3740.302
508.7042, 3739.846
509.1863, 3736.259
509.6685, 3727.455
510.1506, 3714.953
510.6327, 3702.565
511.1148, 3690.409
511.5969, 3678.192
512.0790, 3658.716
512.5612, 3640.832
513.0433, 3640.810
513.5254, 3669.704
514.0075, 3701.847
514.4896, 3717.007
514.9717, 3721.448
515.4539, 3728.894
515.9360, 3757.076
516.4181, 3778.599
516.9002, 3774.102
517.3823, 3739.448
517.8644, 3718.871
518.3466, 3725.544
518.8287, 3745.114
519.3108, 3767.818
519.7929, 3802.029
520.2750, 3825.398
520.7571, 3835.525
521.2393, 3834.890
521.7214, 3826.377
522.2035, 3804.964
522.6856, 3791.999
523.1677, 3798.111
523.6498, 3821.081
524.1320, 3841.681
524.6141, 3860.120
525.0962, 3875.423
525.5783, 3882.687
526.0604, 3885.537
526.5425, 3898.649
527.0247, 3927.993
527.5068, 3960.109
527.9889, 3981.590
528.4710, 3993.390
528.9531, 3998.644
529.4352, 3993.868
529.9174, 3986.781
530.3995, 3980.655
530.8816, 3975.971
531.3637, 3978.635
531.8458, 3999.103
532.3279, 4023.068
532.8101, 4039.611
533.2922, 4039.898
533.7743, 4042.979
534.2564, 4053.702
534.7385, 4067.327
535.2206, 4075.311
535.7027, 4073.195
536.1848, 4072.785
536.6669, 4075.847
537.1490, 4082.596
537.6312, 4102.171
538.1133, 4139.747
538.5954, 4172.434
539.0775, 4175.346
539.5596, 4152.537
540.0417, 4146.066
540.5239, 4164.596
541.0060, 4188.688
541.4881, 4185.960
541.9702, 4165.644
542.4523, 4156.765
542.9344, 4183.195
543.4166, 4219.801
543.8987, 4244.406
544.3808, 4257.824
544.8629, 4264.876
545.3450, 4263.964
545.8271, 4260.472
546.3093, 4258.362
546.7914, 4259.189
547.2735, 4259.277
547.7556, 4255.014
548.2377, 4250.558
548.7198, 4251.548
549.2020, 4258.828
549.6841, 4270.408
550.1662, 4286.960
550.6483, 4307.605
551.1304, 4329.585
551.6125, 4354.922
552.0947, 4375.514
552.5768, 4385.690
553.0589, 4385.563
553.5410, 4382.828
554.0231, 4376.839
554.5052, 4371.510
554.9874, 4370.224
555.4695, 4373.179
555.9516, 4381.852
556.4337, 4399.911
556.9158, 4419.437
557.3979, 4430.382
557.8801, 4435.552
558.3622, 4443.606
558.8443, 4463.458
559.3264, 4484.522
559.8085, 4500.946
560.2906, 4512.586
560.7728, 4518.000
561.2549, 4513.067
561.7370, 4504.073
562.2191, 4496.128
562.7012, 4491.060
563.1833, 4484.149
563.6655, 4470.858
564.1476, 4457.532
564.6297, 4458.788
565.1118, 4477.828
565.5939, 4501.630
566.0760, 4531.385
566.5582, 4562.680
567.0403, 4567.017
567.5224, 4542.347
568.0045, 4516.430
568.4866, 4511.940
568.9688, 4523.403
569.4509, 4540.335
569.9330, 4563.658
570.4151, 4580.626
570.8972, 4571.599
571.3793, 4548.912
571.8615, 4533.724
572.3436, 4537.110
572.8257, 4547.054
573.3078, 4560.800
573.7899, 4577.189
574.2720, 4590.208
574.7542, 4590.569
575.2363, 4594.393
575.7184, 4613.057
576.2005, 4656.252
576.6826, 4672.865
577.1647, 4648.836
577.6469, 4614.508
578.1290, 4601.609
578.6111, 4614.437
579.0932, 4621.049
579.5753, 4613.396
580.0574, 4602.419
580.5396, 4613.943
581.0217, 4646.004
581.5038, 4675.260
581.9859, 4683.660
582.4680, 4684.686
582.9501, 4703.752
583.4323, 4739.291
583.9144, 4770.154
584.3965, 4779.717
584.8786, 4779.064
585.3607, 4777.389
585.8428, 4774.657
586.3250, 4775.927
586.8071, 4786.171
587.2892, 4800.318
587.7713, 4811.816
588.2534, 4806.308
588.7355, 4815.682
589.2177, 4850.988
589.6998, 4904.522
590.1819, 4945.804
590.6640, 4971.932
591.1461, 4993.861
591.6282, 5017.409
592.1104, 5042.064
592.5925, 5055.376
593.0746, 5054.935
593.5567, 5059.494
594.0388, 5089.996
594.5209, 5139.341
595.0031, 5192.822
595.4852, 5252.458
595.9673, 5299.868
596.4494, 5306.869
596.9315, 5290.322
597.4136, 5282.626
597.8958, 5295.788
598.3779, 5321.680
598.8600, 5365.581
599.3421, 5424.147
599.8242, 5468.852
600.3063, 5480.082
600.7885, 5491.153
601.2706, 5516.332
601.7527, 5559.958
602.2348, 5598.999
602.7169, 5631.675
603.1990, 5661.991
603.6812, 5693.453
604.1633, 5725.668
604.6454, 5758.807
605.1275, 5791.898
605.6096, 5826.668
606.0917, 5868.249
606.5739, 5914.664
607.0560, 5959.870
607.5381, 6005.432
608.0202, 6044.818
608.5023, 6064.364
608.9844, 6067.623
609.4666, 6078.459
609.9487, 6113.621
610.4308, 6157.088
610.9129, 6199.953
611.3950, 6243.534
611.8771, 6280.879
612.3593, 6310.453
612.8414, 6334.859
613.3235, 6355.100
613.8056, 6367.948
614.2877, 6387.290
614.7698, 6420.342
615.2520, 6455.480
615.7341, 6456.911
616.2162, 6422.391
616.6983, 6405.105
617.1804, 6436.931
617.6625, 6496.281
618.1446, 6532.893
618.6267, 6548.582
619.1088, 6562.850
619.5909, 6593.846
620.0731, 6627.855
620.5552, 6648.606
621.0373, 6652.351
621.5194, 6655.296
622.0015, 6668.819
622.4836, 6683.146
622.9658, 6688.980
623.4479, 6664.172
623.9300, 6658.653
624.4121, 6691.447
624.8942, 6739.466
625.3763, 6752.547
625.8585, 6715.949
626.3406, 6688.514
626.8227, 6689.910
627.3048, 6713.924
627.7869, 6735.887
628.2690, 6755.831
628.7512, 6770.941
629.2333, 6780.064
629.7154, 6782.948
630.1975, 6778.433
