##NAMES=Muscovite
##RRUFFID=R050198
##IDEAL CHEMISTRY=KAl_2_(Si_3_Al)O_10_(OH)_2_
##LOCALITY=California, USA
##OWNER=RRUFF
##SOURCE=University of Arizona Mineral Museum
##DESCRIPTION=Micaceous aggregate, polytype 2M1
##STATUS=The identification of this mineral has been confirmed by X-ray diffraction and chemical analysis
##URL=rruff.info/R050198
##MEASURED CHEMISTRY=(K_0.92_Na_0.08_)(Al_0.76_Mg_0.18_Fe^3+^_0.04_Fe^2+^_0.02_)_2_(Si_3.40_Al_0.60_)O_10_(OH)_2_
93.77539, 38.26015
94.25751, 36.60442
94.73962, 37.34389
95.22174, 40.13017
95.70386, 43.71217
96.18597, 47.76878
96.66809, 52.26670
97.15021, 57.08686
97.63232, 62.22001
98.11444, 67.83280
98.59656, 74.01021
99.07867, 80.77259
99.56079, 88.26627
100.0429, 96.42725
100.5250, 105.2092
101.0071, 115.1258
101.4893, 126.2249
101.9714, 138.3442
102.4535, 150.8961
102.9356, 164.0415
103.4177, 177.4284
103.8998, 190.7417
104.3820, 204.1728
104.8641, 217.4682
105.3462, 231.0604
105.8283, 244.6237
106.3104, 257.0552
106.7925, 267.8683
107.2747, 277.9584
107.7568, 287.7520
108.2389, 297.1106
108.7210, 306.5320
109.2031, 315.7030
109.6852, 324.6109
110.1674, 335.1154
110.6495, 348.0052
111.1316, 362.2303
111.6137, 376.8843
112.0958, 391.5054
112.5779, 407.1747
113.0601, 424.3061
113.5422, 443.2759
114.0243, 462.6583
114.5064, 482.8641
114.9885, 503.1431
115.4706, 522.8398
115.9528, 541.7933
116.4349, 560.0262
116.9170, 577.2939
117.3991, 593.8453
117.8812, 609.5342
118.3633, 624.4626
118.8455, 638.5118
119.3276, 651.3941
119.8097, 663.1669
120.2918, 673.8148
120.7739, 683.1123
121.2560, 690.6566
121.7382, 697.7083
122.2203, 704.7247
122.7024, 711.7968
123.1845, 719.2291
123.6666, 727.6254
124.1487, 736.3077
124.6309, 744.5577
125.1130, 751.5297
125.5951, 758.4778
126.0772, 766.7639
126.5593, 776.2829
127.0414, 786.0879
127.5236, 794.7833
128.0057, 803.1715
128.4878, 813.2923
128.9699, 826.6205
129.4520, 841.5538
129.9341, 855.5232
130.4162, 868.5240
130.8984, 880.6711
131.3805, 891.4633
131.8626, 901.2200
132.3447, 911.6922
132.8268, 924.0364
133.3089, 937.7190
133.7911, 948.6201
134.2732, 953.9518
134.7553, 955.2136
135.2374, 956.1640
135.7195, 956.8371
136.2016, 956.7713
136.6838, 955.5129
137.1659, 953.1021
137.6480, 950.9820
138.1301, 949.1763
138.6122, 947.5960
139.0943, 946.0148
139.5765, 944.3721
140.0586, 942.9407
140.5407, 942.0723
141.0228, 942.0576
141.5049, 940.9172
141.9870, 938.1663
142.4692, 934.4523
142.9513, 931.6524
143.4334, 929.8396
143.9155, 928.6642
144.3976, 927.9496
144.8797, 927.7715
145.3619, 927.8238
145.8440, 928.2076
146.3261, 928.8117
146.8082, 929.0062
147.2903, 928.1996
147.7724, 927.6067
148.2546, 928.0552
148.7367, 930.8792
149.2188, 932.7446
149.7009, 932.9513
150.1830, 931.6246
150.6651, 930.8685
151.1473, 931.1979
151.6294, 931.7968
152.1115, 932.0878
152.5936, 931.9099
153.0757, 931.6226
153.5578, 931.0485
154.0400, 930.1401
154.5221, 929.8740
155.0042, 931.0143
155.4863, 932.4525
155.9684, 933.2257
156.4505, 932.8119
156.9327, 932.0897
157.4148, 931.2594
157.8969, 930.3461
158.3790, 929.1764
158.8611, 926.9725
159.3432, 924.7276
159.8254, 923.5351
160.3075, 924.5425
160.7896, 925.9094
161.2717, 927.1006
161.7538, 928.1462
162.2359, 928.6844
162.7181, 928.2859
163.2002, 927.4026
163.6823, 926.6519
164.1644, 926.0563
164.6465, 925.8118
165.1286, 926.1218
165.6108, 927.1349
166.0929, 928.1733
166.5750, 928.8619
167.0571, 929.3346
167.5392, 929.8409
168.0213, 930.2443
168.5035, 930.8389
168.9856, 931.9008
169.4677, 933.5751
169.9498, 935.3586
170.4319, 937.1039
170.9140, 938.7168
171.3962, 939.9615
171.8783, 940.4462
172.3604, 940.6234
172.8425, 940.9680
173.3246, 941.6291
173.8067, 942.3475
174.2889, 942.6828
174.7710, 942.8404
175.2531, 943.4617
175.7352, 945.7101
176.2173, 948.4417
176.6994, 949.9081
177.1816, 949.2683
177.6637, 948.2113
178.1458, 948.5185
178.6279, 950.0471
179.1100, 952.1006
179.5921, 954.5565
180.0743, 957.1891
180.5564, 959.5721
181.0385, 961.7346
181.5206, 963.4634
182.0027, 964.1416
182.4848, 963.8707
182.9670, 963.6307
183.4491, 963.8572
183.9312, 964.6458
184.4133, 966.3569
184.8954, 969.4094
185.3775, 973.0587
185.8597, 976.0916
186.3418, 978.4997
186.8239, 980.6324
187.3060, 982.9229
187.7881, 985.2493
188.2702, 986.9612
188.7523, 987.8845
189.2345, 988.1546
189.7166, 987.8398
190.1987, 986.9047
190.6808, 986.1749
191.1629, 986.8808
191.6451, 988.7771
192.1272, 989.7148
192.6093, 989.0683
193.0914, 987.1863
193.5735, 984.8509
194.0556, 981.9518
194.5378, 979.3058
195.0199, 978.0772
195.5020, 978.1840
195.9841, 977.5870
196.4662, 975.4274
196.9483, 972.1874
197.4305, 970.1393
197.9126, 969.4766
198.3947, 969.0173
198.8768, 967.2831
199.3589, 964.1545
199.8410, 961.7723
200.3232, 960.8298
200.8053, 961.0731
201.2874, 961.1310
201.7695, 961.0247
202.2516, 960.6365
202.7337, 959.6796
203.2159, 958.0645
203.6980, 956.7731
204.1801, 956.1837
204.6622, 956.2109
205.1443, 955.9117
205.6264, 955.2491
206.1086, 954.4030
206.5907, 953.2652
207.0728, 951.5833
207.5549, 951.1810
208.0370, 953.3406
208.5191, 957.7542
209.0013, 958.5498
209.4834, 954.5387
209.9655, 949.1750
210.4476, 946.1813
210.9297, 946.0977
211.4118, 946.4659
211.8940, 946.8718
212.3761, 947.3140
212.8582, 947.4358
213.3403, 947.1712
213.8224, 946.7133
214.3045, 946.1155
214.7867, 945.0813
215.2688, 944.8620
215.7509, 946.0613
216.2330, 948.6517
216.7151, 950.2790
217.1972, 950.6328
217.6794, 950.4271
218.1615, 950.3639
218.6436, 950.4147
219.1257, 950.6381
219.6078, 951.0773
220.0899, 951.7266
220.5721, 952.2707
221.0542, 952.6280
221.5363, 952.9528
222.0184, 953.3859
222.5005, 953.9145
222.9826, 954.6129
223.4648, 955.6465
223.9469, 957.0458
224.4290, 957.6696
224.9111, 957.0665
225.3932, 956.2341
225.8753, 956.2316
226.3575, 957.5262
226.8396, 958.6681
227.3217, 959.3336
227.8038, 959.5295
228.2859, 959.6918
228.7680, 959.6882
229.2502, 959.8095
229.7323, 960.3920
230.2144, 961.7814
230.6965, 962.9559
231.1786, 963.7051
231.6607, 964.0324
232.1429, 964.3222
232.6250, 964.6375
233.1071, 964.8513
233.5892, 964.7556
234.0713, 963.9111
234.5534, 963.6531
235.0356, 964.3417
235.5177, 965.9361
235.9998, 967.4820
236.4819, 969.0011
236.9640, 970.4535
237.4461, 971.7125
237.9283, 972.2927
238.4104, 973.6656
238.8925, 976.4670
239.3746, 980.5830
239.8567, 983.3810
240.3388, 984.2107
240.8210, 984.5028
241.3031, 985.3677
241.7852, 987.1037
242.2673, 988.7579
242.7494, 989.9385
243.2315, 990.7775
243.7137, 992.8065
244.1958, 996.7452
244.6779, 1001.010
245.1600, 1004.454
245.6421, 1006.673
246.1242, 1008.896
246.6064, 1011.132
247.0885, 1013.443
247.5706, 1016.287
248.0527, 1019.820
248.5348, 1023.665
249.0169, 1027.515
249.4990, 1031.248
249.9812, 1035.379
250.4633, 1040.223
250.9454, 1045.542
251.4275, 1050.085
251.9096, 1053.225
252.3917, 1056.464
252.8739, 1060.597
253.3560, 1065.769
253.8381, 1071.602
254.3202, 1078.506
254.8023, 1086.040
255.2844, 1092.264
255.7666, 1096.174
256.2487, 1100.401
256.7308, 1106.380
257.2129, 1114.877
257.6950, 1123.023
258.1772, 1130.410
258.6593, 1137.458
259.1414, 1145.628
259.6235, 1155.533
260.1056, 1165.492
260.5877, 1174.946
261.0699, 1183.676
261.5520, 1192.225
262.0341, 1200.387
262.5162, 1208.486
262.9983, 1217.645
263.4804, 1228.498
263.9626, 1238.904
264.4447, 1248.180
264.9268, 1256.608
265.4089, 1263.035
265.8910, 1267.478
266.3731, 1269.998
266.8553, 1270.726
267.3374, 1269.604
267.8195, 1266.863
268.3016, 1262.645
268.7837, 1256.903
269.2658, 1249.525
269.7480, 1240.150
270.2301, 1229.662
270.7122, 1219.659
271.1943, 1210.598
271.6764, 1200.317
272.1585, 1187.795
272.6407, 1173.018
273.1228, 1159.599
273.6049, 1147.782
274.0870, 1137.033
274.5691, 1126.525
275.0512, 1116.177
275.5334, 1106.695
276.0155, 1098.258
276.4976, 1090.844
276.9797, 1084.464
277.4618, 1079.373
277.9439, 1074.630
278.4261, 1069.065
278.9081, 1062.544
279.3903, 1056.875
279.8724, 1052.628
280.3545, 1049.617
280.8366, 1046.822
281.3187, 1044.267
281.8008, 1041.890
282.2830, 1039.684
282.7651, 1037.658
283.2472, 1035.646
283.7293, 1033.623
284.2114, 1031.586
284.6935, 1029.364
285.1757, 1026.859
285.6578, 1024.923
286.1399, 1024.508
286.6220, 1025.474
287.1041, 1026.094
287.5862, 1026.205
288.0684, 1025.756
288.5505, 1024.159
289.0326, 1021.389
289.5147, 1019.326
289.9968, 1019.747
290.4789, 1022.137
290.9611, 1023.398
291.4432, 1023.060
291.9253, 1022.108
292.4074, 1022.054
292.8895, 1022.829
293.3716, 1023.761
293.8538, 1024.683
294.3359, 1025.507
294.8180, 1025.935
295.3001, 1025.931
295.7822, 1025.654
296.2643, 1025.181
296.7465, 1024.565
297.2286, 1024.022
297.7107, 1023.737
298.1928, 1023.578
298.6749, 1023.109
299.1570, 1022.295
299.6392, 1021.796
300.1213, 1022.561
300.6034, 1024.191
301.0855, 1025.641
301.5676, 1026.676
302.0497, 1027.258
302.5319, 1027.005
303.0140, 1025.975
303.4961, 1025.202
303.9782, 1025.752
304.4603, 1027.062
304.9424, 1028.176
305.4246, 1028.731
305.9067, 1029.054
306.3888, 1029.264
306.8709, 1029.437
307.3530, 1029.981
307.8351, 1031.845
308.3173, 1033.969
308.7994, 1034.984
309.2815, 1034.259
309.7636, 1033.117
310.2457, 1032.366
310.7278, 1032.000
311.2100, 1032.018
311.6921, 1033.089
312.1742, 1034.185
312.6563, 1034.162
313.1384, 1032.508
313.6205, 1031.206
314.1027, 1031.894
314.5848, 1033.675
315.0669, 1034.988
315.5490, 1034.817
316.0311, 1034.263
316.5132, 1033.835
316.9954, 1033.540
317.4775, 1033.677
317.9596, 1034.663
318.4417, 1036.023
318.9238, 1037.239
319.4059, 1038.094
319.8881, 1038.772
320.3702, 1039.246
320.8523, 1039.517
321.3344, 1039.841
321.8165, 1040.488
322.2986, 1041.090
322.7808, 1041.373
323.2629, 1040.891
323.7450, 1040.508
324.2271, 1040.388
324.7092, 1040.525
325.1913, 1040.816
325.6735, 1041.860
326.1556, 1042.645
326.6377, 1042.636
327.1198, 1041.074
327.6019, 1039.807
328.0840, 1039.209
328.5662, 1039.015
329.0483, 1038.510
329.5304, 1036.786
330.0125, 1035.638
330.4946, 1035.789
330.9767, 1037.902
331.4589, 1039.459
331.9410, 1040.187
332.4231, 1040.467
332.9052, 1040.818
333.3873, 1041.254
333.8694, 1041.714
334.3516, 1042.114
334.8337, 1042.417
335.3158, 1043.091
335.7979, 1044.419
336.2800, 1045.756
336.7621, 1046.426
337.2443, 1046.144
337.7264, 1045.936
338.2085, 1045.909
338.6906, 1046.087
339.1727, 1046.661
339.6548, 1047.760
340.1370, 1048.974
340.6191, 1050.037
341.1012, 1050.908
341.5833, 1051.904
342.0654, 1053.168
342.5475, 1054.449
343.0297, 1055.048
343.5118, 1054.874
343.9939, 1054.685
344.4760, 1054.850
344.9581, 1055.353
345.4402, 1056.127
345.9224, 1057.265
346.4045, 1058.335
346.8866, 1058.475
347.3687, 1057.780
347.8508, 1057.452
348.3329, 1058.164
348.8151, 1059.552
349.2972, 1060.654
349.7793, 1061.470
350.2614, 1062.024
350.7435, 1062.104
351.2256, 1061.909
351.7078, 1062.007
352.1899, 1062.592
352.6720, 1063.515
353.1541, 1063.304
353.6362, 1065.440
354.1183, 1066.793
354.6005, 1067.406
355.0826, 1065.062
355.5647, 1066.536
356.0468, 1066.480
356.5289, 1066.361
357.0110, 1068.374
357.4932, 1066.459
357.9753, 1068.438
358.4574, 1068.862
358.9395, 1069.998
359.4216, 1069.593
359.9037, 1069.664
360.3859, 1071.276
360.8680, 1072.035
361.3501, 1071.453
361.8322, 1072.634
362.3143, 1070.666
362.7964, 1071.461
363.2786, 1073.448
363.7607, 1072.944
364.2428, 1074.153
364.7249, 1074.710
365.2070, 1072.301
365.6891, 1075.049
366.1713, 1075.567
366.6534, 1073.795
367.1355, 1076.366
367.6176, 1074.910
368.0997, 1074.892
368.5818, 1075.955
369.0640, 1075.890
369.5461, 1077.604
370.0282, 1077.604
370.5103, 1077.452
370.9924, 1077.967
371.4745, 1076.590
371.9567, 1078.724
372.4388, 1078.460
372.9209, 1079.387
373.4030, 1078.971
373.8851, 1079.608
374.3672, 1080.875
374.8494, 1083.282
375.3315, 1085.618
375.8136, 1086.690
376.2957, 1085.946
376.7778, 1085.750
377.2599, 1086.447
377.7421, 1087.819
378.2242, 1089.259
378.7063, 1090.770
379.1884, 1092.206
379.6705, 1093.441
380.1526, 1094.480
380.6348, 1095.465
381.1169, 1096.375
381.5990, 1097.303
382.0811, 1098.828
382.5632, 1100.848
383.0453, 1101.695
383.5275, 1099.795
384.0096, 1096.409
384.4917, 1095.589
384.9738, 1097.423
385.4559, 1099.537
385.9380, 1099.415
386.4202, 1097.932
386.9023, 1097.392
387.3844, 1098.734
387.8665, 1100.692
388.3486, 1101.693
388.8307, 1101.933
389.3129, 1102.216
389.7950, 1102.825
390.2771, 1103.811
390.7592, 1105.414
391.2413, 1107.827
391.7234, 1109.971
392.2056, 1110.977
392.6877, 1111.216
393.1698, 1111.288
393.6519, 1111.077
394.1340, 1111.052
394.6161, 1111.626
395.0983, 1112.783
395.5804, 1113.738
396.0625, 1114.002
396.5446, 1114.074
397.0267, 1114.327
397.5089, 1114.789
397.9910, 1115.495
398.4731, 1116.767
398.9552, 1118.331
399.4373, 1119.366
399.9194, 1118.844
400.4016, 1118.620
400.8837, 1119.474
401.3658, 1121.929
401.8479, 1123.871
402.3300, 1125.270
402.8121, 1126.174
403.2942, 1126.497
403.7763, 1125.464
404.2585, 1125.383
404.7406, 1127.023
405.2227, 1130.188
405.7048, 1132.704
406.1869, 1134.409
406.6690, 1135.797
407.1512, 1137.243
407.6333, 1138.799
408.1154, 1139.974
408.5975, 1140.643
409.0796, 1141.027
409.5617, 1141.543
410.0439, 1142.185
410.5260, 1142.930
411.0081, 1143.805
411.4902, 1144.761
411.9723, 1145.549
412.4544, 1146.113
412.9366, 1146.916
413.4187, 1148.621
413.9008, 1150.970
414.3829, 1153.245
414.8650, 1155.457
415.3471, 1157.263
415.8293, 1157.716
416.3114, 1157.156
416.7935, 1157.165
417.2756, 1159.525
417.7577, 1162.589
418.2398, 1164.610
418.7220, 1165.275
419.2041, 1165.344
419.6862, 1164.953
420.1683, 1164.366
420.6504, 1163.989
421.1325, 1164.105
421.6147, 1164.356
422.0968, 1164.548
422.5789, 1164.693
423.0610, 1165.050
423.5431, 1165.842
424.0252, 1166.764
424.5074, 1167.628
424.9895, 1168.403
425.4716, 1169.070
425.9537, 1169.502
426.4358, 1169.807
426.9179, 1170.242
427.4001, 1170.780
427.8822, 1171.448
428.3643, 1172.374
428.8464, 1173.677
429.3285, 1174.253
429.8106, 1173.736
430.2928, 1172.978
430.7749, 1172.893
431.2570, 1173.688
431.7391, 1174.335
432.2212, 1174.754
432.7033, 1174.864
433.1855, 1174.171
433.6676, 1172.559
434.1497, 1171.169
434.6318, 1170.992
435.1139, 1171.762
435.5960, 1171.822
436.0782, 1171.038
436.5603, 1169.828
437.0424, 1168.598
437.5245, 1167.353
438.0066, 1166.147
438.4887, 1165.284
438.9709, 1164.248
439.4530, 1162.051
439.9351, 1158.859
440.4172, 1155.893
440.8993, 1154.344
441.3814, 1153.233
441.8636, 1151.442
442.3457, 1148.555
442.8278, 1145.640
443.3099, 1142.840
443.7920, 1140.510
444.2741, 1139.166
444.7563, 1140.764
445.2384, 1141.763
445.7205, 1140.252
446.2026, 1136.175
446.6847, 1132.834
447.1668, 1131.104
447.6490, 1130.184
448.1311, 1129.588
448.6132, 1129.677
449.0953, 1129.570
449.5774, 1129.223
450.0595, 1128.686
450.5417, 1128.039
451.0238, 1127.186
451.5059, 1126.402
451.9880, 1125.708
452.4701, 1125.086
452.9522, 1125.045
453.4344, 1125.838
453.9165, 1126.613
454.3986, 1126.383
454.8807, 1125.075
455.3628, 1124.351
455.8449, 1124.672
456.3271, 1125.394
456.8092, 1125.039
457.2913, 1123.689
457.7734, 1122.517
458.2555, 1122.350
458.7376, 1122.771
459.2198, 1122.812
459.7019, 1122.425
460.1840, 1122.057
460.6661, 1122.149
461.1482, 1122.525
461.6303, 1122.911
462.1125, 1123.332
462.5946, 1123.613
463.0767, 1123.474
463.5588, 1123.070
464.0409, 1122.851
464.5230, 1123.125
465.0052, 1123.556
465.4873, 1123.970
465.9694, 1124.346
466.4515, 1124.660
466.9336, 1124.897
467.4157, 1125.045
467.8979, 1125.090
468.3800, 1124.708
468.8621, 1124.587
469.3442, 1125.031
469.8263, 1125.815
470.3084, 1126.007
470.7906, 1125.183
471.2727, 1124.436
471.7548, 1124.275
472.2369, 1124.827
472.7190, 1125.246
473.2011, 1125.493
473.6833, 1125.731
474.1654, 1126.280
474.6475, 1127.176
475.1296, 1127.570
475.6117, 1127.006
476.0938, 1126.077
476.5760, 1126.288
477.0581, 1127.556
477.5402, 1128.986
478.0223, 1130.468
478.5044, 1131.605
478.9865, 1131.278
479.4687, 1129.274
479.9508, 1127.336
480.4329, 1127.329
480.9150, 1128.324
481.3971, 1128.935
481.8792, 1128.514
482.3614, 1127.824
482.8435, 1127.144
483.3256, 1126.559
483.8077, 1126.315
484.2898, 1126.841
484.7719, 1127.488
485.2541, 1128.003
485.7362, 1128.406
486.2183, 1128.473
486.7004, 1127.805
487.1825, 1126.965
487.6646, 1126.466
488.1468, 1126.396
488.6289, 1126.507
489.1110, 1126.747
489.5931, 1127.140
490.0752, 1127.865
490.5573, 1129.143
491.0395, 1130.204
491.5216, 1130.659
492.0037, 1130.497
492.4858, 1130.257
492.9679, 1129.849
493.4500, 1129.711
493.9322, 1130.700
494.4143, 1132.569
494.8964, 1133.550
495.3785, 1132.965
495.8606, 1131.858
496.3427, 1131.965
496.8249, 1132.971
497.3070, 1133.700
497.7891, 1132.911
498.2712, 1131.827
498.7533, 1132.002
499.2354, 1133.512
499.7176, 1134.719
500.1997, 1134.319
500.6818, 1133.327
501.1639, 1132.706
501.6460, 1132.988
502.1281, 1133.233
502.6103, 1133.074
503.0924, 1132.724
503.5745, 1132.624
504.0566, 1133.455
504.5387, 1133.920
505.0208, 1133.533
505.5030, 1132.250
505.9851, 1131.408
506.4672, 1131.138
506.9493, 1131.150
507.4314, 1131.256
507.9135, 1131.452
508.3957, 1131.721
508.8778, 1132.020
509.3599, 1132.434
509.8420, 1133.436
510.3241, 1134.991
510.8062, 1135.639
511.2884, 1134.209
511.7705, 1131.779
512.2526, 1131.016
512.7347, 1131.823
513.2168, 1133.153
513.6989, 1134.883
514.1810, 1136.438
514.6631, 1136.789
515.1453, 1135.547
515.6274, 1134.344
516.1095, 1134.338
516.5916, 1135.038
517.0737, 1135.783
517.5558, 1136.625
518.0380, 1137.206
518.5201, 1137.288
519.0022, 1136.963
519.4843, 1136.667
519.9664, 1136.335
520.4485, 1136.167
520.9307, 1136.188
521.4128, 1136.321
521.8949, 1137.007
522.3770, 1138.693
522.8591, 1140.428
523.3412, 1141.225
523.8234, 1140.867
524.3055, 1140.436
524.7876, 1139.934
525.2697, 1139.605
525.7518, 1140.216
526.2339, 1141.767
526.7161, 1143.202
527.1982, 1143.934
527.6803, 1144.186
528.1624, 1144.448
528.6445, 1144.730
529.1266, 1145.189
529.6088, 1146.227
530.0909, 1147.431
530.5730, 1148.275
531.0551, 1148.762
531.5372, 1148.575
532.0193, 1146.649
532.5015, 1144.099
532.9836, 1142.685
533.4657, 1143.570
533.9478, 1145.032
534.4299, 1146.902
534.9120, 1149.037
535.3942, 1150.441
535.8763, 1150.495
536.3584, 1150.302
536.8405, 1150.313
537.3226, 1150.616
537.8047, 1150.855
538.2869, 1151.195
538.7690, 1151.266
539.2511, 1150.356
539.7332, 1148.310
540.2153, 1147.130
540.6974, 1147.367
541.1796, 1148.443
541.6617, 1149.513
542.1438, 1150.509
542.6259, 1150.800
543.1080, 1149.344
543.5901, 1147.237
544.0723, 1146.462
544.5544, 1146.969
545.0365, 1147.471
545.5186, 1146.797
546.0007, 1145.771
546.4828, 1145.303
546.9650, 1145.818
547.4471, 1146.249
547.9292, 1145.992
548.4113, 1145.441
548.8934, 1145.137
549.3755, 1145.476
549.8577, 1145.755
550.3398, 1145.785
550.8219, 1145.627
551.3040, 1145.588
551.7861, 1145.660
552.2682, 1145.868
552.7504, 1146.359
553.2325, 1147.209
553.7146, 1147.250
554.1967, 1146.260
554.6788, 1145.127
555.1609, 1144.803
555.6431, 1145.204
556.1252, 1145.687
556.6073, 1146.216
557.0894, 1146.606
557.5715, 1146.672
558.0536, 1146.405
558.5358, 1145.765
559.0179, 1143.881
559.5000, 1142.257
559.9821, 1142.471
560.4642, 1144.279
560.9464, 1146.065
561.4285, 1147.352
561.9106, 1148.178
562.3927, 1148.473
562.8748, 1148.049
563.3569, 1147.621
563.8391, 1147.116
564.3212, 1146.700
564.8033, 1146.545
565.2854, 1146.851
565.7675, 1146.976
566.2496, 1146.746
566.7318, 1146.371
567.2139, 1146.621
567.6960, 1147.713
568.1781, 1147.993
568.6602, 1146.260
569.1423, 1143.306
569.6245, 1142.252
570.1066, 1143.077
570.5887, 1144.213
571.0708, 1144.590
571.5529, 1144.486
572.0350, 1144.196
572.5172, 1143.665
572.9993, 1143.509
573.4814, 1144.476
573.9635, 1145.952
574.4456, 1147.178
574.9277, 1147.816
575.4099, 1148.259
575.8920, 1148.639
576.3741, 1148.898
576.8562, 1148.879
577.3383, 1147.967
577.8204, 1147.500
578.3026, 1148.090
578.7847, 1149.701
579.2668, 1150.320
579.7489, 1149.506
580.2310, 1148.797
580.7131, 1149.433
581.1953, 1151.389
581.6774, 1152.932
582.1595, 1153.928
582.6416, 1154.679
583.1237, 1155.686
583.6058, 1156.740
584.0880, 1157.190
584.5701, 1156.575
585.0522, 1155.722
585.5343, 1155.332
586.0164, 1155.338
586.4985, 1155.592
586.9807, 1156.191
587.4628, 1156.869
587.9449, 1157.446
588.4270, 1157.932
588.9091, 1158.612
