##NAMES=Muscovite
##RRUFFID=R061120
##IDEAL CHEMISTRY=KAl_2_(Si_3_Al)O_10_(OH)_2_
##LOCALITY=Aracuai City,  Minas Gerais, Brazil
##OWNER=RRUFF
##SOURCE=Michael Scott
##DESCRIPTION=Lavender prismatic micaceous crystals
##STATUS=The identification of this mineral has been confirmed by X-ray diffraction and chemical analysis
##URL=rruff.info/R061120
##MEASURED CHEMISTRY=(K_0.93_Na_0.07_)_Σ=1_(Al_1.95_Fe^3+^_0.05_)_Σ=2_(Si_3.00_Al_1.00_)O_10_(OH)_2_; = gray phase. OH is estimated by charge balance
183.9849, 36345.32
184.4670, 36384.92
184.9491, 36511.09
185.4312, 36667.93
185.9134, 36771.75
186.3955, 36808.51
186.8776, 36844.86
187.3597, 36933.91
187.8418, 37068.13
188.3239, 37190.42
188.8061, 37268.63
189.2882, 37343.64
189.7703, 37465.00
190.2524, 37638.71
190.7345, 37816.67
191.2166, 37962.96
191.6988, 38081.96
192.1809, 38202.02
192.6630, 38328.91
193.1451, 38461.73
193.6272, 38598.34
194.1093, 38739.26
194.5915, 38883.86
195.0736, 39040.25
195.5557, 39204.68
196.0378, 39348.79
196.5199, 39470.57
197.0020, 39563.96
197.4842, 39625.14
197.9663, 39655.28
198.4484, 39671.51
198.9305, 39687.88
199.4126, 39701.34
199.8947, 39691.51
200.3769, 39638.98
200.8590, 39583.16
201.3411, 39562.19
201.8232, 39568.88
202.3053, 39563.04
202.7874, 39509.21
203.2696, 39418.48
203.7517, 39345.46
204.2338, 39302.25
204.7159, 39266.97
205.1980, 39211.66
205.6801, 39147.27
206.1623, 39110.96
206.6444, 39134.72
207.1265, 39205.43
207.6086, 39277.70
208.0907, 39361.41
208.5728, 39425.98
209.0549, 39437.02
209.5371, 39416.95
210.0192, 39416.04
210.5013, 39468.04
210.9834, 39557.02
211.4655, 39632.73
211.9476, 39677.01
212.4298, 39746.34
212.9119, 39913.26
213.3940, 40118.45
213.8761, 40257.49
214.3582, 40261.95
214.8403, 40186.30
215.3225, 40147.64
215.8046, 40162.31
216.2867, 40170.38
216.7688, 40153.26
217.2509, 40110.81
217.7330, 40035.52
218.2152, 39913.45
218.6973, 39772.99
219.1794, 39660.01
219.6615, 39581.00
220.1436, 39506.96
220.6257, 39424.98
221.1079, 39342.78
221.5900, 39270.53
222.0721, 39215.34
222.5542, 39159.48
223.0363, 39073.77
223.5184, 38951.13
224.0006, 38842.69
224.4827, 38775.48
224.9648, 38724.84
225.4469, 38666.59
225.9290, 38594.15
226.4111, 38531.92
226.8933, 38517.52
227.3754, 38553.89
227.8575, 38567.69
228.3396, 38514.01
228.8217, 38451.20
229.3038, 38427.30
229.7860, 38447.11
230.2681, 38481.63
230.7502, 38516.42
231.2323, 38550.11
231.7144, 38561.81
232.1965, 38530.70
232.6787, 38494.50
233.1608, 38473.51
233.6429, 38469.76
234.1250, 38494.89
234.6071, 38577.09
235.0892, 38701.38
235.5714, 38792.09
236.0535, 38829.01
236.5356, 38850.38
237.0177, 38885.12
237.4998, 38929.39
237.9819, 38970.00
238.4641, 38983.46
238.9462, 38989.30
239.4283, 39043.05
239.9104, 39162.03
240.3925, 39291.55
240.8746, 39398.48
241.3568, 39488.66
241.8389, 39571.48
242.3210, 39637.04
242.8031, 39703.07
243.2852, 39801.82
243.7673, 39939.01
244.2495, 40081.91
244.7316, 40211.55
245.2137, 40335.59
245.6958, 40467.03
246.1779, 40614.80
246.6600, 40762.64
247.1422, 40877.57
247.6243, 40958.28
248.1064, 41083.13
248.5885, 41304.04
249.0706, 41584.64
249.5527, 41872.66
250.0349, 42172.96
250.5170, 42458.40
250.9991, 42690.94
251.4812, 42883.07
251.9633, 43107.95
252.4454, 43389.67
252.9276, 43719.67
253.4097, 44076.96
253.8918, 44459.75
254.3739, 44879.61
254.8560, 45376.02
255.3382, 45914.28
255.8203, 46394.30
256.3024, 46771.77
256.7845, 47136.88
257.2666, 47611.93
257.7487, 48185.68
258.2308, 48753.37
258.7130, 49310.69
259.1951, 49834.34
259.6772, 50285.78
260.1593, 50657.43
260.6414, 50984.21
261.1235, 51315.69
261.6057, 51639.00
262.0878, 51855.16
262.5699, 51946.77
263.0520, 51927.56
263.5341, 51797.61
264.0162, 51560.53
264.4984, 51242.55
264.9805, 50850.43
265.4626, 50387.01
265.9447, 49902.64
266.4268, 49388.63
266.9089, 48863.63
267.3911, 48341.66
267.8732, 47818.78
268.3553, 47273.27
268.8374, 46681.51
269.3195, 46077.34
269.8016, 45569.84
270.2838, 45209.26
270.7659, 44849.48
271.2480, 44439.07
271.7301, 44010.58
272.2122, 43606.63
272.6943, 43238.58
273.1765, 42908.29
273.6586, 42620.21
274.1407, 42390.34
274.6228, 42167.24
275.1049, 41933.30
275.5870, 41711.90
276.0692, 41531.70
276.5513, 41394.41
277.0334, 41268.05
277.5155, 41113.52
277.9976, 40916.25
278.4797, 40763.57
278.9619, 40671.19
279.4440, 40603.40
279.9261, 40545.45
280.4082, 40495.01
280.8903, 40457.31
281.3724, 40439.97
281.8546, 40440.85
282.3367, 40402.40
282.8188, 40269.64
283.3009, 40160.63
283.7830, 40123.69
284.2651, 40126.06
284.7473, 40111.76
285.2294, 40051.31
285.7115, 39963.15
286.1936, 39905.40
286.6757, 39916.76
287.1578, 39904.13
287.6400, 39836.53
288.1221, 39756.85
288.6042, 39706.02
289.0863, 39694.59
289.5684, 39699.70
290.0505, 39688.37
290.5327, 39657.99
291.0148, 39617.38
291.4969, 39548.44
291.9790, 39484.77
292.4611, 39451.74
292.9432, 39444.75
293.4254, 39435.53
293.9075, 39395.58
294.3896, 39324.16
294.8717, 39264.67
295.3538, 39207.36
295.8359, 39175.83
296.3181, 39194.38
296.8002, 39241.78
297.2823, 39278.46
297.7644, 39278.29
298.2465, 39257.66
298.7286, 39265.48
299.2108, 39317.65
299.6929, 39360.13
300.1750, 39364.41
300.6571, 39354.67
301.1392, 39354.60
301.6213, 39371.54
302.1035, 39394.85
302.5856, 39418.07
303.0677, 39442.18
303.5498, 39443.27
304.0319, 39393.18
304.5140, 39337.58
304.9962, 39321.75
305.4783, 39346.90
305.9604, 39370.99
306.4425, 39361.18
306.9246, 39329.45
307.4067, 39316.46
307.8889, 39336.72
308.3710, 39353.77
308.8531, 39318.10
309.3352, 39248.70
309.8173, 39210.01
310.2994, 39258.82
310.7816, 39324.21
311.2637, 39316.80
311.7458, 39235.55
312.2279, 39150.18
312.7100, 39094.27
313.1921, 39069.45
313.6743, 39069.88
314.1564, 39128.16
314.6385, 39169.65
315.1206, 39139.66
315.6027, 39065.11
316.0848, 39013.68
316.5670, 39013.36
317.0491, 39039.27
317.5312, 39045.66
318.0133, 39029.23
318.4954, 39004.14
318.9775, 38961.19
319.4597, 38916.44
319.9418, 38882.43
320.4239, 38862.46
320.9060, 38860.28
321.3881, 38884.88
321.8702, 38944.07
322.3524, 38969.39
322.8345, 38937.93
323.3166, 38900.63
323.7987, 38881.85
324.2808, 38875.86
324.7629, 38862.50
325.2451, 38827.66
325.7272, 38779.46
326.2093, 38756.28
326.6914, 38794.76
327.1735, 38812.80
327.6556, 38789.11
328.1378, 38748.37
328.6199, 38713.11
329.1020, 38690.99
329.5841, 38678.01
330.0662, 38671.08
330.5483, 38676.73
331.0305, 38667.34
331.5126, 38628.27
331.9947, 38585.50
332.4768, 38546.81
332.9589, 38515.02
333.4410, 38493.86
333.9232, 38493.46
334.4053, 38508.23
334.8874, 38495.29
335.3695, 38427.68
335.8516, 38379.14
336.3337, 38400.13
336.8159, 38451.59
337.2980, 38479.02
337.7801, 38461.84
338.2622, 38415.83
338.7443, 38353.59
339.2264, 38273.17
339.7086, 38203.93
340.1907, 38150.76
340.6728, 38118.78
341.1549, 38111.52
341.6370, 38129.97
342.1191, 38164.10
342.6013, 38229.67
343.0834, 38304.95
343.5655, 38333.87
344.0476, 38301.12
344.5297, 38250.86
345.0118, 38216.58
345.4940, 38198.70
345.9761, 38201.05
346.4582, 38252.49
346.9403, 38301.73
347.4224, 38301.56
347.9045, 38260.64
348.3867, 38222.59
348.8688, 38210.89
349.3509, 38220.41
349.8330, 38233.81
350.3151, 38255.59
350.7972, 38274.54
351.2794, 38293.96
351.7615, 38307.23
352.2436, 38298.77
352.7257, 38266.65
353.2078, 38237.03
353.6899, 38246.77
354.1721, 38310.77
354.6542, 38362.00
355.1363, 38413.32
355.6184, 38442.82
356.1005, 38424.42
356.5826, 38374.10
357.0648, 38330.95
357.5469, 38321.71
358.0290, 38340.64
358.5111, 38357.52
358.9932, 38363.45
359.4753, 38382.40
359.9575, 38441.99
360.4396, 38503.12
360.9217, 38519.80
361.4038, 38479.68
361.8859, 38426.79
362.3680, 38418.18
362.8502, 38457.10
363.3322, 38488.11
363.8144, 38493.74
364.2965, 38502.23
364.7786, 38543.05
365.2607, 38605.03
365.7428, 38645.87
366.2249, 38618.75
366.7071, 38563.62
367.1892, 38562.43
367.6713, 38622.72
368.1534, 38682.65
368.6355, 38699.33
369.1176, 38697.82
369.5998, 38731.67
370.0819, 38818.17
370.5640, 38912.49
371.0461, 38996.15
371.5282, 39069.49
372.0103, 39131.30
372.4925, 39180.36
372.9746, 39222.57
373.4567, 39265.87
373.9388, 39311.32
374.4209, 39351.90
374.9030, 39389.11
375.3852, 39419.96
375.8673, 39437.57
376.3494, 39445.62
376.8315, 39458.39
377.3136, 39487.11
377.7957, 39527.15
378.2779, 39551.65
378.7600, 39577.77
379.2421, 39564.80
379.7242, 39447.86
380.2063, 39320.31
380.6884, 39293.89
381.1706, 39391.65
381.6527, 39526.84
382.1348, 39581.18
382.6169, 39535.75
383.0990, 39498.65
383.5811, 39453.87
384.0633, 39434.98
384.5454, 39467.39
385.0275, 39536.64
385.5096, 39610.60
385.9917, 39675.70
386.4738, 39730.23
386.9560, 39765.59
387.4381, 39775.28
387.9202, 39794.93
388.4023, 39841.27
388.8844, 39902.60
389.3665, 39964.75
389.8487, 40025.27
390.3308, 40096.39
390.8129, 40199.76
391.2950, 40317.95
391.7771, 40407.56
392.2592, 40458.06
392.7414, 40497.94
393.2235, 40546.10
393.7056, 40604.56
394.1877, 40686.73
394.6698, 40830.13
395.1519, 40963.59
395.6341, 41035.00
396.1162, 41063.31
396.5983, 41098.99
397.0804, 41165.45
397.5625, 41249.54
398.0446, 41321.21
398.5268, 41372.99
399.0089, 41423.25
399.4910, 41476.57
399.9731, 41524.79
400.4552, 41557.87
400.9373, 41578.09
401.4195, 41598.45
401.9016, 41630.04
402.3837, 41671.97
402.8658, 41716.17
403.3479, 41772.86
403.8300, 41815.82
404.3122, 41845.97
404.7943, 41857.37
405.2764, 41838.32
405.7585, 41783.70
406.2406, 41718.07
406.7227, 41676.95
407.2049, 41659.36
407.6870, 41612.87
408.1691, 41509.28
408.6512, 41402.50
409.1333, 41343.44
409.6154, 41320.51
410.0976, 41286.11
410.5797, 41223.82
411.0618, 41142.30
411.5439, 41048.25
412.0260, 40942.43
412.5081, 40830.68
412.9903, 40713.51
413.4724, 40594.34
413.9545, 40484.70
414.4366, 40391.89
414.9187, 40290.02
415.4008, 40170.63
415.8830, 40041.05
416.3651, 39907.43
416.8472, 39770.60
417.3293, 39628.44
417.8114, 39474.91
418.2935, 39309.05
418.7757, 39183.70
419.2578, 39137.99
419.7399, 39089.54
420.2220, 39032.05
420.7041, 38958.97
421.1862, 38859.20
421.6684, 38729.33
422.1505, 38587.61
422.6326, 38458.63
423.1147, 38343.25
423.5968, 38234.31
424.0789, 38130.73
424.5611, 38034.68
425.0432, 37947.35
425.5253, 37868.24
426.0074, 37797.42
426.4895, 37747.82
426.9716, 37696.26
427.4538, 37598.52
427.9359, 37455.41
428.4180, 37329.98
428.9001, 37246.14
429.3822, 37194.81
429.8643, 37162.39
430.3465, 37153.21
430.8286, 37141.18
431.3107, 37137.06
431.7928, 37116.31
432.2749, 37044.32
432.7570, 36922.35
433.2392, 36786.25
433.7213, 36660.32
434.2034, 36544.54
434.6855, 36444.19
435.1676, 36343.07
435.6497, 36278.30
436.1319, 36294.70
436.6140, 36330.04
437.0961, 36313.50
437.5782, 36230.50
438.0603, 36127.75
438.5424, 36063.08
439.0246, 36040.34
439.5067, 36006.45
439.9888, 35955.38
440.4709, 35900.64
440.9530, 35836.27
441.4352, 35774.94
441.9173, 35741.71
442.3994, 35756.69
442.8815, 35777.80
443.3636, 35750.30
443.8457, 35680.62
444.3279, 35627.47
444.8100, 35615.61
445.2921, 35607.71
445.7742, 35546.16
446.2563, 35433.63
446.7384, 35348.80
447.2206, 35321.34
447.7027, 35313.82
448.1848, 35308.88
448.6669, 35300.49
449.1490, 35275.25
449.6311, 35224.96
450.1133, 35156.84
450.5954, 35087.88
451.0775, 35003.94
451.5596, 34942.83
452.0417, 34921.15
452.5238, 34907.16
453.0060, 34877.74
453.4881, 34834.60
453.9702, 34794.46
454.4523, 34769.75
454.9344, 34758.16
455.4165, 34754.74
455.8987, 34771.44
456.3808, 34766.59
456.8629, 34698.43
457.3450, 34618.20
457.8271, 34572.84
458.3092, 34569.71
458.7914, 34573.77
459.2735, 34562.24
459.7556, 34542.10
460.2377, 34529.38
460.7198, 34526.53
461.2019, 34522.49
461.6841, 34513.77
462.1662, 34496.95
462.6483, 34456.96
463.1304, 34347.74
463.6125, 34273.14
464.0946, 34283.32
464.5768, 34334.86
465.0589, 34382.57
465.5410, 34412.77
466.0231, 34422.16
466.5052, 34403.85
466.9873, 34355.06
467.4695, 34316.18
467.9516, 34297.30
468.4337, 34276.87
468.9158, 34240.83
469.3979, 34203.70
469.8800, 34187.37
470.3622, 34199.50
470.8443, 34219.42
471.3264, 34227.72
471.8085, 34223.99
472.2906, 34198.83
472.7727, 34139.04
473.2549, 34080.96
473.7370, 34064.07
474.2191, 34072.96
474.7012, 34065.87
475.1833, 34015.34
475.6654, 33966.87
476.1476, 33956.45
476.6297, 33970.42
477.1118, 33982.08
477.5939, 33983.79
478.0760, 33965.10
478.5581, 33904.72
479.0403, 33780.39
479.5224, 33711.97
480.0045, 33755.03
480.4866, 33787.91
480.9687, 33744.25
481.4508, 33659.75
481.9330, 33602.27
482.4151, 33602.30
482.8972, 33629.07
483.3793, 33634.74
483.8614, 33618.23
484.3435, 33584.93
484.8257, 33509.20
485.3078, 33448.49
485.7899, 33452.70
486.2720, 33500.93
486.7541, 33528.85
487.2362, 33493.93
487.7183, 33449.82
488.2004, 33469.45
488.6826, 33531.71
489.1647, 33532.81
489.6468, 33425.61
490.1289, 33290.68
490.6110, 33244.97
491.0931, 33322.71
491.5753, 33360.72
492.0574, 33339.63
492.5395, 33298.44
493.0216, 33245.39
493.5037, 33189.44
493.9858, 33147.48
494.4680, 33128.04
494.9501, 33115.08
495.4322, 33076.11
495.9143, 33003.32
496.3964, 32936.12
496.8785, 32863.30
497.3607, 32812.88
497.8428, 32806.75
498.3249, 32833.82
498.8070, 32867.98
499.2891, 32911.32
499.7712, 32940.21
500.2534, 32921.85
500.7355, 32861.96
501.2176, 32789.39
501.6997, 32705.51
502.1818, 32630.85
502.6639, 32594.94
503.1461, 32605.51
503.6282, 32604.12
504.1103, 32569.30
504.5924, 32542.13
505.0745, 32560.79
505.5566, 32599.87
506.0388, 32602.42
506.5209, 32545.43
507.0030, 32473.06
507.4851, 32470.20
507.9672, 32566.88
508.4493, 32609.06
508.9315, 32544.27
509.4136, 32477.11
509.8957, 32460.66
510.3778, 32473.82
510.8599, 32472.90
511.3420, 32440.10
511.8242, 32393.16
512.3063, 32348.33
512.7884, 32304.95
513.2705, 32255.44
513.7526, 32193.55
514.2347, 32146.04
514.7169, 32150.18
515.1990, 32208.45
515.6811, 32221.92
516.1632, 32148.26
516.6453, 32078.27
517.1274, 32057.65
517.6096, 32059.12
518.0917, 32037.88
518.5738, 31982.25
519.0559, 31920.61
519.5380, 31889.51
520.0201, 31891.43
520.5023, 31889.29
520.9844, 31864.73
521.4665, 31864.10
521.9486, 31943.88
522.4307, 32039.53
522.9128, 32054.89
523.3950, 31954.43
523.8771, 31845.73
524.3592, 31821.30
524.8413, 31847.20
525.3234, 31835.42
525.8055, 31772.05
526.2877, 31716.59
526.7698, 31717.75
527.2519, 31764.42
527.7340, 31781.32
528.2161, 31758.04
528.6982, 31723.54
529.1804, 31661.35
529.6625, 31603.21
530.1446, 31586.78
530.6267, 31610.11
531.1088, 31635.96
531.5909, 31630.52
532.0731, 31603.21
532.5552, 31603.68
533.0373, 31648.81
533.5194, 31675.38
534.0015, 31654.96
534.4836, 31613.03
534.9658, 31569.03
535.4479, 31524.47
535.9300, 31479.26
536.4121, 31412.78
536.8942, 31358.71
537.3763, 31377.45
537.8585, 31454.43
538.3406, 31500.32
538.8227, 31467.96
539.3048, 31395.11
539.7869, 31360.31
540.2690, 31388.67
540.7512, 31399.48
541.2333, 31378.49
541.7154, 31355.57
542.1975, 31354.24
542.6796, 31361.61
543.1617, 31345.60
543.6439, 31287.17
544.1260, 31219.35
544.6081, 31196.61
545.0902, 31218.11
545.5723, 31235.21
546.0544, 31241.91
546.5366, 31239.86
547.0187, 31224.75
547.5008, 31201.04
547.9829, 31184.83
548.4650, 31188.77
548.9471, 31188.46
549.4293, 31159.13
549.9114, 31123.47
550.3935, 31122.25
550.8756, 31161.31
551.3577, 31203.95
551.8398, 31212.59
552.3220, 31188.86
552.8041, 31174.28
553.2862, 31183.57
553.7683, 31178.71
554.2504, 31142.46
554.7325, 31095.97
555.2147, 31057.79
555.6968, 31030.42
556.1789, 31004.67
556.6610, 30967.16
557.1431, 30930.33
557.6252, 30920.23
558.1074, 30936.29
558.5895, 30953.51
559.0716, 30960.63
559.5537, 30962.19
560.0358, 30969.79
560.5179, 31000.78
561.0001, 30991.39
561.4822, 30889.10
561.9643, 30795.62
562.4464, 30780.80
562.9285, 30816.46
563.4106, 30840.14
563.8928, 30823.02
564.3749, 30783.71
564.8570, 30748.57
565.3391, 30717.88
565.8212, 30685.30
566.3033, 30644.83
566.7855, 30612.38
567.2676, 30611.98
567.7497, 30626.30
568.2318, 30616.23
568.7139, 30562.53
569.1960, 30509.08
569.6782, 30477.98
570.1603, 30458.56
570.6424, 30436.61
571.1245, 30410.14
571.6066, 30382.65
572.0887, 30355.20
572.5709, 30331.07
573.0530, 30332.77
573.5351, 30393.15
574.0172, 30416.29
574.4993, 30361.78
574.9814, 30289.32
575.4636, 30235.13
575.9457, 30199.93
576.4278, 30169.90
576.9099, 30131.13
577.3920, 30100.45
577.8741, 30117.63
578.3563, 30167.15
578.8384, 30163.74
579.3205, 30072.01
579.8026, 29969.90
580.2847, 29959.62
580.7668, 30059.64
581.2490, 30090.60
581.7311, 29998.82
582.2132, 29911.84
582.6953, 29870.01
583.1774, 29850.82
583.6595, 29826.53
584.1417, 29791.16
584.6238, 29757.28
585.1059, 29731.67
585.5880, 29717.10
586.0701, 29735.80
586.5522, 29797.41
587.0344, 29828.18
587.5165, 29782.78
587.9986, 29701.54
588.4807, 29653.11
588.9628, 29642.13
589.4449, 29630.88
589.9271, 29623.11
590.4092, 29604.34
590.8913, 29548.63
591.3734, 29476.39
591.8555, 29434.01
592.3376, 29440.46
592.8198, 29468.69
593.3019, 29480.03
593.7840, 29473.54
594.2661, 29461.83
594.7482, 29447.81
595.2303, 29423.90
595.7125, 29359.51
596.1946, 29292.15
596.6767, 29287.89
597.1588, 29377.53
597.6409, 29444.12
598.1230, 29414.04
598.6052, 29345.12
599.0873, 29295.20
599.5694, 29271.16
600.0515, 29272.12
600.5336, 29300.42
601.0157, 29339.28
601.4979, 29345.66
601.9800, 29303.79
602.4621, 29272.17
602.9442, 29252.67
603.4263, 29245.13
603.9084, 29261.62
604.3906, 29287.90
604.8727, 29296.43
605.3548, 29277.85
605.8369, 29243.41
606.3190, 29189.04
606.8011, 29128.15
607.2833, 29084.88
607.7654, 29063.14
608.2475, 29066.97
608.7296, 29106.40
609.2117, 29165.64
609.6938, 29176.17
610.1760, 29074.94
610.6581, 29030.53
611.1402, 29109.12
611.6223, 29187.56
612.1044, 29177.28
612.5865, 29104.55
613.0687, 29053.50
613.5508, 29066.44
614.0329, 29103.72
614.5150, 29126.43
614.9971, 29135.37
615.4792, 29131.58
615.9614, 29114.43
616.4435, 29092.09
616.9256, 29067.98
617.4077, 29044.42
617.8898, 29038.09
618.3719, 29038.12
618.8541, 29070.53
619.3362, 29179.59
619.8183, 29288.18
620.3004, 29331.24
620.7825, 29318.34
621.2646, 29299.57
621.7468, 29298.13
622.2289, 29315.38
622.7110, 29379.46
623.1931, 29477.68
623.6752, 29484.64
624.1573, 29352.84
624.6395, 29215.86
625.1216, 29191.79
625.6037, 29269.91
626.0858, 29330.22
626.5679, 29385.82
627.0500, 29409.36
627.5322, 29359.46
628.0143, 29302.26
628.4964, 29304.59
628.9785, 29357.95
629.4606, 29401.43
629.9427, 29391.85
630.4249, 29359.81
630.9070, 29372.57
631.3891, 29427.09
631.8712, 29443.71
632.3533, 29400.39
632.8354, 29330.96
633.3176, 29253.64
633.7997, 29172.78
634.2818, 29122.78
634.7639, 29119.14
635.2460, 29124.94
635.7281, 29159.38
636.2103, 29180.61
636.6924, 29133.70
637.1745, 29031.49
637.6566, 28943.44
638.1387, 28917.30
638.6208, 28924.47
639.1030, 28910.85
639.5851, 28876.38
640.0672, 28834.65
640.5493, 28785.30
641.0314, 28736.99
641.5135, 28700.77
641.9957, 28673.33
642.4778, 28631.20
642.9599, 28547.45
643.4420, 28485.10
643.9241, 28472.25
644.4063, 28475.72
644.8884, 28473.43
645.3705, 28459.43
645.8526, 28429.84
646.3347, 28380.83
646.8168, 28318.97
647.2990, 28249.78
647.7811, 28173.98
648.2632, 28121.14
648.7453, 28103.18
649.2274, 28088.54
649.7095, 28050.08
650.1917, 27994.13
650.6738, 27953.08
651.1559, 27931.62
651.6380, 27917.50
652.1201, 27931.04
652.6022, 27933.27
653.0844, 27875.95
653.5665, 27777.80
654.0486, 27700.18
654.5307, 27676.65
655.0128, 27684.63
655.4949, 27703.71
655.9771, 27729.28
656.4592, 27706.98
656.9413, 27620.10
657.4234, 27526.67
657.9055, 27464.00
658.3876, 27426.34
658.8698, 27393.35
659.3519, 27353.92
659.8340, 27337.96
660.3161, 27376.75
660.7982, 27413.85
661.2803, 27409.27
661.7625, 27373.43
662.2446, 27334.95
662.7267, 27306.16
663.2088, 27280.03
663.6909, 27239.47
664.1730, 27193.01
664.6552, 27183.84
665.1373, 27219.34
665.6194, 27253.60
666.1015, 27263.95
666.5836, 27252.87
667.0657, 27222.80
667.5479, 27150.12
668.0300, 27113.26
668.5121, 27148.33
668.9942, 27180.44
669.4763, 27165.63
669.9584, 27127.88
670.4406, 27107.92
670.9227, 27118.04
671.4048, 27136.78
671.8868, 27155.38
672.3690, 27166.04
672.8511, 27133.38
673.3332, 27061.79
673.8153, 27042.26
674.2974, 27125.03
674.7795, 27239.09
675.2617, 27265.21
675.7438, 27174.24
676.2259, 27142.83
676.7080, 27227.98
677.1901, 27304.99
677.6722, 27340.28
678.1544, 27353.08
