##NAMES=Muscovite
##RRUFFID=R040124
##IDEAL CHEMISTRY=KAl_2_(Si_3_Al)O_10_(OH)_2_
##LOCALITY=Garnet Hill, Pennsylvania, USA
##OWNER=RRUFF
##SOURCE=Bob Downs
##DESCRIPTION=Grayish green mica book
##STATUS=The identification of this mineral has been confirmed by X-ray diffraction and chemical analysis
##URL=rruff.info/R040124
##MEASURED CHEMISTRY=(K_0.90_Na_0.07_)(Al_0.86_Fe_0.10_Mg_0.04_)_2_(Si_0.76_Al_0.24_)_4_O_10_((OH)_0.99_F_0.01_)_2_
143.3943, 1365.896
143.8764, 1394.533
144.3585, 1424.599
144.8407, 1454.639
145.3228, 1481.735
145.8049, 1510.848
146.2870, 1547.154
146.7691, 1601.324
147.2512, 1648.040
147.7334, 1679.336
148.2155, 1690.272
148.6976, 1709.447
149.1797, 1747.022
149.6618, 1789.988
150.1439, 1820.874
150.6261, 1823.587
151.1082, 1828.311
151.5903, 1842.695
152.0724, 1869.879
152.5545, 1900.055
153.0366, 1935.863
153.5188, 1973.976
154.0009, 2007.713
154.4830, 2039.551
154.9651, 2064.620
155.4472, 2080.449
155.9293, 2079.552
156.4115, 2079.993
156.8936, 2083.166
157.3757, 2089.906
157.8578, 2103.016
158.3399, 2126.032
158.8221, 2154.093
159.3042, 2184.299
159.7863, 2224.641
160.2684, 2258.513
160.7505, 2274.536
161.2326, 2275.661
161.7148, 2283.574
162.1969, 2316.848
162.6790, 2357.822
163.1611, 2389.043
163.6432, 2399.115
164.1253, 2402.849
164.6075, 2406.157
165.0896, 2409.182
165.5717, 2414.277
166.0538, 2426.938
166.5359, 2441.768
167.0180, 2451.120
167.5002, 2445.344
167.9823, 2437.040
168.4644, 2437.629
168.9465, 2449.454
169.4286, 2459.675
169.9107, 2459.715
170.3929, 2451.253
170.8750, 2437.800
171.3571, 2413.842
171.8392, 2389.085
172.3213, 2376.441
172.8034, 2381.159
173.2856, 2386.416
173.7677, 2371.713
174.2498, 2342.839
174.7319, 2319.921
175.2140, 2324.015
175.6961, 2339.679
176.1783, 2341.553
176.6604, 2319.933
177.1425, 2292.420
177.6246, 2280.492
178.1067, 2282.654
178.5888, 2288.452
179.0710, 2288.675
179.5531, 2286.941
180.0352, 2291.510
180.5173, 2305.282
180.9994, 2325.301
181.4815, 2347.224
181.9637, 2371.225
182.4458, 2396.604
182.9279, 2423.726
183.4100, 2452.138
183.8921, 2480.320
184.3742, 2506.084
184.8564, 2532.174
185.3385, 2565.331
185.8206, 2606.270
186.3027, 2649.064
186.7848, 2686.966
187.2669, 2720.856
187.7491, 2758.743
188.2312, 2805.582
188.7133, 2858.476
189.1954, 2907.477
189.6775, 2951.771
190.1596, 2994.442
190.6418, 3041.240
191.1239, 3091.772
191.6060, 3138.791
192.0881, 3183.052
192.5702, 3223.170
193.0524, 3244.375
193.5345, 3243.341
194.0166, 3232.008
194.4987, 3230.332
194.9808, 3239.354
195.4629, 3242.301
195.9451, 3229.224
196.4272, 3200.292
196.9093, 3171.943
197.3914, 3144.242
197.8735, 3117.820
198.3556, 3094.819
198.8378, 3076.014
199.3199, 3056.240
199.8020, 3031.343
200.2841, 3000.900
200.7662, 2975.347
201.2483, 2956.521
201.7305, 2941.781
202.2126, 2923.187
202.6947, 2898.623
203.1768, 2878.107
203.6589, 2869.740
204.1410, 2875.767
204.6232, 2878.678
205.1053, 2877.127
205.5874, 2871.399
206.0695, 2859.487
206.5516, 2836.578
207.0337, 2820.130
207.5159, 2825.419
207.9980, 2857.903
208.4801, 2885.338
208.9622, 2902.335
209.4443, 2911.306
209.9264, 2923.831
210.4086, 2940.204
210.8907, 2959.634
211.3728, 2982.961
211.8549, 3013.415
212.3370, 3036.587
212.8191, 3046.673
213.3013, 3046.306
213.7834, 3061.589
214.2655, 3102.551
214.7476, 3143.128
215.2297, 3159.816
215.7118, 3146.692
216.1940, 3126.365
216.6761, 3102.903
217.1582, 3076.048
217.6403, 3040.788
218.1224, 2994.856
218.6045, 2944.128
219.0867, 2894.872
219.5688, 2850.770
220.0509, 2799.633
220.5330, 2736.384
221.0151, 2659.677
221.4972, 2597.404
221.9794, 2556.112
222.4615, 2521.333
222.9436, 2475.778
223.4257, 2411.314
223.9078, 2352.323
224.3899, 2306.383
224.8721, 2274.051
225.3542, 2239.129
225.8363, 2199.049
226.3184, 2158.529
226.8005, 2121.909
227.2827, 2088.091
227.7648, 2060.943
228.2469, 2042.695
228.7290, 2034.627
229.2111, 2025.923
229.6932, 2016.249
230.1754, 2006.312
230.6575, 1996.327
231.1396, 1983.818
231.6217, 1975.791
232.1038, 1974.123
232.5859, 1979.114
233.0681, 1989.810
233.5502, 2011.255
234.0323, 2034.736
234.5144, 2046.300
234.9965, 2035.664
235.4786, 2030.440
235.9608, 2040.447
236.4429, 2069.524
236.9250, 2094.787
237.4071, 2112.528
237.8892, 2128.590
238.3713, 2151.797
238.8535, 2181.809
239.3356, 2219.650
239.8177, 2267.187
240.2998, 2327.898
240.7819, 2384.968
241.2640, 2436.099
241.7462, 2485.838
242.2283, 2542.751
242.7104, 2610.231
243.1925, 2679.192
243.6746, 2744.700
244.1567, 2801.599
244.6389, 2874.290
245.1210, 2965.837
245.6031, 3071.024
246.0852, 3179.380
246.5673, 3286.169
247.0494, 3404.256
247.5316, 3539.345
248.0137, 3695.472
248.4958, 3854.332
248.9779, 4006.872
249.4600, 4166.574
249.9421, 4355.282
250.4243, 4580.998
250.9064, 4823.397
251.3885, 5074.965
251.8706, 5334.820
252.3527, 5609.025
252.8348, 5888.334
253.3170, 6186.684
253.7991, 6534.184
254.2812, 6946.157
254.7633, 7370.788
255.2454, 7792.017
255.7275, 8206.286
256.2097, 8618.082
256.6918, 9029.724
257.1739, 9432.646
257.6560, 9821.358
258.1381, 10212.83
258.6202, 10556.48
259.1024, 10839.12
259.5845, 11058.78
260.0666, 11216.84
260.5487, 11319.32
261.0308, 11354.91
261.5129, 11303.26
261.9951, 11156.61
262.4772, 10941.77
262.9593, 10664.28
263.4414, 10312.64
263.9235, 9939.401
264.4056, 9533.770
264.8878, 9112.051
265.3699, 8689.732
265.8520, 8257.201
266.3341, 7841.184
266.8162, 7446.542
267.2983, 7077.088
267.7805, 6726.308
268.2626, 6396.744
268.7447, 6086.372
269.2268, 5790.056
269.7089, 5505.091
270.1910, 5245.059
270.6732, 5017.239
271.1553, 4825.917
271.6374, 4634.560
272.1195, 4439.780
272.6016, 4249.538
273.0837, 4083.802
273.5659, 3944.031
274.0480, 3817.125
274.5301, 3697.642
275.0122, 3586.142
275.4943, 3482.354
275.9764, 3386.398
276.4586, 3297.936
276.9407, 3217.188
277.4228, 3145.644
277.9049, 3077.415
278.3870, 3009.954
278.8691, 2943.549
279.3513, 2886.638
279.8334, 2841.750
280.3155, 2799.858
280.7976, 2746.163
281.2798, 2680.424
281.7619, 2619.435
282.2440, 2570.899
282.7261, 2533.312
283.2082, 2495.482
283.6903, 2457.319
284.1725, 2419.249
284.6546, 2380.094
285.1367, 2340.390
285.6188, 2305.323
286.1009, 2275.339
286.5830, 2251.386
287.0652, 2242.040
287.5473, 2249.993
288.0294, 2256.987
288.5115, 2236.387
288.9936, 2192.157
289.4757, 2158.344
289.9579, 2152.818
290.4400, 2164.108
290.9221, 2159.068
291.4042, 2136.753
291.8863, 2109.894
292.3684, 2088.297
292.8506, 2072.237
293.3327, 2062.735
293.8148, 2062.804
294.2969, 2067.997
294.7790, 2070.412
295.2611, 2070.045
295.7433, 2067.095
296.2254, 2061.023
296.7075, 2052.355
297.1896, 2042.814
297.6717, 2032.398
298.1538, 2021.566
298.6360, 2007.678
299.1181, 1991.485
299.6002, 1983.354
300.0823, 1997.466
300.5644, 2024.514
301.0465, 2046.933
301.5287, 2058.930
302.0108, 2065.938
302.4929, 2075.406
302.9750, 2086.146
303.4571, 2090.828
303.9392, 2076.970
304.4214, 2056.396
304.9035, 2045.306
305.3856, 2050.798
305.8677, 2061.935
306.3498, 2070.231
306.8319, 2076.391
307.3141, 2083.090
307.7962, 2094.068
308.2783, 2105.232
308.7604, 2112.722
309.2425, 2115.345
309.7246, 2114.733
310.2068, 2105.530
310.6889, 2093.100
311.1710, 2091.171
311.6531, 2124.451
312.1352, 2159.744
312.6173, 2168.721
313.0995, 2137.159
313.5816, 2107.487
314.0637, 2100.300
314.5458, 2108.684
315.0279, 2119.447
315.5100, 2132.383
315.9922, 2142.718
316.4743, 2147.262
316.9564, 2144.520
317.4385, 2140.682
317.9206, 2136.680
318.4027, 2133.052
318.8849, 2130.552
319.3670, 2130.473
319.8491, 2130.594
320.3312, 2130.609
320.8133, 2130.815
321.2954, 2128.825
321.7776, 2120.976
322.2597, 2111.918
322.7418, 2106.615
323.2239, 2112.124
323.7060, 2115.115
324.1881, 2113.362
324.6703, 2106.881
325.1524, 2094.197
325.6345, 2063.945
326.1166, 2033.547
326.5987, 2016.813
327.0808, 2025.810
327.5630, 2034.432
328.0451, 2041.521
328.5272, 2046.860
329.0093, 2045.318
329.4914, 2030.829
329.9735, 2015.022
330.4557, 2005.656
330.9378, 2006.752
331.4199, 2007.290
331.9020, 2006.120
332.3841, 2003.681
332.8662, 2002.511
333.3484, 2004.617
333.8305, 2004.961
334.3126, 1999.235
334.7947, 1982.967
335.2768, 1976.056
335.7589, 1985.622
336.2411, 2001.702
336.7232, 1994.368
337.2053, 1952.689
337.6874, 1919.722
338.1695, 1922.545
338.6516, 1967.510
339.1338, 1990.392
339.6159, 1984.328
340.0980, 1964.835
340.5801, 1957.356
341.0622, 1962.703
341.5443, 1972.206
342.0265, 1984.903
342.5086, 1999.845
342.9907, 2008.147
343.4728, 2008.674
343.9549, 2006.724
344.4370, 2008.280
344.9192, 2013.118
345.4013, 2019.403
345.8834, 2026.900
346.3655, 2035.206
346.8476, 2042.639
347.3297, 2049.110
347.8119, 2056.274
348.2940, 2064.437
348.7761, 2074.360
349.2582, 2088.269
349.7403, 2108.500
350.2225, 2131.592
350.7046, 2153.595
351.1867, 2174.596
351.6688, 2193.747
352.1509, 2208.815
352.6331, 2222.114
353.1152, 2237.371
353.5973, 2256.360
354.0794, 2275.709
354.5615, 2292.108
355.0436, 2306.324
355.5258, 2320.701
356.0079, 2332.967
356.4900, 2347.928
356.9721, 2371.796
357.4542, 2408.990
357.9363, 2443.332
358.4185, 2464.339
358.9006, 2476.503
359.3827, 2487.602
359.8648, 2494.713
360.3469, 2506.258
360.8290, 2527.466
361.3112, 2559.773
361.7933, 2595.137
362.2754, 2637.111
362.7575, 2678.793
363.2396, 2712.823
363.7217, 2728.245
364.2039, 2744.677
364.6860, 2767.119
365.1681, 2795.864
365.6502, 2826.347
366.1323, 2863.910
366.6144, 2899.742
367.0966, 2927.796
367.5787, 2939.032
368.0608, 2952.955
368.5429, 2970.070
369.0250, 2990.693
369.5071, 3016.479
369.9893, 3053.602
370.4714, 3088.589
370.9535, 3113.704
371.4356, 3120.457
371.9177, 3136.999
372.3998, 3169.384
372.8820, 3208.945
373.3641, 3234.958
373.8462, 3242.573
374.3283, 3249.095
374.8104, 3261.237
375.2925, 3279.607
375.7747, 3297.361
376.2568, 3313.856
376.7389, 3331.296
377.2210, 3354.971
377.7031, 3385.772
378.1852, 3409.292
378.6674, 3416.811
379.1495, 3413.785
379.6316, 3425.761
380.1137, 3453.834
380.5958, 3486.082
381.0779, 3511.601
381.5601, 3531.761
382.0422, 3550.912
382.5243, 3568.954
383.0064, 3588.490
383.4885, 3617.256
383.9706, 3653.857
384.4528, 3686.007
384.9349, 3698.607
385.4170, 3703.242
385.8991, 3718.975
386.3812, 3749.123
386.8633, 3789.564
387.3455, 3842.819
387.8276, 3903.577
388.3097, 3960.626
388.7918, 4005.592
389.2739, 4045.667
389.7560, 4085.406
390.2382, 4124.932
390.7203, 4166.900
391.2024, 4216.630
391.6845, 4268.086
392.1666, 4314.949
392.6487, 4340.736
393.1309, 4374.713
393.6130, 4431.934
394.0951, 4510.772
394.5772, 4588.519
395.0593, 4664.565
395.5414, 4734.551
396.0236, 4794.928
396.5057, 4818.795
396.9878, 4864.701
397.4699, 4952.848
397.9520, 5068.809
398.4341, 5166.424
398.9163, 5237.717
399.3984, 5298.680
399.8805, 5352.319
400.3626, 5391.713
400.8447, 5445.455
401.3268, 5522.608
401.8090, 5607.354
402.2911, 5679.202
402.7732, 5735.570
403.2553, 5783.602
403.7374, 5822.658
404.2195, 5853.435
404.7017, 5890.938
405.1838, 5939.257
405.6659, 5983.573
406.1480, 6009.807
406.6301, 6017.953
407.1122, 6019.556
407.5944, 6016.452
408.0765, 6008.176
408.5586, 5995.250
409.0407, 5977.578
409.5228, 5950.289
410.0049, 5905.743
410.4871, 5849.331
410.9692, 5797.472
411.4513, 5753.825
411.9334, 5705.939
412.4155, 5634.645
412.8976, 5545.617
413.3798, 5458.351
413.8619, 5385.190
414.3440, 5314.680
414.8261, 5234.758
415.3082, 5144.733
415.7903, 5047.754
416.2725, 4932.748
416.7546, 4816.116
417.2367, 4714.542
417.7188, 4652.414
418.2009, 4588.118
418.6830, 4499.432
419.1652, 4392.065
419.6473, 4290.421
420.1294, 4204.531
420.6115, 4124.244
421.0937, 4041.562
421.5758, 3950.871
422.0579, 3871.360
422.5400, 3815.812
423.0221, 3770.642
423.5042, 3712.132
423.9864, 3622.072
424.4685, 3538.932
424.9506, 3471.305
425.4327, 3421.173
425.9148, 3372.737
426.3969, 3326.175
426.8791, 3281.129
427.3612, 3238.345
427.8433, 3199.263
428.3254, 3158.248
428.8075, 3114.434
429.2896, 3068.299
429.7718, 3021.110
430.2539, 2971.797
430.7360, 2926.490
431.2181, 2891.095
431.7002, 2864.856
432.1823, 2835.185
432.6645, 2799.732
433.1466, 2766.510
433.6287, 2751.476
434.1108, 2750.700
434.5929, 2744.351
435.0750, 2720.935
435.5572, 2688.353
436.0393, 2661.273
436.5214, 2639.334
437.0035, 2614.714
437.4856, 2573.881
437.9677, 2528.987
438.4499, 2498.546
438.9320, 2494.411
439.4141, 2493.610
439.8962, 2478.857
440.3783, 2454.659
440.8604, 2432.199
441.3426, 2416.561
441.8247, 2404.246
442.3068, 2395.463
442.7889, 2392.435
443.2710, 2382.178
443.7531, 2355.029
444.2353, 2321.341
444.7174, 2292.088
445.1995, 2271.940
445.6816, 2253.318
446.1637, 2234.484
446.6458, 2215.836
447.1280, 2200.236
447.6101, 2189.089
448.0922, 2179.397
448.5743, 2168.842
449.0564, 2154.017
449.5385, 2148.750
450.0207, 2159.277
450.5028, 2174.155
450.9849, 2168.928
451.4670, 2139.311
451.9491, 2111.580
452.4312, 2096.230
452.9134, 2091.863
453.3955, 2087.919
453.8776, 2084.715
454.3597, 2079.843
454.8418, 2068.849
455.3239, 2053.583
455.8061, 2041.548
456.2882, 2032.790
456.7703, 2030.381
457.2524, 2045.741
457.7345, 2073.660
458.2166, 2093.125
458.6988, 2085.013
459.1809, 2065.014
459.6630, 2047.601
460.1451, 2033.317
460.6272, 2027.606
461.1093, 2042.563
461.5915, 2065.441
462.0736, 2080.094
462.5557, 2074.106
463.0378, 2065.957
463.5199, 2062.260
464.0020, 2062.540
464.4842, 2062.180
464.9663, 2054.268
465.4484, 2049.926
465.9305, 2055.994
466.4126, 2085.570
466.8947, 2102.823
467.3769, 2102.200
467.8590, 2091.698
468.3411, 2084.408
468.8232, 2083.039
469.3053, 2079.340
469.7874, 2069.641
470.2696, 2054.538
470.7517, 2045.326
471.2338, 2042.840
471.7159, 2043.689
472.1980, 2045.498
472.6801, 2048.270
473.1623, 2051.939
473.6444, 2057.015
474.1265, 2062.017
474.6086, 2066.473
475.0907, 2069.594
475.5728, 2066.284
476.0550, 2047.475
476.5371, 2022.665
477.0192, 2007.038
477.5013, 2001.038
477.9834, 2000.894
478.4655, 2009.736
478.9477, 2020.828
479.4298, 2024.934
479.9119, 2013.967
480.3940, 2002.228
480.8761, 1995.747
481.3582, 1994.190
481.8404, 1996.762
482.3225, 2015.192
482.8046, 2027.804
483.2867, 2022.262
483.7688, 1990.661
484.2509, 1964.797
484.7331, 1948.886
485.2152, 1939.212
485.6973, 1932.135
486.1794, 1927.089
486.6615, 1926.175
487.1436, 1933.250
487.6258, 1944.860
488.1079, 1942.578
488.5900, 1921.328
489.0721, 1900.220
489.5542, 1891.329
490.0363, 1894.740
490.5185, 1893.257
491.0006, 1885.444
491.4827, 1876.118
491.9648, 1873.207
492.4470, 1875.149
492.9291, 1873.131
493.4112, 1861.948
493.8933, 1847.153
494.3754, 1838.058
494.8575, 1833.743
495.3397, 1828.981
495.8218, 1816.303
496.3039, 1803.217
496.7860, 1799.968
497.2681, 1811.267
497.7502, 1819.357
498.2324, 1808.798
498.7145, 1791.058
499.1966, 1781.534
499.6787, 1800.603
500.1608, 1812.685
500.6429, 1800.080
501.1251, 1764.934
501.6072, 1744.401
502.0893, 1751.873
502.5714, 1764.641
503.0535, 1773.033
503.5356, 1778.311
504.0178, 1775.170
504.4999, 1758.434
504.9820, 1738.023
505.4641, 1728.836
505.9462, 1732.124
506.4283, 1740.804
506.9105, 1756.280
507.3926, 1774.813
507.8747, 1780.571
508.3568, 1773.123
508.8389, 1760.555
509.3210, 1743.945
509.8032, 1726.751
510.2853, 1719.276
510.7674, 1724.013
511.2495, 1733.300
511.7316, 1742.987
512.2137, 1751.258
512.6959, 1754.326
513.1780, 1741.868
513.6601, 1731.031
514.1422, 1735.775
514.6243, 1753.880
515.1064, 1769.513
515.5886, 1782.142
516.0707, 1786.419
516.5528, 1776.498
517.0349, 1737.570
517.5170, 1713.805
517.9991, 1718.207
518.4813, 1736.732
518.9634, 1752.733
519.4455, 1767.573
519.9276, 1777.294
520.4097, 1779.366
520.8918, 1775.205
521.3740, 1774.260
521.8561, 1776.837
522.3382, 1781.623
522.8203, 1788.366
523.3024, 1796.897
523.7845, 1806.125
524.2667, 1816.802
524.7488, 1825.202
525.2309, 1824.723
525.7130, 1817.868
526.1951, 1813.248
526.6772, 1813.420
527.1594, 1817.654
527.6415, 1826.426
528.1236, 1838.938
528.6057, 1851.932
529.0878, 1867.020
529.5699, 1879.474
530.0521, 1883.725
530.5342, 1876.504
531.0163, 1873.078
531.4984, 1880.013
531.9805, 1892.470
532.4626, 1905.306
532.9448, 1922.990
533.4269, 1934.722
533.9090, 1937.431
534.3911, 1933.110
534.8732, 1928.387
535.3553, 1919.574
535.8375, 1917.485
536.3196, 1931.319
536.8017, 1962.848
537.2838, 1973.229
537.7659, 1957.612
538.2480, 1937.141
538.7302, 1935.988
539.2123, 1951.458
539.6944, 1965.884
540.1765, 1977.197
540.6586, 1982.592
541.1407, 1972.800
541.6229, 1952.435
542.1050, 1937.913
542.5871, 1940.297
543.0692, 1950.974
543.5513, 1964.878
544.0334, 1981.502
544.5156, 1994.527
544.9977, 1998.676
545.4798, 1999.332
545.9619, 2000.532
546.4440, 2002.003
546.9261, 2005.591
547.4083, 2011.628
547.8904, 2020.004
548.3725, 2031.006
548.8546, 2050.297
549.3367, 2062.861
549.8188, 2063.297
550.3010, 2052.771
550.7831, 2044.427
551.2652, 2038.117
551.7473, 2034.470
552.2294, 2034.297
552.7115, 2037.413
553.1937, 2042.646
553.6758, 2050.361
554.1579, 2058.297
554.6400, 2061.542
555.1221, 2062.538
555.6042, 2068.579
556.0864, 2088.153
556.5685, 2108.019
557.0506, 2113.183
557.5327, 2107.096
558.0148, 2102.454
558.4969, 2108.798
558.9791, 2115.974
559.4612, 2115.875
559.9433, 2104.952
560.4254, 2101.032
560.9075, 2113.821
561.3896, 2131.407
561.8718, 2143.428
562.3539, 2147.312
562.8360, 2149.890
563.3181, 2151.298
563.8002, 2151.844
564.2823, 2152.286
564.7645, 2152.677
565.2466, 2152.638
565.7287, 2151.376
566.2108, 2149.509
566.6929, 2151.866
567.1750, 2158.746
567.6572, 2162.689
568.1393, 2151.531
568.6214, 2133.868
569.1035, 2129.060
569.5856, 2142.760
570.0677, 2158.404
570.5499, 2161.963
571.0320, 2158.545
571.5141, 2156.285
571.9962, 2161.041
572.4783, 2164.658
572.9604, 2162.671
573.4426, 2156.252
573.9247, 2151.567
574.4068, 2150.323
574.8889, 2150.410
575.3710, 2151.043
575.8531, 2152.102
576.3353, 2154.582
576.8174, 2159.720
577.2995, 2164.410
577.7816, 2164.113
578.2637, 2157.855
578.7458, 2158.007
579.2280, 2168.039
579.7101, 2182.152
580.1922, 2191.318
580.6743, 2195.701
581.1564, 2196.221
581.6385, 2189.271
582.1207, 2180.856
582.6028, 2178.615
583.0849, 2182.259
583.5670, 2189.301
584.0491, 2202.059
584.5313, 2215.219
585.0134, 2223.713
585.4955, 2224.309
585.9776, 2228.307
586.4597, 2244.275
586.9418, 2262.688
587.4240, 2272.137
587.9061, 2261.843
588.3882, 2259.622
588.8703, 2273.535
589.3524, 2296.039
589.8345, 2302.026
590.3167, 2285.730
590.7988, 2275.228
591.2809, 2284.808
591.7630, 2310.574
592.2451, 2332.795
592.7272, 2351.352
593.2094, 2369.254
593.6915, 2392.729
594.1736, 2416.574
594.6557, 2428.479
595.1378, 2423.185
595.6199, 2419.042
596.1021, 2434.351
596.5842, 2458.250
597.0663, 2475.315
597.5485, 2473.413
598.0306, 2471.001
598.5127, 2469.592
598.9948, 2471.348
599.4769, 2485.380
599.9590, 2520.099
600.4412, 2557.602
600.9233, 2593.768
601.4054, 2629.267
601.8875, 2654.357
602.3696, 2665.621
602.8517, 2674.426
603.3339, 2692.399
603.8160, 2718.448
604.2981, 2733.119
604.7802, 2730.782
605.2623, 2728.580
605.7444, 2753.656
606.2266, 2797.123
606.7087, 2833.851
607.1908, 2851.574
607.6729, 2862.990
608.1550, 2877.243
608.6371, 2893.479
609.1193, 2909.409
609.6014, 2924.899
610.0835, 2939.084
610.5656, 2950.571
611.0477, 2958.735
611.5298, 2968.900
612.0120, 2983.425
612.4941, 2997.714
612.9762, 3008.649
613.4583, 3015.714
613.9404, 3020.783
614.4225, 3023.000
614.9047, 3024.807
615.3868, 3027.613
615.8689, 3031.945
616.3510, 3045.978
616.8331, 3078.462
617.3152, 3113.466
617.7974, 3123.154
618.2795, 3112.935
618.7616, 3104.462
619.2437, 3115.237
619.7258, 3128.126
620.2079, 3128.644
620.6901, 3116.144
621.1722, 3105.692
621.6543, 3102.554
622.1364, 3103.128
622.6185, 3105.094
623.1006, 3107.306
623.5828, 3113.549
624.0649, 3127.852
624.5470, 3142.490
625.0291, 3147.021
625.5112, 3139.204
625.9933, 3133.835
626.4755, 3135.200
626.9576, 3138.304
627.4397, 3128.801
627.9218, 3109.024
628.4039, 3096.777
628.8860, 3108.496
629.3682, 3128.803
629.8503, 3136.405
630.3324, 3132.597
630.8145, 3127.484
631.2966, 3125.094
631.7787, 3124.841
632.2609, 3127.874
632.7430, 3136.797
633.2251, 3139.141
633.7072, 3127.002
634.1893, 3110.608
634.6714, 3098.411
635.1536, 3092.823
635.6357, 3086.482
636.1178, 3080.131
636.5999, 3071.566
637.0820, 3053.431
637.5641, 3025.119
638.0463, 3005.282
638.5284, 3004.041
639.0105, 3011.245
