##NAMES=Muscovite
##RRUFFID=R050080
##IDEAL CHEMISTRY=KAl_2_(Si_3_Al)O_10_(OH)_2_
##LOCALITY=Brazil
##OWNER=RRUFF
##SOURCE=Rock Currier
##DESCRIPTION=Tan colored micaceous crystals of 2M1 polytype
##STATUS=The identification of this mineral has been confirmed by X-ray diffraction and chemical analysis
##URL=rruff.info/R050080
##MEASURED CHEMISTRY=(K_0.93_Na_0.07_)(Al_0.99_Fe^3+^_0.01_)_2_(Si_3.00_Al_1.00_)O_10_((OH)_0.97_F_0.03_)_2_
129.2154, 2002.342
129.6975, 2114.864
130.1796, 2221.371
130.6617, 2328.391
131.1439, 2444.943
131.6260, 2577.648
132.1081, 2723.662
132.5902, 2860.595
133.0723, 3012.102
133.5544, 3128.227
134.0366, 3207.094
134.5187, 3242.462
135.0008, 3219.631
135.4829, 3123.704
135.9650, 2959.131
136.4471, 2819.330
136.9293, 2709.298
137.4114, 2616.186
137.8935, 2539.746
138.3756, 2477.581
138.8577, 2424.661
139.3398, 2377.450
139.8220, 2335.937
140.3041, 2305.239
140.7862, 2280.853
141.2683, 2268.382
141.7504, 2268.717
142.2325, 2282.847
142.7147, 2313.074
143.1968, 2361.551
143.6789, 2429.440
144.1610, 2513.365
144.6431, 2627.155
145.1252, 2742.970
145.6074, 2846.167
146.0895, 2936.473
146.5716, 3020.077
147.0537, 3101.956
147.5358, 3181.304
148.0179, 3252.886
148.5001, 3317.036
148.9822, 3373.402
149.4643, 3423.115
149.9464, 3466.247
150.4285, 3499.238
150.9106, 3519.524
151.3928, 3525.831
151.8749, 3520.181
152.3570, 3506.056
152.8391, 3477.856
153.3212, 3425.623
153.8033, 3348.155
154.2855, 3264.379
154.7676, 3187.700
155.2497, 3116.523
155.7318, 3044.988
156.2139, 2965.994
156.6960, 2889.252
157.1782, 2825.938
157.6603, 2777.214
158.1424, 2737.948
158.6245, 2704.693
159.1066, 2678.208
159.5887, 2662.864
160.0709, 2667.590
160.5530, 2681.266
161.0351, 2687.111
161.5172, 2682.661
161.9993, 2678.156
162.4814, 2685.390
162.9636, 2697.824
163.4457, 2702.788
163.9278, 2688.242
164.4099, 2665.629
164.8920, 2654.829
165.3741, 2656.310
165.8563, 2668.811
166.3384, 2703.877
166.8205, 2748.113
167.3026, 2777.469
167.7847, 2772.622
168.2668, 2749.867
168.7490, 2746.353
169.2311, 2769.940
169.7132, 2795.289
170.1953, 2809.358
170.6774, 2816.235
171.1595, 2822.066
171.6417, 2831.171
172.1238, 2840.398
172.6059, 2840.682
173.0880, 2827.427
173.5701, 2814.245
174.0522, 2806.903
174.5344, 2803.441
175.0165, 2801.287
175.4986, 2798.910
175.9807, 2797.165
176.4628, 2799.659
176.9449, 2811.689
177.4271, 2817.745
177.9092, 2806.791
178.3913, 2788.421
178.8734, 2776.196
179.3555, 2778.326
179.8376, 2789.257
180.3197, 2792.206
180.8019, 2782.921
181.2840, 2772.740
181.7661, 2762.602
182.2482, 2754.548
182.7303, 2751.170
183.2124, 2753.751
183.6946, 2761.733
184.1767, 2775.393
184.6588, 2803.766
185.1409, 2821.051
185.6230, 2815.549
186.1051, 2798.945
186.5873, 2784.030
187.0694, 2776.557
187.5515, 2774.667
188.0336, 2773.726
188.5157, 2775.126
188.9978, 2774.978
189.4800, 2767.884
189.9621, 2760.881
190.4442, 2762.093
190.9263, 2775.544
191.4084, 2796.512
191.8905, 2814.063
192.3727, 2828.764
192.8548, 2838.443
193.3369, 2835.226
193.8190, 2831.191
194.3011, 2838.385
194.7832, 2861.655
195.2654, 2895.873
195.7475, 2931.831
196.2296, 2978.797
196.7117, 3009.152
197.1938, 3011.557
197.6759, 3003.295
198.1581, 2999.035
198.6402, 3003.747
199.1223, 3012.415
199.6044, 3016.178
200.0865, 3015.093
200.5686, 3008.141
201.0508, 2994.942
201.5329, 2977.343
202.0150, 2954.412
202.4971, 2926.534
202.9792, 2899.207
203.4613, 2881.731
203.9435, 2878.553
204.4256, 2875.772
204.9077, 2875.905
205.3898, 2874.005
205.8719, 2862.013
206.3540, 2840.427
206.8362, 2821.854
207.3183, 2826.903
207.8004, 2871.116
208.2825, 2899.013
208.7646, 2906.540
209.2467, 2903.016
209.7289, 2887.472
210.2110, 2863.192
210.6931, 2840.861
211.1752, 2833.166
211.6573, 2842.885
212.1395, 2857.800
212.6216, 2891.219
213.1037, 2918.223
213.5858, 2923.075
214.0679, 2908.005
214.5500, 2887.688
215.0322, 2877.948
215.5143, 2882.363
215.9964, 2873.272
216.4785, 2833.924
216.9606, 2796.733
217.4427, 2778.109
217.9249, 2773.205
218.4070, 2765.569
218.8891, 2740.998
219.3712, 2699.013
219.8533, 2657.374
220.3354, 2613.883
220.8176, 2572.944
221.2997, 2532.483
221.7818, 2495.594
222.2639, 2468.574
222.7460, 2457.314
223.2281, 2459.933
223.7103, 2457.206
224.1924, 2447.732
224.6745, 2433.587
225.1566, 2408.597
225.6387, 2380.470
226.1208, 2361.617
226.6030, 2360.406
227.0851, 2371.192
227.5672, 2369.537
228.0493, 2340.087
228.5314, 2318.698
229.0135, 2316.398
229.4957, 2323.071
229.9778, 2326.398
230.4599, 2320.673
230.9420, 2310.923
231.4241, 2310.406
231.9062, 2327.827
232.3884, 2339.547
232.8705, 2342.102
233.3526, 2338.873
233.8347, 2329.964
234.3168, 2315.921
234.7989, 2303.183
235.2811, 2304.410
235.7632, 2327.745
236.2453, 2345.868
236.7274, 2352.418
237.2095, 2356.616
237.6916, 2364.787
238.1738, 2378.021
238.6559, 2392.948
239.1380, 2404.073
239.6201, 2408.236
240.1022, 2420.671
240.5843, 2449.777
241.0665, 2480.801
241.5486, 2507.582
242.0307, 2529.614
242.5128, 2549.040
242.9949, 2565.511
243.4770, 2577.967
243.9592, 2600.871
244.4413, 2641.634
244.9234, 2687.081
245.4055, 2735.572
245.8876, 2785.166
246.3697, 2831.948
246.8519, 2872.692
247.3340, 2908.276
247.8161, 2943.324
248.2982, 2969.838
248.7803, 3007.830
249.2624, 3070.237
249.7446, 3146.640
250.2267, 3219.300
250.7088, 3277.589
251.1909, 3327.886
251.6730, 3389.413
252.1551, 3467.153
252.6373, 3546.890
253.1194, 3617.327
253.6015, 3689.493
254.0836, 3776.792
254.5657, 3885.372
255.0478, 4005.457
255.5300, 4121.494
256.0121, 4230.328
256.4942, 4346.117
256.9763, 4485.107
257.4584, 4625.413
257.9406, 4750.881
258.4227, 4857.645
258.9048, 4957.938
259.3869, 5067.795
259.8690, 5188.308
260.3511, 5297.644
260.8333, 5398.475
261.3154, 5479.731
261.7975, 5533.312
262.2796, 5559.576
262.7617, 5570.656
263.2438, 5584.307
263.7260, 5593.952
264.2081, 5557.712
264.6902, 5454.064
265.1723, 5328.454
265.6544, 5219.176
266.1365, 5118.481
266.6187, 5000.775
267.1008, 4844.264
267.5829, 4664.254
268.0650, 4489.433
268.5471, 4317.979
269.0292, 4160.625
269.5114, 4037.177
269.9935, 3932.928
270.4756, 3822.072
270.9577, 3685.975
271.4398, 3550.486
271.9219, 3447.511
272.4041, 3377.653
272.8862, 3314.886
273.3683, 3249.144
273.8504, 3181.374
274.3325, 3112.773
274.8146, 3038.879
275.2968, 2972.212
275.7789, 2926.059
276.2610, 2895.720
276.7431, 2860.371
277.2252, 2809.883
277.7073, 2754.997
278.1895, 2712.661
278.6716, 2682.831
279.1537, 2660.929
279.6358, 2651.498
280.1179, 2647.663
280.6000, 2637.173
281.0822, 2616.822
281.5643, 2592.633
282.0464, 2570.611
282.5285, 2550.811
283.0106, 2533.934
283.4927, 2525.002
283.9749, 2515.931
284.4570, 2495.682
284.9391, 2464.686
285.4212, 2438.131
285.9033, 2430.410
286.3854, 2441.154
286.8676, 2441.291
287.3497, 2423.039
287.8318, 2402.793
288.3139, 2384.744
288.7960, 2370.742
289.2781, 2366.670
289.7603, 2377.710
290.2424, 2397.937
290.7245, 2401.807
291.2066, 2373.575
291.6887, 2349.667
292.1708, 2337.828
292.6530, 2332.420
293.1351, 2326.249
293.6172, 2316.806
294.0993, 2306.642
294.5814, 2300.148
295.0635, 2297.208
295.5457, 2298.944
296.0278, 2309.554
296.5099, 2321.428
296.9920, 2329.644
297.4741, 2333.470
297.9562, 2334.403
298.4384, 2333.733
298.9205, 2331.173
299.4026, 2328.979
299.8847, 2327.822
300.3668, 2326.355
300.8489, 2320.920
301.3310, 2314.849
301.8131, 2316.195
302.2953, 2332.050
302.7774, 2357.654
303.2595, 2367.977
303.7416, 2352.303
304.2237, 2336.223
304.7058, 2322.334
305.1880, 2311.969
305.6701, 2306.942
306.1522, 2308.010
306.6343, 2312.884
307.1164, 2319.365
307.5985, 2329.516
308.0807, 2333.426
308.5628, 2320.321
309.0449, 2306.653
309.5270, 2303.939
310.0091, 2312.501
310.4912, 2321.887
310.9734, 2321.693
311.4555, 2313.054
311.9376, 2309.194
312.4197, 2315.323
312.9018, 2320.001
313.3839, 2313.646
313.8661, 2300.225
314.3482, 2290.191
314.8303, 2289.670
315.3124, 2294.779
315.7945, 2299.995
316.2766, 2305.922
316.7588, 2308.324
317.2409, 2302.972
317.7230, 2293.089
318.2051, 2283.650
318.6872, 2274.138
319.1693, 2267.152
319.6515, 2266.057
320.1336, 2269.669
320.6157, 2272.674
321.0978, 2273.270
321.5799, 2272.501
322.0620, 2272.621
322.5442, 2274.419
323.0263, 2272.981
323.5084, 2262.216
323.9905, 2249.421
324.4726, 2244.329
324.9547, 2248.544
325.4369, 2257.776
325.9190, 2270.207
326.4011, 2286.414
326.8832, 2290.648
327.3653, 2272.847
327.8474, 2252.830
328.3296, 2238.696
328.8117, 2231.340
329.2938, 2232.270
329.7759, 2243.449
330.2580, 2261.675
330.7401, 2272.055
331.2223, 2269.812
331.7044, 2265.598
332.1865, 2256.256
332.6686, 2247.389
333.1507, 2247.616
333.6328, 2258.713
334.1150, 2271.053
334.5971, 2268.629
335.0792, 2241.398
335.5613, 2226.916
336.0434, 2232.468
336.5255, 2242.674
337.0077, 2249.381
337.4898, 2253.479
337.9719, 2261.864
338.4540, 2283.340
338.9361, 2314.469
339.4182, 2322.244
339.9004, 2285.866
340.3825, 2256.448
340.8646, 2253.626
341.3467, 2263.782
341.8288, 2269.481
342.3109, 2263.731
342.7931, 2253.601
343.2752, 2249.569
343.7573, 2252.381
344.2394, 2256.262
344.7215, 2263.586
345.2036, 2268.304
345.6858, 2262.373
346.1679, 2245.969
346.6500, 2234.452
347.1321, 2241.586
347.6142, 2260.926
348.0963, 2275.488
348.5785, 2284.026
349.0606, 2286.445
349.5427, 2277.130
350.0248, 2260.880
350.5069, 2252.483
350.9890, 2261.066
351.4712, 2273.231
351.9533, 2278.098
352.4354, 2276.736
352.9175, 2274.167
353.3996, 2271.170
353.8817, 2270.238
354.3639, 2280.227
354.8460, 2310.062
355.3281, 2329.957
355.8102, 2325.359
356.2923, 2310.911
356.7744, 2302.983
357.2566, 2305.211
357.7387, 2313.689
358.2208, 2325.198
358.7029, 2341.655
359.1850, 2349.784
359.6671, 2341.765
360.1493, 2334.452
360.6314, 2335.866
361.1135, 2343.900
361.5956, 2352.577
362.0777, 2358.273
362.5598, 2362.523
363.0420, 2371.444
363.5241, 2390.905
364.0062, 2405.466
364.4883, 2409.510
364.9704, 2410.853
365.4525, 2416.413
365.9347, 2427.452
366.4168, 2439.801
366.8989, 2447.910
367.3810, 2451.383
367.8631, 2458.064
368.3452, 2466.958
368.8274, 2481.226
369.3095, 2505.563
369.7916, 2536.106
370.2737, 2563.590
370.7558, 2583.066
371.2379, 2597.556
371.7201, 2610.633
372.2022, 2621.841
372.6843, 2636.229
373.1664, 2659.973
373.6485, 2685.459
374.1306, 2701.198
374.6128, 2705.034
375.0949, 2705.629
375.5770, 2705.816
376.0591, 2706.154
376.5412, 2707.184
377.0233, 2708.769
377.5055, 2713.081
377.9876, 2723.378
378.4697, 2740.438
378.9518, 2754.485
379.4339, 2764.705
379.9160, 2772.471
380.3982, 2776.162
380.8803, 2777.793
381.3624, 2783.290
381.8445, 2796.453
382.3266, 2813.567
382.8087, 2823.463
383.2909, 2818.226
383.7730, 2815.665
384.2551, 2819.650
384.7372, 2824.168
385.2193, 2820.788
385.7014, 2810.297
386.1836, 2804.673
386.6657, 2819.406
387.1478, 2856.156
387.6299, 2879.756
388.1120, 2876.289
388.5941, 2875.502
389.0763, 2890.430
389.5584, 2913.490
390.0405, 2932.191
390.5226, 2940.950
391.0047, 2944.384
391.4868, 2947.781
391.9690, 2950.373
392.4511, 2961.352
392.9332, 2994.986
393.4153, 3026.870
393.8974, 3027.253
394.3795, 2996.516
394.8617, 2977.680
395.3438, 3003.926
395.8259, 3051.313
396.3080, 3080.728
396.7901, 3088.354
397.2722, 3085.046
397.7544, 3073.028
398.2365, 3056.178
398.7186, 3053.069
399.2007, 3078.221
399.6828, 3100.550
400.1649, 3103.419
400.6471, 3096.620
401.1292, 3098.647
401.6113, 3115.668
402.0934, 3135.346
402.5755, 3139.017
403.0576, 3119.988
403.5398, 3104.602
404.0219, 3095.952
404.5040, 3087.401
404.9861, 3073.559
405.4682, 3056.833
405.9503, 3044.434
406.4325, 3041.723
406.9146, 3044.860
407.3967, 3040.151
407.8788, 3024.909
408.3609, 3007.078
408.8430, 2986.061
409.3252, 2964.598
409.8073, 2946.200
410.2894, 2930.949
410.7715, 2913.057
411.2536, 2885.066
411.7357, 2849.359
412.2179, 2819.091
412.7000, 2795.976
413.1821, 2776.492
413.6642, 2762.432
414.1463, 2750.038
414.6284, 2731.393
415.1106, 2700.592
415.5927, 2668.441
416.0748, 2639.516
416.5569, 2615.231
417.0390, 2602.316
417.5211, 2604.964
418.0033, 2613.072
418.4854, 2612.167
418.9675, 2600.773
419.4496, 2583.870
419.9317, 2552.962
420.4138, 2523.755
420.8960, 2509.112
421.3781, 2506.043
421.8602, 2502.883
422.3423, 2492.125
422.8244, 2475.198
423.3065, 2457.959
423.7887, 2436.243
424.2708, 2421.078
424.7529, 2418.501
425.2350, 2418.958
425.7171, 2415.153
426.1992, 2405.865
426.6814, 2394.028
427.1635, 2381.615
427.6456, 2368.681
428.1277, 2357.139
428.6098, 2347.434
429.0919, 2338.310
429.5741, 2327.604
430.0562, 2317.365
430.5383, 2312.283
431.0204, 2317.698
431.5025, 2319.282
431.9846, 2299.719
432.4668, 2265.528
432.9489, 2240.381
433.4310, 2231.047
433.9131, 2229.958
434.3952, 2230.360
434.8773, 2232.791
435.3595, 2229.510
435.8416, 2216.216
436.3237, 2200.584
436.8058, 2186.304
437.2879, 2173.549
437.7701, 2161.157
438.2522, 2148.354
438.7343, 2136.842
439.2164, 2131.402
439.6985, 2137.254
440.1806, 2139.972
440.6628, 2137.412
441.1449, 2133.565
441.6270, 2131.665
442.1091, 2131.136
442.5912, 2128.644
443.0733, 2121.084
443.5555, 2109.857
444.0376, 2100.543
444.5197, 2093.901
445.0018, 2087.028
445.4839, 2077.977
445.9660, 2068.526
446.4482, 2059.921
446.9303, 2052.142
447.4124, 2046.879
447.8945, 2049.038
448.3766, 2053.697
448.8587, 2048.290
449.3409, 2030.345
449.8230, 2013.437
450.3051, 2008.136
450.7872, 2013.762
451.2693, 2020.105
451.7514, 2030.690
452.2336, 2037.873
452.7157, 2037.273
453.1978, 2032.415
453.6799, 2028.540
454.1620, 2027.052
454.6441, 2025.025
455.1263, 2018.401
455.6084, 2006.254
456.0905, 1994.824
456.5726, 1976.157
457.0547, 1966.885
457.5368, 1981.986
458.0190, 2007.590
458.5011, 2020.351
458.9832, 2008.963
459.4653, 1988.587
459.9474, 1981.018
460.4295, 1986.477
460.9117, 1991.779
461.3938, 1996.012
461.8759, 1997.151
462.3580, 1990.293
462.8401, 1977.589
463.3222, 1970.992
463.8044, 1978.465
464.2865, 1989.663
464.7686, 1995.879
465.2507, 1997.827
465.7328, 1999.589
466.2149, 2003.318
466.6971, 2006.349
467.1792, 2002.972
467.6613, 1986.883
468.1434, 1977.846
468.6255, 1980.038
469.1076, 1985.479
469.5898, 1992.107
470.0719, 1997.777
470.5540, 1997.564
471.0361, 1987.136
471.5182, 1972.074
472.0003, 1970.127
472.4825, 1987.625
472.9646, 2000.999
473.4467, 2003.945
473.9288, 2001.905
474.4109, 1997.039
474.8930, 1989.847
475.3752, 1981.801
475.8573, 1971.443
476.3394, 1961.684
476.8215, 1958.990
477.3036, 1963.567
477.7857, 1966.906
478.2679, 1964.364
478.7500, 1958.231
479.2321, 1954.348
479.7142, 1954.788
480.1963, 1952.160
480.6784, 1938.484
481.1606, 1925.551
481.6427, 1926.801
482.1248, 1940.929
482.6069, 1955.156
483.0890, 1959.899
483.5711, 1956.841
484.0533, 1955.631
484.5354, 1959.364
485.0175, 1959.705
485.4996, 1954.471
485.9817, 1946.562
486.4638, 1935.997
486.9460, 1923.923
487.4281, 1916.138
487.9102, 1919.624
488.3923, 1930.759
488.8744, 1939.532
489.3565, 1946.294
489.8387, 1947.746
490.3208, 1938.828
490.8029, 1925.155
491.2850, 1918.246
491.7671, 1919.116
492.2492, 1923.520
492.7314, 1935.500
493.2135, 1947.214
493.6956, 1948.551
494.1777, 1939.358
494.6598, 1926.926
495.1419, 1916.239
495.6241, 1907.460
496.1062, 1901.364
496.5883, 1897.721
497.0704, 1897.482
497.5525, 1904.570
498.0346, 1912.288
498.5168, 1914.946
498.9989, 1912.093
499.4810, 1907.208
499.9631, 1902.301
500.4452, 1897.677
500.9273, 1895.110
501.4095, 1895.344
501.8916, 1894.348
502.3737, 1888.939
502.8558, 1882.123
503.3379, 1878.681
503.8200, 1879.281
504.3022, 1880.838
504.7843, 1883.579
505.2664, 1885.889
505.7485, 1886.533
506.2306, 1885.097
506.7127, 1879.342
507.1949, 1866.452
507.6770, 1849.856
508.1591, 1844.975
508.6412, 1865.826
509.1233, 1877.952
509.6054, 1875.158
510.0876, 1866.830
510.5697, 1857.063
511.0518, 1847.874
511.5339, 1842.826
512.0161, 1846.398
512.4982, 1854.719
512.9803, 1855.440
513.4624, 1846.458
513.9445, 1843.244
514.4266, 1856.313
514.9088, 1873.315
515.3909, 1877.195
515.8730, 1866.918
516.3551, 1857.836
516.8372, 1855.192
517.3193, 1855.305
517.8015, 1856.246
518.2836, 1857.070
518.7657, 1854.971
519.2478, 1848.195
519.7299, 1838.834
520.2120, 1831.576
520.6942, 1824.684
521.1763, 1823.501
521.6584, 1832.262
522.1405, 1842.041
522.6226, 1850.650
523.1047, 1856.277
523.5869, 1854.844
524.0690, 1842.052
524.5511, 1826.012
525.0332, 1821.605
525.5153, 1828.737
525.9974, 1832.486
526.4796, 1828.850
526.9617, 1821.517
527.4438, 1811.807
527.9259, 1800.363
528.4080, 1795.383
528.8901, 1801.807
529.3723, 1811.268
529.8544, 1820.637
530.3365, 1829.133
530.8186, 1836.078
531.3007, 1841.201
531.7828, 1843.045
532.2650, 1838.549
532.7471, 1825.731
533.2292, 1818.873
533.7113, 1821.973
534.1934, 1826.745
534.6755, 1831.639
535.1577, 1836.306
535.6398, 1841.052
536.1219, 1846.240
536.6040, 1849.011
537.0861, 1845.421
537.5682, 1837.234
538.0504, 1829.369
538.5325, 1822.081
539.0146, 1818.012
539.4967, 1820.523
539.9788, 1827.784
540.4609, 1830.602
540.9431, 1825.970
541.4252, 1821.589
541.9073, 1816.151
542.3894, 1813.488
542.8715, 1821.117
543.3536, 1836.907
543.8358, 1847.869
544.3179, 1842.486
544.8000, 1825.105
545.2821, 1815.390
545.7642, 1816.776
546.2463, 1816.407
546.7285, 1808.343
547.2106, 1799.388
547.6926, 1793.714
548.1747, 1791.683
548.6569, 1793.931
549.1390, 1805.237
549.6211, 1817.812
550.1032, 1823.106
550.5853, 1821.944
551.0674, 1817.880
551.5496, 1811.849
552.0317, 1805.905
552.5138, 1803.554
552.9959, 1806.271
553.4780, 1807.595
553.9601, 1808.306
554.4423, 1807.025
554.9244, 1800.352
555.4065, 1792.203
555.8886, 1788.125
556.3707, 1790.121
556.8528, 1797.142
557.3350, 1810.586
557.8171, 1829.183
558.2992, 1843.484
558.7813, 1853.935
559.2634, 1855.519
559.7455, 1839.622
560.2277, 1812.724
560.7098, 1795.982
561.1919, 1792.206
561.6740, 1793.828
562.1561, 1803.957
562.6382, 1815.003
563.1204, 1817.212
563.6025, 1811.141
564.0846, 1806.274
564.5667, 1810.273
565.0488, 1819.473
565.5309, 1817.657
566.0131, 1796.579
566.4952, 1785.365
566.9773, 1797.922
567.4594, 1814.896
567.9415, 1826.786
568.4236, 1832.842
568.9058, 1833.044
569.3879, 1824.127
569.8700, 1812.270
570.3521, 1801.403
570.8342, 1792.568
571.3163, 1790.514
571.7985, 1797.154
572.2806, 1806.477
572.7627, 1811.746
573.2448, 1812.983
573.7269, 1809.906
574.2090, 1795.694
574.6912, 1785.481
575.1733, 1784.774
575.6554, 1789.121
576.1375, 1793.805
576.6196, 1797.666
577.1017, 1801.792
577.5839, 1809.616
578.0660, 1818.480
578.5481, 1816.948
579.0302, 1803.251
579.5123, 1794.231
579.9944, 1800.888
580.4766, 1813.767
580.9587, 1812.423
581.4408, 1791.925
581.9229, 1780.333
582.4050, 1789.198
582.8871, 1801.185
583.3693, 1805.850
583.8514, 1804.311
584.3335, 1800.898
584.8156, 1797.571
585.2977, 1793.932
585.7798, 1787.755
586.2620, 1778.206
586.7441, 1777.452
587.2262, 1793.346
587.7083, 1806.053
588.1904, 1797.884
588.6725, 1780.812
589.1547, 1775.439
589.6368, 1789.124
590.1189, 1802.194
590.6010, 1804.360
591.0831, 1801.047
591.5652, 1798.588
592.0474, 1797.659
592.5295, 1796.696
593.0116, 1794.655
593.4937, 1791.894
593.9758, 1788.964
594.4579, 1783.561
594.9401, 1783.510
595.4222, 1795.950
595.9043, 1808.015
596.3864, 1812.551
596.8685, 1811.570
597.3506, 1811.355
597.8328, 1816.342
598.3149, 1818.627
598.7970, 1805.191
599.2791, 1783.959
599.7612, 1777.823
600.2433, 1791.220
600.7255, 1806.833
601.2076, 1809.354
601.6897, 1801.045
602.1718, 1800.489
602.6539, 1818.338
603.1360, 1829.406
603.6182, 1827.590
604.1003, 1821.780
604.5824, 1816.527
605.0645, 1813.293
605.5466, 1813.986
606.0287, 1820.802
606.5109, 1830.616
606.9930, 1839.852
607.4751, 1848.275
607.9572, 1853.774
608.4393, 1855.659
608.9214, 1854.998
609.4036, 1851.495
609.8857, 1845.157
610.3678, 1845.738
610.8499, 1862.458
611.3320, 1873.747
611.8141, 1870.060
612.2963, 1861.440
612.7784, 1855.467
613.2605, 1854.614
613.7426, 1861.653
614.2247, 1882.633
614.7068, 1909.722
615.1890, 1921.464
615.6711, 1917.061
616.1532, 1915.449
616.6353, 1922.593
617.1174, 1933.461
617.5995, 1942.894
618.0817, 1950.881
618.5638, 1958.756
619.0459, 1968.061
619.5280, 1975.531
620.0101, 1975.480
620.4922, 1975.085
620.9744, 1987.295
621.4565, 2011.989
621.9386, 2031.519
622.4207, 2025.834
622.9028, 2004.075
623.3849, 2005.626
623.8671, 2035.713
624.3492, 2058.063
624.8313, 2057.889
