##NAMES=Muscovite
##RRUFFID=R040108
##IDEAL CHEMISTRY=KAl_2_(Si_3_Al)O_10_(OH)_2_
##LOCALITY=USSR
##OWNER=RRUFF
##SOURCE=University of Arizona Mineral Museum
##DESCRIPTION=Dark green hexagonal tablet
##STATUS=The identification of this mineral has been confirmed by X-ray diffraction and chemical analysis
##URL=rruff.info/R040108
##MEASURED CHEMISTRY=(K_0.96_Na_0.04_)_Σ=1_(Al_1.48_Fe^3+^_0.20_Mg_0.16_Fe^2+^_0.14_Ti_0.02_)_Σ=2_(Si_3.28_Al_0.72_)_Σ=4_O_10_(OH)_2_; OH estimated by charge balance
128.3790, 1566.972
128.8611, 1646.902
129.3432, 1736.914
129.8254, 1830.161
130.3075, 1931.182
130.7896, 2031.233
131.2717, 2127.368
131.7538, 2219.801
132.2359, 2310.505
132.7181, 2401.658
133.2002, 2494.347
133.6823, 2574.703
134.1644, 2663.239
134.6465, 2725.251
135.1286, 2728.288
135.6107, 2680.924
136.0929, 2627.409
136.5750, 2609.901
137.0571, 2636.885
137.5392, 2643.085
138.0213, 2618.676
138.5034, 2582.611
138.9856, 2545.966
139.4677, 2510.305
139.9498, 2473.223
140.4319, 2426.668
140.9140, 2364.426
141.3961, 2344.323
141.8783, 2384.648
142.3604, 2458.386
142.8425, 2542.417
143.3246, 2632.905
143.8067, 2734.647
144.2888, 2853.021
144.7710, 2987.989
145.2531, 3144.414
145.7352, 3330.991
146.2173, 3488.746
146.6994, 3587.835
147.1815, 3663.505
147.6637, 3721.413
148.1458, 3763.967
148.6279, 3793.888
149.1100, 3816.889
149.5921, 3832.209
150.0742, 3842.270
150.5564, 3856.490
151.0385, 3883.616
151.5206, 3894.928
152.0027, 3848.439
152.4848, 3748.746
152.9669, 3639.669
153.4491, 3534.919
153.9312, 3431.697
154.4133, 3322.630
154.8954, 3199.386
155.3775, 3081.177
155.8596, 2986.712
156.3418, 2914.350
156.8239, 2857.880
157.3060, 2816.961
157.7881, 2789.598
158.2702, 2769.872
158.7523, 2760.356
159.2345, 2753.138
159.7166, 2742.658
160.1987, 2729.292
160.6808, 2708.870
161.1629, 2675.717
161.6451, 2632.245
162.1272, 2591.758
162.6093, 2557.178
163.0914, 2526.661
163.5735, 2496.721
164.0556, 2467.332
164.5378, 2444.720
165.0199, 2437.677
165.5020, 2444.573
165.9841, 2445.996
166.4662, 2440.167
166.9483, 2425.705
167.4305, 2396.573
167.9126, 2353.150
168.3947, 2316.255
168.8768, 2305.998
169.3589, 2322.123
169.8410, 2338.123
170.3232, 2350.530
170.8053, 2360.116
171.2874, 2367.648
171.7695, 2373.053
172.2516, 2375.831
172.7337, 2375.212
173.2158, 2371.027
173.6980, 2364.709
174.1801, 2352.939
174.6622, 2341.434
175.1443, 2333.132
175.6264, 2328.344
176.1085, 2326.986
176.5907, 2330.497
177.0728, 2339.604
177.5549, 2346.031
178.0370, 2344.647
178.5191, 2342.762
179.0012, 2344.046
179.4834, 2349.004
179.9655, 2356.685
180.4476, 2367.200
180.9297, 2381.178
181.4118, 2393.281
181.8939, 2401.358
182.3761, 2408.271
182.8582, 2414.330
183.3403, 2419.945
183.8224, 2427.195
184.3045, 2439.214
184.7866, 2456.910
185.2688, 2473.135
185.7509, 2482.817
186.2330, 2493.961
186.7151, 2515.939
187.1972, 2547.659
187.6793, 2573.122
188.1615, 2571.485
188.6436, 2536.619
189.1257, 2509.423
189.6078, 2497.589
190.0899, 2491.467
190.5720, 2490.047
191.0542, 2491.806
191.5363, 2491.228
192.0184, 2480.045
192.5005, 2455.260
192.9826, 2437.693
193.4647, 2435.093
193.9469, 2435.260
194.4290, 2434.105
194.9111, 2430.723
195.3932, 2425.011
195.8753, 2416.803
196.3574, 2406.012
196.8396, 2393.189
197.3217, 2374.973
197.8038, 2357.309
198.2859, 2342.572
198.7680, 2330.880
199.2501, 2321.502
199.7323, 2314.269
200.2144, 2309.485
200.6965, 2304.402
201.1786, 2297.896
201.6607, 2291.936
202.1428, 2287.473
202.6250, 2284.370
203.1071, 2281.811
203.5892, 2280.393
204.0713, 2280.765
204.5534, 2274.837
205.0355, 2250.130
205.5177, 2229.955
205.9998, 2229.350
206.4819, 2242.860
206.9640, 2251.852
207.4461, 2236.093
207.9282, 2194.435
208.4103, 2169.198
208.8925, 2175.319
209.3746, 2184.567
209.8567, 2188.426
210.3388, 2186.967
210.8209, 2182.606
211.3030, 2175.852
211.7852, 2167.011
212.2673, 2162.460
212.7494, 2165.926
213.2315, 2169.958
213.7136, 2171.801
214.1957, 2172.183
214.6779, 2173.210
215.1600, 2177.647
215.6421, 2184.346
216.1242, 2183.424
216.6063, 2168.928
217.0884, 2154.154
217.5706, 2140.813
218.0527, 2130.565
218.5348, 2126.567
219.0169, 2132.458
219.4990, 2145.322
219.9811, 2152.828
220.4633, 2155.766
220.9454, 2151.235
221.4275, 2134.663
221.9096, 2112.136
222.3917, 2091.670
222.8738, 2076.839
223.3560, 2067.273
223.8381, 2063.850
224.3202, 2074.451
224.8023, 2075.681
225.2844, 2052.971
225.7665, 2020.970
226.2487, 1996.244
226.7308, 1985.793
227.2129, 1985.709
227.6950, 1990.608
228.1771, 2005.465
228.6592, 2012.168
229.1414, 2001.411
229.6235, 1982.563
230.1056, 1962.836
230.5877, 1944.076
231.0698, 1927.617
231.5519, 1915.485
232.0341, 1908.142
232.5162, 1903.639
232.9983, 1901.313
233.4804, 1901.788
233.9625, 1906.954
234.4446, 1917.554
234.9268, 1928.962
235.4089, 1936.323
235.8910, 1939.638
236.3731, 1939.156
236.8552, 1928.250
237.3373, 1918.215
237.8195, 1917.592
238.3016, 1927.413
238.7837, 1941.475
239.2658, 1954.323
239.7479, 1966.038
240.2300, 1980.161
240.7122, 1999.502
241.1943, 2019.275
241.6764, 2035.839
242.1585, 2049.303
242.6406, 2061.829
243.1227, 2072.236
243.6048, 2081.947
244.0870, 2099.740
244.5691, 2129.725
245.0512, 2163.959
245.5333, 2193.510
246.0154, 2220.313
246.4975, 2253.953
246.9797, 2301.836
247.4618, 2360.223
247.9439, 2417.458
248.4260, 2468.639
248.9081, 2528.607
249.3902, 2614.497
249.8724, 2718.029
250.3545, 2818.868
250.8366, 2902.795
251.3187, 2981.987
251.8008, 3073.726
252.2829, 3178.328
252.7651, 3294.477
253.2472, 3426.652
253.7293, 3569.831
254.2114, 3713.889
254.6935, 3857.195
255.1756, 4000.454
255.6578, 4144.811
256.1399, 4290.222
256.6220, 4431.876
257.1041, 4567.010
257.5862, 4695.676
258.0684, 4823.707
258.5505, 4964.936
259.0326, 5087.851
259.5147, 5170.500
259.9968, 5216.522
260.4789, 5240.104
260.9610, 5246.620
261.4431, 5234.080
261.9253, 5200.770
262.4074, 5148.441
262.8895, 5077.019
263.3716, 4982.688
263.8537, 4869.716
264.3358, 4743.785
264.8180, 4605.455
265.3001, 4460.060
265.7822, 4316.395
266.2643, 4173.706
266.7464, 4032.056
267.2285, 3891.943
267.7107, 3752.535
268.1928, 3608.555
268.6749, 3459.030
269.1570, 3317.486
269.6391, 3203.701
270.1212, 3128.637
270.6034, 3043.908
271.0855, 2935.704
271.5676, 2826.532
272.0497, 2734.808
272.5318, 2661.211
273.0139, 2596.788
273.4961, 2533.781
273.9782, 2472.673
274.4603, 2412.167
274.9424, 2346.119
275.4245, 2286.866
275.9066, 2244.269
276.3888, 2213.625
276.8709, 2181.518
277.3530, 2138.269
277.8351, 2085.764
278.3172, 2040.608
278.7993, 2004.732
279.2815, 1973.622
279.7636, 1949.811
280.2457, 1929.398
280.7278, 1905.401
281.2099, 1874.275
281.6920, 1840.915
282.1742, 1819.509
282.6563, 1822.727
283.1384, 1819.622
283.6205, 1805.711
284.1026, 1786.504
284.5847, 1764.918
285.0669, 1742.522
285.5490, 1722.011
286.0311, 1708.463
286.5132, 1704.735
286.9953, 1700.181
287.4774, 1695.961
287.9596, 1689.680
288.4417, 1678.577
288.9238, 1663.325
289.4059, 1648.030
289.8880, 1636.918
290.3701, 1630.314
290.8523, 1622.463
291.3344, 1609.700
291.8165, 1599.752
292.2986, 1597.479
292.7807, 1600.478
293.2628, 1603.078
293.7450, 1602.175
294.2271, 1598.103
294.7092, 1591.034
295.1913, 1577.649
295.6734, 1568.327
296.1555, 1571.084
296.6377, 1579.303
297.1198, 1584.512
297.6019, 1583.587
298.0840, 1579.092
298.5661, 1573.495
299.0482, 1566.529
299.5304, 1561.331
300.0125, 1559.709
300.4946, 1560.192
300.9767, 1560.604
301.4588, 1560.287
301.9409, 1562.019
302.4231, 1570.585
302.9052, 1583.650
303.3873, 1590.620
303.8694, 1586.818
304.3515, 1579.612
304.8336, 1579.158
305.3158, 1585.547
305.7979, 1589.029
306.2800, 1582.346
306.7621, 1572.507
307.2442, 1570.516
307.7263, 1578.252
308.2085, 1587.471
308.6906, 1589.751
309.1727, 1585.046
309.6548, 1586.374
310.1369, 1601.401
310.6190, 1616.533
311.1012, 1622.068
311.5833, 1619.214
312.0654, 1615.062
312.5475, 1614.089
313.0296, 1615.450
313.5117, 1613.788
313.9939, 1606.754
314.4760, 1599.994
314.9581, 1593.689
315.4402, 1588.781
315.9223, 1587.296
316.4044, 1590.068
316.8866, 1594.734
317.3687, 1596.599
317.8508, 1595.252
318.3329, 1591.237
318.8150, 1581.987
319.2971, 1572.038
319.7793, 1564.780
320.2614, 1560.653
320.7435, 1557.674
321.2256, 1553.795
321.7077, 1548.907
322.1898, 1543.729
322.6720, 1532.109
323.1541, 1526.139
323.6362, 1535.864
324.1183, 1554.791
324.6004, 1568.241
325.0826, 1565.077
325.5647, 1549.943
326.0468, 1543.177
326.5289, 1550.962
327.0110, 1555.819
327.4931, 1548.142
327.9753, 1536.867
328.4574, 1532.854
328.9395, 1540.732
329.4216, 1551.772
329.9037, 1554.835
330.3858, 1549.485
330.8679, 1541.946
331.3500, 1531.052
331.8322, 1520.843
332.3143, 1514.081
332.7964, 1510.851
333.2785, 1512.175
333.7606, 1522.167
334.2427, 1537.116
334.7249, 1547.322
335.2070, 1551.326
335.6891, 1551.143
336.1712, 1545.514
336.6533, 1536.035
337.1354, 1531.393
337.6176, 1538.559
338.0997, 1547.249
338.5818, 1547.037
339.0639, 1538.812
339.5460, 1531.658
340.0281, 1530.846
340.5103, 1535.207
340.9924, 1539.505
341.4745, 1544.156
341.9566, 1548.239
342.4387, 1551.105
342.9208, 1553.375
343.4030, 1555.284
343.8851, 1556.920
344.3672, 1560.062
344.8493, 1568.254
345.3314, 1587.369
345.8135, 1598.351
346.2957, 1594.687
346.7778, 1588.769
347.2599, 1588.812
347.7420, 1594.881
348.2241, 1602.222
348.7062, 1606.749
349.1884, 1608.502
349.6705, 1610.278
350.1526, 1608.478
350.6347, 1611.044
351.1168, 1624.546
351.5989, 1642.358
352.0811, 1654.399
352.5632, 1655.409
353.0453, 1650.961
353.5274, 1652.584
354.0095, 1662.379
354.4916, 1670.834
354.9738, 1673.766
355.4559, 1675.621
355.9380, 1678.591
356.4201, 1683.029
356.9022, 1690.354
357.3843, 1705.425
357.8665, 1725.302
358.3486, 1735.193
358.8307, 1729.415
359.3128, 1721.569
359.7949, 1724.952
360.2770, 1735.926
360.7592, 1742.529
361.2413, 1737.284
361.7234, 1729.189
362.2055, 1726.894
362.6876, 1730.210
363.1697, 1735.524
363.6519, 1740.750
364.1340, 1746.794
364.6161, 1756.834
365.0982, 1775.580
365.5803, 1790.594
366.0624, 1797.785
366.5446, 1799.503
367.0267, 1795.863
367.5088, 1787.348
367.9909, 1782.716
368.4730, 1795.949
368.9551, 1838.519
369.4373, 1860.081
369.9194, 1841.268
370.4015, 1822.143
370.8836, 1826.125
371.3657, 1848.363
371.8478, 1870.541
372.3300, 1880.004
372.8121, 1879.079
373.2942, 1880.791
373.7763, 1887.156
374.2584, 1893.173
374.7405, 1897.775
375.2227, 1901.621
375.7048, 1905.136
376.1869, 1908.435
376.6690, 1912.248
377.1511, 1917.208
377.6332, 1923.270
378.1154, 1931.527
378.5975, 1944.743
379.0796, 1957.246
379.5617, 1966.036
380.0438, 1971.029
380.5259, 1972.185
381.0081, 1963.164
381.4902, 1952.787
381.9723, 1958.476
382.4544, 1981.790
382.9365, 2001.392
383.4186, 2001.544
383.9008, 1989.804
384.3829, 1991.025
384.8650, 2015.700
385.3471, 2037.672
385.8292, 2043.496
386.3113, 2039.690
386.7935, 2036.748
387.2756, 2037.679
387.7577, 2042.979
388.2398, 2053.905
388.7219, 2073.369
389.2040, 2089.918
389.6862, 2105.006
390.1683, 2116.317
390.6504, 2119.470
391.1325, 2117.326
391.6146, 2117.798
392.0967, 2126.823
392.5789, 2142.349
393.0610, 2153.093
393.5431, 2153.029
394.0252, 2157.798
394.5073, 2171.209
394.9894, 2189.407
395.4716, 2210.027
395.9537, 2232.223
396.4358, 2253.764
396.9179, 2271.524
397.4000, 2285.493
397.8821, 2301.311
398.3643, 2321.028
398.8464, 2340.536
399.3285, 2358.047
399.8106, 2373.389
400.2927, 2385.995
400.7748, 2391.413
401.2569, 2396.501
401.7390, 2409.963
402.2212, 2431.453
402.7033, 2455.944
403.1854, 2482.192
403.6675, 2508.894
404.1496, 2532.100
404.6317, 2549.565
405.1139, 2569.477
405.5960, 2598.980
406.0781, 2629.597
406.5602, 2650.575
407.0423, 2660.303
407.5244, 2665.600
408.0066, 2672.352
408.4887, 2679.983
408.9708, 2695.556
409.4529, 2724.794
409.9350, 2754.981
410.4171, 2784.926
410.8993, 2812.548
411.3814, 2835.151
411.8635, 2851.607
412.3456, 2862.690
412.8277, 2869.342
413.3098, 2870.606
413.7920, 2870.749
414.2741, 2869.219
414.7562, 2867.622
415.2383, 2866.753
415.7204, 2866.671
416.2025, 2867.166
416.6847, 2869.086
417.1668, 2871.344
417.6489, 2872.673
418.1310, 2874.017
418.6131, 2868.733
419.0952, 2849.911
419.5774, 2822.396
420.0595, 2797.875
420.5416, 2772.737
421.0237, 2757.176
421.5058, 2707.392
421.9879, 2704.295
422.4701, 2694.956
422.9522, 2679.716
423.4343, 2640.890
423.9164, 2632.520
424.3985, 2611.946
424.8806, 2590.870
425.3628, 2586.785
425.8449, 2527.650
426.3270, 2498.520
426.8091, 2472.355
427.2912, 2445.221
427.7733, 2415.120
428.2555, 2382.876
428.7376, 2349.370
429.2197, 2312.698
429.7018, 2279.915
430.1839, 2255.286
430.6660, 2232.278
431.1482, 2208.005
431.6303, 2181.788
432.1124, 2152.427
432.5945, 2117.673
433.0766, 2079.357
433.5587, 2041.726
434.0409, 2004.275
434.5230, 1970.500
435.0051, 1941.819
435.4872, 1918.815
435.9693, 1901.907
436.4514, 1894.009
436.9336, 1887.311
437.4157, 1881.341
437.8978, 1873.166
438.3799, 1854.374
438.8620, 1822.707
439.3441, 1791.615
439.8263, 1777.776
440.3084, 1786.030
440.7905, 1782.282
441.2726, 1757.386
441.7547, 1731.954
442.2368, 1715.247
442.7190, 1703.833
443.2011, 1689.407
443.6832, 1667.759
444.1653, 1645.175
444.6474, 1636.805
445.1295, 1649.065
445.6117, 1653.925
446.0938, 1641.787
446.5759, 1626.048
447.0580, 1612.371
447.5401, 1601.395
448.0222, 1593.345
448.5044, 1591.237
448.9865, 1591.137
449.4686, 1584.487
449.9507, 1570.754
450.4328, 1558.965
450.9149, 1554.116
451.3971, 1553.494
451.8792, 1550.785
452.3613, 1544.741
452.8434, 1539.874
453.3255, 1538.683
453.8076, 1538.711
454.2898, 1535.979
454.7719, 1530.504
455.2540, 1527.532
455.7361, 1532.830
456.2182, 1545.906
456.7003, 1550.096
457.1825, 1534.553
457.6646, 1522.370
458.1467, 1521.277
458.6288, 1523.697
459.1109, 1519.907
459.5930, 1507.321
460.0752, 1493.548
460.5573, 1487.858
461.0394, 1490.282
461.5215, 1493.812
462.0036, 1500.053
462.4857, 1504.103
462.9679, 1501.539
463.4500, 1494.760
463.9321, 1488.896
464.4142, 1485.186
464.8963, 1482.977
465.3784, 1483.215
465.8606, 1484.747
466.3427, 1483.616
466.8248, 1478.450
467.3069, 1470.581
467.7890, 1460.711
468.2711, 1446.362
468.7533, 1440.457
469.2354, 1452.888
469.7175, 1464.246
470.1996, 1460.941
470.6817, 1448.348
471.1638, 1441.156
471.6459, 1447.728
472.1281, 1460.216
472.6102, 1458.595
473.0923, 1435.533
473.5744, 1419.115
474.0565, 1418.892
474.5386, 1421.737
475.0208, 1420.843
475.5029, 1416.330
475.9850, 1411.597
476.4671, 1409.527
476.9492, 1407.963
477.4313, 1401.632
477.9135, 1390.469
478.3956, 1383.458
478.8777, 1386.121
479.3598, 1393.847
479.8419, 1397.097
480.3240, 1395.322
480.8062, 1392.108
481.2883, 1387.261
481.7704, 1381.895
482.2525, 1376.138
482.7346, 1370.604
483.2167, 1367.429
483.6989, 1368.760
484.1810, 1373.115
484.6631, 1372.261
485.1452, 1361.204
485.6273, 1353.238
486.1094, 1353.173
486.5916, 1354.564
487.0737, 1351.302
487.5558, 1343.208
488.0379, 1336.158
488.5200, 1334.950
489.0021, 1338.412
489.4843, 1343.361
489.9664, 1350.015
490.4485, 1356.930
490.9306, 1365.814
491.4127, 1373.197
491.8948, 1371.771
492.3770, 1358.774
492.8591, 1343.296
493.3412, 1322.180
493.8233, 1303.384
494.3054, 1299.350
494.7875, 1310.084
495.2697, 1322.670
495.7518, 1326.062
496.2339, 1321.172
496.7160, 1319.469
497.1981, 1322.964
497.6802, 1327.157
498.1624, 1334.532
498.6445, 1340.379
499.1266, 1338.916
499.6087, 1329.600
500.0908, 1319.448
500.5729, 1314.891
501.0551, 1314.825
501.5372, 1314.654
502.0193, 1314.320
502.5014, 1313.264
502.9835, 1308.346
503.4656, 1303.503
503.9478, 1308.874
504.4299, 1334.115
504.9120, 1350.874
505.3941, 1339.168
505.8762, 1317.222
506.3583, 1308.667
506.8405, 1316.555
507.3226, 1329.061
507.8047, 1336.160
508.2868, 1338.271
508.7689, 1340.886
509.2510, 1343.234
509.7332, 1347.302
510.2153, 1356.322
510.6974, 1365.386
511.1795, 1369.057
511.6616, 1366.710
512.1437, 1363.557
512.6259, 1363.967
513.1080, 1367.248
513.5901, 1370.721
514.0722, 1374.096
514.5543, 1378.969
515.0364, 1388.394
515.5186, 1398.991
516.0007, 1402.275
516.4828, 1393.911
516.9649, 1387.588
517.4470, 1388.181
517.9291, 1392.539
518.4113, 1398.106
518.8934, 1404.111
519.3755, 1409.626
519.8576, 1413.759
520.3397, 1416.847
520.8218, 1421.425
521.3040, 1429.955
521.7861, 1435.715
522.2682, 1438.176
522.7503, 1437.408
523.2324, 1430.924
523.7145, 1419.681
524.1967, 1411.915
524.6788, 1413.639
525.1609, 1422.757
525.6430, 1436.750
526.1251, 1455.716
526.6072, 1472.619
527.0894, 1484.120
527.5715, 1491.488
528.0536, 1497.567
528.5357, 1502.823
529.0178, 1505.983
529.4999, 1503.873
529.9821, 1501.970
530.4642, 1504.505
530.9463, 1511.234
531.4284, 1520.985
531.9105, 1533.822
532.3926, 1546.327
532.8748, 1545.769
533.3569, 1523.776
533.8390, 1515.049
534.3211, 1539.200
534.8032, 1566.440
535.2853, 1576.711
535.7675, 1572.118
536.2496, 1567.048
536.7317, 1566.556
537.2138, 1569.367
537.6959, 1576.200
538.1780, 1585.709
538.6602, 1591.128
539.1423, 1589.284
539.6244, 1585.514
540.1065, 1588.193
540.5886, 1600.301
541.0707, 1608.168
541.5529, 1611.829
542.0350, 1611.669
542.5171, 1604.351
542.9992, 1594.208
543.4813, 1587.622
543.9634, 1587.106
544.4456, 1591.603
544.9277, 1602.219
545.4098, 1618.732
545.8919, 1628.887
546.3740, 1630.665
546.8561, 1627.509
547.3383, 1619.087
547.8204, 1607.574
548.3025, 1598.873
548.7846, 1594.520
549.2667, 1591.808
549.7488, 1590.366
550.2310, 1589.425
550.7131, 1587.469
551.1952, 1584.409
551.6773, 1582.039
552.1594, 1581.977
552.6415, 1584.167
553.1237, 1587.993
553.6058, 1596.163
554.0879, 1601.618
554.5700, 1600.326
555.0521, 1597.764
555.5342, 1599.787
556.0164, 1606.730
556.4985, 1612.128
556.9806, 1610.739
557.4627, 1605.481
557.9448, 1600.280
558.4269, 1595.407
558.9091, 1594.380
559.3912, 1600.145
559.8733, 1608.578
560.3554, 1610.883
560.8375, 1601.636
561.3196, 1598.323
561.8018, 1607.113
562.2839, 1616.343
562.7660, 1619.562
563.2481, 1617.695
563.7302, 1613.301
564.2123, 1607.135
564.6945, 1602.488
565.1766, 1607.245
565.6587, 1622.073
566.1408, 1629.540
566.6229, 1624.629
567.1050, 1616.430
567.5872, 1608.582
568.0693, 1602.715
568.5514, 1605.179
569.0335, 1624.168
569.5156, 1642.923
569.9977, 1653.911
570.4799, 1659.578
570.9620, 1661.789
571.4441, 1661.604
571.9262, 1662.683
572.4083, 1669.350
572.8904, 1680.636
573.3726, 1684.960
573.8547, 1676.852
574.3368, 1671.473
574.8189, 1673.030
575.3010, 1678.261
575.7831, 1686.348
576.2653, 1696.695
576.7473, 1703.911
577.2294, 1682.955
577.7115, 1696.779
578.1937, 1705.401
578.6758, 1709.101
579.1579, 1693.136
579.6400, 1702.564
580.1221, 1701.815
580.6042, 1700.649
581.0864, 1713.652
581.5685, 1700.547
582.0506, 1713.324
582.5327, 1715.770
583.0148, 1722.944
583.4969, 1719.879
583.9791, 1723.985
584.4612, 1726.488
584.9433, 1726.991
585.4254, 1727.749
585.9075, 1728.266
586.3896, 1724.898
586.8718, 1716.023
587.3539, 1710.318
587.8360, 1714.855
588.3181, 1726.794
588.8002, 1735.133
589.2823, 1741.295
589.7645, 1742.057
590.2466, 1733.514
590.7287, 1721.908
591.2108, 1710.390
591.6929, 1700.565
592.1750, 1695.289
592.6572, 1697.471
593.1393, 1702.789
593.6214, 1700.306
594.1035, 1688.944
594.5856, 1678.766
595.0677, 1670.091
595.5499, 1665.489
596.0320, 1672.479
596.5141, 1687.393
596.9962, 1691.622
597.4783, 1670.657
597.9604, 1651.319
598.4426, 1648.977
598.9247, 1655.707
599.4068, 1660.255
599.8889, 1660.019
600.3710, 1658.441
600.8531, 1659.037
601.3353, 1661.386
601.8174, 1661.119
602.2995, 1656.104
602.7816, 1653.427
603.2637, 1656.974
603.7458, 1662.515
604.2280, 1667.268
604.7101, 1670.964
605.1922, 1672.269
605.6743, 1668.733
606.1564, 1664.166
606.6385, 1662.576
607.1207, 1662.872
607.6028, 1661.815
608.0849, 1658.199
608.5670, 1652.708
609.0491, 1645.896
609.5313, 1637.432
610.0134, 1630.203
610.4955, 1622.031
610.9776, 1618.263
611.4597, 1624.572
611.9418, 1633.739
612.4240, 1638.012
612.9061, 1636.010
613.3882, 1628.702
613.8703, 1609.954
614.3524, 1589.733
614.8345, 1585.487
615.3167, 1595.387
615.7988, 1601.710
616.2809, 1595.112
616.7630, 1583.011
617.2451, 1581.217
617.7272, 1597.385
618.2094, 1602.120
618.6915, 1586.943
619.1736, 1569.328
619.6557, 1552.830
620.1378, 1539.053
620.6199, 1530.375
621.1021, 1528.054
621.5842, 1527.382
622.0663, 1524.876
622.5484, 1521.154
