##NAMES=Muscovite
##RRUFFID=R050188
##IDEAL CHEMISTRY=KAl_2_(Si_3_Al)O_10_(OH)_2_
##LOCALITY=Sapinero, near Blue Mesa Reservoir, Gunnison County, Colorado, USA
##OWNER=RRUFF
##SOURCE=Dave Bunk Minerals
##DESCRIPTION=Black pseudohexagonal crystal, polytype 2M1, associated with quartz
##STATUS=The identification of this mineral has been confirmed by X-ray diffraction and chemical analysis
##URL=rruff.info/R050188
##MEASURED CHEMISTRY=(K_0.91_Na_0.09_)(Al_0.86_Fe^3+^_0.06_Fe^2+^_0.04_Mg_0.03_Ti_0.01_)_2_(Si_0.78_Al_0.22_)_4_O_10_(OH)_2_
92.96582, 135.3923
93.44794, 135.7365
93.93005, 136.1444
94.41217, 135.1973
94.89429, 133.6184
95.37640, 131.8701
95.85852, 130.1080
96.34064, 128.3360
96.82275, 126.5633
97.30487, 124.8230
97.78699, 123.3638
98.26910, 122.4250
98.75122, 121.5465
99.23334, 120.6240
99.71545, 119.6008
100.1976, 117.9394
100.6797, 115.3685
101.1618, 112.3512
101.6439, 109.5147
102.1260, 106.9025
102.6081, 104.5302
103.0903, 102.4826
103.5724, 100.7267
104.0545, 99.31699
104.5366, 98.37851
105.0187, 97.71300
105.5008, 96.93798
105.9830, 95.72264
106.4651, 94.02583
106.9472, 92.47146
107.4293, 91.13513
107.9114, 89.84000
108.3935, 88.47669
108.8757, 87.06602
109.3578, 85.74635
109.8399, 84.69090
110.3220, 83.98150
110.8041, 83.39371
111.2862, 83.17371
111.7684, 82.65690
112.2505, 82.49646
112.7326, 82.18919
113.2147, 81.74294
113.6968, 80.74155
114.1789, 80.45702
114.6611, 79.88510
115.1432, 79.30151
115.6253, 79.11789
116.1074, 78.19724
116.5895, 78.00727
117.0716, 77.93369
117.5538, 77.87739
118.0359, 77.80106
118.5180, 77.68190
119.0001, 77.42941
119.4822, 77.03520
119.9643, 76.78996
120.4465, 76.98212
120.9286, 77.36801
121.4107, 77.71880
121.8928, 78.01582
122.3749, 78.20090
122.8570, 78.13332
123.3392, 77.68201
123.8213, 77.20605
124.3034, 76.75559
124.7855, 76.37840
125.2676, 76.14172
125.7497, 76.10802
126.2319, 76.26308
126.7140, 76.40247
127.1961, 76.51357
127.6782, 76.61947
128.1603, 76.70691
128.6424, 76.79092
129.1246, 76.91085
129.6067, 77.12084
130.0888, 77.47185
130.5709, 77.62310
131.0530, 77.33735
131.5351, 77.08103
132.0173, 77.20316
132.4994, 77.71786
132.9815, 78.29192
133.4636, 78.47569
133.9457, 78.07402
134.4278, 77.93737
134.9100, 78.29328
135.3921, 78.86906
135.8742, 79.32700
136.3563, 79.55799
136.8384, 79.72596
137.3205, 80.10561
137.8027, 80.70474
138.2848, 81.27491
138.7669, 81.69929
139.2490, 82.00612
139.7311, 82.30871
140.2132, 82.64981
140.6954, 82.98586
141.1775, 83.26917
141.6596, 83.49499
142.1417, 83.70271
142.6238, 83.90831
143.1059, 84.10297
143.5881, 84.36453
144.0702, 84.79160
144.5523, 85.25166
145.0344, 85.64165
145.5165, 85.92719
145.9986, 86.19252
146.4807, 86.61134
146.9629, 87.33127
147.4450, 87.93286
147.9271, 88.32632
148.4092, 88.60656
148.8913, 88.85960
149.3734, 89.12771
149.8556, 89.40114
150.3377, 89.64101
150.8198, 89.69694
151.3019, 89.88406
151.7840, 90.34704
152.2661, 90.95528
152.7483, 91.49236
153.2304, 91.81579
153.7125, 91.94902
154.1946, 92.20780
154.6767, 92.77251
155.1588, 93.25497
155.6410, 93.41245
156.1231, 93.32304
156.6052, 93.29780
157.0873, 93.59840
157.5694, 94.20396
158.0515, 94.63542
158.5337, 94.67101
159.0158, 94.68694
159.4979, 95.04544
159.9800, 95.77956
160.4621, 96.50385
160.9442, 96.87363
161.4264, 96.97746
161.9085, 97.05198
162.3906, 97.19064
162.8727, 97.32105
163.3548, 97.31412
163.8369, 97.13364
164.3191, 96.88358
164.8012, 96.59615
165.2833, 96.29614
165.7654, 96.04604
166.2475, 95.93491
166.7296, 95.92469
167.2118, 95.78709
167.6939, 95.44517
168.1760, 95.05449
168.6581, 94.66605
169.1402, 94.29203
169.6223, 93.94730
170.1045, 93.66557
170.5866, 93.45732
171.0687, 93.19312
171.5508, 92.79140
172.0329, 92.40054
172.5150, 92.07841
172.9972, 91.82120
173.4793, 91.58681
173.9614, 91.33317
174.4435, 91.05962
174.9256, 90.76585
175.4077, 90.32571
175.8899, 89.96055
176.3720, 89.85535
176.8541, 90.00315
177.3362, 90.21620
177.8183, 90.24821
178.3004, 90.01347
178.7826, 89.77025
179.2647, 89.41456
179.7468, 89.10898
180.2289, 89.00083
180.7110, 89.12501
181.1931, 89.38874
181.6752, 89.67252
182.1574, 90.00552
182.6395, 90.26904
183.1216, 90.34279
183.6037, 90.37322
184.0858, 90.59653
184.5679, 91.11712
185.0501, 91.71443
185.5322, 91.96119
186.0143, 91.81931
186.4964, 91.79264
186.9785, 92.19756
187.4606, 92.85469
187.9428, 93.28802
188.4249, 93.27308
188.9070, 93.11913
189.3891, 93.22246
189.8712, 93.59117
190.3533, 94.01192
190.8355, 94.36771
191.3176, 94.66428
191.7997, 94.93972
192.2818, 95.21556
192.7639, 95.45972
193.2460, 95.68209
193.7282, 95.88403
194.2103, 95.97469
194.6924, 95.81265
195.1745, 95.36226
195.6566, 94.99363
196.1387, 94.82482
196.6209, 94.73868
197.1030, 94.73575
197.5851, 94.80186
198.0672, 94.81132
198.5493, 94.59029
199.0314, 94.07815
199.5136, 93.52328
199.9957, 92.85799
200.4778, 92.22456
200.9599, 91.69854
201.4420, 91.30264
201.9241, 91.03417
202.4063, 90.91137
202.8884, 91.07289
203.3705, 91.10566
203.8526, 90.93616
204.3347, 90.69146
204.8168, 90.45647
205.2990, 90.26023
205.7811, 90.08562
206.2632, 89.89348
206.7453, 89.54053
207.2274, 89.39609
207.7095, 89.65132
208.1917, 90.00430
208.6738, 90.15624
209.1559, 90.00809
209.6380, 89.70459
210.1201, 89.53472
210.6022, 89.56651
211.0844, 89.64509
211.5665, 89.81806
212.0486, 90.01662
212.5307, 90.16765
213.0128, 90.24711
213.4949, 90.26009
213.9771, 90.21360
214.4592, 90.13530
214.9413, 89.95366
215.4234, 89.66576
215.9055, 89.26551
216.3876, 88.69558
216.8698, 87.89711
217.3519, 87.03501
217.8340, 86.48730
218.3161, 86.36678
218.7982, 86.05297
219.2803, 85.21510
219.7625, 84.03801
220.2446, 82.93496
220.7267, 82.04232
221.2088, 81.25748
221.6909, 80.39906
222.1730, 79.44372
222.6552, 78.56975
223.1373, 77.86197
223.6194, 77.30632
224.1015, 76.86137
224.5836, 76.58151
225.0657, 76.32819
225.5479, 75.90932
226.0300, 75.31694
226.5121, 74.79454
226.9942, 74.47679
227.4763, 74.35709
227.9584, 74.39035
228.4406, 74.63937
228.9227, 74.98167
229.4048, 75.32108
229.8869, 75.65533
230.3690, 75.98818
230.8511, 76.29805
231.3333, 76.58711
231.8154, 76.95911
232.2975, 77.42515
232.7796, 77.99361
233.2617, 78.67118
233.7438, 79.45326
234.2260, 80.31663
234.7081, 81.18063
235.1902, 82.02462
235.6723, 83.17833
236.1544, 84.80583
236.6365, 86.67422
237.1187, 88.75552
237.6008, 91.00776
238.0829, 93.31139
238.5650, 95.50486
239.0471, 97.53658
239.5292, 99.83961
240.0114, 102.5706
240.4935, 105.4613
240.9756, 108.4847
241.4577, 111.6113
241.9398, 114.7707
242.4219, 117.9347
242.9041, 121.1011
243.3862, 124.1937
243.8683, 126.9798
244.3504, 129.8984
244.8325, 133.1841
245.3146, 136.7572
245.7968, 140.3813
246.2789, 143.8101
246.7610, 147.0268
247.2431, 150.3392
247.7252, 153.5738
248.2073, 157.0678
248.6895, 161.0391
249.1716, 165.4032
249.6537, 169.8444
250.1358, 174.0828
250.6179, 178.0924
251.1000, 182.4558
251.5822, 187.5036
252.0643, 192.5427
252.5464, 197.3109
253.0285, 201.8632
253.5106, 206.3326
253.9927, 210.8187
254.4748, 215.3039
254.9570, 220.1582
255.4391, 225.9352
255.9212, 231.4586
256.4033, 236.3760
256.8854, 240.6997
257.3676, 244.5649
257.8497, 248.0530
258.3318, 251.1580
258.8139, 253.8266
259.2960, 256.7232
259.7781, 258.6302
260.2603, 259.0687
260.7424, 258.2037
261.2245, 256.4619
261.7066, 254.1066
262.1887, 251.0670
262.6708, 246.8590
263.1530, 241.1752
263.6351, 234.9715
264.1172, 228.3751
264.5993, 221.4718
265.0814, 214.3366
265.5635, 206.9773
266.0457, 199.4512
266.5278, 191.9785
267.0099, 184.2910
267.4920, 176.9773
267.9741, 170.3418
268.4562, 164.1975
268.9384, 158.1512
269.4204, 152.0204
269.9026, 146.0182
270.3847, 140.6691
270.8668, 136.0570
271.3489, 131.6382
271.8310, 127.2346
272.3131, 122.9484
272.7953, 118.9527
273.2774, 115.3281
273.7595, 111.9564
274.2416, 108.5839
274.7237, 105.1385
275.2058, 102.0583
275.6880, 99.62207
276.1701, 97.59233
276.6522, 95.55676
277.1343, 93.37341
277.6164, 91.26743
278.0985, 89.58814
278.5807, 88.29241
279.0628, 86.98708
279.5449, 85.51698
280.0270, 83.98680
280.5091, 82.50745
280.9912, 81.07520
281.4734, 79.79851
281.9555, 78.88972
282.4376, 78.26010
282.9197, 77.59858
283.4018, 76.75903
283.8839, 75.87373
284.3661, 75.12138
284.8482, 74.52357
285.3303, 73.99672
285.8124, 73.48301
286.2945, 72.99583
286.7766, 72.57820
287.2588, 72.36320
287.7409, 72.15405
288.2230, 71.66891
288.7051, 70.88024
289.1872, 70.13673
289.6693, 69.68904
290.1515, 69.41703
290.6336, 69.11661
291.1157, 68.74137
291.5978, 68.34701
292.0799, 67.95507
292.5620, 67.56383
293.0442, 67.27183
293.5263, 67.13529
294.0084, 67.12947
294.4905, 67.24619
294.9726, 67.55190
295.4547, 67.79264
295.9369, 67.73696
296.4190, 67.40128
296.9011, 66.99155
297.3832, 66.49618
297.8653, 66.02837
298.3474, 65.68555
298.8296, 65.47092
299.3117, 65.38451
299.7938, 65.51945
300.2759, 65.81974
300.7580, 65.97449
301.2401, 65.87027
301.7223, 65.66276
302.2044, 65.47511
302.6865, 65.30953
303.1686, 65.20230
303.6507, 65.19851
304.1328, 65.27035
304.6150, 65.33900
305.0971, 65.41737
305.5792, 65.44868
306.0613, 65.37436
306.5434, 65.22169
307.0255, 65.05824
307.5077, 64.91572
307.9898, 64.78117
308.4719, 64.61356
308.9540, 64.38859
309.4361, 64.20528
309.9182, 64.16805
310.4004, 64.20604
310.8825, 64.21756
311.3646, 64.17340
311.8467, 64.08767
312.3288, 63.94527
312.8109, 63.72366
313.2931, 63.59589
313.7752, 63.76482
314.2573, 64.02052
314.7394, 64.10588
315.2215, 63.93011
315.7036, 63.70279
316.1858, 63.68007
316.6679, 63.85967
317.1500, 63.88507
317.6321, 63.47831
318.1142, 63.00280
318.5963, 62.85947
319.0785, 63.09223
319.5606, 63.35164
320.0427, 63.38512
320.5248, 63.22447
321.0069, 63.04821
321.4890, 62.85387
321.9712, 62.70335
322.4533, 62.71504
322.9354, 62.85107
323.4175, 62.85617
323.8996, 62.44014
324.3817, 61.79826
324.8639, 61.50515
325.3460, 61.73248
325.8281, 61.99479
326.3102, 61.89008
326.7923, 61.55121
327.2744, 61.25174
327.7566, 61.11869
328.2387, 61.06234
328.7208, 60.92202
329.2029, 60.66990
329.6850, 60.49887
330.1671, 60.59418
330.6493, 60.81652
331.1314, 60.97346
331.6135, 61.04279
332.0956, 61.01954
332.5777, 60.83918
333.0598, 60.51054
333.5420, 60.27343
334.0241, 60.27763
334.5062, 60.37608
334.9883, 60.33685
335.4704, 60.11576
335.9525, 59.96448
336.4347, 60.13530
336.9168, 60.53028
337.3989, 60.74630
337.8810, 60.62112
338.3631, 60.41799
338.8452, 60.43317
339.3274, 60.64445
339.8094, 60.85351
340.2916, 60.96341
340.7737, 61.02581
341.2558, 61.15389
341.7379, 61.38291
342.2200, 61.57009
342.7021, 61.50220
343.1843, 61.28377
343.6664, 61.24897
344.1485, 61.59042
344.6306, 62.05832
345.1127, 62.43672
345.5948, 62.72330
346.0770, 62.91866
346.5591, 62.98412
347.0412, 62.96823
347.5233, 63.00644
348.0054, 63.10387
348.4875, 63.24748
348.9697, 63.39452
349.4518, 63.57355
349.9339, 63.90939
350.4160, 64.50137
350.8981, 65.18171
351.3802, 65.65892
351.8624, 65.91336
352.3445, 66.14132
352.8266, 66.36822
353.3087, 66.61703
353.7908, 66.94852
354.2729, 67.38431
354.7551, 67.81120
355.2372, 68.06588
355.7193, 68.14397
356.2014, 68.38989
356.6835, 68.90936
357.1656, 69.55518
357.6478, 70.29372
358.1299, 71.09162
358.6120, 71.76284
359.0941, 72.15559
359.5762, 72.30264
360.0583, 72.48905
360.5405, 72.72319
361.0226, 72.98294
361.5047, 73.27702
361.9868, 73.58950
362.4689, 73.87196
362.9510, 74.08841
363.4332, 74.30522
363.9153, 74.69204
364.3974, 75.38148
364.8795, 75.97301
365.3616, 76.31504
365.8438, 76.58225
366.3259, 76.98459
366.8080, 77.56481
367.2901, 78.17274
367.7722, 78.62281
368.2543, 78.86065
368.7365, 79.16048
369.2186, 79.55241
369.7007, 79.97416
370.1828, 80.38632
370.6649, 80.79526
371.1470, 81.24131
371.6292, 81.76292
372.1113, 82.34864
372.5934, 82.85252
373.0755, 83.19670
373.5576, 83.55396
374.0397, 84.00682
374.5219, 84.48022
375.0040, 84.84055
375.4861, 85.03283
375.9682, 85.15157
376.4503, 85.40752
376.9324, 85.90540
377.4146, 86.38482
377.8967, 86.88367
378.3788, 87.33655
378.8609, 87.68206
379.3430, 87.92060
379.8251, 88.11185
380.3073, 88.31074
380.7894, 88.50990
381.2715, 88.76726
381.7536, 89.15369
382.2357, 89.52848
382.7178, 89.81805
383.2000, 90.06136
383.6821, 90.32986
384.1642, 90.65737
384.6463, 91.06035
385.1284, 91.62722
385.6105, 92.53916
386.0927, 93.31184
386.5748, 93.76196
387.0569, 94.10580
387.5390, 94.54951
388.0211, 95.15477
388.5032, 95.81731
388.9854, 96.37818
389.4675, 96.80111
389.9496, 97.31503
390.4317, 97.99000
390.9138, 98.72703
391.3959, 99.47289
391.8781, 100.2335
392.3602, 101.0568
392.8423, 102.0407
393.3244, 103.1248
393.8065, 103.9912
394.2886, 104.5310
394.7708, 105.0560
395.2529, 105.7375
395.7350, 106.4928
396.2171, 107.1982
396.6992, 107.7942
397.1813, 108.3773
397.6635, 109.0541
398.1456, 109.8240
398.6277, 110.7177
399.1098, 111.8644
399.5919, 113.0333
400.0740, 113.9815
400.5562, 114.7015
401.0383, 115.3029
401.5204, 115.8108
402.0025, 116.2505
402.4846, 116.6761
402.9667, 117.0813
403.4489, 117.5184
403.9310, 118.1316
404.4131, 118.8358
404.8952, 119.2945
405.3773, 119.3069
405.8594, 119.1554
406.3416, 119.0864
406.8237, 119.0843
407.3058, 119.0183
407.7879, 118.8284
408.2700, 118.5277
408.7521, 118.1507
409.2343, 117.7159
409.7164, 117.1929
410.1985, 116.4906
410.6806, 115.7226
411.1627, 115.1104
411.6448, 114.7066
412.1269, 114.2691
412.6090, 113.4870
413.0912, 112.2610
413.5733, 111.1953
414.0554, 110.4434
414.5375, 109.7030
415.0196, 108.7940
415.5017, 107.7375
415.9839, 106.6345
416.4660, 105.5450
416.9481, 104.4638
417.4302, 103.3668
417.9123, 102.3197
418.3944, 101.1705
418.8766, 99.78527
419.3587, 98.35265
419.8408, 97.06853
420.3229, 95.98644
420.8050, 95.00512
421.2871, 93.99499
421.7693, 92.94046
422.2514, 91.91209
422.7335, 90.96642
423.2156, 89.98731
423.6977, 88.88480
424.1798, 87.70396
424.6620, 86.56152
425.1441, 85.53789
425.6262, 84.59993
426.1083, 83.59869
426.5904, 82.39094
427.0725, 81.40006
427.5547, 80.90128
428.0368, 80.53113
428.5189, 79.96049
429.0010, 79.11644
429.4831, 78.18447
429.9652, 77.37280
430.4474, 76.68001
430.9295, 75.94596
431.4116, 75.12546
431.8937, 74.29453
432.3758, 73.47541
432.8579, 72.68035
433.3401, 71.95293
433.8222, 71.34301
434.3043, 70.78711
434.7864, 70.19090
435.2685, 69.54846
435.7506, 68.86909
436.2328, 68.10789
436.7149, 67.34205
437.1970, 66.70630
437.6791, 66.23436
438.1612, 65.77528
438.6433, 65.23920
439.1255, 64.66043
439.6076, 64.11410
440.0897, 63.61944
440.5718, 63.13706
441.0539, 62.62374
441.5360, 62.08194
442.0182, 61.57476
442.5003, 61.12423
442.9824, 60.69186
443.4645, 60.25508
443.9466, 59.81768
444.4287, 59.40874
444.9109, 59.04716
445.3930, 58.70515
445.8751, 58.29528
446.3572, 57.70600
446.8393, 57.22347
447.3214, 56.86144
447.8036, 56.60987
448.2857, 56.52822
448.7678, 56.58360
449.2499, 56.59080
449.7320, 56.34691
450.2141, 55.83344
450.6963, 55.45010
451.1784, 55.34000
451.6605, 55.20417
452.1426, 54.92071
452.6247, 54.58545
453.1068, 54.34560
453.5890, 54.26441
454.0711, 54.25907
454.5532, 54.18772
455.0353, 54.04392
455.5174, 53.85601
455.9995, 53.52458
456.4817, 53.23309
456.9638, 53.12096
457.4459, 53.15153
457.9280, 53.15871
458.4101, 52.99105
458.8922, 52.72355
459.3744, 52.61094
459.8565, 52.70181
460.3386, 52.78999
460.8207, 52.76280
461.3028, 52.68501
461.7849, 52.62670
462.2671, 52.59813
462.7492, 52.58921
463.2313, 52.65751
463.7134, 52.74509
464.1955, 52.62199
464.6776, 52.17806
465.1598, 51.73024
465.6419, 51.65119
466.1240, 51.90165
466.6061, 52.05622
467.0882, 52.05819
467.5703, 51.95631
468.0525, 51.71026
468.5346, 51.37746
469.0167, 51.14429
469.4988, 51.11301
469.9809, 51.19522
470.4630, 51.18098
470.9452, 50.97637
471.4273, 50.84184
471.9094, 50.87130
472.3915, 50.91463
472.8736, 50.83200
473.3557, 50.62989
473.8379, 50.42691
474.3200, 50.33004
474.8021, 50.32788
475.2842, 50.24621
475.7663, 49.98209
476.2484, 49.76442
476.7306, 49.62884
477.2127, 49.55691
477.6948, 49.55930
478.1769, 49.63048
478.6590, 49.68312
479.1411, 49.58540
479.6233, 49.32017
480.1054, 49.09729
480.5875, 48.95173
481.0696, 48.82175
481.5517, 48.67885
482.0338, 48.52681
482.5159, 48.37313
482.9980, 48.22169
483.4802, 48.07036
483.9623, 47.91440
484.4444, 47.75386
484.9265, 47.60014
485.4086, 47.44396
485.8907, 47.31133
486.3729, 47.22334
486.8550, 47.17715
487.3371, 47.19470
487.8192, 47.40723
488.3013, 47.61944
488.7834, 47.54268
489.2656, 47.17975
489.7477, 46.83192
490.2298, 46.69691
490.7119, 46.72878
491.1940, 46.70753
491.6761, 46.61153
492.1583, 46.50185
492.6404, 46.37579
493.1225, 46.24798
493.6046, 46.14345
494.0867, 46.06311
494.5688, 45.97158
495.0510, 45.82022
495.5331, 45.59747
496.0152, 45.47439
496.4973, 45.63024
496.9794, 45.68892
497.4615, 45.45284
497.9437, 45.10464
498.4258, 44.89629
498.9079, 44.92292
499.3900, 45.06413
499.8721, 45.15223
500.3542, 45.18173
500.8364, 45.19574
501.3185, 45.17488
501.8006, 45.16513
502.2827, 45.22665
502.7648, 45.32036
503.2469, 45.33835
503.7291, 45.17453
504.2112, 44.97221
504.6933, 44.98664
505.1754, 45.20715
505.6575, 45.28053
506.1396, 45.01540
506.6218, 44.62207
507.1039, 44.41585
507.5860, 44.40580
508.0681, 44.39579
508.5502, 44.32528
509.0323, 44.23705
509.5145, 44.14944
509.9966, 44.07597
510.4787, 44.08371
510.9608, 44.23330
511.4429, 44.47342
511.9250, 44.59301
512.4072, 44.46788
512.8893, 44.38614
513.3714, 44.38935
513.8535, 44.42657
514.3356, 44.47748
514.8177, 44.52413
515.2999, 44.51579
515.7820, 44.37864
516.2641, 44.13452
516.7462, 44.10029
517.2283, 44.51641
517.7104, 44.77910
518.1926, 44.57832
518.6747, 44.26117
519.1568, 44.20461
519.6389, 44.49453
520.1210, 44.85604
520.6031, 44.99965
521.0853, 44.96719
521.5674, 45.05550
522.0495, 45.35344
522.5316, 45.61552
523.0137, 45.59942
523.4958, 45.43811
523.9780, 45.39306
524.4601, 45.56923
524.9422, 45.76397
525.4243, 45.78651
525.9064, 45.73253
526.3885, 45.86187
526.8707, 46.25544
527.3528, 46.69302
527.8349, 46.92782
528.3170, 46.93541
528.7991, 46.92027
529.2813, 46.82568
529.7634, 46.77043
530.2455, 46.81554
530.7276, 46.93071
531.2097, 47.06447
531.6918, 47.19638
532.1740, 47.33718
532.6561, 47.51306
533.1382, 47.74496
533.6203, 47.93591
534.1024, 48.09841
534.5845, 48.20411
535.0667, 48.20078
535.5488, 48.13752
536.0309, 48.11076
536.5130, 48.17284
536.9951, 48.26464
537.4772, 48.27685
537.9594, 48.20623
538.4415, 48.21534
538.9236, 48.38508
539.4057, 48.58387
539.8878, 48.68675
540.3699, 48.70848
540.8521, 48.72778
541.3342, 48.73760
541.8163, 48.77721
542.2984, 48.94649
542.7805, 49.19012
543.2626, 49.25782
543.7448, 49.01199
544.2269, 48.68713
544.7090, 48.70379
545.1911, 49.26558
545.6732, 49.64161
546.1553, 49.76687
546.6375, 49.77127
547.1196, 49.62912
547.6017, 49.43211
548.0838, 49.38545
548.5659, 49.60948
549.0480, 49.95576
549.5302, 50.06485
550.0123, 49.82544
550.4944, 49.67898
550.9765, 49.69247
551.4586, 49.79641
551.9407, 50.02052
552.4229, 50.31504
552.9050, 50.54943
553.3871, 50.65632
553.8692, 50.66620
554.3513, 50.59490
554.8334, 50.44470
555.3156, 50.33834
555.7977, 50.34193
556.2798, 50.36797
556.7619, 50.25436
557.2440, 49.99916
557.7261, 49.88180
558.2083, 50.10237
558.6904, 50.35679
559.1725, 50.39305
559.6546, 50.25970
560.1367, 50.12542
560.6188, 50.06680
561.1010, 50.07869
561.5831, 50.15748
562.0652, 50.34985
562.5473, 50.50563
563.0294, 50.65797
563.5115, 50.74815
563.9937, 50.71941
564.4758, 50.60735
564.9579, 50.47883
565.4400, 50.36120
565.9221, 50.27651
566.4042, 50.28087
566.8864, 50.38752
567.3685, 50.47875
567.8506, 50.56993
568.3327, 50.59306
568.8148, 50.44007
569.2969, 50.16925
569.7791, 50.00159
570.2612, 50.10772
570.7433, 50.25826
571.2254, 50.22390
571.7075, 50.05490
572.1896, 49.93422
572.6718, 49.92589
573.1539, 49.96499
573.6360, 49.96266
574.1181, 49.90171
574.6002, 49.88872
575.0823, 49.96250
575.5645, 50.04014
576.0466, 50.12201
576.5287, 50.17391
577.0108, 50.12164
577.4929, 49.94124
577.9750, 49.73302
578.4572, 49.66738
578.9393, 49.77822
579.4214, 49.80020
579.9035, 49.66189
580.3856, 49.51942
580.8677, 49.40044
581.3499, 49.33411
581.8320, 49.38196
582.3141, 49.58503
582.7962, 49.82406
583.2783, 50.02026
583.7604, 50.16771
584.2426, 50.23363
584.7247, 50.20422
585.2068, 50.13967
585.6889, 50.05597
586.1710, 49.97359
