##NAMES=Muscovite
##RRUFFID=R040104
##IDEAL CHEMISTRY=KAl_2_(Si_3_Al)O_10_(OH)_2_
##LOCALITY=unknown
##OWNER=RRUFF
##SOURCE=University of Arizona Mineral Museum
##DESCRIPTION=Dark green hexagonal tablet
##STATUS=The identification of this mineral has been confirmed by X-ray diffraction and chemical analysis
##URL=rruff.info/R040104
##MEASURED CHEMISTRY=(K_0.91_Na_0.09_)_Σ=1_(Al_1.70_Fe^3+^_0.14_Mg_0.08_Fe^2+^_0.06_Ti_0.02_)_Σ=2_(Si_3.12_Al_0.88_)_Σ=4_O_10_(OH)_2_; OH estimated by charge balance
123.5578, 1614.368
124.0400, 1711.979
124.5221, 1814.075
125.0042, 1919.378
125.4863, 2026.277
125.9684, 2121.651
126.4505, 2177.347
126.9327, 2249.654
127.4148, 2336.474
127.8969, 2448.148
128.3790, 2602.051
128.8611, 2812.700
129.3432, 3080.326
129.8254, 3349.151
130.3075, 3613.478
130.7896, 3886.045
131.2717, 4208.262
131.7538, 4548.971
132.2359, 4829.836
132.7181, 4984.377
133.2002, 5002.616
133.6823, 4995.809
134.1644, 4951.005
134.6465, 4898.043
135.1286, 4859.674
135.6108, 4831.592
136.0929, 4787.240
136.5750, 4702.513
137.0571, 4570.730
137.5392, 4421.691
138.0213, 4221.527
138.5035, 4028.777
138.9856, 3874.652
139.4677, 3764.740
139.9498, 3707.527
140.4319, 3714.850
140.9140, 3799.801
141.3961, 3913.497
141.8783, 4075.480
142.3604, 4255.158
142.8425, 4418.959
143.3246, 4561.057
143.8067, 4709.019
144.2888, 4883.464
144.7710, 5080.536
145.2531, 5358.591
145.7352, 5746.617
146.2173, 6127.498
146.6994, 6452.328
147.1815, 6793.629
147.6637, 7082.958
148.1458, 7226.612
148.6279, 7245.467
149.1100, 7217.515
149.5921, 7142.829
150.0742, 7038.964
150.5564, 6940.878
151.0385, 6862.141
151.5206, 6765.540
152.0027, 6596.804
152.4848, 6360.623
152.9669, 6114.906
153.4491, 5851.120
153.9312, 5591.376
154.4133, 5400.632
154.8954, 5307.832
155.3775, 5257.382
155.8596, 5182.635
156.3418, 5083.215
156.8239, 5001.716
157.3060, 4957.354
157.7881, 4946.735
158.2702, 4961.936
158.7523, 5013.504
159.2345, 5074.049
159.7166, 5114.748
160.1987, 5136.059
160.6808, 5157.676
161.1629, 5206.527
161.6451, 5273.541
162.1272, 5299.507
162.6093, 5259.824
163.0914, 5191.022
163.5735, 5124.850
164.0556, 5062.028
164.5378, 5004.458
165.0199, 4954.498
165.5020, 4911.867
165.9841, 4872.675
166.4662, 4839.582
166.9483, 4807.178
167.4305, 4772.804
167.9126, 4736.428
168.3947, 4695.591
168.8768, 4645.485
169.3589, 4586.235
169.8410, 4531.378
170.3232, 4488.017
170.8053, 4445.510
171.2874, 4393.138
171.7695, 4330.595
172.2516, 4271.395
172.7337, 4227.729
173.2159, 4199.776
173.6980, 4178.624
174.1801, 4166.394
174.6622, 4157.790
175.1443, 4156.158
175.6264, 4160.346
176.1085, 4152.283
176.5907, 4103.168
177.0728, 4005.582
177.5549, 3933.401
178.0370, 3915.871
178.5191, 3915.939
179.0012, 3916.027
179.4834, 3913.534
179.9655, 3911.845
180.4476, 3914.717
180.9297, 3922.652
181.4118, 3931.451
181.8939, 3935.943
182.3761, 3944.762
182.8582, 3961.688
183.3403, 3987.490
183.8224, 4022.309
184.3045, 4068.212
184.7866, 4126.422
185.2688, 4185.941
185.7509, 4249.747
186.2330, 4311.537
186.7151, 4368.249
187.1972, 4419.647
187.6793, 4465.970
188.1615, 4507.755
188.6436, 4544.800
189.1257, 4578.501
189.6078, 4604.353
190.0899, 4630.313
190.5720, 4663.259
191.0542, 4702.271
191.5363, 4737.994
192.0184, 4758.317
192.5005, 4760.208
192.9826, 4764.954
193.4647, 4787.108
193.9469, 4802.111
194.4290, 4798.845
194.9111, 4776.395
195.3932, 4740.308
195.8753, 4691.495
196.3574, 4626.099
196.8396, 4570.687
197.3217, 4540.002
197.8038, 4508.860
198.2859, 4466.471
198.7680, 4412.557
199.2501, 4353.636
199.7323, 4293.835
200.2144, 4231.577
200.6965, 4177.755
201.1786, 4145.832
201.6607, 4111.499
202.1428, 4059.710
202.6250, 3994.180
203.1071, 3932.462
203.5892, 3890.934
204.0713, 3871.070
204.5534, 3854.894
205.0355, 3847.057
205.5177, 3838.899
205.9998, 3828.460
206.4819, 3814.989
206.9640, 3797.215
207.4461, 3768.943
207.9282, 3729.261
208.4104, 3711.184
208.8925, 3734.286
209.3746, 3761.557
209.8567, 3785.412
210.3388, 3802.778
210.8209, 3808.722
211.3030, 3792.060
211.7852, 3754.972
212.2673, 3747.087
212.7494, 3801.951
213.2315, 3850.400
213.7136, 3868.136
214.1957, 3861.147
214.6779, 3844.143
215.1600, 3827.160
215.6421, 3809.068
216.1242, 3780.979
216.6063, 3739.991
217.0884, 3691.746
217.5706, 3639.330
218.0527, 3581.599
218.5348, 3515.870
219.0169, 3438.225
219.4990, 3352.321
219.9811, 3274.278
220.4633, 3208.776
220.9454, 3144.543
221.4275, 3080.665
221.9096, 3015.054
222.3917, 2943.478
222.8738, 2861.246
223.3560, 2774.651
223.8381, 2702.955
224.3202, 2654.026
224.8023, 2606.128
225.2844, 2548.716
225.7665, 2489.638
226.2487, 2438.838
226.7308, 2400.903
227.2129, 2371.913
227.6950, 2345.725
228.1771, 2324.873
228.6592, 2300.288
229.1414, 2263.691
229.6235, 2225.141
230.1056, 2193.853
230.5877, 2172.928
231.0698, 2159.572
231.5519, 2149.950
232.0341, 2144.209
232.5162, 2141.890
232.9983, 2143.795
233.4804, 2148.643
233.9625, 2156.659
234.4446, 2168.096
234.9268, 2180.022
235.4089, 2187.742
235.8910, 2190.344
236.3731, 2196.816
236.8552, 2211.847
237.3373, 2229.928
237.8195, 2246.204
238.3016, 2260.089
238.7837, 2277.087
239.2658, 2302.042
239.7479, 2334.902
240.2300, 2372.040
240.7122, 2412.575
241.1943, 2458.014
241.6764, 2510.707
242.1585, 2570.314
242.6406, 2629.810
243.1227, 2681.541
243.6049, 2727.839
244.0870, 2781.239
244.5691, 2840.800
245.0512, 2912.273
245.5333, 2995.807
246.0154, 3091.904
246.4975, 3203.634
246.9797, 3336.147
247.4618, 3485.694
247.9439, 3642.588
248.4260, 3806.066
248.9081, 3977.785
249.3902, 4152.256
249.8724, 4333.725
250.3545, 4537.688
250.8366, 4758.847
251.3187, 5009.162
251.8008, 5315.412
252.2829, 5685.833
252.7651, 6067.648
253.2472, 6420.636
253.7293, 6759.064
254.2114, 7115.799
254.6935, 7491.029
255.1756, 7891.479
255.6578, 8337.950
256.1399, 8829.971
256.6220, 9305.072
257.1041, 9731.109
257.5862, 10111.20
258.0684, 10475.78
258.5505, 10845.38
259.0326, 11173.42
259.5147, 11436.66
259.9968, 11634.93
260.4789, 11763.57
260.9611, 11827.64
261.4432, 11810.81
261.9253, 11683.15
262.4074, 11423.49
262.8895, 11120.35
263.3716, 10804.33
263.8537, 10470.70
264.3358, 10100.46
264.8180, 9683.596
265.3001, 9243.012
265.7822, 8815.566
266.2643, 8395.335
266.7464, 7994.735
267.2285, 7616.773
267.7107, 7259.102
268.1928, 6919.116
268.6749, 6596.743
269.1570, 6291.221
269.6391, 6004.739
270.1212, 5740.850
270.6034, 5487.359
271.0855, 5237.850
271.5676, 5001.484
272.0497, 4788.650
272.5318, 4598.649
273.0139, 4426.159
273.4961, 4266.224
273.9782, 4120.695
274.4603, 3981.080
274.9424, 3848.921
275.4245, 3721.469
275.9066, 3591.389
276.3888, 3464.010
276.8709, 3353.449
277.3530, 3270.017
277.8351, 3210.823
278.3172, 3148.015
278.7993, 3078.409
279.2815, 3008.628
279.7636, 2936.814
280.2457, 2866.260
280.7278, 2800.876
281.2099, 2742.645
281.6920, 2690.045
282.1742, 2638.448
282.6563, 2581.388
283.1384, 2536.016
283.6205, 2516.102
284.1026, 2500.434
284.5847, 2467.915
285.0669, 2413.705
285.5490, 2351.011
286.0311, 2300.345
286.5132, 2264.800
286.9953, 2232.772
287.4774, 2204.365
287.9596, 2178.446
288.4417, 2151.734
288.9238, 2125.723
289.4059, 2107.677
289.8880, 2109.860
290.3701, 2134.298
290.8523, 2141.903
291.3344, 2119.517
291.8165, 2092.822
292.2986, 2067.074
292.7807, 2045.312
293.2628, 2033.012
293.7450, 2037.774
294.2271, 2053.658
294.7092, 2058.990
295.1913, 2049.614
295.6734, 2038.140
296.1555, 2030.091
296.6377, 2023.446
297.1198, 2015.320
297.6019, 2003.734
298.0840, 1991.988
298.5661, 1984.017
299.0482, 1979.829
299.5304, 1979.764
300.0125, 1985.580
300.4946, 1994.942
300.9767, 2006.585
301.4588, 2022.028
301.9409, 2033.060
302.4231, 2028.314
302.9052, 2012.774
303.3873, 2008.302
303.8694, 2023.472
304.3515, 2046.246
304.8336, 2062.751
305.3158, 2073.340
305.7979, 2081.158
306.2800, 2085.939
306.7621, 2089.046
307.2442, 2091.976
307.7263, 2094.868
308.2085, 2098.684
308.6906, 2105.079
309.1727, 2114.023
309.6548, 2119.824
310.1369, 2120.295
310.6190, 2119.194
311.1012, 2118.072
311.5833, 2117.343
312.0654, 2118.427
312.5475, 2122.864
313.0296, 2129.558
313.5117, 2131.310
313.9939, 2128.605
314.4760, 2121.398
314.9581, 2100.475
315.4402, 2077.395
315.9223, 2073.829
316.4044, 2098.640
316.8866, 2133.149
317.3687, 2138.735
317.8508, 2088.935
318.3329, 2050.451
318.8150, 2025.648
319.2971, 2009.606
319.7793, 2001.642
320.2614, 1999.963
320.7435, 1998.335
321.2256, 1988.548
321.7077, 1967.765
322.1898, 1956.478
322.6720, 1967.208
323.1541, 1975.551
323.6362, 1971.345
324.1183, 1957.910
324.6004, 1944.107
325.0826, 1936.368
325.5647, 1932.437
326.0468, 1921.905
326.5289, 1898.933
327.0110, 1880.320
327.4931, 1873.840
327.9753, 1872.749
328.4574, 1870.909
328.9395, 1866.979
329.4216, 1858.727
329.9037, 1841.343
330.3858, 1814.053
330.8680, 1787.711
331.3501, 1759.353
331.8322, 1738.469
332.3143, 1737.787
332.7964, 1757.973
333.2785, 1773.784
333.7606, 1766.847
334.2427, 1744.276
334.7249, 1723.883
335.2070, 1707.125
335.6891, 1695.129
336.1712, 1691.322
336.6533, 1694.053
337.1354, 1695.495
337.6176, 1691.656
338.0997, 1687.847
338.5818, 1690.264
339.0639, 1698.096
339.5460, 1704.061
340.0281, 1703.728
340.5103, 1698.313
340.9924, 1693.287
341.4745, 1689.120
341.9566, 1684.720
342.4387, 1676.993
342.9208, 1669.590
343.4030, 1669.160
343.8851, 1677.966
344.3672, 1690.713
344.8493, 1698.593
345.3314, 1699.074
345.8135, 1699.784
346.2957, 1699.270
346.7778, 1700.105
347.2599, 1705.440
347.7420, 1714.340
348.2241, 1721.730
348.7062, 1721.510
349.1884, 1713.747
349.6705, 1719.959
350.1526, 1758.665
350.6347, 1791.367
351.1168, 1804.463
351.5989, 1807.028
352.0811, 1812.453
352.5632, 1827.024
353.0453, 1847.098
353.5274, 1866.132
354.0095, 1884.355
354.4916, 1900.400
354.9738, 1908.831
355.4559, 1918.109
355.9380, 1935.583
356.4201, 1961.899
356.9022, 1989.236
357.3843, 2012.373
357.8665, 2031.354
358.3486, 2045.491
358.8307, 2051.935
359.3128, 2059.067
359.7949, 2074.100
360.2770, 2095.441
360.7592, 2119.325
361.2413, 2145.881
361.7234, 2173.766
362.2055, 2202.596
362.6876, 2232.163
363.1697, 2259.641
363.6519, 2283.200
364.1340, 2303.843
364.6161, 2324.758
365.0982, 2347.068
365.5803, 2368.177
366.0624, 2384.128
366.5446, 2399.609
367.0267, 2422.419
367.5088, 2454.366
367.9909, 2489.585
368.4730, 2519.625
368.9551, 2542.460
369.4373, 2567.134
369.9194, 2595.822
370.4015, 2624.132
370.8836, 2648.009
371.3657, 2669.169
371.8478, 2692.658
372.3300, 2722.410
372.8121, 2757.074
373.2942, 2789.938
373.7763, 2819.969
374.2584, 2849.493
374.7405, 2879.674
375.2227, 2909.206
375.7048, 2937.478
376.1869, 2964.204
376.6690, 2988.665
377.1511, 3010.517
377.6332, 3029.762
378.1154, 3043.397
378.5975, 3042.707
379.0796, 3046.173
379.5617, 3071.729
380.0438, 3114.420
380.5259, 3150.498
381.0081, 3160.720
381.4902, 3161.051
381.9723, 3179.329
382.4544, 3217.344
382.9365, 3254.170
383.4186, 3276.177
383.9008, 3288.383
384.3829, 3307.547
384.8650, 3336.728
385.3471, 3367.971
385.8292, 3398.031
386.3113, 3427.991
386.7935, 3459.154
387.2756, 3491.922
387.7577, 3527.378
388.2398, 3566.711
388.7219, 3609.812
389.2040, 3659.285
389.6862, 3721.276
390.1683, 3784.028
390.6504, 3840.902
391.1325, 3892.694
391.6146, 3941.762
392.0967, 3989.703
392.5789, 4037.144
393.0610, 4086.431
393.5431, 4127.130
394.0252, 4187.900
394.5073, 4289.310
394.9894, 4401.500
395.4716, 4496.778
395.9537, 4567.922
396.4358, 4629.574
396.9179, 4695.099
397.4000, 4764.408
397.8821, 4843.036
398.3643, 4938.577
398.8464, 5033.698
399.3285, 5113.546
399.8106, 5183.401
400.2927, 5260.489
400.7748, 5359.556
401.2570, 5464.016
401.7391, 5556.793
402.2212, 5637.921
402.7033, 5707.431
403.1854, 5761.548
403.6675, 5806.677
404.1497, 5857.176
404.6317, 5912.192
405.1139, 5973.816
405.5960, 6055.913
406.0781, 6138.358
406.5602, 6196.607
407.0423, 6226.640
407.5244, 6242.963
408.0066, 6260.195
408.4887, 6279.457
408.9708, 6287.092
409.4529, 6278.145
409.9350, 6264.181
410.4171, 6251.994
410.8993, 6236.339
411.3814, 6209.193
411.8635, 6166.857
412.3456, 6111.434
412.8277, 6045.298
413.3098, 5965.502
413.7920, 5885.015
414.2741, 5809.898
414.7562, 5731.617
415.2383, 5643.121
415.7204, 5545.490
416.2025, 5448.299
416.6847, 5361.467
417.1668, 5278.930
417.6489, 5183.717
418.1310, 5073.052
418.6131, 4962.399
419.0952, 4860.126
419.5774, 4764.090
420.0595, 4669.138
420.5416, 4577.371
421.0237, 4482.036
421.5058, 4371.755
421.9879, 4257.423
422.4701, 4162.122
422.9522, 4092.219
423.4343, 4028.053
423.9164, 3944.511
424.3985, 3834.146
424.8806, 3740.037
425.3628, 3676.695
425.8449, 3612.746
426.3270, 3526.702
426.8091, 3429.925
427.2912, 3346.955
427.7733, 3292.056
428.2555, 3254.498
428.7376, 3206.461
429.2197, 3142.302
429.7018, 3081.906
430.1839, 3024.969
430.6660, 2974.918
431.1482, 2939.233
431.6303, 2915.780
432.1124, 2888.215
432.5945, 2843.450
433.0766, 2785.970
433.5587, 2725.497
434.0409, 2659.835
434.5230, 2602.642
435.0051, 2565.443
435.4872, 2541.604
435.9693, 2515.532
436.4514, 2487.642
436.9336, 2455.490
437.4157, 2414.677
437.8978, 2369.492
438.3799, 2326.271
438.8620, 2286.532
439.3441, 2251.230
439.8263, 2221.829
440.3084, 2199.746
440.7905, 2175.678
441.2726, 2151.261
441.7547, 2123.438
442.2368, 2086.228
442.7190, 2045.700
443.2011, 2013.240
443.6832, 1994.583
444.1653, 1982.779
444.6474, 1963.006
445.1295, 1931.751
445.6117, 1904.763
446.0938, 1886.517
446.5759, 1871.183
447.0580, 1858.451
447.5401, 1846.749
448.0222, 1830.607
448.5044, 1804.758
448.9865, 1773.274
449.4686, 1741.051
449.9507, 1707.500
450.4328, 1682.797
450.9149, 1674.878
451.3971, 1677.007
451.8792, 1674.375
452.3613, 1666.876
452.8434, 1655.521
453.3255, 1634.566
453.8076, 1613.026
454.2898, 1603.378
454.7719, 1606.210
455.2540, 1610.018
455.7361, 1604.371
456.2182, 1589.633
456.7003, 1577.955
457.1825, 1570.362
457.6646, 1564.805
458.1467, 1561.317
458.6288, 1559.558
459.1109, 1560.794
459.5930, 1565.041
460.0752, 1567.041
460.5573, 1557.281
461.0394, 1535.768
461.5215, 1524.503
462.0036, 1530.221
462.4857, 1537.880
462.9679, 1535.925
463.4500, 1528.981
463.9321, 1527.850
464.4142, 1540.610
464.8963, 1553.649
465.3784, 1553.084
465.8606, 1543.011
466.3427, 1539.154
466.8248, 1548.210
467.3069, 1557.115
467.7890, 1545.357
468.2711, 1502.067
468.7533, 1478.640
469.2354, 1489.107
469.7175, 1505.729
470.1996, 1516.925
470.6817, 1522.089
471.1638, 1523.018
471.6460, 1520.575
472.1281, 1515.187
472.6102, 1507.311
473.0923, 1495.564
473.5744, 1485.188
474.0565, 1476.551
474.5387, 1469.749
475.0208, 1466.806
475.5029, 1466.446
475.9850, 1463.096
476.4671, 1447.589
476.9492, 1429.883
477.4313, 1431.362
477.9135, 1452.144
478.3956, 1464.791
478.8777, 1453.601
479.3598, 1430.391
479.8419, 1420.707
480.3240, 1428.702
480.8062, 1434.118
481.2883, 1433.910
481.7704, 1428.872
482.2525, 1416.318
482.7346, 1398.622
483.2167, 1384.944
483.6989, 1382.950
484.1810, 1389.529
484.6631, 1387.679
485.1452, 1368.272
485.6273, 1355.664
486.1094, 1359.543
486.5916, 1366.427
487.0737, 1365.348
487.5558, 1355.254
488.0379, 1342.877
488.5200, 1334.202
489.0021, 1327.389
489.4843, 1314.421
489.9664, 1292.939
490.4485, 1278.028
490.9306, 1282.533
491.4127, 1297.154
491.8948, 1298.952
492.3770, 1281.507
492.8591, 1265.770
493.3412, 1260.603
493.8233, 1260.010
494.3054, 1258.027
494.7875, 1253.347
495.2697, 1245.513
495.7518, 1233.686
496.2339, 1218.246
496.7160, 1204.284
497.1981, 1190.434
497.6802, 1180.087
498.1624, 1176.408
498.6445, 1174.699
499.1266, 1170.206
499.6087, 1162.208
500.0908, 1154.316
500.5729, 1149.056
501.0551, 1146.502
501.5372, 1148.278
502.0193, 1156.174
502.5014, 1161.525
502.9835, 1157.666
503.4656, 1148.180
503.9478, 1142.303
504.4299, 1142.671
504.9120, 1141.793
505.3941, 1136.117
505.8762, 1127.935
506.3583, 1119.623
506.8405, 1111.747
507.3226, 1105.023
507.8047, 1100.741
508.2868, 1098.348
508.7689, 1089.622
509.2510, 1064.558
509.7332, 1046.722
510.2153, 1041.367
510.6974, 1043.712
511.1795, 1051.715
511.6616, 1064.094
512.1437, 1074.611
512.6259, 1075.247
513.1080, 1069.420
513.5901, 1070.758
514.0722, 1081.147
514.5543, 1091.323
515.0364, 1097.610
515.5186, 1099.306
516.0007, 1094.825
516.4828, 1078.944
516.9649, 1068.058
517.4470, 1070.252
517.9291, 1078.228
518.4113, 1085.596
518.8934, 1090.831
519.3755, 1092.910
519.8576, 1090.429
520.3397, 1084.438
520.8218, 1081.786
521.3040, 1082.079
521.7861, 1086.684
522.2682, 1103.160
522.7503, 1118.395
523.2324, 1117.155
523.7145, 1100.251
524.1967, 1088.934
524.6788, 1106.245
525.1609, 1137.118
525.6430, 1148.245
526.1251, 1138.446
526.6072, 1124.058
527.0894, 1110.223
527.5715, 1098.943
528.0536, 1095.386
528.5357, 1101.293
529.0178, 1108.714
529.4999, 1120.069
529.9821, 1129.839
530.4642, 1132.328
530.9463, 1129.010
531.4284, 1125.904
531.9105, 1127.006
532.3926, 1130.207
532.8748, 1128.053
533.3569, 1116.197
533.8390, 1112.505
534.3211, 1121.575
534.8032, 1138.735
535.2853, 1168.884
535.7675, 1207.012
536.2496, 1230.583
536.7317, 1218.022
537.2138, 1194.784
537.6959, 1189.805
538.1780, 1199.194
538.6602, 1205.282
539.1423, 1201.047
539.6244, 1193.584
540.1065, 1193.644
540.5886, 1203.887
541.0707, 1212.430
541.5529, 1217.350
542.0350, 1222.725
542.5171, 1230.675
542.9992, 1240.173
543.4813, 1250.675
543.9634, 1262.178
544.4456, 1270.142
544.9277, 1266.296
545.4098, 1250.920
545.8919, 1237.130
546.3740, 1222.988
546.8561, 1217.170
547.3383, 1232.004
547.8204, 1259.891
548.3025, 1281.109
548.7846, 1295.663
549.2667, 1300.226
549.7488, 1287.525
550.2310, 1266.248
550.7131, 1245.162
551.1952, 1227.512
551.6773, 1221.507
552.1594, 1237.069
552.6415, 1272.064
553.1237, 1294.841
553.6058, 1298.713
554.0879, 1300.354
554.5700, 1304.398
555.0521, 1307.167
555.5342, 1302.843
556.0164, 1291.646
556.4985, 1284.820
556.9806, 1292.492
557.4627, 1308.196
557.9448, 1322.084
558.4269, 1333.769
558.9091, 1341.229
559.3912, 1343.139
559.8733, 1340.842
560.3554, 1336.614
560.8375, 1327.615
561.3196, 1323.121
561.8018, 1324.773
562.2839, 1329.497
562.7660, 1339.923
563.2481, 1351.553
563.7302, 1354.531
564.2123, 1343.300
564.6945, 1325.966
565.1766, 1315.294
565.6587, 1311.341
566.1408, 1310.891
566.6229, 1313.872
567.1050, 1319.663
567.5872, 1328.653
568.0693, 1340.178
568.5514, 1352.478
569.0335, 1370.121
569.5156, 1382.795
569.9977, 1381.196
570.4799, 1373.338
570.9620, 1369.184
571.4441, 1371.380
571.9262, 1381.062
572.4083, 1401.942
572.8904, 1431.679
573.3726, 1442.681
573.8547, 1423.334
574.3368, 1405.594
574.8189, 1395.606
575.3010, 1391.316
575.7831, 1392.320
576.2653, 1398.272
576.7474, 1405.707
577.2295, 1415.223
577.7116, 1423.776
578.1937, 1425.057
578.6758, 1420.586
579.1580, 1421.197
579.6401, 1432.708
580.1222, 1446.956
580.6042, 1448.451
581.0864, 1428.221
581.5685, 1422.420
582.0506, 1444.727
582.5327, 1465.005
583.0148, 1469.656
583.4969, 1464.174
583.9791, 1456.742
584.4612, 1449.846
584.9433, 1447.523
585.4254, 1457.751
585.9075, 1477.107
586.3896, 1489.507
586.8718, 1492.236
587.3539, 1493.156
587.8360, 1497.491
588.3181, 1504.057
588.8002, 1508.231
589.2823, 1508.814
589.7645, 1509.126
590.2466, 1504.962
590.7287, 1504.241
591.2108, 1518.251
591.6929, 1542.920
592.1750, 1562.122
592.6572, 1564.616
593.1393, 1556.986
593.6214, 1553.785
594.1035, 1555.191
594.5856, 1559.105
595.0677, 1564.695
595.5499, 1573.255
596.0320, 1587.148
596.5141, 1605.408
596.9962, 1623.548
597.4783, 1642.193
597.9604, 1659.162
598.4426, 1674.808
598.9247, 1687.498
599.4068, 1692.250
599.8889, 1689.284
600.3710, 1687.872
600.8531, 1698.324
601.3353, 1718.697
601.8174, 1730.460
602.2995, 1728.132
602.7816, 1729.767
603.2637, 1749.996
603.7458, 1769.720
604.2280, 1766.474
604.7101, 1740.553
605.1922, 1727.173
605.6743, 1749.186
606.1564, 1781.689
606.6385, 1806.552
607.1207, 1822.897
607.6028, 1827.724
608.0849, 1819.739
608.5670, 1812.002
609.0491, 1825.300
609.5313, 1864.499
610.0134, 1886.667
610.4955, 1879.075
610.9776, 1871.182
611.4597, 1870.926
611.9418, 1875.890
612.4240, 1883.370
612.9061, 1892.879
613.3882, 1904.739
613.8703, 1921.228
614.3524, 1939.148
614.8345, 1956.123
615.3167, 1970.910
615.7988, 1976.613
616.2809, 1968.479
616.7630, 1955.243
617.2451, 1954.819
617.7272, 1972.812
