##NAMES=Muscovite
##RRUFFID=R050198
##IDEAL CHEMISTRY=KAl_2_(Si_3_Al)O_10_(OH)_2_
##LOCALITY=California, USA
##OWNER=RRUFF
##SOURCE=University of Arizona Mineral Museum
##DESCRIPTION=Micaceous aggregate, polytype 2M1
##STATUS=The identification of this mineral has been confirmed by X-ray diffraction and chemical analysis
##URL=rruff.info/R050198
##MEASURED CHEMISTRY=(K_0.92_Na_0.08_)(Al_0.76_Mg_0.18_Fe^3+^_0.04_Fe^2+^_0.02_)_2_(Si_3.40_Al_0.60_)O_10_(OH)_2_
92.96582, 608.1640
93.44794, 602.4274
93.93005, 603.4499
94.41217, 610.8256
94.89429, 614.8636
95.37640, 617.3381
95.85852, 618.6287
96.34064, 618.5402
96.82275, 617.3972
97.30487, 614.5989
97.78699, 609.2907
98.26910, 600.9687
98.75122, 591.8060
99.23334, 583.0236
99.71545, 574.2985
100.1976, 564.3461
100.6797, 553.9484
101.1618, 543.4921
101.6439, 533.2142
102.1260, 522.8182
102.6081, 512.4774
103.0903, 502.6629
103.5724, 492.9206
104.0545, 484.2709
104.5366, 477.1151
105.0187, 471.0407
105.5008, 465.2738
105.9830, 459.2081
106.4651, 452.7690
106.9472, 446.6764
107.4293, 440.9160
107.9114, 435.3311
108.3935, 429.7038
108.8757, 424.1129
109.3578, 418.9674
109.8399, 414.7939
110.3220, 411.9528
110.8041, 409.3940
111.2862, 407.0054
111.7684, 404.8846
112.2505, 403.2266
112.7326, 402.0733
113.2147, 401.1752
113.6968, 399.9702
114.1789, 398.0300
114.6611, 396.5749
115.1432, 396.2902
115.6253, 396.6474
116.1074, 396.5069
116.5895, 395.2078
117.0716, 393.2547
117.5538, 391.8985
118.0359, 391.2914
118.5180, 390.9619
119.0001, 390.6177
119.4822, 390.2559
119.9643, 389.9487
120.4465, 389.7852
120.9286, 389.6801
121.4107, 389.5568
121.8928, 389.4213
122.3749, 389.2282
122.8570, 388.8470
123.3392, 388.1062
123.8213, 387.5027
124.3034, 387.3254
124.7855, 387.3430
125.2676, 387.2116
125.7497, 386.6478
126.2319, 385.7091
126.7140, 385.2404
127.1961, 386.0586
127.6782, 386.6209
128.1603, 386.3807
128.6424, 385.5316
129.1246, 384.6237
129.6067, 384.1703
130.0888, 384.2881
130.5709, 384.2942
131.0530, 383.9234
131.5351, 383.6681
132.0173, 383.9675
132.4994, 384.8194
132.9815, 385.7139
133.4636, 385.9948
133.9457, 385.4422
134.4278, 384.9204
134.9100, 384.2691
135.3921, 383.7386
135.8742, 383.7364
136.3563, 384.4584
136.8384, 385.4034
137.3205, 385.7418
137.8027, 385.4565
138.2848, 385.2196
138.7669, 385.4632
139.2490, 386.0324
139.7311, 386.3041
140.2132, 386.0032
140.6954, 385.3935
141.1775, 384.7055
141.6596, 383.9224
142.1417, 383.2855
142.6238, 383.0872
143.1059, 383.3944
143.5881, 383.7011
144.0702, 383.9029
144.5523, 384.0435
145.0344, 384.1572
145.5165, 384.2561
145.9986, 384.2988
146.4807, 384.1932
146.9629, 383.8394
147.4450, 383.5136
147.9271, 383.1636
148.4092, 382.8898
148.8913, 382.7587
149.3734, 382.7960
149.8556, 383.0345
150.3377, 383.6098
150.8198, 385.4715
151.3019, 386.6584
151.7840, 386.5587
152.2661, 385.6740
152.7483, 384.7342
153.2304, 384.1573
153.7125, 383.9455
154.1946, 384.2358
154.6767, 385.5540
155.1588, 386.7271
155.6410, 387.3128
156.1231, 387.3566
156.6052, 387.0574
157.0873, 386.4150
157.5694, 385.5121
158.0515, 385.2127
158.5337, 385.8086
159.0158, 386.7878
159.4979, 388.0015
159.9800, 389.4609
160.4621, 390.4920
160.9442, 390.0859
161.4264, 388.7356
161.9085, 387.9199
162.3906, 388.3042
162.8727, 389.3412
163.3548, 390.0301
163.8369, 390.0568
164.3191, 390.4163
164.8012, 392.2533
165.2833, 394.9465
165.7654, 397.1112
166.2475, 397.6862
166.7296, 396.9751
167.2118, 396.6996
167.6939, 396.9879
168.1760, 397.6429
168.6581, 398.6384
169.1402, 399.8956
169.6223, 401.2601
170.1045, 402.6285
170.5866, 404.0104
171.0687, 405.2917
171.5508, 406.3714
172.0329, 407.4290
172.5150, 408.5948
172.9972, 409.8249
173.4793, 410.9453
173.9614, 411.6989
174.4435, 411.8235
174.9256, 412.5195
175.4077, 414.1727
175.8899, 415.9762
176.3720, 417.4604
176.8541, 418.5742
177.3362, 419.5711
177.8183, 420.7723
178.3004, 422.2907
178.7826, 423.8014
179.2647, 425.1738
179.7468, 426.6146
180.2289, 428.3257
180.7110, 430.3461
181.1931, 432.5536
181.6752, 434.7699
182.1574, 436.9680
182.6395, 439.2557
183.1216, 441.7470
183.6037, 444.3134
184.0858, 446.7221
184.5679, 448.8853
185.0501, 450.9656
185.5322, 453.2915
186.0143, 455.9030
186.4964, 458.3542
186.9785, 460.4361
187.4606, 462.2278
187.9428, 463.9991
188.4249, 465.9460
188.9070, 467.6808
189.3891, 468.9212
189.8712, 469.7204
190.3533, 469.7612
190.8355, 468.5890
191.3176, 466.3192
191.7997, 463.9839
192.2818, 461.8642
192.7639, 459.6828
193.2460, 457.2013
193.7282, 454.3922
194.2103, 451.4532
194.6924, 448.5601
195.1745, 445.6969
195.6566, 442.8063
196.1387, 439.9017
196.6209, 436.9462
197.1030, 433.7686
197.5851, 430.3667
198.0672, 427.1706
198.5493, 424.8173
199.0314, 423.6160
199.5136, 422.2837
199.9957, 420.4125
200.4778, 418.5561
200.9599, 417.1745
201.4420, 416.3376
201.9241, 415.6403
202.4063, 414.3124
202.8884, 411.4953
203.3705, 409.7802
203.8526, 410.1280
204.3347, 410.8822
204.8168, 410.7177
205.2990, 409.2696
205.7811, 407.1866
206.2632, 405.6694
206.7453, 405.1382
207.2274, 404.6439
207.7095, 404.1416
208.1917, 403.6862
208.6738, 403.3465
209.1559, 403.1420
209.6380, 403.0161
210.1201, 402.8607
210.6022, 402.7300
211.0844, 402.4724
211.5665, 401.9195
212.0486, 401.2920
212.5307, 400.9017
213.0128, 400.8698
213.4949, 400.9776
213.9771, 400.7591
214.4592, 400.1271
214.9413, 399.4183
215.4234, 398.6420
215.9055, 397.8389
216.3876, 397.0521
216.8698, 396.2870
217.3519, 395.5780
217.8340, 394.9855
218.3161, 394.4920
218.7982, 394.1178
219.2803, 393.9367
219.7625, 393.8819
220.2446, 393.7986
220.7267, 393.6325
221.2088, 393.4329
221.6909, 393.2767
222.1730, 393.1680
222.6552, 393.0474
223.1373, 392.8347
223.6194, 392.5728
224.1015, 392.4329
224.5836, 392.5229
225.0657, 392.6660
225.5479, 392.5990
226.0300, 392.3099
226.5121, 392.1519
226.9942, 392.5877
227.4763, 393.4771
227.9584, 393.7855
228.4406, 392.7851
228.9227, 391.6706
229.4048, 391.4478
229.8869, 392.0954
230.3690, 392.9384
230.8511, 393.5181
231.3333, 393.8374
231.8154, 394.0316
232.2975, 393.9698
232.7796, 393.9256
233.2617, 394.1000
233.7438, 394.4716
234.2260, 394.8426
234.7081, 394.9349
235.1902, 394.7052
235.6723, 394.8422
236.1544, 395.7398
236.6365, 396.7432
237.1187, 397.6090
237.6008, 398.3158
238.0829, 398.9097
238.5650, 399.2642
239.0471, 399.2467
239.5292, 399.9703
240.0114, 402.2648
240.4935, 404.6360
240.9756, 406.5053
241.4577, 407.9230
241.9398, 409.2645
242.4219, 410.8705
242.9041, 412.7477
243.3862, 414.8119
243.8683, 416.9038
244.3504, 419.3271
244.8325, 422.3998
245.3146, 425.9515
245.7968, 429.5359
246.2789, 432.7196
246.7610, 435.4693
247.2431, 438.2565
247.7252, 440.9482
248.2073, 443.8106
248.6895, 446.9517
249.1716, 450.3572
249.6537, 453.9423
250.1358, 457.6794
250.6179, 461.6051
251.1000, 465.1572
251.5822, 468.0773
252.0643, 470.9449
252.5464, 473.6695
253.0285, 476.4804
253.5106, 479.8791
253.9927, 484.3317
254.4748, 489.8106
254.9570, 494.9690
255.4391, 499.7607
255.9212, 504.3606
256.4033, 508.6196
256.8854, 512.7111
257.3676, 517.0414
257.8497, 521.8983
258.3318, 527.2382
258.8139, 532.6431
259.2960, 537.9461
259.7781, 543.4716
260.2603, 549.7548
260.7424, 556.3903
261.2245, 562.4635
261.7066, 567.3837
262.1887, 571.3479
262.6708, 575.2977
263.1530, 580.3729
263.6351, 584.2448
264.1172, 585.9924
264.5993, 586.0155
265.0814, 585.2292
265.5635, 584.1078
266.0457, 582.3931
266.5278, 579.1885
267.0099, 574.6594
267.4920, 568.8580
267.9741, 561.3835
268.4562, 552.6674
268.9384, 543.4969
269.4204, 534.1234
269.9026, 524.6514
270.3847, 515.3042
270.8668, 506.1576
271.3489, 496.9612
271.8310, 487.2781
272.3131, 477.6071
272.7953, 468.8670
273.2774, 461.4266
273.7595, 454.8174
274.2416, 448.2441
274.7237, 441.5946
275.2058, 435.5306
275.6880, 430.4761
276.1701, 426.0626
276.6522, 421.6332
277.1343, 416.9257
277.6164, 412.4173
278.0985, 408.7613
278.5807, 405.8640
279.0628, 403.2744
279.5449, 400.9955
280.0270, 398.9142
280.5091, 396.8367
280.9912, 394.7354
281.4734, 392.6597
281.9555, 390.5228
282.4376, 388.3850
282.9197, 386.7047
283.4018, 386.0036
283.8839, 385.6493
284.3661, 384.7050
284.8482, 383.0213
285.3303, 381.3394
285.8124, 380.2325
286.2945, 379.5695
286.7766, 379.0792
287.2588, 378.9292
287.7409, 378.8026
288.2230, 378.2199
288.7051, 377.1273
289.1872, 376.2059
289.6693, 376.1163
290.1515, 376.4032
290.6336, 376.2228
291.1157, 375.1630
291.5978, 373.9561
292.0799, 373.3389
292.5620, 373.3141
293.0442, 373.3795
293.5263, 373.3717
294.0084, 373.3012
294.4905, 373.1690
294.9726, 372.9413
295.4547, 372.7462
295.9369, 372.6773
296.4190, 372.7325
296.9011, 372.9141
297.3832, 373.3853
297.8653, 373.8229
298.3474, 373.8079
298.8296, 373.2785
299.3117, 372.7989
299.7938, 372.8676
300.2759, 373.3642
300.7580, 373.6198
301.2401, 373.3701
301.7223, 373.0099
302.2044, 372.9636
302.6865, 373.1887
303.1686, 373.3209
303.6507, 373.0377
304.1328, 372.4947
304.6150, 372.2577
305.0971, 372.5782
305.5792, 372.8153
306.0613, 372.2782
306.5434, 371.2516
307.0255, 370.5150
307.5077, 370.6617
307.9898, 371.2692
308.4719, 371.3970
308.9540, 370.8552
309.4361, 370.3961
309.9182, 370.7808
310.4004, 371.5081
310.8825, 371.7882
311.3646, 371.1729
311.8467, 370.2086
312.3288, 369.6502
312.8109, 369.5421
313.2931, 369.5407
313.7752, 369.5939
314.2573, 369.6234
314.7394, 369.5194
315.2215, 369.2280
315.7036, 368.8937
316.1858, 368.7045
316.6679, 368.6586
317.1500, 368.4640
317.6321, 367.8944
318.1142, 367.2406
318.5963, 366.7888
319.0785, 366.5611
319.5606, 366.4399
320.0427, 366.4362
320.5248, 366.5060
321.0069, 366.3596
321.4890, 365.8116
321.9712, 365.2123
322.4533, 364.8555
322.9354, 364.7164
323.4175, 364.6701
323.8996, 364.6238
324.3817, 364.6225
324.8639, 364.8998
325.3460, 365.7042
325.8281, 366.2207
326.3102, 365.5042
326.7923, 364.0530
327.2744, 362.9283
327.7566, 362.6026
328.2387, 362.7582
328.7208, 363.0311
329.2029, 363.4712
329.6850, 363.7331
330.1671, 363.4181
330.6493, 362.8646
331.1314, 362.5551
331.6135, 362.5878
332.0956, 362.8626
332.5777, 363.4728
333.0598, 364.3931
333.5420, 364.9413
334.0241, 364.7350
334.5062, 364.0903
334.9883, 363.3993
335.4704, 362.6179
335.9525, 362.0631
336.4347, 362.0831
336.9168, 362.5336
337.3989, 362.8356
337.8810, 362.7817
338.3631, 362.6851
338.8452, 362.8943
339.3274, 363.3798
339.8094, 363.9193
340.2916, 364.5494
340.7737, 365.1450
341.2558, 365.4875
341.7379, 365.5450
342.2200, 365.3949
342.7021, 364.9492
343.1843, 364.3238
343.6664, 363.8865
344.1485, 363.6859
344.6306, 363.7145
345.1127, 364.0262
345.5948, 364.6143
346.0770, 365.2801
346.5591, 366.0430
347.0412, 366.7369
347.5233, 366.9537
348.0054, 366.2980
348.4875, 365.7874
348.9697, 366.3101
349.4518, 367.5245
349.9339, 368.2100
350.4160, 367.7695
350.8981, 366.8590
351.3802, 366.6407
351.8624, 367.2003
352.3445, 367.7445
352.8266, 367.9969
353.3087, 368.0931
353.7908, 368.2603
354.2729, 368.5541
354.7551, 368.8312
355.2372, 368.9272
355.7193, 368.8385
356.2014, 368.7427
356.6835, 368.5593
357.1656, 368.4474
357.6478, 368.6019
358.1299, 369.0014
358.6120, 369.4140
359.0941, 369.7563
359.5762, 369.9589
360.0583, 369.6801
360.5405, 368.2906
361.0226, 367.1357
361.5047, 366.8424
361.9868, 367.1867
362.4689, 367.7601
362.9510, 368.4426
363.4332, 369.0472
363.9153, 369.0758
364.3974, 368.2781
364.8795, 367.4351
365.3616, 366.4567
365.8438, 365.5688
366.3259, 365.0703
366.8080, 365.0141
367.2901, 365.1696
367.7722, 365.2873
368.2543, 365.3863
368.7365, 365.3286
369.2186, 364.8866
369.7007, 364.5000
370.1828, 364.4671
370.6649, 364.7384
371.1470, 365.0991
371.6292, 365.4275
372.1113, 365.7019
372.5934, 365.6212
373.0755, 365.0089
373.5576, 364.2755
374.0397, 363.2986
374.5219, 362.3128
375.0040, 361.6194
375.4861, 361.3439
375.9682, 361.4338
376.4503, 361.8218
376.9324, 363.1403
377.4146, 363.7081
377.8967, 362.8247
378.3788, 361.7434
378.8609, 361.3455
379.3430, 361.7583
379.8251, 362.5996
380.3073, 363.5377
380.7894, 364.6444
381.2715, 365.3106
381.7536, 365.2341
382.2357, 365.0132
382.7178, 364.7432
383.2000, 364.4802
383.6821, 364.2755
384.1642, 364.1551
384.6463, 364.1265
385.1284, 364.2409
385.6105, 364.6415
386.0927, 364.9478
386.5748, 365.0425
387.0569, 365.0527
387.5390, 365.1319
388.0211, 365.3206
388.5032, 365.4632
388.9854, 365.2368
389.4675, 364.5015
389.9496, 364.1848
390.4317, 364.8857
390.9138, 365.6290
391.3959, 365.8969
391.8781, 365.7489
392.3602, 365.5552
392.8423, 365.5606
393.3244, 365.7386
393.8065, 365.9925
394.2886, 366.4235
394.7708, 366.7196
395.2529, 366.6929
395.7350, 366.4655
396.2171, 366.1405
396.6992, 365.6429
397.1813, 365.2905
397.6635, 365.5898
398.1456, 366.5716
398.6277, 367.4984
399.1098, 368.2535
399.5919, 368.7312
400.0740, 368.7650
400.5562, 368.3299
401.0383, 367.9129
401.5204, 367.8549
402.0025, 368.0146
402.4846, 367.9248
402.9667, 367.3795
403.4489, 367.0844
403.9310, 368.0904
404.4131, 369.9597
404.8952, 371.0821
405.3773, 370.4207
405.8594, 369.4600
406.3416, 369.6397
406.8237, 370.8108
407.3058, 371.8209
407.7879, 372.0466
408.2700, 371.7839
408.7521, 371.7920
409.2343, 372.1266
409.7164, 372.5598
410.1985, 373.0338
410.6806, 373.5610
411.1627, 374.2313
411.6448, 375.0693
412.1269, 375.8043
412.6090, 376.0772
413.0912, 375.7591
413.5733, 375.6075
414.0554, 375.5578
414.5375, 375.7162
415.0196, 376.2492
415.5017, 377.0589
415.9839, 377.8973
416.4660, 378.6330
416.9481, 379.2306
417.4302, 379.5186
417.9123, 379.3134
418.3944, 379.0059
418.8766, 378.3895
419.3587, 377.8067
419.8408, 377.6761
420.3229, 378.0771
420.8050, 378.6681
421.2871, 379.0010
421.7693, 379.0283
422.2514, 378.9705
422.7335, 378.8632
423.2156, 378.6461
423.6977, 378.2407
424.1798, 377.7031
424.6620, 377.1534
425.1441, 376.6628
425.6262, 376.2276
426.1083, 375.8584
426.5904, 375.6887
427.0725, 375.3185
427.5547, 374.4274
428.0368, 373.4545
428.5189, 372.8481
429.0010, 372.6995
429.4831, 372.6388
429.9652, 372.2328
430.4474, 371.4803
430.9295, 370.8334
431.4116, 370.3251
431.8937, 369.9528
432.3758, 369.8026
432.8579, 369.7764
433.3401, 369.6101
433.8222, 369.2550
434.3043, 368.6449
434.7864, 367.5425
435.2685, 365.8800
435.7506, 364.3829
436.2328, 363.5055
436.7149, 362.9045
437.1970, 362.0006
437.6791, 360.6762
438.1612, 359.3996
438.6433, 358.6426
439.1255, 358.0782
439.6076, 356.9111
440.0897, 354.9135
440.5718, 352.7689
441.0539, 351.1745
441.5360, 350.1506
442.0182, 349.1545
442.5003, 348.2118
442.9824, 347.2471
443.4645, 346.2041
443.9466, 345.1010
444.4287, 344.0031
444.9109, 342.9305
445.3930, 341.9023
445.8751, 340.9460
446.3572, 339.9716
446.8393, 339.2229
447.3214, 338.8800
447.8036, 338.6575
448.2857, 338.3580
448.7678, 337.9277
449.2499, 337.3182
449.7320, 336.4144
450.2141, 335.1745
450.6963, 333.7458
451.1784, 334.2838
451.6605, 334.4473
452.1426, 334.2565
452.6247, 332.6501
453.1068, 332.8717
453.5890, 332.3606
454.0711, 331.8196
454.5532, 332.2985
455.0353, 330.8980
455.5174, 331.3607
455.9995, 331.0796
456.4817, 331.1389
456.9638, 330.4612
457.4459, 330.4928
457.9280, 330.6219
458.4101, 330.6688
458.8922, 330.6333
459.3744, 330.4760
459.8565, 330.1270
460.3386, 329.8793
460.8207, 329.9408
461.3028, 330.1546
461.7849, 330.4020
462.2671, 330.7276
462.7492, 330.8449
463.2313, 330.3968
463.7134, 329.5658
464.1955, 328.9341
464.6776, 328.6675
465.1598, 328.4684
465.6419, 328.0052
466.1240, 327.3121
466.6061, 326.7165
467.0882, 326.0787
467.5703, 325.7069
468.0525, 326.0273
468.5346, 326.8333
469.0167, 327.4514
469.4988, 327.5542
469.9809, 327.2926
470.4630, 327.0039
470.9452, 326.6088
471.4273, 326.3324
471.9094, 326.2276
472.3915, 326.2108
472.8736, 326.2921
473.3557, 326.4203
473.8379, 326.4138
474.3200, 326.0850
474.8021, 325.4685
475.2842, 325.1299
475.7663, 325.4512
476.2484, 325.5867
476.7306, 325.3224
477.2127, 324.8501
477.6948, 324.3182
478.1769, 323.7886
478.6590, 323.3539
479.1411, 323.2168
479.6233, 323.4258
480.1054, 323.3600
480.5875, 322.6703
481.0696, 322.0864
481.5517, 322.0435
482.0338, 322.3579
482.5159, 322.6418
482.9980, 322.7574
483.4802, 322.7311
483.9623, 322.5150
484.4444, 322.1085
484.9265, 321.8966
485.4086, 322.1491
485.8907, 322.4939
486.3729, 322.4369
486.8550, 321.9725
487.3371, 321.4722
487.8192, 320.9728
488.3013, 320.5530
488.7834, 320.2921
489.2656, 320.1976
489.7477, 320.3069
490.2298, 320.7442
490.7119, 321.3646
491.1940, 321.4149
491.6761, 320.3401
492.1583, 319.5402
492.6404, 319.4784
493.1225, 319.7126
493.6046, 319.8053
494.0867, 319.6481
494.5688, 319.2858
495.0510, 318.6996
495.5331, 317.8350
496.0152, 317.4918
496.4973, 318.3254
496.9794, 318.9703
497.4615, 319.0261
497.9437, 318.7296
498.4258, 318.3642
498.9079, 318.0386
499.3900, 317.8019
499.8721, 317.8240
500.3542, 318.1837
500.8364, 318.1677
501.3185, 317.3536
501.8006, 316.5330
502.2827, 316.2100
502.7648, 316.2354
503.2469, 316.1792
503.7291, 315.7434
504.2112, 315.2502
504.6933, 315.2407
505.1754, 315.6956
505.6575, 315.9976
506.1396, 315.9191
506.6218, 315.5945
507.1039, 315.1508
507.5860, 314.5631
508.0681, 314.1567
508.5502, 314.2746
509.0323, 314.4485
509.5145, 314.0127
509.9966, 313.0697
510.4787, 312.4629
510.9608, 312.7656
511.4429, 313.7513
511.9250, 314.5047
512.4072, 315.1830
512.8893, 315.4069
513.3714, 314.7775
513.8535, 313.9267
514.3356, 313.3409
514.8177, 313.1072
515.2999, 313.1157
515.7820, 313.3237
516.2641, 313.6975
516.7462, 313.7642
517.2283, 313.1831
517.7104, 312.8069
518.1926, 312.9643
518.6747, 313.3341
519.1568, 313.6517
519.6389, 313.8460
520.1210, 313.8641
520.6031, 313.5177
521.0853, 312.8942
521.5674, 312.5980
522.0495, 312.7884
522.5316, 313.0405
523.0137, 313.0171
523.4958, 312.8581
523.9780, 312.8451
524.4601, 313.1152
524.9422, 313.3875
525.4243, 313.5154
525.9064, 313.5040
526.3885, 313.3045
526.8707, 312.8846
527.3528, 312.4899
527.8349, 312.4428
528.3170, 312.8090
528.7991, 312.8860
529.2813, 312.3765
529.7634, 311.9190
530.2455, 311.7244
530.7276, 311.7754
531.2097, 312.1180
531.6918, 312.7552
532.1740, 313.3835
532.6561, 313.4307
533.1382, 312.6123
533.6203, 312.1904
534.1024, 312.6466
534.5845, 313.0426
535.0667, 313.0368
535.5488, 312.7157
536.0309, 312.2621
536.5130, 311.7216
536.9951, 311.1939
537.4772, 310.7963
537.9594, 310.5272
538.4415, 310.4881
538.9236, 310.8940
539.4057, 311.2735
539.8878, 311.0832
540.3699, 310.4352
540.8521, 309.9476
541.3342, 310.0534
541.8163, 310.1802
542.2984, 309.6819
542.7805, 308.7372
543.2626, 308.0800
543.7448, 308.0435
544.2269, 308.3004
544.7090, 308.2798
545.1911, 307.7986
545.6732, 307.5251
546.1553, 307.6256
546.6375, 307.7748
547.1196, 307.8335
547.6017, 307.7863
548.0838, 307.6660
548.5659, 307.4955
549.0480, 307.2075
549.5302, 306.5715
550.0123, 305.3611
550.4944, 304.4827
550.9765, 304.1856
551.4586, 304.1241
551.9407, 304.2900
552.4229, 304.5675
552.9050, 304.6611
553.3871, 304.3434
553.8692, 303.8429
554.3513, 303.5484
554.8334, 303.4533
555.3156, 303.2321
555.7977, 302.7710
556.2798, 302.1503
556.7619, 301.4091
557.2440, 300.5440
557.7261, 299.8256
558.2083, 299.3152
558.6904, 298.9593
559.1725, 298.7494
559.6546, 298.6592
560.1367, 298.6554
560.6188, 298.7344
561.1010, 298.7986
561.5831, 298.6334
562.0652, 298.0832
562.5473, 297.6518
563.0294, 297.4530
563.5115, 297.2461
563.9937, 296.9062
564.4758, 296.4633
564.9579, 295.9644
565.4400, 295.4035
565.9221, 294.9293
566.4042, 294.8625
566.8864, 295.2527
567.3685, 295.6660
567.8506, 296.2076
568.3327, 296.5224
568.8148, 296.2177
569.2969, 295.4546
569.7791, 294.8374
570.2612, 294.6412
570.7433, 294.6015
571.2254, 294.4146
571.7075, 294.1712
572.1896, 294.2926
572.6718, 294.9870
573.1539, 295.7245
573.6360, 295.7416
574.1181, 294.8018
574.6002, 294.3066
575.0823, 294.7462
575.5645, 295.0845
576.0466, 294.6182
576.5287, 293.8165
577.0108, 293.5775
577.4929, 294.2272
577.9750, 295.1255
578.4572, 295.2123
578.9393, 294.3009
579.4214, 293.8649
579.9035, 294.3015
580.3856, 294.7419
580.8677, 294.7951
581.3499, 294.6019
581.8320, 294.3953
582.3141, 294.2640
582.7962, 294.0616
583.2783, 293.4498
583.7604, 292.6515
584.2426, 292.4422
584.7247, 293.0067
585.2068, 293.8370
585.6889, 294.6055
586.1710, 295.2811
586.6531, 295.6886
587.1352, 295.9494
587.6173, 295.8095
588.0994, 294.6311
