##NAMES=Nabokoite
##RRUFFID=R070062
##IDEAL CHEMISTRY=Cu^2+^_7_Te^4+^O_4_(S^6+^O_4_)_5_&#183;KCl
##LOCALITY=Tolbachik Volcano, Kamchatka, Russia
##OWNER=RRUFF
##SOURCE=Michael Scott
##DESCRIPTION=Brown thin tabular plates, co-type material
##STATUS=The identification of this mineral is confirmed by single-crystal X-ray diffraction and chemical analysis.
##URL=rruff.info/R070062
##MEASURED CHEMISTRY=K_1.00_(Cu^2+^_6.78_Zn_0.22_)_Σ=7_(Te^4+^_0.72_V^5+^_0.14_Bi^3+^_0.05_Fe^3+^_0.05_V^3+^_0.04_)_Σ=1_O_4_(S_1.00_O_4_)_5_Cl_1.00_; V^5+^ and V^3+^ splitted by charge balance
137.2199, 966.1206
137.7020, 972.9551
138.1841, 992.2815
138.6662, 1018.761
139.1483, 1048.335
139.6305, 1082.372
140.1126, 1112.536
140.5947, 1130.440
141.0768, 1144.498
141.5589, 1162.210
142.0410, 1185.611
142.5232, 1214.006
143.0053, 1248.380
143.4874, 1292.709
143.9695, 1331.641
144.4516, 1355.557
144.9337, 1373.522
145.4159, 1394.651
145.8980, 1423.386
146.3801, 1454.989
146.8622, 1478.360
147.3443, 1487.316
147.8264, 1500.734
148.3086, 1527.068
148.7907, 1558.516
149.2728, 1588.261
149.7549, 1613.974
150.2370, 1634.086
150.7191, 1643.559
151.2013, 1634.393
151.6834, 1626.877
152.1655, 1627.647
152.6476, 1631.376
153.1297, 1632.500
153.6118, 1628.401
154.0940, 1619.458
154.5761, 1606.589
155.0582, 1585.726
155.5403, 1566.246
156.0224, 1546.359
156.5045, 1529.518
156.9867, 1520.548
157.4688, 1522.424
157.9509, 1532.239
158.4330, 1538.213
158.9151, 1535.504
159.3972, 1534.284
159.8794, 1534.253
160.3615, 1536.747
160.8436, 1543.910
161.3257, 1557.020
161.8078, 1574.659
162.2899, 1590.617
162.7721, 1598.922
163.2542, 1612.299
163.7363, 1638.522
164.2184, 1669.385
164.7005, 1692.406
165.1826, 1700.722
165.6648, 1698.313
166.1469, 1702.968
166.6290, 1718.034
167.1111, 1736.357
167.5932, 1761.629
168.0753, 1788.754
168.5575, 1810.118
169.0396, 1821.617
169.5217, 1825.310
170.0038, 1829.282
170.4859, 1832.858
170.9680, 1837.463
171.4502, 1842.252
171.9323, 1848.401
172.4144, 1859.474
172.8965, 1878.182
173.3786, 1900.260
173.8607, 1909.500
174.3429, 1889.608
174.8250, 1877.892
175.3071, 1886.541
175.7892, 1907.642
176.2713, 1928.277
176.7534, 1942.622
177.2356, 1952.422
177.7177, 1962.694
178.1998, 1975.642
178.6819, 1986.046
179.1640, 1985.762
179.6461, 1982.725
180.1283, 1993.514
180.6104, 2027.341
181.0925, 2073.604
181.5746, 2104.253
182.0567, 2113.310
182.5388, 2122.602
183.0210, 2138.469
183.5031, 2158.689
183.9852, 2178.896
184.4673, 2197.544
184.9494, 2215.708
185.4315, 2236.769
185.9137, 2263.168
186.3958, 2285.361
186.8779, 2294.970
187.3600, 2287.865
187.8421, 2311.132
188.3242, 2328.298
188.8064, 2339.694
189.2885, 2328.023
189.7706, 2346.135
190.2527, 2352.311
190.7348, 2357.998
191.2169, 2380.301
191.6991, 2371.987
192.1812, 2394.027
192.6633, 2403.950
193.1454, 2419.418
193.6275, 2422.877
194.1096, 2430.046
194.5918, 2449.229
195.0739, 2461.759
195.5560, 2463.836
196.0381, 2463.467
196.5202, 2478.197
197.0023, 2484.724
197.4845, 2483.502
197.9666, 2485.094
198.4487, 2498.213
198.9308, 2514.915
199.4129, 2520.507
199.8950, 2510.781
200.3772, 2495.815
200.8593, 2486.925
201.3414, 2483.047
201.8235, 2476.657
202.3056, 2460.623
202.7877, 2442.425
203.2699, 2422.792
203.7520, 2434.021
204.2341, 2439.150
204.7162, 2438.506
205.1983, 2414.798
205.6804, 2420.872
206.1626, 2415.010
206.6447, 2408.659
207.1268, 2418.925
207.6089, 2398.571
208.0910, 2408.574
208.5731, 2412.884
209.0553, 2426.649
209.5374, 2436.010
210.0195, 2433.016
210.5016, 2427.140
210.9837, 2430.298
211.4658, 2443.537
211.9480, 2458.019
212.4301, 2469.541
212.9122, 2477.714
213.3943, 2481.257
213.8764, 2474.740
214.3585, 2467.551
214.8407, 2470.880
215.3228, 2485.025
215.8049, 2498.074
216.2870, 2504.218
216.7691, 2504.399
217.2512, 2500.662
217.7334, 2490.148
218.2155, 2479.708
218.6976, 2475.203
219.1797, 2476.403
219.6618, 2480.324
220.1439, 2490.263
220.6261, 2498.893
221.1082, 2493.371
221.5903, 2466.954
222.0724, 2440.601
222.5545, 2431.692
223.0366, 2437.263
223.5188, 2439.430
224.0009, 2434.366
224.4830, 2419.710
224.9651, 2390.904
225.4472, 2343.802
225.9293, 2301.608
226.4115, 2284.327
226.8936, 2283.965
227.3757, 2271.326
227.8578, 2233.620
228.3399, 2188.998
228.8220, 2162.477
229.3041, 2154.802
229.7863, 2141.790
230.2684, 2107.089
230.7505, 2059.871
231.2326, 2020.511
231.7147, 1992.944
232.1968, 1973.370
232.6790, 1960.356
233.1611, 1952.891
233.6432, 1945.342
234.1253, 1935.734
234.6074, 1925.009
235.0895, 1916.144
235.5717, 1910.510
236.0538, 1901.044
236.5359, 1877.103
237.0180, 1842.708
237.5001, 1814.163
237.9822, 1799.459
238.4644, 1789.531
238.9465, 1774.000
239.4286, 1752.221
239.9107, 1731.079
240.3928, 1715.378
240.8749, 1704.413
241.3571, 1694.635
241.8392, 1686.232
242.3213, 1678.647
242.8034, 1671.982
243.2855, 1666.074
243.7676, 1659.894
244.2498, 1654.338
244.7319, 1647.062
245.2140, 1631.661
245.6961, 1596.842
246.1782, 1570.208
246.6603, 1574.207
247.1425, 1600.106
247.6246, 1617.872
248.1067, 1614.658
248.5888, 1598.004
249.0709, 1582.356
249.5530, 1566.304
250.0352, 1554.365
250.5173, 1549.388
250.9994, 1549.452
251.4815, 1551.875
251.9636, 1556.441
252.4457, 1561.010
252.9279, 1562.268
253.4100, 1560.199
253.8921, 1556.232
254.3742, 1547.925
254.8563, 1539.037
255.3384, 1533.927
255.8206, 1533.394
256.3027, 1536.152
256.7848, 1542.999
257.2669, 1555.218
257.7490, 1556.312
258.2311, 1538.397
258.7133, 1514.540
259.1954, 1489.423
259.6775, 1465.371
260.1596, 1452.396
260.6417, 1461.363
261.1238, 1491.201
261.6060, 1508.062
262.0881, 1507.905
262.5702, 1500.423
263.0523, 1483.820
263.5344, 1462.773
264.0165, 1450.261
264.4987, 1455.345
264.9808, 1472.295
265.4629, 1474.549
265.9450, 1446.046
266.4271, 1424.259
266.9092, 1420.344
267.3914, 1426.741
267.8735, 1433.508
268.3556, 1436.863
268.8377, 1437.226
269.3198, 1435.462
269.8019, 1430.840
270.2841, 1424.806
270.7662, 1415.174
271.2483, 1405.347
271.7304, 1398.917
272.2125, 1396.387
272.6946, 1394.920
273.1768, 1391.029
273.6589, 1384.337
274.1410, 1376.036
274.6231, 1362.580
275.1052, 1350.801
275.5873, 1344.948
276.0695, 1344.546
276.5516, 1346.524
277.0337, 1348.619
277.5158, 1350.890
277.9979, 1350.867
278.4800, 1347.188
278.9622, 1342.681
279.4443, 1335.678
279.9264, 1328.688
280.4085, 1326.569
280.8906, 1332.669
281.3727, 1343.972
281.8549, 1348.291
282.3370, 1339.011
282.8191, 1331.689
283.3012, 1330.687
283.7833, 1331.397
284.2654, 1328.795
284.7476, 1321.205
285.2297, 1311.458
285.7118, 1304.328
286.1939, 1300.434
286.6760, 1297.549
287.1581, 1297.074
287.6403, 1296.275
288.1224, 1291.277
288.6045, 1282.938
289.0866, 1277.747
289.5687, 1287.282
290.0508, 1313.862
290.5330, 1321.593
291.0151, 1290.408
291.4972, 1260.956
291.9793, 1253.191
292.4614, 1261.137
292.9435, 1268.958
293.4257, 1265.474
293.9078, 1254.979
294.3899, 1253.161
294.8720, 1264.172
295.3541, 1274.963
295.8362, 1282.063
296.3184, 1285.092
296.8005, 1282.384
297.2826, 1272.020
297.7647, 1259.043
298.2468, 1249.599
298.7289, 1243.843
299.2111, 1240.246
299.6932, 1239.040
300.1753, 1239.445
300.6574, 1241.015
301.1395, 1243.880
301.6216, 1246.382
302.1038, 1247.035
302.5859, 1246.312
303.0680, 1246.434
303.5501, 1248.759
304.0322, 1250.150
304.5143, 1245.960
304.9964, 1237.291
305.4785, 1230.834
305.9607, 1231.753
306.4428, 1234.747
306.9249, 1230.302
307.4070, 1217.288
307.8891, 1209.063
308.3712, 1218.652
308.8534, 1241.739
309.3355, 1254.659
309.8176, 1250.935
310.2997, 1242.491
310.7818, 1234.225
311.2639, 1226.563
311.7461, 1220.294
312.2282, 1215.345
312.7103, 1212.727
313.1924, 1216.130
313.6745, 1230.022
314.1566, 1240.124
314.6388, 1243.137
315.1209, 1241.023
315.6030, 1234.169
316.0851, 1222.973
316.5672, 1212.523
317.0493, 1209.641
317.5315, 1217.245
318.0136, 1222.278
318.4957, 1223.136
318.9778, 1223.011
319.4599, 1224.246
319.9420, 1226.329
320.4242, 1226.845
320.9063, 1223.767
321.3884, 1217.449
321.8705, 1212.481
322.3526, 1207.917
322.8347, 1205.917
323.3169, 1209.299
323.7990, 1214.691
324.2811, 1217.959
324.7632, 1217.347
325.2453, 1214.020
325.7274, 1210.063
326.2096, 1204.516
326.6917, 1200.533
327.1738, 1194.644
327.6559, 1192.842
328.1380, 1203.355
328.6201, 1224.441
329.1023, 1243.066
329.5844, 1244.154
330.0665, 1227.157
330.5486, 1216.886
331.0307, 1218.841
331.5128, 1220.942
331.9950, 1217.142
332.4771, 1209.793
332.9592, 1203.591
333.4413, 1200.945
333.9234, 1200.640
334.4055, 1199.307
334.8877, 1195.615
335.3698, 1197.062
335.8519, 1214.978
336.3340, 1235.234
336.8161, 1241.803
337.2982, 1230.423
337.7804, 1216.183
338.2625, 1211.213
338.7446, 1213.369
339.2267, 1212.706
339.7088, 1205.675
340.1909, 1198.133
340.6731, 1197.616
341.1552, 1203.217
341.6373, 1207.536
342.1194, 1207.277
342.6015, 1205.519
343.0836, 1205.749
343.5658, 1208.128
344.0479, 1211.019
344.5300, 1213.869
345.0121, 1216.227
345.4942, 1216.036
345.9763, 1211.402
346.4585, 1206.573
346.9406, 1202.585
347.4227, 1199.528
347.9048, 1198.334
348.3869, 1199.521
348.8690, 1200.381
349.3512, 1195.394
349.8333, 1176.015
350.3154, 1168.615
350.7975, 1183.239
351.2796, 1201.810
351.7617, 1212.619
352.2439, 1214.560
352.7260, 1211.819
353.2081, 1207.709
353.6902, 1202.213
354.1723, 1196.780
354.6544, 1189.123
355.1366, 1184.158
355.6187, 1185.588
356.1008, 1189.492
356.5829, 1189.981
357.0650, 1184.299
357.5471, 1176.344
358.0293, 1173.497
358.5114, 1176.958
358.9935, 1181.749
359.4756, 1189.653
359.9577, 1196.768
360.4398, 1201.458
360.9220, 1203.288
361.4041, 1201.509
361.8862, 1191.727
362.3683, 1176.782
362.8504, 1171.730
363.3326, 1180.739
363.8147, 1191.527
364.2968, 1197.246
364.7789, 1199.622
365.2610, 1201.353
365.7431, 1203.600
366.2253, 1204.800
366.7074, 1202.589
367.1895, 1197.472
367.6716, 1193.333
368.1537, 1191.833
368.6358, 1191.690
369.1180, 1190.757
369.6001, 1188.884
370.0822, 1187.223
370.5643, 1185.201
371.0464, 1184.012
371.5285, 1186.077
372.0107, 1191.393
372.4928, 1196.062
372.9749, 1196.510
373.4570, 1192.665
373.9391, 1189.684
374.4212, 1186.928
374.9034, 1185.584
375.3855, 1187.265
375.8676, 1190.399
376.3497, 1192.753
376.8318, 1193.364
377.3139, 1192.120
377.7961, 1188.305
378.2782, 1178.375
378.7603, 1172.864
379.2424, 1173.458
379.7245, 1176.460
380.2066, 1181.166
380.6888, 1186.476
381.1709, 1189.648
381.6530, 1187.176
382.1351, 1180.249
382.6172, 1179.770
383.0993, 1191.258
383.5815, 1199.980
384.0636, 1198.668
384.5457, 1192.924
385.0278, 1189.824
385.5099, 1192.144
385.9920, 1194.786
386.4742, 1189.931
386.9563, 1178.272
387.4384, 1173.136
387.9205, 1181.238
388.4026, 1191.561
388.8847, 1191.872
389.3669, 1183.443
389.8490, 1177.019
390.3311, 1177.354
390.8132, 1180.800
391.2953, 1182.391
391.7774, 1182.170
392.2596, 1185.112
392.7417, 1196.174
393.2238, 1211.797
393.7059, 1216.859
394.1880, 1204.905
394.6701, 1193.239
395.1523, 1184.994
395.6344, 1179.846
396.1165, 1178.624
396.5986, 1181.208
397.0807, 1184.476
397.5628, 1184.656
398.0450, 1181.318
398.5271, 1177.016
399.0092, 1167.564
399.4913, 1161.526
399.9734, 1164.528
400.4555, 1173.041
400.9377, 1180.731
401.4197, 1184.271
401.9019, 1184.577
402.3840, 1183.289
402.8661, 1179.016
403.3482, 1176.986
403.8303, 1179.625
404.3124, 1183.704
404.7946, 1187.841
405.2767, 1191.674
405.7588, 1194.496
406.2409, 1195.264
406.7230, 1194.592
407.2051, 1194.987
407.6873, 1197.167
408.1694, 1198.210
408.6515, 1195.778
409.1336, 1191.073
409.6157, 1186.103
410.0978, 1179.705
410.5800, 1175.406
411.0621, 1177.921
411.5442, 1184.096
412.0263, 1184.673
412.5084, 1176.047
412.9905, 1167.230
413.4727, 1170.931
413.9548, 1191.727
414.4369, 1204.161
414.9190, 1202.471
415.4011, 1197.493
415.8832, 1193.245
416.3654, 1190.902
416.8475, 1192.842
417.3296, 1200.976
417.8117, 1211.767
418.2938, 1213.605
418.7759, 1197.012
419.2581, 1187.733
419.7402, 1193.279
420.2223, 1201.444
420.7044, 1203.879
421.1865, 1199.803
421.6686, 1192.968
422.1508, 1184.758
422.6329, 1176.110
423.1150, 1174.281
423.5971, 1182.261
424.0792, 1190.917
424.5613, 1194.913
425.0435, 1197.634
425.5256, 1204.102
426.0077, 1217.052
426.4898, 1228.201
426.9719, 1229.670
427.4540, 1223.749
427.9362, 1218.495
428.4183, 1215.609
428.9004, 1213.513
429.3825, 1209.318
429.8646, 1203.158
430.3467, 1203.519
430.8289, 1216.476
431.3110, 1230.952
431.7931, 1241.226
432.2752, 1247.801
432.7573, 1252.212
433.2394, 1255.074
433.7216, 1257.000
434.2037, 1259.074
434.6858, 1259.244
435.1679, 1263.675
435.6500, 1278.770
436.1321, 1292.201
436.6143, 1296.107
437.0964, 1291.427
437.5785, 1283.250
438.0606, 1274.173
438.5427, 1265.337
439.0248, 1261.897
439.5070, 1266.449
439.9891, 1269.862
440.4712, 1266.726
440.9533, 1262.833
441.4354, 1263.727
441.9175, 1270.199
442.3997, 1276.700
442.8818, 1278.926
443.3639, 1278.459
443.8460, 1279.088
444.3281, 1281.190
444.8102, 1284.289
445.2924, 1288.642
445.7745, 1293.746
446.2566, 1297.236
446.7387, 1297.367
447.2208, 1297.981
447.7029, 1303.432
448.1851, 1309.309
448.6672, 1306.858
449.1493, 1294.258
449.6314, 1280.935
450.1135, 1279.147
450.5956, 1291.633
451.0778, 1298.014
451.5599, 1289.095
452.0420, 1284.289
452.5241, 1295.624
453.0062, 1313.478
453.4883, 1323.072
453.9705, 1318.013
454.4526, 1304.108
454.9347, 1286.273
455.4168, 1262.356
455.8989, 1255.471
456.3810, 1282.546
456.8632, 1311.791
457.3453, 1321.338
457.8274, 1314.839
458.3095, 1305.633
458.7916, 1293.423
459.2737, 1284.886
459.7559, 1291.435
460.2380, 1310.432
460.7201, 1324.061
461.2022, 1324.387
461.6843, 1317.712
462.1664, 1315.402
462.6486, 1320.003
463.1307, 1319.978
463.6128, 1309.558
464.0949, 1298.045
464.5770, 1290.755
465.0591, 1288.364
465.5413, 1291.835
466.0234, 1302.688
466.5055, 1316.783
466.9876, 1319.005
467.4697, 1298.743
467.9518, 1286.840
468.4340, 1292.178
468.9161, 1301.553
469.3982, 1306.070
469.8803, 1305.582
470.3624, 1305.482
470.8445, 1311.891
471.3267, 1320.908
471.8088, 1319.444
472.2909, 1304.836
472.7730, 1294.788
473.2551, 1299.117
473.7372, 1311.477
474.2194, 1321.844
474.7015, 1331.280
475.1836, 1334.270
475.6657, 1319.228
476.1478, 1301.620
476.6299, 1304.456
477.1121, 1327.770
477.5942, 1349.960
478.0763, 1355.009
478.5584, 1345.433
479.0405, 1337.436
479.5226, 1327.728
480.0048, 1323.963
480.4869, 1331.503
480.9690, 1342.259
481.4511, 1349.600
481.9332, 1352.414
482.4153, 1352.798
482.8975, 1352.508
483.3796, 1351.487
483.8617, 1348.856
484.3438, 1343.241
484.8259, 1339.192
485.3080, 1342.764
485.7902, 1347.030
486.2723, 1342.864
486.7544, 1327.410
487.2365, 1313.740
487.7186, 1309.989
488.2007, 1313.318
488.6829, 1320.123
489.1650, 1329.905
489.6471, 1338.220
490.1292, 1341.400
490.6113, 1340.260
491.0934, 1340.882
491.5756, 1342.994
492.0577, 1346.923
492.5398, 1356.606
493.0219, 1365.894
493.5040, 1366.377
493.9861, 1358.140
494.4683, 1350.770
494.9504, 1354.911
495.4325, 1369.153
495.9146, 1373.534
496.3967, 1362.066
496.8788, 1351.522
497.3610, 1344.340
497.8431, 1342.229
498.3252, 1349.347
498.8073, 1366.859
499.2894, 1383.668
499.7715, 1393.447
500.2536, 1396.813
500.7357, 1393.780
501.2179, 1384.092
501.7000, 1372.743
502.1821, 1360.385
502.6642, 1349.643
503.1463, 1352.584
503.6284, 1381.308
504.1106, 1404.416
504.5927, 1413.093
505.0748, 1415.424
505.5569, 1418.561
506.0390, 1423.703
506.5211, 1429.303
507.0033, 1434.506
507.4854, 1438.809
507.9675, 1438.014
508.4496, 1427.510
508.9317, 1420.704
509.4138, 1423.645
509.8960, 1429.551
510.3781, 1434.066
510.8602, 1436.373
511.3423, 1435.162
511.8244, 1427.075
512.3066, 1415.713
512.7887, 1406.926
513.2708, 1400.919
513.7529, 1400.736
514.2350, 1410.815
514.7172, 1425.277
515.1993, 1428.301
515.6814, 1416.422
516.1635, 1402.744
516.6456, 1384.248
517.1277, 1368.179
517.6099, 1363.075
518.0920, 1366.394
518.5741, 1367.836
519.0562, 1360.265
519.5383, 1347.045
520.0204, 1338.467
520.5026, 1336.060
520.9847, 1334.208
521.4668, 1334.297
521.9489, 1332.766
522.4310, 1325.723
522.9131, 1314.469
523.3953, 1305.301
523.8774, 1304.799
524.3595, 1305.495
524.8416, 1295.225
525.3237, 1276.159
525.8058, 1262.915
526.2880, 1261.187
526.7701, 1266.247
527.2522, 1272.905
527.7343, 1284.598
528.2164, 1282.944
528.6985, 1251.578
529.1807, 1223.542
529.6628, 1218.176
530.1449, 1227.400
530.6270, 1235.440
531.1091, 1235.686
531.5912, 1231.777
532.0734, 1229.720
532.5555, 1230.045
533.0376, 1226.827
533.5197, 1217.073
534.0018, 1207.537
534.4839, 1200.015
534.9661, 1195.671
535.4482, 1197.519
535.9303, 1208.615
536.4124, 1221.262
536.8945, 1232.449
537.3766, 1240.778
537.8588, 1242.863
538.3409, 1238.074
538.8230, 1228.770
539.3051, 1215.880
539.7872, 1199.870
540.2693, 1189.273
540.7515, 1186.631
541.2336, 1186.185
541.7157, 1189.351
542.1978, 1192.996
542.6799, 1193.551
543.1620, 1174.349
543.6442, 1195.772
544.1263, 1208.043
544.6084, 1211.655
545.0905, 1180.671
545.5726, 1194.360
546.0547, 1190.146
546.5369, 1185.198
547.0190, 1205.175
547.5011, 1179.223
547.9832, 1198.805
548.4653, 1200.210
548.9474, 1209.934
549.4296, 1201.645
549.9116, 1198.919
550.3937, 1214.213
550.8759, 1219.529
551.3580, 1209.166
551.8401, 1219.419
552.3222, 1192.838
552.8043, 1198.579
553.2864, 1218.266
553.7686, 1208.809
554.2507, 1202.370
554.7328, 1205.527
555.2149, 1209.307
555.6970, 1208.379
556.1791, 1199.821
556.6613, 1189.377
557.1434, 1180.634
557.6255, 1174.598
558.1076, 1175.952
558.5897, 1186.211
559.0718, 1198.610
559.5540, 1207.900
560.0361, 1214.423
560.5182, 1221.890
561.0003, 1239.165
561.4824, 1245.865
561.9645, 1229.053
562.4467, 1205.772
562.9288, 1192.011
563.4109, 1189.469
563.8930, 1190.679
564.3751, 1189.583
564.8572, 1187.713
565.3394, 1191.947
565.8215, 1204.695
566.3036, 1212.978
566.7857, 1211.363
567.2678, 1205.158
567.7499, 1198.979
568.2321, 1192.931
568.7142, 1189.708
569.1963, 1192.579
569.6784, 1196.316
570.1605, 1196.017
570.6426, 1193.404
571.1248, 1193.773
571.6069, 1199.013
572.0890, 1204.527
572.5711, 1203.346
573.0532, 1193.998
573.5353, 1187.851
574.0175, 1185.701
574.4996, 1185.984
574.9817, 1189.539
575.4638, 1194.562
575.9459, 1198.933
576.4280, 1202.149
576.9102, 1205.089
577.3923, 1208.624
577.8744, 1212.310
578.3565, 1215.408
578.8386, 1217.852
579.3207, 1218.592
579.8029, 1215.690
580.2850, 1212.618
580.7671, 1218.667
581.2492, 1245.002
581.7313, 1259.687
582.2134, 1254.097
582.6956, 1244.792
583.1777, 1240.930
583.6598, 1241.121
584.1419, 1239.731
584.6240, 1233.765
585.1061, 1227.764
585.5883, 1229.752
586.0704, 1239.186
586.5525, 1245.374
587.0346, 1245.862
587.5167, 1246.012
587.9988, 1251.554
588.4810, 1259.734
588.9631, 1260.366
589.4452, 1243.993
589.9273, 1234.415
590.4094, 1245.092
590.8915, 1262.124
591.3737, 1272.220
591.8558, 1273.887
592.3379, 1270.826
592.8200, 1265.093
593.3021, 1257.785
593.7842, 1251.630
594.2664, 1245.827
594.7485, 1244.539
595.2306, 1253.663
595.7127, 1262.026
596.1948, 1259.221
596.6769, 1248.612
597.1591, 1242.990
597.6412, 1248.862
598.1233, 1257.024
598.6054, 1261.784
599.0875, 1264.318
599.5696, 1265.797
600.0518, 1266.793
600.5339, 1270.421
601.0160, 1280.664
601.4981, 1296.143
601.9802, 1302.550
602.4623, 1294.605
602.9445, 1286.535
603.4266, 1279.007
603.9087, 1273.547
604.3908, 1271.437
604.8729, 1272.585
605.3550, 1276.030
605.8372, 1282.436
606.3193, 1289.938
606.8014, 1298.082
607.2835, 1305.697
607.7656, 1308.179
608.2477, 1304.024
608.7299, 1295.500
609.2120, 1283.836
609.6941, 1268.567
610.1762, 1261.130
610.6583, 1265.549
611.1404, 1273.032
611.6226, 1286.794
612.1047, 1299.984
612.5868, 1304.652
613.0689, 1300.920
613.5510, 1297.457
614.0331, 1301.656
614.5153, 1309.356
614.9974, 1313.245
615.4795, 1313.469
615.9616, 1311.038
616.4437, 1305.585
616.9258, 1299.706
617.4080, 1296.294
617.8901, 1295.229
618.3722, 1298.188
618.8543, 1311.836
619.3364, 1321.242
619.8185, 1316.689
620.3007, 1308.273
620.7828, 1309.307
621.2649, 1321.261
621.7470, 1332.071
622.2291, 1328.372
622.7112, 1316.776
623.1934, 1316.511
623.6755, 1328.024
624.1576, 1340.908
624.6397, 1353.813
625.1218, 1362.407
625.6039, 1359.454
626.0861, 1342.554
626.5682, 1329.765
627.0503, 1318.733
627.5324, 1314.830
628.0145, 1327.701
628.4966, 1345.483
628.9788, 1350.496
629.4609, 1340.199
