##NAMES=Nabokoite
##RRUFFID=R070062
##IDEAL CHEMISTRY=Cu^2+^_7_Te^4+^O_4_(S^6+^O_4_)_5_&#183;KCl
##LOCALITY=Tolbachik Volcano, Kamchatka, Russia
##OWNER=RRUFF
##SOURCE=Michael Scott
##DESCRIPTION=Brown thin tabular plates, co-type material
##STATUS=The identification of this mineral is confirmed by single-crystal X-ray diffraction and chemical analysis.
##URL=rruff.info/R070062
##MEASURED CHEMISTRY=K_1.00_(Cu^2+^_6.78_Zn_0.22_)_Σ=7_(Te^4+^_0.72_V^5+^_0.14_Bi^3+^_0.05_Fe^3+^_0.05_V^3+^_0.04_)_Σ=1_O_4_(S_1.00_O_4_)_5_Cl_1.00_; V^5+^ and V^3+^ splitted by charge balance
135.2363, 9685.392
135.7184, 9903.522
136.2005, 10120.90
136.6826, 10330.68
137.1647, 10514.45
137.6469, 10668.64
138.1290, 10802.96
138.6111, 10927.49
139.0932, 11047.32
139.5753, 11129.66
140.0574, 11165.41
140.5396, 11158.82
141.0217, 11131.18
141.5038, 11072.41
141.9859, 11007.12
142.4680, 10958.29
142.9501, 10932.89
143.4323, 10908.85
143.9144, 10880.21
144.3965, 10845.98
144.8786, 10820.78
145.3607, 10810.67
145.8428, 10806.31
146.3250, 10795.81
146.8071, 10780.08
147.2892, 10756.86
147.7713, 10723.46
148.2534, 10670.81
148.7355, 10628.78
149.2177, 10602.90
149.6998, 10587.46
150.1819, 10569.12
150.6640, 10539.49
151.1461, 10513.32
151.6282, 10496.62
152.1104, 10512.65
152.5925, 10509.44
153.0746, 10469.07
153.5567, 10401.64
154.0388, 10351.95
154.5209, 10334.45
155.0031, 10331.73
155.4852, 10333.02
155.9673, 10342.91
156.4494, 10350.38
156.9315, 10353.69
157.4136, 10352.77
157.8958, 10347.06
158.3779, 10317.36
158.8600, 10290.08
159.3421, 10290.74
159.8242, 10348.81
160.3063, 10417.64
160.7885, 10482.30
161.2706, 10542.37
161.7527, 10593.06
162.2348, 10626.30
162.7169, 10649.92
163.1990, 10675.49
163.6811, 10715.88
164.1633, 10754.38
164.6454, 10776.92
165.1275, 10775.37
165.6096, 10777.52
166.0917, 10800.73
166.5738, 10839.52
167.0560, 10881.02
167.5381, 10922.11
168.0202, 10961.50
168.5023, 10996.93
168.9844, 11025.88
169.4665, 11054.82
169.9487, 11085.64
170.4308, 11119.39
170.9129, 11160.22
171.3950, 11223.95
171.8771, 11293.10
172.3592, 11343.16
172.8414, 11348.44
173.3235, 11346.71
173.8056, 11382.36
174.2877, 11453.12
174.7698, 11521.18
175.2519, 11552.91
175.7341, 11561.18
176.2162, 11571.75
176.6983, 11583.84
177.1804, 11607.70
177.6625, 11663.47
178.1446, 11752.36
178.6267, 11851.01
179.1089, 11938.59
179.5910, 12016.82
180.0731, 12094.67
180.5552, 12172.56
181.0373, 12252.55
181.5194, 12337.43
182.0016, 12428.70
182.4837, 12521.30
182.9658, 12610.06
183.4479, 12695.20
183.9300, 12772.62
184.4121, 12838.38
184.8943, 12894.79
185.3764, 12948.92
185.8585, 12998.92
186.3406, 13051.98
186.8227, 13120.96
187.3048, 13205.06
187.7870, 13293.57
188.2691, 13384.46
188.7512, 13476.36
189.2333, 13551.01
189.7154, 13602.76
190.1975, 13640.33
190.6796, 13684.62
191.1618, 13736.50
191.6439, 13780.93
192.1260, 13799.63
192.6081, 13794.25
193.0902, 13796.00
193.5723, 13814.90
194.0545, 13844.12
194.5366, 13858.32
195.0187, 13855.48
195.5008, 13847.84
195.9829, 13849.50
196.4650, 13861.19
196.9472, 13864.88
197.4293, 13853.82
197.9114, 13830.05
198.3935, 13807.05
198.8756, 13783.23
199.3577, 13764.58
199.8399, 13763.48
200.3220, 13783.64
200.8041, 13792.93
201.2862, 13774.30
201.7683, 13728.82
202.2504, 13705.35
202.7325, 13709.48
203.2147, 13726.59
203.6968, 13737.44
204.1789, 13742.18
204.6610, 13739.72
205.1431, 13721.28
205.6252, 13681.51
206.1074, 13680.84
206.5895, 13733.42
207.0716, 13808.89
207.5537, 13845.52
208.0358, 13828.56
208.5179, 13817.63
209.0001, 13843.67
209.4822, 13916.65
209.9643, 13975.37
210.4464, 13937.50
210.9285, 14059.96
211.4106, 14145.74
211.8928, 14196.81
212.3749, 14109.17
212.8570, 14200.63
213.3391, 14220.32
213.8212, 14237.06
214.3033, 14280.37
214.7855, 14418.80
215.2676, 14510.60
215.7497, 14557.77
216.2318, 14456.33
216.7139, 14524.05
217.1960, 14510.09
217.6781, 14483.26
218.1603, 14546.43
218.6424, 14415.55
219.1245, 14457.29
219.6066, 14416.24
220.0887, 14398.62
220.5708, 14314.38
221.0530, 14197.95
221.5351, 14105.02
222.0172, 14058.67
222.4993, 14051.42
222.9814, 14019.83
223.4635, 13956.51
223.9457, 13878.05
224.4278, 13793.14
224.9099, 13692.06
225.3920, 13607.79
225.8741, 13554.42
226.3562, 13530.26
226.8384, 13487.39
227.3205, 13431.14
227.8026, 13350.60
228.2847, 13231.27
228.7668, 13043.62
229.2489, 12871.61
229.7310, 12736.65
230.2132, 12638.64
230.6953, 12532.55
231.1774, 12407.47
231.6595, 12284.72
232.1416, 12192.40
232.6237, 12156.38
233.1059, 12103.10
233.5880, 12008.73
234.0701, 11868.07
234.5522, 11749.06
235.0343, 11663.97
235.5164, 11590.21
235.9986, 11499.07
236.4807, 11370.35
236.9628, 11259.94
237.4449, 11187.59
237.9270, 11162.78
238.4091, 11117.73
238.8913, 11038.77
239.3734, 10949.74
239.8555, 10884.53
240.3376, 10859.29
240.8197, 10830.53
241.3018, 10784.71
241.7840, 10716.56
242.2661, 10654.18
242.7482, 10594.40
243.2303, 10542.03
243.7124, 10452.21
244.1945, 10494.49
244.6767, 10507.09
245.1588, 10491.60
245.6409, 10363.91
246.1230, 10381.11
246.6051, 10340.24
247.0872, 10296.99
247.5694, 10334.58
248.0515, 10223.21
248.5336, 10259.52
249.0157, 10236.88
249.4978, 10241.22
249.9799, 10187.13
250.4621, 10153.96
250.9442, 10128.89
251.4263, 10115.17
251.9084, 10123.02
252.3905, 10124.15
252.8726, 10104.95
253.3548, 10054.07
253.8369, 10021.18
254.3190, 10013.80
254.8011, 10019.98
255.2832, 10016.34
255.7653, 9999.501
256.2474, 9979.343
256.7296, 9958.280
257.2117, 9934.325
257.6938, 9917.377
258.1759, 9910.371
258.6580, 9908.763
259.1401, 9903.531
259.6223, 9894.357
260.1044, 9882.334
260.5865, 9866.207
261.0686, 9842.628
261.5507, 9828.568
262.0328, 9829.921
262.5150, 9836.983
262.9971, 9830.022
263.4792, 9807.067
263.9613, 9774.511
264.4434, 9729.860
264.9255, 9665.248
265.4077, 9622.485
265.8898, 9608.218
266.3719, 9611.257
266.8540, 9609.856
267.3361, 9605.101
267.8182, 9593.000
268.3004, 9568.625
268.7825, 9527.078
269.2646, 9496.562
269.7467, 9479.547
270.2288, 9471.569
270.7109, 9464.642
271.1931, 9459.210
271.6752, 9453.177
272.1573, 9444.994
272.6394, 9434.170
273.1215, 9427.140
273.6036, 9429.015
274.0857, 9428.886
274.5678, 9398.365
275.0500, 9329.133
275.5321, 9268.412
276.0142, 9242.780
276.4963, 9255.721
276.9784, 9259.015
277.4605, 9248.668
277.9427, 9232.692
278.4248, 9227.792
278.9069, 9235.948
279.3890, 9241.030
279.8711, 9234.634
280.3532, 9216.710
280.8354, 9196.580
281.3175, 9173.592
281.7996, 9150.115
282.2817, 9129.104
282.7638, 9110.591
283.2459, 9096.838
283.7281, 9089.738
284.2102, 9088.968
284.6923, 9086.985
285.1744, 9020.886
285.6565, 9085.735
286.1386, 9120.903
286.6208, 9127.983
287.1029, 9022.854
287.5850, 9062.621
288.0671, 9044.319
288.5492, 9023.637
289.0313, 9083.797
289.5135, 8994.987
289.9956, 9053.864
290.4777, 9053.788
290.9598, 9080.693
291.4419, 9049.172
291.9240, 9048.592
292.4062, 9044.176
292.8883, 9025.364
293.3704, 9003.333
293.8525, 8992.078
294.3346, 8990.046
294.8167, 8988.890
295.2989, 8985.709
295.7810, 8980.649
296.2631, 8971.678
296.7452, 8957.718
297.2273, 8947.600
297.7094, 8956.702
298.1916, 8978.872
298.6737, 8993.371
299.1558, 8982.393
299.6379, 8961.546
300.1200, 8956.723
300.6021, 8969.124
301.0842, 8985.992
301.5663, 9000.257
302.0485, 9010.324
302.5306, 9012.837
303.0127, 9004.187
303.4948, 8988.386
303.9769, 8965.180
304.4590, 8934.393
304.9412, 8912.104
305.4233, 8916.758
305.9054, 8937.438
306.3875, 8956.487
306.8696, 8968.340
307.3517, 8974.935
307.8339, 8978.967
308.3160, 8980.220
308.7981, 8974.421
309.2802, 8946.769
309.7623, 8913.979
310.2444, 8896.870
310.7266, 8915.563
311.2087, 8941.490
311.6908, 8957.500
312.1729, 8964.597
312.6550, 8970.991
313.1371, 8984.793
313.6193, 8998.302
314.1014, 9004.277
314.5835, 8996.543
315.0656, 8985.111
315.5477, 8973.380
316.0298, 8961.302
316.5120, 8948.386
316.9941, 8926.668
317.4762, 8908.504
317.9583, 8902.740
318.4404, 8914.873
318.9225, 8935.130
319.4047, 8972.464
319.8868, 9018.915
320.3689, 9045.613
320.8510, 9024.260
321.3331, 8995.391
321.8152, 8981.533
322.2974, 8997.745
322.7795, 9011.169
323.2616, 9013.518
323.7437, 9009.085
324.2258, 9009.359
324.7079, 9021.837
325.1901, 9034.417
325.6721, 9041.751
326.1543, 9037.183
326.6364, 9038.710
327.1185, 9050.141
327.6006, 9067.733
328.0827, 9084.556
328.5648, 9107.852
329.0470, 9122.849
329.5291, 9121.974
330.0112, 9093.975
330.4933, 9083.343
330.9754, 9102.258
331.4576, 9132.534
331.9397, 9147.415
332.4218, 9138.992
332.9039, 9127.456
333.3860, 9116.794
333.8681, 9106.063
334.3503, 9102.718
334.8324, 9109.366
335.3145, 9120.671
335.7966, 9132.810
336.2787, 9150.388
336.7608, 9154.119
337.2430, 9131.206
337.7251, 9084.073
338.2072, 9068.700
338.6893, 9094.368
339.1714, 9132.266
339.6535, 9152.380
340.1357, 9151.705
340.6178, 9159.446
341.0999, 9186.951
341.5820, 9226.542
342.0641, 9243.928
342.5462, 9235.743
343.0284, 9222.817
343.5105, 9222.537
343.9926, 9234.061
344.4747, 9246.270
344.9568, 9259.409
345.4389, 9269.888
345.9211, 9268.485
346.4032, 9255.311
346.8853, 9238.711
347.3674, 9219.416
347.8495, 9200.729
348.3316, 9194.544
348.8138, 9204.393
349.2959, 9222.543
349.7780, 9241.265
350.2601, 9259.904
350.7422, 9275.374
351.2243, 9281.857
351.7064, 9285.165
352.1885, 9296.224
352.6707, 9317.903
353.1528, 9338.917
353.6349, 9343.281
354.1170, 9338.589
354.5991, 9341.944
355.0812, 9379.029
355.5634, 9417.563
356.0455, 9420.858
356.5276, 9384.375
357.0097, 9351.537
357.4918, 9350.915
357.9739, 9370.749
358.4561, 9395.471
358.9382, 9433.922
359.4203, 9463.025
359.9024, 9462.118
360.3845, 9433.017
360.8666, 9414.352
361.3488, 9424.961
361.8309, 9451.186
362.3130, 9481.674
362.7951, 9529.608
363.2772, 9564.765
363.7593, 9573.363
364.2415, 9560.181
364.7236, 9550.340
365.2057, 9553.062
365.6878, 9557.461
366.1699, 9557.449
366.6520, 9542.473
367.1342, 9536.604
367.6163, 9543.893
368.0984, 9561.412
368.5805, 9581.712
369.0626, 9621.714
369.5447, 9647.258
370.0269, 9641.886
370.5090, 9583.190
370.9911, 9553.152
371.4732, 9566.961
371.9553, 9600.219
372.4374, 9612.885
372.9196, 9589.621
373.4017, 9576.838
373.8838, 9593.946
374.3659, 9644.594
374.8480, 9668.389
375.3301, 9656.779
375.8123, 9633.394
376.2944, 9624.415
376.7765, 9632.678
377.2586, 9636.678
377.7407, 9625.916
378.2228, 9607.699
378.7049, 9621.706
379.1870, 9672.881
379.6692, 9723.319
380.1513, 9734.104
380.6334, 9710.690
381.1155, 9699.707
381.5976, 9711.903
382.0797, 9736.057
382.5619, 9751.108
383.0440, 9757.950
383.5261, 9767.324
384.0082, 9793.491
384.4903, 9826.048
384.9724, 9839.926
385.4546, 9828.009
385.9367, 9813.886
386.4188, 9825.816
386.9009, 9855.943
387.3830, 9884.679
387.8651, 9909.119
388.3473, 9923.305
388.8294, 9915.017
389.3115, 9882.270
389.7936, 9854.113
390.2757, 9846.204
390.7578, 9855.161
391.2400, 9876.690
391.7221, 9924.710
392.2042, 9971.177
392.6863, 10001.40
393.1684, 10016.55
393.6505, 10029.44
394.1327, 10046.65
394.6148, 10062.05
395.0969, 10071.12
395.5790, 10071.75
396.0611, 10067.77
396.5432, 10054.37
397.0254, 10035.95
397.5075, 10026.46
397.9896, 10032.85
398.4717, 10043.77
398.9538, 10057.14
399.4359, 10081.81
399.9181, 10087.02
400.4002, 10057.06
400.8823, 10015.10
401.3644, 9996.339
401.8465, 10009.29
402.3286, 10030.43
402.8108, 10053.95
403.2928, 10079.50
403.7750, 10115.30
404.2571, 10169.61
404.7392, 10219.66
405.2213, 10241.62
405.7034, 10232.34
406.1855, 10213.29
406.6677, 10182.53
407.1498, 10147.81
407.6319, 10134.55
408.1140, 10143.80
408.5961, 10164.50
409.0782, 10196.04
409.5604, 10235.06
410.0425, 10261.01
410.5246, 10269.96
411.0067, 10270.33
411.4888, 10270.04
411.9709, 10270.38
412.4531, 10277.10
412.9352, 10291.83
413.4173, 10315.29
413.8994, 10357.38
414.3815, 10420.54
414.8636, 10470.14
415.3458, 10464.98
415.8279, 10430.90
416.3100, 10407.38
416.7921, 10415.24
417.2742, 10434.04
417.7563, 10456.47
418.2385, 10481.09
418.7206, 10497.29
419.2027, 10493.92
419.6848, 10484.08
420.1669, 10476.11
420.6490, 10464.39
421.1312, 10466.37
421.6133, 10495.26
422.0954, 10541.21
422.5775, 10581.03
423.0596, 10609.15
423.5417, 10631.75
424.0239, 10649.60
424.5060, 10661.30
424.9881, 10673.25
425.4702, 10677.72
425.9523, 10687.20
426.4344, 10718.31
426.9166, 10788.47
427.3987, 10845.27
427.8808, 10874.99
428.3629, 10880.70
428.8450, 10894.71
429.3271, 10915.80
429.8092, 10947.85
430.2914, 10994.98
430.7735, 11058.33
431.2556, 11128.49
431.7377, 11207.74
432.2198, 11289.15
432.7019, 11353.07
433.1841, 11399.79
433.6662, 11450.95
434.1483, 11522.28
434.6304, 11607.41
435.1125, 11684.17
435.5946, 11751.58
436.0768, 11817.08
436.5589, 11887.75
437.0410, 11962.26
437.5231, 12037.67
438.0052, 12115.89
438.4873, 12192.33
438.9695, 12266.26
439.4516, 12336.11
439.9337, 12390.02
440.4158, 12417.50
440.8979, 12427.69
441.3800, 12425.24
441.8622, 12398.64
442.3443, 12385.09
442.8264, 12407.84
443.3085, 12453.94
443.7906, 12497.92
444.2727, 12532.78
444.7549, 12565.07
445.2370, 12597.15
445.7191, 12629.64
446.2012, 12660.16
446.6833, 12689.60
447.1654, 12716.39
447.6476, 12738.76
448.1297, 12752.91
448.6118, 12769.38
449.0939, 12794.49
449.5760, 12824.02
450.0581, 12836.29
450.5403, 12833.80
451.0224, 12808.74
451.5045, 12747.76
451.9866, 12644.20
452.4687, 12565.43
452.9508, 12520.15
453.4330, 12488.96
453.9151, 12442.83
454.3972, 12381.51
454.8793, 12319.85
455.3614, 12259.98
455.8435, 12203.57
456.3256, 12156.94
456.8077, 12119.70
457.2899, 12087.91
457.7720, 12054.95
458.2541, 12025.14
458.7362, 11938.85
459.2183, 11970.13
459.7004, 11982.86
460.1826, 11978.03
460.6647, 11903.08
461.1468, 11918.68
461.6289, 11897.99
462.1110, 11875.82
462.5931, 11904.17
463.0753, 11839.41
463.5574, 11866.96
464.0395, 11857.66
464.5216, 11865.22
465.0037, 11836.27
465.4858, 11860.01
465.9680, 11863.73
466.4501, 11872.01
466.9322, 11883.50
467.4143, 11888.53
467.8964, 11890.51
468.3785, 11882.19
468.8607, 11855.01
469.3428, 11788.46
469.8249, 11761.17
470.3070, 11789.52
470.7891, 11841.44
471.2712, 11862.37
471.7534, 11845.44
472.2355, 11836.43
472.7176, 11856.48
473.1997, 11897.01
473.6818, 11907.26
474.1639, 11883.66
474.6461, 11864.11
475.1282, 11892.65
475.6103, 11953.77
476.0924, 11993.40
476.5745, 11996.57
477.0566, 11986.20
477.5388, 11989.84
478.0209, 12003.38
478.5030, 12014.01
478.9851, 12013.69
479.4672, 12008.52
479.9493, 12001.39
480.4315, 11992.26
480.9136, 11988.93
481.3957, 11995.13
481.8778, 12009.35
482.3599, 12029.77
482.8420, 12071.78
483.3241, 12102.77
483.8062, 12110.01
484.2884, 12099.02
484.7705, 12091.08
485.2526, 12083.99
485.7347, 12084.25
486.2168, 12096.13
486.6989, 12124.01
487.1811, 12147.49
487.6632, 12172.03
488.1453, 12186.61
488.6274, 12154.35
489.1095, 12195.96
489.5916, 12219.03
490.0738, 12224.54
490.5559, 12159.91
491.0380, 12185.85
491.5201, 12175.50
492.0022, 12163.65
492.4843, 12202.34
492.9665, 12147.92
493.4486, 12185.80
493.9307, 12186.83
494.4128, 12204.73
494.8949, 12163.14
495.3770, 12183.83
495.8592, 12208.69
496.3413, 12242.06
496.8234, 12271.62
497.3055, 12279.70
497.7876, 12270.48
498.2697, 12270.73
498.7519, 12308.39
499.2340, 12351.27
499.7161, 12374.50
500.1982, 12364.46
500.6803, 12356.50
501.1624, 12356.37
501.6446, 12363.80
502.1267, 12378.73
502.6088, 12421.15
503.0909, 12447.18
503.5730, 12440.41
504.0551, 12402.18
504.5373, 12386.97
505.0194, 12402.54
505.5015, 12428.51
505.9836, 12455.48
506.4657, 12485.67
506.9478, 12498.90
507.4299, 12491.50
507.9120, 12471.03
508.3942, 12443.38
508.8763, 12409.61
509.3584, 12390.57
509.8405, 12403.93
510.3226, 12434.36
510.8047, 12450.54
511.2869, 12452.83
511.7690, 12447.92
512.2511, 12444.14
512.7332, 12435.14
513.2153, 12408.33
513.6974, 12350.74
514.1796, 12301.00
514.6617, 12297.95
515.1438, 12317.25
515.6259, 12315.46
516.1080, 12251.50
516.5901, 12188.00
517.0723, 12148.84
517.5544, 12135.46
518.0365, 12126.53
518.5186, 12123.08
519.0007, 12120.80
519.4828, 12117.90
519.9650, 12117.74
520.4471, 12109.95
520.9292, 12092.20
521.4113, 12068.26
521.8934, 12044.94
522.3755, 12022.92
522.8577, 11998.71
523.3398, 11967.38
523.8219, 11932.67
524.3040, 11916.69
524.7861, 11920.69
525.2682, 11926.10
525.7504, 11918.17
526.2325, 11899.98
526.7146, 11877.48
527.1967, 11849.55
527.6788, 11824.00
528.1609, 11807.17
528.6431, 11798.26
529.1252, 11795.69
529.6073, 11809.53
530.0894, 11820.38
530.5715, 11816.13
531.0536, 11797.30
531.5358, 11774.00
532.0179, 11738.29
532.5000, 11706.97
532.9821, 11690.59
533.4642, 11701.38
533.9464, 11707.91
534.4285, 11707.08
534.9106, 11702.68
535.3927, 11699.93
535.8748, 11699.52
536.3569, 11699.23
536.8391, 11698.18
537.3212, 11696.80
537.8033, 11698.71
538.2854, 11704.61
538.7675, 11709.53
539.2496, 11707.52
539.7318, 11700.76
540.2139, 11700.56
540.6960, 11708.16
541.1781, 11720.81
541.6602, 11741.55
542.1423, 11764.87
542.6245, 11777.24
543.1066, 11763.09
543.5887, 11746.69
544.0708, 11750.19
544.5529, 11769.00
545.0350, 11785.02
545.5172, 11787.49
545.9993, 11786.62
546.4813, 11785.10
546.9634, 11779.19
547.4456, 11788.90
547.9277, 11843.25
548.4098, 11900.70
548.8919, 11920.25
549.3740, 11868.83
549.8561, 11837.47
550.3383, 11837.19
550.8204, 11862.55
551.3025, 11904.64
551.7846, 11971.73
552.2667, 12019.83
552.7488, 12014.09
553.2310, 11965.41
553.7131, 11961.11
554.1952, 12003.99
554.6773, 12057.42
555.1594, 12092.40
555.6415, 12111.74
556.1237, 12118.30
556.6058, 12104.98
557.0879, 12097.20
557.5700, 12129.31
558.0521, 12183.25
558.5342, 12221.28
559.0164, 12218.65
559.4985, 12203.65
559.9806, 12177.20
560.4627, 12141.07
560.9448, 12139.90
561.4269, 12217.87
561.9091, 12307.31
562.3912, 12371.23
562.8733, 12400.80
563.3554, 12421.80
563.8375, 12429.95
564.3196, 12433.59
564.8018, 12433.95
565.2839, 12401.29
565.7660, 12466.26
566.2481, 12512.67
566.7302, 12541.53
567.2123, 12500.26
567.6945, 12549.55
568.1766, 12562.55
568.6587, 12574.06
569.1408, 12636.09
569.6229, 12605.02
570.1050, 12666.25
570.5872, 12690.65
571.0693, 12731.90
571.5514, 12736.63
572.0335, 12752.65
572.5156, 12786.36
572.9977, 12826.28
573.4799, 12833.35
573.9620, 12822.83
574.4441, 12831.58
574.9262, 12900.94
575.4083, 12953.28
575.8904, 12960.18
576.3726, 12920.04
576.8547, 12903.35
577.3368, 12916.24
577.8189, 12941.85
578.3010, 12973.14
578.7831, 13011.29
579.2653, 13033.07
579.7474, 13032.36
580.2295, 13026.99
580.7116, 13046.00
581.1937, 13083.92
581.6758, 13115.11
582.1580, 13128.68
582.6401, 13133.01
583.1222, 13134.31
583.6043, 13134.13
584.0864, 13138.64
584.5685, 13157.45
585.0507, 13177.61
585.5328, 13188.26
586.0149, 13186.50
586.4970, 13189.78
586.9791, 13221.09
587.4612, 13248.69
587.9434, 13244.18
588.4255, 13164.98
588.9076, 13122.67
589.3897, 13135.86
589.8718, 13179.33
590.3539, 13201.46
590.8361, 13196.19
591.3182, 13195.66
591.8003, 13210.90
592.2824, 13238.99
592.7645, 13270.63
593.2466, 13305.94
593.7288, 13337.00
594.2109, 13347.50
594.6930, 13352.65
595.1751, 13386.95
595.6572, 13458.37
596.1393, 13522.79
596.6215, 13537.40
597.1036, 13528.68
597.5857, 13528.40
598.0678, 13541.81
598.5499, 13569.81
599.0320, 13622.25
599.5141, 13689.81
599.9962, 13748.23
600.4783, 13787.42
600.9604, 13826.97
601.4426, 13872.74
601.9247, 13924.77
602.4068, 13975.31
602.8889, 14027.51
603.3710, 14070.70
603.8531, 14090.15
604.3353, 14088.39
604.8174, 14105.56
605.2995, 14148.48
605.7816, 14191.79
606.2637, 14201.64
606.7458, 14189.17
607.2280, 14182.04
607.7101, 14192.54
608.1922, 14206.84
608.6743, 14218.03
609.1564, 14224.63
609.6385, 14222.99
610.1207, 14205.04
610.6028, 14184.66
611.0849, 14168.01
611.5670, 14155.85
612.0491, 14140.93
612.5313, 14116.75
613.0134, 14095.96
613.4955, 14086.82
613.9776, 14094.02
614.4597, 14096.69
614.9418, 14094.33
615.4240, 14087.90
615.9061, 14071.62
616.3882, 14047.93
616.8703, 14046.37
617.3524, 14083.71
617.8345, 14133.01
618.3167, 14152.48
618.7988, 14148.71
619.2809, 14143.94
619.7630, 14152.30
620.2451, 14162.62
620.7272, 14164.61
621.2094, 14158.58
621.6915, 14156.90
622.1736, 14171.55
622.6557, 14186.23
623.1378, 14189.28
623.6199, 14168.35
624.1021, 14164.20
624.5842, 14189.77
625.0663, 14219.69
625.5484, 14218.71
626.0305, 14175.32
626.5126, 14166.76
626.9948, 14220.87
627.4769, 14296.05
