##NAMES=Nacrite
##RRUFFID=R100066
##IDEAL CHEMISTRY=Al_2_Si_2_O_5_(OH)_4_
##LOCALITY=Geisberg, Schweighausen, Black Forest, Germany
##OWNER=RRUFF
##SOURCE=Bob Jenkins
##DESCRIPTION=Stacks of parallel pseudohexagonal white plates
##STATUS=The identification of this mineral has been confirmed only by single crystal X-ray diffraction.
##URL=rruff.info/R100066
90.49219, 44.40525
90.97430, 44.66036
91.45642, 44.75257
91.93854, 44.33419
92.42065, 43.85619
92.90277, 44.14613
93.38489, 45.40419
93.86700, 46.76268
94.34912, 46.97699
94.83124, 46.23198
95.31335, 45.58230
95.79547, 45.88558
96.27759, 46.88007
96.75970, 47.45063
97.24182, 47.32402
97.72394, 46.84704
98.20605, 46.82107
98.68817, 47.29842
99.17029, 47.80449
99.65240, 47.91205
100.1345, 47.58706
100.6166, 47.36982
101.0988, 47.36457
101.5809, 47.55828
102.0630, 47.87646
102.5451, 48.40393
103.0272, 48.91019
103.5093, 49.07312
103.9915, 48.67801
104.4736, 48.50292
104.9557, 48.86778
105.4378, 49.94935
105.9199, 50.54799
106.4020, 50.40345
106.8842, 49.90680
107.3663, 49.74713
107.8484, 50.19432
108.3305, 50.66819
108.8126, 50.96547
109.2947, 50.94405
109.7769, 50.98085
110.2590, 50.94061
110.7411, 50.93594
111.2232, 51.31718
111.7053, 52.70399
112.1874, 54.04726
112.6696, 54.86477
113.1517, 54.58950
113.6338, 54.34827
114.1159, 54.26998
114.5980, 54.34676
115.0801, 54.51636
115.5623, 54.98762
116.0444, 55.43878
116.5265, 55.62047
117.0086, 54.83374
117.4907, 54.32406
117.9728, 54.77104
118.4550, 56.22142
118.9371, 57.51685
119.4192, 58.03661
119.9013, 58.13025
120.3834, 58.23443
120.8655, 58.38448
121.3477, 58.70147
121.8298, 59.26469
122.3119, 60.08534
122.7940, 61.13365
123.2761, 62.41985
123.7582, 63.92073
124.2404, 65.58458
124.7225, 67.13612
125.2046, 68.93053
125.6867, 71.34021
126.1688, 74.39357
126.6509, 78.16463
127.1331, 82.79967
127.6152, 88.25652
128.0973, 94.32545
128.5794, 100.7919
129.0615, 107.7619
129.5436, 115.4810
130.0258, 124.0304
130.5079, 133.3297
130.9900, 143.1496
131.4721, 153.4063
131.9542, 165.0815
132.4363, 178.9272
132.9185, 194.8972
133.4006, 212.6263
133.8827, 231.9380
134.3648, 252.8159
134.8469, 276.3209
135.3290, 302.3244
135.8112, 331.6593
136.2933, 364.9901
136.7754, 402.5057
137.2575, 443.2016
137.7396, 487.8678
138.2217, 535.6423
138.7039, 583.5258
139.1860, 631.9260
139.6681, 679.9085
140.1502, 727.5467
140.6323, 775.0242
141.1144, 820.0018
141.5966, 861.6293
142.0787, 899.4689
142.5608, 934.5278
143.0429, 965.5350
143.5250, 994.4047
144.0071, 1024.950
144.4893, 1056.040
144.9714, 1090.227
145.4535, 1128.052
145.9356, 1169.491
146.4177, 1215.591
146.8998, 1267.969
147.3820, 1325.305
147.8641, 1384.543
148.3462, 1445.170
148.8283, 1507.427
149.3104, 1572.260
149.7925, 1642.147
150.2747, 1710.942
150.7568, 1777.217
151.2389, 1841.109
151.7210, 1904.129
152.2031, 1968.226
152.6852, 2029.651
153.1674, 2086.776
153.6495, 2137.671
154.1316, 2185.630
154.6137, 2230.462
155.0958, 2272.142
155.5779, 2313.016
156.0601, 2354.439
156.5422, 2394.788
157.0243, 2432.178
157.5064, 2462.398
157.9885, 2493.260
158.4706, 2526.906
158.9528, 2563.613
159.4349, 2601.763
159.9170, 2641.156
160.3991, 2681.712
160.8812, 2723.340
161.3633, 2764.265
161.8455, 2807.656
162.3276, 2855.695
162.8097, 2908.646
163.2918, 2962.711
163.7739, 3015.544
164.2560, 3064.896
164.7382, 3093.189
165.2203, 3118.774
165.7024, 3144.961
166.1845, 3169.796
166.6666, 3193.279
167.1487, 3215.147
167.6309, 3234.473
168.1130, 3252.370
168.5951, 3270.826
169.0772, 3293.210
169.5593, 3315.473
170.0414, 3333.962
170.5236, 3347.357
171.0057, 3358.769
171.4878, 3370.868
171.9699, 3383.098
172.4520, 3393.513
172.9341, 3399.987
173.4163, 3404.542
173.8984, 3409.464
174.3805, 3415.188
174.8626, 3421.433
175.3447, 3427.484
175.8268, 3433.629
176.3090, 3441.447
176.7911, 3453.855
177.2732, 3468.203
177.7553, 3479.875
178.2374, 3486.284
178.7195, 3491.127
179.2017, 3499.636
179.6838, 3511.496
180.1659, 3523.131
180.6480, 3531.597
181.1301, 3537.804
181.6122, 3544.034
182.0944, 3550.790
182.5765, 3558.000
183.0586, 3565.899
183.5407, 3574.349
184.0228, 3582.972
184.5049, 3591.373
184.9871, 3599.618
185.4692, 3607.650
185.9513, 3615.970
186.4334, 3623.927
186.9155, 3629.860
187.3976, 3633.619
187.8798, 3636.823
188.3619, 3641.122
188.8440, 3646.400
189.3261, 3651.651
189.8082, 3657.264
190.2903, 3662.618
190.7725, 3664.695
191.2546, 3662.926
191.7367, 3661.018
192.2188, 3663.780
192.7009, 3670.981
193.1830, 3678.121
193.6652, 3683.593
194.1473, 3687.614
194.6294, 3690.848
195.1115, 3692.944
195.5936, 3695.389
196.0757, 3700.836
196.5579, 3709.416
197.0400, 3717.208
197.5221, 3723.032
198.0042, 3726.880
198.4863, 3727.681
198.9684, 3724.294
199.4506, 3720.444
199.9327, 3722.054
200.4148, 3729.575
200.8969, 3738.251
201.3790, 3747.153
201.8611, 3756.334
202.3433, 3761.922
202.8254, 3762.901
203.3075, 3761.801
203.7896, 3763.224
204.2717, 3767.741
204.7538, 3771.564
205.2360, 3772.436
205.7181, 3769.791
206.2002, 3769.178
206.6823, 3771.030
207.1644, 3774.343
207.6465, 3777.575
208.1287, 3780.945
208.6108, 3783.486
209.0929, 3784.621
209.5750, 3784.136
210.0571, 3783.662
210.5392, 3783.015
211.0214, 3782.712
211.5035, 3784.125
211.9856, 3788.050
212.4677, 3791.681
212.9498, 3793.468
213.4319, 3792.688
213.9141, 3793.251
214.3962, 3795.602
214.8783, 3799.025
215.3604, 3801.688
215.8425, 3803.004
216.3246, 3804.754
216.8067, 3808.127
217.2889, 3814.037
217.7710, 3817.948
218.2531, 3819.197
218.7352, 3818.594
219.2173, 3817.985
219.6994, 3816.938
220.1816, 3816.589
220.6637, 3817.507
221.1458, 3820.034
221.6279, 3822.940
222.1100, 3826.452
222.5921, 3830.327
223.0743, 3834.115
223.5564, 3838.238
224.0385, 3841.705
224.5206, 3843.949
225.0027, 3844.665
225.4848, 3845.190
225.9670, 3844.986
226.4491, 3844.846
226.9312, 3847.023
227.4133, 3852.579
227.8954, 3858.705
228.3775, 3864.041
228.8597, 3868.563
229.3418, 3872.231
229.8239, 3874.342
230.3060, 3875.619
230.7881, 3878.240
231.2702, 3882.985
231.7524, 3887.677
232.2345, 3891.062
232.7166, 3891.977
233.1987, 3894.387
233.6808, 3899.400
234.1629, 3905.619
234.6451, 3909.281
235.1272, 3909.281
235.6093, 3908.518
236.0914, 3908.473
236.5735, 3910.390
237.0556, 3910.374
237.5378, 3907.312
238.0199, 3902.815
238.5020, 3900.927
238.9841, 3902.733
239.4662, 3905.662
239.9483, 3908.886
240.4305, 3913.154
240.9126, 3915.794
241.3947, 3916.227
241.8768, 3915.133
242.3589, 3914.033
242.8410, 3912.123
243.3232, 3911.246
243.8053, 3912.281
244.2874, 3915.964
244.7695, 3919.753
245.2516, 3924.202
245.7337, 3928.555
246.2159, 3931.006
246.6980, 3930.643
247.1801, 3929.876
247.6622, 3929.645
248.1443, 3930.196
248.6264, 3930.719
249.1086, 3931.176
249.5907, 3931.687
250.0728, 3932.395
250.5549, 3933.016
251.0370, 3934.302
251.5191, 3936.741
252.0013, 3940.890
252.4834, 3943.977
252.9655, 3945.255
253.4476, 3945.787
253.9297, 3947.793
254.4118, 3952.402
254.8940, 3956.212
255.3761, 3957.976
255.8582, 3957.373
256.3403, 3955.709
256.8224, 3951.910
257.3046, 3947.911
257.7867, 3947.331
258.2688, 3951.825
258.7509, 3956.392
259.2330, 3959.374
259.7151, 3960.568
260.1973, 3961.955
260.6794, 3963.785
261.1615, 3965.658
261.6436, 3966.680
262.1257, 3966.107
262.6078, 3966.567
263.0900, 3969.288
263.5721, 3974.666
264.0542, 3978.155
264.5363, 3978.858
265.0184, 3978.672
265.5005, 3980.144
265.9827, 3983.713
266.4648, 3987.421
266.9469, 3990.393
267.4290, 3992.531
267.9111, 3996.868
268.3932, 4005.001
268.8754, 4012.748
269.3575, 4014.627
269.8396, 4008.877
270.3217, 4003.829
270.8038, 4001.501
271.2859, 4001.802
271.7681, 4003.219
272.2502, 4006.357
272.7323, 4009.426
273.2144, 4010.041
273.6965, 4007.533
274.1786, 4006.499
274.6608, 4008.980
275.1429, 4014.035
275.6250, 4013.766
276.1071, 4006.328
276.5892, 3998.903
277.0714, 3999.344
277.5535, 4008.750
278.0356, 4015.741
278.5177, 4017.286
278.9998, 4015.097
279.4819, 4016.796
279.9641, 4023.352
280.4462, 4030.002
280.9283, 4032.365
281.4104, 4030.275
281.8925, 4029.482
282.3746, 4031.122
282.8568, 4034.425
283.3389, 4037.018
283.8210, 4038.706
284.3031, 4040.967
284.7852, 4045.614
285.2673, 4052.343
285.7495, 4056.699
286.2316, 4057.189
286.7137, 4056.222
287.1958, 4059.411
287.6779, 4066.837
288.1600, 4074.309
288.6422, 4079.289
289.1243, 4081.991
289.6064, 4083.593
290.0885, 4083.842
290.5706, 4083.986
291.0527, 4086.802
291.5349, 4092.089
292.0170, 4096.388
292.4991, 4096.646
292.9812, 4094.255
293.4633, 4094.332
293.9454, 4097.449
294.4276, 4101.905
294.9097, 4106.463
295.3918, 4110.814
295.8739, 4113.131
296.3560, 4110.033
296.8381, 4104.467
297.3203, 4104.187
297.8024, 4109.734
298.2845, 4116.544
298.7666, 4119.108
299.2487, 4118.806
299.7308, 4120.034
300.2130, 4126.972
300.6951, 4135.651
301.1772, 4138.795
301.6593, 4136.444
302.1414, 4133.694
302.6235, 4135.880
303.1057, 4140.919
303.5878, 4144.450
304.0699, 4143.731
304.5520, 4141.948
305.0341, 4142.726
305.5162, 4145.898
305.9984, 4150.052
306.4805, 4155.046
306.9626, 4160.122
307.4447, 4163.996
307.9268, 4165.554
308.4089, 4166.787
308.8911, 4169.649
309.3732, 4173.734
309.8553, 4177.501
310.3374, 4180.036
310.8195, 4181.766
311.3016, 4183.062
311.7838, 4183.954
312.2659, 4184.554
312.7480, 4183.809
313.2301, 4182.768
313.7122, 4183.936
314.1943, 4191.370
314.6765, 4199.694
315.1586, 4204.903
315.6407, 4205.725
316.1228, 4206.028
316.6049, 4206.057
317.0870, 4206.974
317.5692, 4210.647
318.0513, 4222.403
318.5334, 4233.214
319.0155, 4237.648
319.4976, 4234.275
319.9797, 4231.659
320.4619, 4232.070
320.9440, 4234.796
321.4261, 4239.030
321.9082, 4246.681
322.3903, 4253.719
322.8724, 4259.087
323.3546, 4262.743
323.8367, 4265.008
324.3188, 4264.364
324.8009, 4263.319
325.2830, 4263.812
325.7651, 4267.958
326.2473, 4271.757
326.7294, 4274.829
327.2115, 4277.237
327.6936, 4279.151
328.1757, 4279.289
328.6578, 4279.942
329.1400, 4282.265
329.6221, 4287.706
330.1042, 4292.798
330.5863, 4297.540
331.0684, 4301.872
331.5505, 4305.632
332.0327, 4308.981
332.5148, 4311.439
332.9969, 4312.310
333.4790, 4309.771
333.9611, 4310.539
334.4432, 4315.922
334.9254, 4323.830
335.4075, 4330.856
335.8896, 4337.348
336.3717, 4342.403
336.8538, 4345.556
337.3359, 4346.730
337.8180, 4347.159
338.3001, 4346.078
338.7823, 4345.505
339.2644, 4348.554
339.7465, 4356.589
340.2286, 4362.349
340.7107, 4363.563
341.1928, 4360.898
341.6750, 4358.600
342.1571, 4356.324
342.6392, 4355.390
343.1213, 4357.848
343.6034, 4363.717
344.0855, 4367.307
344.5677, 4366.674
345.0498, 4364.151
345.5319, 4366.241
346.0140, 4373.118
346.4961, 4379.704
346.9782, 4382.421
347.4604, 4381.993
347.9425, 4381.427
348.4246, 4380.843
348.9067, 4380.870
349.3888, 4382.792
349.8709, 4386.370
350.3531, 4390.039
350.8352, 4393.767
351.3173, 4396.939
351.7994, 4397.617
352.2815, 4395.511
352.7636, 4393.786
353.2458, 4396.487
353.7279, 4401.825
354.2100, 4405.878
354.6921, 4404.829
355.1742, 4403.283
355.6563, 4407.158
356.1385, 4415.897
356.6206, 4424.099
357.1027, 4426.692
357.5848, 4427.126
358.0669, 4429.669
358.5490, 4436.729
359.0312, 4444.137
359.5133, 4449.638
359.9954, 4453.399
360.4775, 4456.088
360.9596, 4456.678
361.4417, 4457.140
361.9239, 4459.089
362.4060, 4463.501
362.8881, 4467.206
363.3702, 4467.880
363.8523, 4467.303
364.3344, 4468.208
364.8166, 4473.682
365.2987, 4478.755
365.7808, 4481.011
366.2629, 4479.972
366.7450, 4479.870
367.2271, 4482.738
367.7093, 4486.243
368.1914, 4488.334
368.6735, 4487.295
369.1556, 4486.647
369.6377, 4487.299
370.1198, 4489.039
370.6020, 4489.728
371.0841, 4487.292
371.5662, 4485.744
372.0483, 4487.511
372.5304, 4495.756
373.0125, 4501.302
373.4947, 4503.106
373.9768, 4502.343
374.4589, 4501.558
374.9410, 4500.269
375.4231, 4499.929
375.9052, 4501.190
376.3874, 4504.220
376.8695, 4507.812
377.3516, 4512.314
377.8337, 4516.885
378.3158, 4520.336
378.7979, 4522.467
379.2801, 4525.273
379.7622, 4529.833
380.2443, 4535.440
380.7264, 4538.754
381.2085, 4539.462
381.6906, 4539.799
382.1728, 4541.780
382.6549, 4545.134
383.1370, 4548.056
383.6191, 4550.098
384.1012, 4551.825
384.5833, 4554.386
385.0655, 4557.658
385.5476, 4560.706
386.0297, 4562.705
386.5118, 4564.235
386.9939, 4566.255
387.4760, 4568.791
387.9582, 4572.170
388.4403, 4578.605
388.9224, 4586.115
389.4045, 4590.577
389.8866, 4586.486
390.3687, 4581.313
390.8509, 4581.957
391.3330, 4588.005
391.8151, 4594.571
392.2972, 4600.455
392.7793, 4604.604
393.2614, 4605.701
393.7436, 4600.481
394.2257, 4596.324
394.7078, 4596.378
395.1899, 4599.903
395.6720, 4604.943
396.1541, 4614.474
396.6363, 4622.591
397.1184, 4625.888
397.6005, 4622.170
398.0826, 4619.606
398.5647, 4620.452
399.0468, 4622.779
399.5290, 4624.243
400.0111, 4622.091
400.4932, 4621.916
400.9753, 4625.157
401.4574, 4631.818
401.9395, 4638.399
402.4217, 4645.130
402.9038, 4651.523
403.3859, 4657.232
403.8680, 4662.091
404.3501, 4666.712
404.8322, 4671.742
405.3144, 4676.194
405.7965, 4676.521
406.2786, 4671.112
406.7607, 4666.903
407.2428, 4667.167
407.7249, 4672.027
408.2071, 4678.202
408.6892, 4686.213
409.1713, 4694.067
409.6534, 4698.893
410.1355, 4700.820
410.6176, 4702.803
411.0998, 4705.672
411.5819, 4709.223
412.0640, 4713.100
412.5461, 4717.263
413.0282, 4721.471
413.5103, 4726.069
413.9925, 4730.461
414.4746, 4733.041
414.9567, 4732.894
415.4388, 4732.848
415.9209, 4736.317
416.4030, 4742.231
416.8852, 4748.037
417.3673, 4753.695
417.8494, 4757.812
418.3315, 4758.242
418.8136, 4754.802
419.2957, 4752.184
419.7779, 4753.447
420.2600, 4756.674
420.7421, 4759.933
421.2242, 4763.136
421.7063, 4765.877
422.1884, 4768.358
422.6706, 4770.413
423.1527, 4771.454
423.6348, 4769.896
424.1169, 4768.518
424.5990, 4768.734
425.0811, 4771.645
425.5633, 4773.969
426.0454, 4774.092
426.5275, 4774.219
427.0096, 4777.399
427.4917, 4786.619
427.9738, 4794.304
428.4560, 4798.263
428.9381, 4798.743
429.4202, 4801.044
429.9023, 4805.910
430.3844, 4811.073
430.8665, 4814.863
431.3487, 4817.105
431.8308, 4818.435
432.3129, 4818.066
432.7950, 4817.789
433.2771, 4822.439
433.7592, 4832.181
434.2414, 4840.645
434.7235, 4843.964
435.2056, 4843.428
435.6877, 4844.358
436.1698, 4846.806
436.6519, 4849.616
437.1341, 4852.534
437.6162, 4854.920
438.0983, 4854.844
438.5804, 4850.353
439.0625, 4845.303
439.5446, 4844.276
440.0268, 4846.584
440.5089, 4849.624
440.9910, 4852.045
441.4731, 4854.501
441.9552, 4858.280
442.4373, 4864.106
442.9195, 4867.930
443.4016, 4866.478
443.8837, 4862.283
444.3658, 4858.421
444.8479, 4853.795
445.3300, 4851.675
445.8122, 4854.538
446.2943, 4861.678
446.7764, 4867.046
447.2585, 4867.201
447.7406, 4867.307
448.2227, 4870.225
448.7049, 4878.904
449.1870, 4884.570
449.6691, 4885.281
450.1512, 4883.914
450.6333, 4885.236
451.1154, 4890.979
451.5976, 4895.656
452.0797, 4897.495
452.5618, 4896.720
453.0439, 4896.410
453.5260, 4896.498
454.0081, 4897.245
454.4903, 4898.666
454.9724, 4900.760
455.4545, 4904.717
455.9366, 4911.205
456.4187, 4918.470
456.9008, 4923.521
457.3830, 4926.553
457.8651, 4928.583
458.3472, 4929.297
458.8293, 4929.648
459.3114, 4931.672
459.7935, 4935.362
460.2757, 4939.189
460.7578, 4941.159
461.2399, 4942.699
461.7220, 4945.910
462.2041, 4952.169
462.6862, 4958.813
463.1684, 4964.259
463.6505, 4968.780
464.1326, 4972.907
464.6147, 4977.230
465.0968, 4980.862
465.5789, 4983.291
466.0611, 4984.446
466.5432, 4984.509
467.0253, 4980.752
467.5074, 4977.318
467.9895, 4977.709
468.4716, 4987.117
468.9538, 4993.959
469.4359, 4997.124
469.9180, 4997.260
470.4001, 4996.000
470.8822, 4992.086
471.3643, 4989.240
471.8465, 4989.662
472.3286, 4993.966
472.8107, 4995.508
473.2928, 4993.726
473.7749, 4990.795
474.2570, 4989.000
474.7392, 4988.369
475.2213, 4988.071
475.7034, 4987.672
476.1855, 4987.834
476.6676, 4990.463
477.1497, 4995.304
477.6319, 4999.966
478.1140, 5002.918
478.5961, 5004.751
479.0782, 5006.290
479.5603, 5007.517
480.0424, 5008.841
480.5246, 5011.125
481.0067, 5013.533
481.4888, 5014.827
481.9709, 5013.000
482.4530, 5011.795
482.9352, 5013.962
483.4173, 5018.445
483.8994, 5021.926
484.3815, 5023.196
484.8636, 5023.269
485.3457, 5022.159
485.8279, 5019.127
486.3100, 5017.783
486.7921, 5019.720
487.2742, 5022.787
487.7563, 5025.264
488.2384, 5027.875
488.7206, 5028.563
489.2027, 5026.200
489.6848, 5021.929
490.1669, 5019.945
490.6490, 5020.837
491.1311, 5022.411
491.6133, 5024.041
492.0954, 5025.746
492.5775, 5025.626
493.0596, 5023.206
493.5417, 5021.136
494.0238, 5023.251
494.5060, 5028.566
494.9881, 5032.332
495.4702, 5032.922
495.9523, 5032.069
496.4344, 5031.424
496.9165, 5031.215
497.3987, 5032.312
497.8808, 5037.194
498.3629, 5042.390
498.8450, 5043.497
499.3271, 5039.932
499.8092, 5038.079
500.2914, 5044.003
500.7735, 5051.886
501.2556, 5056.268
501.7377, 5050.271
502.2198, 5047.165
502.7019, 5052.931
503.1841, 5063.827
503.6662, 5069.665
504.1483, 5063.812
504.6304, 5059.163
505.1125, 5060.419
505.5946, 5068.411
506.0768, 5071.640
506.5589, 5067.808
507.0410, 5062.718
507.5231, 5061.393
508.0052, 5064.563
508.4873, 5066.982
508.9695, 5067.964
509.4516, 5068.149
509.9337, 5068.617
510.4158, 5069.350
510.8979, 5070.094
511.3800, 5070.933
511.8622, 5071.593
512.3443, 5071.072
512.8264, 5069.427
513.3085, 5068.251
513.7906, 5068.568
514.2728, 5070.127
514.7549, 5073.030
515.2370, 5078.026
515.7191, 5082.113
516.2012, 5083.265
516.6833, 5082.342
517.1655, 5080.687
517.6476, 5077.785
518.1297, 5075.236
518.6118, 5073.413
519.0939, 5072.392
519.5760, 5072.489
520.0582, 5074.326
520.5403, 5076.860
521.0224, 5079.894
521.5045, 5084.237
521.9866, 5086.440
522.4688, 5085.137
522.9509, 5083.119
523.4330, 5084.182
523.9151, 5088.988
524.3972, 5093.036
524.8793, 5095.133
525.3615, 5095.992
525.8436, 5097.412
526.3257, 5099.394
526.8078, 5101.673
527.2899, 5104.906
527.7720, 5108.246
528.2542, 5109.641
528.7363, 5109.014
529.2184, 5107.293
529.7005, 5104.049
530.1826, 5100.619
530.6647, 5098.910
531.1469, 5100.153
531.6290, 5102.099
532.1111, 5103.333
532.5932, 5104.362
533.0753, 5106.213
533.5574, 5109.248
534.0396, 5113.037
534.5217, 5118.424
535.0038, 5125.552
535.4859, 5129.296
535.9680, 5127.034
536.4501, 5123.728
536.9323, 5122.339
537.4144, 5124.011
537.8965, 5124.091
538.3786, 5121.689
538.8607, 5118.813
539.3428, 5119.119
539.8250, 5122.971
540.3071, 5125.437
540.7892, 5124.424
541.2713, 5121.758
541.7534, 5121.998
542.2355, 5124.978
542.7177, 5128.647
543.1998, 5133.495
543.6819, 5137.601
544.1640, 5136.942
544.6461, 5131.003
545.1282, 5125.458
545.6104, 5123.536
546.0925, 5124.518
546.5746, 5127.789
547.0567, 5135.550
547.5388, 5142.181
548.0209, 5144.979
548.5031, 5145.266
548.9852, 5146.049
549.4673, 5147.750
549.9494, 5150.026
550.4315, 5153.483
550.9136, 5158.107
551.3958, 5159.835
551.8779, 5157.072
552.3600, 5154.130
552.8421, 5153.885
553.3242, 5156.643
553.8063, 5159.559
554.2885, 5162.900
554.7706, 5165.352
555.2527, 5163.999
555.7348, 5159.619
556.2169, 5157.212
556.6990, 5159.056
557.1812, 5162.609
557.6633, 5164.446
558.1454, 5164.901
558.6275, 5165.241
559.1096, 5165.210
559.5917, 5166.048
560.0739, 5169.683
560.5560, 5176.319
561.0381, 5181.322
561.5202, 5179.990
562.0023, 5177.991
562.4844, 5179.695
562.9666, 5190.599
563.4487, 5197.749
563.9308, 5198.446
564.4129, 5195.891
564.8950, 5194.834
565.3771, 5195.661
565.8593, 5197.042
566.3414, 5198.808
566.8235, 5200.817
567.3056, 5202.537
567.7877, 5203.873
568.2698, 5205.302
568.7520, 5207.446
569.2341, 5209.949
569.7162, 5211.634
570.1983, 5212.477
570.6804, 5212.423
571.1625, 5210.367
571.6447, 5207.689
572.1268, 5206.917
572.6089, 5209.843
573.0910, 5212.311
573.5731, 5211.685
574.0552, 5208.836
574.5374, 5205.247
575.0195, 5198.520
575.5016, 5194.159
575.9837, 5195.674
576.4658, 5202.458
576.9479, 5206.145
577.4301, 5203.720
577.9122, 5201.559
578.3943, 5202.266
578.8764, 5206.068
579.3585, 5212.030
579.8406, 5221.061
580.3228, 5230.200
580.8049, 5236.327
581.2870, 5239.506
581.7691, 5241.475
582.2512, 5242.081
582.7333, 5242.388
583.2155, 5244.201
583.6976, 5247.005
584.1797, 5249.417
584.6617, 5248.839
585.1439, 5248.851
585.6260, 5253.719
586.1081, 5262.469
586.5902, 5270.308
587.0723, 5276.409
587.5544, 5279.817
588.0366, 5279.272
