##NAMES=Nadorite
##RRUFFID=R050523
##IDEAL CHEMISTRY=Pb^2+^Sb^3+^O_2_Cl
##LOCALITY=Constantine, Algeria
##OWNER=RRUFF
##SOURCE=University of Arizona Mineral Museum
##DESCRIPTION=Brown adamantine fragments
##STATUS=The identification of this mineral has been confirmed by X-ray diffraction and chemical analysis
##URL=rruff.info/R050523
##MEASURED CHEMISTRY=Pb_1.00_Sb^3+^_1.00_O_2_Cl_1.00_
92.37695, 850.6494
92.85907, 830.8287
93.34119, 833.7336
93.82330, 852.0238
94.30542, 872.6340
94.78754, 893.5664
95.26965, 915.7874
95.75177, 935.9195
96.23389, 954.0358
96.71600, 969.5406
97.19812, 982.0285
97.68024, 991.1508
98.16235, 999.7951
98.64447, 1011.613
99.12659, 1027.114
99.60870, 1042.088
100.0908, 1058.977
100.5729, 1077.446
101.0551, 1096.599
101.5372, 1115.900
102.0193, 1135.493
102.5014, 1156.265
102.9835, 1176.267
103.4656, 1199.934
103.9478, 1228.727
104.4299, 1261.767
104.9120, 1297.210
105.3941, 1333.576
105.8762, 1371.189
106.3583, 1410.019
106.8405, 1448.945
107.3226, 1489.265
107.8047, 1531.478
108.2868, 1575.612
108.7689, 1621.994
109.2510, 1670.583
109.7332, 1721.390
110.2153, 1775.881
110.6974, 1834.017
111.1795, 1895.879
111.6616, 1961.927
112.1437, 2031.380
112.6259, 2106.151
113.1080, 2189.201
113.5901, 2279.335
114.0722, 2371.295
114.5543, 2465.324
115.0364, 2561.157
115.5185, 2644.732
116.0007, 2712.453
116.4828, 2765.857
116.9649, 2804.298
117.4470, 2827.608
117.9291, 2841.321
118.4112, 2850.398
118.8934, 2849.157
119.3755, 2857.717
119.8576, 2876.947
120.3397, 2905.587
120.8218, 2943.952
121.3039, 2992.059
121.7861, 3047.920
122.2682, 3106.394
122.7503, 3175.101
123.2324, 3237.631
123.7145, 3292.123
124.1966, 3339.879
124.6788, 3382.581
125.1609, 3421.681
125.6430, 3456.810
126.1251, 3484.753
126.6072, 3499.786
127.0893, 3515.224
127.5715, 3537.987
128.0536, 3566.862
128.5357, 3594.764
129.0178, 3616.875
129.4999, 3633.292
129.9821, 3648.358
130.4642, 3661.450
130.9463, 3673.806
131.4284, 3686.213
131.9105, 3698.370
132.3926, 3712.188
132.8748, 3729.425
133.3569, 3749.355
133.8390, 3771.004
134.3211, 3794.399
134.8032, 3819.238
135.2853, 3844.875
135.7674, 3871.512
136.2496, 3898.807
136.7317, 3926.709
137.2138, 3955.052
137.6959, 3983.262
138.1780, 4012.023
138.6601, 4041.864
139.1423, 4066.706
139.6244, 4091.030
140.1065, 4106.339
140.5886, 4108.649
141.0707, 4098.053
141.5528, 4077.305
142.0350, 4049.558
142.5171, 4014.972
142.9992, 3970.745
143.4813, 3918.354
143.9634, 3857.824
144.4455, 3787.497
144.9277, 3707.630
145.4098, 3620.444
145.8919, 3529.151
146.3740, 3431.162
146.8561, 3333.344
147.3382, 3234.178
147.8204, 3135.526
148.3025, 3039.435
148.7846, 2946.487
149.2667, 2856.454
149.7488, 2768.055
150.2309, 2680.051
150.7131, 2594.851
151.1952, 2514.198
151.6773, 2437.183
152.1594, 2361.833
152.6415, 2285.668
153.1236, 2212.765
153.6058, 2147.443
154.0879, 2090.895
154.5700, 2039.115
155.0521, 1989.364
155.5342, 1941.755
156.0163, 1897.345
156.4985, 1858.788
156.9806, 1823.140
157.4627, 1788.375
157.9448, 1754.012
158.4269, 1720.537
158.9090, 1689.139
159.3912, 1661.726
159.8733, 1631.613
160.3554, 1596.149
160.8375, 1558.184
161.3196, 1519.550
161.8017, 1481.091
162.2839, 1442.966
162.7660, 1406.097
163.2481, 1371.699
163.7302, 1336.840
164.2123, 1300.276
164.6944, 1263.206
165.1766, 1227.150
165.6587, 1192.706
166.1408, 1160.042
166.6229, 1129.461
167.1050, 1101.643
167.5871, 1075.105
168.0693, 1049.262
168.5514, 1024.429
169.0335, 1001.141
169.5156, 979.8328
169.9977, 960.3682
170.4798, 942.5120
170.9620, 926.6324
171.4441, 911.6201
171.9262, 897.1536
172.4083, 883.2011
172.8904, 869.5682
173.3725, 856.0799
173.8547, 842.9413
174.3368, 830.6216
174.8189, 819.1574
175.3010, 808.3955
175.7831, 798.3757
176.2652, 789.0851
176.7474, 780.1357
177.2295, 771.3303
177.7116, 762.6536
178.1937, 754.3428
178.6758, 746.1988
179.1579, 738.5128
179.6401, 731.6627
180.1222, 725.7477
180.6043, 720.4998
181.0864, 716.1138
181.5685, 712.2108
182.0506, 708.2101
182.5328, 703.4854
183.0149, 698.5115
183.4970, 694.7039
183.9791, 692.1370
184.4612, 690.8669
184.9433, 691.3978
185.4255, 692.9711
185.9076, 694.2384
186.3897, 694.0781
186.8718, 692.7120
187.3539, 692.5322
187.8360, 693.4266
188.3182, 695.8799
188.8003, 699.2839
189.2824, 704.2833
189.7645, 711.9668
190.2466, 723.0025
190.7287, 737.4089
191.2109, 756.1047
191.6930, 774.8049
192.1751, 801.8787
192.6572, 838.6158
193.1393, 885.9097
193.6214, 945.4645
194.1036, 1018.766
194.5857, 1106.996
195.0678, 1203.615
195.5499, 1318.380
196.0320, 1430.902
196.5141, 1537.774
196.9963, 1635.302
197.4784, 1715.507
197.9605, 1768.936
198.4426, 1791.272
198.9247, 1810.855
199.4068, 1820.447
199.8890, 1832.912
200.3711, 1855.781
200.8532, 1889.950
201.3353, 1933.122
201.8174, 1983.602
202.2995, 2042.464
202.7817, 2109.808
203.2638, 2186.784
203.7459, 2271.737
204.2280, 2363.569
204.7101, 2462.605
205.1922, 2567.258
205.6744, 2676.427
206.1565, 2790.802
206.6386, 2913.472
207.1207, 3040.355
207.6028, 3177.771
208.0849, 3330.951
208.5671, 3498.330
209.0492, 3691.880
209.5313, 3914.534
210.0134, 4168.331
210.4955, 4471.328
210.9776, 4820.189
211.4598, 5224.823
211.9419, 5713.685
212.4240, 6297.881
212.9061, 6944.614
213.3882, 7718.954
213.8703, 8533.887
214.3525, 9231.696
214.8346, 9808.979
215.3167, 10205.66
215.7988, 10170.88
216.2809, 9557.047
216.7630, 8691.775
217.2451, 7615.365
217.7273, 6438.483
218.2094, 5339.109
218.6915, 4414.671
219.1736, 3656.630
219.6557, 3030.579
220.1378, 2588.879
220.6200, 2238.197
221.1021, 1966.188
221.5842, 1756.410
222.0663, 1586.999
222.5484, 1447.563
223.0305, 1336.600
223.5127, 1239.662
223.9948, 1163.385
224.4769, 1097.017
224.9590, 1040.564
225.4411, 992.0202
225.9232, 948.8945
226.4054, 909.3401
226.8875, 873.5798
227.3696, 841.6454
227.8517, 815.4817
228.3338, 791.5266
228.8159, 769.5365
229.2981, 749.2725
229.7802, 730.6574
230.2623, 713.5203
230.7444, 697.8851
231.2265, 684.5557
231.7086, 674.8098
232.1908, 665.7485
232.6729, 656.2953
233.1550, 646.9929
233.6371, 639.0103
234.1192, 633.1393
234.6013, 629.1219
235.0835, 625.1348
235.5656, 620.6952
236.0477, 616.7559
236.5298, 613.4573
237.0119, 610.8715
237.4940, 609.2883
237.9762, 609.0890
238.4583, 609.8015
238.9404, 609.1679
239.4225, 606.2674
239.9046, 603.3396
240.3867, 601.1532
240.8689, 599.5190
241.3510, 598.0029
241.8331, 596.4141
242.3152, 594.7776
242.7973, 593.2384
243.2794, 592.4125
243.7616, 590.7591
244.2437, 587.2115
244.7258, 582.2477
245.2079, 577.3469
245.6900, 573.2452
246.1721, 569.3906
246.6543, 564.6272
247.1364, 558.7877
247.6185, 552.6920
248.1006, 546.7667
248.5827, 540.9420
249.0648, 534.8087
249.5470, 527.9761
250.0291, 521.0329
250.5112, 514.8030
250.9933, 509.2852
251.4754, 504.1901
251.9576, 499.5936
252.4397, 495.3499
252.9218, 490.6769
253.4039, 485.3438
253.8860, 479.5373
254.3681, 473.3288
254.8503, 466.7031
255.3324, 460.5104
255.8145, 455.3971
256.2966, 451.2216
256.7787, 447.3383
257.2608, 443.9434
257.7430, 440.4135
258.2251, 436.3808
258.7072, 431.8564
259.1893, 426.8853
259.6714, 420.8495
260.1535, 414.1483
260.6357, 409.1273
261.1178, 407.1668
261.5999, 405.4317
262.0820, 402.0607
262.5641, 397.4063
263.0462, 392.5790
263.5284, 387.9671
264.0105, 383.6771
264.4926, 380.3613
264.9747, 378.8404
265.4568, 377.1624
265.9389, 374.0383
266.4211, 370.0797
266.9032, 366.5743
267.3853, 364.4532
267.8674, 363.3807
268.3495, 361.8560
268.8316, 359.5764
269.3138, 357.2713
269.7959, 355.2403
270.2780, 353.3587
270.7601, 351.4621
271.2422, 349.5041
271.7243, 347.4308
272.2065, 345.0725
272.6886, 342.3316
273.1707, 339.4669
273.6528, 336.3797
274.1349, 333.2850
274.6170, 330.4251
275.0992, 327.8777
275.5813, 325.6835
276.0634, 324.0695
276.5455, 323.6133
277.0276, 322.6271
277.5097, 320.5316
277.9919, 318.0068
278.4740, 315.5996
278.9561, 313.4996
279.4382, 311.7119
279.9203, 310.3888
280.4024, 310.2538
280.8846, 308.9825
281.3667, 305.6784
281.8488, 301.7875
282.3309, 298.3436
282.8130, 295.6122
283.2951, 293.2202
283.7773, 290.6637
284.2594, 287.9814
284.7415, 285.0102
285.2236, 281.1763
285.7057, 277.5185
286.1878, 274.7876
286.6700, 272.9962
287.1521, 271.5104
287.6342, 269.6182
288.1163, 267.2638
288.5984, 264.7420
289.0805, 261.6711
289.5627, 258.7902
290.0448, 256.3757
290.5269, 254.4570
291.0090, 252.9835
291.4911, 251.9412
291.9732, 251.3594
292.4554, 250.8566
292.9375, 250.8013
293.4196, 250.4572
293.9017, 249.3003
294.3838, 247.6520
294.8659, 246.2244
295.3481, 245.5566
295.8302, 245.5761
296.3123, 245.3340
296.7944, 244.1709
297.2765, 243.4541
297.7586, 243.7223
298.2408, 244.5562
298.7229, 245.3534
299.2050, 245.7840
299.6871, 245.9095
300.1692, 245.9544
300.6513, 245.7149
301.1335, 245.6498
301.6156, 246.1350
302.0977, 246.6766
302.5798, 246.6821
303.0619, 245.9249
303.5440, 244.7304
304.0262, 243.7404
304.5083, 242.7689
304.9904, 242.3725
305.4725, 242.9459
305.9546, 243.8062
306.4367, 244.4979
306.9189, 244.8747
307.4010, 244.9471
307.8831, 244.6756
308.3652, 243.7678
308.8473, 243.2972
309.3294, 243.4677
309.8116, 243.8250
310.2937, 244.3111
310.7758, 244.7867
311.2579, 244.8676
311.7400, 244.0740
312.2221, 242.1705
312.7043, 241.0559
313.1864, 241.5001
313.6685, 241.8539
314.1506, 241.2902
314.6327, 240.0737
315.1148, 238.9890
315.5970, 238.6381
316.0791, 238.9508
316.5612, 238.9495
317.0433, 238.4005
317.5254, 237.7981
318.0075, 237.1552
318.4897, 236.5422
318.9718, 236.0929
319.4539, 235.8859
319.9360, 235.7965
320.4181, 235.4130
320.9002, 234.3254
321.3824, 233.4518
321.8645, 233.0199
322.3466, 232.7327
322.8287, 232.2953
323.3108, 231.6136
323.7929, 230.7870
324.2751, 229.9833
324.7572, 229.1624
325.2393, 228.4483
325.7214, 227.8956
326.2035, 227.3884
326.6856, 226.7959
327.1678, 226.1328
327.6499, 225.5611
328.1320, 225.2785
328.6141, 225.3687
329.0962, 225.3352
329.5783, 225.1912
330.0605, 224.9316
330.5426, 224.4240
331.0247, 223.7829
331.5068, 223.2891
331.9889, 223.1727
332.4710, 223.4054
332.9532, 223.5293
333.4353, 223.5808
333.9174, 223.4726
334.3995, 223.2012
334.8816, 222.7550
335.3637, 221.9950
335.8459, 220.8358
336.3280, 219.5710
336.8101, 219.1521
337.2922, 220.4793
337.7743, 221.3329
338.2564, 221.3689
338.7386, 221.0035
339.2206, 220.4984
339.7028, 219.9641
340.1849, 219.5239
340.6670, 219.4480
341.1491, 220.1173
341.6312, 220.1773
342.1133, 219.0495
342.5955, 217.8761
343.0776, 217.2797
343.5597, 217.2671
344.0418, 217.5211
344.5239, 217.8762
345.0060, 218.3865
345.4882, 218.0442
345.9703, 215.3156
346.4524, 213.2085
346.9345, 212.9182
347.4166, 213.8022
347.8987, 214.6428
348.3809, 214.6898
348.8630, 214.1463
349.3451, 213.8538
349.8272, 214.0679
350.3093, 214.1314
350.7914, 213.9363
351.2736, 213.5417
351.7557, 212.8960
352.2378, 211.9872
352.7199, 211.1254
353.2020, 210.9725
353.6841, 211.9481
354.1663, 212.3369
354.6484, 211.3450
355.1305, 210.1931
355.6126, 209.6397
356.0947, 209.7059
356.5768, 209.8577
357.0590, 209.4454
357.5411, 208.4277
358.0232, 208.0110
358.5053, 208.9135
358.9874, 209.6369
359.4695, 209.3652
359.9517, 208.4613
360.4338, 207.7048
360.9159, 207.5786
361.3980, 207.9002
361.8801, 208.0818
362.3622, 207.9823
362.8444, 208.0597
363.3265, 208.9220
363.8086, 209.8355
364.2907, 209.8853
364.7728, 208.6898
365.2549, 207.1827
365.7371, 206.6008
366.2192, 207.0351
366.7013, 207.5354
367.1834, 207.9235
367.6655, 208.2789
368.1476, 208.6283
368.6298, 208.9832
369.1119, 209.4124
369.5940, 210.1783
370.0761, 211.1247
370.5582, 211.3731
371.0403, 210.4380
371.5225, 209.5572
372.0046, 209.4959
372.4867, 210.1061
372.9688, 211.1291
373.4509, 212.6712
373.9330, 214.4438
374.4152, 216.1325
374.8973, 217.7694
375.3794, 218.9654
375.8615, 219.1196
376.3436, 218.8821
376.8257, 219.2745
377.3079, 220.5713
377.7900, 222.0421
378.2721, 223.0858
378.7542, 223.8308
379.2363, 224.8443
379.7184, 226.3172
380.2006, 228.0737
380.6827, 230.0425
381.1648, 232.2242
381.6469, 234.0608
382.1290, 234.8865
382.6111, 235.4694
383.0933, 236.9798
383.5754, 239.5891
384.0575, 242.4785
384.5396, 245.1032
385.0217, 247.4577
385.5038, 249.7532
385.9860, 251.9688
386.4681, 254.1390
386.9502, 256.2481
387.4323, 258.3150
387.9144, 260.3518
388.3965, 262.2451
388.8787, 264.2844
389.3608, 267.3515
389.8429, 271.8750
390.3250, 276.3324
390.8071, 280.2802
391.2892, 284.0575
391.7714, 288.1541
392.2535, 292.6566
392.7356, 297.1546
393.2177, 301.0956
393.6998, 304.3026
394.1819, 307.8404
394.6641, 311.7009
395.1462, 315.8805
395.6283, 320.6504
396.1104, 325.7657
396.5925, 330.4233
397.0746, 334.0453
397.5568, 336.9008
398.0389, 340.6612
398.5210, 346.3576
399.0031, 351.7034
399.4852, 356.1121
399.9673, 360.2107
400.4495, 364.7754
400.9316, 370.0202
401.4137, 375.5452
401.8958, 380.7518
402.3779, 385.5653
402.8600, 390.2322
403.3422, 394.8467
403.8243, 399.2813
404.3064, 403.4764
404.7885, 407.4347
405.2706, 411.2193
405.7527, 414.8954
406.2349, 418.4283
406.7170, 421.3724
407.1991, 423.6563
407.6812, 425.3469
408.1633, 426.4408
408.6454, 427.0312
409.1276, 427.3471
409.6097, 427.4831
410.0918, 426.9675
410.5739, 424.9987
411.0560, 421.4142
411.5381, 417.2982
412.0203, 412.8855
412.5024, 407.8690
412.9845, 401.9210
413.4666, 395.1662
413.9487, 388.1312
414.4308, 381.2267
414.9130, 374.3619
415.3951, 367.1405
415.8772, 359.4182
416.3593, 351.6931
416.8414, 344.2278
417.3235, 336.9227
417.8057, 329.6199
418.2878, 322.1654
418.7699, 314.9243
419.2520, 308.1719
419.7341, 301.9014
420.2162, 296.0748
420.6984, 290.8202
421.1805, 285.8778
421.6626, 280.9288
422.1447, 275.9267
422.6268, 271.1349
423.1089, 266.5750
423.5911, 262.3117
424.0732, 258.4870
424.5553, 255.1345
425.0374, 251.8988
425.5195, 248.4933
426.0016, 244.9903
426.4838, 241.8079
426.9659, 239.2448
427.4480, 236.6794
427.9301, 233.5874
428.4122, 230.3129
428.8943, 227.6729
429.3765, 226.0013
429.8586, 224.8477
430.3407, 223.4532
430.8228, 221.7694
431.3049, 219.8964
431.7870, 217.4816
432.2692, 215.1531
432.7513, 213.4814
433.2334, 212.4040
433.7155, 211.3639
434.1976, 209.8921
434.6797, 208.0419
435.1619, 206.5650
435.6440, 206.0538
436.1261, 205.2291
436.6082, 203.6088
437.0903, 201.6805
437.5724, 199.9418
438.0546, 198.5857
438.5367, 197.5808
439.0188, 196.9900
439.5009, 197.0805
439.9830, 196.7139
440.4651, 195.2775
440.9473, 193.8945
441.4294, 193.2195
441.9115, 193.0572
442.3936, 192.7511
442.8757, 191.7886
443.3578, 190.4124
443.8400, 189.5707
444.3221, 189.6158
444.8042, 189.3023
445.2863, 187.8090
445.7684, 185.9514
446.2505, 184.4231
446.7327, 183.3610
447.2148, 182.6296
447.6969, 182.2878
448.1790, 182.2431
448.6611, 181.9468
449.1432, 181.2356
449.6254, 180.4200
450.1075, 179.6633
450.5896, 178.9981
451.0717, 178.5759
451.5538, 178.7797
452.0359, 178.9991
452.5181, 178.4841
453.0002, 177.3516
453.4823, 176.4599
453.9644, 176.2642
454.4465, 176.4605
454.9286, 176.3573
455.4108, 175.8798
455.8929, 175.4075
456.3750, 175.0798
456.8571, 174.7713
457.3392, 174.2769
457.8214, 173.5961
458.3035, 172.9908
458.7856, 172.6997
459.2677, 172.7260
459.7498, 172.7665
460.2319, 172.7217
460.7141, 172.8013
461.1962, 173.4477
461.6783, 174.1337
462.1604, 173.9530
462.6425, 172.5919
463.1246, 170.8080
463.6068, 169.9412
464.0889, 170.4507
464.5710, 170.6806
465.0531, 170.3455
465.5352, 170.0143
466.0173, 170.0636
466.4995, 170.3527
466.9816, 170.4451
467.4637, 169.9915
467.9458, 169.2158
468.4279, 168.8817
468.9100, 169.2054
469.3922, 169.4074
469.8743, 169.0997
470.3564, 168.6736
470.8385, 168.4809
471.3206, 168.5688
471.8027, 168.6202
472.2849, 168.2751
472.7670, 167.6727
473.2491, 167.3899
473.7312, 167.5655
474.2133, 167.8052
474.6954, 167.8172
475.1776, 167.6811
475.6597, 167.5873
476.1418, 167.7380
476.6239, 167.7259
477.1060, 166.8680
477.5881, 165.5807
478.0703, 165.2916
478.5524, 166.6613
479.0345, 168.4920
479.5166, 168.9884
479.9987, 167.8005
480.4808, 166.8695
480.9630, 166.4801
481.4451, 166.2244
481.9272, 165.8612
482.4093, 165.3895
482.8914, 164.8139
483.3735, 164.0858
483.8557, 163.3998
484.3378, 163.4740
484.8199, 165.2944
485.3020, 166.4715
485.7841, 166.5754
486.2662, 166.2745
486.7484, 165.9948
487.2305, 165.8371
487.7126, 165.7637
488.1947, 165.7156
488.6768, 165.7060
489.1589, 165.9662
489.6411, 166.7294
490.1232, 167.3949
490.6053, 167.6803
491.0874, 167.8255
491.5695, 168.1384
492.0516, 168.7188
492.5338, 169.2873
493.0159, 169.5762
493.4980, 169.5979
493.9801, 169.3533
494.4622, 168.5746
494.9443, 168.0420
495.4265, 168.7182
495.9086, 170.1854
496.3907, 171.2807
496.8728, 171.5451
497.3549, 171.4970
497.8370, 171.3520
498.3192, 171.2105
498.8013, 171.5383
499.2834, 172.6089
499.7655, 173.9486
500.2476, 174.7481
500.7297, 174.7714
501.2119, 175.1070
501.6940, 175.9716
502.1761, 177.0435
502.6582, 178.1233
503.1403, 179.2077
503.6224, 180.4031
504.1045, 181.7937
504.5866, 183.2914
505.0688, 184.5706
505.5509, 185.3510
506.0330, 186.3666
506.5151, 187.8786
506.9972, 189.4614
507.4793, 190.9819
507.9615, 192.3132
508.4436, 193.1122
508.9257, 192.7701
509.4078, 191.6360
509.8899, 191.9468
510.3720, 194.2266
510.8542, 196.8222
511.3363, 199.3010
511.8184, 201.6889
512.3005, 204.0127
512.7827, 206.2840
513.2648, 208.4529
513.7469, 210.4256
514.2290, 212.2713
514.7111, 214.1830
515.1932, 216.1624
515.6754, 218.3311
516.1575, 220.7788
516.6396, 223.5159
517.1217, 226.4684
517.6038, 229.8318
518.0859, 233.1715
518.5681, 236.1665
519.0502, 239.0403
519.5323, 242.0738
520.0144, 245.3675
520.4965, 249.1086
520.9786, 253.5969
521.4608, 259.0002
521.9429, 264.1768
522.4250, 268.7456
522.9071, 273.6002
523.3892, 279.0536
523.8713, 284.9858
524.3535, 291.1101
524.8356, 297.2738
525.3177, 303.8306
525.7998, 311.3532
526.2819, 320.0038
526.7640, 328.7343
527.2462, 337.1633
527.7283, 345.9761
528.2104, 355.5030
528.6925, 365.6397
529.1746, 376.1378
529.6567, 386.7831
530.1389, 397.9014
530.6210, 409.9012
531.1031, 422.7593
531.5852, 436.0520
532.0673, 449.5873
532.5494, 463.5957
533.0316, 478.5903
533.5137, 494.4084
533.9958, 510.6603
534.4779, 526.9443
534.9600, 543.8563
535.4421, 562.2571
535.9243, 581.8190
536.4064, 601.8065
536.8885, 621.7609
537.3706, 641.9294
537.8527, 662.5436
538.3348, 683.7029
538.8170, 705.5861
539.2991, 728.1943
539.7812, 751.3621
540.2633, 775.0829
540.7454, 799.4083
541.2275, 824.8388
541.7097, 851.8257
542.1918, 879.6347
542.6739, 906.1966
543.1560, 931.1719
543.6381, 956.4125
544.1202, 982.9825
544.6024, 1009.205
545.0845, 1034.167
545.5666, 1057.911
546.0487, 1080.251
546.5308, 1101.468
547.0129, 1121.213
547.4951, 1139.168
547.9772, 1155.345
548.4593, 1168.594
548.9414, 1178.621
549.4235, 1185.159
549.9056, 1187.040
550.3878, 1184.226
550.8699, 1179.253
551.3520, 1173.733
551.8341, 1165.352
552.3162, 1151.451
552.7983, 1132.762
553.2805, 1112.169
553.7626, 1091.177
554.2447, 1069.665
554.7268, 1047.171
555.2089, 1023.575
555.6910, 999.1591
556.1732, 973.0103
556.6553, 946.8495
557.1374, 921.6652
557.6195, 897.2628
558.1016, 872.8503
558.5837, 847.5523
559.0659, 822.2352
559.5480, 798.9883
560.0301, 778.1047
560.5122, 758.0745
560.9943, 738.7294
561.4764, 720.0534
561.9586, 701.8059
562.4407, 684.0639
562.9228, 667.3904
563.4049, 652.8041
563.8870, 638.8203
564.3691, 623.5887
564.8513, 607.4345
565.3334, 592.3022
565.8155, 579.1282
566.2976, 567.2968
566.7797, 555.5934
567.2618, 544.0629
567.7440, 532.6493
568.2261, 520.6224
568.7082, 509.4648
569.1903, 500.4115
569.6724, 492.9092
570.1545, 485.4326
570.6367, 477.2046
571.1188, 468.6403
571.6009, 460.7396
572.0830, 453.5768
572.5651, 446.5400
573.0472, 439.6525
573.5294, 432.8027
574.0115, 425.6913
574.4936, 418.5301
574.9757, 411.9629
575.4578, 406.4557
575.9399, 401.3690
576.4221, 396.0442
576.9042, 390.5157
577.3863, 384.8495
577.8684, 379.0142
578.3505, 373.2428
578.8326, 367.8125
579.3148, 362.7413
579.7969, 357.9711
580.2790, 353.7715
580.7611, 349.6148
581.2432, 345.2114
581.7253, 340.6853
582.2075, 336.0951
582.6896, 331.5204
583.1717, 327.1706
583.6538, 323.3974
584.1359, 320.2698
584.6180, 317.2446
585.1002, 314.5649
585.5823, 311.6464
586.0643, 308.0698
586.5464, 304.2484
587.0286, 300.7593
587.5107, 297.7669
587.9928, 294.9027
588.4749, 291.8213
588.9570, 288.5690
589.4391, 285.2583
