##NAMES=Nahcolite
##RRUFFID=R070237
##IDEAL CHEMISTRY=NaHCO_3_
##LOCALITY=Bureau of Mines Oil Shale Mine, East Rifle Creek area, Garfield County, Colorado, USA
##OWNER=RRUFF
##SOURCE=Michael Scott
##DESCRIPTION=Clear, colorless to brownish, massive
##STATUS=The identification of this mineral has been confirmed by X-ray diffraction and chemical analysis
##URL=rruff.info/R070237
##MEASURED CHEMISTRY=Na_1.00_HCO_3_ ; H and C not analyzed but assumed by stoichiometry
133.2699, 2000.009
133.7520, 2153.823
134.2341, 2324.654
134.7162, 2511.638
135.1983, 2715.496
135.6804, 2934.308
136.1626, 3164.422
136.6447, 3410.885
137.1268, 3682.626
137.6089, 3977.759
138.0910, 4298.077
138.5731, 4635.757
139.0553, 4991.852
139.5374, 5383.648
140.0195, 5831.658
140.5016, 6312.601
140.9837, 6722.244
141.4658, 7065.378
141.9480, 7336.007
142.4301, 7521.700
142.9122, 7595.683
143.3943, 7638.229
143.8764, 7636.314
144.3585, 7592.081
144.8407, 7612.373
145.3228, 7670.969
145.8049, 7814.485
146.2870, 8085.712
146.7691, 8481.623
147.2512, 9003.714
147.7334, 9668.878
148.2155, 10514.35
148.6976, 11367.22
149.1797, 12353.95
149.6618, 13313.25
150.1439, 14025.16
150.6261, 14611.11
151.1082, 14832.35
151.5903, 14582.75
152.0724, 13696.18
152.5545, 12713.25
153.0366, 11555.90
153.5188, 10334.89
154.0009, 9272.486
154.4830, 8397.531
154.9651, 7678.773
155.4472, 7094.740
155.9293, 6659.489
156.4115, 6335.989
156.8936, 6124.657
157.3757, 6020.720
157.8578, 6001.823
158.3399, 6075.518
158.8221, 6224.407
159.3042, 6437.594
159.7863, 6724.492
160.2684, 7063.573
160.7505, 7463.652
161.2326, 7921.773
161.7148, 8387.163
162.1969, 8924.250
162.6790, 9427.894
163.1611, 9790.802
163.6432, 10048.42
164.1253, 10106.15
164.6075, 9875.387
165.0896, 9351.559
165.5717, 8710.264
166.0538, 7962.854
166.5359, 7173.779
167.0180, 6433.652
167.5002, 5740.888
167.9823, 5128.565
168.4644, 4632.684
168.9465, 4263.164
169.4286, 3959.437
169.9107, 3691.683
170.3929, 3459.104
170.8750, 3253.034
171.3571, 3071.781
171.8392, 2916.227
172.3213, 2790.265
172.8034, 2698.564
173.2856, 2627.003
173.7677, 2569.020
174.2498, 2522.239
174.7319, 2479.503
175.2140, 2431.885
175.6961, 2386.471
176.1783, 2355.498
176.6604, 2344.578
177.1425, 2343.243
177.6246, 2339.611
178.1067, 2334.339
178.5888, 2331.486
179.0710, 2337.181
179.5531, 2347.490
180.0352, 2353.233
180.5173, 2350.351
180.9994, 2343.743
181.4815, 2339.711
181.9637, 2338.291
182.4458, 2341.619
182.9279, 2350.375
183.4100, 2365.114
183.8921, 2387.923
184.3742, 2419.561
184.8564, 2459.635
185.3385, 2508.791
185.8206, 2568.088
186.3027, 2628.742
186.7848, 2677.987
187.2669, 2718.311
187.7491, 2770.133
188.2312, 2843.599
188.7133, 2933.859
189.1954, 3024.027
189.6775, 3112.504
190.1596, 3205.678
190.6418, 3311.679
191.1239, 3430.097
191.6060, 3559.817
192.0881, 3695.704
192.5702, 3839.926
193.0524, 4012.868
193.5345, 4215.745
194.0166, 4442.684
194.4987, 4677.896
194.9808, 4920.159
195.4629, 5190.505
195.9451, 5493.096
196.4272, 5831.661
196.9093, 6202.508
197.3914, 6604.336
197.8735, 7040.394
198.3556, 7522.928
198.8378, 8053.948
199.3199, 8606.620
199.8020, 9186.360
200.2841, 9794.865
200.7662, 10340.44
201.2483, 10839.23
201.7305, 11252.52
202.2126, 11476.05
202.6947, 11492.32
203.1768, 11384.02
203.6589, 11161.61
204.1410, 10802.59
204.6232, 10502.71
205.1053, 10280.38
205.5874, 10127.72
206.0695, 10030.12
206.5516, 10004.81
207.0337, 9989.302
207.5159, 9955.001
207.9980, 9914.797
208.4801, 9795.020
208.9622, 9570.736
209.4443, 9260.308
209.9264, 8943.479
210.4086, 8603.782
210.8907, 8289.649
211.3728, 8039.622
211.8549, 7854.164
212.3370, 7723.237
212.8191, 7640.670
213.3013, 7609.442
213.7834, 7653.419
214.2655, 7784.461
214.7476, 7972.574
215.2297, 8188.750
215.7118, 8428.092
216.1940, 8716.769
216.6761, 9064.459
217.1582, 9470.555
217.6403, 9891.367
218.1224, 10313.11
218.6045, 10761.22
219.0867, 11260.36
219.5688, 11809.47
220.0509, 12406.75
220.5330, 13052.36
221.0151, 13756.13
221.4972, 14440.01
221.9794, 15125.62
222.4615, 15773.90
222.9436, 16357.89
223.4257, 16894.19
223.9078, 17339.73
224.3899, 17704.35
224.8721, 18004.17
225.3542, 18074.13
225.8363, 17875.25
226.3184, 17484.92
226.8005, 16980.29
227.2827, 16343.25
227.7648, 15629.39
228.2469, 14835.05
228.7290, 13950.28
229.2111, 13081.88
229.6932, 12219.18
230.1754, 11391.77
230.6575, 10628.43
231.1396, 9945.075
231.6217, 9307.287
232.1038, 8704.309
232.5859, 8132.634
233.0681, 7615.724
233.5502, 7160.499
234.0323, 6756.717
234.5144, 6384.079
234.9965, 6042.284
235.4786, 5737.413
235.9608, 5476.850
236.4429, 5274.561
236.9250, 5065.149
237.4071, 4839.533
237.8892, 4613.938
238.3713, 4414.639
238.8535, 4249.588
239.3356, 4097.625
239.8177, 3952.767
240.2998, 3814.403
240.7819, 3684.323
241.2640, 3560.027
241.7462, 3443.371
242.2283, 3337.014
242.7104, 3243.560
243.1925, 3156.121
243.6746, 3072.329
244.1567, 2991.062
244.6389, 2916.344
245.1210, 2849.132
245.6031, 2788.013
246.0852, 2731.800
246.5673, 2683.575
247.0494, 2634.923
247.5316, 2581.327
248.0137, 2518.211
248.4958, 2466.203
248.9779, 2430.618
249.4600, 2403.431
249.9421, 2370.029
250.4243, 2325.487
250.9064, 2283.131
251.3885, 2247.846
251.8706, 2220.761
252.3527, 2197.236
252.8348, 2179.824
253.3170, 2164.451
253.7991, 2142.326
254.2812, 2108.538
254.7633, 2077.926
255.2454, 2058.029
255.7275, 2054.541
256.2097, 2039.612
256.6918, 2005.177
257.1739, 1965.005
257.6560, 1947.308
258.1381, 1965.018
258.6202, 1978.437
259.1024, 1970.557
259.5845, 1934.926
260.0666, 1904.893
260.5487, 1880.739
261.0308, 1862.057
261.5129, 1847.351
261.9951, 1837.099
262.4772, 1830.052
262.9593, 1827.533
263.4414, 1832.013
263.9235, 1828.565
264.4056, 1814.719
264.8878, 1795.173
265.3699, 1776.594
265.8520, 1757.193
266.3341, 1743.474
266.8162, 1739.793
267.2983, 1748.502
267.7805, 1752.266
268.2626, 1750.195
268.7447, 1744.097
269.2268, 1737.346
269.7089, 1730.641
270.1910, 1720.741
270.6732, 1703.579
271.1553, 1677.473
271.6374, 1662.896
272.1195, 1663.115
272.6016, 1670.061
273.0837, 1670.839
273.5659, 1664.544
274.0480, 1656.824
274.5301, 1649.995
275.0122, 1644.184
275.4943, 1635.397
275.9764, 1622.175
276.4586, 1608.716
276.9407, 1602.315
277.4228, 1603.909
277.9049, 1605.050
278.3870, 1602.197
278.8691, 1595.543
279.3513, 1589.252
279.8334, 1583.099
280.3155, 1577.891
280.7976, 1575.622
281.2798, 1576.500
281.7619, 1575.920
282.2440, 1571.055
282.7261, 1562.742
283.2082, 1557.840
283.6903, 1556.967
284.1725, 1557.227
284.6546, 1555.208
285.1367, 1550.983
285.6188, 1545.816
286.1009, 1538.974
286.5830, 1531.442
287.0652, 1528.103
287.5473, 1529.471
288.0294, 1532.147
288.5115, 1532.245
288.9936, 1530.088
289.4757, 1528.556
289.9579, 1530.568
290.4400, 1533.420
290.9221, 1527.771
291.4042, 1512.969
291.8863, 1497.791
292.3684, 1492.858
292.8506, 1495.771
293.3327, 1495.782
293.8148, 1486.907
294.2969, 1474.540
294.7790, 1469.154
295.2611, 1470.759
295.7433, 1475.568
296.2254, 1485.118
296.7075, 1495.840
297.1896, 1496.654
297.6717, 1477.765
298.1538, 1453.144
298.6360, 1445.430
299.1181, 1453.443
299.6002, 1464.050
300.0823, 1468.471
300.5644, 1468.250
301.0465, 1466.514
301.5287, 1464.880
302.0108, 1461.072
302.4929, 1449.627
302.9750, 1432.103
303.4571, 1418.073
303.9392, 1415.720
304.4214, 1420.112
304.9035, 1424.928
305.3856, 1429.434
305.8677, 1432.584
306.3498, 1432.943
306.8319, 1430.978
307.3141, 1428.312
307.7962, 1425.071
308.2783, 1422.007
308.7604, 1419.928
309.2425, 1419.377
309.7246, 1419.090
310.2068, 1419.865
310.6889, 1420.468
311.1710, 1417.744
311.6531, 1406.062
312.1352, 1392.969
312.6173, 1383.744
313.0995, 1379.220
313.5816, 1378.903
314.0637, 1385.422
314.5458, 1395.836
315.0279, 1404.648
315.5100, 1412.288
315.9922, 1415.862
316.4743, 1410.866
316.9564, 1392.767
317.4385, 1382.835
317.9206, 1398.771
318.4027, 1424.652
318.8849, 1438.224
319.3670, 1419.035
319.8491, 1399.261
320.3312, 1391.969
320.8133, 1400.392
321.2954, 1407.362
321.7776, 1406.910
322.2597, 1404.418
322.7418, 1405.622
323.2239, 1417.154
323.7060, 1426.661
324.1881, 1431.331
324.6703, 1430.885
325.1524, 1427.911
325.6345, 1419.580
326.1166, 1410.398
326.5987, 1403.911
327.0808, 1401.207
327.5630, 1399.975
328.0451, 1401.039
328.5272, 1404.192
329.0093, 1404.945
329.4914, 1402.782
329.9735, 1398.697
330.4557, 1393.050
330.9378, 1383.767
331.4199, 1376.542
331.9020, 1372.109
332.3841, 1370.091
332.8662, 1368.912
333.3484, 1369.582
333.8305, 1369.579
334.3126, 1365.943
334.7947, 1354.349
335.2768, 1353.935
335.7589, 1371.559
336.2411, 1397.613
336.7232, 1406.607
337.2053, 1393.377
337.6874, 1377.958
338.1695, 1369.963
338.6516, 1370.459
339.1338, 1369.662
339.6159, 1367.194
340.0980, 1363.758
340.5801, 1359.289
341.0622, 1353.195
341.5443, 1351.373
342.0265, 1360.427
342.5086, 1378.108
342.9907, 1381.611
343.4728, 1368.361
343.9549, 1350.907
344.4370, 1344.100
344.9192, 1347.276
345.4013, 1354.394
345.8834, 1365.516
346.3655, 1378.425
346.8476, 1387.593
347.3297, 1393.036
347.8119, 1393.950
348.2940, 1387.278
348.7761, 1375.065
349.2582, 1363.242
349.7403, 1351.508
350.2225, 1342.670
350.7046, 1341.907
351.1867, 1348.506
351.6688, 1357.045
352.1509, 1367.632
352.6331, 1376.648
353.1152, 1377.624
353.5973, 1365.736
354.0794, 1351.868
354.5615, 1345.566
355.0436, 1345.238
355.5258, 1346.048
356.0079, 1347.124
356.4900, 1347.181
356.9721, 1343.768
357.4542, 1334.360
357.9363, 1328.771
358.4185, 1336.237
358.9006, 1350.854
359.3827, 1362.410
359.8648, 1367.900
360.3469, 1368.527
360.8290, 1362.706
361.3112, 1348.931
361.7933, 1338.984
362.2754, 1336.579
362.7575, 1339.837
363.2396, 1346.749
363.7217, 1366.058
364.2039, 1379.703
364.6860, 1381.007
365.1681, 1369.744
365.6502, 1358.869
366.1323, 1345.029
366.6144, 1334.858
367.0966, 1333.037
367.5787, 1350.478
368.0608, 1362.997
368.5429, 1366.557
369.0250, 1363.215
369.5071, 1363.861
369.9893, 1374.244
370.4714, 1381.947
370.9535, 1379.884
371.4356, 1360.976
371.9177, 1348.482
372.3998, 1343.623
372.8820, 1344.857
373.3641, 1350.067
373.8462, 1361.878
374.3283, 1370.810
374.8104, 1372.254
375.2925, 1365.515
375.7747, 1358.796
376.2568, 1350.917
376.7389, 1345.268
377.2210, 1348.091
377.7031, 1360.067
378.1852, 1370.881
378.6674, 1378.460
379.1495, 1382.329
379.6316, 1378.752
380.1137, 1366.958
380.5958, 1354.973
381.0779, 1350.113
381.5601, 1351.562
382.0422, 1356.199
382.5243, 1365.493
383.0064, 1374.908
383.4885, 1376.222
383.9706, 1370.189
384.4528, 1362.291
384.9349, 1352.281
385.4170, 1343.804
385.8991, 1344.175
386.3812, 1356.838
386.8633, 1370.721
387.3455, 1373.164
387.8276, 1368.791
388.3097, 1368.239
388.7918, 1385.875
389.2739, 1403.708
389.7560, 1405.002
390.2382, 1387.184
390.7203, 1368.527
391.2024, 1358.034
391.6845, 1352.445
392.1666, 1347.895
392.6487, 1340.676
393.1309, 1336.645
393.6130, 1341.427
394.0951, 1353.856
394.5772, 1360.450
395.0593, 1352.235
395.5414, 1340.620
396.0236, 1332.794
396.5057, 1328.919
396.9878, 1329.850
397.4699, 1338.821
397.9520, 1353.124
398.4341, 1364.217
398.9163, 1371.876
399.3984, 1376.521
399.8805, 1377.848
400.3626, 1374.485
400.8447, 1371.945
401.3268, 1370.935
401.8090, 1370.229
402.2911, 1368.402
402.7732, 1366.145
403.2553, 1360.592
403.7374, 1348.158
404.2195, 1329.808
404.7017, 1325.671
405.1838, 1340.358
405.6659, 1356.820
406.1480, 1355.758
406.6301, 1336.758
407.1122, 1329.126
407.5944, 1341.944
408.0765, 1365.226
408.5586, 1374.102
409.0407, 1368.869
409.5228, 1362.015
410.0049, 1362.391
410.4871, 1367.567
410.9692, 1371.392
411.4513, 1373.684
411.9334, 1372.818
412.4155, 1363.066
412.8976, 1347.978
413.3798, 1338.082
413.8619, 1341.270
414.3440, 1350.040
414.8261, 1357.798
415.3082, 1364.352
415.7903, 1368.611
416.2725, 1369.428
416.7546, 1367.777
417.2367, 1364.586
417.7188, 1356.238
418.2009, 1350.797
418.6830, 1356.547
419.1652, 1369.550
419.6473, 1375.124
420.1294, 1356.669
420.6115, 1338.166
421.0937, 1334.055
421.5758, 1356.185
422.0579, 1371.379
422.5400, 1369.908
423.0221, 1360.113
423.5042, 1355.683
423.9864, 1363.522
424.4685, 1369.506
424.9506, 1369.397
425.4327, 1362.433
425.9148, 1359.573
426.3969, 1363.639
426.8791, 1368.593
427.3612, 1368.732
427.8433, 1362.081
428.3254, 1356.648
428.8075, 1352.992
429.2896, 1351.543
429.7718, 1354.565
430.2539, 1362.802
430.7360, 1371.518
431.2181, 1380.200
431.7002, 1388.293
432.1823, 1385.390
432.6645, 1368.479
433.1466, 1348.857
433.6287, 1341.417
434.1108, 1344.877
434.5929, 1353.468
435.0750, 1370.706
435.5572, 1389.008
436.0393, 1393.842
436.5214, 1385.625
437.0035, 1373.187
437.4856, 1357.609
437.9677, 1343.894
438.4499, 1340.276
438.9320, 1354.336
439.4141, 1369.609
439.8962, 1373.479
440.3783, 1369.310
440.8604, 1365.887
441.3426, 1368.048
441.8247, 1371.348
442.3068, 1372.589
442.7889, 1370.373
443.2710, 1371.188
443.7531, 1382.030
444.2353, 1394.719
444.7174, 1400.393
445.1995, 1391.698
445.6816, 1382.478
446.1637, 1373.306
446.6458, 1364.659
447.1280, 1361.404
447.6101, 1367.526
448.0922, 1374.661
448.5743, 1377.949
449.0564, 1375.391
449.5385, 1374.344
450.0207, 1375.067
450.5028, 1377.312
450.9849, 1381.575
451.4670, 1388.727
451.9491, 1393.189
452.4312, 1391.491
452.9134, 1384.709
453.3955, 1381.585
453.8776, 1382.491
454.3597, 1384.430
454.8418, 1384.316
455.3239, 1382.686
455.8061, 1381.872
456.2882, 1382.775
456.7703, 1384.126
457.2524, 1383.889
457.7345, 1382.431
458.2166, 1381.240
458.6988, 1381.481
459.1809, 1382.322
459.6630, 1382.480
460.1451, 1381.566
460.6272, 1381.932
461.1093, 1388.353
461.5915, 1395.915
462.0736, 1398.353
462.5557, 1387.104
463.0378, 1376.760
463.5199, 1371.339
464.0020, 1371.038
464.4842, 1376.453
464.9663, 1398.444
465.4484, 1418.236
465.9305, 1425.475
466.4126, 1410.635
466.8947, 1399.396
467.3769, 1391.729
467.8590, 1387.681
468.3411, 1387.572
468.8232, 1392.662
469.3053, 1399.516
469.7874, 1409.070
470.2696, 1420.785
470.7517, 1423.459
471.2338, 1414.974
471.7159, 1403.992
472.1980, 1397.256
472.6801, 1394.724
473.1623, 1394.878
473.6444, 1397.515
474.1265, 1402.676
474.6086, 1414.095
475.0907, 1430.034
475.5728, 1439.252
476.0550, 1429.721
476.5371, 1411.762
477.0192, 1402.421
477.5013, 1402.286
477.9834, 1404.690
478.4655, 1405.010
478.9477, 1404.628
479.4298, 1405.404
479.9119, 1408.927
480.3940, 1412.439
480.8761, 1414.824
481.3582, 1416.100
481.8404, 1416.270
482.3225, 1412.184
482.8046, 1409.590
483.2867, 1412.387
483.7688, 1423.960
484.2509, 1430.274
484.7331, 1426.051
485.2152, 1418.132
485.6973, 1412.533
486.1794, 1408.851
486.6615, 1408.511
487.1436, 1413.785
487.6258, 1422.654
488.1079, 1425.010
488.5900, 1419.109
489.0721, 1411.435
489.5542, 1404.599
490.0363, 1398.541
490.5185, 1396.120
491.0006, 1397.948
491.4827, 1401.691
491.9648, 1404.253
492.4470, 1405.977
492.9291, 1408.693
493.4112, 1412.909
493.8933, 1418.492
494.3754, 1427.403
494.8575, 1438.660
495.3397, 1445.556
495.8218, 1438.595
496.3039, 1427.499
496.7860, 1423.931
497.2681, 1431.666
497.7502, 1438.544
498.2324, 1435.887
498.7145, 1429.120
499.1966, 1425.568
499.6787, 1429.072
500.1608, 1434.450
500.6429, 1442.952
501.1251, 1453.878
501.6072, 1457.245
502.0893, 1446.124
502.5714, 1432.888
503.0535, 1422.741
503.5356, 1414.719
504.0178, 1412.464
504.4999, 1417.947
504.9820, 1427.451
505.4641, 1437.370
505.9462, 1449.344
506.4283, 1452.361
506.9105, 1438.928
507.3926, 1415.059
507.8747, 1405.933
508.3568, 1412.150
508.8389, 1421.975
509.3210, 1427.516
509.8032, 1429.987
510.2853, 1433.396
510.7674, 1438.874
511.2495, 1442.582
511.7316, 1438.803
512.2137, 1430.414
512.6959, 1423.341
513.1780, 1419.493
513.6601, 1418.185
514.1422, 1419.890
514.6243, 1424.202
515.1064, 1428.456
515.5886, 1431.096
516.0707, 1433.732
516.5528, 1437.835
517.0349, 1446.608
517.5170, 1450.611
517.9991, 1445.006
518.4813, 1435.657
518.9634, 1429.709
519.4455, 1427.353
519.9276, 1428.274
520.4097, 1433.772
520.8918, 1442.779
521.3740, 1449.299
521.8561, 1453.651
522.3382, 1454.461
522.8203, 1448.226
523.3024, 1435.716
523.7845, 1429.761
524.2667, 1431.671
524.7488, 1437.856
525.2309, 1446.424
525.7130, 1456.110
526.1951, 1462.312
526.6772, 1462.574
527.1594, 1459.497
527.6415, 1455.051
528.1236, 1449.591
528.6057, 1444.564
529.0878, 1439.321
529.5699, 1435.853
530.0521, 1436.067
530.5342, 1440.781
531.0163, 1446.499
531.4984, 1454.884
531.9805, 1462.568
532.4626, 1466.027
532.9448, 1460.886
533.4269, 1456.051
533.9090, 1451.295
534.3911, 1447.431
534.8732, 1448.630
535.3553, 1459.016
535.8375, 1466.667
536.3196, 1464.301
536.8017, 1451.037
537.2838, 1447.534
537.7659, 1456.349
538.2480, 1466.382
538.7302, 1462.490
539.2123, 1447.340
539.6944, 1440.320
540.1765, 1447.817
540.6586, 1461.223
541.1407, 1469.799
541.6229, 1474.299
542.1050, 1477.614
542.5871, 1481.140
543.0692, 1484.282
543.5513, 1486.511
544.0334, 1487.780
544.5156, 1488.246
544.9977, 1487.246
545.4798, 1485.893
545.9619, 1485.043
546.4440, 1484.703
546.9261, 1485.104
547.4083, 1488.847
547.8904, 1492.815
548.3725, 1490.967
548.8546, 1478.185
549.3367, 1467.960
549.8188, 1463.696
550.3010, 1465.040
550.7831, 1468.700
551.2652, 1475.688
551.7473, 1481.631
552.2294, 1482.503
552.7115, 1478.893
553.1937, 1476.199
553.6758, 1474.536
554.1579, 1475.080
554.6400, 1481.782
555.1221, 1492.160
555.6042, 1498.711
556.0864, 1494.580
556.5685, 1489.808
557.0506, 1497.203
557.5327, 1513.076
558.0148, 1523.570
558.4969, 1517.731
558.9791, 1507.578
559.4612, 1499.740
559.9433, 1494.914
560.4254, 1492.586
560.9075, 1494.497
561.3896, 1497.882
561.8718, 1500.206
562.3539, 1499.790
562.8360, 1501.517
563.3181, 1507.894
563.8002, 1515.592
564.2823, 1515.397
564.7645, 1505.290
565.2466, 1496.394
565.7287, 1493.615
566.2108, 1495.711
566.6929, 1496.485
567.1750, 1495.839
567.6572, 1495.967
568.1393, 1501.708
568.6214, 1509.046
569.1035, 1507.885
569.5856, 1494.226
570.0677, 1481.973
570.5499, 1484.780
571.0320, 1496.088
571.5141, 1505.500
571.9962, 1506.839
572.4783, 1507.923
572.9604, 1514.122
573.4426, 1523.603
573.9247, 1526.885
574.4068, 1511.105
574.8889, 1499.349
575.3710, 1503.037
575.8531, 1527.346
576.3353, 1538.351
576.8174, 1529.220
577.2995, 1516.764
577.7816, 1519.219
578.2637, 1538.598
578.7458, 1550.729
579.2280, 1550.853
579.7101, 1544.569
580.1922, 1540.008
580.6743, 1537.330
581.1564, 1537.442
581.6385, 1545.713
582.1207, 1554.373
582.6028, 1549.718
583.0849, 1533.756
583.5670, 1521.855
584.0491, 1528.669
584.5313, 1539.612
585.0134, 1542.229
585.4955, 1530.944
585.9776, 1523.495
586.4597, 1527.210
586.9418, 1535.932
587.4240, 1542.566
587.9061, 1543.551
588.3882, 1548.049
588.8703, 1560.550
589.3524, 1576.238
589.8345, 1579.813
590.3167, 1568.648
590.7988, 1555.128
591.2809, 1541.921
591.7630, 1530.489
592.2451, 1531.664
592.7272, 1545.894
593.2094, 1561.802
593.6915, 1570.820
594.1736, 1574.602
594.6557, 1575.927
595.1378, 1574.896
595.6199, 1572.798
596.1021, 1570.598
596.5842, 1567.932
597.0663, 1564.264
597.5485, 1552.503
598.0306, 1547.075
598.5127, 1557.176
598.9948, 1578.695
599.4769, 1593.843
599.9590, 1600.854
600.4412, 1602.426
600.9233, 1597.568
601.4054, 1585.509
601.8875, 1578.985
602.3696, 1578.863
602.8517, 1582.298
603.3339, 1588.448
603.8160, 1596.953
604.2981, 1601.594
604.7802, 1600.818
605.2623, 1598.982
605.7444, 1602.097
606.2266, 1608.711
606.7087, 1615.056
607.1908, 1624.543
607.6729, 1628.391
608.1550, 1610.643
608.6371, 1579.909
609.1193, 1563.559
609.6014, 1588.672
610.0835, 1617.115
610.5656, 1629.766
611.0477, 1623.195
611.5298, 1618.242
612.0120, 1615.255
612.4941, 1614.511
612.9762, 1616.808
613.4583, 1623.556
613.9404, 1628.609
614.4225, 1632.429
614.9047, 1633.166
615.3868, 1625.386
615.8689, 1609.989
616.3510, 1599.761
616.8331, 1598.893
617.3152, 1604.460
617.7974, 1614.645
618.2795, 1628.060
618.7616, 1639.837
619.2437, 1648.589
619.7258, 1653.670
620.2079, 1653.831
620.6901, 1649.045
621.1722, 1643.078
621.6543, 1635.090
622.1364, 1627.823
622.6185, 1622.799
623.1006, 1618.226
623.5828, 1620.300
624.0649, 1632.642
624.5470, 1648.311
625.0291, 1659.749
625.5112, 1667.074
625.9933, 1668.575
626.4755, 1661.591
626.9576, 1651.787
627.4397, 1652.689
627.9218, 1662.858
628.4039, 1671.334
