##NAMES=Nalivkinite
##RRUFFID=R070219
##IDEAL CHEMISTRY=Li_2_NaFe^2+^_7_Ti^4+^_2_(Si_4_O_12_)_2_O_2_(OH)_4_F(H_2_O)_2_
##LOCALITY=Dara-i-Pioz (Darai-Piez) Glacier, Alayskiy (Alai; Alay) Range, South Tien-Shan Mts, Garm region, Districts of the Republican Subordination, Tajikistan
##OWNER=RRUFF
##SOURCE=Michael Scott
##DESCRIPTION=Light brown platy crystals
##STATUS=The identification of this mineral has been confirmed only by single crystal X-ray diffraction.
##URL=rruff.info/R070219
197.3914, 23614.82
197.8735, 23629.79
198.3556, 23650.04
198.8378, 23675.05
199.3199, 23707.90
199.8020, 23754.55
200.2841, 23816.14
200.7662, 23869.25
201.2483, 23914.11
201.7305, 23948.33
202.2126, 23959.10
202.6947, 23938.13
203.1768, 23924.62
203.6589, 23943.71
204.1410, 23998.59
204.6232, 24065.54
205.1053, 24152.12
205.5874, 24245.28
206.0695, 24295.25
206.5516, 24287.96
207.0337, 24274.41
207.5159, 24293.58
207.9980, 24354.66
208.4801, 24402.09
208.9622, 24424.69
209.4443, 24428.52
209.9264, 24444.40
210.4086, 24476.59
210.8907, 24512.39
211.3728, 24540.13
211.8549, 24555.60
212.3370, 24578.91
212.8191, 24616.83
213.3013, 24666.41
213.7834, 24703.99
214.2655, 24724.01
214.7476, 24741.12
215.2297, 24770.00
215.7118, 24819.00
216.1940, 24855.74
216.6761, 24865.31
217.1582, 24850.37
217.6403, 24875.96
218.1224, 24962.71
218.6045, 25061.97
219.0867, 25124.98
219.5688, 25135.70
220.0509, 25146.81
220.5330, 25169.06
221.0151, 25203.00
221.4972, 25234.42
221.9794, 25261.96
222.4615, 25288.80
222.9436, 25319.28
223.4257, 25356.34
223.9078, 25391.27
224.3899, 25420.74
224.8721, 25444.49
225.3542, 25471.92
225.8363, 25506.81
226.3184, 25542.04
226.8005, 25568.99
227.2827, 25582.67
227.7648, 25597.36
228.2469, 25618.39
228.7290, 25647.72
229.2111, 25664.37
229.6932, 25649.26
230.1754, 25636.68
230.6575, 25680.43
231.1396, 25830.32
231.6217, 25946.87
232.1038, 25979.75
232.5859, 25905.81
233.0681, 25874.92
233.5502, 25906.69
234.0323, 25967.30
234.5144, 26007.82
234.9965, 26015.99
235.4786, 26024.10
235.9608, 26040.68
236.4429, 26065.45
236.9250, 26099.11
237.4071, 26143.95
237.8892, 26196.07
238.3713, 26251.80
238.8535, 26322.29
239.3356, 26377.39
239.8177, 26402.76
240.2998, 26386.38
240.7819, 26386.66
241.2640, 26407.32
241.7462, 26442.46
242.2283, 26482.83
242.7104, 26530.68
243.1925, 26580.37
243.6746, 26635.03
244.1567, 26706.50
244.6389, 26739.07
245.1210, 26710.77
245.6031, 26656.69
246.0852, 26639.87
246.5673, 26675.80
247.0494, 26722.84
247.5316, 26769.11
248.0137, 26817.74
248.4958, 26853.50
248.9779, 26866.95
249.4600, 26872.69
249.9421, 26900.43
250.4243, 26967.16
250.9064, 27025.75
251.3885, 27056.49
251.8706, 27048.98
252.3527, 27046.74
252.8348, 27043.59
253.3170, 27049.39
253.7991, 27088.05
254.2812, 27179.26
254.7633, 27264.94
255.2454, 27325.14
255.7275, 27358.10
256.2097, 27366.68
256.6918, 27336.07
257.1739, 27291.17
257.6560, 27278.90
258.1381, 27308.98
258.6202, 27351.93
259.1024, 27399.04
259.5845, 27451.40
260.0666, 27502.50
260.5487, 27555.98
261.0308, 27605.27
261.5129, 27639.13
261.9951, 27653.05
262.4772, 27661.64
262.9593, 27669.82
263.4414, 27677.70
263.9235, 27683.66
264.4056, 27683.49
264.8878, 27685.46
265.3699, 27708.08
265.8520, 27761.07
266.3341, 27807.34
266.8162, 27829.14
267.2983, 27820.57
267.7805, 27824.59
268.2626, 27843.90
268.7447, 27872.85
269.2268, 27902.29
269.7089, 27931.95
270.1910, 27962.91
270.6732, 27997.00
271.1553, 28034.79
271.6374, 28068.69
272.1195, 28098.65
272.6016, 28124.82
273.0837, 28145.29
273.5659, 28158.98
274.0480, 28172.87
274.5301, 28187.32
275.0122, 28201.92
275.4943, 28233.37
275.9764, 28289.87
276.4586, 28347.79
276.9407, 28361.97
277.4228, 28325.34
277.9049, 28304.65
278.3870, 28329.37
278.8691, 28397.70
279.3513, 28475.61
279.8334, 28571.23
280.3155, 28655.52
280.7976, 28682.83
281.2798, 28650.93
281.7619, 28608.55
282.2440, 28559.64
282.7261, 28510.29
283.2082, 28514.53
283.6903, 28580.66
284.1725, 28669.82
284.6546, 28741.73
285.1367, 28795.82
285.6188, 28830.73
286.1009, 28831.76
286.5830, 28811.77
287.0652, 28834.81
287.5473, 28906.90
288.0294, 28984.75
288.5115, 29013.73
288.9936, 29000.03
289.4757, 28993.76
289.9579, 29013.98
290.4400, 29053.04
290.9221, 29095.53
291.4042, 29142.45
291.8863, 29180.55
292.3684, 29185.56
292.8506, 29166.57
293.3327, 29163.54
293.8148, 29194.71
294.2969, 29246.22
294.7790, 29295.13
295.2611, 29341.63
295.7433, 29382.24
296.2254, 29408.45
296.7075, 29426.37
297.1896, 29453.40
297.6717, 29504.55
298.1538, 29559.41
298.6360, 29582.11
299.1181, 29575.11
299.6002, 29565.35
300.0823, 29571.66
300.5644, 29590.05
301.0465, 29612.97
301.5287, 29637.93
302.0108, 29667.17
302.4929, 29711.12
302.9750, 29765.89
303.4571, 29806.72
303.9392, 29796.50
304.4214, 29768.75
304.9035, 29770.99
305.3856, 29826.42
305.8677, 29895.49
306.3498, 29953.58
306.8319, 29998.59
307.3141, 30024.04
307.7962, 29998.35
308.2783, 29963.69
308.7604, 29965.32
309.2425, 30026.33
309.7246, 30093.93
310.2068, 30137.20
310.6889, 30161.20
311.1710, 30179.71
311.6531, 30185.38
312.1352, 30196.69
312.6173, 30233.01
313.0995, 30309.57
313.5816, 30374.20
314.0637, 30393.77
314.5458, 30385.13
315.0279, 30380.28
315.5100, 30388.86
315.9922, 30406.39
316.4743, 30433.09
316.9564, 30472.07
317.4385, 30507.31
317.9206, 30536.69
318.4027, 30558.45
318.8849, 30570.11
319.3670, 30557.31
319.8491, 30546.34
320.3312, 30549.13
320.8133, 30569.51
321.2954, 30585.70
321.7776, 30579.56
322.2597, 30572.55
322.7418, 30587.52
323.2239, 30647.52
323.7060, 30710.07
324.1881, 30769.48
324.6703, 30826.33
325.1524, 30869.07
325.6345, 30890.78
326.1166, 30900.77
326.5987, 30906.55
327.0808, 30894.67
327.5630, 30894.37
328.0451, 30907.65
328.5272, 30934.62
329.0093, 30980.05
329.4914, 31072.19
329.9735, 31156.20
330.4557, 31191.24
330.9378, 31125.19
331.4199, 31103.30
331.9020, 31159.00
332.3841, 31271.17
332.8662, 31334.59
333.3484, 31328.46
333.8305, 31304.20
334.3126, 31288.42
334.7947, 31283.67
335.2768, 31278.57
335.7589, 31266.90
336.2411, 31257.72
336.7232, 31276.32
337.2053, 31329.31
337.6874, 31390.53
338.1695, 31451.69
338.6516, 31513.52
339.1338, 31563.62
339.6159, 31599.62
340.0980, 31626.57
340.5801, 31653.30
341.0622, 31680.96
341.5443, 31700.03
342.0265, 31697.09
342.5086, 31677.08
342.9907, 31692.55
343.4728, 31749.70
343.9549, 31817.52
344.4370, 31861.03
344.9192, 31881.05
345.4013, 31884.74
345.8834, 31858.20
346.3655, 31821.44
346.8476, 31835.34
347.3297, 31901.07
347.8119, 31979.68
348.2940, 32047.13
348.7761, 32099.54
349.2582, 32121.53
349.7403, 32092.90
350.2225, 32048.92
350.7046, 32036.77
351.1867, 32054.67
351.6688, 32089.81
352.1509, 32145.25
352.6331, 32208.88
353.1152, 32262.01
353.5973, 32298.00
354.0794, 32327.23
354.5615, 32363.31
355.0436, 32401.19
355.5258, 32425.45
356.0079, 32413.63
356.4900, 32392.23
356.9721, 32382.95
357.4542, 32388.96
357.9363, 32407.74
358.4185, 32439.16
358.9006, 32482.26
359.3827, 32535.32
359.8648, 32634.74
360.3469, 32714.59
360.8290, 32727.25
361.3112, 32657.61
361.7933, 32603.64
362.2754, 32592.49
362.7575, 32614.11
363.2396, 32657.78
363.7217, 32773.27
364.2039, 32857.89
364.6860, 32872.14
365.1681, 32814.74
365.6502, 32766.10
366.1323, 32721.47
366.6144, 32696.37
367.0966, 32701.81
367.5787, 32752.59
368.0608, 32816.51
368.5429, 32907.19
369.0250, 33014.73
369.5071, 33085.25
369.9893, 33096.00
370.4714, 33096.11
370.9535, 33109.50
371.4356, 33144.96
371.9177, 33173.39
372.3998, 33193.33
372.8820, 33206.67
373.3641, 33215.43
373.8462, 33215.54
374.3283, 33221.69
374.8104, 33242.37
375.2925, 33279.68
375.7747, 33308.52
376.2568, 33328.00
376.7389, 33341.24
377.2210, 33345.46
377.7031, 33338.71
378.1852, 33353.66
378.6674, 33416.20
379.1495, 33507.64
379.6316, 33539.73
380.1137, 33506.49
380.5958, 33465.91
381.0779, 33466.95
381.5601, 33506.20
382.0422, 33571.20
382.5243, 33677.16
383.0064, 33785.72
383.4885, 33820.33
383.9706, 33790.39
384.4528, 33762.93
384.9349, 33794.74
385.4170, 33855.98
385.8991, 33896.38
386.3812, 33905.00
386.8633, 33904.80
387.3455, 33910.60
387.8276, 33923.66
388.3097, 33947.13
388.7918, 34001.20
389.2739, 34054.22
389.7560, 34073.08
390.2382, 34051.70
390.7203, 34039.31
391.2024, 34078.45
391.6845, 34135.69
392.1666, 34172.99
392.6487, 34156.68
393.1309, 34137.46
393.6130, 34132.27
394.0951, 34141.11
394.5772, 34159.95
395.0593, 34205.76
395.5414, 34249.86
396.0236, 34273.80
396.5057, 34249.72
396.9878, 34235.46
397.4699, 34231.62
397.9520, 34240.86
398.4341, 34271.64
398.9163, 34342.62
399.3984, 34415.93
399.8805, 34481.31
400.3626, 34545.23
400.8447, 34580.41
401.3268, 34575.46
401.8090, 34550.14
402.2911, 34529.38
402.7732, 34509.57
403.2553, 34503.88
403.7374, 34514.71
404.2195, 34542.22
404.7017, 34595.04
405.1838, 34681.98
405.6659, 34771.07
406.1480, 34836.15
406.6301, 34877.54
407.1122, 34898.57
407.5944, 34897.40
408.0765, 34878.68
408.5586, 34842.40
409.0407, 34789.05
409.5228, 34754.86
410.0049, 34777.91
410.4871, 34839.13
410.9692, 34882.95
411.4513, 34900.39
411.9334, 34914.57
412.4155, 34953.14
412.8976, 35010.80
413.3798, 35070.41
413.8619, 35141.48
414.3440, 35201.63
414.8261, 35221.33
415.3082, 35200.25
415.7903, 35174.61
416.2725, 35151.35
416.7546, 35142.80
417.2367, 35163.79
417.7188, 35248.08
418.2009, 35330.41
418.6830, 35376.92
419.1652, 35395.70
419.6473, 35414.70
420.1294, 35442.38
420.6115, 35473.64
421.0937, 35508.81
421.5758, 35557.95
422.0579, 35587.63
422.5400, 35567.72
423.0221, 35531.15
423.5042, 35532.08
423.9864, 35609.44
424.4685, 35682.73
424.9506, 35740.11
425.4327, 35781.83
425.9148, 35788.76
426.3969, 35727.28
426.8791, 35669.32
427.3612, 35689.93
427.8433, 35829.23
428.3254, 35917.19
428.8075, 35913.29
429.2896, 35848.27
429.7718, 35827.57
430.2539, 35856.73
430.7360, 35899.48
431.2181, 35937.96
431.7002, 35972.19
432.1823, 36002.52
432.6645, 36028.97
433.1466, 36051.55
433.6287, 36062.68
434.1108, 36066.61
434.5929, 36086.01
435.0750, 36151.86
435.5572, 36229.49
436.0393, 36248.86
436.5214, 36212.46
437.0035, 36172.63
437.4856, 36165.45
437.9677, 36181.97
438.4499, 36213.66
438.9320, 36273.33
439.4141, 36322.16
439.8962, 36313.95
440.3783, 36271.53
440.8604, 36253.49
441.3426, 36306.41
441.8247, 36375.57
442.3068, 36431.27
442.7889, 36468.33
443.2710, 36500.95
443.7531, 36534.44
444.2353, 36564.70
444.7174, 36587.79
445.1995, 36581.44
445.6816, 36591.35
446.1637, 36631.89
446.6458, 36699.49
447.1280, 36762.61
447.6101, 36834.01
448.0922, 36886.93
448.5743, 36899.20
449.0564, 36840.68
449.5385, 36824.43
450.0207, 36864.82
450.5028, 36938.07
450.9849, 36998.21
451.4670, 37040.25
451.9491, 37092.43
452.4312, 37173.86
452.9134, 37277.88
453.3955, 37354.22
453.8776, 37401.00
454.3597, 37432.37
454.8418, 37452.87
455.3239, 37467.02
455.8061, 37494.05
456.2882, 37543.55
456.7703, 37600.28
457.2524, 37636.02
457.7345, 37657.56
458.2166, 37693.82
458.6988, 37779.71
459.1809, 37880.17
459.6630, 37951.49
460.1451, 37985.61
460.6272, 38022.89
461.1093, 38101.59
461.5915, 38194.29
462.0736, 38265.27
462.5557, 38300.23
463.0378, 38314.13
463.5199, 38303.04
464.0020, 38270.76
464.4842, 38243.51
464.9663, 38223.24
465.4484, 38212.19
465.9305, 38214.18
466.4126, 38258.73
466.8947, 38262.96
467.3769, 38198.82
467.8590, 38106.79
468.3411, 38055.61
468.8232, 38071.71
469.3053, 38075.86
469.7874, 38041.27
470.2696, 37970.96
470.7517, 37923.79
471.2338, 37905.88
471.7159, 37892.58
472.1980, 37854.60
472.6801, 37793.05
473.1623, 37761.99
473.6444, 37771.33
474.1265, 37809.09
474.6086, 37873.46
475.0907, 37957.11
475.5728, 38012.50
476.0550, 37987.92
476.5371, 37928.21
477.0192, 37906.86
477.5013, 37926.40
477.9834, 37959.35
478.4655, 37985.72
478.9477, 38012.52
479.4298, 38050.81
479.9119, 38134.25
480.3940, 38192.20
480.8761, 38158.04
481.3582, 38064.96
481.8404, 38008.86
482.3225, 38058.53
482.8046, 38121.31
483.2867, 38149.61
483.7688, 38121.05
484.2509, 38121.88
484.7331, 38203.67
485.2152, 38294.97
485.6973, 38326.22
486.1794, 38242.92
486.6615, 38194.01
487.1436, 38211.55
487.6258, 38279.68
488.1079, 38322.32
488.5900, 38332.02
489.0721, 38335.99
489.5542, 38343.29
490.0363, 38353.72
490.5185, 38395.22
491.0006, 38477.46
491.4827, 38559.74
491.9648, 38579.20
492.4470, 38546.64
492.9291, 38519.80
493.4112, 38518.30
493.8933, 38533.68
494.3754, 38560.47
494.8575, 38596.28
495.3397, 38624.43
495.8218, 38629.56
496.3039, 38623.77
496.7860, 38618.21
497.2681, 38612.62
497.7502, 38614.77
498.2324, 38625.35
498.7145, 38647.04
499.1966, 38683.68
499.6787, 38753.91
500.1608, 38821.42
500.6429, 38876.49
501.1251, 38919.09
501.6072, 38953.37
502.0893, 38972.20
502.5714, 38989.85
503.0535, 39014.13
503.5356, 39052.55
504.0178, 39078.80
504.4999, 39088.22
504.9820, 39089.43
505.4641, 39098.52
505.9462, 39119.58
506.4283, 39124.81
506.9105, 39093.88
507.3926, 39043.79
507.8747, 39050.22
508.3568, 39115.95
508.8389, 39189.12
509.3210, 39234.28
509.8032, 39257.86
510.2853, 39281.90
510.7674, 39312.95
511.2495, 39327.99
511.7316, 39279.09
512.2137, 39197.77
512.6959, 39148.74
513.1780, 39176.07
513.6601, 39229.84
514.1422, 39289.99
514.6243, 39353.05
515.1064, 39399.13
515.5886, 39402.38
516.0707, 39399.00
516.5528, 39412.49
517.0349, 39459.18
517.5170, 39494.99
517.9991, 39513.22
518.4813, 39519.11
518.9634, 39513.72
519.4455, 39459.78
519.9276, 39462.29
520.4097, 39570.02
520.8918, 39757.59
521.3740, 39867.78
521.8561, 39890.53
522.3382, 39869.25
522.8203, 39812.27
523.3024, 39723.96
523.7845, 39670.40
524.2667, 39654.92
524.7488, 39675.54
525.2309, 39752.52
525.7130, 39868.20
526.1951, 39959.35
526.6772, 39997.76
527.1594, 40008.23
527.6415, 40015.35
528.1236, 40018.47
528.6057, 40014.65
529.0878, 39977.71
529.5699, 39949.31
530.0521, 39966.24
530.5342, 40042.68
531.0163, 40121.27
531.4984, 40209.30
531.9805, 40279.96
532.4626, 40305.42
532.9448, 40220.23
533.4269, 40163.32
533.9090, 40154.23
534.3911, 40185.11
534.8732, 40228.02
535.3553, 40291.93
535.8375, 40352.43
536.3196, 40402.44
536.8017, 40443.43
537.2838, 40450.56
537.7659, 40415.33
538.2480, 40374.42
538.7302, 40369.41
539.2123, 40395.76
539.6944, 40422.70
540.1765, 40443.75
540.6586, 40462.21
541.1407, 40479.67
541.6229, 40498.11
542.1050, 40524.78
542.5871, 40578.25
543.0692, 40632.11
543.5513, 40652.16
544.0334, 40637.05
544.5156, 40640.64
544.9977, 40715.36
545.4798, 40803.54
545.9619, 40857.98
546.4440, 40842.36
546.9261, 40833.73
547.4083, 40848.35
547.8904, 40875.36
548.3725, 40894.79
548.8546, 40901.38
549.3367, 40908.58
549.8188, 40915.70
550.3010, 40924.36
550.7831, 40961.89
551.2652, 41041.30
551.7473, 41106.29
552.2294, 41099.91
552.7115, 41031.84
553.1937, 41000.95
553.6758, 41018.12
554.1579, 41059.81
554.6400, 41106.70
555.1221, 41155.64
555.6042, 41196.34
556.0864, 41218.29
556.5685, 41238.02
557.0506, 41270.77
557.5327, 41314.57
558.0148, 41361.80
558.4969, 41426.57
558.9791, 41480.36
559.4612, 41497.38
559.9433, 41464.36
560.4254, 41450.59
560.9075, 41477.39
561.3896, 41524.20
561.8718, 41573.69
562.3539, 41635.69
562.8360, 41684.17
563.3181, 41718.66
563.8002, 41737.41
564.2823, 41726.04
564.7645, 41672.04
565.2466, 41646.68
565.7287, 41699.43
566.2108, 41805.59
566.6929, 41826.68
567.1750, 41758.76
567.6572, 41691.09
568.1393, 41716.81
568.6214, 41794.12
569.1035, 41833.96
569.5856, 41814.30
570.0677, 41791.23
570.5499, 41831.05
571.0320, 41894.11
571.5141, 41918.01
571.9962, 41815.50
572.4783, 41733.60
572.9604, 41744.13
573.4426, 41831.52
573.9247, 41912.22
574.4068, 41979.46
574.8889, 42030.64
575.3710, 42061.31
575.8531, 42066.27
576.3353, 42078.44
576.8174, 42106.59
577.2995, 42128.71
577.7816, 42116.26
578.2637, 42064.27
578.7458, 42029.99
579.2280, 42018.91
579.7101, 42034.13
580.1922, 42101.42
580.6743, 42209.18
581.1564, 42291.87
581.6385, 42307.24
582.1207, 42286.90
582.6028, 42262.48
583.0849, 42235.74
583.5670, 42218.24
584.0491, 42217.17
584.5313, 42227.90
585.0134, 42246.55
585.4955, 42271.41
585.9776, 42307.59
586.4597, 42369.98
586.9418, 42438.59
587.4240, 42490.82
587.9061, 42534.55
588.3882, 42548.32
588.8703, 42516.26
589.3524, 42456.45
589.8345, 42417.85
590.3167, 42397.97
590.7988, 42411.06
591.2809, 42486.81
591.7630, 42603.90
592.2451, 42630.67
592.7272, 42563.35
593.2094, 42497.93
593.6915, 42526.51
594.1736, 42611.34
594.6557, 42685.48
595.1378, 42739.41
595.6199, 42770.77
596.1021, 42768.66
596.5842, 42744.80
597.0663, 42715.81
597.5485, 42663.27
598.0306, 42632.25
598.5127, 42642.48
598.9948, 42687.77
599.4769, 42741.25
599.9590, 42823.51
600.4412, 42887.22
600.9233, 42912.55
601.4054, 42896.97
601.8875, 42883.74
602.3696, 42870.61
602.8517, 42865.67
603.3339, 42875.68
603.8160, 42900.28
604.2981, 42941.09
604.7802, 43003.52
605.2623, 43062.28
605.7444, 43078.25
606.2266, 43063.41
606.7087, 43047.72
607.1908, 43016.04
607.6729, 43014.75
608.1550, 43132.84
608.6371, 43321.02
609.1193, 43423.21
609.6014, 43263.51
610.0835, 43099.32
610.5656, 43071.36
611.0477, 43211.73
611.5298, 43301.18
612.0120, 43302.35
612.4941, 43280.18
612.9762, 43278.37
613.4583, 43307.11
613.9404, 43315.87
614.4225, 43293.61
614.9047, 43266.83
615.3868, 43278.61
615.8689, 43325.94
616.3510, 43366.54
616.8331, 43382.45
617.3152, 43392.59
617.7974, 43432.63
618.2795, 43494.27
618.7616, 43547.23
619.2437, 43567.03
619.7258, 43577.38
620.2079, 43601.79
620.6901, 43640.89
621.1722, 43660.51
621.6543, 43616.14
622.1364, 43571.28
622.6185, 43570.24
623.1006, 43640.35
623.5828, 43698.81
624.0649, 43746.39
624.5470, 43781.60
625.0291, 43797.45
625.5112, 43787.71
625.9933, 43794.54
626.4755, 43831.91
626.9576, 43881.10
627.4397, 43900.45
627.9218, 43893.37
628.4039, 43885.62
628.8860, 43875.90
629.3682, 43880.27
629.8503, 43942.52
630.3324, 44052.00
630.8145, 44127.41
631.2966, 44093.28
631.7787, 44026.95
632.2609, 43975.02
632.7430, 43937.05
633.2251, 43939.83
633.7072, 44036.52
634.1893, 44146.85
634.6714, 44203.89
635.1536, 44184.20
635.6357, 44158.32
636.1178, 44117.58
636.5999, 44087.46
637.0820, 44128.75
637.5641, 44244.75
638.0463, 44348.54
638.5284, 44417.60
639.0105, 44453.13
639.4926, 44443.04
639.9747, 44395.38
640.4568, 44357.16
640.9390, 44347.63
641.4211, 44366.35
641.9032, 44428.93
642.3853, 44535.88
642.8674, 44617.13
643.3495, 44616.12
643.8317, 44598.53
644.3138, 44611.36
644.7959, 44683.96
645.2780, 44740.46
645.7601, 44776.67
646.2422, 44800.37
646.7244, 44818.66
647.2065, 44829.31
647.6886, 44846.19
648.1707, 44874.02
648.6528, 44905.67
649.1349, 44923.39
649.6171, 44929.80
650.0992, 44943.94
650.5813, 44977.04
651.0634, 45021.21
651.5455, 45079.08
652.0276, 45144.88
652.5098, 45184.69
652.9919, 45153.55
653.4740, 45111.82
653.9561, 45099.51
654.4382, 45126.50
654.9203, 45146.36
655.4025, 45155.99
655.8846, 45154.67
656.3667, 45137.90
656.8488, 45093.19
657.3309, 45070.84
657.8130, 45074.19
658.2952, 45096.86
658.7773, 45134.07
659.2594, 45185.06
659.7415, 45240.73
660.2236, 45309.67
660.7057, 45363.95
661.1879, 45347.41
661.6700, 45281.34
662.1521, 45225.16
662.6342, 45199.05
663.1163, 45199.46
663.5984, 45246.13
664.0806, 45329.21
664.5627, 45373.23
665.0448, 45311.52
665.5269, 45250.30
666.0090, 45236.26
666.4911, 45276.11
666.9733, 45320.00
667.4554, 45382.93
667.9375, 45420.16
668.4196, 45371.00
668.9017, 45239.81
669.3839, 45174.59
669.8660, 45195.05
670.3481, 45251.43
670.8302, 45297.87
671.3123, 45335.77
671.7944, 45369.43
672.2766, 45406.83
672.7587, 45428.82
673.2408, 45399.34
673.7229, 45348.27
674.2050, 45333.52
674.6871, 45415.73
675.1693, 45487.89
675.6514, 45511.42
676.1335, 45498.28
676.6156, 45517.21
677.0977, 45596.55
677.5798, 45642.08
678.0620, 45591.25
678.5441, 45459.18
679.0262, 45405.59
679.5083, 45433.88
679.9904, 45478.17
680.4725, 45482.59
680.9547, 45467.91
681.4368, 45472.80
681.9189, 45503.40
682.4010, 45536.84
682.8831, 45557.11
683.3652, 45572.55
683.8474, 45591.44
684.3295, 45619.61
684.8116, 45645.11
685.2937, 45677.46
685.7758, 45701.19
686.2579, 45687.36
686.7401, 45606.92
687.2222, 45572.82
687.7043, 45620.85
688.1864, 45712.20
688.6685, 45747.27
689.1506, 45729.91
689.6328, 45722.94
690.1149, 45767.45
690.5970, 45830.36
691.0791, 45860.01
691.5612, 45862.07
