##NAMES=Namansilite
##RRUFFID=R070006
##IDEAL CHEMISTRY=NaMn^3+^Si_2_O_6_
##LOCALITY=Hoskins mine, near Grenfell, New South Wales, Australia
##OWNER=RRUFF
##SOURCE=Marcus Origlieri
##DESCRIPTION=Dark red granular, associated with ungarettiite, R050244
##STATUS=The identification of this mineral is confirmed by single-crystal X-ray diffraction and chemical analysis.
##URL=rruff.info/R070006
##MEASURED CHEMISTRY=Na_1.00_(Mn^3+^_0.91_Fe^3+^_0.09_)_Î£=1_Si_2.00_O_6_; trace amounts of Cr and Al
158.3766, 3607.141
158.8587, 3645.324
159.3409, 3647.084
159.8230, 3650.840
160.3051, 3664.472
160.7872, 3688.974
161.2693, 3725.668
161.7514, 3789.845
162.2336, 3856.786
162.7157, 3910.214
163.1978, 3940.384
163.6799, 3972.203
164.1620, 4013.436
164.6441, 4065.266
165.1263, 4129.857
165.6084, 4224.741
166.0905, 4325.471
166.5726, 4409.753
167.0547, 4460.586
167.5368, 4508.736
168.0190, 4576.543
168.5011, 4661.430
168.9832, 4747.295
169.4653, 4822.116
169.9474, 4892.823
170.4295, 4967.467
170.9117, 5049.690
171.3938, 5136.488
171.8759, 5228.468
172.3580, 5325.355
172.8401, 5415.115
173.3222, 5473.724
173.8044, 5519.058
174.2865, 5582.179
174.7686, 5699.901
175.2507, 5832.402
175.7328, 5926.313
176.2149, 5978.090
176.6971, 6016.292
177.1792, 6062.043
177.6613, 6114.372
178.1434, 6171.406
178.6255, 6244.531
179.1076, 6319.135
179.5898, 6369.901
180.0719, 6393.862
180.5540, 6398.440
181.0361, 6385.122
181.5182, 6356.627
182.0003, 6327.669
182.4825, 6322.288
182.9646, 6323.664
183.4467, 6279.149
183.9288, 6172.482
184.4109, 6042.735
184.8930, 5949.038
185.3752, 5890.072
185.8573, 5835.932
186.3394, 5773.090
186.8215, 5699.903
187.3036, 5609.314
187.7857, 5495.902
188.2679, 5369.978
188.7500, 5257.284
189.2321, 5157.450
189.7142, 5057.842
190.1963, 4940.552
190.6784, 4807.988
191.1606, 4701.906
191.6427, 4634.835
192.1248, 4597.221
192.6069, 4567.572
193.0890, 4548.066
193.5712, 4523.133
194.0533, 4473.894
194.5354, 4400.293
195.0175, 4330.471
195.4996, 4270.912
195.9817, 4220.389
196.4639, 4173.702
196.9460, 4129.080
197.4281, 4094.052
197.9102, 4083.922
198.3923, 4101.425
198.8744, 4109.433
199.3566, 4092.358
199.8387, 4052.423
200.3208, 4024.246
200.8029, 4008.799
201.2850, 4003.055
201.7671, 4007.284
202.2493, 4024.661
202.7314, 4034.104
203.2135, 4024.632
203.6956, 3995.054
204.1777, 3976.988
204.6598, 3974.495
205.1420, 3977.722
205.6241, 3968.018
206.1062, 3939.772
206.5883, 3919.372
207.0704, 3919.950
207.5525, 3945.671
208.0347, 3966.105
208.5168, 3980.392
208.9989, 3990.168
209.4810, 3999.826
209.9631, 4011.869
210.4452, 4017.023
210.9274, 4005.765
211.4095, 3967.808
211.8916, 3956.954
212.3737, 3985.888
212.8558, 4036.116
213.3379, 4057.968
213.8201, 4039.060
214.3022, 4017.102
214.7843, 4012.052
215.2664, 4030.306
215.7485, 4044.679
216.2306, 4052.258
216.7128, 4055.440
217.1949, 4064.488
217.6770, 4087.687
218.1591, 4102.229
218.6412, 4089.709
219.1233, 4030.922
219.6055, 3998.943
220.0876, 4009.368
220.5697, 4051.303
221.0518, 4074.927
221.5339, 4073.942
222.0160, 4063.495
222.4982, 4052.855
222.9803, 4041.827
223.4624, 4030.278
223.9445, 4015.565
224.4266, 3999.522
224.9087, 3995.249
225.3909, 4010.906
225.8730, 4027.975
226.3551, 4031.212
226.8372, 4010.014
227.3193, 3998.442
227.8015, 4005.508
228.2836, 4028.810
228.7657, 4037.515
229.2478, 4023.738
229.7299, 4004.365
230.2120, 3992.128
230.6942, 3988.237
231.1763, 3989.312
231.6584, 3996.210
232.1405, 4008.825
232.6226, 4021.195
233.1047, 4039.480
233.5869, 4051.125
234.0690, 4040.821
234.5511, 3983.493
235.0332, 3952.601
235.5153, 3969.800
235.9974, 4035.631
236.4796, 4080.379
236.9617, 4095.955
237.4438, 4097.620
237.9259, 4098.527
238.4080, 4095.446
238.8901, 4098.000
239.3723, 4111.953
239.8544, 4138.447
240.3365, 4148.030
240.8186, 4123.600
241.3007, 4097.800
241.7828, 4108.188
242.2650, 4187.698
242.7471, 4244.093
243.2292, 4249.624
243.7113, 4198.215
244.1934, 4177.928
244.6755, 4204.714
245.1577, 4248.426
245.6398, 4276.246
246.1219, 4278.971
246.6040, 4282.478
247.0861, 4293.894
247.5682, 4314.648
248.0504, 4327.641
248.5325, 4330.428
249.0146, 4327.834
249.4967, 4324.885
249.9788, 4320.545
250.4609, 4317.844
250.9431, 4318.126
251.4252, 4321.832
251.9073, 4322.925
252.3894, 4317.102
252.8715, 4312.655
253.3536, 4322.612
253.8358, 4361.755
254.3179, 4385.136
254.8000, 4374.860
255.2821, 4326.057
255.7642, 4298.904
256.2463, 4301.120
256.7285, 4317.422
257.2106, 4329.396
257.6927, 4333.621
258.1748, 4341.271
258.6569, 4358.019
259.1390, 4385.983
259.6212, 4400.065
260.1033, 4395.444
260.5854, 4382.419
261.0675, 4371.603
261.5496, 4359.730
262.0317, 4358.709
262.5139, 4375.209
262.9960, 4410.477
263.4781, 4439.917
263.9602, 4465.699
264.4423, 4482.516
264.9244, 4481.425
265.4066, 4456.103
265.8887, 4430.665
266.3708, 4408.473
266.8529, 4389.018
267.3350, 4390.224
267.8171, 4418.958
268.2993, 4457.895
268.7814, 4485.931
269.2635, 4501.506
269.7456, 4512.493
270.2277, 4521.283
270.7098, 4527.973
271.1920, 4527.218
271.6741, 4515.613
272.1562, 4502.969
272.6383, 4500.671
273.1204, 4509.978
273.6025, 4524.259
274.0847, 4543.027
274.5668, 4566.244
275.0489, 4586.881
275.5310, 4604.365
276.0131, 4620.947
276.4952, 4642.602
276.9774, 4672.013
277.4595, 4687.369
277.9416, 4675.963
278.4237, 4642.130
278.9058, 4630.514
279.3879, 4645.879
279.8701, 4667.731
280.3522, 4671.803
280.8343, 4656.934
281.3164, 4646.650
281.7986, 4648.230
282.2807, 4659.679
282.7628, 4670.942
283.2449, 4681.857
283.7270, 4692.856
284.2091, 4706.753
284.6913, 4723.274
285.1734, 4732.625
285.6555, 4732.627
286.1376, 4723.403
286.6197, 4698.486
287.1018, 4655.168
287.5840, 4619.348
288.0661, 4627.753
288.5482, 4673.870
289.0303, 4698.929
289.5124, 4680.956
289.9945, 4636.006
290.4767, 4600.544
290.9588, 4574.351
291.4409, 4560.422
291.9230, 4568.527
292.4051, 4593.349
292.8872, 4611.804
293.3694, 4617.829
293.8515, 4614.639
294.3336, 4605.427
294.8157, 4590.300
295.2978, 4577.595
295.7799, 4572.518
296.2621, 4574.706
296.7442, 4584.572
297.2263, 4607.111
297.7084, 4631.243
298.1905, 4637.568
298.6726, 4627.878
299.1548, 4615.924
299.6369, 4608.459
300.1190, 4606.088
300.6011, 4611.415
301.0832, 4628.470
301.5653, 4647.342
302.0475, 4653.667
302.5296, 4650.222
303.0117, 4650.556
303.4938, 4664.220
303.9759, 4686.734
304.4580, 4712.045
304.9402, 4739.884
305.4223, 4769.069
305.9044, 4801.320
306.3865, 4835.042
306.8686, 4863.422
307.3507, 4823.066
307.8329, 4912.299
308.3150, 4974.314
308.7971, 5010.573
309.2792, 4943.948
309.7613, 5010.177
310.2434, 5023.166
310.7256, 5033.974
311.2077, 5118.905
311.6898, 5067.242
312.1719, 5150.997
312.6540, 5180.695
313.1361, 5235.134
313.6183, 5236.005
314.1004, 5253.419
314.5825, 5324.421
315.0646, 5365.751
315.5467, 5360.450
316.0288, 5416.462
316.5110, 5362.934
316.9931, 5405.528
317.4752, 5489.595
317.9573, 5478.003
318.4394, 5515.443
318.9215, 5553.854
319.4037, 5594.921
319.8858, 5637.240
320.3679, 5680.034
320.8500, 5732.783
321.3321, 5804.917
321.8142, 5885.077
322.2964, 5962.300
322.7785, 6037.276
323.2606, 6106.402
323.7427, 6165.011
324.2248, 6212.744
324.7069, 6269.445
325.1891, 6334.290
325.6712, 6410.489
326.1533, 6500.404
326.6354, 6628.476
327.1175, 6743.132
327.5996, 6830.204
328.0818, 6892.595
328.5639, 6974.653
329.0460, 7104.840
329.5281, 7231.875
330.0102, 7324.596
330.4923, 7352.923
330.9745, 7392.674
331.4566, 7451.253
331.9387, 7524.953
332.4208, 7597.264
332.9029, 7668.469
333.3850, 7736.799
333.8672, 7804.441
334.3493, 7881.768
334.8314, 7928.418
335.3135, 7931.030
335.7956, 7907.576
336.2777, 7906.746
336.7599, 7944.102
337.2420, 7967.043
337.7241, 7944.618
338.2062, 7865.156
338.6883, 7811.125
339.1704, 7794.469
339.6526, 7788.054
340.1347, 7741.513
340.6168, 7648.739
341.0989, 7556.494
341.5810, 7490.233
342.0631, 7447.064
342.5453, 7379.999
343.0274, 7284.679
343.5095, 7176.445
343.9916, 7066.974
344.4737, 6956.967
344.9558, 6852.930
345.4380, 6758.108
345.9201, 6670.466
346.4022, 6579.691
346.8843, 6485.523
347.3664, 6392.125
347.8485, 6298.322
348.3307, 6206.190
348.8128, 6123.199
349.2949, 6055.277
349.7770, 5992.961
350.2591, 5914.542
350.7413, 5822.201
351.2234, 5738.992
351.7055, 5693.587
352.1876, 5667.068
352.6697, 5625.151
353.1519, 5554.285
353.6340, 5475.921
354.1161, 5411.978
354.5982, 5358.975
355.0803, 5305.743
355.5624, 5241.663
356.0446, 5175.439
356.5267, 5116.324
357.0088, 5065.991
357.4909, 5022.083
357.9730, 4988.319
358.4551, 4959.589
358.9373, 4926.359
359.4194, 4877.828
359.9015, 4828.167
360.3836, 4785.766
360.8657, 4752.061
361.3478, 4672.175
361.8300, 4720.822
362.3121, 4742.256
362.7942, 4737.937
363.2763, 4630.730
363.7584, 4656.381
364.2405, 4628.788
364.7227, 4599.010
365.2048, 4643.359
365.6869, 4551.118
366.1690, 4594.292
366.6511, 4583.411
367.1332, 4597.270
367.6154, 4557.554
368.0975, 4534.387
368.5796, 4564.810
369.0617, 4565.559
369.5438, 4519.679
370.0259, 4535.110
370.5081, 4440.995
370.9902, 4443.008
371.4723, 4486.496
371.9544, 4443.309
372.4365, 4459.720
372.9186, 4453.433
373.4008, 4343.991
373.8829, 4413.943
374.3650, 4406.315
374.8471, 4319.027
375.3292, 4382.833
375.8113, 4306.527
376.2935, 4280.230
376.7756, 4301.669
377.2577, 4294.324
377.7398, 4292.628
378.2219, 4304.753
378.7040, 4327.895
379.1862, 4334.261
379.6683, 4321.247
380.1504, 4304.562
380.6325, 4300.527
381.1146, 4308.050
381.5967, 4317.645
382.0789, 4328.027
382.5610, 4337.856
383.0431, 4345.344
383.5252, 4350.273
384.0073, 4350.878
384.4894, 4340.858
384.9716, 4325.794
385.4537, 4318.665
385.9358, 4323.553
386.4179, 4333.213
386.9000, 4340.254
387.3821, 4345.374
387.8643, 4350.725
388.3464, 4357.901
388.8285, 4365.638
389.3106, 4370.996
389.7927, 4372.383
390.2748, 4379.078
390.7570, 4405.099
391.2391, 4438.525
391.7212, 4462.524
392.2033, 4465.038
392.6854, 4460.804
393.1675, 4451.444
393.6497, 4437.152
394.1318, 4436.748
394.6139, 4467.868
395.0960, 4509.665
395.5781, 4545.219
396.0602, 4569.291
396.5424, 4588.988
397.0245, 4601.734
397.5066, 4609.596
397.9887, 4623.694
398.4708, 4650.897
398.9529, 4679.743
399.4351, 4706.595
399.9172, 4740.689
400.3993, 4754.970
400.8814, 4735.552
401.3635, 4701.085
401.8456, 4689.868
402.3278, 4714.085
402.8099, 4739.801
403.2920, 4756.354
403.7741, 4763.331
404.2562, 4765.582
404.7383, 4760.387
405.2205, 4755.176
405.7026, 4761.560
406.1847, 4782.271
406.6668, 4792.643
407.1489, 4780.627
407.6310, 4755.601
408.1132, 4754.382
408.5953, 4778.702
409.0774, 4809.132
409.5595, 4833.090
410.0416, 4850.651
410.5237, 4860.037
411.0059, 4858.391
411.4880, 4854.008
411.9701, 4862.493
412.4522, 4880.548
412.9343, 4892.250
413.4164, 4887.999
413.8986, 4872.336
414.3807, 4849.303
414.8628, 4818.276
415.3449, 4788.524
415.8270, 4765.858
416.3091, 4749.276
416.7913, 4737.441
417.2734, 4732.604
417.7555, 4729.876
418.2376, 4734.057
418.7197, 4742.506
419.2018, 4730.900
419.6840, 4660.120
420.1661, 4581.560
420.6482, 4535.182
421.1303, 4552.349
421.6125, 4569.985
422.0946, 4572.077
422.5767, 4564.311
423.0588, 4561.755
423.5409, 4585.458
424.0230, 4597.350
424.5052, 4580.675
424.9873, 4522.480
425.4694, 4475.888
425.9515, 4448.681
426.4336, 4427.940
426.9157, 4394.990
427.3979, 4330.627
427.8800, 4296.277
428.3621, 4318.937
428.8442, 4390.197
429.3263, 4410.111
429.8084, 4364.081
430.2906, 4304.924
430.7727, 4274.332
431.2548, 4273.939
431.7369, 4271.892
432.2190, 4263.581
432.7011, 4253.331
433.1833, 4252.937
433.6654, 4261.774
434.1475, 4264.194
434.6296, 4246.937
435.1117, 4217.167
435.5938, 4191.672
436.0760, 4170.771
436.5581, 4157.066
437.0402, 4159.608
437.5223, 4171.036
438.0044, 4175.696
438.4865, 4162.739
438.9687, 4145.049
439.4508, 4128.637
439.9329, 4115.322
440.4150, 4115.341
440.8971, 4159.463
441.3792, 4205.348
441.8614, 4212.995
442.3435, 4150.811
442.8256, 4099.588
443.3077, 4098.369
443.7898, 4126.065
444.2719, 4144.339
444.7541, 4126.489
445.2362, 4114.326
445.7183, 4130.893
446.2004, 4188.142
446.6825, 4210.138
447.1646, 4163.517
447.6468, 4102.847
448.1289, 4073.940
448.6110, 4101.713
449.0931, 4115.204
449.5752, 4097.495
450.0573, 4059.731
450.5395, 4052.485
451.0216, 4087.481
451.5037, 4122.607
451.9858, 4134.089
452.4679, 4120.326
452.9500, 4102.465
453.4322, 4076.638
453.9143, 4057.938
454.3964, 4078.363
454.8785, 4133.746
455.3606, 4176.317
455.8427, 4182.711
456.3249, 4166.980
456.8070, 4159.200
457.2891, 4158.979
457.7712, 4159.007
458.2533, 4151.973
458.7354, 4141.771
459.2176, 4134.655
459.6997, 4132.798
460.1818, 4132.644
460.6639, 4130.882
461.1460, 4128.654
461.6281, 4128.495
462.1103, 4135.504
462.5924, 4141.866
463.0745, 4142.645
463.5566, 4136.919
464.0387, 4130.428
464.5208, 4113.662
465.0030, 4102.350
465.4851, 4110.566
465.9672, 4173.354
466.4493, 4217.948
466.9314, 4228.160
467.4135, 4211.552
467.8957, 4196.850
468.3778, 4173.299
468.8599, 4165.741
469.3420, 4192.389
469.8241, 4271.552
470.3062, 4309.478
470.7884, 4292.868
471.2705, 4253.293
471.7526, 4232.419
472.2347, 4231.868
472.7168, 4236.609
473.1989, 4242.240
473.6811, 4250.172
474.1632, 4272.030
474.6453, 4308.302
475.1274, 4332.600
475.6095, 4307.715
476.0916, 4255.553
476.5738, 4237.943
477.0559, 4271.254
477.5380, 4313.958
478.0201, 4321.636
478.5022, 4304.397
478.9843, 4284.803
479.4665, 4269.772
479.9486, 4259.046
480.4307, 4250.929
480.9128, 4245.638
481.3949, 4248.940
481.8770, 4280.277
482.3592, 4311.699
482.8413, 4320.606
483.3234, 4282.213
483.8055, 4248.909
484.2876, 4232.255
484.7697, 4227.469
485.2519, 4223.448
485.7340, 4226.230
486.2161, 4222.172
486.6982, 4204.020
487.1803, 4168.599
487.6624, 4146.525
488.1446, 4141.918
488.6267, 4145.194
489.1088, 4149.627
489.5909, 4156.580
490.0730, 4156.011
490.5551, 4144.123
491.0373, 4126.267
491.5194, 4116.786
492.0015, 4115.845
492.4836, 4112.392
492.9658, 4090.459
493.4479, 4061.443
493.9300, 4065.885
494.4121, 4107.871
494.8942, 4148.686
495.3763, 4144.323
495.8585, 4113.933
496.3406, 4091.444
496.8227, 4094.671
497.3048, 4101.597
497.7869, 4091.503
498.2690, 4070.543
498.7512, 4059.193
499.2333, 4081.254
499.7154, 4104.191
500.1975, 4104.870
500.6796, 4070.838
501.1617, 4052.934
501.6439, 4080.852
502.1260, 4120.893
502.6081, 4135.727
503.0902, 4096.901
503.5723, 4072.370
504.0544, 4075.679
504.5366, 4100.724
505.0187, 4116.828
505.5008, 4120.234
505.9829, 4122.938
506.4650, 4130.791
506.9471, 4144.008
507.4293, 4159.634
507.9114, 4177.753
508.3935, 4197.780
508.8756, 4222.734
509.3577, 4250.813
509.8398, 4266.586
510.3220, 4254.664
510.8041, 4238.498
511.2862, 4265.008
511.7683, 4326.590
512.2504, 4380.645
512.7325, 4388.438
513.2147, 4380.491
513.6968, 4391.773
514.1789, 4430.122
514.6610, 4466.932
515.1431, 4490.720
515.6252, 4502.871
516.1074, 4505.023
516.5895, 4468.101
517.0716, 4452.420
517.5537, 4485.596
518.0358, 4559.399
518.5179, 4621.588
519.0001, 4662.948
519.4822, 4699.161
519.9643, 4736.401
520.4464, 4775.254
520.9285, 4812.589
521.4106, 4846.854
521.8928, 4881.808
522.3749, 4921.125
522.8570, 4964.648
523.3391, 5017.059
523.8212, 5086.099
524.3033, 5159.157
524.7855, 5193.805
525.2676, 5192.074
525.7497, 5206.629
526.2318, 5280.966
526.7139, 5392.281
527.1960, 5499.280
527.6782, 5600.221
528.1603, 5690.100
528.6424, 5756.950
529.1245, 5811.644
529.6066, 5868.637
530.0887, 5943.760
530.5709, 6010.074
531.0530, 6043.817
531.5351, 6056.448
532.0172, 6083.341
532.4993, 6150.908
532.9814, 6220.197
533.4636, 6275.365
533.9457, 6313.250
534.4278, 6347.069
534.9099, 6376.748
535.3920, 6402.158
535.8741, 6424.056
536.3563, 6445.503
536.8384, 6452.699
537.3205, 6439.830
537.8026, 6414.977
538.2847, 6396.821
538.7668, 6385.444
539.2490, 6379.996
539.7311, 6392.483
540.2132, 6410.911
540.6953, 6386.154
541.1774, 6317.148
541.6595, 6248.378
542.1417, 6225.512
542.6238, 6226.370
543.1059, 6214.579
543.5880, 6174.808
544.0701, 6135.249
544.5522, 6116.843
545.0344, 6112.342
545.5165, 6107.718
545.9986, 6100.451
546.4807, 6089.780
546.9628, 6073.126
547.4449, 6050.240
547.9271, 6032.419
548.4092, 6028.748
548.8913, 6023.532
549.3734, 6006.273
549.8555, 5962.687
550.3376, 5942.402
550.8198, 5956.089
551.3019, 5982.078
551.7840, 5984.281
552.2661, 5959.467
552.7482, 5938.475
553.2303, 5935.430
553.7125, 5939.582
554.1946, 5915.439
554.6767, 5864.799
555.1588, 5816.424
555.6409, 5791.962
556.1230, 5781.979
556.6052, 5776.903
557.0873, 5778.129
557.5694, 5763.783
558.0515, 5698.462
558.5336, 5614.680
559.0157, 5552.178
559.4979, 5548.143
559.9800, 5541.595
560.4621, 5510.804
560.9442, 5461.693
561.4263, 5412.620
561.9084, 5369.071
562.3906, 5322.517
562.8727, 5264.374
563.3548, 5189.811
563.8369, 5150.221
564.3190, 5168.383
564.8011, 5185.817
565.2833, 5145.315
565.7654, 5041.128
566.2475, 4949.568
566.7296, 4878.515
567.2117, 4827.777
567.6938, 4804.989
568.1760, 4806.512
568.6581, 4808.879
569.1402, 4805.651
569.6223, 4795.009
570.1044, 4771.084
570.5865, 4735.316
571.0687, 4699.979
571.5508, 4675.175
572.0329, 4652.030
572.5150, 4621.366
572.9971, 4578.018
573.4792, 4540.573
573.9614, 4520.845
574.4435, 4507.169
574.9256, 4485.563
575.4077, 4439.537
575.8898, 4406.090
576.3719, 4397.398
576.8541, 4403.374
577.3362, 4386.199
577.8183, 4334.858
578.3004, 4290.259
578.7825, 4272.783
579.2646, 4280.123
579.7468, 4283.917
580.2289, 4284.345
580.7110, 4279.496
581.1931, 4264.546
581.6752, 4242.887
582.1573, 4222.563
582.6395, 4203.098
583.1216, 4191.217
583.6037, 4201.833
584.0858, 4223.661
584.5679, 4236.071
585.0500, 4218.840
585.5322, 4200.892
586.0143, 4201.698
586.4964, 4217.500
586.9785, 4218.755
587.4606, 4175.490
587.9427, 4137.484
588.4249, 4131.512
588.9070, 4172.830
589.3891, 4183.200
589.8712, 4146.862
590.3533, 4100.487
590.8354, 4084.376
591.3176, 4102.524
591.7997, 4113.916
592.2818, 4109.711
592.7639, 4099.470
593.2460, 4103.449
593.7281, 4118.924
594.2103, 4129.523
594.6924, 4129.503
595.1745, 4118.918
595.6566, 4088.303
596.1387, 4041.215
596.6208, 4009.649
597.1030, 4024.525
597.5851, 4053.847
598.0673, 4072.066
598.5494, 4069.642
599.0315, 4073.284
599.5136, 4103.880
599.9957, 4136.655
600.4778, 4143.253
600.9600, 4102.536
601.4421, 4071.233
601.9242, 4056.684
602.4063, 4055.095
602.8884, 4059.144
603.3705, 4071.027
603.8527, 4076.831
604.3348, 4067.051
604.8169, 4046.623
605.2990, 4034.607
605.7811, 4031.094
606.2632, 4033.558
606.7454, 4046.115
607.2275, 4061.500
607.7096, 4067.309
608.1917, 4060.717
608.6738, 4050.336
609.1559, 4040.941
609.6381, 4031.221
610.1202, 4019.390
610.6023, 3993.388
611.0844, 3978.358
611.5665, 3985.490
612.0486, 4008.440
612.5308, 4028.225
613.0129, 4050.279
613.4950, 4060.024
613.9771, 4049.707
614.4592, 4020.322
614.9413, 3994.080
615.4235, 3969.408
615.9056, 3954.799
616.3877, 3968.758
616.8698, 4001.105
617.3519, 3999.010
617.8340, 3951.264
618.3162, 3904.105
618.7983, 3919.696
619.2804, 3966.448
619.7625, 3989.521
620.2446, 3948.300
620.7267, 3908.140
621.2089, 3906.407
621.6910, 3932.865
622.1731, 3962.476
622.6552, 4004.545
623.1373, 4032.678
623.6194, 4031.544
624.1016, 4002.095
624.5837, 3992.724
625.0658, 4016.335
625.5479, 4038.179
626.0300, 4033.300
626.5121, 3998.666
626.9943, 3982.066
627.4764, 3987.525
627.9585, 3999.301
628.4406, 4001.354
628.9227, 3995.156
629.4048, 3984.537
629.8870, 3967.907
630.3691, 3902.481
630.8512, 3963.909
631.3333, 3998.122
631.8154, 4006.581
632.2975, 3912.154
632.7797, 3950.583
633.2618, 3935.769
633.7439, 3918.772
634.2260, 3975.901
634.7081, 3896.438
635.1902, 3952.391
635.6724, 3954.288
636.1545, 3980.926
636.6366, 3953.991
637.1187, 3943.603
637.6008, 3986.804
638.0829, 4000.333
638.5651, 3967.231
639.0472, 3995.441
639.5293, 3914.107
640.0114, 3928.899
640.4935, 3985.166
640.9756, 3954.758
641.4578, 3983.947
641.9399, 3980.629
642.4220, 4018.058
642.9041, 4010.792
643.3862, 3973.202
643.8683, 3950.288
644.3505, 3974.003
644.8326, 3998.020
645.3147, 4000.114
645.7968, 3979.276
646.2789, 3973.542
646.7610, 3992.167
647.2432, 4011.156
647.7253, 3979.335
648.2074, 4040.005
648.6895, 4073.459
649.1716, 4081.160
649.6537, 3985.975
650.1359, 4023.646
650.6180, 4008.074
651.1001, 3990.319
651.5822, 4046.689
652.0643, 3966.468
652.5464, 4021.663
