##NAMES=Namansilite
##RRUFFID=R070006
##IDEAL CHEMISTRY=NaMn^3+^Si_2_O_6_
##LOCALITY=Hoskins mine, near Grenfell, New South Wales, Australia
##OWNER=RRUFF
##SOURCE=Marcus Origlieri
##DESCRIPTION=Dark red granular, associated with ungarettiite, R050244
##STATUS=The identification of this mineral is confirmed by single-crystal X-ray diffraction and chemical analysis.
##URL=rruff.info/R070006
##MEASURED CHEMISTRY=Na_1.00_(Mn^3+^_0.91_Fe^3+^_0.09_)_Î£=1_Si_2.00_O_6_; trace amounts of Cr and Al
155.5403, 3179.255
156.0225, 3196.391
156.5046, 3192.114
156.9867, 3188.668
157.4688, 3207.815
157.9509, 3250.968
158.4330, 3299.167
158.9152, 3354.738
159.3973, 3410.071
159.8794, 3458.740
160.3615, 3500.134
160.8436, 3542.292
161.3257, 3593.286
161.8079, 3653.461
162.2900, 3721.101
162.7721, 3807.495
163.2542, 3894.597
163.7363, 3970.489
164.2184, 4034.143
164.7006, 4094.681
165.1827, 4163.769
165.6648, 4245.090
166.1469, 4322.755
166.6290, 4393.572
167.1111, 4461.576
167.5933, 4528.375
168.0754, 4594.556
168.5575, 4659.158
169.0396, 4720.127
169.5217, 4775.073
170.0038, 4834.107
170.4860, 4904.604
170.9681, 4974.224
171.4502, 5033.023
171.9323, 5080.670
172.4144, 5126.795
172.8965, 5184.852
173.3787, 5262.086
173.8608, 5332.870
174.3429, 5390.127
174.8250, 5446.305
175.3071, 5511.986
175.7892, 5586.919
176.2714, 5659.855
176.7535, 5713.076
177.2356, 5732.822
177.7177, 5769.148
178.1998, 5845.066
178.6819, 5917.227
179.1641, 5957.717
179.6462, 5964.458
180.1283, 5956.916
180.6104, 5960.217
181.0925, 5984.179
181.5746, 5989.856
182.0567, 5968.098
182.5389, 5939.220
183.0210, 5917.333
183.5031, 5902.344
183.9852, 5882.424
184.4673, 5842.265
184.9494, 5773.361
185.4316, 5711.300
185.9137, 5653.308
186.3958, 5602.438
186.8779, 5561.349
187.3600, 5529.638
187.8421, 5504.549
188.3243, 5483.947
188.8064, 5469.543
189.2885, 5452.332
189.7706, 5431.833
190.2527, 5409.521
190.7348, 5382.342
191.2170, 5352.695
191.6991, 5329.754
192.1812, 5325.281
192.6633, 5346.694
193.1454, 5342.654
193.6275, 5294.487
194.1097, 5242.925
194.5918, 5208.390
195.0739, 5190.087
195.5560, 5175.411
196.0381, 5152.705
196.5202, 5120.046
197.0024, 5098.075
197.4845, 5094.814
197.9666, 5092.183
198.4487, 5081.311
198.9308, 5063.493
199.4129, 5044.471
199.8951, 5028.051
200.3772, 5014.011
200.8593, 5009.911
201.3414, 5021.223
201.8235, 5034.565
202.3056, 5049.224
202.7878, 5062.078
203.2699, 5065.492
203.7520, 5052.518
204.2341, 5024.458
204.7162, 5009.658
205.1983, 5009.204
205.6805, 5017.715
206.1626, 5040.594
206.6447, 5071.370
207.1268, 5095.920
207.6089, 5104.701
208.0910, 5100.967
208.5732, 5107.319
209.0553, 5136.701
209.5374, 5160.139
210.0195, 5162.494
210.5016, 5154.563
210.9837, 5158.091
211.4659, 5185.687
211.9480, 5228.754
212.4301, 5253.019
212.9122, 5243.233
213.3943, 5234.475
213.8764, 5233.004
214.3586, 5235.955
214.8407, 5239.226
215.3228, 5241.064
215.8049, 5242.028
216.2870, 5243.517
216.7691, 5244.591
217.2513, 5247.492
217.7334, 5257.855
218.2155, 5268.220
218.6976, 5266.874
219.1797, 5249.714
219.6618, 5227.074
220.1440, 5219.130
220.6261, 5242.923
221.1082, 5252.628
221.5903, 5234.346
222.0724, 5207.516
222.5546, 5191.524
223.0367, 5191.245
223.5188, 5197.792
224.0009, 5197.986
224.4830, 5184.548
224.9651, 5183.334
225.4473, 5206.784
225.9294, 5234.217
226.4115, 5249.627
226.8936, 5250.536
227.3757, 5243.434
227.8578, 5234.827
228.3400, 5223.985
228.8221, 5214.844
229.3042, 5205.874
229.7863, 5199.610
230.2684, 5195.562
230.7505, 5194.878
231.2327, 5202.742
231.7148, 5226.204
232.1969, 5268.324
232.6790, 5290.624
233.1611, 5278.826
233.6432, 5264.873
234.1254, 5263.635
234.6075, 5273.121
235.0896, 5283.436
235.5717, 5286.970
236.0538, 5284.382
236.5359, 5290.535
237.0181, 5311.566
237.5002, 5333.326
237.9823, 5359.133
238.4644, 5382.123
238.9465, 5387.702
239.4286, 5365.826
239.9108, 5324.397
240.3929, 5300.396
240.8750, 5303.262
241.3571, 5312.627
241.8392, 5327.397
242.3213, 5346.826
242.8035, 5372.138
243.2856, 5403.942
243.7677, 5437.686
244.2498, 5462.620
244.7319, 5474.110
245.2140, 5481.382
245.6962, 5478.556
246.1783, 5474.880
246.6604, 5479.481
247.1425, 5494.734
247.6246, 5515.758
248.1067, 5535.903
248.5889, 5560.267
249.0710, 5571.486
249.5531, 5554.644
250.0352, 5537.423
250.5173, 5544.358
250.9994, 5574.721
251.4816, 5603.960
251.9637, 5602.136
252.4458, 5557.508
252.9279, 5533.684
253.4100, 5545.600
253.8921, 5561.817
254.3743, 5567.266
254.8564, 5564.250
255.3385, 5565.256
255.8206, 5583.259
256.3027, 5618.287
256.7849, 5630.164
257.2670, 5579.714
257.7491, 5545.036
258.2312, 5557.326
258.7133, 5597.330
259.1954, 5631.064
259.6776, 5637.435
260.1597, 5622.825
260.6418, 5614.785
261.1239, 5614.066
261.6060, 5620.126
262.0881, 5639.299
262.5703, 5661.876
263.0524, 5676.025
263.5345, 5676.467
264.0166, 5671.519
264.4987, 5680.007
264.9808, 5712.855
265.4630, 5734.429
265.9451, 5730.132
266.4272, 5720.663
266.9093, 5723.399
267.3914, 5741.266
267.8735, 5760.766
268.3557, 5760.414
268.8378, 5732.505
269.3199, 5723.980
269.8020, 5764.113
270.2841, 5805.466
270.7662, 5822.356
271.2484, 5817.578
271.7305, 5813.684
272.2126, 5835.932
272.6947, 5882.366
273.1768, 5905.862
273.6589, 5886.755
274.1411, 5869.399
274.6232, 5869.453
275.1053, 5886.372
275.5874, 5920.103
276.0695, 5983.582
276.5516, 6058.269
277.0338, 6087.505
277.5159, 6052.496
277.9980, 6018.045
278.4801, 6012.684
278.9622, 6024.433
279.4443, 6040.943
279.9265, 6058.836
280.4086, 6079.389
280.8907, 6106.171
281.3728, 6140.032
281.8549, 6170.651
282.3370, 6195.471
282.8192, 6214.217
283.3013, 6224.359
283.7834, 6223.963
284.2655, 6225.901
284.7476, 6244.273
285.2297, 6275.017
285.7119, 6295.908
286.1940, 6299.259
286.6761, 6295.426
287.1582, 6291.543
287.6403, 6271.704
288.1224, 6295.442
288.6046, 6309.480
289.0867, 6314.340
289.5688, 6282.530
290.0509, 6298.072
290.5330, 6294.637
291.0151, 6290.424
291.4973, 6278.024
291.9794, 6268.372
292.4615, 6282.251
292.9436, 6298.419
293.4257, 6296.047
293.9078, 6276.844
294.3900, 6259.703
294.8721, 6257.207
295.3542, 6264.534
295.8363, 6262.383
296.3184, 6244.839
296.8005, 6226.228
297.2827, 6210.102
297.7648, 6196.978
298.2469, 6188.549
298.7290, 6185.601
299.2111, 6186.831
299.6932, 6190.229
300.1754, 6197.916
300.6575, 6203.023
301.1396, 6203.530
301.6217, 6201.848
302.1038, 6198.341
302.5859, 6193.766
303.0681, 6193.187
303.5501, 6203.996
304.0323, 6231.335
304.5144, 6243.393
304.9965, 6227.777
305.4786, 6210.526
305.9607, 6201.355
306.4428, 6201.520
306.9250, 6211.425
307.4071, 6232.748
307.8892, 6263.424
308.3713, 6284.064
308.8534, 6284.518
309.3355, 6285.987
309.8177, 6293.917
310.2998, 6303.790
310.7819, 6307.298
311.2640, 6301.021
311.7461, 6293.778
312.2282, 6305.307
312.7104, 6347.404
313.1925, 6383.599
313.6746, 6419.321
314.1567, 6443.711
314.6388, 6441.981
315.1209, 6416.421
315.6031, 6389.839
316.0852, 6389.201
316.5673, 6417.512
317.0494, 6433.941
317.5315, 6420.466
318.0136, 6414.660
318.4958, 6436.722
318.9779, 6478.365
319.4600, 6520.157
319.9421, 6553.022
320.4242, 6577.443
320.9063, 6592.501
321.3885, 6592.841
321.8706, 6598.623
322.3527, 6619.035
322.8348, 6649.052
323.3169, 6686.376
323.7990, 6732.590
324.2812, 6778.455
324.7633, 6809.532
325.2454, 6827.575
325.7275, 6859.262
326.2096, 6918.033
326.6917, 6985.938
327.1739, 7044.039
327.6560, 7092.321
328.1381, 7135.184
328.6202, 7169.173
329.1023, 7200.432
329.5844, 7239.169
330.0666, 7286.710
330.5487, 7341.832
331.0308, 7409.493
331.5129, 7486.409
331.9950, 7547.222
332.4771, 7583.797
332.9593, 7609.398
333.4414, 7625.067
333.9235, 7635.360
334.4056, 7656.987
334.8877, 7700.400
335.3698, 7758.421
335.8520, 7807.925
336.3341, 7850.917
336.8162, 7883.895
337.2983, 7902.788
337.7804, 7912.874
338.2625, 7919.130
338.7447, 7923.110
339.2268, 7925.311
339.7089, 7926.540
340.1910, 7927.478
340.6731, 7924.661
341.1552, 7927.613
341.6374, 7919.033
342.1195, 7881.837
342.6016, 7824.410
343.0837, 7770.441
343.5658, 7737.672
344.0479, 7722.295
344.5301, 7695.671
345.0122, 7650.550
345.4943, 7603.340
345.9764, 7557.216
346.4585, 7510.280
346.9406, 7456.593
347.4228, 7394.019
347.9049, 7335.499
348.3870, 7305.356
348.8691, 7311.793
349.3512, 7304.193
349.8333, 7266.934
350.3155, 7220.900
350.7976, 7176.821
351.2797, 7134.561
351.7618, 7089.947
352.2439, 7035.426
352.7260, 6976.139
353.2082, 6928.729
353.6903, 6895.021
354.1724, 6868.646
354.6545, 6858.054
355.1366, 6850.271
355.6187, 6821.908
356.1009, 6752.705
356.5830, 6683.948
357.0651, 6654.252
357.5472, 6658.327
358.0293, 6666.817
358.5114, 6673.022
358.9936, 6673.899
359.4757, 6661.144
359.9578, 6631.922
360.4399, 6608.743
360.9220, 6601.585
361.4041, 6601.102
361.8863, 6600.046
362.3684, 6596.623
362.8505, 6583.905
363.3326, 6552.318
363.8147, 6501.553
364.2968, 6472.148
364.7790, 6475.572
365.2611, 6484.681
365.7432, 6492.147
366.2253, 6497.840
366.7074, 6503.859
367.1895, 6511.379
367.6717, 6516.792
368.1538, 6510.896
368.6359, 6481.349
369.1180, 6462.125
369.6001, 6462.423
370.0822, 6465.468
370.5644, 6454.431
371.0465, 6431.890
371.5286, 6418.875
372.0107, 6441.551
372.4928, 6497.802
372.9749, 6520.680
373.4571, 6484.059
373.9392, 6449.407
374.4213, 6440.928
374.9034, 6446.755
375.3855, 6449.144
375.8676, 6439.654
376.3498, 6429.244
376.8319, 6437.129
377.3140, 6464.708
377.7961, 6482.431
378.2782, 6478.822
378.7603, 6464.998
379.2425, 6451.055
379.7246, 6437.068
380.2067, 6427.486
380.6888, 6424.650
381.1709, 6427.465
381.6530, 6435.617
382.1352, 6449.318
382.6173, 6463.458
383.0994, 6475.103
383.5815, 6483.894
384.0636, 6489.735
384.5457, 6492.337
385.0279, 6492.403
385.5100, 6484.777
385.9921, 6475.619
386.4742, 6479.668
386.9563, 6502.929
387.4384, 6531.199
387.9206, 6539.259
388.4027, 6510.438
388.8848, 6501.014
389.3669, 6534.057
389.8490, 6565.572
390.3311, 6559.792
390.8133, 6525.896
391.2954, 6501.132
391.7775, 6514.516
392.2596, 6559.788
392.7417, 6596.893
393.2238, 6620.076
393.7060, 6643.584
394.1881, 6677.895
394.6702, 6709.691
395.1523, 6721.903
395.6344, 6710.584
396.1165, 6695.794
396.5987, 6705.221
397.0808, 6738.240
397.5629, 6752.263
398.0450, 6729.369
398.5271, 6705.965
399.0092, 6705.654
399.4914, 6724.314
399.9735, 6750.726
400.4556, 6790.597
400.9377, 6829.559
401.4198, 6844.882
401.9019, 6838.649
402.3841, 6840.152
402.8662, 6866.294
403.3483, 6903.343
403.8304, 6920.579
404.3125, 6908.762
404.7946, 6907.271
405.2768, 6937.814
405.7589, 6977.389
406.2410, 6996.334
406.7231, 6992.464
407.2052, 6991.915
407.6873, 7022.073
408.1695, 7083.856
408.6516, 7109.428
409.1337, 7055.460
409.6158, 7018.520
410.0979, 7036.143
410.5800, 7080.704
411.0622, 7116.438
411.5443, 7129.570
412.0264, 7127.104
412.5085, 7115.581
412.9906, 7086.942
413.4727, 7079.078
413.9549, 7117.122
414.4370, 7156.713
414.9191, 7180.684
415.4012, 7189.555
415.8833, 7188.840
416.3654, 7176.109
416.8476, 7159.817
417.3297, 7160.190
417.8118, 7180.225
418.2939, 7196.483
418.7760, 7202.000
419.2581, 7196.297
419.7403, 7176.915
420.2224, 7139.534
420.7045, 7108.718
421.1866, 7100.065
421.6687, 7103.721
422.1508, 7107.000
422.6330, 7107.936
423.1151, 7101.118
423.5972, 7080.363
424.0793, 7046.199
424.5614, 7015.056
425.0435, 6979.028
425.5257, 6954.377
426.0078, 6955.345
426.4899, 6968.314
426.9720, 6973.521
427.4541, 6964.151
427.9362, 6947.395
428.4184, 6934.522
428.9005, 6927.504
429.3826, 6917.860
429.8647, 6907.780
430.3468, 6892.949
430.8289, 6866.720
431.3111, 6834.492
431.7932, 6806.850
432.2753, 6788.395
432.7574, 6779.928
433.2395, 6787.602
433.7216, 6815.842
434.2038, 6834.573
434.6859, 6831.066
435.1680, 6817.240
435.6501, 6804.030
436.1322, 6791.764
436.6143, 6780.831
437.0965, 6769.114
437.5786, 6759.866
438.0607, 6760.242
438.5428, 6770.516
439.0249, 6780.050
439.5070, 6781.773
439.9892, 6777.262
440.4713, 6774.047
440.9534, 6765.696
441.4355, 6766.430
441.9176, 6792.167
442.3997, 6822.174
442.8819, 6829.215
443.3640, 6809.687
443.8461, 6784.467
444.3282, 6776.665
444.8103, 6787.790
445.2924, 6796.048
445.7746, 6799.705
446.2567, 6802.170
446.7388, 6804.039
447.2209, 6805.288
447.7030, 6805.898
448.1852, 6805.899
448.6673, 6804.939
449.1494, 6801.462
449.6315, 6795.474
450.1136, 6792.688
450.5957, 6794.277
451.0779, 6798.905
451.5600, 6810.445
452.0421, 6825.230
452.5242, 6828.866
453.0063, 6804.229
453.4884, 6777.073
453.9706, 6771.833
454.4527, 6784.585
454.9348, 6799.356
455.4169, 6810.055
455.8990, 6818.858
456.3811, 6830.355
456.8633, 6849.354
457.3454, 6858.453
457.8275, 6837.830
458.3096, 6823.899
458.7917, 6852.362
459.2738, 6909.697
459.7560, 6952.479
460.2381, 6951.660
460.7202, 6920.209
461.2023, 6900.419
461.6844, 6895.438
462.1665, 6895.443
462.6487, 6907.587
463.1308, 6917.444
463.6129, 6911.856
464.0950, 6892.047
464.5771, 6873.716
465.0592, 6864.586
465.5414, 6865.280
466.0235, 6884.247
466.5056, 6925.747
466.9877, 6951.334
467.4698, 6929.963
467.9519, 6886.024
468.4341, 6875.869
468.9162, 6916.516
469.3983, 6943.826
469.8804, 6917.255
470.3625, 6875.244
470.8446, 6868.868
471.3268, 6901.359
471.8089, 6935.305
472.2910, 6938.985
472.7731, 6915.553
473.2552, 6903.748
473.7373, 6919.316
474.2195, 6928.035
474.7016, 6913.941
475.1837, 6898.125
475.6658, 6904.271
476.1479, 6935.514
476.6300, 6972.437
477.1122, 6996.379
477.5943, 7008.165
478.0764, 7018.271
478.5585, 7030.132
479.0406, 7033.029
479.5227, 7009.928
480.0049, 6977.915
480.4870, 6962.422
480.9691, 6973.123
481.4512, 6984.617
481.9333, 6976.552
482.4154, 6958.779
482.8976, 6951.788
483.3797, 6959.704
483.8618, 6972.635
484.3439, 6983.022
484.8260, 6990.790
485.3081, 6992.698
485.7903, 6971.635
486.2724, 6965.865
486.7545, 7005.828
487.2366, 7057.511
487.7187, 7074.281
488.2008, 7046.072
488.6830, 7008.112
489.1651, 7005.396
489.6472, 7040.111
490.1293, 7063.521
490.6114, 7068.716
491.0935, 7072.287
491.5757, 7081.703
492.0578, 7093.707
492.5399, 7105.170
493.0220, 7116.900
493.5041, 7121.884
493.9862, 7110.196
494.4684, 7087.138
494.9505, 7068.746
495.4326, 7058.458
495.9147, 7048.146
496.3968, 7026.137
496.8789, 6994.562
497.3611, 6989.741
497.8432, 7034.677
498.3253, 7077.644
498.8074, 7102.825
499.2895, 7115.672
499.7716, 7123.122
500.2538, 7127.321
500.7359, 7127.374
501.2180, 7120.431
501.7001, 7105.641
502.1822, 7099.243
502.6643, 7099.648
503.1465, 7111.664
503.6286, 7150.526
504.1107, 7195.062
504.5928, 7216.036
505.0749, 7204.171
505.5570, 7182.982
506.0392, 7169.544
506.5213, 7162.688
507.0034, 7156.362
507.4855, 7148.286
507.9676, 7152.004
508.4497, 7183.509
508.9319, 7237.351
509.4140, 7274.098
509.8961, 7281.483
510.3782, 7288.248
510.8603, 7306.549
511.3424, 7326.014
511.8246, 7332.541
512.3067, 7324.821
512.7888, 7314.061
513.2709, 7310.404
513.7531, 7313.780
514.2352, 7323.553
514.7173, 7344.047
515.1994, 7363.777
515.6815, 7370.801
516.1636, 7380.491
516.6458, 7412.808
517.1279, 7471.159
517.6100, 7527.856
518.0921, 7564.072
518.5742, 7584.285
519.0563, 7595.826
519.5385, 7598.894
520.0206, 7600.109
520.5027, 7601.007
520.9848, 7604.221
521.4669, 7619.529
521.9490, 7650.020
522.4312, 7684.974
522.9133, 7735.524
523.3954, 7780.837
523.8775, 7793.838
524.3596, 7781.321
524.8417, 7778.391
525.3239, 7811.347
525.8060, 7871.210
526.2881, 7926.906
526.7702, 7980.589
527.2523, 8024.170
527.7344, 8043.258
528.2166, 8060.991
528.6987, 8095.750
529.1808, 8146.240
529.6629, 8194.807
530.1450, 8226.248
530.6271, 8255.997
531.1093, 8304.218
531.5914, 8368.735
532.0735, 8439.815
532.5556, 8515.799
533.0377, 8587.701
533.5198, 8640.303
534.0020, 8669.068
534.4841, 8689.696
534.9662, 8701.325
535.4483, 8706.080
535.9304, 8692.904
536.4125, 8675.993
536.8947, 8683.805
537.3768, 8729.960
537.8589, 8789.943
538.3410, 8827.981
538.8231, 8843.482
539.3052, 8846.579
539.7874, 8832.056
540.2695, 8814.849
540.7516, 8811.422
541.2337, 8812.626
541.7158, 8794.771
542.1979, 8736.290
542.6801, 8684.256
543.1622, 8680.233
543.6443, 8697.676
544.1264, 8682.975
544.6085, 8627.152
545.0906, 8575.653
545.5728, 8575.997
546.0549, 8624.806
546.5370, 8636.878
547.0191, 8577.242
547.5012, 8524.541
547.9833, 8487.438
548.4655, 8463.969
548.9476, 8456.123
549.4297, 8462.030
549.9117, 8469.971
550.3939, 8468.000
550.8760, 8461.692
551.3581, 8470.339
551.8402, 8495.849
552.3223, 8509.171
552.8044, 8493.457
553.2866, 8462.888
553.7687, 8443.179
554.2508, 8436.084
554.7329, 8428.667
555.2150, 8413.637
555.6971, 8402.548
556.1793, 8407.050
556.6614, 8422.027
557.1435, 8435.110
557.6256, 8440.426
558.1077, 8439.141
558.5898, 8433.803
559.0720, 8425.048
559.5541, 8408.551
560.0362, 8378.682
560.5183, 8347.502
561.0004, 8319.845
561.4825, 8295.771
561.9647, 8276.253
562.4468, 8265.522
562.9289, 8250.684
563.4110, 8215.854
563.8931, 8171.716
564.3752, 8141.457
564.8574, 8128.986
565.3395, 8119.552
565.8216, 8100.938
566.3037, 8074.315
566.7858, 8049.848
567.2679, 8017.804
567.7501, 8001.624
568.2322, 8027.955
568.7143, 8052.934
569.1964, 8033.440
569.6785, 7973.934
570.1606, 7917.206
570.6428, 7895.182
571.1249, 7893.620
571.6070, 7881.296
572.0891, 7858.012
572.5712, 7841.707
573.0533, 7839.680
573.5355, 7844.344
574.0176, 7849.984
574.4997, 7857.798
574.9818, 7848.603
575.4639, 7801.786
575.9460, 7757.610
576.4282, 7736.521
576.9103, 7731.938
577.3924, 7732.813
577.8745, 7735.306
578.3566, 7740.599
578.8387, 7751.369
579.3209, 7767.602
579.8030, 7779.665
580.2851, 7785.241
580.7672, 7791.389
581.2493, 7815.368
581.7314, 7834.620
582.2136, 7814.304
582.6957, 7743.018
583.1778, 7687.113
583.6599, 7689.817
584.1420, 7713.775
584.6241, 7715.548
585.1063, 7697.502
585.5884, 7685.459
586.0705, 7693.608
586.5526, 7713.052
587.0347, 7725.729
587.5168, 7732.674
587.9990, 7730.017
588.4811, 7704.759
588.9632, 7682.889
589.4453, 7671.478
589.9274, 7671.420
590.4095, 7686.359
590.8917, 7721.561
591.3738, 7755.074
591.8559, 7765.071
592.3380, 7758.280
592.8201, 7751.685
593.3022, 7747.554
593.7844, 7742.181
594.2665, 7731.241
594.7486, 7717.905
595.2307, 7716.323
595.7128, 7744.495
596.1949, 7759.813
596.6771, 7753.229
597.1592, 7740.222
597.6413, 7725.253
598.1234, 7713.248
598.6055, 7714.914
599.0876, 7739.631
599.5698, 7772.282
600.0519, 7788.056
600.5340, 7788.146
601.0161, 7788.006
601.4982, 7789.678
601.9803, 7794.547
602.4625, 7805.686
602.9446, 7821.999
603.4267, 7832.602
603.9088, 7833.301
604.3909, 7833.784
604.8730, 7835.209
605.3552, 7838.435
605.8373, 7848.485
606.3194, 7862.649
606.8015, 7867.335
607.2836, 7848.611
607.7657, 7817.968
608.2479, 7811.629
608.7300, 7834.408
609.2121, 7848.232
609.6942, 7838.852
610.1763, 7824.564
610.6584, 7824.489
611.1406, 7836.025
611.6227, 7844.762
612.1048, 7843.719
612.5869, 7844.754
613.0690, 7861.276
613.5511, 7880.237
614.0333, 7878.350
614.5154, 7853.734
614.9975, 7828.633
615.4796, 7823.740
615.9617, 7836.057
616.4438, 7849.829
616.9260, 7867.864
617.4081, 7878.380
617.8902, 7868.524
618.3723, 7858.475
618.8544, 7871.183
619.3365, 7903.550
619.8187, 7924.811
620.3008, 7919.422
620.7829, 7906.370
621.2650, 7899.642
621.7471, 7894.643
622.2292, 7876.844
622.7114, 7844.275
623.1935, 7819.872
623.6756, 7831.150
624.1577, 7874.686
624.6398, 7896.199
625.1219, 7879.063
625.6041, 7873.310
626.0862, 7907.178
626.5683, 7946.956
627.0504, 7964.613
627.5325, 7960.569
628.0146, 7957.805
628.4968, 7968.608
628.9789, 7981.384
629.4610, 7989.938
629.9431, 7992.104
630.4252, 7979.256
630.9073, 7949.723
631.3895, 7918.600
631.8716, 7901.869
632.3537, 7899.523
632.8358, 7912.173
633.3179, 7949.789
633.8000, 7985.270
634.2822, 8029.113
634.7643, 8056.234
635.2464, 8030.266
635.7285, 7957.140
636.2106, 7904.822
636.6927, 7914.828
637.1749, 7950.542
637.6570, 7990.944
638.1391, 8028.102
638.6212, 8038.097
639.1033, 8014.423
639.5854, 7981.984
640.0676, 7967.473
640.5497, 7970.579
641.0318, 7979.517
641.5139, 8000.328
641.9960, 8016.906
642.4781, 8030.938
642.9603, 8035.902
643.4424, 8016.235
643.9245, 7977.084
644.4066, 7956.959
644.8887, 7993.439
645.3708, 8038.959
645.8530, 8045.767
646.3351, 8026.679
646.8172, 8012.096
647.2993, 8010.407
647.7814, 8016.424
648.2635, 8024.794
648.7457, 8035.854
649.2278, 8056.188
649.7099, 8099.161
