##NAMES=Nambulite
##RRUFFID=R060616
##IDEAL CHEMISTRY=LiMn^2+^_4_Si_5_O_14_(OH)
##LOCALITY=Kombat mine, Kombat, Grootfontein District, Otjozondjupa Region, Namibia
##OWNER=RRUFF
##SOURCE=Michael Scott
##DESCRIPTION=Pink colored fragment of a single crystal associated with gypsum
##STATUS=The identification of this mineral has been confirmed by single-crystal X-ray diffraction.
##URL=rruff.info/R060616
121.9430, 1160.179
122.4251, 1157.999
122.9073, 1154.285
123.3894, 1150.771
123.8715, 1148.105
124.3536, 1146.010
124.8357, 1143.840
125.3178, 1141.500
125.8000, 1139.271
126.2821, 1137.220
126.7642, 1135.361
127.2463, 1133.815
127.7284, 1132.830
128.2105, 1132.070
128.6927, 1130.765
129.1748, 1128.368
129.6569, 1126.307
130.1390, 1126.529
130.6211, 1129.565
131.1032, 1131.709
131.5854, 1130.437
132.0675, 1127.741
132.5496, 1125.264
133.0317, 1123.535
133.5138, 1122.467
133.9959, 1122.031
134.4781, 1123.259
134.9602, 1123.356
135.4423, 1120.886
135.9244, 1117.127
136.4065, 1113.705
136.8886, 1111.581
137.3708, 1110.694
137.8529, 1110.363
138.3350, 1111.435
138.8171, 1112.247
139.2992, 1112.147
139.7813, 1111.433
140.2635, 1110.910
140.7456, 1111.363
141.2277, 1113.032
141.7098, 1113.307
142.1919, 1111.354
142.6740, 1109.022
143.1561, 1106.711
143.6383, 1104.692
144.1204, 1103.895
144.6025, 1105.680
145.0846, 1110.627
145.5667, 1114.197
146.0488, 1115.485
146.5310, 1115.649
147.0131, 1115.604
147.4952, 1115.368
147.9773, 1115.648
148.4594, 1118.075
148.9415, 1122.221
149.4237, 1125.387
149.9058, 1125.330
150.3879, 1123.439
150.8700, 1123.842
151.3521, 1128.503
151.8342, 1133.889
152.3164, 1137.351
152.7985, 1138.968
153.2806, 1139.411
153.7627, 1139.167
154.2448, 1138.245
154.7269, 1136.208
155.2091, 1131.469
155.6912, 1126.702
156.1733, 1123.579
156.6554, 1122.088
157.1375, 1120.781
157.6196, 1117.332
158.1018, 1109.957
158.5839, 1105.827
159.0660, 1108.275
159.5481, 1111.626
160.0302, 1111.952
160.5123, 1108.446
160.9945, 1103.496
161.4766, 1101.352
161.9587, 1104.176
162.4408, 1106.852
162.9229, 1109.411
163.4050, 1111.776
163.8871, 1114.016
164.3693, 1116.154
164.8514, 1117.879
165.3335, 1118.337
165.8156, 1115.789
166.2977, 1114.415
166.7798, 1116.060
167.2620, 1118.904
167.7441, 1119.938
168.2262, 1117.608
168.7083, 1113.281
169.1904, 1110.750
169.6725, 1109.965
170.1547, 1110.416
170.6368, 1113.024
171.1189, 1117.013
171.6010, 1119.603
172.0831, 1119.096
172.5652, 1116.684
173.0474, 1114.996
173.5295, 1113.975
174.0116, 1113.765
174.4937, 1114.827
174.9758, 1117.159
175.4579, 1119.382
175.9401, 1121.133
176.4222, 1122.318
176.9043, 1122.621
177.3864, 1121.692
177.8685, 1120.585
178.3506, 1120.692
178.8328, 1122.277
179.3149, 1124.175
179.7970, 1125.689
180.2791, 1127.450
180.7612, 1130.351
181.2433, 1134.939
181.7255, 1140.007
182.2076, 1142.658
182.6897, 1140.730
183.1718, 1140.363
183.6539, 1144.624
184.1360, 1150.104
184.6181, 1153.010
185.1003, 1151.398
185.5824, 1146.710
186.0645, 1144.101
186.5466, 1145.468
187.0287, 1146.785
187.5108, 1147.767
187.9930, 1148.334
188.4751, 1148.490
188.9572, 1148.254
189.4393, 1147.561
189.9214, 1145.976
190.4035, 1143.180
190.8857, 1139.868
191.3678, 1135.342
191.8499, 1130.456
192.3320, 1126.705
192.8141, 1125.106
193.2962, 1125.324
193.7784, 1124.758
194.2605, 1122.894
194.7426, 1120.996
195.2247, 1119.512
195.7068, 1118.338
196.1889, 1117.041
196.6711, 1115.170
197.1532, 1113.065
197.6353, 1112.236
198.1174, 1113.611
198.5995, 1115.254
199.0816, 1115.999
199.5638, 1115.983
200.0459, 1116.210
200.5280, 1117.561
201.0101, 1119.482
201.4922, 1120.347
201.9743, 1119.308
202.4565, 1118.009
202.9386, 1117.799
203.4207, 1118.697
203.9028, 1120.061
204.3849, 1121.680
204.8670, 1123.554
205.3492, 1125.745
205.8313, 1128.547
206.3134, 1131.314
206.7955, 1133.274
207.2776, 1134.385
207.7597, 1134.873
208.2419, 1133.998
208.7240, 1132.857
209.2061, 1132.523
209.6882, 1133.368
210.1703, 1135.090
210.6524, 1137.495
211.1346, 1141.236
211.6167, 1143.856
212.0988, 1143.829
212.5809, 1142.749
213.0630, 1141.989
213.5451, 1142.056
214.0273, 1142.878
214.5094, 1144.429
214.9915, 1147.362
215.4736, 1149.844
215.9557, 1151.717
216.4378, 1152.979
216.9200, 1153.386
217.4021, 1152.785
217.8842, 1151.787
218.3663, 1152.156
218.8484, 1154.958
219.3305, 1157.708
219.8127, 1160.500
220.2948, 1162.955
220.7769, 1164.645
221.2590, 1165.373
221.7411, 1165.372
222.2232, 1165.289
222.7054, 1163.643
223.1875, 1163.856
223.6696, 1167.759
224.1517, 1173.035
224.6338, 1177.140
225.1159, 1178.962
225.5980, 1178.925
226.0802, 1178.219
226.5623, 1176.361
227.0444, 1174.377
227.5265, 1172.764
228.0086, 1170.940
228.4907, 1167.730
228.9729, 1162.531
229.4550, 1156.649
229.9371, 1153.716
230.4192, 1156.173
230.9013, 1157.565
231.3834, 1155.316
231.8656, 1151.765
232.3477, 1150.860
232.8298, 1154.422
233.3119, 1159.988
233.7940, 1161.814
234.2761, 1158.300
234.7583, 1155.880
235.2404, 1157.181
235.7225, 1160.459
236.2046, 1162.606
236.6867, 1162.453
237.1688, 1161.187
237.6510, 1161.146
238.1331, 1162.742
238.6152, 1163.180
239.0973, 1160.450
239.5794, 1155.954
240.0615, 1152.760
240.5437, 1151.850
241.0258, 1152.123
241.5079, 1152.142
241.9900, 1151.893
242.4721, 1151.933
242.9542, 1152.590
243.4364, 1153.718
243.9185, 1155.120
244.4006, 1157.135
244.8827, 1158.686
245.3648, 1158.227
245.8469, 1156.064
246.3290, 1154.454
246.8112, 1154.421
247.2933, 1155.779
247.7754, 1158.342
248.2575, 1163.171
248.7396, 1167.306
249.2217, 1168.252
249.7039, 1166.661
250.1860, 1164.589
250.6681, 1162.855
251.1502, 1161.467
251.6323, 1160.491
252.1144, 1160.122
252.5966, 1159.872
253.0787, 1159.399
253.5608, 1158.805
254.0429, 1158.300
254.5250, 1157.764
255.0071, 1157.398
255.4893, 1158.034
255.9714, 1159.976
256.4535, 1162.539
256.9356, 1165.212
257.4177, 1168.192
257.8998, 1171.888
258.3820, 1176.732
258.8641, 1182.341
259.3462, 1187.414
259.8283, 1192.016
260.3104, 1195.862
260.7925, 1198.264
261.2747, 1200.186
261.7568, 1203.018
262.2389, 1207.652
262.7210, 1213.276
263.2031, 1217.582
263.6852, 1220.101
264.1674, 1221.964
264.6495, 1223.238
265.1316, 1224.204
265.6137, 1225.038
266.0958, 1225.792
266.5779, 1226.677
267.0601, 1228.295
267.5422, 1231.339
268.0243, 1233.856
268.5064, 1236.326
268.9885, 1237.872
269.4706, 1237.322
269.9528, 1234.330
270.4349, 1230.144
270.9170, 1227.167
271.3991, 1226.112
271.8812, 1224.948
272.3633, 1223.971
272.8455, 1222.584
273.3276, 1219.860
273.8097, 1215.767
274.2918, 1211.632
274.7739, 1209.757
275.2560, 1212.195
275.7382, 1212.458
276.2202, 1208.419
276.7024, 1204.249
277.1845, 1202.784
277.6666, 1204.262
278.1487, 1206.849
278.6308, 1208.382
279.1129, 1208.622
279.5951, 1208.547
280.0772, 1207.658
280.5593, 1206.925
281.0414, 1207.024
281.5235, 1207.841
282.0056, 1208.668
282.4878, 1208.707
282.9699, 1207.684
283.4520, 1207.984
283.9341, 1210.900
284.4162, 1213.697
284.8983, 1215.131
285.3805, 1215.484
285.8626, 1215.675
286.3447, 1216.344
286.8268, 1217.496
287.3089, 1219.546
287.7910, 1222.582
288.2732, 1226.323
288.7553, 1230.977
289.2374, 1236.265
289.7195, 1241.970
290.2016, 1248.126
290.6837, 1254.247
291.1659, 1257.619
291.6480, 1255.646
292.1301, 1253.941
292.6122, 1253.861
293.0943, 1254.467
293.5764, 1254.337
294.0586, 1252.804
294.5407, 1250.342
295.0228, 1248.223
295.5049, 1246.845
295.9870, 1245.340
296.4691, 1243.044
296.9513, 1240.887
297.4334, 1240.372
297.9155, 1241.905
298.3976, 1243.792
298.8797, 1243.112
299.3618, 1237.833
299.8440, 1233.626
300.3261, 1230.998
300.8082, 1229.123
301.2903, 1227.314
301.7724, 1225.455
302.2545, 1223.855
302.7367, 1222.944
303.2188, 1223.038
303.7009, 1222.560
304.1830, 1221.157
304.6651, 1219.515
305.1472, 1217.765
305.6294, 1216.077
306.1115, 1214.989
306.5936, 1215.111
307.0757, 1216.551
307.5578, 1216.912
308.0399, 1216.374
308.5221, 1214.823
309.0042, 1211.406
309.4863, 1206.848
309.9684, 1202.947
310.4505, 1200.899
310.9326, 1200.464
311.4148, 1200.078
311.8969, 1198.939
312.3790, 1198.747
312.8611, 1200.648
313.3432, 1203.634
313.8253, 1206.121
314.3075, 1207.379
314.7896, 1207.770
315.2717, 1208.238
315.7538, 1210.095
316.2359, 1210.118
316.7180, 1205.461
317.2001, 1199.981
317.6823, 1198.419
318.1644, 1202.057
318.6465, 1207.868
319.1286, 1211.360
319.6107, 1211.273
320.0928, 1211.571
320.5750, 1211.652
321.0571, 1212.494
321.5392, 1215.663
322.0213, 1220.907
322.5034, 1225.714
322.9855, 1227.390
323.4677, 1225.346
323.9498, 1224.273
324.4319, 1224.546
324.9140, 1225.256
325.3961, 1226.187
325.8782, 1227.197
326.3604, 1228.098
326.8425, 1228.809
327.3246, 1229.292
327.8067, 1229.019
328.2888, 1227.696
328.7709, 1226.104
329.2531, 1224.019
329.7352, 1221.885
330.2173, 1220.387
330.6994, 1219.858
331.1815, 1220.105
331.6636, 1220.611
332.1458, 1222.426
332.6279, 1223.166
333.1100, 1222.123
333.5921, 1220.289
334.0742, 1218.219
334.5563, 1216.197
335.0385, 1214.984
335.5206, 1215.990
336.0027, 1221.333
336.4848, 1223.192
336.9669, 1218.762
337.4490, 1213.452
337.9312, 1210.654
338.4133, 1210.538
338.8954, 1211.525
339.3775, 1212.307
339.8596, 1212.959
340.3417, 1212.404
340.8239, 1209.165
341.3060, 1206.410
341.7881, 1205.791
342.2702, 1206.492
342.7523, 1206.701
343.2344, 1205.254
343.7166, 1202.551
344.1987, 1200.560
344.6808, 1199.275
345.1629, 1198.821
345.6450, 1199.800
346.1271, 1201.392
346.6093, 1202.860
347.0914, 1203.895
347.5735, 1204.422
348.0556, 1204.256
348.5377, 1203.171
349.0198, 1201.739
349.5020, 1199.221
349.9841, 1196.961
350.4662, 1196.145
350.9483, 1196.740
351.4304, 1197.673
351.9125, 1197.806
352.3947, 1197.035
352.8768, 1196.155
353.3589, 1195.119
353.8410, 1194.024
354.3231, 1192.181
354.8052, 1190.316
355.2874, 1190.165
355.7695, 1193.316
356.2516, 1198.738
356.7337, 1200.432
357.2158, 1194.347
357.6979, 1189.924
358.1800, 1189.336
358.6621, 1190.962
359.1443, 1193.282
359.6264, 1195.714
360.1085, 1197.986
360.5906, 1199.502
361.0727, 1199.777
361.5548, 1200.583
362.0370, 1202.645
362.5191, 1204.845
363.0012, 1206.588
363.4833, 1207.789
363.9654, 1208.577
364.4475, 1208.845
364.9297, 1208.517
365.4118, 1208.920
365.8939, 1209.918
366.3760, 1211.914
366.8581, 1215.500
367.3402, 1220.128
367.8224, 1224.784
368.3045, 1228.973
368.7866, 1232.666
369.2687, 1235.790
369.7508, 1238.360
370.2329, 1240.269
370.7151, 1241.569
371.1972, 1242.231
371.6793, 1242.178
372.1614, 1241.379
372.6435, 1239.936
373.1256, 1237.512
373.6078, 1233.960
374.0899, 1231.658
374.5720, 1231.766
375.0541, 1232.786
375.5362, 1234.089
376.0183, 1235.491
376.5005, 1235.972
376.9826, 1234.224
377.4647, 1230.919
377.9468, 1228.617
378.4289, 1227.775
378.9110, 1227.244
379.3932, 1226.255
379.8753, 1225.004
380.3574, 1223.905
380.8395, 1223.440
381.3216, 1222.844
381.8037, 1220.987
382.2859, 1217.839
382.7680, 1214.736
383.2501, 1212.245
383.7322, 1210.165
384.2143, 1208.034
384.6964, 1205.745
385.1786, 1203.821
385.6607, 1202.582
386.1428, 1201.963
386.6249, 1202.037
387.1070, 1203.158
387.5891, 1204.047
388.0713, 1202.690
388.5534, 1199.332
389.0355, 1196.711
389.5176, 1195.197
389.9997, 1194.787
390.4818, 1196.202
390.9640, 1199.282
391.4461, 1201.550
391.9282, 1201.026
392.4103, 1198.285
392.8924, 1196.721
393.3745, 1197.075
393.8567, 1197.668
394.3388, 1198.061
394.8209, 1198.201
395.3030, 1197.919
395.7851, 1197.119
396.2672, 1196.025
396.7494, 1194.918
397.2315, 1193.311
397.7136, 1192.966
398.1957, 1194.707
398.6778, 1197.227
399.1599, 1199.407
399.6420, 1201.179
400.1241, 1203.281
400.6063, 1206.513
401.0884, 1210.960
401.5705, 1214.042
402.0526, 1216.293
402.5347, 1216.856
403.0168, 1213.762
403.4990, 1209.154
403.9811, 1206.636
404.4632, 1207.971
404.9453, 1211.573
405.4274, 1213.592
405.9095, 1213.094
406.3917, 1212.492
406.8738, 1210.849
407.3559, 1209.872
407.8380, 1211.158
408.3201, 1214.631
408.8022, 1218.688
409.2844, 1221.792
409.7665, 1223.863
410.2486, 1225.955
410.7307, 1229.330
411.2128, 1231.224
411.6949, 1229.754
412.1771, 1226.486
412.6592, 1224.022
413.1413, 1223.763
413.6234, 1224.581
414.1055, 1223.901
414.5876, 1221.066
415.0698, 1218.722
415.5519, 1218.108
416.0340, 1217.803
416.5161, 1216.733
416.9982, 1214.812
417.4803, 1212.967
417.9625, 1211.893
418.4446, 1211.558
418.9267, 1211.795
419.4088, 1212.929
419.8909, 1214.037
420.3730, 1214.717
420.8552, 1214.938
421.3373, 1214.557
421.8194, 1213.498
422.3015, 1211.850
422.7836, 1209.270
423.2657, 1205.786
423.7479, 1203.272
424.2300, 1203.131
424.7121, 1203.779
425.1942, 1202.395
425.6763, 1198.411
426.1584, 1195.369
426.6406, 1195.591
427.1227, 1197.512
427.6048, 1198.400
428.0869, 1197.754
428.5690, 1196.859
429.0511, 1196.954
429.5333, 1198.040
430.0154, 1198.565
430.4975, 1197.486
430.9796, 1196.819
431.4617, 1198.006
431.9438, 1200.520
432.4260, 1203.238
432.9081, 1205.777
433.3902, 1207.572
433.8723, 1207.170
434.3544, 1202.773
434.8365, 1199.062
435.3187, 1195.851
435.8008, 1193.594
436.2829, 1193.436
436.7650, 1195.030
437.2471, 1196.104
437.7292, 1194.241
438.2114, 1189.298
438.6935, 1186.959
439.1756, 1190.239
439.6577, 1192.814
440.1398, 1192.852
440.6219, 1191.479
441.1040, 1190.171
441.5862, 1189.562
442.0683, 1189.512
442.5504, 1189.811
443.0325, 1190.550
443.5146, 1191.393
443.9967, 1192.331
444.4789, 1193.362
444.9610, 1194.741
445.4431, 1196.273
445.9252, 1197.332
446.4073, 1197.286
446.8894, 1196.422
447.3716, 1195.775
447.8537, 1195.226
448.3358, 1195.184
448.8179, 1196.426
449.3000, 1198.002
449.7821, 1198.825
450.2643, 1198.568
450.7464, 1198.037
451.2285, 1198.048
451.7106, 1198.430
452.1927, 1198.094
452.6748, 1196.292
453.1570, 1194.830
453.6391, 1196.338
454.1212, 1200.094
454.6033, 1202.741
455.0854, 1203.135
455.5675, 1202.360
456.0497, 1200.691
456.5318, 1198.456
457.0139, 1197.333
457.4960, 1198.294
457.9781, 1200.781
458.4602, 1203.575
458.9424, 1208.002
459.4245, 1210.061
459.9066, 1206.687
460.3887, 1201.926
460.8708, 1200.042
461.3529, 1201.564
461.8351, 1204.328
462.3172, 1206.496
462.7993, 1208.069
463.2814, 1208.547
463.7635, 1207.798
464.2456, 1206.196
464.7278, 1202.362
465.2099, 1198.199
465.6920, 1196.614
466.1741, 1198.659
466.6562, 1202.308
467.1383, 1204.006
467.6205, 1202.827
468.1026, 1202.621
468.5847, 1203.236
469.0668, 1205.132
469.5489, 1210.262
470.0310, 1217.027
470.5132, 1221.166
470.9953, 1219.165
471.4774, 1213.680
471.9595, 1211.363
472.4416, 1212.524
472.9237, 1215.780
473.4059, 1224.365
473.8880, 1232.546
474.3701, 1234.439
474.8522, 1229.236
475.3343, 1222.509
475.8164, 1216.792
476.2986, 1212.328
476.7807, 1209.925
477.2628, 1209.899
477.7449, 1210.777
478.2270, 1211.873
478.7091, 1212.995
479.1913, 1213.404
479.6734, 1211.764
480.1555, 1210.840
480.6376, 1212.563
481.1197, 1215.981
481.6018, 1219.229
482.0839, 1221.724
482.5660, 1223.619
483.0482, 1225.148
483.5303, 1226.333
484.0124, 1226.879
484.4945, 1226.463
484.9766, 1225.754
485.4587, 1224.950
485.9409, 1224.143
486.4230, 1223.415
486.9051, 1222.800
487.3872, 1222.362
487.8693, 1222.368
488.3514, 1223.405
488.8336, 1223.764
489.3157, 1223.000
489.7978, 1221.891
490.2799, 1220.749
490.7620, 1219.721
491.2441, 1219.040
491.7263, 1218.902
492.2084, 1219.274
492.6905, 1220.078
493.1726, 1221.607
493.6547, 1222.875
494.1368, 1223.103
494.6190, 1223.045
495.1011, 1223.491
495.5832, 1224.612
496.0653, 1225.919
496.5474, 1227.164
497.0295, 1228.294
497.5117, 1229.053
497.9938, 1229.304
498.4759, 1229.614
498.9580, 1230.820
499.4401, 1232.562
499.9222, 1233.022
500.4044, 1230.684
500.8865, 1228.484
501.3686, 1228.125
501.8507, 1228.966
502.3328, 1229.779
502.8149, 1230.161
503.2971, 1230.130
503.7792, 1229.623
504.2613, 1228.314
504.7434, 1227.767
505.2255, 1228.988
505.7076, 1229.910
506.1898, 1229.135
506.6719, 1227.356
507.1540, 1226.135
507.6361, 1226.314
508.1182, 1227.264
508.6003, 1227.531
509.0825, 1226.936
509.5646, 1226.138
510.0467, 1224.983
510.5288, 1223.821
511.0109, 1222.903
511.4930, 1222.160
511.9752, 1221.284
512.4573, 1219.886
512.9394, 1218.349
513.4215, 1217.545
513.9036, 1217.508
514.3857, 1218.026
514.8679, 1219.774
515.3500, 1221.459
515.8321, 1221.319
516.3142, 1219.135
516.7963, 1216.835
517.2784, 1214.845
517.7606, 1213.406
518.2427, 1213.117
518.7248, 1213.961
519.2069, 1214.834
519.6890, 1214.983
520.1711, 1214.573
520.6533, 1214.418
521.1354, 1214.602
521.6175, 1214.881
522.0996, 1215.595
522.5817, 1216.169
523.0638, 1215.671
523.5460, 1214.167
524.0281, 1212.861
524.5102, 1212.859
524.9923, 1214.144
525.4744, 1216.384
525.9565, 1220.586
526.4387, 1224.427
526.9208, 1227.728
527.4029, 1230.323
527.8850, 1231.797
528.3671, 1232.110
528.8492, 1232.215
529.3314, 1233.472
529.8135, 1235.654
530.2956, 1236.359
530.7777, 1234.978
531.2598, 1233.107
531.7419, 1230.718
532.2241, 1228.716
532.7062, 1228.986
533.1883, 1233.034
533.6704, 1237.035
534.1525, 1238.641
534.6346, 1238.234
535.1168, 1236.400
535.5989, 1233.164
536.0810, 1229.646
536.5631, 1227.084
537.0452, 1225.528
537.5273, 1223.134
538.0095, 1217.681
538.4916, 1213.926
538.9737, 1215.283
539.4558, 1218.879
539.9379, 1220.106
540.4200, 1217.575
540.9022, 1213.939
541.3843, 1213.146
541.8664, 1216.035
542.3485, 1217.022
542.8306, 1213.851
543.3127, 1211.175
543.7948, 1210.649
544.2769, 1211.499
544.7590, 1212.679
545.2411, 1213.908
545.7233, 1214.661
546.2054, 1214.134
546.6875, 1212.392
547.1696, 1210.354
547.6517, 1207.808
548.1339, 1205.648
548.6160, 1204.877
549.0981, 1205.115
549.5802, 1205.394
550.0623, 1205.462
550.5444, 1205.600
551.0266, 1206.157
551.5087, 1206.907
551.9908, 1207.344
552.4729, 1207.315
552.9550, 1206.929
553.4371, 1206.264
553.9193, 1205.218
554.4014, 1204.524
554.8835, 1204.648
555.3656, 1204.571
555.8477, 1203.743
556.3298, 1202.544
556.8120, 1201.517
557.2941, 1200.865
557.7762, 1200.501
558.2583, 1200.232
558.7404, 1199.999
559.2225, 1200.363
559.7047, 1201.628
560.1868, 1203.127
560.6689, 1205.249
561.1510, 1207.201
561.6331, 1207.473
562.1152, 1205.178
562.5974, 1202.309
563.0795, 1200.588
563.5616, 1199.808
564.0437, 1199.122
564.5258, 1198.252
565.0079, 1198.019
565.4901, 1199.644
565.9722, 1202.945
566.4543, 1204.489
566.9364, 1203.070
567.4185, 1201.304
567.9006, 1199.870
568.3828, 1198.823
568.8649, 1198.238
569.3470, 1198.119
569.8291, 1198.314
570.3112, 1198.665
570.7933, 1199.173
571.2755, 1199.839
571.7576, 1200.883
572.2397, 1201.804
572.7218, 1202.398
573.2039, 1202.849
573.6860, 1203.561
574.1682, 1204.604
574.6503, 1205.148
575.1324, 1203.526
575.6145, 1200.558
576.0966, 1200.507
576.5787, 1204.538
577.0609, 1207.833
577.5430, 1206.687
578.0251, 1202.964
578.5072, 1201.154
578.9893, 1201.540
579.4714, 1203.399
579.9536, 1208.507
580.4357, 1213.870
580.9178, 1215.381
581.3999, 1212.867
581.8820, 1209.315
582.3641, 1206.897
582.8463, 1205.458
583.3284, 1204.040
583.8105, 1202.184
584.2926, 1201.065
584.7747, 1201.737
585.2568, 1202.413
585.7390, 1201.103
586.2211, 1198.235
586.7032, 1196.378
587.1853, 1197.835
587.6674, 1201.271
588.1495, 1203.151
588.6317, 1203.382
589.1138, 1202.491
589.5959, 1199.578
590.0780, 1196.631
590.5601, 1196.171
591.0422, 1198.144
591.5244, 1200.101
592.0065, 1201.008
592.4886, 1201.801
592.9707, 1203.467
593.4528, 1205.765
593.9349, 1207.853
594.4171, 1209.370
594.8992, 1210.336
595.3813, 1210.667
595.8634, 1209.746
596.3455, 1210.049
596.8276, 1213.057
597.3098, 1215.551
597.7919, 1215.663
598.2740, 1214.469
598.7561, 1213.665
599.2382, 1213.906
599.7203, 1215.355
600.2025, 1219.030
600.6846, 1224.836
601.1667, 1228.585
601.6488, 1229.578
602.1309, 1229.032
602.6130, 1226.439
603.0952, 1223.068
603.5773, 1221.725
604.0594, 1223.708
604.5415, 1225.971
605.0236, 1226.978
605.5057, 1227.279
605.9879, 1227.701
606.4700, 1228.374
606.9521, 1228.966
607.4342, 1229.137
607.9163, 1228.996
608.3984, 1229.398
608.8806, 1230.523
609.3627, 1231.968
609.8448, 1234.201
610.3269, 1236.338
610.8090, 1237.968
611.2911, 1238.880
611.7733, 1238.580
612.2554, 1236.046
612.7375, 1232.677
613.2196, 1232.247
613.7017, 1235.127
614.1838, 1236.916
614.6660, 1235.849
615.1481, 1233.707
615.6302, 1232.462
616.1123, 1232.053
616.5944, 1231.845
617.0765, 1232.295
617.5587, 1232.363
618.0408, 1230.697
618.5229, 1228.195
