##NAMES=Namibite
##RRUFFID=R100182
##IDEAL CHEMISTRY=Cu^2+^(Bi^3+^O)_2_V^5+^O_4_(OH)
##LOCALITY=Copperopolis, Yavapai County, Arizona, USA
##OWNER=RRUFF
##SOURCE=Joe Ruiz
##DESCRIPTION=Clusters of dark green thin tabular crystals on matrix
##STATUS=The identification of this mineral has been confirmed by single-crystal X-ray diffraction.
##URL=rruff.info/R100182
91.03516, 26.05357
91.51727, 26.00444
91.99939, 25.97720
92.48151, 25.99926
92.96362, 26.14951
93.44574, 26.73731
93.92786, 27.45609
94.40997, 27.57636
94.89210, 26.95043
95.37421, 26.01730
95.85633, 25.32875
96.33845, 24.88124
96.82056, 24.69574
97.30268, 25.00511
97.78480, 25.73012
98.26691, 26.03506
98.74903, 25.73316
99.23115, 25.01093
99.71326, 24.33716
100.1954, 23.69434
100.6775, 23.19109
101.1596, 22.92631
101.6417, 22.92436
102.1239, 23.06410
102.6060, 23.36709
103.0881, 23.82218
103.5702, 24.21707
104.0523, 24.62764
104.5344, 24.89057
105.0166, 24.79100
105.4987, 24.07336
105.9808, 23.44679
106.4629, 23.06901
106.9450, 22.96409
107.4271, 22.99241
107.9093, 23.25067
108.3914, 23.60769
108.8735, 23.87315
109.3556, 24.05202
109.8377, 24.13046
110.3198, 24.05719
110.8020, 23.56249
111.2841, 23.43678
111.7662, 24.16097
112.2483, 25.27911
112.7304, 25.78944
113.2125, 25.28246
113.6947, 24.34488
114.1768, 23.20686
114.6589, 21.23136
115.1410, 19.92043
115.6231, 20.09365
116.1052, 21.36167
116.5874, 22.25075
117.0695, 21.71683
117.5516, 20.86560
118.0337, 20.54790
118.5158, 21.67813
118.9980, 22.78441
119.4801, 23.14310
119.9622, 22.80352
120.4443, 22.38240
120.9264, 22.03174
121.4085, 21.84454
121.8907, 21.93607
122.3728, 22.83573
122.8549, 23.73261
123.3370, 23.78919
123.8191, 22.94903
124.3012, 22.12740
124.7834, 22.04244
125.2655, 22.52150
125.7476, 23.19771
126.2297, 24.01848
126.7118, 24.88883
127.1939, 25.62266
127.6761, 26.17461
128.1582, 26.75992
128.6403, 27.29950
129.1224, 27.94308
129.6045, 29.41277
130.0867, 32.34805
130.5688, 36.50079
131.0509, 40.75349
131.5330, 44.82698
132.0151, 49.45144
132.4972, 55.51848
132.9794, 63.02728
133.4615, 72.64160
133.9436, 84.98765
134.4257, 100.0680
134.9078, 116.3400
135.3899, 133.7938
135.8721, 152.2811
136.3542, 171.6538
136.8363, 191.7253
137.3184, 213.6138
137.8005, 238.2940
138.2826, 266.2899
138.7648, 294.6563
139.2469, 321.8394
139.7290, 348.8524
140.2111, 381.5015
140.6932, 421.0016
141.1753, 464.4153
141.6575, 508.7702
142.1396, 554.7750
142.6217, 600.9896
143.1038, 646.6876
143.5859, 692.1690
144.0681, 739.2243
144.5502, 788.8295
145.0323, 839.4958
145.5144, 890.6193
145.9965, 942.6874
146.4786, 993.9175
146.9608, 1041.906
147.4429, 1085.545
147.9250, 1133.605
148.4071, 1183.920
148.8892, 1239.596
149.3713, 1303.969
149.8535, 1377.411
150.3356, 1460.105
150.8177, 1553.775
151.2998, 1665.202
151.7819, 1772.718
152.2640, 1886.239
152.7462, 1995.329
153.2283, 2078.928
153.7104, 2149.124
154.1925, 2183.023
154.6746, 2170.452
155.1567, 2098.870
155.6389, 2001.907
156.1210, 1866.921
156.6031, 1707.732
157.0852, 1557.093
157.5673, 1415.904
158.0495, 1289.325
158.5316, 1178.658
159.0137, 1086.536
159.4958, 1008.513
159.9779, 945.4324
160.4600, 895.5623
160.9422, 853.2376
161.4243, 818.4128
161.9064, 789.4346
162.3885, 765.4042
162.8706, 747.1918
163.3527, 732.2392
163.8349, 719.0432
164.3170, 707.9001
164.7991, 700.2220
165.2812, 697.7070
165.7633, 698.5119
166.2454, 701.0220
166.7276, 706.0360
167.2097, 711.4448
167.6918, 715.7499
168.1739, 719.1141
168.6560, 723.2112
169.1381, 729.4984
169.6203, 736.6658
170.1024, 738.5425
170.5845, 738.3500
171.0666, 737.4555
171.5487, 734.2764
172.0309, 729.0268
172.5130, 724.1227
172.9951, 722.0157
173.4772, 721.2330
173.9593, 719.4618
174.4414, 715.3691
174.9236, 710.1149
175.4057, 704.7658
175.8878, 699.2675
176.3699, 694.0416
176.8520, 689.5629
177.3341, 685.5506
177.8163, 681.3928
178.2984, 676.8480
178.7805, 672.0164
179.2626, 667.0341
179.7447, 661.9864
180.2268, 656.7579
180.7090, 651.1660
181.1911, 645.3304
181.6732, 639.6836
182.1553, 634.5013
182.6374, 629.6435
183.1195, 624.9568
183.6017, 620.3691
184.0838, 615.9937
184.5659, 611.3679
185.0480, 606.7557
185.5301, 603.3241
186.0123, 602.6318
186.4944, 603.6514
186.9765, 603.0386
187.4586, 600.4485
187.9407, 597.0518
188.4228, 594.4702
188.9050, 592.6279
189.3871, 590.6511
189.8692, 588.3898
190.3513, 585.7426
190.8334, 581.8793
191.3155, 576.5496
191.7977, 570.6280
192.2798, 565.4020
192.7619, 560.8711
193.2440, 556.7159
193.7261, 552.8087
194.2082, 549.1553
194.6904, 545.7612
195.1725, 542.9134
195.6546, 539.7958
196.1367, 534.4625
196.6188, 526.6828
197.1009, 519.4338
197.5831, 514.5280
198.0652, 511.9059
198.5473, 509.4326
199.0294, 507.1172
199.5115, 504.7015
199.9937, 501.4362
200.4758, 497.1949
200.9579, 493.1293
201.4400, 489.9472
201.9221, 487.6918
202.4042, 485.5955
202.8864, 483.5659
203.3685, 481.7086
203.8506, 480.4923
204.3327, 480.1808
204.8148, 479.4858
205.2969, 477.3188
205.7791, 473.3066
206.2612, 470.7073
206.7433, 470.2428
207.2254, 470.8871
207.7075, 469.7440
208.1896, 466.1289
208.6718, 462.7152
209.1539, 461.3022
209.6360, 462.5558
210.1181, 462.2761
210.6002, 459.4261
211.0823, 455.3641
211.5645, 454.2230
212.0466, 457.0459
212.5287, 460.3407
213.0108, 462.3228
213.4929, 462.8622
213.9750, 462.5866
214.4572, 461.0512
214.9393, 458.9203
215.4214, 458.1395
215.9035, 458.9619
216.3856, 460.6159
216.8678, 462.8332
217.3499, 465.9690
217.8320, 468.5671
218.3141, 470.4883
218.7962, 471.8194
219.2783, 472.6006
219.7605, 472.1515
220.2426, 472.3462
220.7247, 474.4184
221.2068, 479.2906
221.6889, 483.2401
222.1710, 485.4131
222.6532, 486.7194
223.1353, 490.1383
223.6174, 496.9178
224.0995, 503.8040
224.5816, 509.1247
225.0637, 512.3880
225.5459, 515.4658
226.0280, 518.3113
226.5101, 521.0492
226.9922, 524.0038
227.4743, 527.4584
227.9564, 530.7263
228.4386, 533.5661
228.9207, 536.0184
229.4028, 537.8232
229.8849, 538.9995
230.3670, 539.5244
230.8492, 539.3159
231.3313, 538.1384
231.8134, 536.5892
232.2955, 534.8163
232.7776, 532.4820
233.2597, 530.7911
233.7419, 529.8068
234.2240, 529.4619
234.7061, 529.5927
235.1882, 530.1625
235.6703, 531.2732
236.1524, 533.0338
236.6346, 535.6995
237.1167, 538.4022
237.5988, 540.8964
238.0809, 543.5128
238.5630, 547.1633
239.0451, 552.3734
239.5273, 557.7841
240.0094, 562.9366
240.4915, 568.0348
240.9736, 572.3377
241.4557, 575.8261
241.9378, 578.5425
242.4200, 580.6331
242.9021, 582.4234
243.3842, 583.0919
243.8663, 582.2332
244.3484, 579.4587
244.8306, 576.4210
245.3127, 573.9232
245.7948, 570.7797
246.2769, 564.4193
246.7590, 552.8162
247.2411, 541.5942
247.7233, 533.0739
248.2054, 528.5175
248.6875, 521.7791
249.1696, 511.7410
249.6517, 500.3545
250.1338, 490.9210
250.6160, 484.3649
251.0981, 478.0607
251.5802, 471.0792
252.0623, 462.9924
252.5444, 456.2853
253.0265, 451.4701
253.5087, 447.6642
253.9908, 443.7047
254.4729, 439.3357
254.9550, 435.2793
255.4371, 431.7188
255.9192, 428.7025
256.4014, 426.0050
256.8835, 423.4735
257.3656, 421.4128
257.8477, 420.2881
258.3298, 420.6891
258.8120, 420.6461
259.2941, 419.2845
259.7762, 416.4221
260.2583, 415.4357
260.7404, 417.0636
261.2225, 419.6266
261.7047, 421.2636
262.1868, 421.4196
262.6689, 422.1040
263.1510, 423.8739
263.6331, 426.6776
264.1152, 429.1765
264.5974, 430.8072
265.0795, 432.9837
265.5616, 437.3726
266.0437, 445.0247
266.5258, 451.5717
267.0079, 455.7934
267.4901, 458.0920
267.9722, 461.7324
268.4543, 467.1420
268.9364, 473.1428
269.4185, 478.6757
269.9006, 483.4613
270.3828, 488.9650
270.8649, 495.3710
271.3470, 502.6968
271.8291, 511.2686
272.3112, 521.4538
272.7933, 532.1642
273.2755, 542.4800
273.7576, 552.2874
274.2397, 562.4013
274.7218, 572.6628
275.2039, 583.3359
275.6860, 595.2401
276.1682, 608.5831
276.6503, 622.7922
277.1324, 637.8321
277.6145, 653.6520
278.0966, 669.2603
278.5787, 684.4595
279.0609, 699.5185
279.5430, 715.1931
280.0251, 731.4119
280.5072, 748.3792
280.9893, 766.7880
281.4715, 786.4861
281.9536, 804.8538
282.4357, 821.3936
282.9178, 837.3355
283.3999, 854.8189
283.8820, 873.8971
284.3642, 893.3731
284.8463, 912.6148
285.3284, 931.7473
285.8105, 951.4847
286.2926, 972.0974
286.7747, 992.7021
287.2569, 1011.936
287.7390, 1029.829
288.2211, 1047.621
288.7032, 1066.208
289.1853, 1085.140
289.6674, 1102.707
290.1496, 1118.943
290.6317, 1134.230
291.1138, 1149.534
291.5959, 1164.637
292.0780, 1177.407
292.5602, 1186.901
293.0423, 1193.841
293.5244, 1200.591
294.0065, 1207.220
294.4886, 1211.366
294.9707, 1211.067
295.4529, 1206.552
295.9350, 1198.615
296.4171, 1186.931
296.8992, 1172.356
297.3813, 1156.494
297.8634, 1139.384
298.3456, 1120.410
298.8277, 1098.769
299.3098, 1075.110
299.7919, 1050.565
300.2740, 1024.772
300.7561, 999.5687
301.2383, 978.7676
301.7204, 961.4305
302.2025, 944.7004
302.6846, 925.8856
303.1667, 906.6497
303.6488, 888.9782
304.1310, 873.2623
304.6131, 859.3983
305.0952, 847.7158
305.5773, 838.0121
306.0594, 829.7769
306.5415, 822.5102
307.0237, 816.6166
307.5058, 812.9215
307.9879, 811.8281
308.4700, 810.8210
308.9521, 807.1530
309.4343, 802.3246
309.9164, 798.8919
310.3985, 798.6436
310.8806, 799.7103
311.3627, 800.8000
311.8448, 801.8584
312.3270, 803.0491
312.8091, 804.3772
313.2912, 805.9254
313.7733, 807.7913
314.2554, 810.3831
314.7375, 812.9823
315.2197, 815.0851
315.7018, 816.7827
316.1839, 818.6918
316.6660, 821.4384
317.1481, 824.3495
317.6302, 826.8879
318.1124, 829.5624
318.5945, 831.0861
319.0766, 830.8350
319.5587, 829.0433
320.0408, 826.5457
320.5229, 822.8975
321.0051, 819.1074
321.4872, 815.7012
321.9693, 812.8096
322.4514, 810.2823
322.9335, 808.8292
323.4156, 807.6697
323.8978, 805.2994
324.3799, 800.2890
324.8620, 795.0475
325.3441, 790.5813
325.8262, 787.5626
326.3083, 783.5597
326.7905, 777.2654
327.2726, 770.2314
327.7547, 764.4501
328.2368, 761.6619
328.7189, 758.3323
329.2010, 753.6100
329.6832, 747.3935
330.1653, 741.4057
330.6474, 735.8496
331.1295, 730.3847
331.6116, 724.7220
332.0938, 719.2585
332.5759, 712.8754
333.0580, 704.9108
333.5401, 695.6649
334.0222, 688.1949
334.5043, 683.9952
334.9865, 679.4205
335.4686, 671.8522
335.9507, 659.4739
336.4328, 649.0596
336.9149, 641.4633
337.3970, 635.6767
337.8792, 629.4197
338.3613, 622.6387
338.8434, 615.3077
339.3255, 607.0159
339.8076, 597.4485
340.2898, 589.3305
340.7719, 582.9926
341.2540, 577.4308
341.7361, 570.8271
342.2182, 563.1411
342.7003, 555.9257
343.1825, 550.0322
343.6646, 545.1678
344.1467, 539.5809
344.6288, 533.0486
345.1109, 526.6647
345.5930, 521.1578
346.0752, 516.6280
346.5573, 513.4663
347.0394, 512.1189
347.5215, 511.8550
348.0036, 510.7122
348.4857, 508.7338
348.9679, 507.5219
349.4500, 508.1252
349.9321, 510.4297
350.4142, 514.2023
350.8963, 519.6308
351.3784, 525.9384
351.8606, 532.1647
352.3427, 538.3433
352.8248, 544.7499
353.3069, 551.5186
353.7890, 558.5361
354.2711, 565.7461
354.7533, 573.1073
355.2354, 580.7404
355.7175, 588.9144
356.1996, 597.3386
356.6817, 605.5048
357.1638, 612.4059
357.6460, 619.5333
358.1281, 627.8983
358.6102, 637.4803
359.0923, 648.3900
359.5744, 660.9427
360.0565, 674.6429
360.5387, 688.9570
361.0208, 702.9385
361.5029, 718.5757
361.9850, 736.1785
362.4671, 755.9600
362.9492, 778.4084
363.4314, 805.2241
363.9135, 833.6397
364.3956, 862.1637
364.8777, 890.5143
365.3598, 919.4540
365.8419, 950.0146
366.3241, 981.0731
366.8062, 1010.746
367.2883, 1040.973
367.7704, 1067.672
368.2526, 1091.239
368.7347, 1112.953
369.2168, 1123.892
369.6989, 1123.970
370.1810, 1113.473
370.6631, 1092.323
371.1453, 1056.554
371.6274, 1015.721
372.1095, 968.9055
372.5916, 916.9058
373.0737, 866.3843
373.5558, 815.5520
374.0380, 768.2010
374.5201, 725.8497
375.0022, 689.2797
375.4843, 656.5865
375.9664, 628.1623
376.4485, 603.2207
376.9307, 579.6133
377.4128, 557.4822
377.8949, 536.9285
378.3770, 518.3781
378.8591, 501.8360
379.3412, 485.9347
379.8234, 470.8315
380.3055, 456.2855
380.7876, 442.2127
381.2697, 428.5185
381.7518, 415.6450
382.2339, 403.6912
382.7161, 392.6705
383.1982, 382.5941
383.6803, 373.5273
384.1624, 364.8197
384.6445, 355.9158
385.1266, 347.0908
385.6088, 338.9644
386.0909, 331.5962
386.5730, 325.1067
387.0551, 319.8589
387.5372, 315.7325
388.0193, 312.2966
388.5015, 310.2699
388.9836, 308.3607
389.4657, 304.7152
389.9478, 299.1666
390.4299, 294.1895
390.9120, 291.8561
391.3942, 290.9423
391.8763, 289.9741
392.3584, 287.9118
392.8405, 286.1751
393.3226, 285.9901
393.8047, 286.9435
394.2869, 287.1436
394.7690, 284.9201
395.2511, 282.3526
395.7332, 280.7652
396.2154, 280.8073
396.6975, 280.9117
397.1796, 280.4994
397.6617, 279.9836
398.1438, 280.0703
398.6259, 281.7979
399.1081, 283.2133
399.5902, 283.5571
400.0723, 282.5779
400.5544, 282.2550
401.0365, 282.9946
401.5186, 284.0847
402.0008, 284.9759
402.4829, 285.7968
402.9650, 286.1572
403.4471, 285.8571
403.9292, 285.0608
404.4113, 284.4403
404.8935, 283.9629
405.3756, 283.7236
405.8577, 283.8609
406.3398, 284.4530
406.8219, 284.8121
407.3040, 284.8627
407.7862, 284.8216
408.2683, 284.9973
408.7504, 285.3968
409.2325, 285.9115
409.7146, 286.6424
410.1967, 287.4339
410.6789, 287.5625
411.1610, 286.9939
411.6431, 286.7339
412.1252, 288.0820
412.6073, 290.4605
413.0894, 292.1012
413.5716, 292.3631
414.0537, 292.3622
414.5358, 293.4349
415.0179, 295.3744
415.5000, 297.5491
415.9821, 299.8727
416.4643, 302.0843
416.9464, 303.6579
417.4285, 304.4775
417.9106, 305.7466
418.3927, 308.8398
418.8748, 312.6245
419.3570, 315.7019
419.8391, 316.7232
420.3212, 317.8272
420.8033, 319.9170
421.2854, 322.8716
421.7675, 326.1282
422.2497, 329.3312
422.7318, 332.9380
423.2139, 337.3192
423.6960, 343.2290
424.1781, 348.3395
424.6602, 351.9982
425.1424, 354.8098
425.6245, 357.5811
426.1066, 359.7672
426.5887, 362.5932
427.0709, 366.6203
427.5530, 371.8456
428.0351, 376.1478
428.5172, 379.3850
428.9993, 381.9477
429.4814, 384.0476
429.9636, 385.5790
430.4457, 387.0626
430.9278, 388.6059
431.4099, 390.0555
431.8920, 391.2149
432.3741, 392.1588
432.8563, 392.2820
433.3384, 390.7790
433.8205, 388.0110
434.3026, 386.8732
434.7847, 387.5851
435.2668, 388.1343
435.7490, 385.6833
436.2311, 381.1787
436.7132, 378.2628
437.1953, 378.6777
437.6774, 379.9944
438.1595, 378.8222
438.6417, 375.6053
439.1238, 372.1801
439.6059, 369.5131
440.0880, 367.2761
440.5701, 365.2639
441.0522, 363.5192
441.5344, 361.4704
442.0165, 358.1939
442.4986, 354.5874
442.9807, 351.7680
443.4628, 351.4110
443.9449, 350.6295
444.4271, 348.2029
444.9092, 344.3180
445.3913, 340.0941
445.8734, 334.5589
446.3555, 329.7945
446.8376, 327.0885
447.3198, 328.2860
447.8019, 328.0284
448.2840, 325.4751
448.7661, 321.7304
449.2482, 318.3470
449.7303, 315.8916
450.2125, 312.8444
450.6946, 308.5067
451.1767, 303.0254
451.6588, 298.9467
452.1409, 296.6338
452.6230, 294.8060
453.1052, 292.6750
453.5873, 290.2170
454.0694, 287.4516
454.5515, 284.2744
455.0337, 281.0196
455.5158, 278.3266
455.9979, 276.1482
456.4800, 274.1595
456.9621, 272.3922
457.4442, 270.6466
457.9264, 268.3799
458.4085, 265.6170
458.8906, 262.6896
459.3727, 259.6683
459.8548, 256.7322
460.3369, 254.2490
460.8191, 252.3360
461.3012, 250.7337
461.7833, 249.4869
462.2654, 248.3860
462.7475, 246.9996
463.2296, 244.4017
463.7118, 242.0544
464.1939, 241.0020
464.6760, 241.3111
465.1581, 241.3987
465.6402, 240.8509
466.1223, 239.8489
466.6045, 238.5203
467.0866, 236.3432
467.5687, 234.5034
468.0508, 232.8969
468.5329, 231.6715
469.0150, 231.2260
469.4972, 232.2573
469.9793, 233.0176
470.4614, 232.8996
470.9435, 231.8564
471.4256, 230.8392
471.9077, 229.7281
472.3899, 228.8894
472.8720, 228.7912
473.3541, 229.5154
473.8362, 230.0536
474.3183, 230.3266
474.8004, 230.2613
475.2826, 229.5181
475.7647, 228.1494
476.2468, 226.9059
476.7289, 226.0385
477.2110, 225.5879
477.6931, 225.7978
478.1753, 226.6637
478.6574, 227.6325
479.1395, 228.4660
479.6216, 229.0503
480.1037, 229.1792
480.5858, 228.6399
481.0680, 227.9347
481.5501, 227.3913
482.0322, 226.9386
482.5143, 226.4316
482.9964, 225.7506
483.4786, 225.0615
483.9607, 224.4457
484.4428, 223.9201
484.9249, 223.3968
485.4070, 222.8655
485.8892, 222.3351
486.3713, 221.8229
486.8534, 221.6909
487.3355, 221.0230
487.8176, 219.3714
488.2997, 217.3152
488.7819, 216.1623
489.2640, 216.4243
489.7461, 216.4021
490.2282, 215.4149
490.7103, 213.5304
491.1924, 212.0616
491.6746, 210.9995
492.1567, 210.3373
492.6388, 210.3876
493.1209, 211.0089
493.6030, 210.8853
494.0851, 209.6957
494.5673, 208.1095
495.0494, 207.0906
495.5315, 206.5051
496.0136, 205.9091
496.4957, 204.7289
496.9778, 203.6428
497.4600, 203.7504
497.9421, 204.8965
498.4242, 205.5459
498.9063, 204.1654
499.3884, 202.2402
499.8705, 201.1893
500.3527, 201.8786
500.8348, 201.9935
501.3169, 199.7180
501.7990, 196.6514
502.2811, 195.0395
502.7632, 197.0557
503.2454, 198.6807
503.7275, 198.7858
504.2096, 197.5411
504.6917, 196.8404
505.1738, 196.9533
505.6559, 197.2554
506.1381, 197.4313
506.6202, 197.4415
507.1023, 197.5265
507.5844, 197.7596
508.0665, 197.9415
508.5486, 197.6570
509.0308, 196.8866
509.5129, 196.4675
509.9950, 196.6371
510.4771, 197.2556
510.9592, 198.2496
511.4413, 199.5499
511.9235, 200.5718
512.4056, 200.7073
512.8877, 200.4139
513.3698, 200.3354
513.8519, 200.5186
514.3340, 200.9143
514.8162, 201.6973
515.2983, 202.5955
515.7804, 203.2593
516.2625, 203.1344
516.7446, 203.3403
517.2267, 204.6284
517.7089, 206.5922
518.1910, 208.2183
518.6731, 209.0855
519.1552, 209.7844
519.6373, 210.4187
520.1194, 210.9615
520.6016, 211.8148
521.0837, 213.1763
521.5658, 214.6122
522.0479, 215.6684
522.5300, 215.9711
523.0121, 217.3396
523.4943, 220.2649
523.9764, 223.8065
524.4585, 226.1624
524.9406, 227.2636
525.4227, 228.5536
525.9048, 230.5934
526.3870, 233.1461
526.8691, 235.8142
527.3513, 238.5883
527.8334, 241.1404
528.3155, 242.7364
528.7976, 244.1788
529.2797, 246.7681
529.7618, 250.8118
530.2440, 255.1526
530.7261, 259.1250
531.2082, 262.8395
531.6903, 266.3638
532.1724, 268.9201
532.6545, 272.1761
533.1367, 277.1867
533.6188, 283.4378
534.1009, 289.2733
534.5830, 293.9547
535.0651, 298.6006
535.5472, 303.2916
536.0294, 307.9017
536.5115, 313.8766
536.9936, 321.6925
537.4757, 330.2098
537.9578, 338.4221
538.4399, 346.2848
538.9221, 354.5358
539.4042, 363.2891
539.8863, 372.5632
540.3684, 382.3570
540.8505, 392.6942
541.3326, 403.8773
541.8148, 416.1429
542.2969, 429.2061
542.7790, 442.8626
543.2611, 457.0401
543.7432, 471.5876
544.2253, 486.5978
544.7075, 501.8242
545.1896, 516.8924
545.6717, 531.6354
546.1538, 546.8970
546.6359, 562.4442
547.1180, 579.0333
547.6002, 597.2750
548.0823, 619.0656
548.5644, 640.5332
549.0465, 660.8873
549.5286, 680.5256
550.0107, 700.5136
550.4929, 720.7432
550.9750, 741.5110
551.4571, 763.2549
551.9392, 786.0685
552.4213, 807.2418
552.9034, 826.5651
553.3856, 845.2605
553.8677, 864.5045
554.3498, 884.1725
554.8319, 902.9525
555.3140, 920.8655
555.7961, 937.3666
556.2783, 951.6572
556.7604, 963.8508
557.2425, 974.0535
557.7246, 982.2260
558.2067, 988.5528
558.6888, 993.5353
559.1710, 996.8876
559.6531, 997.4886
560.1352, 995.4054
560.6173, 989.9139
561.0994, 980.3441
561.5815, 966.4358
562.0637, 950.1962
562.5458, 930.8054
563.0279, 909.9874
563.5100, 888.8547
563.9921, 867.9901
564.4742, 845.5742
564.9564, 821.2646
565.4385, 795.6842
565.9206, 769.6630
566.4027, 743.1780
566.8848, 717.3949
567.3669, 692.9351
567.8491, 669.4466
568.3312, 646.4716
568.8133, 624.1174
569.2954, 602.6591
569.7775, 582.4872
570.2596, 563.4473
570.7418, 545.8046
571.2239, 529.4327
571.7060, 514.0317
572.1881, 499.5442
572.6702, 485.8326
573.1523, 472.5404
573.6345, 459.5436
574.1166, 447.2847
574.5987, 436.0826
575.0808, 425.8353
575.5629, 416.1747
576.0450, 407.9194
576.5272, 399.5016
577.0093, 390.3678
577.4914, 380.7984
577.9735, 372.4550
578.4556, 365.8392
578.9377, 359.5616
579.4199, 352.8969
579.9020, 345.9246
580.3841, 338.7738
580.8662, 331.3911
581.3483, 324.2500
581.8304, 318.0927
582.3126, 312.6752
582.7947, 307.0945
583.2768, 301.0841
583.7589, 295.1697
584.2410, 289.9409
584.7231, 285.2129
585.2053, 280.6222
585.6874, 275.9148
586.1696, 271.3869
586.6517, 267.2263
587.1338, 263.3847
587.6159, 259.6574
588.0980, 255.8695
588.5801, 252.2871
