##NAMES=Namibite
##RRUFFID=R060782
##IDEAL CHEMISTRY=Cu^2+^(Bi^3+^O)_2_V^5+^O_4_(OH)
##LOCALITY=Khorixas, Darmaraland, Namibia
##OWNER=RRUFF
##SOURCE=Michael Scott
##DESCRIPTION=Dark green irregularly formed crystals associated with quartz
##STATUS=The identification of this mineral is confirmed by single-crystal X-ray diffraction and chemical analysis.
##URL=rruff.info/R060782
##MEASURED CHEMISTRY=(Cu_0.87_Fe_0.13_)_Σ=1_((Bi_0.93_Cr_0.05_Al_0.02_)_Σ=1_O)_2_V_1.00_O_4_(OH); OH estimated by charge balance
109.475, 634.614
109.957, 663.841
110.439, 679.599
110.921, 687.851
111.403, 697.559
111.885, 706.304
112.368, 722.775
112.850, 751.599
113.332, 787.904
113.814, 827.676
114.296, 870.429
114.778, 913.659
115.260, 948.091
115.742, 972.761
116.224, 988.430
116.706, 997.252
117.189, 998.061
117.671, 987.664
118.153, 961.801
118.635, 922.309
119.117, 892.563
119.599, 881.786
120.081, 873.270
120.563, 859.681
121.046, 845.201
121.528, 838.192
122.010, 844.694
122.492, 864.640
122.974, 900.534
123.456, 956.028
123.938, 1022.268
124.420, 1097.741
124.902, 1181.774
125.385, 1274.341
125.867, 1374.890
126.349, 1483.971
126.831, 1601.859
127.313, 1722.367
127.795, 1854.952
128.277, 2009.445
128.760, 2184.085
129.242, 2369.482
129.724, 2556.305
130.206, 2752.468
130.688, 2920.934
131.170, 3068.567
131.652, 3187.828
132.134, 3275.429
132.616, 3330.226
133.098, 3348.228
133.581, 3317.308
134.063, 3211.344
134.545, 3128.264
135.027, 3082.581
135.509, 3056.569
135.991, 3030.546
136.473, 2999.178
136.955, 2973.470
137.438, 2972.007
137.920, 2997.307
138.402, 3032.152
138.884, 3061.872
139.366, 3102.175
139.848, 3174.232
140.330, 3282.092
140.812, 3428.162
141.294, 3616.585
141.777, 3832.930
142.259, 4113.706
142.741, 4474.209
143.223, 4906.981
143.705, 5394.805
144.187, 5933.384
144.669, 6531.864
145.151, 7193.571
145.633, 7911.236
146.116, 8690.076
146.598, 9551.281
147.080, 10483.590
147.562, 11445.530
148.044, 12445.260
148.526, 13452.020
149.008, 14434.330
149.490, 15404.230
149.973, 16325.970
150.455, 17271.430
150.937, 18208.289
151.419, 18866.760
151.901, 19230.029
152.383, 19172.301
152.865, 18594.439
153.347, 17435.430
153.829, 16009.440
154.312, 14457.910
154.794, 12788.310
155.276, 11236.590
155.758, 9859.062
156.240, 8668.059
156.722, 7686.097
157.204, 6928.713
157.686, 6325.181
158.169, 5827.106
158.651, 5437.866
159.133, 5119.215
159.615, 4881.999
160.097, 4704.230
160.579, 4583.839
161.061, 4523.884
161.543, 4495.537
162.025, 4469.357
162.508, 4446.241
162.990, 4421.079
163.472, 4384.295
163.954, 4349.301
164.436, 4330.888
164.918, 4334.850
165.400, 4339.483
165.882, 4315.469
166.365, 4259.234
166.847, 4186.328
167.329, 4094.843
167.811, 3992.420
168.293, 3881.785
168.775, 3764.040
169.257, 3642.025
169.739, 3520.960
170.221, 3401.595
170.704, 3281.584
171.186, 3153.159
171.668, 3027.083
172.150, 2912.841
172.632, 2813.123
173.114, 2723.530
173.596, 2637.319
174.078, 2554.113
174.561, 2474.454
175.043, 2393.572
175.525, 2317.715
176.007, 2253.377
176.489, 2202.078
176.971, 2160.004
177.453, 2120.172
177.935, 2083.677
178.417, 2047.451
178.900, 2007.776
179.382, 1969.581
179.864, 1937.267
180.346, 1912.312
180.828, 1892.478
181.310, 1874.083
181.792, 1857.352
182.274, 1841.758
182.757, 1826.342
183.239, 1812.253
183.721, 1801.459
184.203, 1794.456
184.685, 1788.285
185.167, 1776.628
185.649, 1753.815
186.131, 1736.718
186.613, 1728.812
187.096, 1724.995
187.578, 1721.202
188.060, 1716.133
188.542, 1711.181
189.024, 1708.783
189.506, 1709.360
189.988, 1712.080
190.470, 1723.388
190.952, 1732.674
191.435, 1727.432
191.917, 1705.175
192.399, 1679.595
192.881, 1676.200
193.363, 1713.252
193.845, 1737.174
194.327, 1737.932
194.809, 1731.993
195.292, 1731.406
195.774, 1739.399
196.256, 1751.445
196.738, 1759.710
197.220, 1758.851
197.702, 1765.462
198.184, 1783.604
198.666, 1805.388
199.148, 1827.647
199.631, 1848.751
200.113, 1865.688
200.595, 1872.621
201.077, 1860.506
201.559, 1858.010
202.041, 1871.027
202.523, 1887.514
203.005, 1902.291
203.488, 1913.164
203.970, 1917.758
204.452, 1910.514
204.934, 1881.040
205.416, 1866.834
205.898, 1879.900
206.380, 1896.143
206.862, 1900.447
207.344, 1891.693
207.827, 1879.862
208.309, 1876.787
208.791, 1885.203
209.273, 1893.560
209.755, 1907.467
210.237, 1916.820
210.719, 1913.373
211.201, 1898.639
211.684, 1881.781
212.166, 1872.657
212.648, 1873.307
213.130, 1872.062
213.612, 1862.554
214.094, 1856.917
214.576, 1862.930
215.058, 1878.586
215.540, 1895.692
216.023, 1906.699
216.505, 1911.066
216.987, 1914.392
217.469, 1913.461
217.951, 1914.608
218.433, 1919.761
218.915, 1928.964
219.397, 1941.778
219.880, 1958.277
220.362, 1978.603
220.844, 1998.213
221.326, 2016.221
221.808, 2034.298
222.290, 2054.266
222.772, 2074.700
223.254, 2091.599
223.736, 2100.938
224.219, 2104.267
224.701, 2118.909
225.183, 2154.035
225.665, 2191.749
226.147, 2229.722
226.629, 2267.494
227.111, 2304.871
227.593, 2341.842
228.076, 2378.462
228.558, 2415.840
229.040, 2455.109
229.522, 2493.679
230.004, 2528.445
230.486, 2562.986
230.968, 2604.031
231.450, 2655.701
231.932, 2710.816
232.415, 2747.206
232.897, 2747.335
233.379, 2757.924
233.861, 2793.292
234.343, 2838.105
234.825, 2878.992
235.307, 2910.971
235.789, 2935.130
236.271, 2953.788
236.754, 2967.407
237.236, 2973.949
237.718, 2971.906
238.200, 2964.587
238.682, 2954.642
239.164, 2942.683
239.646, 2926.952
240.128, 2903.371
240.611, 2868.849
241.093, 2837.543
241.575, 2814.225
242.057, 2792.283
242.539, 2771.236
243.021, 2749.748
243.503, 2721.435
243.985, 2674.576
244.467, 2605.592
244.950, 2549.248
245.432, 2518.306
245.914, 2493.146
246.396, 2466.449
246.878, 2437.343
247.360, 2406.381
247.842, 2372.596
248.324, 2336.312
248.807, 2303.423
249.289, 2276.628
249.771, 2250.364
250.253, 2219.958
250.735, 2187.349
251.217, 2157.700
251.699, 2134.498
252.181, 2116.807
252.663, 2100.085
253.146, 2083.019
253.628, 2069.629
254.110, 2065.131
254.592, 2064.904
255.074, 2060.675
255.556, 2046.461
256.038, 2027.615
256.520, 2014.862
257.003, 2009.430
257.485, 2006.148
257.967, 2004.354
258.449, 2002.717
258.931, 1999.239
259.413, 1992.289
259.895, 1985.131
260.377, 1982.687
260.859, 1985.438
261.341, 1986.154
261.824, 1980.915
262.306, 1972.574
262.788, 1963.427
263.270, 1951.687
263.752, 1944.967
264.234, 1952.669
264.716, 1972.591
265.198, 1989.079
265.681, 1997.201
266.163, 1999.947
266.645, 1999.508
267.127, 1994.465
267.609, 1995.906
268.091, 2016.438
268.573, 2047.123
269.055, 2063.488
269.538, 2055.010
270.020, 2044.663
270.502, 2065.032
270.984, 2113.151
271.466, 2158.840
271.948, 2193.323
272.430, 2221.405
272.912, 2247.700
273.394, 2272.466
273.877, 2299.624
274.359, 2331.852
274.841, 2369.799
275.323, 2414.853
275.805, 2471.757
276.287, 2532.187
276.769, 2589.483
277.251, 2643.929
277.733, 2700.877
278.216, 2764.713
278.698, 2834.414
279.180, 2899.122
279.662, 2940.765
280.144, 2996.910
280.626, 3093.701
281.108, 3216.231
281.590, 3331.495
282.073, 3422.170
282.555, 3497.281
283.037, 3584.545
283.519, 3692.754
284.001, 3801.080
284.483, 3905.313
284.965, 4008.957
285.447, 4116.578
285.930, 4229.318
286.412, 4342.656
286.894, 4450.022
287.376, 4549.805
287.858, 4644.614
288.340, 4734.816
288.822, 4819.689
289.304, 4902.257
289.786, 4980.741
290.268, 5046.852
290.751, 5089.841
291.233, 5104.965
291.715, 5122.273
292.197, 5152.848
292.679, 5175.098
293.161, 5184.348
293.643, 5178.348
294.125, 5153.613
294.608, 5105.815
295.090, 5037.047
295.572, 4967.971
296.054, 4907.605
296.536, 4833.252
297.018, 4731.572
297.500, 4615.947
297.982, 4502.563
298.465, 4399.047
298.947, 4302.887
299.429, 4209.606
299.911, 4118.191
300.393, 4032.885
300.875, 3957.674
301.357, 3886.622
301.839, 3813.878
302.321, 3738.167
302.804, 3666.279
303.286, 3605.511
303.768, 3556.246
304.250, 3511.438
304.732, 3469.692
305.214, 3433.212
305.696, 3403.631
306.178, 3380.491
306.660, 3361.050
307.143, 3344.867
307.625, 3331.196
308.107, 3316.815
308.589, 3299.555
309.071, 3286.851
309.553, 3290.300
310.035, 3303.063
310.517, 3309.032
311.000, 3298.599
311.482, 3282.572
311.964, 3271.087
312.446, 3264.212
312.928, 3263.289
313.410, 3271.327
313.892, 3285.267
314.374, 3296.179
314.857, 3306.231
315.339, 3310.278
315.821, 3301.036
316.303, 3283.955
316.785, 3271.777
317.267, 3269.125
317.749, 3272.932
318.231, 3278.672
318.713, 3288.514
319.195, 3294.390
319.678, 3286.274
320.160, 3278.681
320.642, 3290.164
321.124, 3322.187
321.606, 3355.950
322.088, 3370.465
322.570, 3360.090
323.052, 3364.914
323.535, 3389.060
324.017, 3421.716
324.499, 3461.241
324.981, 3505.392
325.463, 3549.125
325.945, 3588.687
326.427, 3625.776
326.909, 3670.929
327.392, 3737.621
327.874, 3795.656
328.356, 3834.976
328.838, 3866.256
329.320, 3902.274
329.802, 3947.413
330.284, 3994.509
330.766, 4032.197
331.248, 4059.220
331.731, 4079.684
332.213, 4093.428
332.695, 4101.265
333.177, 4101.662
333.659, 4095.535
334.141, 4087.586
334.623, 4087.723
335.105, 4093.317
335.587, 4076.068
336.070, 4030.502
336.552, 3968.383
337.034, 3890.185
337.516, 3802.578
337.998, 3718.229
338.480, 3643.583
338.962, 3573.455
339.444, 3500.171
339.927, 3423.355
340.409, 3346.408
340.891, 3271.080
341.373, 3195.832
341.855, 3119.411
342.337, 3042.625
342.819, 2962.364
343.301, 2870.851
343.784, 2774.239
344.266, 2686.050
344.748, 2609.788
345.230, 2543.016
345.712, 2483.421
346.194, 2430.539
346.676, 2383.770
347.158, 2348.423
347.640, 2315.272
348.122, 2274.994
348.605, 2228.130
349.087, 2181.634
349.569, 2139.407
350.051, 2101.907
350.533, 2080.787
351.015, 2088.021
351.497, 2095.531
351.979, 2096.987
352.462, 2093.498
352.944, 2085.957
353.426, 2074.707
353.908, 2063.048
354.390, 2057.837
354.872, 2058.842
355.354, 2067.634
355.836, 2087.873
356.319, 2111.719
356.801, 2132.363
357.283, 2150.223
357.765, 2172.081
358.247, 2203.598
358.729, 2244.740
359.211, 2296.196
359.693, 2360.760
360.175, 2433.300
360.658, 2506.229
361.140, 2585.028
361.622, 2679.887
362.104, 2797.978
362.586, 2931.392
363.068, 3069.850
363.550, 3213.740
364.032, 3359.261
364.514, 3506.495
364.997, 3653.714
365.479, 3797.592
365.961, 3936.740
366.443, 4078.949
366.925, 4232.847
367.407, 4391.811
367.889, 4550.107
368.371, 4712.290
368.853, 4843.508
369.336, 4910.869
369.818, 4910.045
370.300, 4855.235
370.782, 4748.765
371.264, 4586.208
371.746, 4345.939
372.228, 4043.847
372.711, 3720.980
373.193, 3396.107
373.675, 3076.979
374.157, 2793.046
374.639, 2547.301
375.121, 2335.626
375.603, 2159.690
376.085, 2016.274
376.567, 1907.581
377.049, 1831.301
377.532, 1770.927
378.014, 1705.676
378.496, 1631.785
378.978, 1568.971
379.460, 1522.166
379.942, 1482.914
380.424, 1452.667
380.906, 1427.806
381.389, 1401.267
381.871, 1366.652
382.353, 1330.102
382.835, 1309.247
383.317, 1308.773
383.799, 1307.461
384.281, 1295.606
384.763, 1280.206
385.246, 1267.439
385.728, 1258.178
386.210, 1251.295
386.692, 1246.164
387.174, 1242.831
387.656, 1241.690
388.138, 1243.087
388.620, 1245.747
389.102, 1248.660
389.585, 1251.804
390.067, 1255.006
390.549, 1257.945
391.031, 1261.175
391.513, 1265.230
391.995, 1269.948
392.477, 1274.691
392.959, 1279.013
393.441, 1283.240
393.924, 1288.551
394.406, 1296.900
394.888, 1303.767
395.370, 1307.324
395.852, 1310.252
396.334, 1314.981
396.816, 1321.913
397.298, 1329.882
397.780, 1337.796
398.263, 1345.721
398.745, 1352.905
399.227, 1361.066
399.709, 1366.437
400.191, 1364.664
400.673, 1359.982
401.155, 1360.070
401.638, 1369.699
402.120, 1382.432
402.602, 1385.772
403.084, 1378.107
403.566, 1373.955
404.048, 1379.142
404.530, 1388.033
405.012, 1396.623
405.494, 1404.869
405.977, 1408.198
406.459, 1397.930
406.941, 1383.439
407.423, 1383.033
407.905, 1399.115
408.387, 1415.875
408.869, 1420.818
409.351, 1415.868
409.833, 1417.333
410.316, 1436.659
410.798, 1449.375
411.280, 1437.868
411.762, 1415.806
412.244, 1406.962
412.726, 1419.575
413.208, 1441.316
413.690, 1452.177
414.172, 1447.329
414.655, 1443.987
415.137, 1439.013
415.619, 1438.033
416.101, 1447.828
416.583, 1464.306
417.065, 1475.827
417.547, 1472.653
418.029, 1461.703
418.512, 1468.426
418.994, 1501.397
419.476, 1530.242
419.958, 1545.370
420.440, 1552.730
420.922, 1552.585
421.404, 1544.438
421.886, 1543.825
422.368, 1569.700
422.851, 1612.072
423.333, 1639.164
423.815, 1643.397
424.297, 1646.611
424.779, 1667.178
425.261, 1702.750
425.743, 1736.829
426.225, 1771.273
426.708, 1801.224
427.190, 1821.060
427.672, 1834.735
428.154, 1850.075
428.636, 1870.233
429.118, 1894.170
429.600, 1920.866
430.082, 1955.421
430.565, 1980.526
431.047, 1990.427
431.529, 1997.297
432.011, 2010.370
432.493, 2027.004
432.975, 2037.668
433.457, 2034.833
433.939, 2021.996
434.421, 2012.280
434.904, 2007.552
435.386, 2001.620
435.868, 1998.010
436.350, 1989.336
436.832, 1964.813
437.314, 1922.669
437.796, 1883.675
438.278, 1868.430
438.760, 1868.082
439.243, 1857.473
439.725, 1833.644
440.207, 1800.768
440.689, 1756.360
441.171, 1704.278
441.653, 1666.449
442.135, 1655.280
442.617, 1645.727
443.099, 1625.580
443.582, 1599.164
444.064, 1574.829
444.546, 1555.369
445.028, 1537.250
445.510, 1515.048
445.992, 1486.338
446.474, 1461.503
446.957, 1440.407
447.439, 1422.752
447.921, 1411.510
448.403, 1403.285
448.885, 1391.073
449.367, 1370.342
449.849, 1345.290
450.331, 1325.043
450.813, 1310.543
451.296, 1297.229
451.778, 1284.973
452.260, 1272.733
452.742, 1259.094
453.224, 1244.217
453.706, 1230.713
454.188, 1219.829
454.670, 1211.160
455.152, 1204.304
455.634, 1199.222
456.117, 1195.785
456.599, 1195.771
457.081, 1196.450
457.563, 1186.880
458.045, 1154.593
458.527, 1132.379
459.009, 1135.129
459.491, 1146.334
459.974, 1148.763
460.456, 1139.852
460.938, 1128.008
461.420, 1121.693
461.902, 1120.893
462.384, 1116.663
462.866, 1102.689
463.348, 1093.569
463.831, 1097.898
464.313, 1106.617
464.795, 1107.578
465.277, 1096.687
465.759, 1085.246
466.241, 1088.990
466.723, 1105.194
467.205, 1109.283
467.687, 1093.036
468.170, 1075.432
468.652, 1074.020
469.134, 1084.626
469.616, 1092.886
470.098, 1099.039
470.580, 1100.051
471.062, 1089.278
471.544, 1072.291
472.026, 1061.933
472.509, 1062.909
472.991, 1069.846
473.473, 1074.921
473.955, 1078.140
474.437, 1079.307
474.919, 1078.239
475.401, 1075.655
475.883, 1070.189
476.366, 1063.651
476.848, 1059.294
477.330, 1058.814
477.812, 1061.252
478.294, 1066.239
478.776, 1074.986
479.258, 1078.296
479.740, 1071.212
480.223, 1061.097
480.705, 1053.106
481.187, 1047.360
481.669, 1044.413
482.151, 1045.451
482.633, 1048.761
483.115, 1053.895
483.597, 1060.164
484.079, 1064.146
484.561, 1064.245
485.044, 1060.986
485.526, 1054.926
486.008, 1040.095
486.490, 1034.020
486.972, 1047.412
487.454, 1060.949
487.936, 1058.603
488.418, 1043.813
488.901, 1031.804
489.383, 1033.416
489.865, 1044.084
490.347, 1048.885
490.829, 1045.900
491.311, 1042.438
491.793, 1040.902
492.275, 1039.016
492.758, 1034.010
493.240, 1026.047
493.722, 1020.174
494.204, 1020.166
494.686, 1023.306
495.168, 1025.693
495.650, 1027.197
496.132, 1029.216
496.614, 1033.167
497.097, 1037.423
497.579, 1037.224
498.061, 1030.781
498.543, 1023.404
499.025, 1011.602
499.507, 1001.943
499.989, 1001.748
500.471, 1009.553
500.953, 1017.658
501.436, 1020.774
501.918, 1019.208
502.400, 1012.978
502.882, 997.216
503.364, 988.413
503.846, 996.992
504.328, 1009.967
504.810, 1018.242
505.293, 1021.011
505.775, 1021.396
506.257, 1019.493
506.739, 1017.034
507.221, 1017.884
507.703, 1021.974
508.185, 1023.644
508.667, 1019.098
509.150, 1010.786
509.632, 1005.399
510.114, 999.888
510.596, 1002.417
511.078, 1027.594
511.560, 1050.681
512.042, 1045.617
512.524, 1017.758
513.006, 995.501
513.489, 1000.860
513.971, 1024.968
514.453, 1034.076
514.935, 1021.141
515.417, 1012.911
515.899, 1020.661
516.381, 1032.302
516.863, 1038.464
517.346, 1038.893
517.828, 1040.194
518.310, 1045.818
518.792, 1053.937
519.274, 1064.013
519.756, 1075.263
520.238, 1081.495
520.720, 1078.423
521.202, 1070.940
521.685, 1069.919
522.167, 1079.055
522.649, 1088.465
523.131, 1098.191
523.613, 1108.164
524.095, 1119.403
524.577, 1130.950
525.059, 1140.016
525.541, 1144.337
526.024, 1146.988
526.506, 1155.479
526.988, 1170.928
527.470, 1185.813
527.952, 1200.404
528.434, 1211.741
528.916, 1214.313
529.398, 1209.986
529.880, 1212.305
530.363, 1231.648
530.845, 1253.979
531.327, 1267.515
531.809, 1274.215
532.291, 1279.795
532.773, 1286.159
533.255, 1295.263
533.737, 1310.541
534.219, 1333.801
534.702, 1357.010
535.184, 1379.185
535.666, 1402.271
536.148, 1425.373
536.630, 1450.264
537.112, 1480.686
537.594, 1518.654
538.076, 1558.650
538.559, 1593.612
539.041, 1624.159
539.523, 1655.160
540.005, 1686.566
540.487, 1721.130
540.969, 1761.634
541.451, 1807.699
541.933, 1856.287
542.416, 1909.327
542.898, 1963.105
543.380, 2015.889
543.862, 2068.662
544.344, 2121.412
544.826, 2174.690
545.308, 2233.289
545.790, 2302.360
546.273, 2381.628
546.755, 2462.390
547.237, 2543.926
547.719, 2628.332
548.201, 2718.448
548.683, 2810.252
549.165, 2899.860
549.647, 2986.119
550.129, 3072.252
550.612, 3158.870
551.094, 3246.595
551.576, 3339.075
552.058, 3435.696
552.540, 3529.464
553.022, 3616.446
553.504, 3697.875
553.986, 3778.573
554.468, 3869.844
554.951, 3940.703
555.433, 3979.969
555.915, 4008.776
556.397, 4044.385
556.879, 4081.840
557.361, 4103.799
557.843, 4099.159
558.325, 4076.777
558.807, 4054.928
559.290, 4034.471
559.772, 3999.526
560.254, 3944.706
560.736, 3877.985
561.218, 3804.705
561.700, 3725.895
562.182, 3643.762
562.664, 3560.438
563.146, 3472.320
563.629, 3376.158
564.111, 3274.730
564.593, 3171.501
565.075, 3068.217
565.557, 2969.403
566.039, 2880.947
566.521, 2803.373
567.003, 2728.364
567.486, 2658.386
567.968, 2587.389
568.450, 2510.795
568.932, 2433.973
569.414, 2361.516
569.896, 2294.181
570.378, 2234.927
570.860, 2191.082
571.343, 2154.937
571.825, 2112.571
572.307, 2063.974
572.789, 2019.640
573.271, 1986.104
573.753, 1959.357
574.235, 1927.931
574.717, 1887.234
575.200, 1849.943
575.682, 1816.814
576.164, 1785.814
576.646, 1758.501
577.128, 1732.140
577.610, 1699.774
578.092, 1656.081
578.574, 1610.438
579.056, 1576.303
579.539, 1553.204
580.021, 1536.841
580.503, 1529.343
580.985, 1520.264
581.467, 1498.301
581.949, 1464.746
582.431, 1439.016
582.913, 1429.208
583.395, 1417.515
583.878, 1397.458
584.360, 1372.913
584.842, 1346.318
585.324, 1319.387
585.806, 1296.132
586.288, 1281.637
586.770, 1273.526
587.252, 1257.714
587.734, 1230.194
588.217, 1208.658
588.699, 1204.731
589.181, 1204.326
589.663, 1190.159
590.145, 1161.849
590.627, 1139.000
591.109, 1131.927
591.591, 1128.668
592.073, 1120.331
592.556, 1107.799
593.038, 1093.604
593.520, 1078.782
594.002, 1064.959
594.484, 1055.128
594.966, 1050.017
595.448, 1043.468
595.930, 1029.244
596.413, 1022.270
596.895, 1037.169
597.377, 1057.866
597.859, 1060.910
598.341, 1039.401
598.823, 1017.214
599.305, 1009.708
599.787, 1010.869
600.269, 1013.618
600.752, 1016.629
601.234, 1016.340
601.716, 1010.611
602.198, 1000.411
602.680, 987.366
603.162, 963.547
603.644, 952.804
604.127, 968.499
604.609, 983.173
605.091, 980.647
605.573, 967.009
606.055, 956.669
606.537, 955.917
607.019, 958.141
607.501, 957.644
607.983, 954.515
608.466, 947.666
608.948, 936.536
609.430, 927.598
609.912, 926.349
610.394, 931.541
610.876, 935.533
611.358, 940.416
611.840, 941.154
612.322, 933.250
612.805, 924.391
613.287, 919.811
613.769, 919.628
614.251, 922.133
614.733, 927.705
615.215, 933.121
615.697, 931.093
616.179, 922.801
616.661, 920.704
617.144, 929.381
617.626, 939.146
618.108, 940.833
618.590, 934.477
619.072, 926.739
619.554, 916.022
620.036, 906.057
620.518, 895.728
621.000, 887.813
621.483, 886.095
621.965, 890.224
622.447, 895.552
622.929, 898.376
623.411, 900.089
623.893, 905.194
624.375, 913.924
624.857, 918.646
625.340, 916.151
625.822, 910.674
626.304, 906.814
626.786, 904.696
627.268, 902.574
627.750, 897.345
628.232, 895.693
628.714, 904.550
629.196, 916.128
629.679, 920.821
630.161, 916.804
630.643, 908.804
631.125, 898.698
631.607, 888.620
632.089, 887.564
632.571, 896.762
633.054, 904.433
