##NAMES=Namibite
##RRUFFID=R060782
##IDEAL CHEMISTRY=Cu^2+^(Bi^3+^O)_2_V^5+^O_4_(OH)
##LOCALITY=Khorixas, Darmaraland, Namibia
##OWNER=RRUFF
##SOURCE=Michael Scott
##DESCRIPTION=Dark green irregularly formed crystals associated with quartz
##STATUS=The identification of this mineral is confirmed by single-crystal X-ray diffraction and chemical analysis.
##URL=rruff.info/R060782
##MEASURED CHEMISTRY=(Cu_0.87_Fe_0.13_)_Σ=1_((Bi_0.93_Cr_0.05_Al_0.02_)_Σ=1_O)_2_V_1.00_O_4_(OH); OH estimated by charge balance
108.506, 3708.323
108.988, 4250.412
109.470, 4835.136
109.952, 5474.824
110.434, 6164.875
110.916, 6846.927
111.399, 7536.388
111.881, 8211.180
112.363, 8853.085
112.845, 9433.516
113.327, 10006.160
113.809, 10571.180
114.291, 11127.660
114.773, 11729.320
115.256, 12378.240
115.738, 13080.770
116.220, 13832.800
116.702, 14668.980
117.184, 15524.100
117.666, 16397.619
118.148, 17298.221
118.630, 18143.740
119.112, 18970.330
119.595, 19706.439
120.077, 20215.250
120.559, 20355.070
121.041, 20279.529
121.523, 20099.070
122.005, 19803.730
122.487, 19466.350
122.969, 19126.131
123.451, 18787.840
123.934, 18476.600
124.416, 18198.699
124.898, 17960.381
125.380, 17769.859
125.862, 17621.070
126.344, 17528.730
126.826, 17512.211
127.308, 17571.730
127.790, 17701.090
128.273, 17900.150
128.755, 18165.301
129.237, 18483.240
129.719, 18863.439
130.201, 19292.660
130.683, 19738.270
131.165, 20203.789
131.648, 20679.189
132.130, 21172.900
132.612, 21683.609
133.094, 22146.900
133.576, 22518.551
134.058, 22805.301
134.540, 23076.369
135.022, 23335.881
135.504, 23583.789
135.986, 23818.131
136.469, 24038.449
136.951, 24242.150
137.433, 24424.721
137.915, 24582.740
138.397, 24739.020
138.879, 24907.061
139.361, 25075.500
139.843, 25173.340
140.326, 25160.680
140.808, 25157.980
141.290, 25249.980
141.772, 25414.711
142.254, 25735.211
142.736, 26231.039
143.218, 26909.641
143.700, 27704.199
144.182, 28617.859
144.665, 29644.529
145.147, 30763.779
145.629, 32021.359
146.111, 33321.199
146.593, 34634.379
147.075, 35966.852
147.557, 37326.969
148.039, 38687.398
148.521, 40072.461
149.004, 41549.750
149.486, 43072.789
149.968, 44708.430
150.450, 46524.379
150.932, 48892.020
151.414, 50861.090
151.896, 52788.762
152.378, 54383.879
152.861, 54742.770
153.343, 53582.570
153.825, 51361.961
154.307, 48318.789
154.789, 43540.922
155.271, 38920.289
155.753, 34557.309
156.235, 30516.529
156.717, 27002.010
157.200, 24080.529
157.682, 21649.900
158.164, 19622.420
158.646, 18126.189
159.128, 16890.881
159.610, 15872.460
160.092, 15069.270
160.574, 14389.580
161.057, 13834.620
161.539, 13376.410
162.021, 12984.540
162.503, 12691.080
162.985, 12428.840
163.467, 12162.770
163.949, 11889.550
164.431, 11632.540
164.913, 11412.890
165.396, 11216.580
165.878, 11020.870
166.360, 10823.310
166.842, 10619.050
167.324, 10404.790
167.806, 10179.270
168.288, 9946.114
168.770, 9695.763
169.253, 9436.734
169.735, 9188.726
170.217, 8967.453
170.699, 8763.063
171.181, 8565.851
171.663, 8370.244
172.145, 8187.402
172.627, 8027.597
173.109, 7889.047
173.592, 7757.536
174.074, 7593.036
174.556, 7435.589
175.038, 7355.717
175.520, 7250.486
176.002, 7211.123
176.484, 7155.773
176.966, 7085.299
177.449, 6954.395
177.931, 6901.523
178.413, 6817.365
178.895, 6731.939
179.377, 6672.832
179.859, 6625.410
180.341, 6567.689
180.823, 6498.558
181.305, 6436.104
181.788, 6405.269
182.270, 6397.573
182.752, 6382.012
183.234, 6332.551
183.716, 6266.804
184.198, 6233.338
184.680, 6235.603
185.162, 6249.769
185.645, 6254.131
186.127, 6248.119
186.609, 6228.356
187.091, 6180.498
187.573, 6114.483
188.055, 6073.143
188.537, 6060.129
189.019, 6064.718
189.501, 6074.503
189.984, 6089.400
190.466, 6103.778
190.948, 6116.661
191.430, 6127.519
191.912, 6129.025
192.394, 6117.363
192.876, 6101.994
193.358, 6102.686
193.840, 6120.247
194.323, 6140.401
194.805, 6150.585
195.287, 6151.523
195.769, 6165.886
196.251, 6199.254
196.733, 6245.271
197.215, 6287.341
197.697, 6325.645
198.180, 6360.932
198.662, 6393.391
199.144, 6423.313
199.626, 6450.968
200.108, 6475.032
200.590, 6497.443
201.072, 6525.883
201.554, 6561.661
202.036, 6599.169
202.519, 6630.803
203.001, 6654.066
203.483, 6690.409
203.965, 6751.528
204.447, 6830.454
204.929, 6877.911
205.411, 6887.979
205.893, 6880.998
206.376, 6874.279
206.858, 6867.667
207.340, 6861.394
207.822, 6855.237
208.304, 6849.304
208.786, 6846.518
209.268, 6849.991
209.750, 6851.883
210.232, 6842.341
210.714, 6818.606
211.197, 6793.939
211.679, 6769.519
212.161, 6745.049
212.643, 6734.032
213.125, 6740.819
213.607, 6756.004
214.089, 6769.815
214.572, 6785.025
215.054, 6791.199
215.536, 6781.321
216.018, 6751.717
216.500, 6734.619
216.982, 6731.038
217.464, 6738.643
217.946, 6753.591
218.428, 6773.172
218.911, 6805.177
219.393, 6855.986
219.875, 6931.303
220.357, 6996.269
220.839, 7051.783
221.321, 7096.156
221.803, 7122.002
222.285, 7105.697
222.767, 7116.184
223.250, 7181.814
223.732, 7239.375
224.214, 7353.961
224.696, 7454.706
225.178, 7542.349
225.660, 7577.667
226.142, 7680.574
226.624, 7756.383
227.107, 7845.600
227.589, 7933.853
228.071, 8019.970
228.553, 8101.042
229.035, 8181.634
229.517, 8272.710
229.999, 8381.642
230.481, 8491.800
230.963, 8591.875
231.445, 8662.098
231.928, 8701.784
232.410, 8804.879
232.892, 8892.569
233.374, 8965.697
233.856, 8980.654
234.338, 9070.729
234.820, 9137.644
235.303, 9239.857
235.785, 9315.623
236.267, 9357.148
236.749, 9370.902
237.231, 9376.983
237.713, 9376.966
238.195, 9367.341
238.677, 9346.161
239.159, 9311.750
239.641, 9270.138
240.124, 9223.574
240.606, 9169.890
241.088, 9098.979
241.570, 9006.541
242.052, 8903.885
242.534, 8796.170
243.016, 8680.706
243.498, 8565.184
243.981, 8448.266
244.463, 8331.146
244.945, 8220.318
245.427, 8121.621
245.909, 8020.699
246.391, 7906.000
246.873, 7762.673
247.355, 7637.345
247.837, 7538.872
248.320, 7461.097
248.802, 7374.423
249.284, 7271.077
249.766, 7170.955
250.248, 7086.719
250.730, 7029.364
251.212, 6963.313
251.694, 6880.799
252.176, 6788.022
252.659, 6709.294
253.141, 6646.875
253.623, 6595.842
254.105, 6554.777
254.587, 6531.291
255.069, 6500.190
255.551, 6455.141
256.033, 6401.014
256.516, 6358.129
256.998, 6329.038
257.480, 6306.998
257.962, 6289.622
258.444, 6281.322
258.926, 6263.500
259.408, 6226.426
259.890, 6177.670
260.372, 6157.409
260.855, 6178.098
261.337, 6205.613
261.819, 6218.729
262.301, 6214.188
262.783, 6203.816
263.265, 6184.563
263.747, 6160.454
264.229, 6148.269
264.711, 6151.489
265.194, 6160.040
265.676, 6166.076
266.158, 6165.792
266.640, 6178.256
267.122, 6210.600
267.604, 6255.936
268.086, 6284.250
268.569, 6288.350
269.051, 6292.926
269.533, 6317.377
270.015, 6368.814
270.497, 6405.349
270.979, 6415.069
271.461, 6411.150
271.943, 6440.768
272.425, 6513.311
272.908, 6591.463
273.390, 6647.914
273.872, 6676.920
274.354, 6721.067
274.836, 6787.388
275.318, 6869.365
275.800, 6948.543
276.282, 7022.895
276.764, 7101.707
277.247, 7190.664
277.729, 7289.799
278.211, 7399.612
278.693, 7522.995
279.175, 7654.964
279.657, 7782.517
280.139, 7904.233
280.621, 8029.216
281.103, 8160.948
281.586, 8299.314
282.068, 8450.839
282.550, 8619.288
283.032, 8796.413
283.514, 8963.196
283.996, 9118.451
284.478, 9277.099
284.960, 9453.782
285.443, 9647.168
285.925, 9823.746
286.407, 9978.048
286.889, 10120.370
287.371, 10266.240
287.853, 10415.710
288.335, 10564.960
288.817, 10717.430
289.299, 10870.080
289.782, 11007.250
290.264, 11126.520
290.746, 11226.400
291.228, 11302.740
291.710, 11355.680
292.192, 11387.540
292.674, 11399.900
293.156, 11392.080
293.638, 11358.340
294.121, 11296.120
294.603, 11218.210
295.085, 11145.340
295.567, 11073.260
296.049, 10978.700
296.531, 10845.560
297.013, 10683.540
297.496, 10508.150
297.978, 10321.130
298.460, 10135.300
298.942, 9969.885
299.424, 9820.212
299.906, 9673.482
300.388, 9520.516
300.870, 9368.207
301.352, 9229.650
301.835, 9104.941
302.317, 8992.188
302.799, 8892.537
303.281, 8802.852
303.763, 8714.048
304.245, 8611.423
304.727, 8513.418
305.209, 8444.601
305.691, 8404.375
306.174, 8378.504
306.656, 8362.332
307.138, 8351.405
307.620, 8338.673
308.102, 8322.280
308.584, 8302.695
309.066, 8277.178
309.548, 8246.406
310.030, 8221.448
310.513, 8207.593
310.995, 8203.755
311.477, 8209.163
311.959, 8231.541
312.441, 8255.488
312.923, 8274.512
313.405, 8288.099
313.887, 8292.640
314.370, 8273.561
314.852, 8251.096
315.334, 8243.722
315.816, 8270.904
316.298, 8296.085
316.780, 8300.846
317.262, 8289.851
317.744, 8281.598
318.226, 8289.303
318.709, 8298.571
319.191, 8298.500
319.673, 8271.345
320.155, 8259.297
320.637, 8287.467
321.119, 8340.955
321.601, 8380.057
322.083, 8375.479
322.565, 8368.313
323.048, 8377.726
323.530, 8411.770
324.012, 8450.613
324.494, 8494.422
324.976, 8540.821
325.458, 8585.354
325.940, 8627.765
326.422, 8667.810
326.905, 8704.846
327.387, 8736.078
327.869, 8771.041
328.351, 8809.432
328.833, 8851.628
329.315, 8899.526
329.797, 8971.279
330.279, 9028.124
330.762, 9060.587
331.244, 9065.998
331.726, 9060.896
332.208, 9038.398
332.690, 9010.574
333.172, 8993.441
333.654, 9007.093
334.136, 8995.132
334.618, 8939.466
335.100, 8841.092
335.583, 8753.293
336.065, 8686.017
336.547, 8615.367
337.029, 8514.803
337.511, 8370.796
337.993, 8240.081
338.475, 8139.516
338.957, 8059.680
339.440, 7946.345
339.922, 7789.071
340.404, 7626.304
340.886, 7484.375
341.368, 7366.056
341.850, 7250.516
342.332, 7138.515
342.814, 7027.475
343.297, 6914.079
343.779, 6796.925
344.261, 6683.730
344.743, 6575.861
345.225, 6474.470
345.707, 6384.627
346.189, 6305.896
346.671, 6238.891
347.153, 6182.293
347.635, 6136.176
348.118, 6098.661
348.600, 6068.486
349.082, 6045.726
349.564, 6030.898
350.046, 6024.008
350.528, 6022.961
351.010, 6021.761
351.492, 6023.530
351.975, 6037.862
352.457, 6077.454
352.939, 6128.275
353.421, 6169.336
353.903, 6200.406
354.385, 6234.849
354.867, 6275.232
355.349, 6327.659
355.832, 6401.890
356.314, 6509.515
356.796, 6633.626
357.278, 6764.605
357.760, 6902.079
358.242, 7037.643
358.724, 7158.592
359.206, 7280.642
359.688, 7418.875
360.171, 7582.859
360.653, 7755.469
361.135, 7932.168
361.617, 8112.417
362.099, 8290.915
362.581, 8465.967
363.063, 8640.112
363.545, 8813.427
364.027, 8981.370
364.510, 9158.350
364.992, 9345.869
365.474, 9544.761
365.956, 9757.470
366.438, 9992.101
366.920, 10231.180
367.402, 10477.180
367.884, 10740.900
368.366, 10972.040
368.849, 11187.920
369.331, 11362.880
369.813, 11470.390
370.295, 11566.360
370.777, 11522.390
371.259, 11305.700
371.741, 10917.760
372.224, 10417.220
372.706, 9735.239
373.188, 9013.557
373.670, 8362.409
374.152, 7787.415
374.634, 7271.500
375.116, 6818.911
375.598, 6426.083
376.080, 6087.237
376.562, 5806.440
377.045, 5576.524
377.527, 5409.989
378.009, 5311.709
378.491, 5200.928
378.973, 5066.409
379.455, 4928.057
379.937, 4829.331
380.419, 4770.586
380.902, 4719.635
381.384, 4655.570
381.866, 4584.358
382.348, 4538.094
382.830, 4519.916
383.312, 4511.808
383.794, 4493.421
384.276, 4467.537
384.759, 4444.278
385.241, 4425.198
385.723, 4412.246
386.205, 4414.048
386.687, 4429.371
387.169, 4441.242
387.651, 4428.693
388.133, 4405.494
388.615, 4393.062
389.098, 4400.987
389.580, 4416.031
390.062, 4427.513
390.544, 4436.924
391.026, 4448.773
391.508, 4468.015
391.990, 4489.215
392.472, 4509.389
392.954, 4529.529
393.437, 4544.331
393.919, 4546.426
394.401, 4542.674
394.883, 4544.128
395.365, 4556.684
395.847, 4572.962
396.329, 4591.207
396.811, 4611.768
397.293, 4630.443
397.776, 4650.678
398.258, 4666.564
398.740, 4672.995
399.222, 4654.387
399.704, 4643.381
400.186, 4646.922
400.668, 4663.259
401.151, 4674.624
401.633, 4675.115
402.115, 4677.158
402.597, 4689.102
403.079, 4718.447
403.561, 4739.342
404.043, 4748.792
404.525, 4750.462
405.007, 4750.350
405.490, 4744.842
405.972, 4749.115
406.454, 4775.288
406.936, 4824.224
407.418, 4854.108
407.900, 4861.113
408.382, 4859.461
408.864, 4865.632
409.346, 4879.423
409.828, 4896.173
410.311, 4913.591
410.793, 4933.180
411.275, 4962.354
411.757, 5001.239
412.239, 5036.904
412.721, 5055.663
413.203, 5063.772
413.685, 5076.221
414.168, 5097.722
414.650, 5121.036
415.132, 5131.865
415.614, 5136.203
416.096, 5152.749
416.578, 5203.021
417.060, 5264.199
417.542, 5313.119
418.025, 5345.299
418.507, 5377.814
418.989, 5418.968
419.471, 5466.621
419.953, 5518.780
420.435, 5574.596
420.917, 5634.534
421.399, 5699.188
421.881, 5768.503
422.364, 5839.641
422.846, 5916.095
423.328, 5991.844
423.810, 6062.081
424.292, 6112.183
424.774, 6175.368
425.256, 6259.521
425.738, 6358.839
426.220, 6453.574
426.703, 6542.972
427.185, 6629.417
427.667, 6709.144
428.149, 6775.072
428.631, 6870.214
429.113, 7017.146
429.595, 7168.473
430.077, 7258.505
430.560, 7277.425
431.042, 7283.327
431.524, 7285.104
432.006, 7285.658
432.488, 7303.946
432.970, 7343.042
433.452, 7378.587
433.934, 7392.212
434.417, 7385.455
434.899, 7369.152
435.381, 7345.501
435.863, 7311.618
436.345, 7258.812
436.827, 7190.309
437.309, 7120.161
437.791, 7061.087
438.273, 7003.321
438.755, 6931.992
439.238, 6845.651
439.720, 6757.610
440.202, 6679.052
440.684, 6604.568
441.166, 6526.516
441.648, 6444.271
442.130, 6356.702
442.612, 6257.768
443.095, 6150.380
443.577, 6052.213
444.059, 5970.591
444.541, 5898.434
445.023, 5833.625
445.505, 5785.444
445.987, 5725.273
446.469, 5631.389
446.952, 5526.759
447.434, 5450.591
447.916, 5441.431
448.398, 5415.975
448.880, 5346.739
449.362, 5228.319
449.844, 5141.056
450.326, 5094.353
450.808, 5066.212
451.290, 5041.884
451.773, 5024.336
452.255, 4998.413
452.737, 4959.813
453.219, 4913.396
453.701, 4869.969
454.183, 4829.691
454.665, 4792.776
455.147, 4761.053
455.630, 4733.357
456.112, 4700.089
456.594, 4660.059
457.076, 4621.546
457.558, 4595.965
458.040, 4580.265
458.522, 4565.677
459.004, 4551.123
459.487, 4534.400
459.969, 4509.922
460.451, 4479.513
460.933, 4452.007
461.415, 4435.723
461.897, 4424.152
462.379, 4410.159
462.861, 4389.193
463.343, 4374.694
463.826, 4381.570
464.308, 4397.533
464.790, 4402.831
465.272, 4379.875
465.754, 4356.650
466.236, 4342.943
466.718, 4339.626
467.200, 4335.349
467.682, 4325.353
468.165, 4316.940
468.647, 4315.340
469.129, 4328.299
469.611, 4333.738
470.093, 4327.315
470.575, 4313.809
471.057, 4305.403
471.539, 4303.315
472.022, 4302.886
472.504, 4303.166
472.986, 4304.068
473.468, 4300.642
473.950, 4292.085
474.432, 4282.572
474.914, 4276.736
475.396, 4274.194
475.878, 4271.926
476.361, 4268.572
476.843, 4266.176
477.325, 4270.512
477.807, 4280.070
478.289, 4286.486
478.771, 4281.497
479.253, 4272.033
479.735, 4267.468
480.217, 4269.972
480.700, 4269.845
481.182, 4253.341
481.664, 4232.397
482.146, 4222.528
482.628, 4241.935
483.110, 4260.494
483.592, 4266.516
484.074, 4261.096
484.556, 4254.210
485.039, 4242.802
485.521, 4234.070
486.003, 4233.252
486.485, 4251.933
486.967, 4253.883
487.449, 4232.200
487.931, 4197.953
488.414, 4165.567
488.896, 4133.107
489.378, 4108.396
489.860, 4093.841
490.342, 4088.950
490.824, 4091.518
491.306, 4104.310
491.788, 4113.101
492.270, 4102.669
492.753, 4076.178
493.235, 4059.902
493.717, 4059.361
494.199, 4062.601
494.681, 4050.143
495.163, 4026.797
495.645, 4009.410
496.127, 4013.099
496.609, 4022.855
497.092, 4018.675
497.574, 4001.935
498.056, 3988.260
498.538, 3996.367
499.020, 4007.482
499.502, 4002.632
499.984, 3966.292
500.466, 3935.671
500.948, 3925.842
501.431, 3930.336
501.913, 3937.990
502.395, 3956.697
502.877, 3968.401
503.359, 3963.152
503.841, 3939.647
504.323, 3929.414
504.805, 3937.975
505.288, 3953.677
505.770, 3969.772
506.252, 3987.752
506.734, 4000.904
507.216, 4007.903
507.698, 4010.678
508.180, 4012.125
508.662, 4012.088
509.145, 4013.751
509.627, 4020.338
510.109, 4029.519
510.591, 4030.647
511.073, 4023.612
511.555, 4021.107
512.037, 4040.861
512.519, 4071.515
513.001, 4092.104
513.484, 4097.746
513.966, 4094.449
514.448, 4077.209
514.930, 4054.933
515.412, 4045.751
515.894, 4064.822
516.376, 4092.405
516.858, 4120.641
517.341, 4149.116
517.823, 4174.718
518.305, 4194.034
518.787, 4211.950
519.269, 4231.945
519.751, 4265.966
520.233, 4283.043
520.715, 4265.854
521.197, 4239.669
521.680, 4256.864
522.162, 4337.422
522.644, 4407.421
523.126, 4439.981
523.608, 4440.628
524.090, 4449.684
524.572, 4466.972
525.054, 4494.915
525.536, 4543.491
526.019, 4606.602
526.501, 4656.330
526.983, 4685.778
527.465, 4709.765
527.947, 4746.039
528.429, 4790.361
528.911, 4834.242
529.393, 4871.562
529.875, 4907.989
530.358, 4942.447
530.840, 4976.714
531.322, 5026.772
531.804, 5118.695
532.286, 5216.329
532.768, 5291.083
533.250, 5323.898
533.732, 5370.422
534.214, 5442.187
534.697, 5530.765
535.179, 5626.946
535.661, 5736.084
536.143, 5842.940
536.625, 5937.910
537.107, 6026.825
537.589, 6138.176
538.071, 6275.217
538.554, 6423.045
539.036, 6573.641
539.518, 6726.211
540.000, 6877.290
540.482, 7022.926
540.964, 7173.745
541.446, 7340.178
541.928, 7522.123
542.411, 7721.998
542.893, 7943.872
543.375, 8179.343
543.857, 8416.786
544.339, 8656.225
544.821, 8904.622
545.303, 9168.298
545.785, 9442.558
546.268, 9725.826
546.750, 10018.310
547.232, 10316.490
547.714, 10621.370
548.196, 10928.730
548.678, 11242.080
549.160, 11573.580
549.642, 11891.450
550.124, 12181.690
550.606, 12460.950
551.089, 12773.510
551.571, 13134.850
552.053, 13491.160
552.535, 13822.600
553.017, 14131.050
553.499, 14423.720
553.981, 14702.500
554.463, 14952.270
554.945, 15150.050
555.428, 15307.280
555.910, 15465.990
556.392, 15638.600
556.874, 15791.170
557.356, 15893.070
557.838, 15947.180
558.320, 15959.250
558.802, 15935.000
559.284, 15866.890
559.767, 15741.710
560.249, 15564.930
560.731, 15364.820
561.213, 15138.070
561.695, 14900.310
562.177, 14659.150
562.659, 14421.740
563.141, 14161.040
563.624, 13865.770
564.106, 13558.160
564.588, 13256.730
565.070, 12964.980
565.552, 12675.730
566.034, 12383.090
566.516, 12096.170
566.998, 11831.150
567.481, 11589.580
567.963, 11365.680
568.445, 11161.110
568.927, 10971.060
569.409, 10771.750
569.891, 10564.690
570.373, 10367.550
570.855, 10203.790
571.338, 10057.200
571.820, 9910.809
572.302, 9756.502
572.784, 9606.107
573.266, 9465.719
573.748, 9332.685
574.230, 9199.663
574.712, 9062.894
575.194, 8929.210
575.677, 8802.641
576.159, 8682.295
576.641, 8560.062
577.123, 8440.941
577.605, 8311.610
578.087, 8161.704
578.569, 7983.333
579.051, 7824.483
579.533, 7689.118
580.016, 7563.658
580.498, 7433.056
580.980, 7297.965
581.462, 7165.182
581.944, 7037.645
582.426, 6910.733
582.908, 6773.651
583.390, 6632.441
583.872, 6503.207
584.355, 6397.951
584.837, 6305.934
585.319, 6222.857
585.801, 6147.853
586.283, 6065.178
586.765, 5957.592
587.247, 5847.310
587.729, 5748.541
588.211, 5669.172
588.694, 5589.102
589.176, 5499.834
589.658, 5413.933
590.140, 5348.752
590.622, 5313.418
591.104, 5275.246
591.586, 5229.798
592.068, 5177.290
592.551, 5114.184
593.033, 5039.513
593.515, 4973.342
593.997, 4933.432
594.479, 4909.440
594.961, 4871.852
595.443, 4820.301
595.925, 4768.456
596.407, 4729.291
596.890, 4695.142
597.372, 4655.261
597.854, 4601.667
598.336, 4556.245
598.818, 4534.467
599.300, 4526.052
599.782, 4515.708
600.265, 4499.301
600.747, 4481.401
601.229, 4456.090
601.711, 4428.359
602.193, 4425.254
602.675, 4392.495
603.157, 4399.248
603.639, 4396.415
604.121, 4384.503
604.604, 4336.331
605.086, 4334.983
605.568, 4314.870
606.050, 4293.982
606.532, 4299.226
607.014, 4256.327
607.496, 4258.593
607.978, 4244.005
608.460, 4224.892
608.943, 4204.179
609.425, 4187.671
609.907, 4185.893
610.389, 4180.697
610.871, 4158.186
611.353, 4123.030
611.835, 4097.177
612.317, 4091.309
612.799, 4089.401
613.282, 4085.225
613.764, 4078.021
614.246, 4075.556
614.728, 4081.667
615.210, 4086.131
615.692, 4079.182
616.174, 4060.252
616.656, 4041.958
617.138, 4024.189
617.621, 4011.499
618.103, 4014.295
618.585, 4028.361
619.067, 4038.818
619.549, 4039.984
620.031, 4035.383
620.513, 4022.164
620.995, 4004.683
621.477, 3997.540
621.960, 4023.252
622.442, 4047.534
622.924, 4039.837
623.406, 3991.351
623.888, 3991.497
624.370, 3971.468
