##NAMES=Narsarsukite
##RRUFFID=R060217
##IDEAL CHEMISTRY=Na_2_(Ti^4+^,Fe^3+^)Si_4_(O,F)_11_
##LOCALITY=Mont Saint-Hilaire, Rouville County, Quebec, Canada
##OWNER=RRUFF
##SOURCE=Royal Ontario Museum
##DESCRIPTION=Tan to green tetragonal prisms
##STATUS=The identification of this mineral has been confirmed by X-ray diffraction.
##URL=rruff.info/R060217
92.07813, 384.0702
92.56024, 392.1766
93.04236, 380.0317
93.52448, 355.2814
94.00659, 346.1849
94.48871, 394.4782
94.97083, 471.7080
95.45294, 498.0078
95.93506, 454.6384
96.41718, 376.5594
96.89929, 313.9045
97.38141, 267.1037
97.86353, 242.6490
98.34564, 250.8438
98.82776, 290.4479
99.30988, 340.5782
99.79199, 407.2417
100.2741, 478.9026
100.7562, 510.6776
101.2383, 495.7415
101.7205, 459.7299
102.2026, 417.9743
102.6847, 363.4139
103.1668, 333.6113
103.6489, 348.2480
104.1310, 409.0608
104.6132, 424.8127
105.0953, 368.1074
105.5774, 292.0342
106.0595, 264.0406
106.5416, 309.1208
107.0237, 364.1372
107.5059, 418.2995
107.9880, 479.0445
108.4701, 513.7098
108.9522, 501.7416
109.4343, 467.7253
109.9164, 456.2108
110.3986, 500.6689
110.8807, 539.7103
111.3628, 554.9535
111.8449, 534.0569
112.3270, 508.5387
112.8091, 471.8493
113.2913, 430.6574
113.7734, 403.2486
114.2555, 384.6752
114.7376, 385.5110
115.2197, 412.2751
115.7018, 498.8612
116.1840, 574.2165
116.6661, 609.8181
117.1482, 613.5555
117.6303, 626.3781
118.1124, 677.4438
118.5945, 738.2585
119.0767, 783.9459
119.5588, 785.4380
120.0409, 787.9698
120.5230, 818.9149
121.0051, 876.8460
121.4872, 934.6332
121.9694, 964.5176
122.4515, 985.9893
122.9336, 1026.258
123.4157, 1111.222
123.8978, 1211.264
124.3799, 1292.138
124.8621, 1349.935
125.3442, 1422.432
125.8263, 1548.917
126.3084, 1716.175
126.7905, 1892.648
127.2726, 2079.857
127.7548, 2260.807
128.2369, 2401.007
128.7190, 2492.368
129.2011, 2564.723
129.6832, 2657.062
130.1653, 2764.680
130.6474, 2864.529
131.1296, 2942.871
131.6117, 3001.818
132.0938, 3046.129
132.5759, 3068.046
133.0580, 3090.004
133.5401, 3158.516
134.0223, 3274.674
134.5044, 3403.612
134.9865, 3512.464
135.4686, 3603.886
135.9507, 3732.684
136.4328, 3916.095
136.9150, 4139.243
137.3971, 4349.329
137.8792, 4545.155
138.3613, 4737.059
138.8434, 4934.968
139.3255, 5139.390
139.8077, 5340.691
140.2898, 5541.249
140.7719, 5738.229
141.2540, 5923.544
141.7361, 6096.962
142.2182, 6255.796
142.7004, 6390.552
143.1825, 6480.938
143.6646, 6595.977
144.1467, 6756.420
144.6288, 6968.760
145.1109, 7154.908
145.5931, 7305.575
146.0752, 7438.829
146.5573, 7577.675
147.0394, 7717.504
147.5215, 7868.604
148.0036, 8030.805
148.4858, 8207.608
148.9679, 8391.236
149.4500, 8579.225
149.9321, 8775.393
150.4142, 8980.868
150.8963, 9171.725
151.3785, 9398.321
151.8606, 9675.605
152.3427, 10029.66
152.8248, 10383.10
153.3069, 10704.73
153.7890, 11029.24
154.2712, 11380.80
154.7533, 11724.16
155.2354, 12105.90
155.7175, 12532.10
156.1996, 13020.52
156.6817, 13502.89
157.1639, 13931.43
157.6460, 14348.70
158.1281, 14837.54
158.6102, 15482.16
159.0923, 16152.63
159.5744, 16789.02
160.0566, 17367.85
160.5387, 17923.40
161.0208, 18496.01
161.5029, 19056.89
161.9850, 19518.59
162.4671, 19939.16
162.9493, 20204.24
163.4314, 20238.46
163.9135, 20014.02
164.3956, 19578.69
164.8777, 18893.50
165.3598, 17995.23
165.8420, 17032.37
166.3241, 16000.61
166.8062, 14968.87
167.2883, 13994.71
167.7704, 13040.88
168.2525, 12200.25
168.7346, 11543.90
169.2168, 11054.83
169.6989, 10631.75
170.1810, 10222.82
170.6631, 9842.023
171.1452, 9505.389
171.6273, 9240.127
172.1095, 9007.538
172.5916, 8773.744
173.0737, 8539.964
173.5558, 8321.454
174.0379, 8122.018
174.5201, 7946.616
175.0022, 7799.707
175.4843, 7686.047
175.9664, 7599.108
176.4485, 7537.644
176.9306, 7500.506
177.4128, 7477.065
177.8949, 7454.659
178.3770, 7438.893
178.8591, 7441.849
179.3412, 7473.630
179.8233, 7525.213
180.3055, 7587.756
180.7876, 7662.655
181.2697, 7734.033
181.7518, 7771.511
182.2339, 7789.296
182.7160, 7834.949
183.1982, 7951.521
183.6803, 8106.725
184.1624, 8222.186
184.6445, 8292.146
185.1266, 8356.884
185.6087, 8463.463
186.0909, 8607.007
186.5730, 8755.719
187.0551, 8892.391
187.5372, 9023.121
188.0193, 9179.611
188.5014, 9367.232
188.9836, 9556.811
189.4657, 9731.495
189.9478, 9887.279
190.4299, 9995.318
190.9120, 10037.73
191.3941, 10018.90
191.8763, 9960.432
192.3584, 9861.710
192.8405, 9726.352
193.3226, 9549.166
193.8047, 9330.797
194.2868, 9095.619
194.7690, 8847.225
195.2511, 8587.702
195.7332, 8323.603
196.2153, 8047.765
196.6974, 7783.743
197.1795, 7587.085
197.6617, 7460.615
198.1438, 7349.610
198.6259, 7225.384
199.1080, 7088.481
199.5901, 6973.302
200.0722, 6880.003
200.5544, 6810.510
201.0365, 6779.105
201.5186, 6792.294
202.0007, 6800.159
202.4828, 6770.802
202.9649, 6699.573
203.4471, 6659.419
203.9292, 6662.150
204.4113, 6682.872
204.8934, 6668.727
205.3755, 6611.403
205.8576, 6553.187
206.3398, 6516.950
206.8219, 6507.619
207.3040, 6485.908
207.7861, 6448.478
208.2682, 6401.527
208.7503, 6359.305
209.2325, 6325.553
209.7146, 6286.302
210.1967, 6230.849
210.6788, 6152.345
211.1609, 6095.859
211.6430, 6077.698
212.1252, 6069.832
212.6073, 5998.803
213.0894, 5835.731
213.5715, 5685.846
214.0536, 5605.675
214.5357, 5621.883
215.0179, 5605.033
215.5000, 5541.557
215.9821, 5452.928
216.4642, 5387.147
216.9463, 5350.558
217.4284, 5324.202
217.9105, 5301.806
218.3927, 5286.837
218.8748, 5263.439
219.3569, 5224.500
219.8390, 5181.074
220.3211, 5156.982
220.8032, 5156.349
221.2854, 5167.381
221.7675, 5189.126
222.2496, 5230.493
222.7317, 5253.319
223.2138, 5251.156
223.6959, 5233.601
224.1781, 5220.155
224.6602, 5208.763
225.1423, 5205.229
225.6244, 5211.019
226.1065, 5224.182
226.5886, 5254.014
227.0708, 5310.229
227.5529, 5378.546
228.0350, 5430.079
228.5171, 5462.054
228.9992, 5482.752
229.4813, 5493.550
229.9635, 5490.004
230.4456, 5491.063
230.9277, 5501.403
231.4098, 5514.011
231.8919, 5512.884
232.3740, 5482.492
232.8562, 5463.579
233.3383, 5471.909
233.8204, 5514.583
234.3025, 5563.313
234.7846, 5628.106
235.2667, 5693.762
235.7489, 5729.460
236.2310, 5719.097
236.7131, 5705.026
237.1952, 5700.327
237.6773, 5706.076
238.1594, 5717.613
238.6416, 5734.618
239.1237, 5757.643
239.6058, 5788.477
240.0879, 5833.390
240.5700, 5876.352
241.0521, 5909.277
241.5343, 5925.174
242.0164, 5961.490
242.4985, 6027.045
242.9806, 6106.872
243.4627, 6178.951
243.9448, 6237.731
244.4270, 6297.743
244.9091, 6360.972
245.3912, 6425.721
245.8733, 6504.992
246.3554, 6606.998
246.8375, 6717.324
247.3197, 6815.948
247.8018, 6893.437
248.2839, 6976.030
248.7660, 7070.920
249.2481, 7179.869
249.7302, 7291.032
250.2124, 7407.419
250.6945, 7524.294
251.1766, 7636.044
251.6587, 7733.985
252.1408, 7844.724
252.6229, 7980.321
253.1051, 8144.940
253.5872, 8285.613
254.0693, 8388.554
254.5514, 8485.625
255.0335, 8609.787
255.5156, 8765.275
255.9978, 8935.238
256.4799, 9115.002
256.9620, 9305.451
257.4441, 9520.174
257.9262, 9770.436
258.4083, 10029.72
258.8904, 10267.47
259.3726, 10470.61
259.8547, 10688.48
260.3368, 10925.66
260.8189, 11184.06
261.3010, 11464.24
261.7831, 11772.71
262.2653, 12091.78
262.7474, 12402.74
263.2295, 12704.81
263.7116, 13010.00
264.1937, 13328.82
264.6758, 13653.28
265.1580, 13957.72
265.6401, 14245.36
266.1222, 14503.36
266.6043, 14725.38
267.0864, 14918.05
267.5685, 15057.33
268.0507, 15136.69
268.5328, 15163.07
269.0149, 15171.85
269.4970, 15180.63
269.9791, 15130.21
270.4612, 14971.52
270.9434, 14682.75
271.4255, 14395.46
271.9076, 14123.65
272.3897, 13851.28
272.8718, 13529.07
273.3539, 13146.04
273.8361, 12748.29
274.3182, 12349.32
274.8003, 11945.06
275.2824, 11583.73
275.7645, 11276.97
276.2466, 11005.63
276.7288, 10731.42
277.2109, 10452.07
277.6930, 10184.22
278.1751, 9942.055
278.6572, 9725.285
279.1393, 9516.670
279.6215, 9315.518
280.1036, 9124.212
280.5857, 8940.942
281.0678, 8764.098
281.5499, 8616.865
282.0320, 8522.974
282.5142, 8477.037
282.9963, 8407.412
283.4784, 8307.560
283.9605, 8204.146
284.4426, 8138.555
284.9247, 8111.776
285.4069, 8069.665
285.8890, 7986.252
286.3711, 7872.448
286.8532, 7773.789
287.3353, 7689.011
287.8174, 7625.725
288.2996, 7604.624
288.7817, 7621.326
289.2638, 7626.209
289.7459, 7601.927
290.2280, 7558.994
290.7101, 7523.458
291.1923, 7495.196
291.6744, 7475.031
292.1565, 7466.333
292.6386, 7467.146
293.1207, 7468.644
293.6028, 7471.442
294.0850, 7470.821
294.5671, 7446.689
295.0492, 7401.318
295.5313, 7373.936
296.0134, 7402.723
296.4955, 7472.575
296.9777, 7541.129
297.4598, 7601.571
297.9419, 7657.378
298.4240, 7710.518
298.9061, 7761.462
299.3882, 7814.077
299.8704, 7854.409
300.3525, 7900.659
300.8346, 7996.694
301.3167, 8154.326
301.7988, 8328.594
302.2809, 8467.939
302.7631, 8583.730
303.2452, 8714.282
303.7273, 8888.493
304.2094, 9084.360
304.6915, 9270.308
305.1736, 9446.123
305.6558, 9615.972
306.1379, 9773.690
306.6200, 9929.125
307.1021, 10100.07
307.5842, 10329.49
308.0663, 10556.81
308.5485, 10727.77
309.0306, 10841.52
309.5127, 10923.96
309.9948, 10986.13
310.4769, 11029.31
310.9590, 11055.62
311.4412, 11076.23
311.9233, 11070.22
312.4054, 11013.39
312.8875, 10912.33
313.3696, 10803.45
313.8517, 10710.86
314.3339, 10619.05
314.8160, 10511.55
315.2981, 10370.36
315.7802, 10237.02
316.2623, 10138.83
316.7444, 10066.05
317.2266, 9990.388
317.7087, 9882.688
318.1908, 9781.438
318.6729, 9712.323
319.1550, 9689.357
319.6371, 9671.278
320.1193, 9639.644
320.6014, 9604.582
321.0835, 9582.329
321.5656, 9588.229
322.0477, 9598.828
322.5298, 9607.732
323.0120, 9616.368
323.4941, 9611.438
323.9762, 9571.505
324.4583, 9523.494
324.9404, 9496.551
325.4225, 9522.165
325.9047, 9542.373
326.3868, 9538.436
326.8689, 9509.258
327.3510, 9490.006
327.8331, 9492.760
328.3152, 9500.758
328.7974, 9502.479
329.2795, 9502.295
329.7616, 9490.266
330.2437, 9459.017
330.7258, 9413.017
331.2079, 9375.471
331.6901, 9339.939
332.1722, 9319.081
332.6543, 9320.489
333.1364, 9358.873
333.6185, 9392.095
334.1006, 9416.447
334.5828, 9436.145
335.0649, 9461.938
335.5470, 9501.729
336.0291, 9533.717
336.5112, 9546.178
336.9933, 9532.977
337.4755, 9533.451
337.9576, 9552.686
338.4397, 9579.826
338.9218, 9603.881
339.4039, 9628.675
339.8860, 9635.545
340.3681, 9615.443
340.8503, 9570.270
341.3324, 9529.365
341.8145, 9494.899
342.2966, 9457.458
342.7787, 9400.896
343.2608, 9324.018
343.7430, 9266.131
344.2251, 9243.842
344.7072, 9239.688
345.1893, 9200.375
345.6714, 9123.306
346.1535, 9039.063
346.6357, 8956.457
347.1178, 8880.377
347.5999, 8847.580
348.0820, 8871.869
348.5641, 8916.194
349.0462, 8918.466
349.5284, 8884.166
350.0105, 8855.143
350.4926, 8862.690
350.9747, 8889.978
351.4568, 8893.557
351.9389, 8868.693
352.4211, 8848.621
352.9032, 8876.475
353.3853, 8936.314
353.8674, 8989.563
354.3495, 9018.210
354.8316, 9034.408
355.3138, 9043.713
355.7959, 9048.151
356.2780, 9068.593
356.7601, 9140.492
357.2422, 9230.455
357.7243, 9294.634
358.2065, 9308.424
358.6886, 9312.188
359.1707, 9328.122
359.6528, 9355.463
360.1349, 9391.929
360.6170, 9462.667
361.0992, 9525.043
361.5813, 9546.840
362.0634, 9516.250
362.5455, 9467.375
363.0276, 9403.586
363.5097, 9331.974
363.9919, 9263.137
364.4740, 9196.108
364.9561, 9135.981
365.4382, 9086.452
365.9203, 9048.198
366.4024, 9010.987
366.8846, 8963.132
367.3667, 8920.273
367.8488, 8895.073
368.3309, 8902.439
368.8130, 8912.540
369.2951, 8916.031
369.7773, 8916.490
370.2594, 8936.916
370.7415, 8987.336
371.2236, 9048.732
371.7057, 9114.525
372.1878, 9194.055
372.6700, 9259.517
373.1521, 9300.523
373.6342, 9331.531
374.1163, 9381.813
374.5984, 9461.442
375.0805, 9539.625
375.5627, 9605.615
376.0448, 9658.180
376.5269, 9719.080
377.0090, 9797.088
377.4911, 9868.844
377.9732, 9912.032
378.4554, 9925.923
378.9375, 9911.029
379.4196, 9858.993
379.9017, 9781.549
380.3838, 9726.427
380.8659, 9698.812
381.3481, 9657.029
381.8302, 9563.721
382.3123, 9425.528
382.7944, 9289.882
383.2765, 9159.996
383.7586, 9036.303
384.2408, 8917.370
384.7229, 8804.018
385.2050, 8693.943
385.6871, 8591.051
386.1692, 8491.264
386.6513, 8377.549
387.1335, 8249.548
387.6156, 8129.133
388.0977, 8040.116
388.5798, 7973.866
389.0619, 7913.358
389.5440, 7852.303
390.0262, 7795.907
390.5083, 7756.410
390.9904, 7728.169
391.4725, 7686.709
391.9546, 7602.129
392.4367, 7506.790
392.9189, 7427.014
393.4010, 7369.509
393.8831, 7325.159
394.3652, 7310.186
394.8473, 7302.971
395.3294, 7267.398
395.8116, 7158.188
396.2937, 7047.734
396.7758, 6972.371
397.2579, 6939.198
397.7400, 6889.816
398.2221, 6801.271
398.7043, 6698.356
399.1864, 6601.444
399.6685, 6522.094
400.1506, 6437.554
400.6327, 6342.751
401.1148, 6240.099
401.5970, 6139.142
402.0791, 6026.102
402.5612, 5932.013
403.0433, 5873.914
403.5254, 5867.429
404.0075, 5851.754
404.4897, 5816.299
404.9718, 5781.019
405.4539, 5777.286
405.9360, 5810.789
406.4181, 5858.718
406.9002, 5915.974
407.3824, 5982.232
407.8645, 6061.659
408.3466, 6156.896
408.8287, 6255.178
409.3108, 6342.375
409.7929, 6419.036
410.2751, 6505.823
410.7572, 6606.000
411.2393, 6718.753
411.7214, 6843.763
412.2035, 6980.513
412.6856, 7120.316
413.1678, 7254.543
413.6499, 7388.952
414.1320, 7533.995
414.6141, 7690.849
415.0962, 7865.195
415.5783, 8064.686
416.0605, 8286.383
416.5426, 8528.408
417.0247, 8788.129
417.5068, 9070.791
417.9889, 9385.857
418.4710, 9728.919
418.9532, 10088.63
419.4353, 10460.59
419.9174, 10842.43
420.3995, 11228.04
420.8816, 11623.17
421.3637, 12014.99
421.8459, 12406.71
422.3280, 12788.84
422.8101, 13152.60
423.2922, 13535.06
423.7743, 13856.68
424.2564, 14102.46
424.7386, 14273.25
425.2207, 14328.27
425.7028, 14243.85
426.1849, 14053.04
426.6670, 13774.84
427.1491, 13370.69
427.6313, 12940.20
428.1134, 12473.29
428.5955, 11988.52
429.0776, 11534.13
429.5597, 11097.19
430.0418, 10706.21
430.5240, 10373.66
431.0061, 10103.83
431.4882, 9847.357
431.9703, 9603.979
432.4524, 9377.900
432.9345, 9175.795
433.4167, 8998.605
433.8988, 8830.693
434.3809, 8666.951
434.8630, 8515.404
435.3451, 8401.188
435.8272, 8323.588
436.3094, 8262.678
436.7915, 8202.415
437.2736, 8148.970
437.7557, 8119.738
438.2378, 8117.362
438.7199, 8130.556
439.2020, 8147.888
439.6841, 8172.376
440.1663, 8210.194
440.6484, 8278.674
441.1305, 8351.001
441.6126, 8402.889
442.0947, 8437.192
442.5768, 8469.845
443.0590, 8497.345
443.5411, 8533.532
444.0232, 8592.926
444.5053, 8693.342
444.9874, 8783.523
445.4695, 8850.492
445.9517, 8895.163
446.4338, 8919.708
446.9159, 8911.678
447.3980, 8896.174
447.8801, 8882.720
448.3622, 8872.458
448.8444, 8844.943
449.3265, 8794.795
449.8086, 8731.942
450.2907, 8667.443
450.7728, 8625.636
451.2549, 8524.973
451.7371, 8350.042
452.2192, 8122.391
452.7013, 7884.030
453.1834, 7632.930
453.6655, 7386.293
454.1476, 7156.117
454.6298, 6941.120
455.1119, 6710.292
455.5940, 6461.983
456.0761, 6216.476
456.5582, 5998.902
457.0403, 5804.889
457.5225, 5613.203
458.0046, 5419.319
458.4867, 5233.847
458.9688, 5080.403
459.4509, 4953.540
459.9330, 4837.331
460.4152, 4717.273
460.8973, 4603.800
461.3794, 4506.019
461.8615, 4422.792
462.3436, 4367.942
462.8257, 4363.996
463.3079, 4387.341
463.7900, 4411.325
464.2721, 4426.491
464.7542, 4443.401
465.2363, 4457.540
465.7184, 4475.678
466.2006, 4517.052
466.6827, 4594.240
467.1648, 4688.691
467.6469, 4797.085
468.1290, 4925.408
468.6111, 5042.321
469.0933, 5146.693
469.5754, 5240.714
470.0575, 5323.458
470.5396, 5369.185
471.0217, 5455.674
471.5038, 5598.366
471.9860, 5787.126
472.4681, 5988.022
472.9502, 6197.292
473.4323, 6432.388
473.9144, 6700.724
474.3965, 7002.774
474.8787, 7321.313
475.3608, 7652.466
475.8429, 8012.325
476.3250, 8421.022
476.8071, 8872.502
477.2892, 9339.068
477.7714, 9810.340
478.2535, 10289.39
478.7356, 10775.63
479.2177, 11272.39
479.6998, 11780.99
480.1819, 12344.29
480.6641, 12904.40
481.1462, 13408.05
481.6283, 13855.70
482.1104, 14216.40
482.5925, 14480.99
483.0746, 14646.20
483.5568, 14708.80
484.0389, 14666.77
484.5210, 14522.70
485.0031, 14263.44
485.4852, 13901.49
485.9673, 13467.29
486.4495, 12900.04
486.9316, 12326.66
487.4137, 11786.77
487.8958, 11281.96
488.3779, 10794.22
488.8600, 10311.19
489.3422, 9853.450
489.8243, 9432.517
490.3064, 9054.336
490.7885, 8705.021
491.2706, 8380.008
491.7527, 8085.803
492.2349, 7833.469
492.7170, 7626.736
493.1991, 7443.072
493.6812, 7280.632
494.1633, 7135.533
494.6454, 6979.937
495.1276, 6813.538
495.6097, 6668.840
496.0918, 6584.453
496.5739, 6543.951
497.0560, 6516.938
497.5381, 6497.172
498.0203, 6485.724
498.5024, 6492.192
498.9845, 6507.571
499.4666, 6512.022
499.9487, 6472.005
500.4308, 6438.378
500.9130, 6440.012
501.3951, 6478.141
501.8772, 6535.157
502.3593, 6619.208
502.8414, 6711.016
503.3235, 6798.660
503.8057, 6870.500
504.2878, 6952.075
504.7699, 7039.073
505.2520, 7137.706
505.7341, 7262.445
506.2162, 7434.439
506.6984, 7589.721
507.1805, 7709.085
507.6626, 7795.257
508.1447, 7871.522
508.6268, 7934.936
509.1089, 7999.071
509.5911, 8081.099
510.0732, 8177.545
510.5553, 8245.220
511.0374, 8276.287
511.5195, 8295.969
512.0016, 8332.146
512.4838, 8383.369
512.9659, 8443.509
513.4480, 8512.604
513.9301, 8588.993
514.4122, 8667.580
514.8943, 8750.860
515.3765, 8849.243
515.8586, 8994.166
516.3407, 9140.012
516.8228, 9246.798
517.3049, 9304.393
517.7870, 9358.477
518.2692, 9443.067
518.7513, 9522.414
519.2334, 9561.766
519.7155, 9554.994
520.1976, 9508.192
520.6797, 9426.990
521.1619, 9307.586
521.6440, 9136.177
522.1261, 8902.721
522.6082, 8638.768
523.0903, 8354.422
523.5724, 8049.792
524.0546, 7714.249
524.5367, 7339.626
525.0188, 6966.663
525.5009, 6627.515
525.9830, 6319.393
526.4651, 6023.993
526.9473, 5732.182
527.4294, 5463.095
527.9115, 5261.629
528.3936, 5112.591
528.8757, 4961.647
529.3578, 4774.143
529.8400, 4581.092
530.3221, 4407.938
530.8042, 4257.068
531.2863, 4132.728
531.7684, 4055.322
532.2505, 3995.229
532.7327, 3933.155
533.2148, 3867.591
533.6969, 3795.591
534.1790, 3698.356
534.6611, 3601.923
535.1432, 3537.486
535.6254, 3539.121
536.1075, 3532.158
536.5896, 3510.287
537.0717, 3474.531
537.5538, 3427.106
538.0359, 3360.976
538.5181, 3298.767
539.0002, 3249.818
539.4823, 3214.144
539.9644, 3181.268
540.4465, 3151.849
540.9286, 3121.944
541.4108, 3082.624
541.8929, 3038.054
542.3750, 3011.122
542.8571, 3010.401
543.3392, 3014.359
543.8214, 2995.377
544.3035, 2960.772
544.7856, 2927.907
545.2677, 2902.089
545.7498, 2882.835
546.2319, 2874.981
546.7141, 2875.894
547.1962, 2870.349
547.6783, 2845.013
548.1604, 2816.988
548.6425, 2794.182
549.1246, 2776.130
549.6068, 2768.263
550.0889, 2785.765
550.5710, 2804.605
551.0531, 2801.411
551.5352, 2763.133
552.0173, 2730.732
552.4995, 2710.503
552.9816, 2698.083
553.4637, 2683.804
553.9458, 2667.795
554.4279, 2648.964
554.9100, 2624.915
555.3922, 2597.783
555.8743, 2576.114
556.3564, 2560.094
556.8385, 2546.732
557.3206, 2535.135
557.8027, 2524.285
558.2849, 2513.576
558.7670, 2504.146
559.2491, 2488.815
559.7312, 2459.810
560.2133, 2422.344
560.6954, 2383.476
561.1776, 2341.615
561.6597, 2303.457
562.1418, 2272.216
562.6239, 2246.595
563.1060, 2222.523
563.5881, 2190.757
564.0703, 2169.336
564.5524, 2168.462
565.0345, 2190.943
565.5166, 2196.196
565.9987, 2177.321
566.4808, 2152.960
566.9630, 2138.321
567.4451, 2134.605
567.9272, 2123.161
568.4093, 2099.189
568.8914, 2075.947
569.3735, 2073.655
569.8557, 2089.246
570.3378, 2108.132
570.8199, 2125.833
571.3020, 2143.504
571.7841, 2161.479
572.2662, 2180.232
572.7484, 2201.442
573.2305, 2226.753
573.7126, 2254.437
574.1947, 2286.412
574.6768, 2323.041
575.1589, 2351.918
575.6411, 2357.564
576.1232, 2360.892
576.6053, 2376.606
577.0874, 2413.374
577.5695, 2450.671
578.0516, 2493.434
578.5338, 2533.064
579.0159, 2551.896
579.4980, 2537.355
579.9801, 2548.446
580.4622, 2608.159
580.9443, 2696.206
581.4265, 2744.475
581.9086, 2753.078
582.3907, 2759.837
582.8728, 2790.787
583.3549, 2834.087
583.8370, 2862.160
584.3192, 2874.921
584.8013, 2891.591
585.2834, 2941.313
585.7655, 2996.085
586.2476, 3019.686
586.7297, 2990.548
587.2118, 2971.349
587.6939, 2999.969
588.1760, 3049.599
588.6581, 3086.093
589.1403, 3105.397
589.6224, 3108.074
590.1045, 3086.283
