##NAMES=Narsarsukite
##RRUFFID=R060203
##IDEAL CHEMISTRY=Na_2_(Ti^4+^,Fe^3+^)Si_4_(O,F)_11_
##LOCALITY=Poudrette Quarry, Mont Saint-Hilaire, Rouville County, Quebec, Canada
##OWNER=RRUFF
##SOURCE=Royal Ontario Museum
##DESCRIPTION=Light tan colored transparent fragment
##STATUS=The identification of this mineral is confirmed by single-crystal X-ray diffraction and chemical analysis.
##URL=rruff.info/R060203
##MEASURED CHEMISTRY=(Na_1.24_[box]_0.76_)_Σ=2_(Ti_0.76_Fe^3+^_0.20_Al_0.04_)_Σ=1_Si_4.00_(O_10.00_F_1.00_)_Σ=11_ ; trace amounts of Zr and  K
91.82715, 638.1176
92.30927, 626.4514
92.79138, 628.1109
93.27350, 637.1480
93.75562, 647.7536
94.23773, 661.1173
94.71985, 677.3718
95.20197, 690.0252
95.68408, 696.6133
96.16620, 699.6444
96.64832, 701.3594
97.13043, 701.8232
97.61255, 702.7093
98.09467, 706.5087
98.57678, 714.3932
99.05890, 720.2888
99.54102, 726.3439
100.0231, 731.4567
100.5052, 733.7628
100.9874, 732.0262
101.4695, 727.1480
101.9516, 724.1153
102.4337, 722.4016
102.9158, 723.1554
103.3979, 727.4238
103.8801, 734.2598
104.3622, 742.1157
104.8443, 749.8800
105.3264, 757.6508
105.8085, 764.4256
106.2906, 769.3909
106.7728, 774.0263
107.2549, 778.2016
107.7370, 782.1786
108.2191, 787.9383
108.7012, 798.0387
109.1833, 812.7270
109.6655, 828.4890
110.1476, 844.7357
110.6297, 861.7989
111.1118, 880.4059
111.5939, 900.7003
112.0760, 922.3138
112.5582, 944.5922
113.0403, 967.3563
113.5224, 991.4542
114.0045, 1017.315
114.4866, 1044.993
114.9688, 1073.591
115.4509, 1106.073
115.9330, 1137.004
116.4151, 1163.987
116.8972, 1186.410
117.3793, 1204.324
117.8615, 1218.675
118.3436, 1231.774
118.8257, 1234.242
119.3078, 1224.785
119.7899, 1206.763
120.2720, 1181.583
120.7542, 1149.910
121.2363, 1113.044
121.7184, 1074.338
122.2005, 1030.017
122.6826, 988.0864
123.1647, 948.5436
123.6468, 911.7385
124.1290, 878.3289
124.6111, 848.3557
125.0932, 821.8732
125.5753, 799.4199
126.0574, 780.8475
126.5395, 765.1194
127.0217, 752.1482
127.5038, 741.7758
127.9859, 733.3768
128.4680, 726.0427
128.9501, 720.6440
129.4323, 719.3522
129.9144, 723.7003
130.3965, 731.4276
130.8786, 739.9665
131.3607, 748.8867
131.8428, 760.3297
132.3250, 775.6405
132.8071, 794.5076
133.2892, 817.2748
133.7713, 845.1130
134.2534, 877.0746
134.7355, 911.0196
135.2177, 950.3145
135.6998, 986.6331
136.1819, 1019.241
136.6640, 1046.550
137.1461, 1064.935
137.6282, 1072.266
138.1104, 1068.638
138.5925, 1052.566
139.0746, 1014.489
139.5567, 971.3402
140.0388, 925.6047
140.5209, 879.5667
141.0031, 836.2650
141.4852, 799.3270
141.9673, 769.6121
142.4494, 745.2519
142.9315, 725.6497
143.4136, 710.6238
143.8958, 700.3561
144.3779, 694.8384
144.8600, 693.1359
145.3421, 693.8896
145.8242, 697.6345
146.3063, 703.3594
146.7885, 710.8304
147.2706, 720.3536
147.7527, 732.0775
148.2348, 745.9534
148.7169, 762.5414
149.1990, 783.4929
149.6812, 808.0577
150.1633, 836.7162
150.6454, 869.0892
151.1275, 905.6119
151.6096, 946.7165
152.0917, 991.3499
152.5739, 1043.273
153.0560, 1105.001
153.5381, 1176.673
154.0202, 1256.763
154.5023, 1345.872
154.9844, 1443.957
155.4665, 1543.870
155.9487, 1649.833
156.4308, 1751.785
156.9129, 1842.090
157.3950, 1919.240
157.8771, 1982.886
158.3592, 2030.434
158.8414, 2055.424
159.3235, 2079.563
159.8056, 2108.583
160.2877, 2139.100
160.7698, 2170.636
161.2519, 2203.469
161.7341, 2233.107
162.2162, 2247.014
162.6983, 2249.409
163.1804, 2226.035
163.6625, 2174.244
164.1446, 2097.983
164.6268, 1999.568
165.1089, 1878.805
165.5910, 1739.751
166.0731, 1605.071
166.5552, 1469.674
167.0373, 1343.843
167.5195, 1227.825
168.0016, 1122.686
168.4837, 1029.872
168.9658, 950.9685
169.4479, 885.3251
169.9300, 828.3948
170.4122, 781.0060
170.8943, 739.3324
171.3764, 702.5820
171.8585, 670.4254
172.3406, 641.6193
172.8227, 615.5117
173.3049, 592.7045
173.7870, 572.7894
174.2691, 556.7143
174.7512, 542.7099
175.2333, 529.3310
175.7154, 516.4656
176.1976, 505.0839
176.6797, 496.1924
177.1618, 489.4127
177.6439, 484.2496
178.1260, 481.4094
178.6081, 479.8236
179.0903, 477.6131
179.5724, 474.2076
180.0545, 471.9479
180.5366, 472.9904
181.0187, 476.0014
181.5008, 478.9722
181.9830, 480.4904
182.4651, 481.3625
182.9472, 484.2056
183.4293, 489.7814
183.9114, 496.3592
184.3935, 503.5995
184.8757, 511.0968
185.3578, 518.2003
185.8399, 524.3407
186.3220, 529.6418
186.8041, 535.2629
187.2862, 541.3281
187.7684, 547.6621
188.2505, 554.8924
188.7326, 562.3649
189.2147, 569.0229
189.6968, 574.1993
190.1789, 577.9590
190.6611, 578.7474
191.1432, 575.7762
191.6253, 570.6500
192.1074, 563.4099
192.5895, 554.3448
193.0716, 543.8282
193.5538, 532.1927
194.0359, 519.3159
194.5180, 505.7819
195.0001, 490.0846
195.4822, 475.1938
195.9643, 462.6638
196.4465, 452.3780
196.9286, 443.0887
197.4107, 433.6642
197.8928, 424.0070
198.3749, 415.8509
198.8570, 409.8009
199.3392, 404.6223
199.8213, 399.6261
200.3034, 394.7204
200.7855, 390.0246
201.2676, 385.5116
201.7497, 381.2367
202.2319, 377.8681
202.7140, 376.1616
203.1961, 374.9514
203.6782, 373.0181
204.1603, 370.1902
204.6424, 367.4645
205.1246, 365.8864
205.6067, 365.2251
206.0888, 364.4647
206.5709, 363.2310
207.0530, 361.8600
207.5351, 360.9132
208.0173, 360.5597
208.4994, 360.1151
208.9815, 358.9480
209.4636, 357.2889
209.9457, 355.5449
210.4278, 353.7386
210.9100, 351.9575
211.3921, 350.4655
211.8742, 349.4876
212.3563, 348.3280
212.8384, 346.3060
213.3205, 343.8418
213.8027, 341.7068
214.2848, 340.4109
214.7669, 339.7421
215.2490, 338.9621
215.7311, 337.9745
216.2132, 337.0187
216.6954, 336.3309
217.1775, 335.7304
217.6596, 334.9037
218.1417, 333.6439
218.6238, 332.0025
219.1059, 330.2157
219.5881, 327.4985
220.0702, 325.7113
220.5523, 325.9126
221.0344, 327.2881
221.5165, 328.5472
221.9986, 328.8332
222.4808, 328.2489
222.9629, 327.7472
223.4450, 327.0675
223.9271, 326.7921
224.4092, 327.2549
224.8913, 328.1857
225.3735, 329.1176
225.8556, 329.7284
226.3377, 330.0641
226.8198, 330.7121
227.3019, 332.0846
227.7840, 333.3398
228.2662, 334.2717
228.7483, 334.9595
229.2304, 335.5958
229.7125, 336.3322
230.1946, 337.1159
230.6767, 337.3391
231.1589, 336.0951
231.6410, 335.3198
232.1231, 335.9145
232.6052, 337.3146
233.0873, 338.2548
233.5694, 337.8413
234.0516, 336.4380
234.5337, 336.7931
235.0158, 340.5575
235.4979, 343.9072
235.9800, 345.6981
236.4621, 346.2306
236.9443, 346.0543
237.4264, 345.2537
237.9085, 344.2017
238.3906, 344.6522
238.8727, 347.5777
239.3548, 350.5738
239.8370, 352.9571
240.3191, 354.8086
240.8012, 356.1652
241.2833, 356.8191
241.7654, 357.2578
242.2475, 358.9208
242.7297, 362.2529
243.2118, 365.8272
243.6939, 368.9725
244.1760, 371.8522
244.6581, 374.9746
245.1402, 378.5917
245.6224, 382.5162
246.1045, 386.3604
246.5866, 390.0291
247.0687, 393.8377
247.5508, 397.8219
248.0329, 402.0349
248.5151, 406.7422
248.9972, 412.1178
249.4793, 418.0139
249.9614, 424.0251
250.4435, 430.0817
250.9256, 436.6800
251.4078, 444.2772
251.8899, 452.7115
252.3720, 461.4474
252.8541, 470.1187
253.3362, 479.3624
253.8183, 489.6106
254.3005, 500.8565
254.7826, 512.8898
255.2647, 525.1128
255.7468, 537.8176
256.2289, 552.5461
256.7110, 569.8328
257.1931, 589.0770
257.6753, 609.6319
258.1574, 631.3831
258.6395, 653.6611
259.1216, 675.1968
259.6037, 696.5145
260.0858, 721.1160
260.5680, 750.6430
261.0501, 781.8676
261.5322, 812.5300
262.0143, 843.0001
262.4964, 874.4348
262.9785, 908.7159
263.4607, 944.9474
263.9428, 978.8053
264.4249, 1010.013
264.9070, 1038.596
265.3891, 1065.614
265.8712, 1090.483
266.3534, 1112.009
266.8355, 1130.041
267.3176, 1144.138
267.7997, 1152.535
268.2818, 1155.057
268.7639, 1151.134
269.2461, 1141.174
269.7282, 1125.733
270.2103, 1105.346
270.6924, 1079.934
271.1745, 1050.189
271.6566, 1018.546
272.1388, 984.8220
272.6209, 949.5441
273.1030, 911.4475
273.5851, 872.5920
274.0672, 835.7285
274.5493, 801.9221
275.0315, 770.5084
275.5136, 740.0358
275.9957, 709.7042
276.4778, 681.9373
276.9599, 657.0615
277.4420, 634.4214
277.9242, 613.5501
278.4063, 594.1765
278.8884, 576.2249
279.3705, 559.4363
279.8526, 544.2159
280.3347, 529.5531
280.8169, 514.2753
281.2990, 500.0757
281.7811, 488.6325
282.2632, 480.2075
282.7453, 473.3712
283.2274, 465.9561
283.7096, 457.2315
284.1917, 449.8282
284.6738, 444.0430
285.1559, 439.1827
285.6380, 435.2646
286.1201, 432.0678
286.6023, 428.8245
287.0844, 424.3477
287.5665, 417.8325
288.0486, 413.4945
288.5307, 412.4476
289.0128, 412.3734
289.4950, 412.5602
289.9771, 412.8320
290.4592, 413.1523
290.9413, 413.4355
291.4234, 413.6328
291.9055, 414.4324
292.3877, 416.2977
292.8698, 418.2944
293.3519, 420.1915
293.8340, 421.9878
294.3161, 423.6295
294.7982, 424.9604
295.2804, 426.1166
295.7625, 428.7968
296.2446, 433.6368
296.7267, 439.4555
297.2088, 446.3067
297.6909, 453.9572
298.1731, 462.1615
298.6552, 470.7773
299.1373, 479.6811
299.6194, 488.3393
300.1015, 495.5977
300.5836, 504.0342
301.0658, 514.1483
301.5479, 525.3306
302.0300, 536.9556
302.5121, 548.7449
302.9942, 560.9088
303.4763, 574.1426
303.9585, 589.4039
304.4406, 604.2126
304.9227, 618.3370
305.4048, 632.1288
305.8869, 646.1259
306.3690, 660.3316
306.8512, 674.2204
307.3333, 687.2461
307.8154, 700.1555
308.2975, 709.7845
308.7796, 716.8998
309.2617, 720.8578
309.7439, 720.9099
310.2260, 717.2668
310.7081, 710.8885
311.1902, 702.7323
311.6723, 692.7487
312.1544, 680.6179
312.6366, 665.8424
313.1187, 649.7314
313.6008, 631.9103
314.0829, 613.0604
314.5650, 594.3356
315.0471, 576.5117
315.5293, 559.6572
316.0114, 544.7939
316.4935, 532.7042
316.9756, 521.6362
317.4577, 511.6301
317.9398, 502.3900
318.4220, 493.5314
318.9041, 484.8542
319.3862, 476.4769
319.8683, 468.6879
320.3504, 461.8350
320.8326, 455.3070
321.3147, 448.7936
321.7968, 442.7297
322.2789, 437.6244
322.7610, 433.6490
323.2431, 430.3167
323.7253, 426.8375
324.2074, 422.9556
324.6895, 419.4336
325.1716, 416.0668
325.6537, 413.1233
326.1358, 410.8393
326.6180, 409.2004
327.1001, 407.9425
327.5822, 406.7968
328.0643, 405.7745
328.5464, 404.8036
329.0285, 403.9651
329.5107, 403.0932
329.9928, 402.0938
330.4749, 400.9966
330.9570, 399.8637
331.4391, 398.7022
331.9212, 397.5437
332.4034, 396.8641
332.8855, 397.0174
333.3676, 397.2945
333.8497, 397.6862
334.3318, 398.0936
334.8139, 398.3739
335.2961, 398.4503
335.7782, 398.4184
336.2603, 398.5466
336.7424, 398.8213
337.2245, 399.3120
337.7066, 400.0969
338.1888, 401.0384
338.6709, 402.0079
339.1530, 402.9767
339.6351, 404.0032
340.1172, 405.1847
340.5993, 406.5625
341.0815, 407.9888
341.5636, 409.4666
342.0457, 410.9738
342.5278, 412.4534
343.0099, 413.9357
343.4920, 415.5351
343.9742, 417.3824
344.4563, 419.4946
344.9384, 421.5379
345.4205, 423.7914
345.9026, 425.6788
346.3847, 426.1775
346.8669, 426.2858
347.3490, 427.9336
347.8311, 432.5061
348.3132, 439.0607
348.7953, 443.6761
349.2774, 445.0715
349.7596, 446.4725
350.2417, 448.0006
350.7238, 450.0570
351.2059, 453.1769
351.6880, 457.5339
352.1701, 462.5035
352.6523, 466.9014
353.1344, 470.2409
353.6165, 474.5255
354.0986, 480.0705
354.5807, 486.5053
355.0628, 493.7814
355.5450, 501.8188
356.0271, 510.3716
356.5092, 519.1251
356.9913, 528.0016
357.4734, 537.8599
357.9555, 549.7271
358.4377, 561.4462
358.9198, 572.5985
359.4019, 582.9059
359.8840, 591.8705
360.3661, 599.1904
360.8482, 604.9752
361.3304, 609.9213
361.8125, 614.8858
362.2946, 616.8926
362.7767, 613.7313
363.2588, 607.9072
363.7409, 601.5964
364.2231, 595.3087
364.7052, 589.3278
365.1873, 583.8497
365.6694, 578.7888
366.1515, 574.8214
366.6336, 572.3654
367.1158, 570.9498
367.5979, 570.1591
368.0800, 569.9907
368.5621, 570.7512
369.0442, 572.6003
369.5263, 575.5427
370.0085, 579.6810
370.4906, 585.2665
370.9727, 591.6624
371.4548, 598.6068
371.9369, 605.9565
372.4190, 613.5218
372.9012, 621.1666
373.3833, 628.9858
373.8654, 637.2852
374.3475, 646.1257
374.8296, 654.6790
375.3117, 662.6539
375.7939, 669.9440
376.2760, 676.4084
376.7581, 681.8783
377.2402, 686.9523
377.7223, 692.9738
378.2044, 699.2461
378.6866, 702.5851
379.1687, 701.6998
379.6508, 698.2142
380.1329, 694.1588
380.6150, 689.6331
381.0971, 683.6736
381.5793, 675.3912
382.0614, 665.6888
382.5435, 655.8395
383.0256, 645.9528
383.5077, 635.6645
383.9898, 624.2432
384.4720, 611.9912
384.9541, 600.6500
385.4362, 590.8998
385.9183, 581.5653
386.4004, 572.0693
386.8825, 562.4514
387.3647, 552.5986
387.8468, 542.3303
388.3289, 532.0959
388.8110, 523.2360
389.2931, 516.2922
389.7752, 509.1443
390.2574, 501.0537
390.7395, 492.6634
391.2216, 484.6785
391.7037, 477.2786
392.1858, 470.2889
392.6679, 463.4681
393.1501, 456.6621
393.6322, 451.1787
394.1143, 448.0219
394.5964, 445.1284
395.0785, 441.3633
395.5606, 436.8808
396.0428, 432.3947
396.5249, 428.2954
397.0070, 424.6272
397.4891, 421.5083
397.9712, 419.3141
398.4533, 417.2658
398.9355, 415.2871
399.4176, 413.4067
399.8997, 411.6373
400.3818, 409.9909
400.8639, 408.4721
401.3460, 407.0357
401.8282, 405.4634
402.3103, 404.6299
402.7924, 404.4157
403.2745, 404.9214
403.7566, 406.5372
404.2387, 408.9716
404.7209, 411.4338
405.2030, 413.2332
405.6851, 414.5484
406.1672, 416.6665
406.6493, 419.7180
407.1314, 423.4707
407.6136, 428.4355
408.0957, 433.7403
408.5778, 438.2151
409.0599, 441.4180
409.5420, 444.5041
410.0241, 449.3801
410.5063, 456.4002
410.9884, 463.1971
411.4705, 468.8737
411.9526, 474.7042
412.4347, 480.7921
412.9168, 487.4556
413.3990, 495.8339
413.8811, 507.2641
414.3632, 521.0631
414.8453, 534.4346
415.3274, 546.6321
415.8095, 560.2687
416.2917, 576.4499
416.7738, 594.9991
417.2559, 615.9993
417.7380, 639.4510
418.2201, 665.4576
418.7022, 694.3643
419.1844, 726.1132
419.6665, 760.5275
420.1486, 798.4252
420.6307, 837.6737
421.1128, 875.6281
421.5949, 912.6472
422.0771, 948.2094
422.5592, 985.2772
423.0413, 1019.395
423.5234, 1045.512
424.0055, 1063.017
424.4876, 1071.094
424.9698, 1068.324
425.4519, 1054.552
425.9340, 1034.873
426.4161, 1006.913
426.8982, 975.8310
427.3803, 942.3120
427.8625, 907.4924
428.3446, 873.4885
428.8267, 840.8206
429.3088, 810.3375
429.7909, 783.5283
430.2730, 761.2320
430.7552, 741.4219
431.2373, 725.0885
431.7194, 710.5815
432.2015, 696.5990
432.6836, 683.2607
433.1657, 671.3956
433.6479, 661.6790
434.1300, 654.1176
434.6121, 648.7083
435.0942, 646.6957
435.5763, 645.4879
436.0584, 644.7927
436.5406, 644.6537
437.0227, 645.0120
437.5048, 645.8845
437.9869, 647.6390
438.4690, 650.9783
438.9511, 656.3154
439.4333, 661.9005
439.9154, 667.4974
440.3975, 673.5766
440.8796, 680.3984
441.3617, 687.8922
441.8438, 695.8606
442.3260, 704.2660
442.8081, 712.9626
443.2902, 721.1258
443.7723, 728.5022
444.2544, 736.0781
444.7365, 745.0488
445.2187, 753.9461
445.7008, 761.3204
446.1829, 766.8631
446.6650, 771.2584
447.1471, 775.5243
447.6292, 779.2986
448.1114, 780.4695
448.5935, 778.3303
449.0756, 774.2595
449.5577, 769.6697
450.0398, 764.2346
450.5219, 756.3748
451.0041, 744.6640
451.4862, 731.0776
451.9683, 717.9754
452.4504, 705.0100
452.9325, 689.6699
453.4146, 670.2737
453.8968, 648.5422
454.3789, 627.9002
454.8610, 608.1406
455.3431, 589.9121
455.8252, 574.1324
456.3073, 559.5657
456.7895, 544.5090
457.2716, 528.8820
457.7537, 514.0270
458.2358, 500.9866
458.7179, 489.7428
459.2000, 480.1860
459.6822, 472.1289
460.1643, 465.6419
460.6464, 460.8386
461.1285, 457.5817
461.6106, 455.6289
462.0927, 454.9020
462.5748, 455.7221
463.0569, 458.7164
463.5391, 464.2844
464.0212, 470.9697
464.5033, 479.0625
464.9854, 487.8949
465.4675, 498.3567
465.9496, 509.3769
466.4318, 518.7966
466.9139, 525.4991
467.3960, 529.2831
467.8781, 529.1492
468.3602, 523.8292
468.8423, 517.8706
469.3245, 510.8044
469.8066, 504.6991
470.2887, 500.8549
470.7708, 499.5193
471.2529, 501.4391
471.7350, 507.6548
472.2172, 517.6793
472.6993, 529.3040
473.1814, 541.8306
473.6635, 557.4557
474.1456, 578.1519
474.6277, 603.2106
475.1099, 631.2920
475.5920, 661.6580
476.0741, 695.5098
476.5562, 733.5814
477.0383, 775.6152
477.5204, 822.1865
478.0026, 873.4095
478.4847, 928.0892
478.9668, 984.7442
479.4489, 1044.313
479.9310, 1102.045
480.4131, 1159.578
480.8953, 1213.432
481.3774, 1263.328
481.8595, 1307.538
482.3416, 1342.240
482.8237, 1365.524
483.3058, 1377.156
483.7880, 1376.448
484.2701, 1359.015
484.7522, 1334.172
485.2343, 1299.943
485.7164, 1260.417
486.1985, 1217.116
486.6807, 1171.111
487.1628, 1124.815
487.6449, 1079.402
488.1270, 1035.043
488.6091, 994.2164
489.0912, 957.3434
489.5734, 923.4506
490.0555, 891.7483
490.5376, 862.4821
491.0197, 836.0836
491.5018, 812.7076
491.9839, 791.9474
492.4661, 774.1315
492.9482, 758.9592
493.4303, 744.2720
493.9124, 729.4149
494.3945, 715.7382
494.8766, 704.6674
495.3588, 695.6289
495.8409, 687.5612
496.3230, 680.3707
496.8051, 673.8915
497.2872, 667.6543
497.7693, 661.9547
498.2515, 658.0505
498.7336, 656.5985
499.2157, 656.6550
499.6978, 656.7966
500.1799, 656.9509
500.6620, 657.5153
501.1442, 658.2250
501.6263, 659.6000
502.1084, 661.9645
502.5905, 665.3177
503.0726, 669.7256
503.5547, 675.3345
504.0369, 681.7073
504.5190, 687.3467
505.0011, 691.8925
505.4832, 696.2581
505.9653, 699.3411
506.4474, 703.1492
506.9296, 709.3938
507.4117, 717.9607
507.8938, 727.3904
508.3759, 736.5833
508.8580, 745.6346
509.3401, 754.6870
509.8223, 763.4984
510.3044, 772.8898
510.7865, 783.0578
511.2686, 793.9908
511.7507, 805.7578
512.2328, 818.4011
512.7150, 831.7573
513.1971, 845.7516
513.6792, 860.3897
514.1613, 875.9469
514.6434, 892.5666
515.1255, 909.7818
515.6077, 927.7104
516.0898, 946.0023
516.5719, 963.1111
517.0540, 979.5551
517.5361, 994.0554
518.0182, 1007.596
518.5004, 1018.416
518.9825, 1023.451
519.4646, 1021.889
519.9467, 1015.197
520.4288, 1005.451
520.9109, 993.3608
521.3931, 972.6135
521.8752, 939.4306
522.3573, 902.9385
522.8394, 865.3683
523.3215, 826.9044
523.8036, 786.8240
524.2858, 745.1591
524.7679, 703.5324
525.2500, 664.9557
525.7321, 629.4823
526.2142, 597.0247
526.6964, 567.9493
527.1785, 542.0165
527.6606, 519.2056
528.1427, 499.3614
528.6248, 482.2337
529.1069, 468.2930
529.5891, 456.0434
530.0712, 443.2651
530.5533, 430.1022
531.0354, 419.1826
531.5175, 411.7408
531.9996, 406.0294
532.4818, 400.0674
532.9639, 393.9153
533.4460, 388.1737
533.9281, 382.8200
534.4102, 378.0538
534.8923, 374.2403
535.3745, 371.1584
535.8566, 367.9615
536.3387, 364.2417
536.8208, 360.3726
537.3029, 357.1747
537.7850, 354.9676
538.2672, 352.7623
538.7493, 350.4825
539.2314, 348.2852
539.7135, 346.3081
540.1956, 344.4794
540.6777, 342.5197
541.1599, 340.2082
541.6420, 337.8621
542.1241, 336.4784
542.6062, 336.5729
543.0883, 335.9359
543.5704, 333.3928
544.0526, 330.6229
544.5347, 328.7170
545.0168, 327.5595
545.4989, 326.3686
545.9810, 324.4269
546.4631, 322.3674
546.9453, 321.4215
547.4274, 321.5488
547.9095, 321.2590
548.3916, 319.6550
548.8737, 317.6848
549.3558, 317.3600
549.8380, 319.0485
550.3201, 319.6728
550.8022, 317.5662
551.2843, 315.0244
551.7664, 314.0891
552.2485, 314.4840
552.7307, 314.6657
553.2128, 313.7152
553.6949, 312.1454
554.1770, 311.4660
554.6591, 312.7784
555.1412, 312.9876
555.6234, 311.1106
556.1055, 309.0601
556.5876, 308.1969
557.0697, 308.2129
557.5518, 307.8263
558.0339, 306.1025
558.5161, 303.7075
558.9982, 302.2997
559.4803, 302.0999
559.9624, 301.5795
560.4445, 300.1833
560.9266, 298.4545
561.4088, 296.7890
561.8909, 295.2178
562.3730, 293.9993
562.8551, 293.4293
563.3372, 293.1178
563.8193, 292.7195
564.3015, 292.2245
564.7836, 291.6306
565.2657, 290.9195
565.7478, 290.1623
566.2299, 289.4853
566.7120, 288.9224
567.1942, 288.3654
567.6763, 287.4235
568.1584, 286.8484
568.6405, 287.4842
569.1226, 288.8040
569.6047, 289.5819
570.0869, 289.1570
570.5690, 288.0519
571.0511, 287.3294
571.5332, 287.0707
572.0153, 286.8521
572.4974, 286.4164
572.9796, 286.2502
573.4617, 286.8300
573.9438, 287.8815
574.4259, 288.6727
574.9080, 288.7952
575.3901, 288.7054
575.8723, 288.7889
576.3544, 289.0776
576.8365, 289.9318
577.3186, 291.6906
577.8007, 293.2951
578.2828, 293.3044
578.7650, 291.6025
579.2471, 290.7911
579.7292, 291.3697
580.2113, 292.3947
580.6934, 293.9498
581.1755, 295.4953
581.6577, 296.0450
582.1398, 295.3143
582.6219, 294.1879
583.1040, 293.8165
583.5861, 294.2477
584.0682, 295.0840
584.5504, 297.1268
