##NAMES=Narsarsukite
##RRUFFID=R060203
##IDEAL CHEMISTRY=Na_2_(Ti^4+^,Fe^3+^)Si_4_(O,F)_11_
##LOCALITY=Poudrette Quarry, Mont Saint-Hilaire, Rouville County, Quebec, Canada
##OWNER=RRUFF
##SOURCE=Royal Ontario Museum
##DESCRIPTION=Light tan colored transparent fragment
##STATUS=The identification of this mineral is confirmed by single-crystal X-ray diffraction and chemical analysis.
##URL=rruff.info/R060203
##MEASURED CHEMISTRY=(Na_1.24_[box]_0.76_)_Σ=2_(Ti_0.76_Fe^3+^_0.20_Al_0.04_)_Σ=1_Si_4.00_(O_10.00_F_1.00_)_Σ=11_ ; trace amounts of Zr and  K
92.07813, 130.5475
92.56024, 133.8044
93.04236, 131.0925
93.52448, 124.0681
94.00659, 118.8557
94.48871, 120.9317
94.97083, 127.5305
95.45294, 130.9504
95.93506, 129.5526
96.41718, 126.1913
96.89929, 126.3373
97.38141, 130.0455
97.86353, 133.2901
98.34564, 132.5818
98.82776, 128.1290
99.30988, 124.2324
99.79199, 121.3175
100.2741, 119.5351
100.7562, 119.9588
101.2383, 123.4036
101.7205, 126.7932
102.2026, 127.1783
102.6847, 123.8706
103.1668, 120.0670
103.6489, 115.7655
104.1310, 110.9266
104.6132, 109.2165
105.0953, 112.0875
105.5774, 116.7369
106.0595, 119.6994
106.5416, 120.3280
107.0237, 120.2794
107.5059, 119.7296
107.9880, 118.1378
108.4701, 117.7952
108.9522, 120.0865
109.4343, 123.3624
109.9164, 124.6614
110.3986, 120.2819
110.8807, 117.0197
111.3628, 117.0726
111.8449, 123.0569
112.3270, 128.1728
112.8091, 132.1518
113.2913, 134.9986
113.7734, 136.7937
114.2555, 134.2856
114.7376, 132.8957
115.2197, 135.5327
115.7018, 144.9214
116.1840, 155.8419
116.6661, 166.9130
117.1482, 178.3221
117.6303, 190.9858
118.1124, 204.1605
118.5945, 219.4090
119.0767, 237.9146
119.5588, 259.8085
120.0409, 285.3855
120.5230, 316.1929
121.0051, 351.8485
121.4872, 387.9752
121.9694, 419.6207
122.4515, 450.2501
122.9336, 484.8187
123.4157, 526.5717
123.8978, 572.1133
124.3799, 619.1555
124.8621, 667.7731
125.3442, 715.7906
125.8263, 760.9661
126.3084, 804.0426
126.7905, 847.0206
127.2726, 890.8762
127.7548, 934.9188
128.2369, 977.4838
128.7190, 1018.203
129.2011, 1058.407
129.6832, 1099.325
130.1653, 1140.738
130.6474, 1183.616
131.1296, 1224.747
131.6117, 1266.777
132.0938, 1319.944
132.5759, 1384.776
133.0580, 1462.603
133.5401, 1553.588
134.0223, 1657.963
134.5044, 1778.336
134.9865, 1918.289
135.4686, 2078.992
135.9507, 2250.781
136.4328, 2438.298
136.9150, 2636.068
137.3971, 2828.240
137.8792, 3020.724
138.3613, 3189.460
138.8434, 3316.990
139.3255, 3402.184
139.8077, 3445.364
140.2898, 3438.457
140.7719, 3386.578
141.2540, 3332.767
141.7361, 3272.076
142.2182, 3218.547
142.7004, 3184.408
143.1825, 3168.338
143.6646, 3176.020
144.1467, 3209.989
144.6288, 3271.372
145.1109, 3347.554
145.5931, 3440.157
146.0752, 3546.707
146.5573, 3667.058
147.0394, 3806.152
147.5215, 3950.949
148.0036, 4093.185
148.4858, 4229.769
148.9679, 4384.482
149.4500, 4555.743
149.9321, 4746.129
150.4142, 4955.378
150.8963, 5181.823
151.3785, 5432.791
151.8606, 5704.518
152.3427, 5992.838
152.8248, 6321.031
153.3069, 6688.112
153.7890, 7096.783
154.2712, 7524.960
154.7533, 7952.542
155.2354, 8395.140
155.7175, 8854.622
156.1996, 9337.730
156.6817, 9808.516
157.1639, 10280.97
157.6460, 10741.05
158.1281, 11146.13
158.6102, 11487.50
159.0923, 11775.09
159.5744, 12013.25
160.0566, 12185.84
160.5387, 12334.28
161.0208, 12486.61
161.5029, 12626.73
161.9850, 12705.60
162.4671, 12750.65
162.9493, 12705.89
163.4314, 12534.80
163.9135, 12226.61
164.3956, 11798.50
164.8777, 11225.86
165.3598, 10528.23
165.8420, 9784.391
166.3241, 8970.483
166.8062, 8154.232
167.2883, 7394.346
167.7704, 6691.027
168.2525, 6062.829
168.7346, 5517.860
169.2168, 5052.586
169.6989, 4649.618
170.1810, 4312.278
170.6631, 4026.184
171.1452, 3773.562
171.6273, 3555.438
172.1095, 3365.734
172.5916, 3200.982
173.0737, 3060.379
173.5558, 2936.543
174.0379, 2825.160
174.5201, 2727.118
175.0022, 2641.908
175.4843, 2572.078
175.9664, 2512.947
176.4485, 2460.358
176.9306, 2413.721
177.4128, 2375.866
177.8949, 2352.001
178.3770, 2338.883
178.8591, 2328.804
179.3412, 2317.039
179.8233, 2306.987
180.3055, 2303.911
180.7876, 2307.814
181.2697, 2317.247
181.7518, 2330.527
182.2339, 2348.019
182.7160, 2371.499
183.1982, 2403.485
183.6803, 2441.563
184.1624, 2480.125
184.6445, 2518.754
185.1266, 2559.461
185.6087, 2605.294
186.0909, 2655.897
186.5730, 2706.826
187.0551, 2757.052
187.5372, 2806.272
188.0193, 2856.165
188.5014, 2907.365
188.9836, 2955.844
189.4657, 3001.543
189.9478, 3043.267
190.4299, 3071.822
190.9120, 3084.089
191.3941, 3079.891
191.8763, 3057.059
192.3584, 3014.765
192.8405, 2956.297
193.3226, 2883.183
193.8047, 2795.715
194.2868, 2698.284
194.7690, 2586.462
195.2511, 2462.288
195.7332, 2346.667
196.2153, 2240.425
196.6974, 2141.887
197.1795, 2051.967
197.6617, 1970.264
198.1438, 1896.042
198.6259, 1829.400
199.1080, 1770.543
199.5901, 1717.085
200.0722, 1669.303
200.5544, 1626.801
201.0365, 1589.954
201.5186, 1558.801
202.0007, 1531.453
202.4828, 1507.624
202.9649, 1487.478
203.4471, 1468.337
203.9292, 1449.898
204.4113, 1432.419
204.8934, 1416.166
205.3755, 1401.260
205.8576, 1387.615
206.3398, 1375.236
206.8219, 1364.128
207.3040, 1354.541
207.7861, 1347.519
208.2682, 1341.127
208.7503, 1330.832
209.2325, 1315.551
209.7146, 1300.193
210.1967, 1287.165
210.6788, 1276.998
211.1609, 1266.731
211.6430, 1256.537
212.1252, 1246.046
212.6073, 1234.411
213.0894, 1221.299
213.5715, 1208.076
214.0536, 1194.773
214.5357, 1180.297
215.0179, 1170.228
215.5000, 1166.594
215.9821, 1165.989
216.4642, 1160.447
216.9463, 1148.258
217.4284, 1134.889
217.9105, 1122.067
218.3927, 1109.256
218.8748, 1099.248
219.3569, 1092.626
219.8390, 1088.482
220.3211, 1084.641
220.8032, 1080.688
221.2854, 1077.797
221.7675, 1076.697
222.2496, 1078.331
222.7317, 1078.742
223.2138, 1077.231
223.6959, 1074.835
224.1781, 1073.686
224.6602, 1073.733
225.1423, 1075.137
225.6244, 1078.138
226.1065, 1083.422
226.5886, 1088.252
227.0708, 1092.052
227.5529, 1095.716
228.0350, 1101.361
228.5171, 1110.506
228.9992, 1119.198
229.4813, 1125.941
229.9635, 1130.290
230.4456, 1133.917
230.9277, 1136.092
231.4098, 1137.889
231.8919, 1141.637
232.3740, 1148.849
232.8562, 1155.523
233.3383, 1159.678
233.8204, 1159.462
234.3025, 1162.952
234.7846, 1171.628
235.2667, 1183.214
235.7489, 1193.484
236.2310, 1202.052
236.7131, 1209.894
237.1952, 1216.948
237.6773, 1222.091
238.1594, 1230.270
238.6416, 1242.217
239.1237, 1256.762
239.6058, 1271.908
240.0879, 1287.176
240.5700, 1304.131
241.0521, 1323.586
241.5343, 1345.854
242.0164, 1368.200
242.4985, 1389.293
242.9806, 1411.356
243.4627, 1437.812
243.9448, 1470.237
244.4270, 1504.235
244.9091, 1537.706
245.3912, 1569.420
245.8733, 1608.134
246.3554, 1656.239
246.8375, 1709.631
247.3197, 1762.625
247.8018, 1812.580
248.2839, 1866.806
248.7660, 1927.258
249.2481, 1994.549
249.7302, 2065.140
250.2124, 2139.091
250.6945, 2216.829
251.1766, 2299.763
251.6587, 2387.590
252.1408, 2481.354
252.6229, 2582.152
253.1051, 2691.292
253.5872, 2800.727
254.0693, 2910.116
254.5514, 3022.141
255.0335, 3139.899
255.5156, 3262.293
255.9978, 3389.953
256.4799, 3522.207
256.9620, 3659.671
257.4441, 3805.992
257.9262, 3961.418
258.4083, 4125.008
258.8904, 4293.278
259.3726, 4466.342
259.8547, 4646.823
260.3368, 4833.531
260.8189, 5027.971
261.3010, 5229.536
261.7831, 5440.558
262.2653, 5654.446
262.7474, 5863.028
263.2295, 6067.248
263.7116, 6269.510
264.1937, 6476.330
264.6758, 6682.335
265.1580, 6869.552
265.6401, 7039.621
266.1222, 7185.551
266.6043, 7303.867
267.0864, 7398.018
267.5685, 7456.550
268.0507, 7479.427
268.5328, 7466.122
269.0149, 7415.270
269.4970, 7324.778
269.9791, 7200.289
270.4612, 7040.009
270.9434, 6841.308
271.4255, 6622.206
271.9076, 6378.213
272.3897, 6115.872
272.8718, 5846.896
273.3539, 5568.226
273.8361, 5292.524
274.3182, 5024.546
274.8003, 4764.570
275.2824, 4516.704
275.7645, 4282.195
276.2466, 4061.018
276.7288, 3853.073
277.2109, 3659.065
277.6930, 3477.071
278.1751, 3310.366
278.6572, 3158.390
279.1393, 3017.344
279.6215, 2887.810
280.1036, 2768.193
280.5857, 2656.011
281.0678, 2551.573
281.5499, 2455.033
282.0320, 2368.773
282.5142, 2292.137
282.9963, 2222.291
283.4784, 2159.664
283.9605, 2102.465
284.4426, 2047.541
284.9247, 1994.777
285.4069, 1949.455
285.8890, 1914.424
286.3711, 1888.513
286.8532, 1864.539
287.3353, 1842.338
287.8174, 1822.818
288.2996, 1806.970
288.7817, 1794.710
289.2638, 1786.002
289.7459, 1780.317
290.2280, 1778.464
290.7101, 1782.969
291.1923, 1794.010
291.6744, 1809.284
292.1565, 1828.262
292.6386, 1850.353
293.1207, 1872.214
293.6028, 1892.236
294.0850, 1912.743
294.5671, 1938.647
295.0492, 1969.864
295.5313, 2005.499
296.0134, 2045.503
296.4955, 2089.225
296.9777, 2134.128
297.4598, 2178.624
297.9419, 2225.862
298.4240, 2279.414
298.9061, 2338.763
299.3882, 2402.802
299.8704, 2473.913
300.3525, 2548.421
300.8346, 2619.776
301.3167, 2685.769
301.7988, 2753.250
302.2809, 2830.537
302.7631, 2915.660
303.2452, 3005.332
303.7273, 3097.841
304.2094, 3193.378
304.6915, 3290.889
305.1736, 3391.351
305.6558, 3492.434
306.1379, 3595.714
306.6200, 3698.219
307.1021, 3793.954
307.5842, 3885.232
308.0663, 3966.293
308.5485, 4035.873
309.0306, 4093.169
309.5127, 4130.791
309.9948, 4144.420
310.4769, 4135.069
310.9590, 4104.036
311.4412, 4048.266
311.9233, 3973.866
312.4054, 3882.307
312.8875, 3774.097
313.3696, 3655.584
313.8517, 3524.975
314.3339, 3390.051
314.8160, 3255.860
315.2981, 3122.166
315.7802, 2993.851
316.2623, 2871.754
316.7444, 2757.237
317.2266, 2651.650
317.7087, 2557.948
318.1908, 2473.150
318.6729, 2394.766
319.1550, 2322.847
319.6371, 2256.226
320.1193, 2193.994
320.6014, 2137.060
321.0835, 2086.052
321.5656, 2043.151
322.0477, 2005.109
322.5298, 1970.429
323.0120, 1939.010
323.4941, 1910.715
323.9762, 1886.168
324.4583, 1864.458
324.9404, 1844.607
325.4225, 1825.773
325.9047, 1809.356
326.3868, 1797.198
326.8689, 1789.353
327.3510, 1779.993
327.8331, 1765.632
328.3152, 1751.514
328.7974, 1741.277
329.2795, 1738.149
329.7616, 1735.139
330.2437, 1731.219
330.7258, 1726.833
331.2079, 1724.400
331.6901, 1724.480
332.1722, 1725.925
332.6543, 1728.287
333.1364, 1732.200
333.6185, 1735.764
334.1006, 1738.820
334.5828, 1741.507
335.0649, 1744.094
335.5470, 1746.632
336.0291, 1748.958
336.5112, 1750.703
336.9933, 1751.439
337.4755, 1753.952
337.9576, 1758.692
338.4397, 1764.677
338.9218, 1770.681
339.4039, 1776.563
339.8860, 1782.747
340.3681, 1788.830
340.8503, 1795.060
341.3324, 1804.244
341.8145, 1817.055
342.2966, 1831.261
342.7787, 1845.068
343.2608, 1858.291
343.7430, 1872.717
344.2251, 1888.841
344.7072, 1906.176
345.1893, 1922.353
345.6714, 1937.334
346.1535, 1953.373
346.6357, 1971.948
347.1178, 1992.961
347.5999, 2016.168
348.0820, 2042.318
348.5641, 2069.240
349.0462, 2093.858
349.5284, 2116.348
350.0105, 2138.899
350.4926, 2160.965
350.9747, 2184.130
351.4568, 2212.409
351.9389, 2246.063
352.4211, 2282.593
352.9032, 2319.019
353.3853, 2355.982
353.8674, 2395.009
354.3495, 2435.958
354.8316, 2479.763
355.3138, 2527.514
355.7959, 2579.181
356.2780, 2634.089
356.7601, 2694.373
357.2422, 2757.336
357.7243, 2820.206
358.2065, 2881.974
358.6886, 2942.719
359.1707, 3004.543
359.6528, 3065.685
360.1349, 3120.817
360.6170, 3170.237
361.0992, 3210.796
361.5813, 3240.284
362.0634, 3257.681
362.5455, 3265.142
363.0276, 3259.904
363.5097, 3245.907
363.9919, 3229.039
364.4740, 3208.781
364.9561, 3187.955
365.4382, 3165.254
365.9203, 3139.831
366.4024, 3122.938
366.8846, 3117.127
367.3667, 3120.311
367.8488, 3130.798
368.3309, 3151.378
368.8130, 3175.954
369.2951, 3202.483
369.7773, 3231.982
370.2594, 3269.698
370.7415, 3320.851
371.2236, 3375.700
371.7057, 3430.216
372.1878, 3482.439
372.6700, 3538.648
373.1521, 3600.560
373.6342, 3665.288
374.1163, 3727.332
374.5984, 3786.808
375.0805, 3842.378
375.5627, 3894.477
376.0448, 3943.542
376.5269, 3986.056
377.0090, 4023.610
377.4911, 4052.435
377.9732, 4068.542
378.4554, 4071.145
378.9375, 4065.399
379.4196, 4053.261
379.9017, 4033.276
380.3838, 3998.420
380.8659, 3948.354
381.3481, 3888.721
381.8302, 3822.792
382.3123, 3750.882
382.7944, 3674.822
383.2765, 3593.406
383.7586, 3509.910
384.2408, 3427.125
384.7229, 3345.677
385.2050, 3264.378
385.6871, 3182.427
386.1692, 3101.611
386.6513, 3021.873
387.1335, 2943.835
387.6156, 2868.250
388.0977, 2796.586
388.5798, 2728.867
389.0619, 2664.146
389.5440, 2603.175
390.0262, 2544.775
390.5083, 2487.327
390.9904, 2430.524
391.4725, 2375.543
391.9546, 2322.052
392.4367, 2271.278
392.9189, 2223.468
393.4010, 2178.544
393.8831, 2137.772
394.3652, 2104.457
394.8473, 2075.740
395.3294, 2046.664
395.8116, 2012.867
396.2937, 1981.145
396.7758, 1954.738
397.2579, 1934.232
397.7400, 1915.007
398.2221, 1895.293
398.7043, 1877.125
399.1864, 1862.230
399.6685, 1851.186
400.1506, 1842.958
400.6327, 1837.496
401.1148, 1834.741
401.5970, 1834.453
402.0791, 1836.162
402.5612, 1840.834
403.0433, 1848.504
403.5254, 1857.888
404.0075, 1873.969
404.4897, 1897.412
404.9718, 1927.016
405.4539, 1960.881
405.9360, 1998.846
406.4181, 2042.068
406.9002, 2091.359
407.3824, 2146.263
407.8645, 2207.058
408.3466, 2274.257
408.8287, 2345.394
409.3108, 2418.380
409.7929, 2493.016
410.2751, 2571.539
410.7572, 2655.019
411.2393, 2742.507
411.7214, 2829.441
412.2035, 2916.714
412.6856, 3009.876
413.1678, 3111.719
413.6499, 3221.848
414.1320, 3339.642
414.6141, 3466.050
415.0962, 3600.508
415.5783, 3740.173
416.0605, 3888.645
416.5426, 4055.482
417.0247, 4247.037
417.5068, 4456.391
417.9889, 4677.869
418.4710, 4911.269
418.9532, 5162.118
419.4353, 5435.364
419.9174, 5723.996
420.3995, 6020.502
420.8816, 6331.130
421.3637, 6638.015
421.8459, 6946.568
422.3280, 7243.444
422.8101, 7512.666
423.2922, 7778.612
423.7743, 7985.713
424.2564, 8118.929
424.7386, 8177.701
425.2207, 8156.318
425.7028, 8035.117
426.1849, 7844.690
426.6670, 7602.818
427.1491, 7279.173
427.6313, 6952.200
428.1134, 6618.074
428.5955, 6286.370
429.0776, 5983.378
429.5597, 5706.045
430.0418, 5456.461
430.5240, 5233.377
431.0061, 5037.703
431.4882, 4865.800
431.9703, 4720.341
432.4524, 4595.139
432.9345, 4483.101
433.4167, 4384.405
433.8988, 4302.861
434.3809, 4241.741
434.8630, 4198.177
435.3451, 4167.019
435.8272, 4148.214
436.3094, 4140.619
436.7915, 4145.052
437.2736, 4160.083
437.7557, 4182.422
438.2378, 4212.052
438.7199, 4247.769
439.2020, 4291.454
439.6841, 4340.223
440.1663, 4388.150
440.6484, 4429.464
441.1305, 4471.561
441.6126, 4522.298
442.0947, 4580.240
442.5768, 4635.338
443.0590, 4680.932
443.5411, 4722.348
444.0232, 4764.179
444.5053, 4809.515
444.9874, 4850.394
445.4695, 4884.359
445.9517, 4911.773
446.4338, 4933.588
446.9159, 4955.724
447.3980, 4966.579
447.8801, 4963.255
448.3622, 4945.570
448.8444, 4914.468
449.3265, 4869.511
449.8086, 4811.303
450.2907, 4740.797
450.7728, 4659.431
451.2549, 4560.987
451.7371, 4443.148
452.2192, 4310.425
452.7013, 4172.334
453.1834, 4029.879
453.6655, 3882.450
454.1476, 3728.777
454.6298, 3570.429
455.1119, 3415.958
455.5940, 3266.218
456.0761, 3122.419
456.5582, 2987.833
457.0403, 2861.736
457.5225, 2742.431
458.0046, 2631.222
458.4867, 2528.190
458.9688, 2436.015
459.4509, 2353.927
459.9330, 2282.667
460.4152, 2220.548
460.8973, 2169.359
461.3794, 2131.790
461.8615, 2107.416
462.3436, 2095.047
462.8257, 2093.295
463.3079, 2103.127
463.7900, 2125.385
464.2721, 2159.958
464.7542, 2207.753
465.2363, 2272.989
465.7184, 2352.177
466.2006, 2435.410
466.6827, 2529.239
467.1648, 2618.834
467.6469, 2697.895
468.1290, 2765.280
468.6111, 2824.329
469.0933, 2866.509
469.5754, 2906.820
470.0575, 2958.340
470.5396, 3019.552
471.0217, 3094.252
471.5038, 3181.539
471.9860, 3283.491
472.4681, 3408.043
472.9502, 3555.603
473.4323, 3725.116
473.9144, 3913.634
474.3965, 4121.935
474.8787, 4354.030
475.3608, 4608.888
475.8429, 4887.945
476.3250, 5191.315
476.8071, 5517.810
477.2892, 5863.888
477.7714, 6227.727
478.2535, 6605.495
478.7356, 6993.797
479.2177, 7392.406
479.6998, 7790.196
480.1819, 8206.362
480.6641, 8610.413
481.1462, 8975.234
481.6283, 9302.261
482.1104, 9565.116
482.5925, 9761.038
483.0746, 9879.996
483.5568, 9911.667
484.0389, 9837.626
484.5210, 9692.603
485.0031, 9469.026
485.4852, 9180.088
485.9673, 8859.548
486.4495, 8489.646
486.9316, 8113.513
487.4137, 7741.558
487.8958, 7369.276
488.3779, 7017.728
488.8600, 6680.143
489.3422, 6366.956
489.8243, 6083.412
490.3064, 5834.463
490.7885, 5607.406
491.2706, 5401.563
491.7527, 5216.355
492.2349, 5044.907
492.7170, 4888.583
493.1991, 4746.904
493.6812, 4621.966
494.1633, 4513.295
494.6454, 4417.058
495.1276, 4334.206
495.6097, 4261.472
496.0918, 4198.355
496.5739, 4143.380
497.0560, 4095.861
497.5381, 4054.566
498.0203, 4020.830
498.5024, 3995.543
498.9845, 3978.425
499.4666, 3968.200
499.9487, 3963.955
500.4308, 3966.948
500.9130, 3978.974
501.3951, 3999.949
501.8772, 4025.043
502.3593, 4053.054
502.8414, 4084.241
503.3235, 4118.955
503.8057, 4153.407
504.2878, 4197.016
504.7699, 4254.606
505.2520, 4319.611
505.7341, 4380.810
506.2162, 4434.832
506.6984, 4491.261
507.1805, 4551.861
507.6626, 4616.516
508.1447, 4685.248
508.6268, 4758.828
509.1089, 4833.376
509.5911, 4906.384
510.0732, 4977.911
510.5553, 5048.165
511.0374, 5116.588
511.5195, 5186.056
512.0016, 5260.198
512.4838, 5338.799
512.9659, 5419.091
513.4480, 5501.604
513.9301, 5586.057
514.4122, 5673.715
514.8943, 5763.814
515.3765, 5853.002
515.8586, 5945.578
516.3407, 6032.752
516.8228, 6107.856
517.3049, 6170.963
517.7870, 6220.208
518.2692, 6262.708
518.7513, 6286.907
519.2334, 6281.405
519.7155, 6254.031
520.1976, 6184.216
520.6797, 6068.378
521.1619, 5910.274
521.6440, 5718.654
522.1261, 5489.754
522.6082, 5237.553
523.0903, 4962.837
523.5724, 4665.186
524.0546, 4365.744
524.5367, 4062.981
525.0188, 3769.539
525.5009, 3490.154
525.9830, 3224.691
526.4651, 2986.489
526.9473, 2776.825
527.4294, 2590.607
527.9115, 2425.058
528.3936, 2279.616
528.8757, 2149.331
529.3578, 2035.716
529.8400, 1935.527
530.3221, 1847.642
530.8042, 1772.007
531.2863, 1703.060
531.7684, 1638.739
532.2505, 1580.037
532.7327, 1528.878
533.2148, 1486.765
533.6969, 1448.317
534.1790, 1414.213
534.6611, 1382.481
535.1432, 1351.521
535.6254, 1318.958
536.1075, 1289.457
536.5896, 1264.373
537.0717, 1242.695
537.5538, 1222.392
538.0359, 1203.720
538.5181, 1185.474
539.0002, 1166.831
539.4823, 1147.897
539.9644, 1129.692
540.4465, 1112.154
540.9286, 1095.651
541.4108, 1081.210
541.8929, 1068.194
542.3750, 1054.205
542.8571, 1038.469
543.3392, 1022.728
543.8214, 1009.104
544.3035, 997.0584
544.7856, 984.8079
545.2677, 970.8221
545.7498, 956.9384
546.2319, 944.3729
546.7141, 933.1414
547.1962, 923.2247
547.6783, 915.3745
548.1604, 908.2933
548.6425, 901.2445
549.1246, 894.4178
549.6068, 886.9266
550.0889, 877.3970
550.5710, 867.9577
551.0531, 860.7697
551.5352, 857.4970
552.0173, 852.7627
552.4995, 845.3162
552.9816, 836.5206
553.4637, 830.2468
553.9458, 826.9578
554.4279, 822.9974
554.9100, 816.8164
555.3922, 808.7562
555.8743, 799.7609
556.3564, 789.9069
556.8385, 780.1085
557.3206, 771.3141
557.8027, 763.0675
558.2849, 754.5660
558.7670, 745.7957
559.2491, 736.2351
559.7312, 724.8958
560.2133, 712.7778
560.6954, 701.2603
561.1776, 691.3701
561.6597, 681.7271
562.1418, 671.8281
562.6239, 661.7584
563.1060, 652.0756
563.5881, 641.6201
564.0703, 632.7367
564.5524, 626.2325
565.0345, 622.2952
565.5166, 619.1412
565.9987, 617.3514
566.4808, 615.3511
566.9630, 611.4213
567.4451, 605.3245
567.9272, 600.8933
568.4093, 598.5855
568.8914, 597.5006
569.3735, 596.2977
569.8557, 595.1411
570.3378, 594.8345
570.8199, 596.2157
571.3020, 597.9933
571.7841, 598.2637
572.2662, 597.4091
572.7484, 596.8430
573.2305, 597.1755
573.7126, 598.1747
574.1947, 599.5031
574.6768, 601.0829
575.1589, 603.9224
575.6411, 609.7276
576.1232, 615.9671
576.6053, 620.7605
577.0874, 622.7195
577.5695, 625.2531
578.0516, 628.3790
578.5338, 632.0303
579.0159, 636.3723
579.4980, 641.7067
579.9801, 646.3720
580.4622, 649.7335
580.9443, 652.3492
581.4265, 655.9001
581.9086, 660.3860
582.3907, 664.9604
582.8728, 669.8513
583.3549, 674.3464
583.8370, 676.7664
584.3192, 677.1203
584.8013, 677.0003
