##NAMES=Natanite
##RRUFFID=R100016
##IDEAL CHEMISTRY=Fe^2+^Sn^4+^(OH)_6_
##LOCALITY=Level 10 silicate body, El Potosi mine, Santa Eulalia, Chihuahua, Mexico
##OWNER=RRUFF
##SOURCE=William Pinch
##DESCRIPTION=Orange octahedron, associated with black ilvaite, colorless fluorite, calcite
##STATUS=The identification of this mineral has been confirmed by single-crystal X-ray diffraction.
##URL=rruff.info/R100016
91.66309, 232.6575
92.14520, 232.1810
92.62732, 233.3341
93.10944, 234.7405
93.59155, 236.1857
94.07367, 237.5099
94.55579, 239.0369
95.03790, 240.3338
95.52002, 240.8486
96.00214, 240.5108
96.48425, 239.8439
96.96637, 238.9559
97.44849, 238.0784
97.93060, 237.3841
98.41272, 236.6466
98.89484, 235.6357
99.37695, 234.6156
99.85907, 233.4265
100.3412, 232.5261
100.8233, 232.0325
101.3054, 231.7543
101.7875, 231.4491
102.2697, 230.9508
102.7518, 230.2706
103.2339, 229.7198
103.7160, 229.3737
104.1981, 229.0037
104.6802, 228.3649
105.1624, 227.5196
105.6445, 226.8890
106.1266, 227.0299
106.6087, 227.8833
107.0908, 227.7956
107.5729, 225.7354
108.0551, 223.0432
108.5372, 221.4323
109.0193, 221.3215
109.5014, 221.6621
109.9835, 221.4574
110.4656, 220.8307
110.9478, 220.2409
111.4299, 219.8931
111.9120, 219.7762
112.3941, 219.8115
112.8762, 219.9727
113.3583, 220.3307
113.8405, 220.9706
114.3226, 221.8732
114.8047, 222.8830
115.2868, 223.8703
115.7689, 224.9288
116.2510, 225.6833
116.7332, 225.9331
117.2153, 226.0272
117.6974, 226.1930
118.1795, 226.5028
118.6616, 226.8724
119.1437, 227.1052
119.6259, 226.9492
120.1080, 226.9520
120.5901, 227.1353
121.0722, 227.4812
121.5543, 228.0334
122.0364, 228.8459
122.5186, 229.8102
123.0007, 230.2948
123.4828, 230.3203
123.9649, 229.9979
124.4470, 229.1042
124.9291, 227.7957
125.4113, 226.6787
125.8934, 226.1942
126.3755, 226.2574
126.8576, 226.2120
127.3397, 226.1089
127.8218, 225.8604
128.3040, 225.2326
128.7861, 224.1224
129.2682, 223.2161
129.7503, 223.0861
130.2324, 223.4892
130.7145, 224.1414
131.1967, 225.1542
131.6788, 226.3416
132.1609, 227.1038
132.6430, 227.2133
133.1251, 227.1878
133.6072, 227.1881
134.0894, 227.2553
134.5715, 227.4676
135.0536, 227.9144
135.5357, 228.6155
136.0178, 229.3169
136.4999, 230.0094
136.9821, 230.7067
137.4642, 231.4297
137.9463, 232.1724
138.4284, 232.9007
138.9105, 233.6071
139.3926, 234.3999
139.8748, 234.8339
140.3569, 234.6070
140.8390, 234.2996
141.3211, 234.2599
141.8032, 234.5837
142.2853, 235.2065
142.7675, 236.0773
143.2496, 237.6918
143.7317, 238.5671
144.2138, 237.8047
144.6959, 236.5048
145.1780, 236.1700
145.6602, 237.4356
146.1423, 239.5462
146.6244, 240.9463
147.1065, 241.5698
147.5886, 241.9715
148.0707, 242.3598
148.5529, 242.6987
149.0350, 242.8169
149.5171, 242.4631
149.9992, 242.0136
150.4813, 241.9595
150.9634, 242.2856
151.4456, 243.0636
151.9277, 244.7372
152.4098, 247.4660
152.8919, 249.4775
153.3740, 249.3449
153.8561, 248.4653
154.3383, 247.8497
154.8204, 247.7911
155.3025, 248.0700
155.7846, 248.3950
156.2667, 248.9373
156.7488, 249.1113
157.2310, 248.4228
157.7131, 247.4870
158.1952, 246.9330
158.6773, 247.0918
159.1594, 247.7858
159.6415, 248.3496
160.1237, 248.8639
160.6058, 249.1136
161.0879, 248.8968
161.5700, 248.4309
162.0521, 248.0497
162.5342, 247.9910
163.0164, 248.2060
163.4985, 247.9494
163.9806, 246.6303
164.4627, 245.4801
164.9448, 244.8659
165.4269, 244.7092
165.9091, 244.7841
166.3912, 244.9499
166.8733, 245.2073
167.3554, 245.3528
167.8375, 245.2100
168.3196, 245.1229
168.8018, 245.3885
169.2839, 245.9726
169.7660, 246.4844
170.2481, 246.5616
170.7302, 246.2075
171.2123, 245.9334
171.6945, 245.8866
172.1766, 245.8641
172.6587, 245.5192
173.1408, 244.7504
173.6229, 244.2135
174.1050, 244.8515
174.5872, 246.2613
175.0693, 247.3652
175.5514, 247.7809
176.0335, 247.6909
176.5156, 247.4185
176.9977, 246.9157
177.4799, 246.3508
177.9620, 245.6832
178.4441, 245.0190
178.9262, 244.6645
179.4083, 244.9856
179.8904, 245.8582
180.3726, 246.4384
180.8547, 246.5400
181.3368, 246.5251
181.8189, 246.5662
182.3010, 246.6464
182.7831, 246.6968
183.2653, 246.6548
183.7474, 246.5150
184.2295, 246.3730
184.7116, 246.0781
185.1937, 245.9157
185.6758, 246.2431
186.1580, 246.8795
186.6401, 247.2418
187.1222, 246.6054
187.6043, 244.5549
188.0864, 243.3389
188.5685, 243.4383
189.0507, 243.8367
189.5328, 244.1309
190.0149, 244.2469
190.4970, 244.2773
190.9791, 244.3326
191.4612, 244.4455
191.9434, 244.4671
192.4255, 244.3526
192.9076, 244.1933
193.3897, 244.0663
193.8718, 243.9788
194.3539, 243.8604
194.8361, 243.6160
195.3182, 243.1772
195.8003, 242.7890
196.2824, 242.2918
196.7645, 241.9306
197.2466, 242.0206
197.7288, 242.6384
198.2109, 243.4474
198.6930, 244.0727
199.1751, 244.5555
199.6572, 244.6381
200.1393, 244.1770
200.6215, 243.3194
201.1036, 242.0682
201.5857, 240.2450
202.0678, 238.6222
202.5499, 238.4353
203.0320, 239.5387
203.5142, 240.6142
203.9963, 241.3425
204.4784, 241.7068
204.9605, 241.6064
205.4426, 240.8812
205.9247, 239.9169
206.4069, 239.0562
206.8890, 238.2890
207.3711, 237.6167
207.8532, 237.0330
208.3353, 236.5397
208.8174, 236.1770
209.2996, 236.0484
209.7817, 235.9362
210.2638, 235.8025
210.7459, 235.6036
211.2280, 235.1222
211.7101, 233.8750
212.1923, 231.9034
212.6744, 230.7489
213.1565, 231.1682
213.6386, 231.9094
214.1207, 232.3764
214.6028, 232.5763
215.0850, 232.7635
215.5671, 233.2693
216.0492, 234.1866
216.5313, 234.6880
217.0134, 234.0782
217.4955, 233.6020
217.9777, 233.8797
218.4598, 234.8159
218.9419, 235.8559
219.4240, 236.4344
219.9061, 236.4628
220.3882, 236.4712
220.8704, 236.4536
221.3525, 236.4238
221.8346, 236.4648
222.3167, 236.5271
222.7988, 236.4249
223.2809, 235.8925
223.7631, 234.6883
224.2452, 234.1003
224.7273, 234.5783
225.2094, 235.1653
225.6915, 235.3553
226.1736, 235.1555
226.6558, 234.9062
227.1379, 234.9673
227.6200, 235.4187
228.1021, 235.8454
228.5842, 236.2297
229.0663, 236.6060
229.5485, 237.0270
230.0306, 237.4747
230.5127, 237.8541
230.9948, 238.0557
231.4769, 238.0361
231.9590, 238.0706
232.4412, 238.4553
232.9233, 238.6663
233.4054, 238.0790
233.8875, 236.7828
234.3696, 235.7459
234.8517, 236.0367
235.3339, 237.8590
235.8160, 238.7158
236.2981, 237.8196
236.7802, 236.5573
237.2623, 235.9249
237.7444, 235.9878
238.2266, 236.2753
238.7087, 236.4575
239.1908, 236.5176
239.6729, 236.4608
240.1550, 236.0141
240.6371, 235.6306
241.1193, 235.8617
241.6014, 236.7236
242.0835, 237.4309
242.5656, 237.2189
243.0477, 236.3367
243.5298, 235.8774
244.0120, 236.5549
244.4941, 237.3150
244.9762, 236.9639
245.4583, 235.4293
245.9404, 233.9844
246.4225, 233.4997
246.9047, 233.7028
247.3868, 234.0092
247.8689, 234.5509
248.3510, 234.9820
248.8331, 234.8717
249.3152, 234.1756
249.7974, 233.3530
250.2795, 232.4920
250.7616, 231.6978
251.2437, 231.1472
251.7258, 230.9205
252.2079, 230.8736
252.6901, 230.8969
253.1722, 231.0111
253.6543, 231.0288
254.1364, 230.7448
254.6185, 230.3720
255.1006, 230.1574
255.5828, 230.2211
256.0649, 230.2650
256.5470, 229.8457
257.0291, 228.8684
257.5112, 228.0270
257.9933, 227.6442
258.4755, 227.4572
258.9576, 227.2831
259.4397, 227.0798
259.9218, 226.9356
260.4039, 227.0039
260.8860, 227.3374
261.3682, 227.5804
261.8503, 227.2169
262.3324, 227.0125
262.8145, 227.5236
263.2966, 228.8386
263.7787, 230.5186
264.2609, 232.1235
264.7430, 233.6455
265.2251, 235.1337
265.7072, 236.5086
266.1893, 237.9057
266.6714, 239.3088
267.1536, 240.7619
267.6357, 242.4502
268.1178, 244.5807
268.5999, 247.1723
269.0820, 250.0793
269.5641, 253.3953
270.0463, 256.9789
270.5284, 260.8882
271.0105, 265.0542
271.4926, 269.2552
271.9747, 273.2198
272.4568, 276.9040
272.9390, 280.8832
273.4211, 284.9881
273.9032, 289.5849
274.3853, 295.3288
274.8674, 301.8124
275.3495, 307.8595
275.8317, 312.4064
276.3138, 315.4072
276.7959, 319.0141
277.2780, 323.4922
277.7601, 328.3859
278.2422, 333.4845
278.7244, 338.9066
279.2065, 344.9810
279.6886, 352.0960
280.1707, 360.0629
280.6528, 366.7387
281.1349, 370.2984
281.6171, 374.4116
282.0992, 379.6206
282.5813, 385.8446
283.0634, 393.0720
283.5455, 401.3495
284.0276, 410.3745
284.5098, 418.7495
284.9919, 425.4497
285.4740, 432.7454
285.9561, 441.2147
286.4382, 450.3081
286.9203, 459.4764
287.4025, 468.4270
287.8846, 477.1594
288.3667, 485.6447
288.8488, 494.1754
289.3309, 501.9608
289.8130, 509.3008
290.2952, 515.7242
290.7773, 520.9150
291.2594, 524.7205
291.7415, 527.1197
292.2236, 528.0547
292.7057, 527.4368
293.1879, 525.1960
293.6700, 521.4848
294.1521, 516.2957
294.6342, 509.6196
295.1163, 501.4637
295.5984, 491.8097
296.0806, 480.3889
296.5627, 466.0590
297.0448, 453.3565
297.5269, 443.5072
298.0090, 434.0123
298.4911, 423.1981
298.9733, 411.1527
299.4554, 399.3087
299.9375, 389.1832
300.4196, 381.1204
300.9017, 372.3968
301.3839, 361.5829
301.8660, 351.5545
302.3481, 343.5067
302.8302, 337.2515
303.3123, 331.9758
303.7944, 327.1440
304.2766, 322.7399
304.7587, 317.8756
305.2408, 311.6023
305.7229, 305.8865
306.2050, 301.5302
306.6871, 298.0790
307.1693, 294.7362
307.6514, 291.0634
308.1335, 287.1147
308.6156, 283.2537
309.0977, 278.9043
309.5798, 275.3372
310.0620, 273.1178
310.5441, 271.5901
311.0262, 270.0359
311.5083, 268.1532
311.9904, 265.9911
312.4725, 263.6566
312.9547, 260.4472
313.4368, 258.0515
313.9189, 257.1224
314.4010, 256.5873
314.8831, 255.4635
315.3652, 253.5413
315.8474, 251.3247
316.3295, 249.5242
316.8116, 248.2483
317.2937, 247.1432
317.7758, 246.2899
318.2579, 245.5158
318.7401, 244.6785
319.2222, 243.7956
319.7043, 243.0549
320.1864, 242.7156
320.6685, 242.9209
321.1506, 242.3258
321.6328, 239.9549
322.1149, 237.8787
322.5970, 237.1292
323.0791, 237.3648
323.5612, 237.6491
324.0433, 237.3406
324.5255, 236.4895
325.0076, 235.6497
325.4897, 234.6651
325.9718, 233.8678
326.4539, 233.3696
326.9360, 233.0809
327.4182, 232.8844
327.9003, 232.7246
328.3824, 232.5937
328.8645, 232.4726
329.3466, 232.4627
329.8287, 232.3149
330.3109, 231.9969
330.7930, 231.5561
331.2751, 230.9219
331.7572, 230.1152
332.2393, 229.4117
332.7214, 229.3092
333.2036, 230.3483
333.6857, 230.7171
334.1678, 229.6625
334.6499, 228.6535
335.1320, 228.8320
335.6141, 230.0908
336.0963, 231.3601
336.5784, 231.4837
337.0605, 230.2469
337.5426, 229.7276
338.0247, 230.5379
338.5068, 231.4180
338.9890, 232.0377
339.4711, 232.3929
339.9532, 232.5136
340.4353, 232.3736
340.9174, 232.0686
341.3995, 232.2314
341.8817, 233.4152
342.3638, 234.4200
342.8459, 234.8866
343.3280, 235.1487
343.8101, 235.5541
344.2922, 236.2517
344.7744, 237.2576
345.2565, 238.6488
345.7386, 240.6761
346.2207, 242.6128
346.7028, 244.4728
347.1849, 246.1965
347.6671, 247.6356
348.1492, 248.8232
348.6313, 250.0052
349.1134, 251.4805
349.5955, 253.2668
350.0776, 255.2447
350.5598, 257.6748
351.0419, 260.0732
351.5240, 262.1279
352.0061, 263.9518
352.4882, 265.9035
352.9703, 268.2395
353.4525, 270.9467
353.9346, 273.8074
354.4167, 276.9068
354.8988, 280.0602
355.3809, 283.2273
355.8630, 286.4090
356.3452, 289.6213
356.8273, 292.9002
357.3094, 296.1252
357.7915, 298.9081
358.2736, 300.8390
358.7557, 303.3716
359.2379, 307.6357
359.7200, 312.0874
360.2021, 315.4454
360.6842, 317.4628
361.1663, 319.0664
361.6484, 321.3466
362.1306, 324.3656
362.6127, 327.1836
363.0948, 329.4695
363.5769, 331.7582
364.0590, 334.2966
364.5411, 337.0985
365.0233, 340.1248
365.5054, 343.5247
365.9875, 347.1600
366.4696, 350.4215
366.9517, 353.2577
367.4338, 355.8246
367.9160, 358.2059
368.3981, 360.4021
368.8802, 362.4249
369.3623, 364.3805
369.8444, 366.0364
370.3265, 366.9922
370.8087, 367.2001
371.2908, 367.1664
371.7729, 367.0799
372.2550, 366.8148
372.7371, 366.3437
373.2192, 365.7129
373.7014, 364.5321
374.1835, 362.1777
374.6656, 358.9383
375.1477, 356.1792
375.6298, 354.5316
376.1119, 352.8301
376.5941, 349.8111
377.0762, 345.6926
377.5583, 341.4627
378.0404, 337.3735
378.5225, 333.4378
379.0046, 329.7155
379.4868, 326.2245
379.9689, 322.7990
380.4510, 319.4296
380.9331, 316.0058
381.4152, 312.2234
381.8973, 308.0807
382.3795, 303.5820
382.8616, 298.3131
383.3437, 292.5545
383.8258, 287.5695
384.3079, 284.0757
384.7900, 281.2641
385.2722, 277.3397
385.7543, 271.9749
386.2364, 266.9590
386.7185, 262.6895
387.2006, 259.0952
387.6827, 256.3479
388.1649, 254.4783
388.6470, 252.5530
389.1291, 249.4798
389.6112, 245.0540
390.0933, 241.3517
390.5754, 238.7492
391.0576, 236.5201
391.5397, 234.3115
392.0218, 232.1076
392.5039, 229.9419
392.9860, 227.8400
393.4681, 225.7924
393.9503, 223.8016
394.4324, 221.8824
394.9145, 219.9933
395.3966, 218.1424
395.8787, 216.3064
396.3608, 214.4223
396.8430, 212.4757
397.3251, 210.5818
397.8072, 208.9272
398.2893, 207.6397
398.7714, 206.2389
399.2535, 204.4179
399.7357, 202.7619
400.2178, 201.6807
400.6999, 201.0858
401.1820, 200.6210
401.6641, 200.0298
402.1462, 199.3103
402.6284, 198.4108
403.1105, 197.1489
403.5926, 195.9141
404.0747, 194.9132
404.5568, 193.9235
405.0389, 192.5647
405.5211, 190.6947
406.0032, 188.7571
406.4853, 187.6099
406.9674, 187.5455
407.4495, 187.3540
407.9316, 186.7513
408.4138, 186.1268
408.8959, 185.7860
409.3780, 185.6681
409.8601, 185.4153
410.3422, 184.6125
410.8243, 183.3593
411.3065, 182.4802
411.7886, 182.1336
412.2707, 181.8997
412.7528, 181.6161
413.2349, 181.3071
413.7170, 181.0038
414.1992, 180.7123
414.6813, 180.4408
415.1634, 180.2901
415.6455, 180.2816
416.1276, 179.9615
416.6097, 178.9942
417.0919, 177.8286
417.5740, 176.8787
418.0561, 176.1547
418.5382, 175.6563
419.0203, 175.4173
419.5024, 175.4009
419.9846, 175.5990
420.4667, 176.0678
420.9488, 176.4783
421.4309, 176.4608
421.9130, 176.1541
422.3951, 176.0782
422.8773, 176.4648
423.3594, 176.9455
423.8415, 177.4752
424.3236, 177.9354
424.8057, 177.7926
425.2878, 176.6772
425.7700, 175.0963
426.2521, 174.1179
426.7342, 173.7987
427.2163, 173.7627
427.6984, 174.1397
428.1805, 174.6631
428.6627, 175.1158
429.1448, 175.4465
429.6269, 175.6042
430.1090, 175.5253
430.5911, 175.1968
431.0732, 174.8756
431.5554, 174.3319
432.0375, 174.0399
432.5196, 174.4221
433.0017, 175.1117
433.4838, 175.4737
433.9659, 175.2099
434.4481, 174.5868
434.9302, 174.1566
435.4123, 173.8064
435.8944, 173.9017
436.3765, 174.9822
436.8586, 176.0259
437.3408, 176.2470
437.8229, 175.7083
438.3050, 175.0894
438.7871, 175.0263
439.2692, 175.4697
439.7513, 175.4965
440.2335, 174.4464
440.7156, 173.9481
441.1977, 174.9299
441.6798, 176.5030
442.1619, 177.4986
442.6440, 177.4655
443.1262, 177.0584
443.6083, 177.2268
444.0904, 178.0349
444.5725, 178.6253
445.0546, 178.8752
445.5367, 178.7919
446.0189, 178.1871
446.5010, 177.1895
446.9831, 176.4893
447.4652, 176.7473
447.9473, 177.4446
448.4294, 177.5391
448.9116, 176.9335
449.3937, 176.3529
449.8758, 176.2444
450.3579, 176.4310
450.8400, 176.4708
451.3221, 176.1951
451.8043, 176.0855
452.2864, 176.6028
452.7685, 177.4463
453.2506, 177.9553
453.7327, 177.9493
454.2148, 177.6889
454.6970, 177.4335
455.1791, 177.1738
455.6612, 177.0251
456.1433, 177.0683
456.6254, 177.1505
457.1075, 177.2167
457.5897, 177.2466
458.0718, 177.1697
458.5539, 176.9239
459.0360, 176.6248
459.5181, 176.6372
460.0002, 177.5827
460.4824, 177.9997
460.9645, 177.4552
461.4466, 176.6642
461.9287, 176.0808
462.4108, 175.8274
462.8929, 175.9619
463.3751, 176.6947
463.8572, 178.0377
464.3393, 178.4215
464.8214, 176.5758
465.3035, 175.3232
465.7856, 175.8825
466.2678, 177.2658
466.7499, 178.1890
467.2320, 178.1637
467.7141, 177.6787
468.1962, 177.4179
468.6783, 177.4082
469.1605, 177.2739
469.6426, 176.6733
470.1247, 176.2548
470.6068, 176.7542
471.0889, 177.8991
471.5710, 178.5608
472.0532, 177.6079
472.5353, 176.1158
473.0174, 176.0389
473.4995, 177.4485
473.9816, 178.5022
474.4637, 178.1473
474.9459, 177.0142
475.4280, 176.4477
475.9101, 176.6754
476.3922, 176.7479
476.8743, 176.0185
477.3564, 175.0281
477.8386, 174.5955
478.3207, 174.8484
478.8028, 175.3547
479.2849, 175.7631
479.7670, 176.0725
480.2491, 176.2631
480.7313, 176.2179
481.2134, 176.2056
481.6955, 176.3525
482.1776, 176.5824
482.6597, 176.8035
483.1418, 176.9772
483.6240, 177.0612
484.1061, 176.9780
484.5882, 176.6904
485.0703, 176.3317
485.5524, 175.5476
486.0345, 175.0307
486.5167, 175.2696
486.9988, 176.0327
487.4809, 176.7897
487.9630, 177.2498
488.4451, 177.4533
488.9272, 177.4711
489.4094, 177.2288
489.8915, 177.0298
490.3736, 177.1145
490.8557, 177.1557
491.3378, 176.7189
491.8199, 175.8443
492.3021, 175.3564
492.7842, 176.1520
493.2663, 177.6804
493.7484, 178.5936
494.2305, 178.7756
494.7126, 178.6557
495.1948, 178.2692
495.6769, 177.8288
496.1590, 177.8392
496.6411, 178.4671
497.1232, 179.2616
497.6053, 180.1480
498.0875, 181.0221
498.5696, 181.7617
499.0517, 182.3353
499.5338, 182.5968
500.0159, 182.3449
500.4980, 181.5296
500.9802, 180.7131
501.4623, 179.4118
501.9444, 178.6215
502.4265, 179.0913
502.9086, 180.2346
503.3907, 181.0156
503.8729, 181.0290
504.3550, 180.8203
504.8371, 181.4800
505.3192, 183.6762
505.8013, 184.8966
506.2834, 184.2090
506.7656, 183.4487
507.2477, 183.4178
507.7298, 183.9535
508.2119, 184.5590
508.6940, 185.0034
509.1761, 185.2819
509.6583, 185.3469
510.1404, 185.1605
510.6225, 184.9751
511.1046, 184.8400
511.5867, 184.7518
512.0688, 184.6352
512.5510, 184.5040
513.0331, 184.6160
513.5152, 185.1926
513.9973, 186.0358
514.4794, 187.0300
514.9615, 188.1556
515.4437, 188.7565
515.9258, 188.2211
516.4079, 187.0807
516.8900, 187.0190
517.3721, 188.7196
517.8542, 189.9207
518.3364, 189.5725
518.8185, 188.8183
519.3006, 188.9793
519.7827, 190.1077
520.2648, 191.2101
520.7469, 191.3841
521.2291, 190.7155
521.7112, 190.4930
522.1933, 191.0588
522.6754, 191.6880
523.1575, 192.3694
523.6396, 193.0257
524.1218, 193.6788
524.6039, 194.2934
525.0860, 194.6174
525.5681, 194.0620
526.0502, 192.6678
526.5323, 192.4422
527.0145, 194.0879
527.4966, 195.6948
527.9787, 196.1270
528.4608, 196.0529
528.9429, 196.5130
529.4250, 197.9759
529.9072, 199.2552
530.3893, 199.1382
530.8714, 198.0266
531.3535, 197.2529
531.8356, 197.1012
532.3177, 197.1929
532.7999, 197.2175
533.2820, 197.1776
533.7641, 197.1585
534.2462, 196.7480
534.7283, 196.7980
535.2104, 198.2887
535.6926, 200.3650
536.1747, 201.4341
536.6568, 200.9834
537.1389, 199.9310
537.6210, 199.5129
538.1031, 199.7941
538.5853, 200.4358
539.0674, 202.0508
539.5495, 203.3521
540.0316, 203.6064
540.5137, 203.3379
540.9958, 203.4463
541.4780, 204.3262
541.9601, 205.4555
542.4422, 205.9104
542.9243, 205.6034
543.4064, 205.8560
543.8885, 207.0863
544.3707, 208.5948
544.8528, 210.0012
545.3349, 211.2925
545.8170, 212.4316
546.2991, 213.3942
546.7813, 214.2071
547.2634, 214.6618
547.7455, 214.9355
548.2276, 215.8612
548.7097, 217.8184
549.1918, 220.0793
549.6740, 221.7045
550.1561, 222.5603
550.6382, 223.3835
551.1203, 224.0622
551.6024, 224.8224
552.0845, 225.8650
552.5667, 227.0618
553.0488, 228.1504
553.5309, 229.0119
554.0130, 229.7878
554.4951, 230.6778
554.9772, 231.5735
555.4594, 232.9026
555.9415, 235.3993
556.4236, 237.6226
556.9057, 238.6787
557.3878, 239.0853
557.8699, 239.9192
558.3521, 241.7203
558.8342, 243.9366
559.3163, 245.7979
559.7984, 247.3150
560.2805, 249.0942
560.7626, 251.3247
561.2448, 253.7277
561.7269, 256.1224
562.2090, 258.4933
562.6911, 260.7910
563.1732, 262.7082
563.6553, 264.8223
564.1375, 267.6280
564.6196, 270.9335
565.1017, 274.2316
565.5838, 277.3355
566.0659, 280.6089
566.5480, 284.5793
567.0302, 289.4789
567.5123, 294.1617
567.9944, 298.1599
568.4765, 302.4875
568.9586, 307.3638
569.4407, 312.8583
569.9229, 319.0390
570.4050, 325.9489
570.8871, 333.2637
571.3692, 340.3099
571.8513, 346.9991
572.3334, 354.7764
572.8156, 363.8782
573.2977, 373.8294
573.7798, 384.3960
574.2619, 395.5623
574.7440, 407.4653
575.2261, 420.1097
575.7083, 433.4799
576.1904, 447.2964
576.6725, 461.8257
577.1546, 478.0861
577.6367, 496.3293
578.1188, 515.2722
578.6010, 533.6385
579.0831, 551.4335
579.5652, 570.3502
580.0473, 590.6518
580.5294, 611.5959
581.0115, 633.1061
581.4937, 655.0003
581.9758, 677.0500
582.4579, 699.2397
582.9400, 721.5657
583.4221, 744.2063
583.9042, 767.1105
584.3864, 789.9353
584.8685, 812.3008
585.3506, 835.6661
585.8327, 861.1351
586.3148, 887.4998
586.7969, 913.3049
587.2791, 938.3827
587.7612, 964.2382
588.2433, 992.5842
