##NAMES=Natanite
##RRUFFID=R100016
##IDEAL CHEMISTRY=Fe^2+^Sn^4+^(OH)_6_
##LOCALITY=Level 10 silicate body, El Potosi mine, Santa Eulalia, Chihuahua, Mexico
##OWNER=RRUFF
##SOURCE=William Pinch
##DESCRIPTION=Orange octahedron, associated with black ilvaite, colorless fluorite, calcite
##STATUS=The identification of this mineral has been confirmed by single-crystal X-ray diffraction.
##URL=rruff.info/R100016
126.7265, 12.89720
127.2086, 13.01250
127.6907, 13.82776
128.1729, 15.12685
128.6550, 16.44893
129.1371, 17.73997
129.6192, 19.19944
130.1013, 21.22789
130.5834, 23.74979
131.0656, 26.30589
131.5477, 28.55166
132.0298, 30.57624
132.5119, 32.82333
132.9940, 35.36004
133.4761, 38.11161
133.9583, 41.13837
134.4404, 44.46995
134.9225, 47.75916
135.4046, 50.66433
135.8867, 53.18956
136.3688, 55.82084
136.8510, 58.69310
137.3331, 61.68288
137.8152, 64.49180
138.2973, 67.06052
138.7794, 69.63364
139.2615, 72.47588
139.7437, 75.61613
140.2258, 78.77993
140.7079, 81.89352
141.1900, 84.95481
141.6721, 88.20166
142.1542, 91.57298
142.6364, 95.18636
143.1185, 99.19408
143.6006, 103.6695
144.0827, 108.3294
144.5648, 113.0974
145.0469, 118.0688
145.5291, 122.9563
146.0112, 127.9675
146.4933, 132.8382
146.9754, 137.2778
147.4575, 141.0043
147.9396, 144.5782
148.4218, 148.1634
148.9039, 151.6913
149.3860, 155.3478
149.8681, 159.4963
150.3502, 163.6942
150.8323, 167.0653
151.3145, 168.5923
151.7966, 170.1112
152.2787, 172.2210
152.7608, 175.0323
153.2429, 178.2771
153.7250, 182.7080
154.2072, 187.6674
154.6893, 191.3125
155.1714, 191.0481
155.6535, 189.5265
156.1356, 189.3113
156.6177, 191.8566
157.0999, 194.3688
157.5820, 196.3589
158.0641, 197.9214
158.5462, 199.4223
159.0283, 200.9916
159.5104, 202.5170
159.9926, 203.9259
160.4747, 205.1838
160.9568, 206.3463
161.4389, 207.3253
161.9210, 208.1495
162.4031, 209.1623
162.8853, 210.6918
163.3674, 212.3731
163.8495, 213.8721
164.3316, 215.0973
164.8137, 216.1034
165.2958, 216.8810
165.7780, 217.4357
166.2601, 217.8783
166.7422, 217.9634
167.2243, 218.0497
167.7064, 218.5896
168.1885, 220.3933
168.6707, 222.2723
169.1528, 223.3595
169.6349, 223.5989
170.1170, 223.5033
170.5991, 223.0301
171.0812, 222.4959
171.5634, 222.4543
172.0455, 223.0129
172.5276, 224.2356
173.0097, 226.7310
173.4918, 230.8757
173.9739, 234.2172
174.4561, 233.5432
174.9382, 230.3905
175.4203, 228.4503
175.9024, 231.3554
176.3845, 236.0252
176.8666, 237.9718
177.3488, 236.3260
177.8309, 233.5882
178.3130, 232.2812
178.7951, 232.1395
179.2772, 232.2412
179.7593, 231.8226
180.2415, 231.3063
180.7236, 231.5872
181.2057, 232.9154
181.6878, 234.7086
182.1699, 236.0534
182.6520, 237.0476
183.1342, 238.5347
183.6163, 242.5396
184.0984, 247.6256
184.5805, 249.0375
185.0626, 245.1068
185.5447, 238.8858
186.0269, 235.2738
186.5090, 234.2204
186.9911, 234.1294
187.4732, 234.2585
187.9553, 234.5033
188.4374, 234.2668
188.9196, 233.2110
189.4017, 231.8800
189.8838, 231.5926
190.3659, 232.3911
190.8480, 233.3536
191.3301, 233.7586
191.8123, 233.6624
192.2944, 233.5774
192.7765, 233.6174
193.2586, 233.7278
193.7407, 233.7814
194.2228, 233.7925
194.7050, 233.6626
195.1871, 233.1044
195.6692, 232.1262
196.1513, 231.6908
196.6334, 232.1795
197.1155, 233.3105
197.5977, 234.0132
198.0798, 234.2448
198.5619, 234.1963
199.0440, 233.9461
199.5261, 233.4690
200.0082, 233.1647
200.4904, 233.2442
200.9725, 233.5913
201.4546, 233.3283
201.9367, 232.2515
202.4188, 231.1303
202.9009, 230.8750
203.3831, 231.6356
203.8652, 232.2020
204.3473, 232.3144
204.8294, 231.9846
205.3115, 231.2168
205.7936, 229.8027
206.2758, 228.3936
206.7579, 227.8552
207.2400, 228.4739
207.7221, 228.6912
208.2042, 227.9216
208.6863, 226.1969
209.1685, 225.2215
209.6506, 225.2193
210.1327, 225.5702
210.6148, 225.5144
211.0969, 224.8769
211.5790, 224.4467
212.0612, 224.4839
212.5433, 224.9993
213.0254, 225.4067
213.5075, 225.6466
213.9896, 225.8573
214.4717, 226.2399
214.9538, 226.9096
215.4360, 227.4357
215.9181, 227.6761
216.4002, 227.6070
216.8823, 227.5496
217.3644, 227.4356
217.8465, 227.4073
218.3287, 227.7108
218.8108, 228.5859
219.2929, 229.2384
219.7750, 229.3997
220.2571, 228.9961
220.7392, 228.7691
221.2214, 228.7408
221.7035, 228.8657
222.1856, 229.1411
222.6677, 229.7434
223.1498, 230.1104
223.6319, 229.9622
224.1141, 229.1693
224.5962, 228.9001
225.0783, 229.3886
225.5604, 230.1936
226.0425, 230.7212
226.5246, 230.7881
227.0068, 230.9248
227.4889, 231.2780
227.9710, 231.8810
228.4531, 232.5055
228.9352, 233.1497
229.4173, 233.8154
229.8995, 234.5210
230.3816, 235.4045
230.8637, 236.0916
231.3458, 236.4668
231.8279, 236.5096
232.3100, 236.3844
232.7922, 235.9478
233.2743, 235.4620
233.7564, 235.2391
234.2385, 235.2342
234.7206, 235.5972
235.2027, 236.5619
235.6849, 238.3445
236.1670, 239.2783
236.6491, 238.9582
237.1312, 238.1203
237.6133, 237.7204
238.0954, 238.0578
238.5776, 238.2930
239.0597, 238.0851
239.5418, 237.2806
240.0239, 237.1695
240.5060, 238.1265
240.9881, 239.4675
241.4703, 240.3775
241.9524, 240.8574
242.4345, 240.8950
242.9166, 240.3334
243.3987, 239.0346
243.8808, 238.1992
244.3630, 238.0276
244.8451, 238.1387
245.3272, 238.0916
245.8093, 237.8474
246.2914, 237.5051
246.7735, 236.9864
247.2557, 236.2284
247.7378, 235.9634
248.2199, 236.4102
248.7020, 237.1285
249.1841, 237.6399
249.6662, 237.8708
250.1484, 238.0334
250.6305, 238.2171
251.1126, 238.4362
251.5947, 238.2927
252.0768, 237.5516
252.5589, 236.6945
253.0411, 236.2980
253.5232, 236.7393
254.0053, 236.8289
254.4874, 236.2896
254.9695, 235.1093
255.4516, 233.7181
255.9338, 231.7874
256.4159, 230.0586
256.8980, 229.3649
257.3801, 230.1400
257.8622, 230.9135
258.3444, 231.4884
258.8265, 231.8669
259.3086, 231.8193
259.7907, 231.0747
260.2728, 230.3078
260.7549, 230.0832
261.2371, 230.4152
261.7192, 231.2521
262.2013, 232.6358
262.6834, 234.5469
263.1655, 236.7359
263.6476, 239.4731
264.1298, 242.0640
264.6119, 243.8042
265.0940, 244.1657
265.5761, 245.4231
266.0582, 248.0877
266.5403, 251.9133
267.0225, 255.5932
267.5046, 258.9930
267.9867, 262.4725
268.4688, 266.2554
268.9509, 270.3790
269.4330, 274.7826
269.9152, 279.3946
270.3973, 284.3097
270.8794, 289.7877
271.3615, 295.9103
271.8436, 302.3452
272.3257, 308.7483
272.8079, 315.1279
273.2900, 321.5864
273.7721, 328.1571
274.2542, 334.8689
274.7363, 341.7948
275.2184, 348.8181
275.7006, 356.4617
276.1827, 365.1190
276.6648, 374.9402
277.1469, 384.3315
277.6290, 392.9633
278.1111, 401.3615
278.5933, 410.6060
279.0754, 420.8112
279.5575, 431.6962
280.0396, 443.4017
280.5217, 455.8315
281.0038, 467.8677
281.4860, 479.1662
281.9681, 490.5611
282.4502, 503.5619
282.9323, 518.2142
283.4144, 533.7124
283.8965, 549.9989
284.3787, 566.8653
284.8608, 583.4988
285.3429, 599.7885
285.8250, 616.1087
286.3071, 633.3387
286.7892, 651.4483
287.2714, 668.9142
287.7535, 685.6882
288.2356, 701.5791
288.7177, 714.6089
289.1998, 724.8923
289.6819, 732.6522
290.1641, 738.2483
290.6462, 741.6326
291.1283, 742.3441
291.6104, 739.9950
292.0925, 734.8612
292.5746, 727.7889
293.0568, 718.7647
293.5389, 707.6921
294.0210, 694.2330
294.5031, 678.6197
294.9852, 661.8265
295.4673, 643.9377
295.9495, 625.2986
296.4316, 606.7178
296.9137, 588.2792
297.3958, 570.3110
297.8779, 553.0372
298.3600, 536.5665
298.8422, 520.7319
299.3243, 505.4166
299.8064, 490.7605
300.2885, 476.6338
300.7706, 463.1782
301.2527, 450.8964
301.7349, 441.0764
302.2170, 432.6000
302.6991, 423.7428
303.1812, 413.8286
303.6633, 403.8016
304.1454, 394.2413
304.6276, 385.3127
305.1097, 377.4069
305.5918, 371.4074
306.0739, 366.3871
306.5560, 361.3436
307.0381, 355.9969
307.5203, 350.8084
308.0024, 346.4762
308.4845, 342.6079
308.9666, 338.2829
309.4487, 332.1808
309.9308, 325.9144
310.4130, 320.9323
310.8951, 317.4772
311.3772, 314.8282
311.8593, 313.1978
312.3414, 312.0199
312.8235, 310.3759
313.3057, 307.3171
313.7878, 304.0949
314.2699, 301.6048
314.7520, 299.9490
315.2341, 298.0519
315.7162, 294.7938
316.1984, 291.2359
316.6805, 288.6049
317.1626, 288.2159
317.6447, 287.9286
318.1268, 286.8333
318.6089, 284.9544
319.0911, 283.1474
319.5732, 282.0039
320.0553, 280.8759
320.5374, 279.2813
321.0195, 275.8134
321.5016, 273.2487
321.9838, 272.7787
322.4659, 273.9519
322.9480, 274.5590
323.4301, 273.8304
323.9122, 272.6678
324.3943, 271.5174
324.8765, 269.9724
325.3586, 269.0793
325.8407, 269.3765
326.3228, 270.4123
326.8049, 271.0421
327.2870, 270.7976
327.7692, 270.4754
328.2513, 270.4018
328.7334, 270.9149
329.2155, 270.8911
329.6976, 269.9820
330.1797, 268.6477
330.6619, 267.6183
331.1440, 267.0770
331.6261, 266.5809
332.1082, 265.9438
332.5903, 265.0968
333.0724, 264.6804
333.5546, 264.8229
334.0367, 265.2806
334.5188, 265.7969
335.0009, 266.3641
335.4830, 267.0343
335.9651, 267.9189
336.4473, 268.9762
336.9294, 269.4910
337.4115, 269.1960
337.8936, 268.8855
338.3757, 269.2593
338.8578, 270.4804
339.3399, 271.5778
339.8221, 272.3925
340.3042, 273.0206
340.7863, 273.6003
341.2684, 274.0540
341.7505, 274.8870
342.2326, 276.6945
342.7148, 279.4503
343.1969, 281.4964
343.6790, 282.4723
344.1611, 283.1435
344.6432, 284.8548
345.1253, 287.5936
345.6075, 290.5906
346.0896, 293.5430
346.5717, 296.4664
347.0538, 299.1613
347.5359, 301.5527
348.0180, 304.2413
348.5002, 308.1988
348.9823, 313.1496
349.4644, 317.9691
349.9465, 322.2910
350.4286, 326.1911
350.9107, 329.7188
351.3929, 332.8778
351.8750, 336.0902
352.3571, 339.3875
352.8392, 343.0328
353.3213, 347.5566
353.8034, 353.3695
354.2856, 359.7136
354.7677, 366.3407
355.2498, 373.0396
355.7319, 379.0587
356.2140, 383.1384
356.6961, 386.6861
357.1783, 391.2975
357.6604, 397.5575
358.1425, 403.9086
358.6246, 409.1714
359.1067, 413.8665
359.5888, 419.0547
360.0710, 426.0594
360.5531, 433.0132
361.0352, 438.5619
361.5173, 442.3591
361.9994, 446.7756
362.4815, 453.3369
362.9637, 460.7442
363.4458, 467.6053
363.9279, 473.7199
364.4100, 479.1349
364.8921, 483.3253
365.3742, 486.4576
365.8564, 490.1625
366.3385, 495.9715
366.8206, 501.6113
367.3027, 505.7156
367.7848, 506.3261
368.2669, 507.6460
368.7491, 510.7005
369.2312, 514.6781
369.7133, 517.1492
370.1954, 517.3865
370.6775, 516.9197
371.1596, 516.3105
371.6418, 515.6742
372.1239, 514.6490
372.6060, 513.6657
373.0881, 512.0131
373.5702, 508.3705
374.0523, 501.6581
374.5345, 495.4253
375.0166, 490.8399
375.4987, 487.8411
375.9808, 483.8360
376.4629, 478.6261
376.9450, 472.7011
377.4272, 466.2894
377.9093, 459.3224
378.3914, 452.1464
378.8735, 444.6671
379.3556, 437.0656
379.8377, 429.7443
380.3199, 422.7802
380.8020, 415.5497
381.2841, 407.3349
381.7662, 398.3466
382.2483, 390.1888
382.7304, 383.0078
383.2126, 376.4389
383.6947, 369.9839
384.1768, 363.6255
384.6589, 357.3331
385.1410, 350.8649
385.6231, 344.4438
386.1053, 338.2776
386.5874, 332.3983
387.0695, 326.8186
387.5516, 321.6387
388.0337, 316.6817
388.5158, 311.6655
388.9980, 306.2622
389.4801, 300.9619
389.9622, 296.3299
390.4443, 292.2612
390.9264, 288.2090
391.4085, 283.5676
391.8907, 279.0391
392.3728, 275.2732
392.8549, 272.7336
393.3370, 270.1722
393.8191, 267.0246
394.3012, 263.5367
394.7834, 260.1231
395.2655, 256.4525
395.7476, 253.2822
396.2297, 251.1888
396.7118, 250.3956
397.1939, 249.0341
397.6761, 246.1144
398.1582, 242.8680
398.6403, 240.3235
399.1224, 239.8555
399.6045, 238.5537
400.0866, 235.5241
400.5688, 231.1948
401.0509, 228.2379
401.5330, 227.4777
402.0151, 227.0574
402.4972, 226.0640
402.9793, 224.1408
403.4615, 222.6121
403.9436, 221.7080
404.4257, 221.0120
404.9078, 219.7283
405.3899, 217.6299
405.8720, 215.7824
406.3542, 214.5920
406.8363, 214.0038
407.3184, 213.3984
407.8005, 212.7867
408.2826, 212.0877
408.7647, 211.1789
409.2469, 210.0777
409.7290, 208.9799
410.2111, 207.8916
410.6932, 206.8566
411.1753, 205.9304
411.6574, 205.1269
412.1396, 204.4902
412.6217, 204.2286
413.1038, 204.1289
413.5859, 203.7379
414.0680, 202.9763
414.5501, 202.1611
415.0323, 201.7003
415.5144, 201.3942
415.9965, 200.8391
416.4786, 199.2282
416.9607, 197.7730
417.4428, 197.6372
417.9250, 198.6917
418.4071, 199.6818
418.8892, 199.9695
419.3713, 199.8770
419.8534, 199.6490
420.3355, 199.2360
420.8177, 198.8622
421.2998, 198.4942
421.7819, 198.2185
422.2640, 198.2119
422.7461, 198.9748
423.2282, 199.6091
423.7104, 199.7426
424.1925, 199.2095
424.6746, 198.7872
425.1567, 198.5009
425.6388, 198.3421
426.1209, 198.3076
426.6031, 198.4575
427.0852, 198.6268
427.5673, 198.7500
428.0494, 198.8631
428.5315, 199.2148
429.0136, 199.9408
429.4958, 200.5961
429.9779, 200.8539
430.4600, 200.6166
430.9421, 200.6629
431.4242, 201.0776
431.9063, 201.6504
432.3885, 202.1603
432.8706, 202.6076
433.3527, 202.6741
433.8348, 201.9942
434.3169, 200.9274
434.7990, 200.5433
435.2812, 200.8438
435.7633, 201.5697
436.2454, 202.8883
436.7275, 204.4445
437.2096, 205.3448
437.6917, 205.2157
438.1739, 204.8844
438.6560, 205.2288
439.1381, 206.0800
439.6202, 206.9919
440.1023, 207.9379
440.5844, 208.7150
441.0666, 209.0563
441.5487, 208.9250
442.0308, 208.8948
442.5129, 209.4209
442.9950, 210.1113
443.4771, 210.5914
443.9593, 210.5084
444.4414, 210.4730
444.9235, 210.6566
445.4056, 211.0133
445.8877, 211.3867
446.3698, 211.8129
446.8520, 212.1946
447.3341, 212.4842
447.8162, 212.6460
448.2983, 212.8021
448.7804, 212.9089
449.2625, 213.0354
449.7447, 213.2910
450.2268, 213.8168
450.7089, 214.1319
451.1910, 214.0564
451.6731, 213.6948
452.1552, 213.5899
452.6374, 213.7723
453.1195, 214.1128
453.6016, 214.6800
454.0837, 215.4533
454.5658, 215.7169
455.0479, 215.3179
455.5301, 214.7391
456.0122, 214.6339
456.4943, 214.9602
456.9764, 215.4733
457.4585, 216.2901
457.9406, 217.1175
458.4228, 217.3321
458.9049, 216.9968
459.3870, 216.7607
459.8691, 217.2092
460.3512, 217.9837
460.8333, 218.6785
461.3155, 219.2775
461.7976, 219.6235
462.2797, 219.3904
462.7618, 218.8632
463.2439, 218.5441
463.7260, 218.8222
464.2082, 219.1674
464.6903, 219.3036
465.1724, 219.2223
465.6545, 219.2739
466.1366, 219.7177
466.6187, 220.1979
467.1009, 220.4820
467.5830, 220.4237
468.0651, 220.3496
468.5472, 220.1869
469.0293, 220.0329
469.5114, 220.0949
469.9936, 220.4343
470.4757, 220.8710
470.9578, 221.3359
471.4399, 221.8296
471.9220, 222.5843
472.4041, 223.7264
472.8863, 224.7242
473.3684, 224.9702
473.8505, 224.4843
474.3326, 224.0904
474.8147, 223.8840
475.2968, 223.8701
475.7790, 224.1478
476.2611, 224.6756
476.7432, 225.1684
477.2253, 225.4311
477.7074, 225.5913
478.1895, 225.8888
478.6717, 226.3267
479.1538, 226.6993
479.6359, 226.8002
480.1180, 226.7651
480.6001, 226.7597
481.0822, 226.8263
481.5644, 226.9364
482.0465, 227.0590
482.5286, 227.2166
483.0107, 227.4567
483.4928, 227.3386
483.9749, 227.7172
484.4571, 229.3450
484.9392, 232.5672
485.4213, 234.5923
485.9034, 234.1927
486.3855, 233.1502
486.8676, 232.6336
487.3498, 232.8606
487.8319, 233.2317
488.3140, 233.7909
488.7961, 234.4272
489.2782, 234.8684
489.7603, 235.0721
490.2425, 235.1921
490.7246, 235.1877
491.2067, 235.1015
491.6888, 235.4750
492.1709, 236.3595
492.6530, 237.4161
493.1352, 238.4011
493.6173, 239.3137
494.0994, 240.1348
494.5815, 240.8777
495.0636, 241.4843
495.5457, 241.7436
496.0279, 241.7755
496.5100, 241.9304
496.9921, 242.4724
497.4742, 243.1587
497.9563, 243.6333
498.4384, 243.9181
498.9206, 244.6221
499.4027, 246.5705
499.8848, 248.7797
500.3669, 250.4745
500.8490, 251.1973
501.3311, 251.8553
501.8133, 252.5502
502.2954, 253.3237
502.7775, 254.2584
503.2596, 255.6324
503.7417, 256.8827
504.2238, 257.9501
504.7060, 258.8328
505.1881, 259.1564
505.6702, 258.4716
506.1523, 257.9623
506.6344, 258.6156
507.1165, 260.6632
507.5987, 262.1017
508.0808, 262.6390
508.5629, 262.8430
509.0450, 263.6945
509.5271, 265.1309
510.0092, 266.2366
510.4914, 266.2228
510.9735, 265.9799
511.4556, 267.7896
511.9377, 271.3821
512.4199, 274.5908
512.9020, 275.5029
513.3841, 275.3638
513.8662, 275.7024
514.3483, 276.8201
514.8304, 277.9791
515.3126, 278.6327
515.7947, 279.0820
516.2768, 279.7206
516.7589, 280.7750
517.2410, 281.9157
517.7231, 283.1136
518.2053, 284.3346
518.6874, 285.4370
519.1695, 286.5640
519.6516, 287.3925
520.1337, 287.5426
520.6158, 286.5362
521.0980, 287.1776
521.5801, 290.3756
522.0622, 294.0623
522.5443, 296.0981
523.0264, 296.2049
523.5085, 296.3282
523.9907, 296.7438
524.4728, 297.3779
524.9549, 298.0391
525.4370, 298.7401
525.9191, 299.6740
526.4012, 301.2047
526.8834, 302.9919
527.3655, 304.1693
527.8476, 304.7415
528.3297, 305.3336
528.8118, 306.6917
529.2939, 308.2423
529.7761, 309.1358
530.2582, 308.7358
530.7403, 308.6959
531.2224, 310.3551
531.7045, 312.8962
532.1866, 314.9716
532.6688, 314.7486
533.1509, 315.4914
533.6330, 319.4157
534.1151, 326.2550
534.5972, 329.8145
535.0793, 327.2650
535.5615, 324.2782
536.0436, 323.6641
536.5257, 326.2500
537.0078, 328.2457
537.4899, 329.4585
537.9720, 330.3943
538.4542, 331.6720
538.9363, 333.3275
539.4184, 334.9434
539.9005, 336.3130
540.3826, 337.7083
540.8647, 339.9103
541.3469, 342.7895
541.8290, 345.3239
542.3111, 346.4395
542.7932, 347.0914
543.2753, 348.7156
543.7574, 351.3535
544.2396, 354.3181
544.7217, 357.6453
545.2038, 360.7887
545.6859, 363.0650
546.1680, 363.5084
546.6501, 364.5538
547.1323, 367.4604
547.6144, 371.4081
548.0965, 375.0196
548.5786, 377.7764
549.0607, 380.5338
549.5428, 383.5822
550.0250, 386.8540
550.5071, 389.5515
550.9892, 391.3316
551.4713, 393.1719
551.9534, 395.6407
552.4355, 398.7935
552.9177, 402.1334
553.3998, 405.7805
553.8819, 409.2197
554.3640, 411.5754
554.8461, 413.0681
555.3282, 414.9193
555.8104, 417.3691
556.2925, 420.3738
556.7746, 423.8996
557.2567, 427.9296
557.7388, 432.4307
558.2209, 438.1898
558.7031, 443.7895
559.1852, 447.6102
559.6673, 449.7361
560.1494, 452.5551
560.6315, 457.1308
561.1136, 462.6306
561.5958, 468.5585
562.0779, 475.1457
562.5600, 481.6591
563.0421, 488.1455
563.5242, 494.4868
564.0063, 500.3514
564.4885, 504.9360
564.9706, 510.8309
565.4527, 518.8123
565.9348, 528.2656
566.4169, 537.2361
566.8990, 545.5292
567.3812, 554.5645
567.8633, 565.4376
568.3454, 577.6773
568.8275, 589.7776
569.3096, 601.6055
569.7917, 614.3467
570.2739, 629.5311
570.7560, 645.9940
571.2381, 661.5533
571.7202, 675.1387
572.2023, 690.0764
572.6844, 708.8590
573.1666, 730.3522
573.6487, 753.2347
574.1308, 776.8979
574.6129, 801.8886
575.0950, 827.8863
575.5771, 855.0530
576.0593, 885.2831
576.5414, 919.7897
577.0235, 955.3606
577.5056, 990.8160
577.9877, 1025.677
578.4698, 1063.518
578.9520, 1104.330
579.4341, 1148.116
579.9162, 1195.216
580.3983, 1245.317
580.8804, 1297.399
581.3625, 1351.119
581.8447, 1406.386
582.3268, 1463.145
582.8089, 1520.860
583.2910, 1580.708
583.7731, 1642.228
584.2552, 1706.118
584.7373, 1773.723
585.2194, 1844.433
585.7015, 1915.939
586.1837, 1987.307
586.6658, 2058.768
587.1479, 2132.183
587.6300, 2207.700
588.1121, 2282.257
588.5942, 2356.977
589.0764, 2429.555
589.5585, 2498.734
590.0406, 2565.603
590.5227, 2626.821
591.0048, 2682.630
591.4869, 2732.949
591.9691, 2779.188
592.4512, 2821.310
592.9333, 2852.819
593.4154, 2872.360
593.8975, 2879.747
594.3796, 2874.150
594.8618, 2855.856
595.3439, 2826.187
595.8260, 2783.730
596.3081, 2731.625
596.7902, 2672.223
597.2723, 2605.690
597.7545, 2532.585
598.2366, 2451.531
598.7187, 2366.008
599.2008, 2277.636
599.6829, 2185.109
600.1650, 2092.905
600.6472, 2001.552
601.1293, 1911.686
601.6114, 1824.042
602.0935, 1737.960
602.5756, 1657.033
603.0577, 1581.434
603.5399, 1511.025
604.0220, 1443.288
604.5041, 1378.740
604.9862, 1317.517
605.4683, 1259.548
605.9504, 1205.064
606.4326, 1154.197
606.9147, 1107.080
607.3968, 1062.665
607.8789, 1020.797
608.3610, 981.3796
608.8431, 945.5101
609.3253, 913.2800
609.8074, 882.1098
610.2895, 849.5753
610.7716, 817.9633
611.2537, 789.0947
611.7358, 764.5219
612.2180, 741.7411
612.7001, 720.9528
613.1822, 701.5684
613.6643, 682.0385
614.1464, 662.1617
614.6285, 643.3522
615.1107, 625.7092
615.5928, 609.3351
616.0749, 594.6547
616.5570, 581.8320
617.0391, 569.2026
617.5212, 555.2223
618.0034, 540.9221
618.4855, 529.0338
618.9676, 519.4743
619.4497, 510.5674
619.9318, 500.9232
620.4139, 491.1890
620.8961, 482.1325
621.3782, 473.8062
621.8603, 466.0560
622.3424, 458.9869
622.8245, 452.2912
623.3066, 445.6164
