##NAMES=Natrolemoynite
##RRUFFID=R060958
##IDEAL CHEMISTRY=Na_4_Zr^4+^_2_Si_10_O_26_&#183;9H_2_O
##LOCALITY=Mont St. Hilaire, Quebec, Canada
##OWNER=RRUFF
##SOURCE=Michael Scott
##DESCRIPTION=Radial aggregates of colorless bladed crystals
##STATUS=The identification of this mineral is confirmed by single-crystal X-ray diffraction and chemical analysis.
##URL=rruff.info/R060958
##MEASURED CHEMISTRY=(Na_3.25_K_0.38_Ca_0.23_[box]_0.14_)_Σ=4_(Zr_1.91_Fe^3+^_0.05_Nb^5+^_0.02_Ti_0.02_)_Σ=2_Si_10_O_26_·9H_2_O
125.3850, 831.2593
125.8671, 883.1870
126.3492, 930.5794
126.8313, 980.4808
127.3135, 1037.834
127.7956, 1101.231
128.2777, 1164.808
128.7598, 1227.442
129.2419, 1289.381
129.7240, 1339.447
130.2061, 1368.768
130.6883, 1392.994
131.1704, 1423.625
131.6525, 1458.147
132.1346, 1483.394
132.6167, 1483.866
133.0988, 1455.593
133.5810, 1429.402
134.0631, 1409.396
134.5452, 1389.248
135.0273, 1364.602
135.5094, 1335.990
135.9915, 1308.532
136.4737, 1287.130
136.9558, 1270.903
137.4379, 1264.675
137.9200, 1266.217
138.4021, 1278.204
138.8842, 1304.433
139.3664, 1344.527
139.8485, 1393.530
140.3306, 1444.830
140.8127, 1498.197
141.2948, 1554.860
141.7769, 1614.912
142.2591, 1677.599
142.7412, 1742.107
143.2233, 1808.152
143.7054, 1876.435
144.1875, 1948.622
144.6696, 2035.738
145.1517, 2107.316
145.6339, 2154.591
146.1160, 2192.805
146.5981, 2234.550
147.0802, 2283.683
147.5623, 2335.441
148.0444, 2381.538
148.5266, 2423.212
149.0087, 2455.459
149.4908, 2478.812
149.9729, 2492.977
150.4550, 2495.143
150.9371, 2484.455
151.4193, 2466.823
151.9014, 2454.678
152.3835, 2454.879
152.8656, 2451.297
153.3477, 2440.518
153.8298, 2426.282
154.3120, 2412.387
154.7941, 2400.142
155.2762, 2390.240
155.7583, 2384.979
156.2404, 2387.978
156.7225, 2389.559
157.2047, 2379.499
157.6868, 2368.889
158.1689, 2376.169
158.6510, 2409.958
159.1331, 2460.794
159.6152, 2505.066
160.0974, 2542.454
160.5795, 2575.629
161.0616, 2597.948
161.5437, 2616.990
162.0258, 2648.423
162.5079, 2700.709
162.9901, 2764.849
163.4722, 2819.307
163.9543, 2861.013
164.4364, 2901.143
164.9185, 2941.673
165.4007, 2983.081
165.8828, 3026.195
166.3649, 3071.968
166.8470, 3119.108
167.3291, 3166.686
167.8112, 3219.676
168.2933, 3263.429
168.7755, 3285.608
169.2576, 3292.742
169.7397, 3304.269
170.2218, 3330.036
170.7039, 3361.690
171.1860, 3381.560
171.6682, 3384.715
172.1503, 3389.406
172.6324, 3407.167
173.1145, 3434.559
173.5966, 3459.389
174.0787, 3477.136
174.5609, 3489.692
175.0430, 3501.722
175.5251, 3514.639
176.0072, 3523.658
176.4893, 3519.468
176.9714, 3506.676
177.4536, 3507.848
177.9357, 3537.990
178.4178, 3579.679
178.8999, 3604.276
179.3820, 3607.776
179.8641, 3607.709
180.3463, 3618.504
180.8284, 3636.889
181.3105, 3642.001
181.7926, 3616.664
182.2747, 3584.620
182.7568, 3581.863
183.2390, 3616.271
183.7211, 3647.665
184.2032, 3643.588
184.6853, 3609.626
185.1674, 3583.333
185.6495, 3578.360
186.1317, 3584.163
186.6138, 3587.972
187.0959, 3590.122
187.5780, 3587.840
188.0601, 3575.309
188.5422, 3554.617
189.0244, 3540.857
189.5065, 3543.367
189.9886, 3549.458
190.4707, 3541.960
190.9528, 3518.729
191.4349, 3501.818
191.9170, 3510.166
192.3992, 3540.571
192.8813, 3570.531
193.3634, 3596.475
193.8455, 3618.131
194.3276, 3635.372
194.8097, 3648.055
195.2919, 3659.928
195.7740, 3670.566
196.2561, 3681.187
196.7382, 3700.559
197.2203, 3733.358
197.7024, 3772.927
198.1846, 3816.135
198.6667, 3862.694
199.1488, 3901.663
199.6309, 3922.696
200.1130, 3928.639
200.5951, 3935.709
201.0773, 3946.080
201.5594, 3958.779
202.0415, 3977.686
202.5236, 4001.226
203.0057, 4013.851
203.4878, 3996.146
203.9700, 3956.041
204.4521, 3934.454
204.9342, 3947.055
205.4163, 3963.976
205.8984, 3962.856
206.3805, 3945.803
206.8627, 3923.189
207.3448, 3899.839
207.8269, 3875.522
208.3090, 3848.788
208.7911, 3818.304
209.2732, 3787.341
209.7554, 3757.574
210.2375, 3728.907
210.7196, 3701.562
211.2017, 3677.420
211.6838, 3654.846
212.1659, 3627.948
212.6480, 3593.447
213.1302, 3560.988
213.6123, 3540.620
214.0944, 3527.477
214.5765, 3510.161
215.0586, 3474.706
215.5407, 3432.390
216.0229, 3413.239
216.5050, 3427.552
216.9871, 3440.709
217.4692, 3429.728
217.9513, 3403.102
218.4334, 3374.341
218.9156, 3345.633
219.3977, 3319.319
219.8798, 3301.061
220.3619, 3293.229
220.8440, 3285.628
221.3261, 3268.870
221.8083, 3249.168
222.2904, 3236.562
222.7725, 3240.061
223.2546, 3246.666
223.7367, 3234.626
224.2188, 3199.662
224.7010, 3169.063
225.1831, 3164.845
225.6652, 3170.810
226.1473, 3165.197
226.6294, 3136.751
227.1115, 3105.216
227.5937, 3097.074
228.0758, 3114.177
228.5579, 3123.683
229.0400, 3102.641
229.5221, 3070.650
230.0042, 3053.375
230.4864, 3056.929
230.9685, 3068.065
231.4506, 3078.651
231.9327, 3088.403
232.4148, 3091.621
232.8969, 3081.186
233.3791, 3067.041
233.8612, 3062.632
234.3433, 3070.329
234.8254, 3079.658
235.3075, 3081.751
235.7896, 3078.532
236.2717, 3082.209
236.7539, 3102.876
237.2360, 3123.031
237.7181, 3118.799
238.2002, 3087.899
238.6823, 3060.031
239.1644, 3051.868
239.6466, 3058.447
240.1287, 3066.765
240.6108, 3075.095
241.0929, 3082.785
241.5750, 3090.662
242.0571, 3098.773
242.5393, 3101.509
243.0214, 3089.297
243.5035, 3072.180
243.9856, 3070.645
244.4677, 3090.879
244.9498, 3113.527
245.4320, 3117.623
245.9141, 3106.197
246.3962, 3095.911
246.8783, 3086.770
247.3604, 3082.310
247.8425, 3090.084
248.3247, 3111.387
248.8068, 3131.247
249.2889, 3135.803
249.7710, 3127.361
250.2531, 3124.399
250.7352, 3132.016
251.2174, 3142.711
251.6995, 3151.707
252.1816, 3158.686
252.6637, 3162.593
253.1458, 3160.734
253.6279, 3155.399
254.1101, 3157.688
254.5922, 3172.586
255.0743, 3189.772
255.5564, 3206.556
256.0385, 3221.863
256.5206, 3231.840
257.0027, 3233.254
257.4849, 3229.317
257.9670, 3230.940
258.4491, 3243.477
258.9312, 3252.820
259.4133, 3253.574
259.8954, 3248.673
260.3776, 3241.683
260.8597, 3233.230
261.3418, 3226.722
261.8239, 3229.892
262.3060, 3249.481
262.7881, 3264.879
263.2703, 3272.834
263.7524, 3275.954
264.2345, 3276.025
264.7166, 3273.641
265.1987, 3270.605
265.6808, 3269.250
266.1630, 3270.011
266.6451, 3271.712
267.1272, 3275.808
267.6093, 3279.776
268.0914, 3280.867
268.5735, 3279.392
269.0557, 3278.643
269.5378, 3281.838
270.0199, 3289.482
270.5020, 3297.897
270.9841, 3311.022
271.4662, 3321.052
271.9484, 3324.166
272.4305, 3321.254
272.9126, 3313.536
273.3947, 3300.070
273.8768, 3282.661
274.3589, 3284.701
274.8411, 3332.033
275.3232, 3370.955
275.8053, 3384.895
276.2874, 3385.427
276.7695, 3390.454
277.2516, 3409.192
277.7338, 3436.731
278.2159, 3457.795
278.6980, 3467.966
279.1801, 3477.832
279.6622, 3482.480
280.1443, 3490.462
280.6265, 3511.771
281.1086, 3548.911
281.5907, 3592.497
282.0728, 3627.457
282.5549, 3650.890
283.0370, 3674.018
283.5192, 3700.710
284.0013, 3724.929
284.4834, 3744.733
284.9655, 3759.104
285.4476, 3766.385
285.9297, 3761.606
286.4119, 3743.480
286.8940, 3732.366
287.3761, 3733.000
287.8582, 3736.472
288.3403, 3742.729
288.8224, 3748.950
289.3046, 3748.575
289.7867, 3735.463
290.2688, 3712.675
290.7509, 3690.993
291.2330, 3669.130
291.7151, 3651.114
292.1972, 3646.842
292.6794, 3645.417
293.1615, 3629.681
293.6436, 3588.548
294.1257, 3537.322
294.6078, 3498.221
295.0899, 3472.858
295.5721, 3446.086
296.0542, 3408.712
296.5363, 3368.615
297.0184, 3335.323
297.5005, 3309.927
297.9826, 3290.259
298.4648, 3276.236
298.9469, 3267.036
299.4290, 3258.493
299.9111, 3249.689
300.3932, 3240.807
300.8753, 3230.912
301.3575, 3219.642
301.8396, 3212.401
302.3217, 3216.734
302.8038, 3224.692
303.2859, 3220.049
303.7680, 3198.669
304.2502, 3180.273
304.7323, 3186.909
305.2144, 3218.483
305.6965, 3241.487
306.1786, 3251.616
306.6607, 3254.171
307.1429, 3249.649
307.6250, 3239.769
308.1071, 3231.733
308.5892, 3230.302
309.0713, 3234.757
309.5534, 3239.981
310.0356, 3251.734
310.5177, 3257.710
310.9998, 3243.081
311.4819, 3222.296
311.9640, 3221.697
312.4461, 3253.069
312.9283, 3302.814
313.4104, 3341.419
313.8925, 3369.599
314.3746, 3383.366
314.8567, 3367.363
315.3388, 3346.947
315.8210, 3346.410
316.3031, 3368.373
316.7852, 3394.901
317.2673, 3404.485
317.7494, 3392.921
318.2315, 3382.800
318.7137, 3373.772
319.1958, 3366.417
319.6779, 3360.459
320.1600, 3356.341
320.6421, 3355.443
321.1242, 3359.575
321.6064, 3367.415
322.0885, 3370.960
322.5706, 3370.852
323.0527, 3364.584
323.5348, 3345.250
324.0169, 3322.485
324.4991, 3309.623
324.9812, 3313.028
325.4633, 3320.725
325.9454, 3312.580
326.4275, 3285.303
326.9096, 3258.606
327.3918, 3234.404
327.8739, 3214.573
328.3560, 3202.374
328.8381, 3197.921
329.3202, 3193.605
329.8023, 3184.036
330.2845, 3169.935
330.7666, 3152.975
331.2487, 3129.940
331.7308, 3110.709
332.2129, 3106.538
332.6950, 3113.334
333.1772, 3117.852
333.6593, 3116.091
334.1414, 3110.059
334.6235, 3100.891
335.1056, 3088.672
335.5877, 3076.998
336.0698, 3067.289
336.5519, 3060.124
337.0341, 3056.613
337.5162, 3061.173
337.9983, 3063.592
338.4804, 3052.477
338.9625, 3036.590
339.4446, 3037.194
339.9268, 3063.618
340.4089, 3099.690
340.8910, 3117.021
341.3731, 3104.841
341.8552, 3096.792
342.3373, 3093.281
342.8195, 3094.774
343.3016, 3107.030
343.7837, 3127.491
344.2658, 3140.781
344.7479, 3129.353
345.2300, 3090.028
345.7122, 3076.296
346.1943, 3112.241
346.6764, 3146.651
347.1585, 3166.678
347.6406, 3174.238
348.1227, 3174.260
348.6049, 3169.149
349.0870, 3159.073
349.5691, 3141.695
350.0512, 3103.447
350.5333, 3086.315
351.0154, 3109.790
351.4976, 3145.053
351.9797, 3172.428
352.4618, 3187.625
352.9439, 3196.104
353.4260, 3202.513
353.9081, 3206.881
354.3903, 3209.322
354.8724, 3207.017
355.3545, 3206.591
355.8366, 3212.891
356.3187, 3224.107
356.8008, 3235.209
357.2830, 3247.726
357.7651, 3256.929
358.2472, 3254.227
358.7293, 3238.929
359.2114, 3218.250
359.6935, 3191.740
360.1757, 3163.786
360.6578, 3143.798
361.1399, 3136.517
361.6220, 3128.548
362.1041, 3115.307
362.5862, 3096.073
363.0684, 3065.775
363.5505, 3020.965
364.0326, 2975.306
364.5147, 2949.463
364.9968, 2950.656
365.4789, 2941.841
365.9611, 2910.316
366.4432, 2876.471
366.9253, 2856.783
367.4074, 2850.035
367.8895, 2843.789
368.3716, 2828.522
368.8538, 2805.330
369.3359, 2787.085
369.8180, 2777.024
370.3001, 2768.243
370.7822, 2761.688
371.2643, 2755.043
371.7465, 2744.402
372.2286, 2728.592
372.7107, 2712.210
373.1928, 2703.827
373.6749, 2707.232
374.1570, 2706.315
374.6392, 2694.440
375.1213, 2682.763
375.6034, 2676.862
376.0855, 2676.306
376.5676, 2677.415
377.0497, 2678.958
377.5319, 2680.054
378.0140, 2677.171
378.4961, 2669.437
378.9782, 2659.972
379.4603, 2647.163
379.9424, 2634.546
380.4246, 2627.417
380.9066, 2628.763
381.3888, 2631.606
381.8709, 2630.495
382.3530, 2626.023
382.8351, 2620.504
383.3172, 2614.099
383.7993, 2607.863
384.2815, 2601.793
384.7636, 2594.868
385.2457, 2596.078
385.7278, 2613.511
386.2099, 2635.411
386.6920, 2654.214
387.1742, 2668.137
387.6563, 2672.743
388.1384, 2662.979
388.6205, 2641.170
389.1026, 2628.369
389.5847, 2637.998
390.0669, 2639.870
390.5490, 2616.803
391.0311, 2587.586
391.5132, 2577.623
391.9953, 2594.481
392.4774, 2621.199
392.9596, 2631.239
393.4417, 2618.153
393.9238, 2608.958
394.4059, 2606.366
394.8880, 2605.344
395.3701, 2603.917
395.8523, 2602.264
396.3344, 2601.127
396.8165, 2599.718
397.2986, 2599.954
397.7807, 2609.626
398.2628, 2633.229
398.7450, 2650.262
399.2271, 2642.779
399.7092, 2629.106
400.1913, 2631.695
400.6734, 2657.240
401.1555, 2681.163
401.6377, 2679.822
402.1198, 2664.604
402.6019, 2669.075
403.0840, 2703.456
403.5661, 2740.873
404.0482, 2750.882
404.5304, 2732.732
405.0125, 2729.062
405.4946, 2755.377
405.9767, 2784.656
406.4588, 2797.814
406.9409, 2800.077
407.4231, 2808.251
407.9052, 2831.582
408.3873, 2863.677
408.8694, 2886.926
409.3515, 2890.541
409.8336, 2900.910
410.3158, 2920.200
410.7979, 2944.673
411.2800, 2973.747
411.7621, 3005.984
412.2442, 3036.821
412.7263, 3061.064
413.2085, 3079.302
413.6906, 3104.982
414.1727, 3145.633
414.6548, 3182.131
415.1369, 3204.901
415.6190, 3221.009
416.1012, 3240.262
416.5833, 3266.645
417.0654, 3293.367
417.5475, 3311.343
418.0296, 3321.677
418.5117, 3335.778
418.9939, 3359.098
419.4760, 3382.289
419.9581, 3392.717
420.4402, 3391.787
420.9223, 3393.272
421.4044, 3403.229
421.8866, 3415.057
422.3687, 3424.936
422.8508, 3431.799
423.3329, 3430.227
423.8150, 3414.280
424.2971, 3391.346
424.7793, 3387.842
425.2614, 3434.047
425.7435, 3459.889
426.2256, 3445.716
426.7077, 3418.597
427.1898, 3403.272
427.6719, 3403.122
428.1541, 3405.086
428.6362, 3396.073
429.1183, 3375.907
429.6004, 3353.125
430.0825, 3320.099
430.5646, 3294.688
431.0468, 3289.712
431.5289, 3292.624
432.0110, 3286.085
432.4931, 3263.513
432.9752, 3232.468
433.4573, 3198.712
433.9395, 3162.523
434.4216, 3133.082
434.9037, 3113.416
435.3858, 3099.258
435.8679, 3087.012
436.3500, 3076.531
436.8322, 3067.519
437.3143, 3062.797
437.7964, 3057.385
438.2785, 3048.517
438.7606, 3035.390
439.2427, 3013.671
439.7249, 2979.162
440.2070, 2938.178
440.6891, 2908.210
441.1712, 2887.811
441.6533, 2881.124
442.1354, 2902.014
442.6176, 2927.104
443.0997, 2941.825
443.5818, 2942.515
444.0639, 2926.794
444.5460, 2887.463
445.0281, 2828.655
445.5103, 2797.551
445.9924, 2813.436
446.4745, 2826.294
446.9566, 2818.294
447.4387, 2801.728
447.9208, 2790.671
448.4030, 2789.027
448.8851, 2787.254
449.3672, 2772.361
449.8493, 2748.600
450.3314, 2739.996
450.8135, 2756.424
451.2957, 2769.464
451.7778, 2746.229
452.2599, 2695.235
452.7420, 2664.755
453.2241, 2678.772
453.7062, 2695.859
454.1884, 2689.411
454.6705, 2668.408
455.1526, 2653.845
455.6347, 2653.809
456.1168, 2660.918
456.5989, 2662.813
457.0811, 2655.727
457.5632, 2653.184
458.0453, 2660.689
458.5274, 2666.806
459.0095, 2663.895
459.4916, 2654.923
459.9738, 2648.056
460.4559, 2648.722
460.9380, 2652.883
461.4201, 2650.168
461.9022, 2638.505
462.3843, 2628.648
462.8665, 2623.230
463.3486, 2620.787
463.8307, 2620.497
464.3128, 2622.251
464.7949, 2624.868
465.2770, 2630.363
465.7592, 2635.197
466.2413, 2631.705
466.7234, 2620.122
467.2055, 2612.321
467.6876, 2615.838
468.1697, 2627.579
468.6519, 2636.943
469.1340, 2645.438
469.6161, 2649.694
470.0982, 2643.730
470.5803, 2636.731
471.0624, 2639.896
471.5445, 2652.766
472.0266, 2663.412
472.5088, 2659.711
472.9909, 2643.311
473.4730, 2638.839
473.9551, 2658.758
474.4372, 2671.063
474.9193, 2662.631
475.4015, 2646.382
475.8836, 2633.879
476.3657, 2627.735
476.8478, 2628.627
477.3299, 2643.697
477.8120, 2667.112
478.2942, 2674.381
478.7763, 2659.286
479.2584, 2643.967
479.7405, 2647.021
480.2226, 2663.771
480.7047, 2670.541
481.1869, 2655.850
481.6690, 2643.600
482.1511, 2645.112
482.6332, 2654.297
483.1153, 2662.928
483.5974, 2668.612
484.0796, 2672.073
484.5617, 2673.511
485.0438, 2672.171
485.5259, 2674.970
486.0080, 2686.588
486.4901, 2697.429
486.9723, 2705.500
487.4544, 2711.085
487.9365, 2714.695
488.4186, 2716.434
488.9007, 2716.661
489.3828, 2713.066
489.8650, 2706.511
490.3471, 2710.543
490.8292, 2732.905
491.3113, 2754.565
491.7934, 2757.576
492.2755, 2746.520
492.7577, 2736.035
493.2398, 2725.473
493.7219, 2718.790
494.2040, 2721.167
494.6861, 2728.791
495.1682, 2732.000
495.6504, 2727.673
496.1325, 2725.025
496.6146, 2738.737
497.0967, 2776.308
497.5788, 2796.388
498.0609, 2784.863
498.5431, 2772.067
499.0252, 2765.310
499.5073, 2765.185
499.9894, 2771.852
500.4715, 2785.666
500.9536, 2803.708
501.4358, 2824.052
501.9179, 2846.605
502.4000, 2863.490
502.8821, 2871.681
503.3642, 2877.067
503.8463, 2882.778
504.3285, 2889.391
504.8106, 2899.634
505.2927, 2918.930
505.7748, 2937.285
506.2569, 2944.961
506.7390, 2947.089
507.2212, 2956.999
507.7033, 2979.264
508.1854, 3002.327
508.6675, 3008.751
509.1496, 2991.640
509.6317, 2990.260
510.1139, 3019.731
510.5960, 3047.727
511.0781, 3063.356
511.5602, 3070.435
512.0423, 3074.524
512.5244, 3077.328
513.0065, 3082.579
513.4886, 3098.437
513.9708, 3124.048
514.4529, 3140.379
514.9350, 3142.421
515.4171, 3139.573
515.8992, 3138.391
516.3813, 3138.275
516.8635, 3137.205
517.3456, 3133.808
517.8277, 3130.528
518.3098, 3128.422
518.7919, 3127.339
519.2740, 3126.891
519.7562, 3126.989
520.2383, 3128.142
520.7204, 3130.849
521.2025, 3135.002
521.6846, 3141.456
522.1667, 3151.203
522.6489, 3162.271
523.1310, 3176.665
523.6131, 3191.048
524.0952, 3200.014
524.5773, 3201.783
525.0594, 3204.351
525.5416, 3216.666
526.0237, 3236.881
526.5058, 3258.772
526.9879, 3284.369
527.4700, 3300.565
527.9521, 3289.642
528.4343, 3262.299
528.9164, 3262.335
529.3985, 3314.463
529.8806, 3359.563
530.3627, 3376.891
530.8448, 3378.631
531.3270, 3375.446
531.8091, 3370.830
532.2912, 3368.031
532.7733, 3370.000
533.2554, 3376.504
533.7375, 3384.881
534.2197, 3393.667
534.7018, 3407.034
535.1839, 3433.173
535.6660, 3459.305
536.1481, 3473.678
536.6302, 3474.820
537.1124, 3470.838
537.5945, 3463.728
538.0766, 3455.910
538.5587, 3452.517
539.0408, 3453.556
539.5229, 3454.825
540.0051, 3455.381
540.4872, 3453.180
540.9693, 3443.253
541.4514, 3427.069
541.9335, 3400.108
542.4156, 3344.414
542.8978, 3292.952
543.3799, 3274.387
543.8620, 3280.430
544.3441, 3282.925
544.8262, 3265.231
545.3083, 3233.110
545.7905, 3197.593
546.2726, 3157.856
546.7547, 3120.131
547.2368, 3085.321
547.7189, 3053.078
548.2010, 3024.429
548.6832, 2998.469
549.1653, 2969.745
549.6474, 2930.276
550.1295, 2893.393
550.6116, 2875.031
551.0938, 2866.125
551.5759, 2843.101
552.0580, 2798.462
552.5401, 2746.577
553.0222, 2706.775
553.5043, 2680.463
553.9865, 2655.928
554.4686, 2636.059
554.9507, 2614.807
555.4328, 2585.075
555.9149, 2555.509
556.3970, 2539.877
556.8792, 2542.432
557.3613, 2546.063
557.8434, 2534.236
558.3255, 2510.812
558.8076, 2486.344
559.2897, 2461.132
559.7719, 2441.082
560.2540, 2433.471
560.7361, 2432.723
561.2182, 2416.962
561.7003, 2374.306
562.1824, 2338.346
562.6646, 2318.660
563.1467, 2304.058
563.6288, 2285.611
564.1109, 2262.744
564.5930, 2237.411
565.0751, 2208.916
565.5573, 2182.752
566.0394, 2179.237
566.5215, 2205.843
567.0036, 2219.761
567.4857, 2204.656
567.9678, 2181.012
568.4500, 2165.042
568.9321, 2156.352
569.4142, 2152.317
569.8963, 2159.749
570.3784, 2164.687
570.8605, 2151.801
571.3427, 2128.993
571.8248, 2114.895
572.3069, 2115.514
572.7890, 2122.588
573.2711, 2125.937
573.7532, 2125.270
574.2354, 2123.494
574.7175, 2119.323
575.1996, 2115.663
575.6817, 2116.296
576.1638, 2116.405
576.6459, 2109.171
577.1281, 2092.967
577.6102, 2076.150
578.0923, 2062.824
578.5744, 2054.000
579.0565, 2054.030
579.5386, 2062.952
580.0208, 2070.007
580.5029, 2067.777
580.9850, 2061.418
581.4671, 2064.757
581.9492, 2084.817
582.4313, 2103.351
582.9134, 2127.279
583.3955, 2143.667
583.8776, 2137.792
584.3597, 2118.024
584.8419, 2104.882
585.3240, 2109.185
585.8061, 2122.658
586.2882, 2133.371
586.7703, 2141.383
587.2524, 2149.366
587.7346, 2158.917
588.2167, 2165.446
588.6988, 2162.287
589.1809, 2151.792
589.6630, 2148.793
590.1451, 2155.497
590.6273, 2167.460
591.1094, 2184.944
591.5915, 2206.018
592.0736, 2230.950
592.5557, 2258.231
593.0378, 2281.285
593.5200, 2293.735
594.0021, 2298.540
594.4842, 2309.676
594.9663, 2329.596
595.4484, 2346.829
595.9305, 2352.943
596.4127, 2360.154
596.8948, 2382.857
597.3769, 2419.675
597.8590, 2450.657
598.3411, 2468.151
598.8232, 2479.632
599.3054, 2486.717
599.7875, 2492.678
600.2696, 2504.217
600.7517, 2523.432
601.2338, 2547.509
601.7159, 2572.554
602.1981, 2598.316
602.6802, 2630.314
603.1623, 2674.860
603.6444, 2716.372
604.1265, 2750.732
604.6086, 2779.376
605.0908, 2803.278
605.5729, 2822.540
606.0550, 2838.311
606.5371, 2845.615
607.0192, 2853.056
607.5013, 2878.452
607.9835, 2916.985
608.4656, 2939.051
608.9477, 2928.510
609.4298, 2905.868
609.9119, 2912.000
610.3940, 2963.190
610.8762, 2991.374
611.3583, 2978.887
611.8404, 2961.403
612.3225, 2952.273
612.8046, 2945.714
613.2867, 2931.701
613.7689, 2906.932
614.2510, 2877.788
614.7331, 2853.089
615.2152, 2827.015
615.6973, 2784.235
616.1794, 2723.725
616.6616, 2662.862
617.1437, 2611.529
617.6258, 2567.158
618.1079, 2521.856
618.5900, 2473.441
619.0721, 2427.944
