##NAMES=Natrochalcite
##RRUFFID=R050152
##IDEAL CHEMISTRY=NaCu^2+^_2_(S^6+^O_4_)_2_(OH)&#183;H_2_O
##LOCALITY=Fortuna mine, Baquedano, Chile
##OWNER=RRUFF
##SOURCE=Jim McGlasson
##DESCRIPTION=Bright emerald green pyramidal crystals
##STATUS=The identification of this mineral has been confirmed by X-ray diffraction and chemical analysis
##URL=rruff.info/R050152
##MEASURED CHEMISTRY=Na_1.00_Cu_2.00_(S_1.00_O_4_)_2_(OH)Â·H_2_O
93.88477, 12.08038
94.36688, 11.08870
94.84900, 11.69544
95.33112, 13.59078
95.81323, 15.30953
96.29535, 15.76964
96.77747, 15.35569
97.25958, 15.54717
97.74170, 16.47394
98.22382, 17.98801
98.70593, 19.94214
99.18805, 22.37565
99.67017, 24.84513
100.1523, 26.98305
100.6344, 28.76283
101.1165, 30.70409
101.5986, 32.88551
102.0807, 35.27357
102.5629, 37.61615
103.0450, 39.90226
103.5271, 42.20856
104.0092, 44.59084
104.4913, 47.13400
104.9734, 49.55507
105.4556, 51.58248
105.9377, 53.11996
106.4198, 56.02085
106.9019, 61.00944
107.3840, 66.82280
107.8661, 71.83044
108.3483, 75.67548
108.8304, 79.23682
109.3125, 82.73319
109.7946, 86.23251
110.2767, 89.56747
110.7588, 93.19219
111.2410, 96.61252
111.7231, 98.98769
112.2052, 99.27006
112.6873, 99.36891
113.1694, 99.90411
113.6515, 100.7834
114.1337, 102.3246
114.6158, 105.0787
115.0979, 108.6109
115.5800, 111.6747
116.0621, 112.7563
116.5442, 114.0002
117.0264, 116.6786
117.5085, 122.2254
117.9906, 128.0811
118.4727, 133.7930
118.9548, 139.2729
119.4369, 143.9157
119.9191, 146.4000
120.4012, 148.3483
120.8833, 151.3770
121.3654, 156.7967
121.8475, 162.9381
122.3296, 167.9645
122.8118, 171.8251
123.2939, 177.8673
123.7760, 190.1395
124.2581, 205.8969
124.7402, 220.9070
125.2223, 234.1190
125.7045, 244.9197
126.1866, 251.7309
126.6687, 253.9618
127.1508, 255.2005
127.6329, 259.0934
128.1150, 264.9840
128.5972, 270.8532
129.0793, 277.1672
129.5614, 282.4957
130.0435, 283.0227
130.5256, 277.2048
131.0077, 269.2900
131.4899, 265.1453
131.9720, 264.6321
132.4541, 265.7752
132.9362, 265.7257
133.4183, 264.7535
133.9004, 266.9221
134.3826, 272.6180
134.8647, 281.5078
135.3468, 292.7018
135.8289, 306.1594
136.3110, 322.0989
136.7931, 342.2383
137.2753, 366.6965
137.7574, 389.2587
138.2395, 411.5543
138.7216, 431.3756
139.2037, 436.2300
139.6858, 424.7417
140.1680, 402.4501
140.6501, 372.1330
141.1322, 330.5788
141.6143, 292.6817
142.0964, 261.1558
142.5785, 235.8826
143.0607, 215.0683
143.5428, 199.0022
144.0249, 186.6725
144.5070, 176.7230
144.9891, 169.6631
145.4712, 164.0571
145.9534, 159.7927
146.4355, 157.0819
146.9176, 154.5332
147.3997, 152.1671
147.8818, 149.9403
148.3639, 147.6574
148.8461, 144.5092
149.3282, 142.2541
149.8103, 141.6953
150.2924, 144.3253
150.7745, 145.6646
151.2566, 144.8634
151.7388, 142.7279
152.2209, 141.4007
152.7030, 141.5867
153.1851, 141.9903
153.6672, 142.1039
154.1493, 141.1276
154.6315, 140.9049
155.1136, 142.1740
155.5957, 144.4311
156.0778, 145.8424
156.5599, 145.3435
157.0420, 144.5253
157.5242, 144.2398
158.0063, 144.6743
158.4884, 145.5837
158.9705, 147.0256
159.4526, 148.9527
159.9347, 151.1061
160.4169, 153.7505
160.8990, 156.4170
161.3811, 158.7672
161.8632, 159.9293
162.3453, 161.5005
162.8274, 164.2813
163.3096, 168.1804
163.7917, 171.9322
164.2738, 175.6436
164.7559, 178.7346
165.2380, 180.6334
165.7201, 179.6063
166.2023, 178.5918
166.6844, 179.0250
167.1665, 180.9474
167.6486, 183.7231
168.1307, 188.1816
168.6128, 193.0256
169.0949, 196.5591
169.5771, 196.5177
170.0592, 195.9566
170.5413, 197.4733
171.0234, 201.3587
171.5055, 205.1488
171.9876, 206.2078
172.4698, 206.0351
172.9519, 207.3018
173.4340, 211.9634
173.9161, 218.3328
174.3982, 224.7511
174.8803, 231.1007
175.3625, 237.6944
175.8446, 243.9828
176.3267, 250.5791
176.8088, 258.9355
177.2909, 270.5683
177.7730, 284.1958
178.2552, 297.9855
178.7373, 311.7828
179.2194, 326.0911
179.7015, 343.4139
180.1836, 362.5767
180.6657, 378.6819
181.1479, 391.4166
181.6300, 399.0453
182.1121, 397.1246
182.5942, 383.9374
183.0763, 364.4655
183.5584, 342.5050
184.0406, 318.5536
184.5227, 296.7252
185.0048, 278.9093
185.4869, 265.0804
185.9690, 254.9311
186.4511, 249.0174
186.9333, 245.8711
187.4154, 243.2702
187.8975, 241.2151
188.3796, 240.1601
188.8617, 240.1927
189.3438, 241.4075
189.8260, 244.4203
190.3081, 249.7787
190.7902, 256.4607
191.2723, 262.2099
191.7544, 266.9884
192.2365, 272.1011
192.7187, 278.6229
193.2008, 286.4527
193.6829, 294.7901
194.1650, 303.6481
194.6471, 312.9607
195.1292, 322.5192
195.6114, 332.3434
196.0935, 342.3119
196.5756, 352.3860
197.0577, 362.5571
197.5398, 372.1372
198.0219, 380.7018
198.5041, 388.7504
198.9862, 397.5350
199.4683, 407.0898
199.9504, 417.3514
200.4325, 428.1785
200.9146, 439.4853
201.3968, 451.8940
201.8789, 465.7658
202.3610, 480.7430
202.8431, 494.8614
203.3252, 507.5872
203.8073, 520.7358
204.2895, 536.0008
204.7716, 553.5969
205.2537, 571.6501
205.7358, 589.2333
206.2179, 606.8441
206.7000, 628.3608
207.1822, 654.2897
207.6643, 682.3536
208.1464, 710.6401
208.6285, 739.2450
209.1106, 767.7621
209.5927, 796.3872
210.0749, 825.0026
210.5570, 852.8187
211.0391, 880.8505
211.5212, 905.7041
212.0033, 924.8963
212.4854, 938.9364
212.9676, 945.4122
213.4497, 943.5296
213.9318, 933.3138
214.4139, 916.7459
214.8960, 892.9159
215.3781, 863.9584
215.8603, 830.8709
216.3424, 792.8119
216.8245, 753.9820
217.3066, 714.5237
217.7887, 674.3223
218.2708, 637.7121
218.7529, 605.2960
219.2351, 575.0248
219.7172, 545.3448
220.1993, 515.0690
220.6814, 487.3869
221.1635, 463.4171
221.6456, 442.9802
222.1278, 424.3160
222.6099, 407.4890
223.0920, 392.0335
223.5741, 377.9464
224.0562, 365.2829
224.5383, 353.3598
225.0205, 341.8661
225.5026, 330.8863
225.9847, 320.8810
226.4668, 312.2968
226.9489, 304.2599
227.4310, 296.0370
227.9132, 287.0225
228.3953, 278.8157
228.8774, 271.8528
229.3595, 266.1042
229.8416, 260.6566
230.3237, 255.3905
230.8059, 250.4827
231.2880, 246.1639
231.7701, 242.8137
232.2522, 239.2820
232.7343, 235.2443
233.2164, 230.6327
233.6986, 226.4660
234.1807, 222.6618
234.6628, 219.3792
235.1449, 216.9451
235.6270, 216.0319
236.1091, 214.6812
236.5913, 212.3520
237.0734, 209.0215
237.5555, 206.0794
238.0376, 203.5398
238.5197, 201.3698
239.0018, 199.6575
239.4840, 198.8476
239.9661, 197.6039
240.4482, 195.3542
240.9303, 192.1168
241.4124, 190.2433
241.8945, 190.5701
242.3767, 191.3681
242.8588, 191.0471
243.3409, 188.9022
243.8230, 186.9890
244.3051, 185.6932
244.7872, 184.9934
245.2694, 184.1204
245.7515, 182.9992
246.2336, 181.7884
246.7157, 180.5373
247.1978, 178.8896
247.6799, 177.9738
248.1621, 178.4018
248.6442, 179.9988
249.1263, 180.1410
249.6084, 177.9421
250.0905, 175.3971
250.5726, 174.0908
251.0548, 174.6329
251.5369, 175.1276
252.0190, 175.3838
252.5011, 175.4020
252.9832, 175.1675
253.4653, 174.6542
253.9475, 173.9218
254.4296, 172.9329
254.9117, 171.3871
255.3938, 170.2630
255.8759, 169.7173
256.3580, 169.6829
256.8401, 169.8735
257.3223, 170.5327
257.8044, 171.0380
258.2865, 170.8276
258.7686, 169.3271
259.2507, 168.6955
259.7328, 169.5240
260.2150, 171.3558
260.6971, 172.3037
261.1792, 172.1065
261.6613, 171.4918
262.1434, 170.8263
262.6255, 170.0554
263.1077, 169.4250
263.5898, 168.9458
264.0719, 168.6277
264.5540, 168.6134
265.0361, 169.2010
265.5182, 169.4584
266.0004, 168.7007
266.4825, 166.4983
266.9646, 164.9233
267.4467, 164.1593
267.9288, 164.0232
268.4109, 164.1287
268.8931, 164.5534
269.3752, 165.0080
269.8573, 165.4156
270.3394, 165.8432
270.8215, 165.7889
271.3036, 164.9361
271.7858, 163.8842
272.2679, 164.1001
272.7500, 165.9626
273.2321, 167.7010
273.7142, 168.5993
274.1964, 168.6431
274.6785, 167.8122
275.1606, 165.6746
275.6427, 163.2774
276.1248, 162.5769
276.6069, 163.9165
277.0891, 165.2279
277.5712, 165.6966
278.0533, 165.3149
278.5354, 164.7882
279.0175, 164.0504
279.4996, 163.3098
279.9818, 162.9307
280.4639, 162.9605
280.9460, 162.9088
281.4281, 162.4368
281.9102, 161.6404
282.3923, 161.7598
282.8745, 163.0631
283.3566, 164.3970
283.8387, 164.1595
284.3208, 162.3021
284.8029, 160.7822
285.2850, 160.1548
285.7672, 160.3166
286.2493, 161.0823
286.7314, 162.6015
287.2135, 163.8476
287.6956, 163.5016
288.1777, 161.6821
288.6599, 160.2074
289.1420, 159.5649
289.6241, 159.5289
290.1062, 159.5195
290.5883, 159.5379
291.0704, 159.5708
291.5526, 159.6822
292.0347, 159.8295
292.5168, 159.7327
292.9989, 159.2179
293.4810, 158.5688
293.9631, 158.3350
294.4453, 158.5030
294.9274, 158.8298
295.4095, 159.1624
295.8916, 159.5107
296.3737, 160.0109
296.8558, 160.8560
297.3380, 161.4853
297.8201, 160.8116
298.3022, 159.0175
298.7843, 157.3055
299.2664, 156.2746
299.7485, 155.8516
300.2307, 156.0729
300.7128, 157.1161
301.1949, 158.1515
301.6770, 158.0772
302.1591, 157.1676
302.6412, 156.3407
303.1234, 156.2003
303.6055, 156.3852
304.0876, 156.3101
304.5697, 155.8971
305.0518, 155.5670
305.5339, 155.9802
306.0161, 156.7661
306.4982, 157.1435
306.9803, 156.2283
307.4624, 155.0315
307.9445, 154.7195
308.4266, 155.3269
308.9088, 155.9573
309.3909, 156.0315
309.8730, 155.7054
310.3551, 155.2099
310.8372, 154.3537
311.3193, 153.5580
311.8015, 153.0717
312.2836, 152.8934
312.7657, 153.0576
313.2478, 154.2198
313.7299, 155.4550
314.2120, 155.8128
314.6942, 154.2251
315.1763, 152.6428
315.6584, 152.0250
316.1405, 152.2537
316.6226, 152.9097
317.1047, 154.6064
317.5869, 156.1730
318.0690, 156.6686
318.5511, 155.1938
319.0332, 153.9563
319.5153, 153.8899
319.9974, 154.6593
320.4796, 155.4989
320.9617, 156.7384
321.4438, 157.5523
321.9259, 157.3798
322.4080, 155.7343
322.8901, 154.3850
323.3723, 153.8072
323.8544, 153.7404
324.3365, 153.8130
324.8186, 154.1852
325.3007, 154.4776
325.7828, 154.5645
326.2650, 154.4142
326.7471, 154.2231
327.2292, 153.5224
327.7113, 153.0086
328.1934, 153.3473
328.6755, 156.2567
329.1577, 158.1969
329.6398, 158.0690
330.1219, 155.8852
330.6040, 154.9493
331.0861, 156.0880
331.5682, 157.8239
332.0504, 159.2685
332.5325, 160.8814
333.0146, 161.3948
333.4967, 160.1830
333.9788, 157.7037
334.4609, 156.0948
334.9431, 155.4811
335.4252, 155.5388
335.9073, 156.2263
336.3894, 157.9493
336.8715, 159.2395
337.3536, 160.0423
337.8358, 160.4386
338.3179, 160.5987
338.8000, 160.5151
339.2821, 160.2173
339.7642, 159.5248
340.2463, 158.3325
340.7285, 158.1885
341.2105, 159.5721
341.6927, 161.1234
342.1748, 160.5479
342.6569, 157.4722
343.1390, 155.4334
343.6211, 155.9244
344.1032, 158.4604
344.5854, 160.0198
345.0675, 160.4849
345.5496, 160.5125
346.0317, 160.5103
346.5138, 160.5084
346.9959, 160.9522
347.4781, 162.1684
347.9602, 163.6639
348.4423, 164.2837
348.9244, 164.0499
349.4065, 163.5860
349.8886, 162.9661
350.3708, 162.4405
350.8529, 162.9608
351.3350, 164.9430
351.8171, 167.1669
352.2992, 167.9846
352.7813, 167.6317
353.2635, 167.0247
353.7456, 166.1425
354.2277, 165.4834
354.7098, 166.0642
355.1919, 168.0610
355.6740, 169.9607
356.1562, 170.2494
356.6383, 169.5250
357.1204, 168.8544
357.6025, 168.6506
358.0846, 168.6829
358.5667, 168.7551
359.0489, 168.8755
359.5310, 169.1759
360.0131, 169.7143
360.4952, 170.4826
360.9773, 171.4904
361.4594, 173.0746
361.9416, 174.4856
362.4237, 175.3387
362.9058, 175.7364
363.3879, 175.9994
363.8700, 176.0727
364.3521, 176.1722
364.8343, 176.4187
365.3164, 176.8457
365.7985, 177.3859
366.2806, 178.0406
366.7627, 178.8010
367.2448, 179.6413
367.7270, 180.9003
368.2091, 181.9245
368.6912, 182.3981
369.1733, 182.1516
369.6554, 182.2349
370.1375, 182.7398
370.6197, 183.5573
371.1018, 184.6009
371.5839, 185.8040
372.0660, 187.3551
372.5481, 189.6003
373.0302, 192.3410
373.5124, 194.0383
373.9945, 193.9094
374.4766, 193.7751
374.9587, 194.7659
375.4408, 197.3522
375.9229, 199.7191
376.4051, 201.7431
376.8872, 203.5670
377.3693, 205.4681
377.8514, 207.4178
378.3335, 209.6062
378.8156, 212.1327
379.2978, 215.0257
379.7799, 217.9111
380.2620, 220.7482
380.7441, 223.7858
381.2262, 227.5300
381.7083, 231.9355
382.1905, 236.0536
382.6726, 239.3298
383.1547, 242.2247
383.6368, 245.9587
384.1189, 250.5670
384.6010, 255.5124
385.0832, 260.1657
385.5653, 264.7836
386.0474, 270.2766
386.5295, 276.9447
387.0116, 284.1168
387.4937, 291.3534
387.9759, 298.5143
388.4580, 305.2059
388.9401, 310.3305
389.4222, 315.2787
389.9043, 321.8349
390.3864, 330.3059
390.8686, 339.2455
391.3507, 347.6867
391.8328, 355.9380
392.3149, 364.3436
392.7970, 372.3403
393.2791, 381.0318
393.7613, 391.5992
394.2434, 403.8228
394.7255, 415.2979
395.2076, 424.3416
395.6897, 432.6636
396.1718, 441.4400
396.6540, 450.5934
397.1361, 460.7011
397.6182, 472.2844
398.1003, 484.9149
398.5824, 497.6213
399.0645, 510.3841
399.5467, 523.0689
400.0288, 535.8363
400.5109, 549.1554
400.9930, 561.0294
401.4751, 571.4415
401.9572, 580.4938
402.4394, 588.3989
402.9215, 596.1304
403.4036, 601.1366
403.8857, 602.9601
404.3678, 601.6808
404.8499, 597.9694
405.3321, 591.5189
405.8142, 583.1796
406.2963, 573.4693
406.7784, 562.2818
407.2605, 550.0651
407.7426, 536.7782
408.2248, 522.5543
408.7069, 507.1217
409.1890, 490.5989
409.6711, 474.5918
410.1532, 459.5177
410.6353, 445.4960
411.1175, 433.1781
411.5996, 422.6771
412.0817, 413.7988
412.5638, 406.7369
413.0459, 401.3273
413.5280, 396.4479
414.0102, 391.6453
414.4923, 387.4618
414.9744, 384.5687
415.4565, 382.9153
415.9386, 382.2676
416.4207, 382.3536
416.9029, 383.4039
417.3850, 385.9747
417.8671, 390.4550
418.3492, 395.0734
418.8313, 398.1088
419.3134, 400.5463
419.7956, 404.0161
420.2777, 409.5834
420.7598, 415.9955
421.2419, 422.1333
421.7240, 428.0882
422.2061, 436.3530
422.6883, 449.5508
423.1704, 464.3036
423.6525, 478.3784
424.1346, 489.6671
424.6167, 502.4010
425.0988, 516.9284
425.5810, 533.1134
426.0631, 550.8518
426.5452, 571.8670
427.0273, 592.4025
427.5094, 611.6337
427.9915, 629.4258
428.4737, 646.2853
428.9558, 663.3041
429.4379, 678.3265
429.9200, 689.7067
430.4021, 698.3790
430.8842, 700.5179
431.3664, 694.7794
431.8485, 682.1694
432.3306, 666.2665
432.8127, 646.9083
433.2948, 625.0125
433.7769, 599.9875
434.2591, 572.1375
434.7412, 545.8674
435.2233, 521.2457
435.7054, 498.8690
436.1875, 479.0872
436.6696, 461.9470
437.1518, 447.7076
437.6339, 436.4977
438.1160, 428.0419
438.5981, 422.0548
439.0802, 418.5003
439.5623, 416.9862
440.0444, 417.3900
440.5266, 419.6083
441.0087, 423.5719
441.4908, 429.4156
441.9729, 436.6387
442.4550, 445.7929
442.9371, 456.0324
443.4193, 465.7332
443.9014, 473.4354
444.3835, 480.9897
444.8656, 490.4224
445.3477, 502.1112
445.8298, 509.8866
446.3120, 512.5084
446.7941, 510.2999
447.2762, 503.5207
447.7583, 489.9437
448.2404, 474.4131
448.7225, 456.8278
449.2047, 437.5331
449.6868, 417.8508
450.1689, 395.8317
450.6510, 375.7525
451.1331, 359.4259
451.6152, 347.1448
452.0974, 336.3038
452.5795, 326.7778
453.0616, 318.8568
453.5437, 312.6028
454.0258, 308.0874
454.5079, 305.1868
454.9901, 304.1591
455.4722, 304.5396
455.9543, 304.9407
456.4364, 305.3405
456.9185, 306.2928
457.4006, 307.8722
457.8828, 310.2508
458.3649, 314.0636
458.8470, 319.3259
459.3291, 325.9614
459.8112, 334.5276
460.2933, 344.3467
460.7755, 353.7982
461.2576, 361.2803
461.7397, 369.1732
462.2218, 380.3415
462.7039, 394.2357
463.1860, 407.7376
463.6682, 419.1877
464.1503, 429.7864
464.6324, 440.5243
465.1145, 452.1783
465.5966, 462.5540
466.0787, 471.5211
466.5609, 478.6468
467.0430, 483.2234
467.5251, 487.0258
468.0072, 486.2701
468.4893, 478.9664
468.9714, 465.4019
469.4536, 450.8821
469.9357, 435.0546
470.4178, 418.6454
470.8999, 402.0378
471.3820, 384.8034
471.8641, 368.4557
472.3463, 352.9061
472.8284, 338.4058
473.3105, 324.8694
473.7926, 312.3594
474.2747, 300.8683
474.7568, 290.4030
475.2390, 280.9521
475.7211, 272.3603
476.2032, 264.5709
476.6853, 258.0938
477.1674, 254.1247
477.6495, 251.7587
478.1317, 248.1372
478.6138, 242.6835
479.0959, 236.7183
479.5780, 231.0188
480.0601, 225.8969
480.5422, 222.1658
481.0244, 221.5290
481.5065, 221.3709
481.9886, 219.3634
482.4707, 215.7050
482.9528, 212.2999
483.4349, 210.2858
483.9171, 208.7041
484.3992, 206.8228
484.8813, 204.1716
485.3634, 201.9372
485.8455, 200.6765
486.3276, 199.9355
486.8098, 199.0466
487.2919, 198.0222
487.7740, 196.7401
488.2561, 195.0503
488.7382, 192.9804
489.2203, 191.2601
489.7025, 189.7695
490.1846, 188.8364
490.6667, 188.9566
491.1488, 190.5393
491.6309, 190.8971
492.1130, 189.5878
492.5952, 187.6305
493.0773, 186.5033
493.5594, 186.1990
494.0415, 186.0630
494.5236, 186.1299
495.0057, 186.0682
495.4879, 184.6491
495.9700, 182.0005
496.4521, 179.8422
496.9342, 179.9553
497.4163, 181.1675
497.8984, 181.6598
498.3806, 181.0928
498.8627, 180.3010
499.3448, 179.6966
499.8269, 179.3207
500.3090, 179.2290
500.7911, 180.0544
501.2733, 180.5736
501.7554, 180.1416
502.2375, 178.8883
502.7196, 177.5934
503.2017, 175.7957
503.6838, 174.4960
504.1660, 174.4035
504.6481, 176.3558
505.1302, 177.2124
505.6123, 176.3329
506.0944, 174.8275
506.5765, 173.9102
507.0587, 173.7193
507.5408, 173.7908
508.0229, 174.1849
508.5050, 174.7383
508.9871, 174.8311
509.4692, 174.4015
509.9514, 173.9510
510.4335, 173.8927
510.9156, 174.0995
511.3977, 173.6576
511.8798, 172.4564
512.3619, 171.4205
512.8441, 172.0442
513.3262, 173.4985
513.8083, 173.7069
514.2904, 171.3318
514.7725, 168.8683
515.2546, 169.0054
515.7368, 170.9339
516.2189, 172.5631
516.7010, 172.8606
517.1831, 172.6067
517.6652, 171.9849
518.1473, 170.9849
518.6295, 170.5592
519.1116, 171.8724
519.5937, 173.3019
520.0758, 173.6808
520.5579, 171.4407
521.0400, 170.1147
521.5222, 170.2396
522.0043, 171.0610
522.4864, 171.1144
522.9685, 169.8925
523.4506, 169.0906
523.9327, 169.3451
524.4149, 170.4733
524.8970, 171.1934
525.3791, 171.5009
525.8612, 171.4344
526.3433, 170.6925
526.8254, 169.4861
527.3076, 169.0491
527.7897, 169.5603
528.2718, 170.5667
528.7539, 171.9431
529.2360, 173.4098
529.7181, 174.3167
530.2003, 174.1496
530.6824, 173.6004
531.1645, 173.1100
531.6466, 172.7149
532.1287, 172.5150
532.6108, 172.7039
533.0930, 172.9936
533.5751, 173.2608
534.0572, 173.5194
534.5393, 173.5988
535.0214, 173.2402
535.5035, 172.8118
535.9857, 172.6398
536.4678, 172.7762
536.9499, 173.1074
537.4320, 173.7574
537.9141, 174.5478
538.3962, 175.0833
538.8784, 175.4210
539.3605, 175.2923
539.8426, 174.3278
540.3247, 172.7444
540.8068, 172.1564
541.2889, 172.6060
541.7711, 173.5755
542.2532, 175.1797
542.7353, 176.9811
543.2174, 177.4292
543.6995, 176.0738
544.1816, 174.5325
544.6638, 174.6137
545.1459, 175.6457
545.6280, 176.4007
546.1101, 176.0349
546.5922, 175.5656
547.0743, 175.5132
547.5565, 175.8346
548.0386, 176.3698
548.5207, 177.6106
549.0028, 178.5897
549.4849, 178.7687
549.9670, 177.8872
550.4492, 177.1079
550.9313, 176.3191
551.4134, 175.7606
551.8955, 175.6653
552.3776, 176.2543
552.8597, 176.6838
553.3419, 176.7983
553.8240, 176.8086
554.3061, 177.2239
554.7882, 178.0819
555.2703, 178.7913
555.7524, 179.1307
556.2346, 179.1532
556.7167, 178.9004
557.1988, 178.3880
557.6809, 177.8396
558.1630, 177.2070
558.6451, 176.7146
559.1273, 176.9350
559.6094, 178.1211
560.0915, 178.7728
560.5736, 177.2178
561.0557, 174.8678
561.5378, 173.3545
562.0200, 173.4549
562.5021, 174.1112
562.9842, 175.5615
563.4663, 177.4033
563.9484, 178.4669
564.4305, 178.0202
564.9127, 177.6343
565.3948, 177.8245
565.8769, 178.5993
566.3590, 179.0715
566.8411, 179.3353
567.3232, 179.0838
567.8054, 177.7014
568.2875, 175.1938
568.7696, 173.8794
569.2517, 174.0412
569.7338, 174.9431
570.2159, 176.0827
570.6981, 177.2349
571.1802, 177.6732
571.6623, 176.8311
572.1444, 175.5927
572.6265, 174.8164
573.1086, 174.4088
573.5908, 174.0636
574.0729, 173.3639
574.5550, 172.8913
575.0371, 173.1880
575.5192, 174.3179
576.0013, 175.1013
576.4835, 174.9708
576.9656, 174.6017
577.4477, 174.3920
577.9298, 174.1505
578.4119, 174.4838
578.8940, 175.6356
579.3762, 177.1355
579.8583, 178.4455
580.3404, 179.6594
580.8225, 180.1630
581.3046, 179.5806
581.7867, 178.4188
582.2689, 177.9690
582.7510, 178.2084
583.2331, 178.7541
583.7152, 179.6254
584.1973, 180.5825
584.6794, 181.0944
585.1616, 181.1751
585.6437, 181.3939
586.1258, 181.9797
586.6079, 182.9827
587.0900, 184.5081
587.5721, 186.7492
588.0542, 189.0753
588.5363, 191.3463
589.0184, 193.5627
589.5005, 195.7223
589.9827, 197.4006
