##NAMES=Natrojarosite
##RRUFFID=R080062
##IDEAL CHEMISTRY=NaFe^3+^_3_(S^6+^O_4_)_2_(OH)_6_
##LOCALITY=Lavra  do Tomé, Galiléja, Minas Gerais, Brazil
##OWNER=RRUFF
##SOURCE=Luiz Menezes
##DESCRIPTION=Golden brown rhombohedral crystals associated with colorless to pale purple phosphosiderite 
##STATUS=The identification of this mineral has been confirmed only by single crystal X-ray diffraction.
##URL=rruff.info/R080062
92.52344, 461.9711
93.00555, 460.0223
93.48767, 460.8144
93.96979, 474.5811
94.45190, 486.3621
94.93402, 493.7690
95.41614, 492.0688
95.89825, 484.8182
96.38037, 476.6668
96.86249, 467.7506
97.34460, 458.6735
97.82672, 449.4103
98.30884, 440.9203
98.79095, 433.7910
99.27307, 426.9878
99.75519, 419.2295
100.2373, 410.8917
100.7194, 402.6595
101.2015, 396.0569
101.6837, 391.1476
102.1658, 387.3278
102.6479, 384.2914
103.1300, 382.0124
103.6121, 380.1459
104.0942, 378.7039
104.5764, 377.4263
105.0585, 375.9504
105.5406, 373.9220
106.0227, 371.5436
106.5048, 369.4090
106.9869, 367.1882
107.4691, 365.5200
107.9512, 364.5924
108.4333, 364.3416
108.9154, 364.6154
109.3975, 365.2062
109.8796, 366.0120
110.3618, 367.7361
110.8439, 370.7892
111.3260, 374.3647
111.8081, 377.7879
112.2902, 381.1508
112.7723, 385.3246
113.2544, 391.6459
113.7366, 401.8075
114.2187, 411.1439
114.7008, 418.7821
115.1829, 426.1129
115.6650, 434.5214
116.1471, 444.5429
116.6293, 455.3551
117.1114, 465.0967
117.5935, 474.0551
118.0756, 481.6935
118.5577, 487.6972
119.0398, 492.2639
119.5220, 495.7175
120.0041, 497.5991
120.4862, 498.9457
120.9683, 501.8295
121.4504, 506.3983
121.9325, 512.1385
122.4147, 518.9505
122.8968, 526.9125
123.3789, 534.9485
123.8610, 541.8725
124.3431, 548.8232
124.8252, 557.0670
125.3074, 567.2789
125.7895, 578.6418
126.2716, 589.4142
126.7537, 598.9394
127.2358, 608.9404
127.7179, 620.0803
128.2001, 631.8965
128.6822, 643.8059
129.1643, 655.2242
129.6464, 666.3508
130.1285, 679.1295
130.6107, 693.9001
131.0928, 710.2881
131.5749, 727.5865
132.0570, 746.3312
132.5391, 767.7140
133.0212, 792.5611
133.5034, 821.0792
133.9855, 853.7172
134.4676, 890.6028
134.9497, 930.4538
135.4318, 976.6210
135.9139, 1027.744
136.3960, 1075.528
136.8782, 1112.742
137.3603, 1139.959
137.8424, 1141.194
138.3245, 1108.774
138.8066, 1052.421
139.2887, 978.5709
139.7709, 885.5613
140.2530, 787.9434
140.7351, 701.4388
141.2172, 624.9695
141.6993, 558.9723
142.1814, 506.1087
142.6636, 464.9616
143.1457, 430.1961
143.6278, 402.4118
144.1099, 380.1026
144.5920, 360.9870
145.0741, 345.1018
145.5563, 332.0153
146.0384, 321.9877
146.5205, 315.3535
147.0026, 309.0630
147.4847, 302.2905
147.9668, 295.9346
148.4490, 290.6753
148.9311, 286.6300
149.4132, 283.1547
149.8953, 279.2567
150.3774, 274.4645
150.8595, 270.1945
151.3417, 266.3838
151.8238, 263.1220
152.3059, 260.5692
152.7880, 258.7841
153.2701, 257.5566
153.7522, 256.3940
154.2344, 255.5923
154.7165, 254.5052
155.1986, 252.8852
155.6807, 251.0245
156.1628, 249.2635
156.6449, 247.7723
157.1271, 246.5189
157.6092, 245.4014
158.0913, 244.4292
158.5734, 243.5412
159.0555, 242.7448
159.5376, 242.0268
160.0198, 241.3413
160.5019, 240.6411
160.9840, 239.9791
161.4661, 239.5215
161.9482, 239.6157
162.4303, 239.5523
162.9125, 238.6005
163.3946, 236.8074
163.8767, 235.3328
164.3588, 235.1269
164.8409, 235.6320
165.3230, 235.9076
165.8052, 235.7933
166.2873, 235.3936
166.7694, 234.7719
167.2515, 233.8404
167.7336, 232.9819
168.2157, 232.4416
168.6979, 232.0596
169.1800, 231.6108
169.6621, 230.8747
170.1442, 230.1033
170.6263, 230.1044
171.1084, 231.5786
171.5906, 232.7153
172.0727, 232.8229
172.5548, 232.3094
173.0369, 231.7073
173.5190, 231.2914
174.0011, 231.0754
174.4833, 231.1799
174.9654, 231.8210
175.4475, 232.6123
175.9296, 233.5441
176.4117, 234.5647
176.8938, 235.5935
177.3760, 236.5493
177.8581, 237.4225
178.3402, 238.6138
178.8223, 240.3974
179.3044, 242.1883
179.7865, 243.7049
180.2687, 245.0265
180.7508, 246.4186
181.2329, 248.0922
181.7150, 250.0801
182.1971, 252.2146
182.6792, 254.8071
183.1614, 257.2695
183.6435, 259.2241
184.1256, 260.6695
184.6077, 261.8712
185.0898, 262.9219
185.5719, 263.8393
186.0541, 265.4025
186.5362, 267.8122
187.0183, 270.7688
187.5004, 274.3864
187.9825, 278.7561
188.4646, 282.5556
188.9468, 283.7873
189.4289, 283.1696
189.9110, 283.7387
190.3931, 287.1762
190.8752, 291.8961
191.3573, 295.3841
191.8395, 297.1496
192.3216, 298.5622
192.8037, 300.4980
193.2858, 302.8633
193.7679, 305.5547
194.2500, 308.3174
194.7322, 311.3417
195.2143, 315.2841
195.6964, 320.1844
196.1785, 326.0971
196.6606, 332.9731
197.1427, 340.6974
197.6249, 348.9516
198.1070, 357.4154
198.5891, 366.1620
199.0712, 375.9558
199.5533, 387.1831
200.0354, 399.2045
200.5176, 411.7901
200.9997, 424.8676
201.4818, 438.3031
201.9639, 451.8766
202.4460, 465.5735
202.9281, 479.9320
203.4103, 495.3686
203.8924, 511.0470
204.3745, 526.5875
204.8566, 542.1787
205.3387, 558.0424
205.8208, 574.4951
206.3030, 591.7607
206.7851, 608.1227
207.2672, 622.3479
207.7493, 636.9442
208.2314, 652.8073
208.7135, 669.8674
209.1957, 687.4867
209.6778, 705.0205
210.1599, 722.2579
210.6420, 741.0486
211.1241, 761.0191
211.6062, 782.4035
212.0884, 805.3624
212.5705, 829.8038
213.0526, 855.7236
213.5347, 883.3835
214.0168, 913.0135
214.4989, 942.7083
214.9811, 972.0183
215.4632, 1001.791
215.9453, 1032.549
216.4274, 1064.389
216.9095, 1096.956
217.3916, 1129.643
217.8737, 1162.834
218.3559, 1198.256
218.8380, 1237.775
219.3201, 1278.685
219.8022, 1319.320
220.2843, 1359.555
220.7664, 1398.910
221.2486, 1438.179
221.7307, 1476.492
222.2128, 1508.849
222.6949, 1537.173
223.1770, 1557.862
223.6591, 1566.601
224.1413, 1563.042
224.6234, 1549.694
225.1055, 1527.342
225.5876, 1496.230
226.0697, 1454.584
226.5518, 1399.833
227.0340, 1335.510
227.5161, 1264.873
227.9982, 1185.799
228.4803, 1107.691
228.9624, 1035.178
229.4445, 967.5471
229.9267, 903.7111
230.4088, 843.8662
230.8909, 787.8766
231.3730, 736.0345
231.8551, 688.3278
232.3372, 645.3813
232.8194, 607.3906
233.3015, 573.4128
233.7836, 542.5512
234.2657, 514.5549
234.7478, 489.2769
235.2299, 466.5546
235.7121, 446.7242
236.1942, 428.8466
236.6763, 412.7656
237.1584, 398.0523
237.6405, 384.1897
238.1227, 370.8866
238.6048, 358.3274
239.0869, 346.9515
239.5690, 336.5157
240.0511, 327.8718
240.5332, 322.1406
241.0154, 317.5312
241.4975, 312.2953
241.9796, 305.6771
242.4617, 298.3243
242.9438, 291.9541
243.4259, 287.1202
243.9081, 282.4532
244.3902, 277.4685
244.8723, 272.7186
245.3544, 268.7853
245.8365, 265.8697
246.3186, 263.6962
246.8008, 261.6294
247.2829, 259.8960
247.7650, 257.9355
248.2471, 255.3094
248.7292, 252.6682
249.2113, 250.6532
249.6935, 249.4716
250.1756, 248.8034
250.6577, 248.0422
251.1398, 247.3544
251.6219, 246.2840
252.1040, 244.3961
252.5862, 242.3819
253.0683, 240.9144
253.5504, 240.1777
254.0325, 239.7823
254.5146, 239.0876
254.9967, 237.7873
255.4789, 236.7655
255.9610, 236.3565
256.4431, 236.0390
256.9252, 235.3828
257.4073, 234.2812
257.8894, 232.8608
258.3716, 231.2633
258.8537, 229.3909
259.3358, 227.5931
259.8179, 226.0257
260.3000, 224.4350
260.7821, 222.4630
261.2643, 220.0757
261.7464, 217.7620
262.2285, 216.0394
262.7106, 215.0240
263.1927, 214.2616
263.6748, 213.8098
264.1570, 213.5695
264.6391, 213.4441
265.1212, 213.4252
265.6033, 213.6050
266.0854, 214.0834
266.5675, 214.8905
267.0497, 215.8270
267.5318, 216.7567
268.0139, 217.9011
268.4960, 219.4985
268.9781, 221.5435
269.4602, 223.7781
269.9424, 226.1143
270.4245, 228.4865
270.9066, 230.5657
271.3887, 231.8045
271.8708, 233.1655
272.3529, 235.5073
272.8351, 238.7731
273.3172, 242.1211
273.7993, 245.0556
274.2814, 247.7053
274.7635, 250.5398
275.2456, 253.6243
275.7278, 256.8157
276.2099, 259.8905
276.6920, 262.9029
277.1741, 266.3173
277.6562, 270.4006
278.1383, 275.0282
278.6205, 279.7437
279.1026, 284.5959
279.5847, 289.5267
280.0668, 294.6133
280.5489, 299.8180
281.0310, 304.7531
281.5132, 309.1164
281.9953, 313.3129
282.4774, 317.8204
282.9595, 322.6218
283.4416, 327.7813
283.9237, 333.4302
284.4059, 339.4841
284.8880, 345.7592
285.3701, 352.5150
285.8522, 358.9884
286.3343, 364.2875
286.8164, 368.4722
287.2986, 372.6202
287.7807, 377.4315
288.2628, 382.6822
288.7449, 387.5978
289.2270, 392.0659
289.7091, 396.2071
290.1913, 400.4576
290.6734, 404.6219
291.1555, 407.9629
291.6376, 409.7815
292.1197, 410.5467
292.6018, 411.3885
293.0840, 412.4258
293.5661, 413.3462
294.0482, 414.5001
294.5303, 415.3908
295.0124, 414.9576
295.4945, 412.7676
295.9767, 409.0196
296.4588, 403.7829
296.9409, 396.6805
297.4230, 389.3636
297.9051, 382.5727
298.3872, 376.0386
298.8694, 369.5379
299.3515, 363.2012
299.8336, 356.5268
300.3157, 348.6641
300.7978, 339.3860
301.2799, 329.9879
301.7621, 320.3441
302.2442, 311.1093
302.7263, 303.0710
303.2084, 296.5087
303.6905, 290.2609
304.1726, 282.7484
304.6548, 273.8906
305.1369, 266.1371
305.6190, 260.6292
306.1011, 256.0331
306.5832, 251.4633
307.0653, 246.8453
307.5475, 242.2256
308.0296, 237.6716
308.5117, 233.1806
308.9938, 228.5445
309.4759, 223.4423
309.9580, 218.5829
310.4402, 214.5229
310.9223, 211.1246
311.4044, 207.8372
311.8865, 204.1956
312.3686, 200.3690
312.8507, 197.0998
313.3329, 194.7006
313.8150, 192.3483
314.2971, 189.3840
314.7792, 186.1447
315.2613, 183.2615
315.7434, 181.1624
316.2256, 179.4872
316.7077, 177.4328
317.1898, 174.8479
317.6719, 172.2476
318.1540, 169.5586
318.6361, 167.0810
319.1183, 165.2654
319.6004, 164.3629
320.0825, 163.8056
320.5646, 162.8240
321.0467, 161.3555
321.5288, 159.8613
322.0110, 158.4819
322.4931, 157.1348
322.9752, 155.5941
323.4573, 153.8153
323.9394, 152.4511
324.4215, 152.4562
324.9037, 153.7925
325.3858, 154.4719
325.8679, 153.5949
326.3500, 152.5135
326.8321, 152.3863
327.3142, 153.0585
327.7964, 153.4524
328.2785, 152.2963
328.7606, 150.0909
329.2427, 149.5374
329.7248, 151.9619
330.2069, 153.9790
330.6891, 153.0352
331.1712, 150.2400
331.6533, 147.9090
332.1354, 147.2391
332.6175, 147.6057
333.0996, 147.7717
333.5818, 147.6679
334.0639, 147.5894
334.5460, 147.9019
335.0281, 148.2478
335.5102, 148.0810
335.9923, 147.0057
336.4745, 145.9705
336.9566, 146.3211
337.4387, 148.1571
337.9208, 149.6285
338.4029, 149.6510
338.8850, 149.3971
339.3671, 149.9994
339.8492, 151.5800
340.3314, 153.5613
340.8135, 155.7116
341.2956, 157.9811
341.7777, 159.8863
342.2598, 161.0919
342.7419, 162.2766
343.2241, 164.0920
343.7062, 166.4307
344.1883, 168.7331
344.6704, 170.7399
345.1525, 172.5266
345.6346, 174.1806
346.1168, 175.6093
346.5989, 177.2108
347.0810, 179.2485
347.5631, 181.6506
348.0452, 184.4107
348.5273, 187.6624
349.0095, 191.1487
349.4916, 194.6651
349.9737, 198.2021
350.4558, 201.5916
350.9379, 204.6489
351.4200, 207.5474
351.9022, 210.5750
352.3843, 213.7738
352.8664, 216.9873
353.3485, 219.8252
353.8306, 222.5077
354.3127, 225.9586
354.7949, 230.6061
355.2770, 235.8629
355.7591, 241.0556
356.2412, 246.1688
356.7233, 251.4070
357.2054, 257.1066
357.6876, 262.8931
358.1697, 268.1309
358.6518, 272.7008
359.1339, 277.0118
359.6160, 281.4404
360.0981, 285.9218
360.5803, 289.9593
361.0624, 294.1292
361.5445, 297.3400
362.0266, 298.3009
362.5087, 297.2211
362.9908, 295.8363
363.4730, 295.3446
363.9551, 295.0209
364.4372, 292.8026
364.9193, 288.4913
365.4014, 282.8918
365.8835, 275.5749
366.3657, 267.2981
366.8478, 259.6153
367.3299, 253.1362
367.8120, 247.1333
368.2941, 240.4006
368.7762, 232.7965
369.2584, 225.1912
369.7405, 217.0019
370.2226, 209.3001
370.7047, 203.4950
371.1868, 199.6223
371.6689, 196.1753
372.1511, 191.7154
372.6332, 186.1802
373.1153, 181.4863
373.5974, 177.8055
374.0795, 174.6570
374.5616, 171.8202
375.0438, 169.3188
375.5259, 167.2971
376.0080, 165.9077
376.4901, 164.9173
376.9722, 163.5034
377.4543, 161.3661
377.9365, 159.2059
378.4186, 156.7480
378.9007, 154.4538
379.3828, 152.9720
379.8649, 152.4429
380.3470, 152.3172
380.8292, 151.8427
381.3113, 150.9075
381.7934, 149.9119
382.2755, 148.4981
382.7576, 147.3351
383.2397, 146.9287
383.7219, 147.1546
384.2040, 147.5459
384.6861, 147.7589
385.1682, 147.7964
385.6503, 147.6803
386.1324, 147.2238
386.6146, 146.8167
387.0967, 146.5620
387.5788, 146.3851
388.0609, 146.1192
388.5430, 145.6978
389.0251, 145.3323
389.5073, 145.5413
389.9894, 146.8985
390.4715, 147.6048
390.9536, 146.8668
391.4357, 146.0781
391.9178, 146.3053
392.4000, 147.5113
392.8821, 148.7494
393.3642, 148.9743
393.8463, 148.1371
394.3284, 147.9603
394.8105, 149.0842
395.2927, 150.1582
395.7748, 150.6933
396.2569, 150.8744
396.7390, 151.0007
397.2211, 151.1729
397.7032, 151.4804
398.1854, 152.2169
398.6675, 153.6167
399.1496, 154.7421
399.6317, 155.0981
400.1138, 155.2267
400.5959, 155.4960
401.0781, 155.9710
401.5602, 156.5477
402.0423, 157.1544
402.5244, 157.7870
403.0065, 158.3735
403.4886, 158.7183
403.9708, 159.3059
404.4529, 160.6328
404.9350, 162.4593
405.4171, 164.1188
405.8992, 165.0456
406.3813, 165.7771
406.8635, 167.2156
407.3456, 169.4219
407.8277, 171.8122
408.3098, 174.2240
408.7919, 176.6164
409.2740, 178.8244
409.7562, 180.6316
410.2383, 182.8228
410.7204, 186.1384
411.2025, 190.2470
411.6846, 194.1519
412.1667, 197.5368
412.6489, 200.9007
413.1310, 204.7410
413.6131, 209.0351
414.0952, 214.0921
414.5773, 220.5070
415.0594, 227.3498
415.5416, 233.6801
416.0237, 239.5093
416.5058, 245.3949
416.9879, 251.5806
417.4700, 258.1656
417.9521, 265.6914
418.4343, 274.1690
418.9164, 283.3690
419.3985, 293.1092
419.8806, 303.5887
420.3627, 315.1968
420.8448, 328.0804
421.3270, 341.6301
421.8091, 354.9181
422.2912, 367.4514
422.7733, 381.1026
423.2554, 396.4286
423.7375, 412.2332
424.2197, 427.7666
424.7018, 443.0271
425.1839, 458.2653
425.6660, 473.6228
426.1481, 489.0882
426.6302, 505.1197
427.1124, 521.4649
427.5945, 538.6552
428.0766, 556.5786
428.5587, 575.3802
429.0408, 595.3146
429.5229, 616.4219
430.0051, 638.8607
430.4872, 663.2887
430.9693, 690.2892
431.4514, 716.3521
431.9335, 739.6284
432.4156, 763.7127
432.8978, 789.9528
433.3799, 818.2490
433.8620, 848.4749
434.3441, 880.8058
434.8262, 914.5652
435.3083, 947.6400
435.7905, 979.6417
436.2726, 1011.727
436.7547, 1045.332
437.2368, 1078.868
437.7189, 1110.671
438.2010, 1140.391
438.6832, 1169.191
439.1653, 1200.044
439.6474, 1231.511
440.1295, 1256.135
440.6116, 1272.533
441.0938, 1282.038
441.5759, 1285.352
442.0580, 1282.988
442.5401, 1274.740
443.0222, 1259.698
443.5043, 1239.328
443.9865, 1214.224
444.4686, 1184.703
444.9507, 1152.027
445.4328, 1115.470
445.9149, 1077.425
446.3970, 1043.574
446.8792, 1014.517
447.3613, 987.0177
447.8434, 960.2924
448.3255, 934.6104
448.8076, 910.5458
449.2897, 888.0270
449.7719, 866.2316
450.2540, 844.5924
450.7361, 823.0798
451.2182, 800.2225
451.7003, 776.9131
452.1824, 751.5632
452.6646, 723.4271
453.1467, 692.7775
453.6288, 659.8856
454.1109, 624.7740
454.5930, 588.6505
455.0751, 553.3943
455.5573, 517.9626
456.0394, 485.7087
456.5215, 456.8702
457.0036, 430.4453
457.4857, 405.8725
457.9678, 383.1191
458.4500, 362.0791
458.9321, 342.6777
459.4142, 324.9596
459.8963, 309.0443
460.3784, 295.5177
460.8605, 282.9159
461.3427, 270.4796
461.8248, 258.7133
462.3069, 248.0969
462.7890, 238.7500
463.2711, 230.3360
463.7532, 222.7059
464.2354, 215.7899
464.7175, 209.2572
465.1996, 203.1320
465.6817, 197.3100
466.1638, 191.5660
466.6459, 186.0247
467.1281, 181.0545
467.6102, 177.0139
468.0923, 173.4033
468.5744, 169.7038
469.0565, 165.9195
469.5386, 162.4067
470.0208, 159.3382
470.5029, 156.5655
470.9850, 153.8795
471.4671, 151.2694
471.9492, 148.7140
472.4313, 145.9983
472.9135, 143.4436
473.3956, 141.5711
473.8777, 140.3439
474.3598, 139.0007
474.8419, 136.8897
475.3240, 134.1393
475.8062, 132.0741
476.2883, 130.9262
476.7704, 130.0647
477.2525, 129.5477
477.7346, 129.1759
478.2167, 128.7608
478.6989, 128.2361
479.1810, 127.5937
479.6631, 126.7840
480.1452, 125.7504
480.6273, 124.8666
481.1094, 124.3182
481.5916, 123.7332
482.0737, 122.8926
482.5558, 121.9492
483.0379, 121.2069
483.5200, 120.8336
484.0021, 120.5965
484.4843, 119.8374
484.9664, 118.2251
485.4485, 117.6680
485.9306, 120.3635
486.4127, 122.6330
486.8948, 121.4958
487.3770, 117.4145
487.8591, 113.5243
488.3412, 111.7493
488.8233, 111.3213
489.3054, 110.8826
489.7875, 110.4341
490.2697, 109.8931
490.7518, 109.2688
491.2339, 108.4848
491.7160, 107.3342
492.1981, 105.5666
492.6802, 104.1842
493.1624, 104.1152
493.6445, 104.5165
494.1266, 104.0131
494.6087, 102.3872
495.0908, 100.5323
495.5729, 99.18348
496.0551, 98.34658
496.5372, 97.70402
497.0193, 97.47392
497.5014, 97.15568
497.9835, 96.41933
498.4656, 95.56200
498.9478, 95.09840
499.4299, 95.16985
499.9120, 95.32111
500.3941, 94.83780
500.8762, 93.45940
501.3583, 92.47127
501.8405, 92.26201
502.3226, 92.05074
502.8047, 91.50896
503.2868, 90.77229
503.7689, 90.09286
504.2510, 89.56792
504.7331, 89.25176
505.2152, 89.26490
505.6974, 89.63683
506.1795, 90.18673
506.6616, 91.32884
507.1437, 92.18556
507.6258, 91.91008
508.1079, 90.69280
508.5901, 89.62406
509.0722, 89.29975
509.5543, 89.39479
510.0364, 89.50117
510.5185, 89.61292
511.0006, 89.61069
511.4828, 89.33440
511.9649, 89.00636
512.4470, 89.11879
512.9291, 89.75356
513.4113, 90.44407
513.8934, 91.18698
514.3755, 91.85594
514.8576, 92.20003
515.3397, 92.26669
515.8218, 92.47520
516.3040, 93.17030
516.7861, 94.26674
517.2682, 95.13615
517.7503, 95.62320
518.2324, 96.06581
518.7145, 96.38062
519.1967, 96.73605
519.6788, 97.32140
520.1609, 98.14733
520.6430, 99.03300
521.1251, 99.72328
521.6072, 100.2422
522.0894, 101.3285
522.5715, 103.5291
523.0536, 105.4279
523.5357, 106.2164
524.0178, 106.6295
524.4999, 107.5219
524.9821, 109.1292
525.4642, 111.0279
525.9463, 112.8579
526.4284, 114.6499
526.9105, 116.6759
527.3926, 119.0824
527.8748, 121.3519
528.3569, 122.9254
528.8390, 124.0183
529.3211, 125.4029
529.8032, 127.2708
530.2853, 129.3060
530.7675, 131.3093
531.2496, 133.3568
531.7317, 135.6011
532.2138, 138.0971
532.6959, 140.7596
533.1780, 143.4484
533.6602, 146.1106
534.1423, 149.1842
534.6244, 152.9858
535.1065, 156.8046
535.5886, 160.3155
536.0707, 163.6753
536.5529, 167.1184
537.0350, 170.7188
537.5171, 174.4904
537.9992, 178.3634
538.4813, 182.2785
538.9634, 186.5748
539.4456, 191.4551
539.9277, 196.5145
540.4098, 201.6333
540.8919, 206.7444
541.3740, 211.6347
541.8561, 215.9662
542.3383, 220.5774
542.8204, 226.9820
543.3025, 234.9092
543.7846, 241.5085
544.2667, 245.4869
544.7488, 249.0993
545.2310, 255.1992
545.7131, 263.4699
546.1952, 271.2052
546.6773, 277.4338
547.1594, 283.4840
547.6415, 290.2823
548.1237, 297.5947
548.6058, 304.9017
549.0879, 311.9595
549.5700, 318.8924
550.0521, 325.8466
550.5342, 332.5933
551.0164, 340.0223
551.4985, 348.8162
551.9806, 357.4315
552.4627, 365.4600
552.9448, 372.8149
553.4269, 379.3725
553.9091, 385.0248
554.3912, 390.3586
554.8733, 396.4288
555.3554, 403.3711
555.8375, 410.3353
556.3196, 417.8052
556.8018, 424.5411
557.2839, 429.6041
557.7660, 433.4087
558.2481, 437.0564
558.7302, 440.9126
559.2123, 444.7849
559.6945, 448.9768
560.1766, 453.1499
560.6587, 455.6029
561.1408, 455.6547
561.6229, 454.3756
562.1050, 453.0392
562.5872, 451.6989
563.0693, 449.6959
563.5514, 447.2567
564.0335, 443.9234
564.5156, 439.2687
564.9977, 433.6124
565.4799, 427.3656
565.9620, 420.7246
566.4441, 413.9166
566.9262, 407.4781
567.4083, 401.8545
567.8904, 394.7749
568.3726, 384.9207
568.8547, 374.9008
569.3368, 365.5914
569.8189, 356.6973
570.3010, 347.7195
570.7831, 338.3594
571.2653, 328.9981
571.7474, 319.9430
572.2295, 311.2216
572.7116, 302.8256
573.1937, 294.9400
573.6758, 287.0209
574.1580, 278.4907
574.6401, 269.5349
575.1222, 260.8437
575.6043, 252.1670
576.0864, 244.1284
576.5685, 237.3534
577.0507, 231.3994
577.5328, 225.6008
578.0149, 219.7768
578.4970, 213.9666
578.9791, 208.1877
579.4612, 202.4306
579.9434, 196.9573
580.4255, 191.7919
580.9076, 186.9004
581.3897, 182.1813
581.8718, 177.7388
582.3539, 173.7747
582.8361, 170.2830
583.3182, 166.9805
583.8003, 163.5461
584.2824, 160.0128
584.7645, 156.6418
585.2466, 153.3448
585.7288, 150.4400
586.2108, 148.4998
586.6929, 146.8466
587.1750, 144.4384
587.6572, 140.9871
588.1393, 137.7265
588.6214, 135.2109
