##NAMES=Natrolite
##RRUFFID=R040102
##IDEAL CHEMISTRY=Na_2_(Si_3_Al_2_)O_10_&#183;2H_2_O
##LOCALITY=Ross' Quarry, Northland, New Zealand
##OWNER=RRUFF
##SOURCE=University of Arizona Mineral Museum
##DESCRIPTION=Mass of colorless acicular crystals
##STATUS=The identification of this mineral has been confirmed by X-ray diffraction and chemical analysis
##URL=rruff.info/R040102
##MEASURED CHEMISTRY=(Na_0.92_Ca_0.02_)_2_(Si_3.03_Al_1.99_)O_10_Â·2H_2_O
128.7965, 2054.770
129.2787, 2046.359
129.7608, 2047.093
130.2429, 2051.030
130.7250, 2058.333
131.2071, 2073.812
131.6892, 2101.499
132.1714, 2139.754
132.6535, 2180.060
133.1356, 2222.019
133.6177, 2264.842
134.0998, 2308.614
134.5819, 2353.789
135.0640, 2392.793
135.5462, 2414.206
136.0283, 2416.043
136.5104, 2431.502
136.9925, 2471.690
137.4746, 2531.456
137.9567, 2571.219
138.4389, 2587.782
138.9210, 2594.475
139.4031, 2605.877
139.8852, 2624.988
140.3673, 2639.913
140.8494, 2649.005
141.3316, 2653.416
141.8137, 2647.569
142.2958, 2631.160
142.7779, 2606.108
143.2600, 2575.480
143.7421, 2543.022
144.2243, 2500.487
144.7064, 2443.375
145.1885, 2356.327
145.6706, 2283.464
146.1527, 2226.966
146.6348, 2184.582
147.1170, 2146.450
147.5991, 2104.233
148.0812, 2073.086
148.5633, 2061.888
149.0454, 2080.705
149.5275, 2106.434
150.0097, 2137.597
150.4918, 2174.064
150.9739, 2214.275
151.4560, 2252.784
151.9381, 2296.969
152.4202, 2353.302
152.9024, 2424.885
153.3845, 2504.906
153.8666, 2597.165
154.3487, 2705.227
154.8308, 2802.764
155.3129, 2876.770
155.7950, 2940.652
156.2772, 3011.518
156.7593, 3103.350
157.2414, 3194.476
157.7235, 3277.717
158.2056, 3353.297
158.6877, 3416.584
159.1699, 3467.158
159.6520, 3504.512
160.1341, 3527.082
160.6162, 3542.738
161.0983, 3539.038
161.5804, 3507.377
162.0626, 3436.694
162.5447, 3349.949
163.0268, 3251.212
163.5089, 3142.071
163.9910, 3031.226
164.4731, 2918.512
164.9553, 2807.518
165.4374, 2701.703
165.9195, 2600.526
166.4016, 2506.021
166.8837, 2417.396
167.3658, 2334.549
167.8480, 2260.499
168.3301, 2198.431
168.8122, 2146.036
169.2943, 2099.878
169.7764, 2058.937
170.2585, 2023.173
170.7407, 1993.112
171.2228, 1968.988
171.7049, 1948.004
172.1870, 1930.104
172.6691, 1913.814
173.1512, 1895.828
173.6334, 1873.786
174.1155, 1848.985
174.5976, 1821.594
175.0797, 1789.000
175.5618, 1760.592
176.0439, 1749.703
176.5260, 1753.344
177.0082, 1757.706
177.4903, 1752.054
177.9724, 1740.924
178.4545, 1733.309
178.9366, 1731.260
179.4187, 1733.208
179.9009, 1738.108
180.3830, 1745.863
180.8651, 1753.734
181.3472, 1761.204
181.8293, 1767.441
182.3114, 1769.707
182.7936, 1767.365
183.2757, 1760.517
183.7578, 1747.975
184.2399, 1729.505
184.7220, 1709.065
185.2041, 1688.636
185.6863, 1668.797
186.1684, 1654.377
186.6505, 1654.554
187.1326, 1662.520
187.6147, 1650.696
188.0968, 1615.836
188.5790, 1573.337
189.0611, 1540.609
189.5432, 1517.716
190.0253, 1502.399
190.5074, 1496.640
190.9895, 1499.013
191.4717, 1497.809
191.9538, 1491.042
192.4359, 1483.625
192.9180, 1484.628
193.4001, 1494.438
193.8822, 1507.237
194.3644, 1518.984
194.8465, 1529.888
195.3286, 1545.754
195.8107, 1568.520
196.2928, 1595.299
196.7749, 1619.848
197.2570, 1642.446
197.7392, 1660.927
198.2213, 1670.410
198.7034, 1669.930
199.1855, 1676.292
199.6676, 1693.414
200.1497, 1718.853
200.6319, 1743.185
201.1140, 1766.217
201.5961, 1788.402
202.0782, 1811.148
202.5603, 1835.452
203.0424, 1854.009
203.5246, 1865.461
204.0067, 1869.878
204.4888, 1865.474
204.9709, 1849.626
205.4530, 1830.347
205.9352, 1818.651
206.4173, 1818.431
206.8994, 1809.614
207.3815, 1783.952
207.8636, 1740.891
208.3457, 1705.198
208.8279, 1678.009
209.3100, 1656.615
209.7921, 1637.591
210.2742, 1621.091
210.7563, 1606.408
211.2384, 1593.487
211.7206, 1582.072
212.2027, 1573.424
212.6848, 1568.609
213.1669, 1565.579
213.6490, 1560.135
214.1311, 1550.359
214.6133, 1542.516
215.0954, 1540.477
215.5775, 1547.688
216.0596, 1548.296
216.5417, 1539.954
217.0238, 1526.194
217.5059, 1515.696
217.9881, 1511.002
218.4702, 1504.858
218.9523, 1493.150
219.4344, 1473.545
219.9165, 1455.313
220.3986, 1439.407
220.8808, 1425.032
221.3629, 1407.946
221.8450, 1384.083
222.3271, 1363.788
222.8092, 1354.488
223.2913, 1364.213
223.7735, 1365.667
224.2556, 1354.597
224.7377, 1333.037
225.2198, 1312.552
225.7019, 1290.859
226.1840, 1272.898
226.6662, 1262.457
227.1483, 1263.203
227.6304, 1263.847
228.1125, 1263.001
228.5946, 1260.823
229.0767, 1258.578
229.5589, 1253.424
230.0410, 1251.486
230.5231, 1259.079
231.0052, 1284.509
231.4873, 1302.949
231.9694, 1307.842
232.4516, 1299.226
232.9337, 1300.386
233.4158, 1316.912
233.8979, 1337.606
234.3800, 1351.554
234.8621, 1355.636
235.3443, 1358.689
235.8264, 1361.383
236.3085, 1363.425
236.7906, 1370.105
237.2727, 1384.446
237.7548, 1400.671
238.2369, 1413.075
238.7191, 1421.903
239.2012, 1426.311
239.6833, 1426.278
240.1654, 1421.954
240.6475, 1411.965
241.1296, 1395.557
241.6118, 1374.043
242.0939, 1348.106
242.5760, 1312.969
243.0581, 1281.561
243.5402, 1257.255
244.0223, 1240.863
244.5045, 1228.499
244.9866, 1221.651
245.4687, 1217.820
245.9508, 1213.734
246.4329, 1210.519
246.9150, 1205.088
247.3972, 1195.267
247.8793, 1178.788
248.3614, 1168.147
248.8435, 1165.146
249.3256, 1166.914
249.8077, 1168.807
250.2899, 1171.052
250.7720, 1173.025
251.2541, 1174.455
251.7362, 1175.148
252.2183, 1175.607
252.7004, 1174.515
253.1826, 1173.897
253.6647, 1178.257
254.1468, 1191.074
254.6289, 1202.750
255.1110, 1209.830
255.5931, 1211.445
256.0753, 1210.520
256.5574, 1204.386
257.0395, 1197.148
257.5216, 1198.241
258.0037, 1211.401
258.4858, 1225.775
258.9680, 1236.854
259.4501, 1243.810
259.9322, 1250.096
260.4143, 1254.521
260.8964, 1258.993
261.3785, 1268.830
261.8607, 1288.168
262.3428, 1304.490
262.8249, 1310.862
263.3070, 1302.633
263.7891, 1300.953
264.2712, 1308.248
264.7534, 1320.944
265.2355, 1330.358
265.7176, 1335.493
266.1997, 1339.959
266.6818, 1345.512
267.1639, 1352.386
267.6461, 1359.691
268.1282, 1368.678
268.6103, 1377.162
269.0924, 1378.257
269.5745, 1368.343
270.0566, 1360.931
270.5387, 1365.082
271.0208, 1384.327
271.5030, 1395.537
271.9851, 1395.724
272.4672, 1388.931
272.9493, 1384.959
273.4314, 1384.661
273.9135, 1384.130
274.3957, 1380.478
274.8778, 1373.002
275.3599, 1369.540
275.8420, 1373.228
276.3241, 1378.587
276.8062, 1370.701
277.2884, 1346.875
277.7705, 1322.853
278.2526, 1307.905
278.7347, 1302.459
279.2168, 1296.607
279.6989, 1288.503
280.1811, 1280.979
280.6632, 1281.646
281.1453, 1291.681
281.6274, 1300.920
282.1095, 1302.017
282.5916, 1295.187
283.0738, 1292.791
283.5559, 1297.911
284.0380, 1304.540
284.5201, 1296.624
285.0022, 1273.099
285.4843, 1255.012
285.9665, 1257.490
286.4486, 1278.407
286.9307, 1298.775
287.4128, 1318.077
287.8949, 1334.075
288.3770, 1340.160
288.8592, 1336.668
289.3413, 1333.565
289.8234, 1339.806
290.3055, 1352.507
290.7876, 1355.796
291.2697, 1346.081
291.7519, 1332.383
292.2340, 1328.743
292.7161, 1334.575
293.1982, 1343.138
293.6803, 1350.066
294.1624, 1356.737
294.6446, 1367.393
295.1267, 1382.787
295.6088, 1400.973
296.0909, 1422.118
296.5730, 1444.725
297.0551, 1463.132
297.5373, 1469.409
298.0194, 1469.708
298.5015, 1477.093
298.9836, 1493.601
299.4657, 1513.455
299.9478, 1531.576
300.4300, 1547.687
300.9121, 1560.317
301.3942, 1563.669
301.8763, 1564.576
302.3584, 1575.333
302.8405, 1599.069
303.3227, 1622.044
303.8048, 1631.099
304.2869, 1629.217
304.7690, 1624.179
305.2511, 1622.383
305.7332, 1618.201
306.2154, 1604.522
306.6975, 1580.195
307.1796, 1551.687
307.6617, 1522.305
308.1438, 1492.874
308.6259, 1463.867
309.1081, 1434.662
309.5901, 1406.971
310.0723, 1381.882
310.5544, 1359.660
311.0365, 1339.568
311.5186, 1318.752
312.0007, 1299.994
312.4828, 1287.512
312.9650, 1286.139
313.4471, 1288.908
313.9292, 1292.675
314.4113, 1297.344
314.8934, 1301.271
315.3755, 1304.304
315.8577, 1305.999
316.3398, 1305.762
316.8219, 1299.915
317.3040, 1295.186
317.7861, 1293.979
318.2682, 1296.400
318.7504, 1302.141
319.2325, 1313.597
319.7146, 1327.339
320.1967, 1340.028
320.6788, 1350.551
321.1609, 1360.341
321.6431, 1369.367
322.1252, 1377.674
322.6073, 1386.568
323.0894, 1395.822
323.5715, 1406.002
324.0536, 1417.575
324.5358, 1432.659
325.0179, 1446.719
325.5000, 1459.242
325.9821, 1470.108
326.4642, 1479.533
326.9464, 1486.861
327.4285, 1493.162
327.9106, 1499.003
328.3927, 1499.894
328.8748, 1506.175
329.3569, 1523.112
329.8391, 1547.367
330.3212, 1561.710
330.8033, 1562.236
331.2854, 1556.923
331.7675, 1549.813
332.2496, 1541.470
332.7318, 1530.175
333.2139, 1514.805
333.6960, 1496.671
334.1781, 1478.859
334.6602, 1460.196
335.1423, 1443.786
335.6245, 1430.772
336.1066, 1421.034
336.5887, 1415.147
337.0708, 1413.797
337.5529, 1415.586
338.0350, 1418.564
338.5172, 1424.083
338.9993, 1426.386
339.4814, 1420.520
339.9635, 1404.905
340.4456, 1397.906
340.9277, 1400.819
341.4099, 1409.886
341.8920, 1421.048
342.3741, 1434.581
342.8562, 1445.696
343.3383, 1452.134
343.8204, 1454.207
344.3026, 1452.915
344.7847, 1447.057
345.2668, 1442.980
345.7489, 1451.559
346.2310, 1471.173
346.7131, 1486.297
347.1953, 1489.001
347.6774, 1484.004
348.1595, 1483.859
348.6416, 1488.729
349.1237, 1494.730
349.6058, 1496.781
350.0880, 1496.872
350.5700, 1500.930
351.0522, 1513.526
351.5343, 1528.781
352.0164, 1538.194
352.4985, 1542.170
352.9806, 1544.558
353.4627, 1546.664
353.9449, 1549.358
354.4270, 1554.339
354.9091, 1563.763
355.3912, 1572.940
355.8733, 1577.177
356.3554, 1577.264
356.8376, 1576.578
357.3197, 1575.648
357.8018, 1575.432
358.2839, 1578.244
358.7660, 1588.715
359.2481, 1592.777
359.7303, 1576.692
360.2124, 1548.668
360.6945, 1526.035
361.1766, 1524.022
361.6587, 1523.613
362.1408, 1514.005
362.6230, 1492.057
363.1051, 1467.313
363.5872, 1440.053
364.0693, 1412.165
364.5514, 1386.757
365.0335, 1359.057
365.5157, 1338.656
365.9978, 1330.895
366.4799, 1338.790
366.9620, 1343.971
367.4441, 1341.760
367.9262, 1337.185
368.4084, 1335.336
368.8905, 1342.859
369.3726, 1345.119
369.8547, 1338.002
370.3368, 1321.535
370.8189, 1307.823
371.3011, 1297.464
371.7832, 1289.269
372.2653, 1282.572
372.7474, 1278.701
373.2295, 1273.379
373.7116, 1264.872
374.1938, 1254.642
374.6759, 1250.113
375.1580, 1253.770
375.6401, 1257.744
376.1222, 1256.226
376.6043, 1247.904
377.0865, 1244.327
377.5686, 1248.023
378.0507, 1254.816
378.5328, 1255.592
379.0149, 1249.942
379.4970, 1242.703
379.9792, 1234.539
380.4613, 1225.963
380.9434, 1223.508
381.4255, 1228.206
381.9076, 1235.367
382.3897, 1238.730
382.8719, 1238.906
383.3540, 1239.505
383.8361, 1241.748
384.3182, 1245.492
384.8003, 1251.776
385.2824, 1260.689
385.7646, 1267.617
386.2467, 1266.868
386.7288, 1261.359
387.2109, 1256.829
387.6930, 1254.388
388.1751, 1254.411
388.6573, 1258.511
389.1394, 1266.039
389.6215, 1273.013
390.1036, 1277.910
390.5857, 1280.641
391.0678, 1280.873
391.5499, 1277.305
392.0320, 1273.435
392.5142, 1270.751
392.9963, 1269.154
393.4784, 1268.415
393.9605, 1266.705
394.4426, 1267.177
394.9247, 1273.058
395.4069, 1288.208
395.8890, 1297.744
396.3711, 1291.062
396.8532, 1278.707
397.3353, 1275.214
397.8174, 1292.236
398.2996, 1308.615
398.7817, 1319.598
399.2638, 1324.846
399.7459, 1326.191
400.2280, 1315.436
400.7101, 1306.586
401.1923, 1312.367
401.6744, 1343.363
402.1565, 1369.458
402.6386, 1386.116
403.1207, 1394.525
403.6028, 1401.260
404.0850, 1404.948
404.5671, 1409.728
405.0492, 1418.505
405.5313, 1431.842
406.0134, 1446.017
406.4955, 1461.006
406.9777, 1476.209
407.4598, 1490.467
407.9419, 1503.859
408.4240, 1515.968
408.9061, 1526.040
409.3882, 1534.488
409.8704, 1543.962
410.3525, 1554.972
410.8346, 1564.745
411.3167, 1568.558
411.7988, 1567.963
412.2809, 1569.390
412.7631, 1578.165
413.2452, 1588.645
413.7273, 1591.847
414.2094, 1588.129
414.6915, 1581.771
415.1736, 1573.054
415.6558, 1564.546
416.1379, 1560.588
416.6200, 1565.358
417.1021, 1569.909
417.5842, 1565.285
418.0663, 1554.953
418.5485, 1549.295
419.0306, 1558.965
419.5127, 1570.744
419.9948, 1574.583
420.4769, 1564.531
420.9590, 1560.609
421.4412, 1572.223
421.9233, 1592.419
422.4054, 1611.706
422.8875, 1625.091
423.3696, 1640.325
423.8517, 1660.061
424.3339, 1684.657
424.8160, 1708.882
425.2981, 1730.228
425.7802, 1752.724
426.2623, 1779.122
426.7444, 1806.083
427.2266, 1843.230
427.7087, 1896.586
428.1908, 1960.781
428.6729, 2014.623
429.1550, 2051.336
429.6371, 2093.526
430.1193, 2156.063
430.6014, 2241.938
431.0835, 2321.870
431.5656, 2394.312
432.0477, 2461.755
432.5298, 2525.568
433.0119, 2585.778
433.4940, 2650.660
433.9762, 2721.065
434.4583, 2798.816
434.9404, 2894.713
435.4225, 3009.679
435.9046, 3124.488
436.3867, 3218.549
436.8689, 3298.189
437.3510, 3377.536
437.8331, 3465.590
438.3152, 3547.818
438.7973, 3607.625
439.2794, 3647.890
439.7616, 3680.024
440.2437, 3721.909
440.7258, 3751.724
441.2079, 3751.565
441.6900, 3718.283
442.1721, 3656.621
442.6543, 3554.687
443.1364, 3428.852
443.6185, 3302.703
444.1006, 3185.903
444.5827, 3069.058
445.0648, 2944.215
445.5470, 2810.054
446.0291, 2689.956
446.5112, 2594.414
446.9933, 2509.212
447.4754, 2422.618
447.9576, 2327.382
448.4397, 2243.305
448.9218, 2176.928
449.4039, 2122.561
449.8860, 2060.075
450.3681, 1980.635
450.8503, 1912.073
451.3324, 1872.144
451.8145, 1867.019
452.2966, 1846.232
452.7787, 1806.027
453.2608, 1757.677
453.7430, 1712.969
454.2251, 1672.300
454.7072, 1638.916
455.1893, 1614.601
455.6714, 1598.107
456.1535, 1587.422
456.6357, 1582.492
457.1178, 1578.266
457.5999, 1570.649
458.0820, 1560.910
458.5641, 1551.712
459.0462, 1543.452
459.5284, 1535.818
460.0105, 1527.398
460.4926, 1519.224
460.9747, 1514.152
461.4568, 1515.659
461.9389, 1519.139
462.4211, 1522.218
462.9032, 1524.877
463.3853, 1524.568
463.8674, 1516.040
464.3495, 1505.906
464.8316, 1500.463
465.3138, 1504.973
465.7959, 1509.955
466.2780, 1512.863
466.7601, 1514.392
467.2422, 1518.886
467.7243, 1532.990
468.2065, 1543.621
468.6886, 1543.526
469.1707, 1524.172
469.6528, 1519.938
470.1349, 1539.916
470.6170, 1566.806
471.0992, 1571.111
471.5813, 1545.379
472.0634, 1528.794
472.5455, 1535.917
473.0276, 1561.185
473.5097, 1575.192
473.9918, 1577.024
474.4739, 1575.597
474.9561, 1577.935
475.4382, 1583.298
475.9203, 1588.783
476.4024, 1594.430
476.8845, 1598.848
477.3666, 1596.137
477.8488, 1589.738
478.3309, 1590.920
478.8130, 1614.712
479.2951, 1643.626
479.7772, 1658.890
480.2593, 1659.489
480.7415, 1659.449
481.2236, 1666.682
481.7057, 1677.292
482.1878, 1687.438
482.6699, 1697.051
483.1520, 1704.950
483.6342, 1711.601
484.1163, 1716.433
484.5984, 1717.423
485.0805, 1710.008
485.5626, 1702.454
486.0447, 1697.920
486.5269, 1697.490
487.0090, 1696.425
487.4911, 1693.841
487.9732, 1691.431
488.4553, 1691.286
488.9374, 1694.107
489.4196, 1697.226
489.9017, 1700.906
490.3838, 1704.339
490.8659, 1702.661
491.3480, 1694.871
491.8301, 1689.227
492.3123, 1692.754
492.7944, 1703.556
493.2765, 1712.962
493.7586, 1720.508
494.2407, 1725.186
494.7228, 1723.928
495.2050, 1718.547
495.6871, 1713.961
496.1692, 1712.047
496.6513, 1711.952
497.1334, 1712.012
497.6155, 1712.634
498.0977, 1716.830
498.5798, 1729.483
499.0619, 1744.668
499.5440, 1757.224
500.0261, 1765.238
500.5082, 1772.896
500.9904, 1780.037
501.4725, 1787.729
501.9546, 1797.861
502.4367, 1811.767
502.9188, 1826.924
503.4009, 1842.306
503.8831, 1857.816
504.3652, 1876.451
504.8473, 1899.742
505.3294, 1923.917
505.8115, 1945.879
506.2936, 1964.923
506.7758, 1985.290
507.2579, 2008.811
507.7400, 2031.713
508.2221, 2044.307
508.7042, 2046.507
509.1863, 2052.155
509.6685, 2069.177
510.1506, 2093.836
510.6327, 2115.117
511.1148, 2133.105
511.5969, 2153.031
512.0790, 2182.525
512.5612, 2216.126
513.0433, 2243.518
513.5254, 2257.269
514.0075, 2275.130
514.4896, 2310.496
514.9717, 2359.423
515.4539, 2414.203
515.9360, 2478.270
516.4181, 2541.733
516.9002, 2597.095
517.3823, 2642.090
517.8644, 2696.716
518.3466, 2766.138
518.8287, 2845.425
519.3108, 2930.757
519.7929, 3031.483
520.2750, 3122.109
520.7571, 3192.352
521.2393, 3255.591
521.7214, 3346.531
522.2035, 3472.987
522.6856, 3603.007
523.1677, 3723.068
523.6498, 3834.382
524.1320, 3952.784
524.6141, 4079.052
525.0962, 4210.432
525.5783, 4347.284
526.0604, 4488.683
526.5425, 4633.236
527.0247, 4779.325
527.5068, 4924.217
527.9889, 5063.947
528.4710, 5198.254
528.9531, 5330.634
529.4352, 5470.157
529.9174, 5601.041
530.3995, 5718.691
530.8816, 5820.345
531.3637, 5888.853
531.8458, 5926.502
532.3279, 5921.897
532.8101, 5865.987
533.2922, 5746.146
533.7743, 5590.317
534.2564, 5388.351
534.7385, 5155.252
535.2206, 4904.827
535.7027, 4622.374
536.1848, 4351.928
536.6669, 4102.307
537.1490, 3875.078
537.6312, 3661.152
538.1133, 3461.965
538.5954, 3275.366
539.0775, 3098.261
539.5596, 2931.361
540.0417, 2782.393
540.5239, 2651.492
541.0060, 2536.567
541.4881, 2436.054
541.9702, 2348.818
542.4523, 2271.249
542.9344, 2203.064
543.4166, 2142.936
543.8987, 2091.660
544.3808, 2048.069
544.8629, 2007.054
545.3450, 1967.726
545.8271, 1928.658
546.3093, 1887.237
546.7914, 1838.715
547.2735, 1799.935
547.7556, 1781.989
548.2377, 1773.642
548.7198, 1759.250
549.2020, 1731.289
549.6841, 1707.490
550.1662, 1691.271
550.6483, 1681.714
551.1304, 1674.016
551.6125, 1670.109
552.0947, 1662.481
552.5768, 1644.662
553.0589, 1616.967
553.5410, 1593.244
554.0231, 1573.534
554.5052, 1558.935
554.9874, 1552.498
555.4695, 1552.562
555.9516, 1554.413
556.4337, 1558.589
556.9158, 1561.303
557.3979, 1557.681
557.8801, 1549.035
558.3622, 1539.655
558.8443, 1529.437
559.3264, 1520.874
559.8085, 1517.180
560.2906, 1519.369
560.7728, 1518.201
561.2549, 1506.156
561.7370, 1492.737
562.2191, 1485.877
562.7012, 1492.572
563.1833, 1495.602
563.6655, 1493.797
564.1476, 1488.260
564.6297, 1480.583
565.1118, 1469.685
565.5939, 1460.442
566.0760, 1455.438
566.5582, 1453.656
567.0403, 1447.392
567.5224, 1436.237
568.0045, 1426.439
568.4866, 1424.564
568.9688, 1427.906
569.4509, 1429.517
569.9330, 1428.099
570.4151, 1426.286
570.8972, 1424.998
571.3793, 1425.255
571.8615, 1428.802
572.3436, 1440.115
572.8257, 1451.304
573.3078, 1459.545
573.7899, 1464.755
574.2720, 1466.265
574.7542, 1458.635
575.2363, 1451.937
575.7184, 1451.747
576.2005, 1461.098
576.6826, 1464.020
577.1647, 1457.281
577.6469, 1447.857
578.1290, 1443.134
578.6111, 1444.169
579.0932, 1442.890
579.5753, 1436.649
580.0574, 1429.729
580.5396, 1433.159
581.0217, 1445.871
581.5038, 1455.520
581.9859, 1454.007
582.4680, 1446.487
582.9501, 1440.186
583.4323, 1435.115
583.9144, 1431.839
584.3965, 1433.134
584.8786, 1435.042
585.3607, 1432.380
585.8428, 1420.373
586.3250, 1415.092
586.8071, 1428.518
587.2892, 1449.427
587.7713, 1463.402
588.2534, 1462.913
588.7355, 1462.598
589.2177, 1464.555
589.6998, 1468.070
590.1819, 1470.183
590.6640, 1470.575
591.1461, 1470.503
591.6282, 1471.016
592.1104, 1471.932
592.5925, 1469.529
593.0746, 1463.335
593.5567, 1456.893
594.0388, 1452.975
594.5209, 1451.471
595.0031, 1452.437
595.4852, 1456.225
595.9673, 1461.409
596.4494, 1470.205
596.9315, 1479.132
597.4136, 1481.440
597.8958, 1465.717
598.3779, 1451.261
598.8600, 1448.265
599.3421, 1455.402
599.8242, 1459.986
600.3063, 1461.854
600.7885, 1458.948
601.2706, 1447.463
601.7527, 1421.547
602.2348, 1416.053
602.7169, 1440.824
603.1990, 1470.021
603.6812, 1474.701
604.1633, 1453.795
604.6454, 1435.147
605.1275, 1422.331
605.6096, 1415.913
606.0917, 1421.376
606.5739, 1435.418
607.0560, 1444.547
607.5381, 1438.517
608.0202, 1426.704
608.5023, 1416.386
608.9844, 1408.126
609.4666, 1405.060
609.9487, 1414.920
610.4308, 1426.023
610.9129, 1430.354
611.3950, 1424.831
611.8771, 1419.939
612.3593, 1417.152
612.8414, 1415.476
613.3235, 1414.153
613.8056, 1413.355
614.2877, 1412.755
614.7698, 1413.118
615.2520, 1412.938
615.7341, 1407.365
616.2162, 1396.038
616.6983, 1387.224
617.1804, 1385.402
617.6625, 1387.877
618.1446, 1388.976
618.6267, 1388.725
619.1088, 1387.628
619.5909, 1384.243
620.0731, 1381.127
620.5552, 1380.918
621.0373, 1384.002
621.5194, 1389.664
622.0015, 1401.681
622.4836, 1414.238
622.9658, 1421.819
623.4479, 1421.981
623.9300, 1418.927
