##NAMES=Natrojarosite
##RRUFFID=R050289
##IDEAL CHEMISTRY=NaFe^3+^_3_(S^6+^O_4_)_2_(OH)_6_
##LOCALITY=Bristol mine, Pioche, Lincoln County, Nevada, USA
##OWNER=RRUFF
##SOURCE=Marcus Origlieri
##DESCRIPTION=Mustard-colored massive
##STATUS=The identification of this mineral has been confirmed by X-ray diffraction and chemical analysis
##URL=rruff.info/R050289
##MEASURED CHEMISTRY=(Na_0.99_K_0.01_)_Î£=1_Fe^3+^_3.00_(S_1.00_O_4_)_2_(OH)_6_
92.35352, 2.660836
92.83563, 2.419851
93.31775, 2.317234
93.79987, 2.422783
94.28198, 2.675972
94.76410, 2.903978
95.24622, 3.068315
95.72833, 3.193745
96.21045, 3.332633
96.69257, 3.487640
97.17468, 3.625876
97.65680, 3.680879
98.13892, 3.655856
98.62103, 3.712277
99.10315, 3.894269
99.58527, 4.192473
100.0674, 4.563427
100.5495, 5.033722
101.0316, 5.511183
101.5137, 5.860041
101.9958, 6.044263
102.4780, 6.232394
102.9601, 6.448186
103.4422, 6.670593
103.9243, 7.075232
104.4064, 7.749244
104.8885, 8.551984
105.3707, 9.239551
105.8528, 9.728958
106.3349, 10.21181
106.8170, 10.77646
107.2991, 11.59455
107.7813, 12.16083
108.2634, 12.27810
108.7455, 12.11668
109.2276, 12.24209
109.7097, 12.89140
110.1918, 13.65913
110.6740, 14.37862
111.1561, 15.03447
111.6382, 15.65466
112.1203, 16.14916
112.6024, 16.56727
113.0845, 17.18212
113.5667, 18.14238
114.0488, 19.25149
114.5309, 20.38872
115.0130, 21.50688
115.4951, 22.65979
115.9772, 23.87294
116.4594, 25.15594
116.9415, 26.46231
117.4236, 27.84558
117.9057, 29.22215
118.3878, 30.49710
118.8699, 31.64211
119.3521, 32.68609
119.8342, 33.58807
120.3163, 34.32190
120.7984, 35.17912
121.2805, 36.48647
121.7626, 38.02832
122.2448, 39.43592
122.7269, 40.52634
123.2090, 41.40390
123.6911, 42.10753
124.1732, 42.58957
124.6553, 43.11439
125.1375, 43.92486
125.6196, 44.98065
126.1017, 46.15409
126.5838, 47.53588
127.0659, 48.96032
127.5480, 50.07417
128.0302, 50.71888
128.5123, 51.28442
128.9944, 52.23666
129.4765, 53.57078
129.9586, 55.24134
130.4407, 57.34769
130.9229, 59.80242
131.4050, 62.23837
131.8871, 64.44486
132.3692, 66.65435
132.8513, 69.26984
133.3334, 72.16589
133.8156, 75.24654
134.2977, 78.88124
134.7798, 83.29288
135.2619, 87.50623
135.7440, 91.53495
136.2261, 95.18289
136.7083, 97.96622
137.1904, 100.0882
137.6725, 100.8871
138.1546, 99.60844
138.6367, 96.11594
139.1188, 91.42228
139.6010, 85.35476
140.0831, 77.93217
140.5652, 71.38585
141.0473, 65.66529
141.5294, 60.72772
142.0115, 56.63194
142.4937, 53.45028
142.9758, 50.80345
143.4579, 48.58860
143.9400, 46.85637
144.4221, 45.33067
144.9042, 44.00440
145.3864, 42.87500
145.8685, 41.97486
146.3506, 41.34898
146.8327, 40.87208
147.3148, 40.52351
147.7969, 40.41582
148.2791, 40.18491
148.7612, 39.75899
149.2433, 39.22025
149.7254, 38.74817
150.2075, 38.33662
150.6896, 37.99977
151.1718, 37.74475
151.6539, 37.56056
152.1360, 37.47078
152.6181, 37.49046
153.1002, 37.60587
153.5823, 37.77653
154.0645, 38.35143
154.5466, 38.72962
155.0287, 38.62121
155.5108, 37.29159
155.9929, 36.32072
156.4750, 36.19066
156.9572, 36.68676
157.4393, 36.94358
157.9214, 36.48265
158.4035, 35.90599
158.8856, 35.58763
159.3677, 35.95573
159.8499, 36.24232
160.3320, 36.12822
160.8141, 35.69154
161.2962, 35.40180
161.7783, 35.61854
162.2604, 35.96450
162.7426, 36.12849
163.2247, 35.91244
163.7068, 35.58999
164.1889, 35.15354
164.6710, 34.63282
165.1531, 34.37072
165.6353, 34.77946
166.1174, 35.45247
166.5995, 35.95206
167.0816, 35.93042
167.5637, 35.82707
168.0458, 35.98101
168.5280, 36.39380
169.0101, 36.71267
169.4922, 36.56054
169.9743, 36.20138
170.4564, 36.00491
170.9385, 36.29436
171.4207, 36.70775
171.9028, 36.91191
172.3849, 36.88616
172.8670, 36.82541
173.3491, 36.87596
173.8312, 36.99870
174.3134, 37.11920
174.7955, 37.21802
175.2776, 37.28948
175.7597, 37.27547
176.2418, 37.15203
176.7239, 37.12278
177.2061, 37.49129
177.6882, 38.12500
178.1703, 38.65580
178.6524, 38.87390
179.1345, 38.88932
179.6166, 38.79610
180.0988, 38.54856
180.5809, 38.45844
181.0630, 39.10151
181.5451, 40.29136
182.0272, 41.25295
182.5093, 41.32012
182.9915, 40.88342
183.4736, 40.93124
183.9557, 41.59836
184.4378, 42.50231
184.9199, 43.23368
185.4020, 43.78084
185.8842, 44.15477
186.3663, 44.22099
186.8484, 44.08871
187.3305, 44.17465
187.8126, 44.54794
188.2947, 45.04868
188.7769, 45.42194
189.2590, 45.67433
189.7411, 45.93822
190.2232, 46.33479
190.7053, 46.83094
191.1874, 47.18458
191.6696, 47.32064
192.1517, 47.42138
192.6338, 47.88366
193.1159, 48.72075
193.5980, 49.56149
194.0801, 50.11517
194.5623, 50.41036
195.0444, 50.89644
195.5265, 51.61361
196.0086, 52.53282
196.4907, 53.58893
196.9728, 54.77655
197.4550, 56.13921
197.9371, 57.78912
198.4192, 59.73280
198.9013, 61.47497
199.3834, 62.83253
199.8655, 64.10004
200.3477, 66.04459
200.8298, 68.73177
201.3119, 71.80047
201.7940, 75.15295
202.2761, 78.82043
202.7582, 82.43356
203.2404, 85.98460
203.7225, 89.44582
204.2046, 92.63779
204.6867, 95.42868
205.1688, 98.41908
205.6509, 102.0514
206.1331, 106.4696
206.6152, 110.6843
207.0973, 114.5504
207.5794, 118.1932
208.0615, 121.9916
208.5436, 125.9677
209.0258, 130.0600
209.5079, 134.1781
209.9900, 138.2643
210.4721, 142.5385
210.9542, 146.9561
211.4363, 151.5918
211.9185, 156.7337
212.4006, 162.4810
212.8827, 168.5683
213.3648, 174.7355
213.8469, 181.0695
214.3290, 187.3737
214.8112, 193.5428
215.2933, 199.6672
215.7754, 206.3235
216.2575, 213.6511
216.7396, 221.2732
217.2217, 228.9873
217.7038, 236.8852
218.1860, 244.5724
218.6681, 252.1540
219.1502, 259.4442
219.6323, 265.7163
220.1144, 271.0507
220.5965, 275.1460
221.0787, 277.8089
221.5608, 279.0672
222.0429, 278.8525
222.5250, 277.1860
223.0071, 274.0400
223.4892, 269.3684
223.9714, 263.0049
224.4535, 255.3363
224.9356, 246.3855
225.4177, 235.9002
225.8998, 224.8077
226.3819, 212.9335
226.8641, 200.4621
227.3462, 188.3738
227.8283, 176.5652
228.3104, 165.3094
228.7925, 154.8536
229.2746, 144.9720
229.7568, 136.1431
230.2389, 128.5712
230.7210, 121.9499
231.2031, 115.5234
231.6852, 109.1194
232.1673, 103.1727
232.6495, 97.99500
233.1316, 93.90115
233.6137, 89.86620
234.0958, 85.82966
234.5779, 81.89272
235.0600, 78.41226
235.5422, 75.44631
236.0243, 72.79754
236.5064, 70.37602
236.9885, 68.18003
237.4706, 66.23078
237.9527, 64.64670
238.4349, 63.30033
238.9170, 61.89289
239.3991, 60.37987
239.8812, 58.87169
240.3633, 57.40239
240.8454, 55.94284
241.3276, 54.58606
241.8097, 53.28882
242.2918, 52.12831
242.7739, 51.32452
243.2560, 51.10371
243.7381, 50.88991
244.2203, 50.45340
244.7024, 49.69330
245.1845, 48.98816
245.6666, 48.30767
246.1487, 47.69826
246.6308, 47.24896
247.1130, 47.03899
247.5951, 46.86042
248.0772, 46.66974
248.5593, 46.51161
249.0414, 46.15445
249.5235, 45.46207
250.0057, 44.65678
250.4878, 44.11880
250.9699, 44.02485
251.4520, 43.87886
251.9341, 43.48573
252.4162, 42.75417
252.8984, 42.22586
253.3805, 41.97089
253.8626, 41.86365
254.3447, 41.72417
254.8268, 41.51812
255.3089, 41.34472
255.7911, 41.22817
256.2732, 41.16640
256.7553, 41.18658
257.2374, 41.35690
257.7195, 41.54211
258.2017, 41.55313
258.6838, 41.28337
259.1659, 41.08285
259.6480, 41.04193
260.1301, 41.16529
260.6122, 41.34651
261.0944, 41.65983
261.5765, 41.93968
262.0586, 41.97850
262.5407, 41.66594
263.0228, 41.41267
263.5049, 41.27921
263.9871, 41.26793
264.4692, 41.48388
264.9513, 42.01083
265.4334, 42.63371
265.9155, 43.16444
266.3976, 43.56428
266.8798, 43.97005
267.3619, 44.39895
267.8440, 44.85293
268.3261, 45.31574
268.8082, 45.78310
269.2903, 46.26576
269.7725, 46.78617
270.2546, 47.36052
270.7367, 47.84139
271.2188, 48.10624
271.7009, 48.27345
272.1830, 48.94398
272.6652, 50.28603
273.1473, 51.65660
273.6294, 52.55141
274.1115, 52.85166
274.5936, 53.42027
275.0757, 54.41888
275.5579, 55.69100
276.0400, 56.72516
276.5221, 57.45271
277.0042, 58.21721
277.4863, 59.30395
277.9684, 60.75460
278.4506, 61.88643
278.9327, 62.52132
279.4148, 62.98152
279.8969, 64.04594
280.3790, 65.80820
280.8611, 67.51777
281.3433, 68.69225
281.8254, 69.34238
282.3075, 70.22778
282.7896, 71.38288
283.2717, 72.76408
283.7538, 74.40379
284.2360, 76.31687
284.7181, 78.11625
285.2002, 79.64909
285.6823, 80.92347
286.1644, 81.91914
286.6465, 82.54531
287.1287, 83.18559
287.6108, 84.44139
288.0929, 86.27464
288.5750, 87.99786
289.0571, 89.34379
289.5392, 90.38026
290.0214, 91.33822
290.5035, 92.21418
290.9856, 93.01266
291.4677, 93.72231
291.9498, 94.35213
292.4319, 94.93819
292.9141, 95.51896
293.3962, 96.05559
293.8783, 96.54821
294.3604, 96.99827
294.8425, 97.12914
295.3246, 96.59663
295.8068, 95.52975
296.2889, 94.38182
296.7710, 93.28775
297.2531, 92.11687
297.7352, 90.63428
298.2173, 88.86783
298.6995, 86.98188
299.1816, 85.13396
299.6637, 83.25687
300.1458, 81.21902
300.6279, 78.90613
301.1100, 76.57869
301.5922, 74.69632
302.0743, 73.14341
302.5564, 71.46301
303.0385, 69.18047
303.5206, 66.66059
304.0027, 64.39678
304.4849, 62.50619
304.9670, 60.73691
305.4491, 58.83460
305.9312, 56.88586
306.4133, 55.09789
306.8954, 53.64799
307.3776, 52.36773
307.8597, 51.12069
308.3418, 49.88540
308.8239, 48.69701
309.3060, 47.53227
309.7881, 46.42785
310.2703, 45.47822
310.7524, 44.84715
311.2345, 44.27736
311.7166, 43.55796
312.1987, 42.69341
312.6808, 41.90391
313.1630, 41.36721
313.6451, 40.94299
314.1272, 40.47552
314.6093, 39.88716
315.0914, 39.27467
315.5735, 38.63033
316.0557, 37.98082
316.5378, 37.46925
317.0199, 37.29685
317.5020, 37.20516
317.9841, 36.99212
318.4662, 36.49459
318.9484, 36.05546
319.4305, 35.85832
319.9126, 35.81253
320.3947, 35.67971
320.8768, 35.31311
321.3589, 34.90125
321.8411, 34.53286
322.3232, 34.23068
322.8053, 33.95376
323.2874, 33.70886
323.7695, 33.48203
324.2516, 33.25125
324.7338, 32.87028
325.2159, 32.61592
325.6980, 32.65186
326.1801, 33.10144
326.6622, 33.30954
327.1443, 33.04847
327.6265, 32.60698
328.1086, 32.27390
328.5907, 32.16044
329.0728, 32.04069
329.5549, 31.85744
330.0370, 31.60880
330.5192, 31.45600
331.0013, 31.48853
331.4834, 31.54012
331.9655, 31.48362
332.4476, 31.16975
332.9297, 31.01375
333.4119, 31.14831
333.8940, 31.47846
334.3761, 31.55008
334.8582, 31.16494
335.3403, 30.83268
335.8224, 30.84321
336.3046, 31.34724
336.7867, 31.76215
337.2688, 32.12432
337.7509, 32.35838
338.2330, 32.20595
338.7151, 31.45908
339.1973, 30.98803
339.6794, 31.24987
340.1615, 32.28868
340.6436, 33.00584
341.1257, 33.31168
341.6078, 33.47799
342.0899, 33.88045
342.5721, 34.53541
343.0542, 35.11717
343.5363, 35.51288
344.0184, 35.75621
344.5005, 35.97512
344.9826, 36.15979
345.4648, 36.38005
345.9469, 36.65554
346.4290, 37.00375
346.9111, 37.54166
347.3932, 38.33702
347.8753, 39.27399
348.3575, 40.12008
348.8396, 40.87842
349.3217, 41.63805
349.8038, 42.56290
350.2859, 43.52080
350.7680, 44.11216
351.2502, 44.20519
351.7323, 44.25542
352.2144, 44.90688
352.6965, 45.97558
353.1786, 46.88604
353.6607, 47.19045
354.1429, 47.25322
354.6250, 47.49879
355.1071, 47.94728
355.5892, 48.53556
356.0713, 49.24258
356.5534, 50.05302
357.0356, 50.94856
357.5177, 52.18736
357.9998, 53.29159
358.4819, 53.77831
358.9640, 53.74722
359.4461, 53.73753
359.9283, 54.13308
360.4104, 54.61623
360.8925, 54.92808
361.3746, 55.00677
361.8567, 54.91231
362.3388, 54.51846
362.8210, 53.96624
363.3031, 53.56722
363.7852, 53.88727
364.2673, 54.00681
364.7494, 53.38369
365.2315, 51.70827
365.7137, 50.22303
366.1958, 49.32682
366.6779, 48.70654
367.1600, 47.98603
367.6421, 47.08469
368.1242, 46.12085
368.6064, 45.07257
369.0885, 43.92860
369.5706, 42.90290
370.0527, 42.00333
370.5348, 41.21003
371.0169, 40.50652
371.4991, 39.96716
371.9812, 39.40071
372.4633, 38.75388
372.9454, 38.07059
373.4275, 37.52190
373.9096, 37.14189
374.3918, 36.82730
374.8739, 36.54085
375.3560, 36.27757
375.8381, 36.05230
376.3202, 35.87629
376.8023, 35.72652
377.2845, 35.57882
377.7666, 35.44128
378.2487, 35.25964
378.7308, 34.97832
379.2129, 34.62763
379.6950, 34.47887
380.1772, 34.56536
380.6593, 34.67434
381.1414, 34.56460
381.6235, 34.26726
382.1056, 34.06469
382.5877, 34.02172
383.0699, 34.09599
383.5520, 34.27885
384.0341, 34.55283
384.5162, 34.72277
384.9983, 34.59802
385.4804, 34.28997
385.9626, 34.01574
386.4447, 33.78636
386.9268, 33.64687
387.4089, 33.68029
387.8910, 33.83954
388.3731, 34.01839
388.8553, 34.16888
389.3374, 34.31746
389.8195, 34.51335
390.3016, 34.74821
390.7837, 34.92867
391.2658, 34.98632
391.7480, 34.96117
392.2301, 34.88440
392.7122, 34.67318
393.1943, 34.53864
393.6764, 34.59780
394.1585, 34.81660
394.6407, 35.09481
395.1228, 35.54249
395.6049, 35.92863
396.0870, 36.11254
396.5691, 36.00010
397.0512, 35.93718
397.5334, 36.00063
398.0155, 36.14568
398.4976, 36.31491
398.9797, 36.51376
399.4618, 36.72488
399.9439, 36.94477
400.4261, 37.17290
400.9082, 37.40985
401.3903, 37.62074
401.8724, 37.87243
402.3545, 38.22823
402.8366, 38.79773
403.3188, 39.21637
403.8009, 39.41417
404.2830, 39.47089
404.7651, 39.55532
405.2472, 39.61511
405.7293, 39.85112
406.2115, 40.40383
406.6936, 41.27987
407.1757, 42.08518
407.6578, 42.83900
408.1399, 43.47504
408.6220, 43.84428
409.1042, 43.95530
409.5863, 44.19754
410.0684, 44.68873
410.5505, 45.36419
411.0326, 46.07126
411.5147, 46.81763
411.9969, 47.71798
412.4790, 49.05206
412.9611, 50.60163
413.4432, 51.71580
413.9253, 52.19661
414.4074, 52.72404
414.8896, 54.14574
415.3717, 56.18851
415.8538, 58.20614
416.3359, 59.64959
416.8180, 61.07115
417.3001, 63.01412
417.7823, 65.49844
418.2644, 67.99248
418.7465, 70.17276
419.2286, 72.27840
419.7107, 74.48683
420.1928, 76.59267
420.6750, 79.18950
421.1571, 82.78522
421.6392, 87.08072
422.1213, 91.21059
422.6034, 94.45681
423.0855, 97.89393
423.5677, 102.0728
424.0498, 107.2324
424.5319, 112.3194
425.0140, 117.1474
425.4961, 121.9635
425.9782, 127.0179
426.4604, 132.2292
426.9425, 137.8133
427.4246, 143.8880
427.9067, 150.4290
428.3888, 156.8868
428.8709, 163.2695
429.3531, 169.5332
429.8352, 175.6254
430.3173, 181.3089
430.7994, 187.6798
431.2815, 194.9343
431.7636, 202.5897
432.2458, 209.7016
432.7279, 216.2334
433.2100, 222.7788
433.6921, 229.4275
434.1742, 236.2927
434.6563, 243.7398
435.1385, 251.8790
435.6206, 260.0696
436.1027, 267.7951
436.5848, 275.1644
437.0669, 282.5307
437.5490, 290.0964
438.0312, 297.3846
438.5133, 304.3674
438.9954, 310.7851
439.4775, 315.9073
439.9596, 319.3119
440.4417, 321.2963
440.9239, 322.1830
441.4060, 321.9954
441.8881, 320.3794
442.3702, 316.9028
442.8523, 312.0284
443.3344, 306.1710
443.8166, 299.5798
444.2987, 291.8553
444.7808, 282.2142
445.2629, 271.2526
445.7450, 260.6378
446.2271, 251.0556
446.7093, 241.8258
447.1914, 232.6734
447.6735, 223.4078
448.1556, 214.7722
448.6377, 207.0721
449.1198, 199.8774
449.6020, 192.7420
450.0841, 185.7412
450.5662, 178.9697
451.0483, 172.5689
451.5304, 166.3847
452.0125, 159.8435
452.4947, 152.7578
452.9768, 145.7261
453.4589, 139.0210
453.9410, 132.5939
454.4231, 126.3290
454.9052, 120.1568
455.3874, 114.0680
455.8695, 107.7942
456.3516, 101.3937
456.8337, 95.51943
457.3158, 90.33819
457.7979, 85.75687
458.2801, 81.65418
458.7622, 78.01918
459.2443, 74.63245
459.7264, 71.42444
460.2085, 68.37922
460.6906, 65.51726
461.1728, 62.84406
461.6549, 60.36443
462.1370, 58.19498
462.6191, 56.23730
463.1012, 54.39853
463.5833, 52.69703
464.0655, 51.05178
464.5476, 49.37775
465.0297, 47.70875
465.5118, 46.26037
465.9939, 45.31189
466.4760, 44.46854
466.9582, 43.51160
467.4403, 42.25747
467.9224, 41.17041
468.4045, 40.30726
468.8866, 39.59764
469.3687, 38.94001
469.8509, 38.39130
470.3330, 37.80545
470.8151, 37.10464
471.2972, 36.31656
471.7793, 35.76828
472.2614, 35.53543
472.7436, 35.32264
473.2257, 34.91483
473.7078, 34.30686
474.1899, 33.66800
474.6720, 32.97518
475.1541, 32.34093
475.6363, 32.00005
476.1184, 31.90444
476.6005, 31.74606
477.0826, 31.37336
477.5647, 30.88107
478.0468, 30.36222
478.5290, 29.83069
479.0111, 29.41290
479.4932, 29.32008
479.9753, 29.33858
480.4574, 29.20058
480.9395, 28.81674
481.4217, 28.41076
481.9038, 28.05840
482.3859, 27.78994
482.8680, 27.65646
483.3501, 27.85112
483.8322, 28.01178
484.3144, 28.01375
484.7965, 27.85787
485.2786, 27.62415
485.7607, 27.16309
486.2428, 26.75660
486.7249, 26.56372
487.2071, 26.76660
487.6892, 26.78905
488.1713, 26.53454
488.6534, 26.16772
489.1355, 25.93045
489.6176, 25.86842
490.0998, 25.80521
490.5819, 25.71443
491.0640, 25.58673
491.5461, 25.35117
492.0282, 24.99065
492.5103, 24.64251
492.9925, 24.36955
493.4746, 24.18077
493.9567, 24.18645
494.4388, 24.42824
494.9209, 24.67809
495.4030, 24.59793
495.8852, 24.31865
496.3673, 24.17626
496.8494, 24.42711
497.3315, 24.74281
497.8136, 24.82273
498.2957, 24.69774
498.7779, 24.49257
499.2600, 24.13030
499.7421, 23.80793
500.2242, 23.68814
500.7063, 23.83465
501.1884, 23.97709
501.6706, 24.06589
502.1527, 24.09710
502.6348, 24.06441
503.1169, 23.82767
503.5990, 23.69551
504.0811, 23.73749
504.5633, 23.91148
505.0454, 24.08287
505.5275, 24.32742
506.0096, 24.42961
506.4917, 24.23703
506.9738, 23.70398
507.4560, 23.43778
507.9381, 23.49365
508.4202, 23.66668
508.9023, 23.78026
509.3844, 23.83342
509.8665, 23.78894
510.3487, 23.60021
510.8308, 23.38427
511.3129, 23.36059
511.7950, 23.49477
512.2772, 23.62576
512.7593, 23.62753
513.2414, 23.60127
513.7235, 23.68874
514.2056, 23.88731
514.6877, 24.07750
515.1699, 24.15125
515.6520, 24.19785
516.1341, 24.30548
516.6162, 24.53256
517.0983, 24.74472
517.5804, 24.90273
518.0626, 25.01777
518.5447, 25.10831
519.0268, 25.17781
519.5089, 25.21973
519.9910, 25.16714
520.4731, 25.03847
520.9553, 25.16873
521.4374, 25.74829
521.9195, 26.30054
522.4016, 26.51135
522.8837, 26.27722
523.3658, 26.27078
523.8480, 26.57022
524.3301, 26.94486
524.8122, 27.03127
525.2943, 26.85277
525.7764, 26.80539
526.2585, 27.05871
526.7407, 27.43125
527.2228, 27.49925
527.7049, 27.33679
528.1870, 27.37021
528.6691, 28.15522
529.1512, 29.12492
529.6334, 29.54063
530.1155, 29.33767
530.5976, 29.13263
531.0797, 29.27935
531.5618, 29.61338
532.0439, 29.97075
532.5261, 30.30218
533.0082, 30.67028
533.4903, 31.23071
533.9724, 31.83028
534.4545, 32.14915
534.9366, 31.70603
535.4188, 31.50173
535.9009, 31.85985
536.3830, 32.76305
536.8651, 33.41072
537.3472, 33.67610
537.8293, 33.93484
538.3115, 34.49865
538.7936, 35.40580
539.2757, 35.99693
539.7578, 36.15238
540.2399, 36.22854
540.7220, 36.75704
541.2042, 37.66020
541.6863, 38.54284
542.1684, 39.35308
542.6505, 40.00937
543.1326, 40.22575
543.6147, 40.13667
544.0969, 40.26653
544.5790, 41.14675
545.0611, 42.21972
545.5432, 42.98797
546.0253, 43.39071
546.5074, 43.86245
546.9896, 44.61281
547.4717, 45.48806
547.9538, 46.36509
548.4359, 47.22588
548.9180, 48.08552
549.4001, 48.94873
549.8823, 49.81676
550.3644, 50.69886
550.8465, 51.66118
551.3286, 52.52359
551.8107, 53.19538
552.2928, 53.72118
552.7750, 54.43872
553.2571, 55.39783
553.7392, 56.32237
554.2213, 56.88438
554.7034, 57.19878
555.1855, 58.07652
555.6677, 59.62154
556.1498, 61.23957
556.6319, 62.42533
557.1140, 63.19680
557.5961, 63.49837
558.0782, 62.98096
558.5604, 62.55448
559.0425, 63.25663
559.5246, 64.60918
560.0067, 65.54424
560.4888, 65.22526
560.9709, 64.74628
561.4531, 64.67331
561.9352, 65.02460
562.4173, 65.09887
562.8994, 64.72954
563.3815, 64.11350
563.8636, 63.29733
564.3458, 62.12129
564.8279, 61.21550
565.3100, 60.68649
565.7921, 60.28187
566.2742, 59.65289
566.7563, 58.76266
567.2385, 58.02361
567.7206, 57.64254
568.2027, 57.31818
568.6848, 56.33629
569.1669, 54.75947
569.6490, 53.14872
570.1312, 51.69463
570.6133, 50.41727
571.0954, 49.43975
571.5775, 48.73269
572.0596, 48.02256
572.5417, 47.15416
573.0239, 46.17896
573.5060, 45.14044
573.9881, 44.00313
574.4702, 42.89660
574.9523, 41.78928
575.4344, 40.74532
575.9166, 39.86127
576.3987, 39.31752
576.8808, 38.67326
577.3629, 37.81115
577.8450, 36.81853
578.3271, 35.96785
578.8093, 35.27525
579.2914, 34.68337
579.7735, 34.20217
580.2556, 33.81947
580.7377, 33.40861
581.2198, 32.97419
581.7020, 32.47290
582.1841, 31.76860
582.6662, 30.98138
583.1483, 30.42899
583.6304, 30.20070
584.1125, 29.99344
584.5947, 29.45118
585.0768, 28.78332
585.5589, 28.29958
586.0410, 28.29919
586.5231, 28.28689
587.0052, 28.03569
587.4873, 27.61488
587.9694, 27.21526
