##NAMES=Natrolite
##RRUFFID=R050589
##IDEAL CHEMISTRY=Na_2_(Si_3_Al_2_)O_10_&#183;2H_2_O
##LOCALITY=Mont Saint-Hilaire, Rouville County, Quebec, Canada
##OWNER=RRUFF
##SOURCE=Bob Downs
##DESCRIPTION=White to colorless prismatic crystals associated with aegirine
##STATUS=The identification of this mineral has been confirmed by X-ray diffraction and chemical analysis
##URL=rruff.info/R050589
##MEASURED CHEMISTRY=Na_2.00_(Si_3.00_Al_2.00_)O_10_Â·2H_2_O
91.11523, 14.63755
91.59735, 14.47069
92.07947, 14.64907
92.56158, 15.05394
93.04370, 15.31055
93.52582, 15.04395
94.00793, 14.49014
94.49006, 14.18857
94.97218, 14.24324
95.45429, 14.44966
95.93641, 14.48571
96.41853, 14.35519
96.90064, 14.21321
97.38276, 14.19898
97.86488, 14.29580
98.34699, 14.30224
98.82911, 14.15178
99.31123, 13.90814
99.79334, 13.78610
100.2755, 13.80166
100.7576, 13.88733
101.2397, 13.99067
101.7218, 14.11394
102.2039, 14.24910
102.6861, 14.39417
103.1682, 14.55044
103.6503, 14.73768
104.1324, 15.02995
104.6145, 15.27363
105.0966, 15.22836
105.5788, 14.57692
106.0609, 14.18828
106.5430, 14.31490
107.0251, 15.08414
107.5072, 15.92614
107.9893, 16.91540
108.4715, 17.96460
108.9536, 18.91575
109.4357, 19.44730
109.9178, 20.17658
110.3999, 21.33248
110.8820, 23.18554
111.3642, 25.00156
111.8463, 26.30521
112.3284, 27.50269
112.8105, 29.71307
113.2926, 34.66059
113.7747, 39.62393
114.2569, 43.14266
114.7390, 42.60558
115.2211, 43.38248
115.7032, 47.16892
116.1853, 53.51021
116.6674, 60.06927
117.1496, 65.44927
117.6317, 71.09457
118.1138, 78.13928
118.5959, 86.73875
119.0780, 97.02194
119.5602, 109.4547
120.0423, 124.0595
120.5244, 139.2334
121.0065, 154.9317
121.4886, 170.5035
121.9707, 185.1523
122.4529, 201.2597
122.9350, 214.5395
123.4171, 220.3622
123.8992, 218.1684
124.3813, 213.2482
124.8634, 208.9590
125.3456, 205.1374
125.8277, 201.3956
126.3098, 196.4321
126.7919, 191.7815
127.2740, 189.8826
127.7561, 191.1337
128.2383, 194.3147
128.7204, 198.2182
129.2025, 202.8678
129.6846, 208.3887
130.1667, 215.0692
130.6488, 222.6460
131.1310, 230.6497
131.6131, 238.9045
132.0952, 247.7706
132.5773, 257.9314
133.0594, 269.4450
133.5415, 281.7977
134.0237, 295.0713
134.5058, 309.2577
134.9879, 323.1734
135.4700, 336.6908
135.9521, 349.8776
136.4343, 363.5602
136.9164, 377.9974
137.3985, 392.0453
137.8806, 404.7116
138.3627, 415.8833
138.8448, 426.9770
139.3270, 438.0539
139.8091, 449.3354
140.2912, 462.4253
140.7733, 477.7824
141.2554, 494.3493
141.7375, 511.3094
142.2197, 529.7538
142.7018, 546.1743
143.1839, 560.1119
143.6660, 571.6083
144.1481, 579.3698
144.6302, 582.6568
145.1124, 582.7582
145.5945, 581.1295
146.0766, 577.3624
146.5587, 572.4189
147.0408, 566.2120
147.5230, 558.1816
148.0051, 550.8930
148.4872, 541.2806
148.9693, 529.6853
149.4514, 521.1354
149.9335, 516.1095
150.4157, 513.3944
150.8978, 512.6135
151.3799, 513.3738
151.8620, 516.7005
152.3441, 522.8787
152.8262, 531.5056
153.3084, 541.7614
153.7905, 553.9468
154.2726, 567.3399
154.7547, 581.6908
155.2368, 595.4027
155.7189, 612.2237
156.2011, 633.5559
156.6832, 658.3809
157.1653, 683.7110
157.6474, 709.1817
158.1295, 734.8643
158.6116, 760.9951
159.0938, 789.9542
159.5759, 816.1382
160.0580, 839.7449
160.5401, 859.9612
161.0222, 873.8284
161.5044, 881.7025
161.9865, 882.3193
162.4686, 874.7656
162.9507, 856.8634
163.4328, 833.1556
163.9149, 803.8375
164.3971, 769.3998
164.8792, 733.5043
165.3613, 695.4955
165.8434, 657.7766
166.3255, 622.3701
166.8076, 589.2988
167.2898, 559.6594
167.7719, 534.1435
168.2540, 512.5721
168.7361, 493.6371
169.2182, 476.9134
169.7003, 462.2510
170.1825, 449.4756
170.6646, 439.0463
171.1467, 430.1080
171.6288, 422.2006
172.1109, 415.3479
172.5931, 408.6093
173.0752, 401.3906
173.5573, 393.8378
174.0394, 386.1577
174.5215, 378.5727
175.0036, 370.8704
175.4858, 362.6623
175.9679, 353.8457
176.4500, 345.5705
176.9321, 338.4889
177.4142, 332.5600
177.8963, 327.8056
178.3785, 324.3542
178.8606, 321.9575
179.3427, 320.3033
179.8248, 319.3471
180.3069, 319.2041
180.7890, 320.1083
181.2712, 321.9465
181.7533, 324.3793
182.2354, 327.4759
182.7175, 331.0222
183.1996, 334.7201
183.6818, 338.7331
184.1639, 342.1781
184.6460, 344.2911
185.1281, 345.0781
185.6102, 344.6422
186.0923, 343.3558
186.5745, 340.9209
187.0566, 336.1364
187.5387, 328.6093
188.0208, 319.8145
188.5029, 310.9631
188.9850, 302.1578
189.4672, 294.1858
189.9493, 287.3954
190.4314, 281.7641
190.9135, 276.7381
191.3956, 272.1768
191.8777, 268.5847
192.3599, 266.9183
192.8420, 267.1933
193.3241, 267.9821
193.8062, 268.5031
194.2883, 268.8194
194.7704, 269.6185
195.2526, 270.9384
195.7347, 272.7282
196.2168, 274.9482
196.6989, 277.6053
197.1810, 280.5298
197.6632, 283.6631
198.1453, 287.0280
198.6274, 290.4211
199.1095, 293.7758
199.5916, 297.2435
200.0737, 300.9967
200.5559, 305.0155
201.0380, 309.5508
201.5201, 314.8499
202.0022, 321.0187
202.4843, 327.2282
202.9664, 333.5122
203.4486, 339.7488
203.9307, 346.0408
204.4128, 352.7172
204.8949, 357.9386
205.3770, 360.6187
205.8591, 360.6054
206.3413, 359.2113
206.8234, 356.5759
207.3055, 352.5448
207.7876, 346.3696
208.2697, 337.5311
208.7519, 328.2113
209.2340, 319.5327
209.7161, 311.6731
210.1982, 303.3918
210.6803, 294.1619
211.1624, 284.7299
211.6446, 277.1766
212.1267, 271.8460
212.6088, 267.6996
213.0909, 264.3399
213.5730, 261.9847
214.0551, 259.5387
214.5373, 256.7247
215.0194, 253.8934
215.5015, 252.0955
215.9836, 251.7643
216.4657, 251.5770
216.9478, 250.7418
217.4300, 248.8780
217.9121, 247.6569
218.3942, 247.5113
218.8763, 247.9258
219.3584, 247.3283
219.8405, 245.3162
220.3227, 243.0200
220.8048, 241.0420
221.2869, 239.5894
221.7690, 237.8413
222.2511, 235.9026
222.7333, 233.6173
223.2154, 230.5552
223.6975, 226.4473
224.1796, 221.9688
224.6617, 217.3182
225.1438, 212.1856
225.6260, 207.7894
226.1081, 204.4798
226.5902, 201.8580
227.0723, 198.8371
227.5544, 195.0070
228.0365, 191.3781
228.5187, 188.3992
229.0008, 186.1464
229.4829, 184.3852
229.9650, 183.2622
230.4471, 182.5687
230.9292, 181.6865
231.4114, 180.2393
231.8935, 179.1513
232.3756, 178.9094
232.8577, 179.9767
233.3398, 180.7535
233.8220, 181.0770
234.3041, 181.1608
234.7862, 181.4814
235.2683, 181.9048
235.7504, 182.7681
236.2325, 184.3112
236.7147, 186.8576
237.1968, 189.1979
237.6789, 191.2768
238.1610, 193.1823
238.6431, 195.1554
239.1252, 197.5687
239.6074, 199.5269
240.0895, 200.7701
240.5716, 201.4353
241.0537, 200.9426
241.5358, 199.0238
242.0179, 196.0761
242.5001, 192.8072
242.9822, 188.9934
243.4643, 185.2065
243.9464, 181.6187
244.4285, 178.1946
244.9106, 175.0240
245.3928, 172.0333
245.8749, 169.3081
246.3570, 167.0105
246.8391, 165.2165
247.3212, 163.7165
247.8034, 162.4684
248.2855, 161.5029
248.7676, 160.6453
249.2497, 159.8536
249.7318, 159.1967
250.2139, 158.7962
250.6961, 158.7527
251.1782, 158.7859
251.6603, 158.7764
252.1424, 158.6666
252.6245, 158.9096
253.1066, 159.6917
253.5888, 160.6640
254.0709, 161.3697
254.5530, 161.6835
255.0351, 161.9850
255.5172, 162.3502
255.9993, 162.7761
256.4815, 163.2858
256.9636, 163.8072
257.4457, 164.4803
257.9278, 165.5466
258.4099, 167.2840
258.8921, 168.7712
259.3742, 169.7183
259.8563, 170.1058
260.3384, 170.7383
260.8205, 171.6409
261.3026, 172.7464
261.7848, 174.0361
262.2669, 175.5711
262.7490, 177.0973
263.2311, 178.5749
263.7132, 180.0053
264.1953, 181.2699
264.6775, 182.2619
265.1596, 183.2457
265.6417, 184.5170
266.1238, 186.2272
266.6059, 187.6541
267.0880, 188.5099
267.5702, 188.9418
268.0523, 189.9992
268.5344, 191.9928
269.0165, 194.0012
269.4986, 195.1627
269.9807, 195.1503
270.4629, 195.8681
270.9450, 197.8331
271.4271, 200.6484
271.9092, 202.5824
272.3913, 203.4114
272.8734, 203.9921
273.3556, 205.0811
273.8377, 206.8850
274.3198, 207.6930
274.8019, 207.1188
275.2840, 205.6188
275.7661, 204.4383
276.2483, 203.6485
276.7304, 202.8883
277.2125, 202.0268
277.6946, 201.0739
278.1768, 199.8039
278.6589, 198.1151
279.1410, 196.2239
279.6231, 194.5699
280.1052, 193.1599
280.5873, 191.8428
281.0695, 190.4826
281.5516, 189.0784
282.0337, 188.0296
282.5158, 187.3535
282.9979, 187.0193
283.4800, 186.9548
283.9622, 187.1532
284.4443, 187.7372
284.9264, 188.9715
285.4085, 190.7426
285.8906, 192.0731
286.3727, 192.8697
286.8549, 193.5506
287.3370, 194.6583
287.8191, 196.1763
288.3012, 197.8029
288.7833, 199.4999
289.2654, 201.2027
289.7476, 202.7095
290.2297, 204.0183
290.7118, 205.1594
291.1939, 206.1947
291.6760, 207.1017
292.1581, 207.7785
292.6403, 208.1396
293.1224, 208.2838
293.6045, 208.3681
294.0866, 208.3914
294.5687, 208.5458
295.0508, 208.9500
295.5330, 209.6153
296.0151, 210.5939
296.4972, 212.0023
296.9793, 213.6253
297.4614, 214.8343
297.9435, 215.7328
298.4257, 217.1359
298.9078, 219.8781
299.3899, 223.5366
299.8720, 227.0789
300.3541, 230.2302
300.8362, 233.5058
301.3184, 237.6707
301.8005, 242.5983
302.2826, 247.5850
302.7647, 252.3749
303.2469, 256.9448
303.7290, 261.5290
304.2111, 266.2733
304.6932, 270.3677
305.1753, 273.4849
305.6574, 275.3363
306.1396, 275.1022
306.6217, 271.7619
307.1038, 266.4484
307.5859, 260.1823
308.0680, 252.9493
308.5501, 245.1064
309.0323, 236.2727
309.5144, 227.0891
309.9965, 218.6102
310.4786, 210.8373
310.9607, 204.1389
311.4428, 198.7174
311.9250, 194.5955
312.4071, 189.0802
312.8892, 188.2244
313.3713, 187.0243
313.8534, 185.4985
314.3355, 182.6712
314.8177, 180.8018
315.2998, 181.7419
315.7819, 182.3378
316.2640, 182.6080
316.7461, 181.5768
317.2282, 182.2260
317.7104, 182.2018
318.1925, 182.1500
318.6746, 183.0357
319.1567, 182.1938
319.6388, 183.0483
320.1209, 183.7483
320.6031, 185.0102
321.0852, 186.9906
321.5673, 190.1328
322.0494, 195.7246
322.5315, 199.5853
323.0136, 199.3378
323.4958, 197.0815
323.9779, 196.2261
324.4600, 198.3315
324.9421, 201.0433
325.4242, 203.5765
325.9064, 205.7756
326.3885, 208.3707
326.8706, 211.9013
327.3527, 215.6551
327.8348, 218.9266
328.3170, 220.8495
328.7991, 223.2157
329.2812, 226.8032
329.7633, 231.7000
330.2454, 234.8703
330.7275, 235.4975
331.2097, 235.0185
331.6918, 234.4196
332.1739, 233.9226
332.6560, 232.9214
333.1381, 231.3832
333.6202, 229.3062
334.1024, 226.6333
334.5845, 222.9612
335.0666, 219.3366
335.5487, 216.3050
336.0308, 214.0262
336.5129, 211.9710
336.9951, 210.1161
337.4772, 208.5021
337.9593, 207.1112
338.4414, 205.9064
338.9235, 205.0450
339.4056, 204.5888
339.8878, 204.5502
340.3699, 204.8737
340.8520, 205.6428
341.3341, 206.6269
341.8162, 207.5985
342.2983, 208.5564
342.7805, 209.3930
343.2626, 209.9124
343.7447, 210.2641
344.2268, 211.3864
344.7089, 213.4147
345.1910, 215.4412
345.6732, 216.3801
346.1553, 216.4021
346.6374, 216.8662
347.1195, 218.2152
347.6016, 219.9643
348.0837, 221.1017
348.5659, 221.6684
349.0480, 222.1595
349.5301, 222.6938
350.0122, 223.4175
350.4944, 224.8280
350.9765, 227.1453
351.4586, 229.6141
351.9407, 231.0843
352.4228, 231.8533
352.9049, 232.9003
353.3871, 234.9173
353.8692, 237.4184
354.3513, 239.7848
354.8334, 241.9793
355.3155, 244.1527
355.7976, 246.7279
356.2798, 249.3242
356.7619, 251.3597
357.2440, 252.4306
357.7261, 252.9667
358.2082, 253.2902
358.6903, 253.3662
359.1725, 252.9742
359.6546, 252.2626
360.1367, 250.8912
360.6188, 248.5053
361.1009, 244.6650
361.5830, 240.4065
362.0652, 236.0503
362.5473, 231.6064
363.0294, 227.0970
363.5115, 222.4888
363.9936, 217.8351
364.4757, 213.1260
364.9579, 208.1523
365.4400, 203.6761
365.9221, 199.7710
366.4042, 196.4394
366.8863, 193.6840
367.3684, 192.0845
367.8506, 190.4795
368.3327, 188.5942
368.8148, 186.4113
369.2969, 184.1943
369.7790, 181.4280
370.2611, 178.9783
370.7433, 177.4953
371.2254, 177.9033
371.7075, 177.8323
372.1896, 176.9116
372.6717, 175.3504
373.1538, 174.0657
373.6360, 173.2501
374.1181, 172.3950
374.6002, 171.2167
375.0823, 169.5375
375.5645, 168.1491
376.0466, 167.1190
376.5287, 166.3217
377.0108, 165.5300
377.4929, 164.7162
377.9750, 164.1201
378.4572, 163.9063
378.9393, 164.0245
379.4214, 164.0310
379.9035, 163.9428
380.3856, 163.6774
380.8677, 162.7940
381.3499, 161.4025
381.8320, 161.1045
382.3141, 162.6924
382.7962, 165.0540
383.2783, 165.7895
383.7604, 164.9656
384.2426, 163.8286
384.7247, 163.0160
385.2068, 162.5146
385.6889, 162.2690
386.1710, 162.2855
386.6531, 162.5145
387.1353, 163.0955
387.6174, 163.8690
388.0995, 164.4260
388.5816, 164.2979
389.0637, 164.0306
389.5458, 164.2271
390.0280, 164.8919
390.5101, 165.6196
390.9922, 166.0936
391.4743, 166.5028
391.9564, 167.0719
392.4385, 168.0018
392.9207, 168.9382
393.4028, 169.6565
393.8849, 170.2205
394.3670, 170.8276
394.8491, 171.3786
395.3312, 172.1120
395.8134, 173.1872
396.2955, 174.7122
396.7776, 176.3331
397.2597, 178.0298
397.7418, 179.7445
398.2239, 181.4154
398.7061, 183.1973
399.1882, 184.7538
399.6703, 185.8350
400.1524, 186.4055
400.6346, 187.4412
401.1167, 189.2177
401.5988, 191.2083
402.0809, 193.0343
402.5630, 194.4320
403.0451, 196.1879
403.5273, 198.3708
404.0094, 200.9230
404.4915, 203.7465
404.9736, 207.0476
405.4557, 210.1202
405.9378, 212.4988
406.4200, 214.0626
406.9021, 216.4231
407.3842, 219.7425
407.8663, 223.4215
408.3484, 226.6718
408.8305, 229.4994
409.3127, 232.4349
409.7948, 235.7192
410.2769, 239.1637
410.7590, 242.3288
411.2411, 245.2310
411.7232, 247.5861
412.2054, 249.1058
412.6875, 249.9443
413.1696, 250.4851
413.6517, 250.8020
414.1338, 250.8133
414.6159, 250.2702
415.0981, 249.3196
415.5802, 248.3665
416.0623, 247.7937
416.5444, 247.2078
417.0265, 246.0562
417.5086, 244.3212
417.9908, 242.8427
418.4729, 242.2726
418.9550, 242.1960
419.4371, 242.1548
419.9192, 241.4821
420.4013, 241.4742
420.8835, 242.8927
421.3656, 245.4319
421.8477, 248.2124
422.3298, 250.6165
422.8119, 253.4611
423.2940, 257.0926
423.7762, 261.4470
424.2583, 266.8070
424.7404, 273.5467
425.2225, 281.1116
425.7047, 289.0497
426.1868, 297.4396
426.6689, 305.9803
427.1510, 314.6587
427.6331, 323.4624
428.1152, 332.5887
428.5974, 342.1081
429.0795, 352.0237
429.5616, 362.5105
430.0437, 373.6414
430.5258, 384.7645
431.0079, 395.5048
431.4901, 406.5483
431.9722, 419.0578
432.4543, 432.9901
432.9364, 448.2919
433.4185, 464.7345
433.9006, 482.3462
434.3828, 500.9320
434.8649, 520.4722
435.3470, 541.2020
435.8291, 563.6865
436.3112, 587.6840
436.7933, 612.1414
437.2755, 637.3500
437.7576, 662.1978
438.2397, 685.4440
438.7218, 706.9520
439.2039, 726.2354
439.6860, 744.2743
440.1682, 759.3788
440.6503, 770.1190
441.1324, 776.6267
441.6145, 776.9148
442.0966, 769.6105
442.5787, 755.5011
443.0609, 735.3978
443.5430, 706.1569
444.0251, 674.5323
444.5072, 641.5096
444.9893, 607.7103
445.4714, 575.0195
445.9536, 542.8136
446.4357, 512.4029
446.9178, 484.3505
447.3999, 458.7314
447.8820, 435.3392
448.3641, 414.5650
448.8463, 395.6523
449.3284, 377.4083
449.8105, 359.4774
450.2926, 343.2029
450.7747, 328.7964
451.2569, 316.1840
451.7390, 305.5082
452.2211, 297.0685
452.7032, 289.5259
453.1853, 281.6787
453.6674, 273.2953
454.1496, 268.0959
454.6317, 267.0471
455.1138, 266.9545
455.5959, 262.6147
456.0780, 254.4104
456.5602, 247.0697
457.0423, 242.4404
457.5244, 239.6086
458.0065, 236.8895
458.4886, 234.3104
458.9707, 231.8715
459.4529, 229.6547
459.9350, 227.5734
460.4171, 225.5539
460.8992, 223.5274
461.3813, 221.6531
461.8634, 220.0864
462.3456, 218.7397
462.8277, 217.4982
463.3098, 216.0507
463.7919, 214.9064
464.2740, 214.4491
464.7561, 214.6375
465.2383, 214.8224
465.7204, 214.6581
466.2025, 214.5259
466.6846, 214.6879
467.1667, 215.5538
467.6488, 216.0862
468.1310, 215.8916
468.6131, 215.4243
469.0952, 215.4165
469.5773, 216.0820
470.0594, 216.8576
470.5415, 217.5740
471.0237, 218.2428
471.5058, 219.2540
471.9879, 220.6589
472.4700, 222.3020
472.9521, 224.1974
473.4342, 226.3899
473.9164, 228.0406
474.3985, 228.9387
474.8806, 229.5854
475.3627, 230.8605
475.8448, 232.7123
476.3270, 234.6099
476.8091, 236.2202
477.2912, 237.7502
477.7733, 239.7323
478.2554, 242.1275
478.7375, 244.3465
479.2197, 245.6252
479.7018, 246.5693
480.1839, 248.0462
480.6660, 250.3699
481.1481, 252.8206
481.6302, 255.2254
482.1124, 257.3923
482.5945, 258.9959
483.0766, 259.5343
483.5587, 259.8385
484.0408, 260.2042
484.5229, 260.6439
485.0051, 261.1248
485.4872, 261.4910
485.9693, 262.0052
486.4514, 262.8962
486.9335, 265.1898
487.4156, 266.0200
487.8978, 264.2786
488.3799, 261.6682
488.8620, 260.9974
489.3441, 263.1614
489.8262, 265.0297
490.3083, 265.6717
490.7905, 265.3026
491.2726, 265.5332
491.7547, 266.4585
492.2368, 267.5276
492.7189, 268.3101
493.2010, 268.8568
493.6832, 269.3976
494.1653, 269.9174
494.6474, 270.5883
495.1295, 271.7363
495.6116, 273.2367
496.0938, 274.7184
496.5759, 275.9733
497.0580, 277.1888
497.5401, 278.5684
498.0222, 280.0915
498.5044, 281.5841
498.9865, 282.6382
499.4686, 283.8383
499.9507, 285.7932
500.4328, 288.8460
500.9149, 291.6480
501.3971, 293.2364
501.8792, 294.5494
502.3613, 296.6695
502.8434, 300.5100
503.3255, 304.3671
503.8076, 308.0054
504.2898, 311.4458
504.7719, 314.7613
505.2540, 317.6998
505.7361, 320.8568
506.2182, 324.4918
506.7003, 328.5961
507.1825, 333.1987
507.6646, 338.4529
508.1467, 343.8776
508.6288, 348.8175
509.1109, 353.2785
509.5930, 358.1590
510.0752, 363.6553
510.5573, 369.6490
511.0394, 375.7867
511.5215, 382.1489
512.0037, 389.2282
512.4858, 397.7469
512.9679, 406.9545
513.4500, 415.6518
513.9321, 423.8112
514.4142, 432.3374
514.8964, 441.5889
515.3785, 451.6969
515.8606, 462.6474
516.3427, 474.3535
516.8248, 487.1828
517.3069, 501.5106
517.7891, 517.0254
518.2712, 533.2193
518.7533, 549.7030
519.2354, 566.9850
519.7175, 585.2093
520.1996, 604.4103
520.6818, 623.7269
521.1639, 642.5947
521.6460, 662.3622
522.1281, 683.5778
522.6102, 706.4231
523.0923, 730.2031
523.5745, 754.5319
524.0566, 780.5940
524.5387, 810.4061
525.0208, 844.0734
525.5029, 879.2585
525.9850, 915.2734
526.4672, 952.3726
526.9493, 992.4852
527.4314, 1035.687
527.9135, 1078.961
528.3956, 1121.752
528.8777, 1164.029
529.3599, 1205.800
529.8420, 1247.604
530.3241, 1286.370
530.8062, 1323.623
531.2883, 1355.996
531.7704, 1379.091
532.2526, 1394.388
532.7347, 1397.723
533.2168, 1388.488
533.6989, 1366.528
534.1810, 1331.229
534.6631, 1277.313
535.1453, 1214.891
535.6274, 1145.966
536.1095, 1069.443
536.5916, 994.8911
537.0737, 920.3219
537.5558, 849.5250
538.0380, 785.0069
538.5201, 726.3763
539.0022, 672.5917
539.4843, 624.2131
539.9664, 580.6287
540.4485, 542.6002
540.9307, 510.0239
541.4128, 480.7411
541.8949, 454.4957
542.3770, 431.2001
542.8591, 410.7317
543.3412, 393.1341
543.8234, 377.1635
544.3055, 362.2763
544.7876, 348.5494
545.2697, 336.3473
545.7518, 325.7378
546.2339, 316.1074
546.7161, 307.3227
547.1982, 299.3524
547.6803, 291.9736
548.1624, 285.4879
548.6445, 279.2700
549.1266, 273.0755
549.6088, 267.1324
550.0909, 261.9232
550.5730, 257.7442
551.0551, 253.8319
551.5372, 250.0835
552.0193, 246.4749
552.5015, 242.8286
552.9836, 239.0395
553.4657, 235.5789
553.9478, 232.8517
554.4299, 230.7962
554.9120, 228.8126
555.3942, 226.8889
555.8763, 224.9956
556.3584, 223.1064
556.8405, 221.2253
557.3226, 219.3374
557.8047, 217.2818
558.2869, 215.4388
558.7690, 214.2775
559.2511, 213.6086
559.7332, 212.9699
560.2154, 212.1768
560.6975, 211.3438
561.1796, 210.5580
561.6617, 209.8282
562.1439, 208.9665
562.6260, 207.9102
563.1081, 206.7334
563.5902, 205.4146
564.0723, 203.5948
564.5544, 202.4449
565.0366, 202.2688
565.5187, 202.4499
566.0008, 202.1294
566.4829, 201.2054
566.9650, 200.3138
567.4471, 199.5937
567.9293, 198.9814
568.4114, 198.2752
568.8935, 197.4900
569.3756, 196.9089
569.8577, 196.8907
570.3398, 197.1158
570.8220, 197.0638
571.3041, 196.7253
571.7862, 196.1642
572.2683, 195.0791
572.7504, 193.9728
573.2325, 193.4184
573.7147, 193.8119
574.1968, 194.0189
574.6789, 193.2657
575.1610, 192.2111
575.6431, 191.6979
576.1252, 192.7532
576.6074, 193.2811
577.0895, 192.6528
577.5716, 191.2741
578.0537, 190.7432
578.5358, 191.3917
579.0179, 192.1225
579.5001, 192.5401
579.9822, 192.6555
580.4643, 192.5239
580.9464, 192.1030
581.4285, 191.7204
581.9106, 191.5627
582.3928, 191.6629
582.8749, 192.2899
583.3570, 193.6307
583.8391, 194.7585
584.3212, 194.5690
584.8033, 193.5784
585.2855, 192.6606
585.7676, 191.8943
586.2497, 191.5402
