##NAMES=Natrojarosite
##RRUFFID=R050471
##IDEAL CHEMISTRY=NaFe^3+^_3_(S^6+^O_4_)_2_(OH)_6_
##LOCALITY=Bristol mine, Pioche, Lincoln County, Nevada, USA
##OWNER=RRUFF
##SOURCE=Marcus Origlieri
##DESCRIPTION=Tan colored, fine-grained massive
##STATUS=The identification of this mineral has been confirmed by X-ray diffraction and chemical analysis
##URL=rruff.info/R050471
##MEASURED CHEMISTRY=(Na_0.60_K_0.30_Pb_0.10_)_Σ=1_(Fe^3+^_2.98_Al_0.02_)_Σ=3_((S_0.95_As_0.05_)_Σ=1_O_4_)_2_(OH)_6_
94.74744, 154.1557
95.22955, 153.2856
95.71167, 151.8238
96.19379, 150.3087
96.67590, 149.1791
97.15803, 147.7505
97.64014, 145.5858
98.12226, 143.1021
98.60438, 141.1017
99.08649, 140.0600
99.56861, 139.4053
100.0507, 138.2805
100.5328, 136.4796
101.0150, 134.2804
101.4971, 131.7142
101.9792, 128.7382
102.4613, 126.1089
102.9434, 124.2198
103.4255, 122.7065
103.9077, 121.3287
104.3898, 119.9881
104.8719, 118.7987
105.3540, 118.0824
105.8361, 118.3468
106.3182, 118.1623
106.8004, 116.8605
107.2825, 115.0896
107.7646, 113.6038
108.2467, 112.8716
108.7288, 112.8313
109.2109, 112.7266
109.6931, 112.4531
110.1752, 112.2130
110.6573, 111.9467
111.1394, 111.7340
111.6215, 111.7344
112.1037, 112.0666
112.5858, 112.7620
113.0679, 113.9209
113.5500, 115.7100
114.0321, 117.7820
114.5142, 119.7345
114.9964, 121.5057
115.4785, 123.6770
115.9606, 127.1920
116.4427, 131.9570
116.9248, 136.6220
117.4069, 140.7662
117.8891, 144.5983
118.3712, 148.7073
118.8533, 153.5188
119.3354, 158.0622
119.8175, 161.4841
120.2996, 163.8700
120.7818, 165.7878
121.2639, 167.6269
121.7460, 169.3940
122.2281, 170.8778
122.7102, 171.3629
123.1923, 172.0098
123.6745, 173.3671
124.1566, 175.5519
124.6387, 178.4192
125.1208, 181.8619
125.6029, 186.1822
126.0850, 190.4722
126.5672, 194.4611
127.0493, 198.4946
127.5314, 202.8094
128.0135, 207.5258
128.4956, 212.5668
128.9778, 217.8436
129.4599, 223.6502
129.9420, 229.3319
130.4241, 234.2149
130.9062, 239.0551
131.3883, 244.9520
131.8705, 252.5601
132.3526, 261.7200
132.8347, 271.5777
133.3168, 281.7932
133.7989, 292.8488
134.2810, 304.9481
134.7632, 318.1046
135.2453, 332.4568
135.7274, 348.9913
136.2095, 366.7502
136.6916, 382.4463
137.1737, 399.0183
137.6559, 411.6439
138.1380, 415.8306
138.6201, 411.3958
139.1022, 399.0838
139.5843, 375.1977
140.0664, 344.3024
140.5486, 312.0880
141.0307, 279.0875
141.5128, 246.5562
141.9949, 218.7482
142.4770, 196.5703
142.9591, 178.3579
143.4413, 163.4406
143.9234, 151.3593
144.4055, 141.2854
144.8876, 132.8618
145.3697, 126.1035
145.8518, 120.3276
146.3340, 116.3388
146.8161, 112.7232
147.2982, 108.9611
147.7803, 105.1726
148.2624, 101.8465
148.7445, 99.50667
149.2267, 98.45346
149.7088, 97.26041
150.1909, 95.88596
150.6730, 94.44155
151.1551, 92.89719
151.6372, 91.28790
152.1194, 89.79630
152.6015, 88.65240
153.0836, 88.03620
153.5657, 87.35188
154.0478, 86.62080
154.5300, 85.81135
155.0121, 84.81788
155.4942, 83.59629
155.9763, 82.39042
156.4584, 81.63674
156.9405, 81.35239
157.4227, 81.08534
157.9048, 80.69247
158.3869, 80.23342
158.8690, 79.83241
159.3511, 79.51926
159.8332, 79.28105
160.3154, 79.16659
160.7975, 79.19122
161.2796, 79.05036
161.7617, 78.41262
162.2438, 77.32462
162.7259, 76.45972
163.2081, 76.14818
163.6902, 75.98170
164.1723, 75.64224
164.6544, 75.09766
165.1365, 74.53687
165.6186, 74.16426
166.1008, 74.01649
166.5829, 73.90360
167.0650, 73.75361
167.5471, 73.65398
168.0292, 73.67879
168.5113, 73.84299
168.9935, 74.08691
169.4756, 74.31390
169.9577, 74.51270
170.4398, 74.71748
170.9219, 74.90244
171.4040, 75.10692
171.8862, 75.37326
172.3683, 75.71517
172.8504, 76.10046
173.3325, 76.45602
173.8146, 76.71988
174.2967, 77.02367
174.7789, 77.39616
175.2610, 77.80216
175.7431, 78.17985
176.2252, 78.50036
176.7073, 78.81032
177.1894, 79.26955
177.6716, 79.92211
178.1537, 80.64792
178.6358, 81.39473
179.1179, 82.20264
179.6000, 83.18860
180.0822, 84.44477
180.5643, 85.86548
181.0464, 87.10625
181.5285, 88.03064
182.0106, 89.02157
182.4927, 90.34333
182.9749, 91.92130
183.4570, 93.38755
183.9391, 94.43063
184.4212, 95.34970
184.9033, 96.72234
185.3854, 98.68214
185.8676, 100.8891
186.3497, 103.1326
186.8318, 105.4149
187.3139, 107.6541
187.7960, 109.7971
188.2781, 111.8851
188.7603, 113.8957
189.2424, 115.7525
189.7245, 117.7094
190.2066, 120.2700
190.6887, 123.7272
191.1708, 126.7201
191.6530, 128.1556
192.1351, 129.2059
192.6172, 130.8850
193.0993, 133.5724
193.5814, 136.9169
194.0635, 140.1274
194.5457, 142.7885
195.0278, 146.2063
195.5099, 151.3183
195.9920, 156.8816
196.4741, 161.5212
196.9562, 164.5764
197.4384, 166.7632
197.9205, 170.2334
198.4026, 176.1841
198.8847, 181.8608
199.3668, 186.5899
199.8489, 190.9752
200.3311, 195.7522
200.8132, 201.3023
201.2953, 207.4090
201.7774, 213.1473
202.2595, 217.8993
202.7417, 222.9807
203.2238, 228.6977
203.7059, 234.8080
204.1880, 241.0521
204.6701, 247.2740
205.1522, 253.4858
205.6344, 259.7188
206.1165, 266.2253
206.5986, 272.5515
207.0807, 278.5722
207.5628, 284.3507
208.0449, 290.0039
208.5271, 295.5788
209.0092, 301.0829
209.4913, 306.4428
209.9734, 311.2088
210.4555, 316.3728
210.9376, 322.4929
211.4198, 329.3055
211.9019, 336.0418
212.3840, 342.0117
212.8661, 347.8855
213.3482, 355.4203
213.8303, 365.2713
214.3125, 375.4947
214.7946, 384.7464
215.2767, 393.2916
215.7588, 402.3553
216.2409, 412.6541
216.7230, 423.7580
217.2052, 435.0427
217.6873, 446.8218
218.1694, 457.9477
218.6515, 467.4672
219.1336, 475.4492
219.6157, 482.7950
220.0979, 490.9856
220.5800, 497.7795
221.0621, 500.8949
221.5442, 499.8583
222.0263, 496.0092
222.5084, 490.7152
222.9906, 484.0494
223.4727, 474.8481
223.9548, 461.9495
224.4369, 446.6489
224.9190, 429.5099
225.4011, 410.4737
225.8833, 390.3563
226.3654, 369.4810
226.8475, 347.5507
227.3296, 326.7178
227.8117, 307.9772
228.2939, 290.1778
228.7760, 272.8004
229.2581, 255.6678
229.7402, 239.3233
230.2223, 224.4699
230.7044, 211.2016
231.1866, 199.0820
231.6687, 187.9493
232.1508, 177.9451
232.6329, 169.3869
233.1150, 162.2285
233.5971, 156.0446
234.0793, 150.2548
234.5614, 144.8408
235.0435, 139.9294
235.5256, 135.5500
236.0077, 131.5479
236.4898, 127.9071
236.9720, 124.6089
237.4541, 121.5521
237.9362, 118.6079
238.4183, 115.7836
238.9004, 113.1171
239.3825, 110.5705
239.8647, 108.1881
240.3468, 105.9904
240.8289, 103.9820
241.3110, 102.2081
241.7931, 100.7036
242.2752, 99.52399
242.7574, 98.53965
243.2395, 97.87691
243.7216, 97.28415
244.2037, 96.58920
244.6858, 95.78061
245.1679, 94.97785
245.6501, 94.33366
246.1322, 93.93430
246.6143, 93.31603
247.0964, 92.24330
247.5785, 91.15018
248.0606, 90.33975
248.5428, 89.82845
249.0249, 89.40781
249.5070, 88.86256
249.9891, 88.15351
250.4712, 87.67367
250.9533, 87.68847
251.4355, 87.71248
251.9176, 87.37133
252.3997, 86.67249
252.8818, 85.92768
253.3639, 85.40354
253.8461, 85.10693
254.3282, 84.73740
254.8103, 84.24482
255.2924, 83.72124
255.7745, 83.23750
256.2566, 82.79173
256.7387, 82.32681
257.2209, 81.76653
257.7030, 81.15340
258.1851, 80.70615
258.6672, 80.32525
259.1493, 80.18990
259.6314, 80.61935
260.1136, 81.53848
260.5957, 82.26733
261.0778, 82.35708
261.5599, 81.94930
262.0420, 81.61713
262.5241, 81.33082
263.0063, 81.15984
263.4884, 81.18452
263.9705, 81.38917
264.4526, 81.64324
264.9348, 81.90781
265.4169, 82.17287
265.8990, 82.42178
266.3811, 82.66235
266.8632, 82.87548
267.3453, 82.99645
267.8275, 83.04781
268.3096, 83.22546
268.7917, 83.68246
269.2738, 84.22898
269.7559, 84.57308
270.2380, 84.66439
270.7202, 84.80790
271.2023, 85.20521
271.6844, 85.83755
272.1665, 86.59422
272.6486, 87.48022
273.1307, 88.45779
273.6129, 89.43690
274.0950, 90.42514
274.5771, 91.55833
275.0592, 93.05529
275.5413, 94.83498
276.0234, 96.36002
276.5056, 97.31654
276.9877, 98.32784
277.4698, 100.0011
277.9519, 102.1976
278.4340, 104.2321
278.9161, 105.4153
279.3983, 106.0182
279.8804, 107.3544
280.3625, 109.8583
280.8446, 112.5544
281.3267, 114.9325
281.8088, 117.0250
282.2910, 118.9110
282.7731, 120.4993
283.2552, 121.9107
283.7373, 123.5697
284.2194, 125.6078
284.7015, 127.6513
285.1837, 129.5282
285.6658, 131.3096
286.1479, 133.0920
286.6300, 134.8631
287.1121, 136.7029
287.5942, 138.8510
288.0764, 141.5055
288.5585, 143.9990
289.0406, 145.8798
289.5227, 147.5695
290.0048, 149.5347
290.4869, 152.0118
290.9691, 154.6516
291.4512, 156.8684
291.9333, 158.5706
292.4154, 160.1275
292.8975, 161.4127
293.3796, 162.7225
293.8618, 164.3871
294.3439, 166.4895
294.8260, 168.5913
295.3081, 170.2595
295.7902, 171.5837
296.2723, 172.0363
296.7545, 170.5567
297.2366, 168.8374
297.7187, 168.0788
298.2008, 168.2718
298.6829, 168.2311
299.1650, 166.5928
299.6472, 163.1756
300.1293, 159.8503
300.6114, 157.2533
301.0935, 154.2674
301.5756, 150.2654
302.0577, 145.4063
302.5399, 140.2395
303.0220, 135.0656
303.5041, 129.9166
303.9862, 125.3319
304.4683, 121.7272
304.9504, 118.2469
305.4326, 114.4532
305.9147, 110.5609
306.3968, 106.9804
306.8789, 103.9780
307.3610, 101.4657
307.8431, 99.14491
308.3253, 97.13419
308.8074, 95.14179
309.2895, 92.94424
309.7716, 90.75652
310.2537, 88.86839
310.7358, 87.40443
311.2180, 86.25637
311.7001, 85.25790
312.1822, 84.58387
312.6643, 83.63550
313.1465, 81.86353
313.6286, 80.05318
314.1107, 78.93959
314.5928, 78.70266
315.0749, 78.75666
315.5570, 78.18227
316.0392, 76.69724
316.5213, 75.62062
317.0034, 75.59294
317.4855, 75.61342
317.9676, 75.04150
318.4497, 73.88799
318.9319, 72.69386
319.4140, 72.02084
319.8961, 71.92243
320.3782, 71.82743
320.8603, 71.90672
321.3424, 71.81509
321.8246, 71.24736
322.3067, 70.38548
322.7888, 69.67850
323.2709, 69.51807
323.7530, 69.80895
324.2351, 69.82450
324.7173, 69.24959
325.1994, 68.84188
325.6815, 68.93208
326.1636, 69.28764
326.6457, 69.60165
327.1278, 69.73655
327.6100, 69.71019
328.0921, 69.52663
328.5742, 69.04815
329.0563, 68.71450
329.5384, 68.80671
330.0205, 68.97191
330.5027, 68.81798
330.9848, 68.23551
331.4669, 67.63329
331.9490, 67.67270
332.4311, 68.55254
332.9132, 69.19934
333.3954, 69.20225
333.8775, 69.11530
334.3596, 69.21449
334.8417, 69.52221
335.3238, 69.91604
335.8059, 70.31589
336.2881, 70.72403
336.7702, 71.04417
337.2523, 71.13156
337.7344, 71.29514
338.2165, 71.66658
338.6986, 72.21703
339.1808, 72.88284
339.6629, 73.68532
340.1450, 74.55785
340.6271, 75.22321
341.1092, 75.52351
341.5913, 75.92058
342.0735, 76.61427
342.5556, 77.48320
343.0377, 78.36337
343.5198, 79.16439
344.0019, 80.04537
344.4840, 81.33793
344.9662, 83.18208
345.4483, 84.85830
345.9304, 85.94576
346.4125, 86.90339
346.8946, 87.98996
347.3767, 89.25687
347.8589, 90.71586
348.3410, 92.52718
348.8231, 94.68031
349.3052, 96.44779
349.7873, 97.51027
350.2694, 98.40102
350.7516, 99.60496
351.2337, 101.0126
351.7158, 102.1207
352.1979, 102.4496
352.6800, 102.2387
353.1621, 102.3158
353.6443, 102.8503
354.1264, 103.3115
354.6085, 103.4164
355.0906, 103.2468
355.5727, 102.8663
356.0548, 102.1674
356.5370, 101.4219
357.0191, 101.0571
357.5012, 101.1167
357.9833, 101.0985
358.4654, 100.7678
358.9475, 100.2630
359.4297, 99.74291
359.9118, 99.21548
360.3939, 98.69327
360.8760, 98.31040
361.3581, 97.98771
361.8402, 97.29550
362.3224, 96.08342
362.8045, 94.54471
363.2866, 92.80599
363.7687, 90.89462
364.2509, 89.04655
364.7330, 87.45547
365.2151, 85.94791
365.6972, 84.21516
366.1793, 82.20259
366.6614, 80.08712
367.1436, 77.88569
367.6257, 75.68147
368.1078, 73.74395
368.5899, 72.38213
369.0720, 71.05836
369.5541, 69.20550
370.0363, 66.92104
370.5184, 64.89457
371.0005, 63.50812
371.4826, 62.53343
371.9647, 61.43171
372.4468, 60.16979
372.9290, 58.89523
373.4111, 57.59930
373.8932, 56.34105
374.3753, 55.28524
374.8574, 54.49359
375.3395, 53.78919
375.8217, 52.92625
376.3038, 51.86946
376.7859, 50.99325
377.2680, 50.33205
377.7501, 49.86591
378.2322, 49.67843
378.7144, 49.72743
379.1965, 49.72318
379.6786, 49.43392
380.1607, 48.88749
380.6428, 48.43103
381.1249, 48.22087
381.6071, 47.92029
382.0892, 47.24076
382.5713, 46.40507
383.0534, 45.84574
383.5355, 45.75261
384.0176, 45.98119
384.4998, 46.23333
384.9819, 46.66574
385.4640, 46.84682
385.9461, 46.65932
386.4282, 46.28317
386.9103, 45.74406
387.3925, 45.11332
387.8746, 44.65767
388.3567, 44.70930
388.8388, 45.37311
389.3209, 45.78393
389.8030, 45.72255
390.2852, 45.67778
390.7673, 45.94594
391.2494, 46.36610
391.7315, 46.55408
392.2136, 46.26059
392.6957, 45.66548
393.1779, 45.46886
393.6600, 45.92789
394.1421, 46.45750
394.6242, 47.15643
395.1063, 47.81321
395.5884, 48.18541
396.0706, 48.23651
396.5527, 48.18028
397.0348, 48.27773
397.5169, 48.52903
397.9990, 48.93203
398.4811, 49.67290
398.9633, 50.39561
399.4454, 50.91597
399.9275, 51.29609
400.4096, 51.73562
400.8917, 52.40322
401.3738, 53.21706
401.8560, 53.79568
402.3381, 53.96581
402.8202, 54.23003
403.3023, 54.74784
403.7844, 55.42153
404.2665, 56.17950
404.7487, 57.00643
405.2308, 57.84995
405.7129, 58.59544
406.1950, 59.23321
406.6771, 60.04612
407.1592, 61.17644
407.6414, 62.40618
408.1235, 63.54363
408.6056, 64.61522
409.0877, 65.78524
409.5698, 67.21092
410.0519, 68.78596
410.5341, 70.21391
411.0162, 71.39913
411.4983, 72.75920
411.9804, 74.62146
412.4626, 76.81351
412.9447, 79.04182
413.4268, 81.21014
413.9089, 83.48913
414.3910, 86.05716
414.8731, 88.86332
415.3553, 91.65455
415.8374, 94.32877
416.3195, 96.99032
416.8016, 99.74782
417.2837, 102.5676
417.7658, 105.6595
418.2480, 109.2257
418.7301, 113.0126
419.2122, 116.6295
419.6943, 120.0618
420.1764, 123.8809
420.6585, 128.6271
421.1407, 134.2187
421.6228, 139.3775
422.1049, 143.6724
422.5870, 148.1051
423.0691, 153.0299
423.5512, 158.3659
424.0334, 163.9743
424.5155, 169.7673
424.9976, 175.8483
425.4797, 182.3642
425.9618, 189.4537
426.4439, 196.7539
426.9261, 204.5425
427.4082, 212.3516
427.8903, 219.7151
428.3724, 226.7444
428.8545, 233.9762
429.3366, 241.9146
429.8188, 250.5661
430.3009, 258.9706
430.7830, 267.2688
431.2651, 275.1890
431.7472, 282.7671
432.2293, 289.9042
432.7115, 296.3838
433.1936, 302.1279
433.6757, 307.2455
434.1578, 311.8633
434.6399, 315.9775
435.1220, 319.5514
435.6042, 322.4459
436.0863, 324.8520
436.5684, 326.8580
437.0505, 328.4342
437.5326, 329.4618
438.0147, 329.6937
438.4969, 329.3522
438.9790, 329.2557
439.4611, 329.5423
439.9432, 329.7231
440.4253, 329.9438
440.9074, 329.8001
441.3896, 328.7778
441.8717, 326.7229
442.3538, 324.0769
442.8359, 321.2057
443.3180, 318.0730
443.8001, 314.5546
444.2823, 310.4907
444.7644, 306.2498
445.2465, 302.1150
445.7286, 298.0587
446.2107, 294.1705
446.6928, 290.7634
447.1750, 287.3338
447.6571, 283.1456
448.1392, 278.3150
448.6213, 273.9089
449.1034, 270.5699
449.5855, 267.9892
450.0677, 265.4008
450.5498, 263.2277
451.0319, 260.2244
451.5140, 256.2021
451.9961, 251.1209
452.4782, 244.9010
452.9604, 237.5350
453.4425, 229.2052
453.9246, 220.0410
454.4067, 209.9970
454.8888, 199.5258
455.3709, 187.9130
455.8531, 176.7851
456.3352, 166.6777
456.8173, 157.4899
457.2994, 148.8640
457.7815, 140.6687
458.2636, 133.0577
458.7458, 126.3174
459.2279, 120.5310
459.7100, 115.5015
460.1921, 111.4833
460.6742, 107.8811
461.1564, 104.2306
461.6385, 100.6311
462.1206, 97.64458
462.6027, 95.86173
463.0848, 95.01269
463.5670, 93.62153
464.0491, 91.28017
464.5312, 89.24752
465.0133, 87.95940
465.4954, 87.16569
465.9775, 86.77791
466.4597, 86.81286
466.9418, 86.72963
467.4239, 85.78696
467.9060, 84.16451
468.3881, 83.12535
468.8702, 83.05177
469.3524, 83.19265
469.8345, 82.94787
470.3166, 82.41354
470.7987, 81.83267
471.2808, 81.11230
471.7629, 80.49055
472.2451, 80.35256
472.7272, 80.57395
473.2093, 80.51171
473.6914, 79.88322
474.1735, 78.86039
474.6556, 77.69915
475.1378, 76.31919
475.6199, 75.09026
476.1020, 74.26366
476.5841, 73.47440
477.0662, 72.32766
477.5483, 70.85073
478.0305, 69.40733
478.5126, 68.31687
478.9947, 67.50015
479.4768, 66.30374
479.9589, 64.27039
480.4410, 62.39181
480.9232, 60.91323
481.4053, 59.58534
481.8874, 58.12907
482.3695, 56.48492
482.8516, 54.85355
483.3337, 53.49128
483.8159, 52.43260
484.2980, 51.34509
484.7801, 50.07241
485.2622, 48.95928
485.7443, 48.23114
486.2264, 47.71489
486.7086, 47.11597
487.1907, 46.28739
487.6728, 45.41632
488.1549, 44.75520
488.6370, 44.31087
489.1191, 44.00718
489.6013, 43.99633
490.0834, 43.92445
490.5655, 43.41854
491.0476, 42.54224
491.5297, 41.73948
492.0118, 41.26421
492.4940, 40.91532
492.9761, 40.38549
493.4582, 39.68406
493.9403, 39.16404
494.4224, 39.08095
494.9045, 39.22587
495.3867, 39.01968
495.8688, 38.23066
496.3509, 37.72173
496.8330, 37.98125
497.3151, 38.45311
497.7972, 38.53865
498.2794, 38.18135
498.7615, 37.67090
499.2436, 37.24054
499.7257, 36.88831
500.2078, 36.55239
500.6899, 36.20778
501.1721, 35.90979
501.6542, 35.63078
502.1363, 35.42163
502.6184, 35.38737
503.1005, 35.53286
503.5826, 35.68083
504.0648, 35.56569
504.5469, 35.14174
505.0290, 34.91732
505.5111, 34.97263
505.9932, 35.14299
506.4753, 35.52925
506.9575, 35.93728
507.4396, 36.02728
507.9217, 35.61534
508.4038, 35.05018
508.8859, 34.69776
509.3680, 34.55862
509.8502, 34.68261
510.3323, 35.20632
510.8144, 35.79627
511.2965, 36.15432
511.7787, 36.30243
512.2607, 36.31017
512.7429, 36.11106
513.2250, 35.84454
513.7071, 35.53748
514.1892, 35.24381
514.6713, 35.20903
515.1534, 35.59171
515.6356, 36.14529
516.1177, 36.37037
516.5998, 36.05640
517.0819, 35.88293
517.5640, 35.86627
518.0461, 35.99633
518.5283, 36.34269
519.0104, 36.84023
519.4925, 37.32241
519.9746, 37.68716
520.4567, 37.93449
520.9388, 38.04509
521.4210, 37.88399
521.9031, 37.84026
522.3852, 38.04528
522.8673, 38.30180
523.3494, 38.40564
523.8315, 38.39050
524.3137, 38.51825
524.7958, 39.06457
525.2779, 39.90143
525.7600, 40.59159
526.2421, 41.13420
526.7242, 41.52405
527.2064, 41.62187
527.6885, 41.63527
528.1706, 41.82791
528.6527, 42.23528
529.1348, 42.72339
529.6169, 43.18358
530.0991, 43.69684
530.5812, 44.48177
531.0633, 45.55768
531.5454, 46.53881
532.0275, 47.10674
532.5096, 47.33599
532.9918, 47.73220
533.4739, 48.37936
533.9560, 49.05265
534.4381, 49.74276
534.9202, 50.41679
535.4024, 50.99831
535.8845, 51.49464
536.3666, 52.04137
536.8488, 52.76831
537.3309, 53.67619
537.8130, 54.69584
538.2951, 56.11067
538.7772, 57.25410
539.2593, 57.74105
539.7415, 58.01600
540.2236, 58.54436
540.7057, 59.44500
541.1878, 60.52087
541.6699, 61.61922
542.1520, 62.73132
542.6342, 63.81430
543.1163, 64.86229
543.5984, 65.88107
544.0805, 66.79313
544.5626, 67.68963
545.0447, 68.76456
545.5269, 70.12889
546.0090, 71.50645
546.4911, 72.79522
546.9732, 73.98054
547.4553, 74.94874
547.9374, 75.68241
548.4196, 76.47314
548.9017, 77.60130
549.3838, 79.07597
549.8659, 80.66203
550.3480, 82.67346
550.8301, 84.41283
551.3123, 85.47184
551.7944, 86.24441
552.2765, 87.22350
552.7586, 88.53244
553.2407, 89.94326
553.7228, 91.17003
554.2050, 92.19987
554.6871, 93.27443
555.1692, 94.34576
555.6513, 95.53756
556.1334, 97.04399
556.6155, 98.61445
557.0977, 99.91679
557.5798, 100.8441
558.0619, 101.6419
558.5440, 102.5079
559.0261, 103.4232
559.5082, 104.4061
559.9904, 105.5288
560.4725, 106.3779
560.9546, 106.5092
561.4367, 106.0621
561.9188, 105.8500
562.4009, 105.8947
562.8831, 106.1561
563.3652, 107.0461
563.8473, 107.9712
564.3294, 107.9586
564.8115, 106.8727
565.2936, 105.5437
565.7758, 104.8307
566.2579, 104.7343
566.7400, 104.2497
567.2221, 103.1443
567.7042, 101.9001
568.1863, 100.5890
568.6685, 99.18656
569.1506, 97.65714
569.6327, 96.00420
570.1148, 94.27361
570.5969, 92.47531
571.0790, 90.62988
571.5612, 88.92252
572.0433, 87.42522
572.5254, 85.85421
573.0075, 84.05744
573.4896, 82.10110
573.9717, 80.00073
574.4539, 77.66150
574.9360, 75.56316
575.4181, 74.19265
575.9002, 73.07908
576.3823, 71.51784
576.8644, 69.45325
577.3466, 67.32493
577.8287, 65.42681
578.3108, 63.73028
578.7929, 62.09602
579.2750, 60.58012
579.7571, 59.04960
580.2393, 57.47418
580.7214, 55.90896
581.2035, 54.36855
581.6856, 52.87700
582.1677, 51.44088
582.6498, 50.04311
583.1320, 48.74009
583.6141, 47.82449
584.0962, 47.45945
584.5783, 46.90324
585.0604, 45.17019
585.5425, 45.04447
586.0247, 44.64366
586.5068, 43.98492
586.9889, 42.19318
587.4710, 41.94186
587.9531, 41.12058
588.4352, 40.30845
588.9174, 40.37049
