##NAMES=Natrojarosite
##RRUFFID=R050471
##IDEAL CHEMISTRY=NaFe^3+^_3_(S^6+^O_4_)_2_(OH)_6_
##LOCALITY=Bristol mine, Pioche, Lincoln County, Nevada, USA
##OWNER=RRUFF
##SOURCE=Marcus Origlieri
##DESCRIPTION=Tan colored, fine-grained massive
##STATUS=The identification of this mineral has been confirmed by X-ray diffraction and chemical analysis
##URL=rruff.info/R050471
##MEASURED CHEMISTRY=(Na_0.60_K_0.30_Pb_0.10_)_Σ=1_(Fe^3+^_2.98_Al_0.02_)_Σ=3_((S_0.95_As_0.05_)_Σ=1_O_4_)_2_(OH)_6_
91.00781, 10.33836
91.48993, 10.79327
91.97205, 10.97549
92.45416, 10.61380
92.93628, 9.991171
93.41840, 9.759186
93.90051, 10.10016
94.38263, 10.72976
94.86475, 11.17484
95.34686, 11.43788
95.82898, 11.75970
96.31110, 12.37665
96.79321, 13.26230
97.27533, 14.11978
97.75745, 14.86917
98.23956, 15.53276
98.72168, 16.12154
99.20380, 16.57649
99.68591, 17.12217
100.1680, 17.99331
100.6501, 19.19674
101.1323, 20.66339
101.6144, 22.43450
102.0965, 24.54431
102.5786, 26.48631
103.0607, 28.10323
103.5428, 29.70459
104.0250, 31.89600
104.5071, 34.96281
104.9892, 38.10777
105.4713, 40.96062
105.9534, 43.14770
106.4355, 45.86883
106.9177, 49.49788
107.3998, 53.67529
107.8819, 57.39431
108.3640, 60.34411
108.8461, 63.04243
109.3282, 65.76299
109.8104, 68.60258
110.2925, 71.29295
110.7746, 73.35416
111.2567, 74.96822
111.7388, 77.66673
112.2209, 82.40824
112.7031, 87.82381
113.1852, 93.02469
113.6673, 97.02925
114.1494, 101.5355
114.6315, 107.0698
115.1136, 113.7151
115.5958, 120.7648
116.0779, 127.9450
116.5600, 135.4342
117.0421, 143.3974
117.5242, 152.0499
118.0063, 161.1628
118.4885, 170.8786
118.9706, 181.3320
119.4527, 191.6785
119.9348, 201.5777
120.4169, 211.0051
120.8990, 220.0719
121.3812, 228.5704
121.8633, 236.7929
122.3454, 245.0977
122.8275, 253.9305
123.3096, 262.0165
123.7917, 267.6548
124.2739, 271.3898
124.7560, 275.2197
125.2381, 280.1205
125.7202, 286.0360
126.2023, 292.7782
126.6844, 300.3411
127.1666, 308.7403
127.6487, 317.9126
128.1308, 327.9190
128.6129, 338.9124
129.0950, 351.0432
129.5771, 364.3418
130.0593, 378.9372
130.5414, 394.4514
131.0235, 411.3135
131.5056, 429.9352
131.9877, 448.4275
132.4698, 467.0629
132.9520, 488.8255
133.4341, 513.5826
133.9162, 539.5922
134.3983, 567.0997
134.8804, 595.5566
135.3625, 622.3732
135.8447, 648.8477
136.3268, 671.1313
136.8089, 685.7516
137.2910, 693.6770
137.7731, 689.9851
138.2552, 671.3297
138.7374, 636.6563
139.2195, 596.8370
139.7016, 549.3353
140.1837, 498.5453
140.6658, 453.9694
141.1479, 415.2436
141.6301, 382.1493
142.1122, 354.5470
142.5943, 333.1346
143.0764, 314.7436
143.5585, 299.1349
144.0406, 286.2643
144.5228, 275.6547
145.0049, 268.0883
145.4870, 261.8571
145.9691, 256.1431
146.4512, 250.7983
146.9333, 246.1001
147.4155, 242.2886
147.8976, 239.2245
148.3797, 235.8960
148.8618, 231.1687
149.3439, 226.2733
149.8260, 225.7941
150.3082, 224.9447
150.7903, 223.7454
151.2724, 221.1473
151.7545, 220.3555
152.2366, 218.8398
152.7188, 217.2942
153.2009, 216.7566
153.6830, 214.3619
154.1651, 213.8083
154.6472, 212.5198
155.1293, 211.5677
155.6115, 209.8869
156.0936, 208.4314
156.5757, 207.7045
157.0578, 206.5741
157.5399, 204.8098
158.0220, 203.8790
158.5042, 201.4587
158.9863, 200.3455
159.4684, 199.7962
159.9505, 198.0685
160.4326, 197.1510
160.9147, 195.6932
161.3969, 195.2137
161.8790, 195.5779
162.3611, 195.8951
162.8432, 195.5363
163.3253, 194.1065
163.8074, 192.9878
164.2896, 193.1623
164.7717, 194.0917
165.2538, 194.7044
165.7359, 193.8391
166.2180, 192.8554
166.7001, 192.9230
167.1823, 194.7171
167.6644, 196.5148
168.1465, 197.0139
168.6286, 196.6054
169.1107, 196.3907
169.5928, 197.1267
170.0750, 198.2983
170.5571, 199.3759
171.0392, 200.1529
171.5213, 200.9371
172.0034, 201.9830
172.4855, 203.2659
172.9677, 204.6411
173.4498, 205.9311
173.9319, 207.2891
174.4140, 208.9646
174.8961, 211.2215
175.3782, 213.5960
175.8604, 215.4789
176.3425, 216.9578
176.8246, 218.6785
177.3067, 221.3749
177.7888, 224.6790
178.2709, 227.7633
178.7531, 230.1586
179.2352, 232.4294
179.7173, 235.2835
180.1994, 238.7298
180.6815, 242.8677
181.1636, 248.2602
181.6458, 254.5015
182.1279, 260.1667
182.6100, 264.4453
183.0921, 268.0475
183.5742, 272.5952
184.0563, 278.0361
184.5385, 283.8746
185.0206, 289.2623
185.5027, 294.4571
185.9848, 300.4640
186.4669, 308.1849
186.9490, 316.9290
187.4312, 324.7741
187.9133, 331.4601
188.3954, 338.0458
188.8775, 345.7595
189.3596, 354.4476
189.8417, 363.0487
190.3239, 370.9590
190.8060, 378.3953
191.2881, 385.9757
191.7702, 393.5553
192.2523, 401.5241
192.7344, 410.6533
193.2166, 420.9068
193.6987, 431.2248
194.1808, 441.3102
194.6629, 451.1458
195.1450, 460.7086
195.6271, 469.6581
196.1093, 479.1991
196.5914, 491.4676
197.0735, 506.6529
197.5556, 522.1733
198.0377, 536.8730
198.5198, 550.8698
199.0020, 564.9928
199.4841, 579.2297
199.9662, 593.6467
200.4483, 608.4424
200.9304, 623.5117
201.4125, 639.5539
201.8947, 657.2504
202.3768, 676.7783
202.8589, 695.6302
203.3410, 713.6364
203.8231, 731.2515
204.3052, 748.9818
204.7874, 766.9160
205.2695, 785.0020
205.7516, 803.0649
206.2337, 820.9711
206.7158, 839.9313
207.1979, 860.3715
207.6801, 881.5566
208.1622, 901.3906
208.6443, 919.4288
209.1264, 937.8494
209.6085, 957.5784
210.0906, 978.6785
210.5728, 1000.857
211.0549, 1023.802
211.5370, 1047.917
212.0191, 1073.554
212.5012, 1101.093
212.9833, 1129.733
213.4655, 1159.033
213.9476, 1189.483
214.4297, 1219.615
214.9118, 1250.225
215.3939, 1280.041
215.8760, 1306.916
216.3581, 1330.822
216.8403, 1351.384
217.3224, 1368.500
217.8045, 1383.057
218.2866, 1391.827
218.7687, 1394.667
219.2508, 1391.606
219.7330, 1382.673
220.2151, 1367.826
220.6972, 1347.196
221.1793, 1320.922
221.6614, 1288.230
222.1435, 1251.135
222.6257, 1208.484
223.1078, 1161.755
223.5899, 1113.488
224.0720, 1062.217
224.5541, 1011.570
225.0362, 962.0845
225.5184, 913.9173
226.0005, 867.4715
226.4826, 822.0035
226.9647, 778.3604
227.4468, 737.4382
227.9289, 699.4407
228.4111, 664.3367
228.8932, 632.2831
229.3753, 604.1111
229.8574, 577.1082
230.3395, 550.9426
230.8216, 526.2271
231.3038, 504.3494
231.7859, 486.3691
232.2680, 469.8910
232.7501, 453.7300
233.2322, 437.0364
233.7143, 422.7033
234.1965, 411.3959
234.6786, 402.2320
235.1607, 392.5172
235.6428, 381.3411
236.1249, 370.9231
236.6070, 362.3289
237.0892, 356.3339
237.5713, 350.4148
238.0534, 344.3151
238.5355, 338.3543
239.0176, 333.4821
239.4997, 330.4048
239.9819, 327.3043
240.4640, 323.3414
240.9461, 317.8318
241.4282, 313.0522
241.9103, 309.2531
242.3924, 306.1079
242.8746, 302.7738
243.3567, 298.8210
243.8388, 295.3416
244.3209, 292.8906
244.8030, 292.0688
245.2851, 290.7303
245.7673, 288.6638
246.2494, 286.1722
246.7315, 283.8763
247.2136, 281.7274
247.6957, 279.8551
248.1778, 278.3622
248.6600, 277.4401
249.1421, 276.3553
249.6242, 275.0897
250.1063, 273.6639
250.5884, 272.0659
251.0705, 270.0617
251.5527, 268.2721
252.0348, 266.9566
252.5169, 266.2007
252.9990, 265.5935
253.4811, 265.2731
253.9632, 265.0016
254.4454, 264.3434
254.9275, 263.1245
255.4096, 261.8370
255.8917, 260.5940
256.3738, 259.3575
256.8560, 258.3771
257.3381, 257.6493
257.8202, 257.1729
258.3023, 256.9914
258.7844, 257.2838
259.2665, 257.4824
259.7487, 257.3425
260.2308, 256.7709
260.7129, 256.5607
261.1950, 256.8965
261.6771, 257.3907
262.1592, 257.4734
262.6414, 256.9543
263.1235, 256.5031
263.6056, 256.3280
264.0877, 256.4474
264.5698, 256.4786
265.0519, 256.2099
265.5341, 256.1392
266.0162, 257.0468
266.4983, 259.3906
266.9804, 261.2511
267.4625, 261.9366
267.9446, 261.4701
268.4268, 261.8202
268.9089, 263.1700
269.3910, 264.9983
269.8731, 266.8458
270.3552, 268.7199
270.8373, 270.5169
271.3195, 272.1527
271.8016, 273.6629
272.2837, 275.4633
272.7658, 277.5459
273.2479, 279.9911
273.7300, 283.0313
274.2122, 286.7690
274.6943, 290.3860
275.1764, 293.6522
275.6585, 296.6534
276.1406, 299.7206
276.6227, 302.7407
277.1049, 306.2072
277.5870, 310.7797
278.0691, 316.5926
278.5512, 321.9257
279.0333, 326.3351
279.5154, 330.1675
279.9976, 334.5428
280.4797, 339.5107
280.9618, 344.8301
281.4439, 350.5844
281.9260, 356.7534
282.4081, 362.7100
282.8903, 368.2603
283.3724, 373.6748
283.8545, 379.6718
284.3366, 386.2969
284.8187, 393.0424
285.3008, 399.5552
285.7830, 405.8959
286.2651, 412.0236
286.7472, 417.8924
287.2293, 423.7143
287.7114, 429.9146
288.1935, 436.4890
288.6757, 443.1457
289.1578, 449.6611
289.6399, 456.1045
290.1220, 462.6536
290.6041, 469.4962
291.0862, 475.9849
291.5684, 480.8537
292.0505, 484.2873
292.5326, 487.8188
293.0147, 492.8247
293.4968, 498.5400
293.9789, 502.8655
294.4611, 505.6858
294.9432, 507.2722
295.4253, 507.7504
295.9074, 507.1901
296.3895, 505.8968
296.8716, 504.3392
297.3538, 502.0540
297.8359, 498.1945
298.3180, 492.7329
298.8001, 485.6911
299.2822, 476.2621
299.7643, 465.0996
300.2465, 454.0712
300.7286, 444.1448
301.2107, 434.5322
301.6928, 423.8048
302.1749, 412.1242
302.6570, 400.4846
303.1392, 389.8144
303.6213, 379.7772
304.1034, 370.0287
304.5855, 360.2326
305.0676, 350.8205
305.5497, 341.9141
306.0319, 333.5777
306.5140, 325.6839
306.9961, 318.0424
307.4782, 310.9537
307.9603, 304.7916
308.4424, 300.0470
308.9246, 295.5839
309.4067, 290.3172
309.8888, 284.5981
310.3709, 279.3308
310.8530, 275.2540
311.3351, 271.7616
311.8173, 268.3426
312.2994, 264.8233
312.7815, 261.5361
313.2636, 258.8009
313.7457, 256.4529
314.2278, 254.1782
314.7100, 251.9079
315.1921, 249.6557
315.6742, 247.4367
316.1563, 245.2685
316.6384, 243.0863
317.1205, 240.7151
317.6027, 238.3917
318.0848, 236.4301
318.5669, 235.1459
319.0490, 234.0461
319.5311, 233.0300
320.0132, 232.0974
320.4954, 230.9610
320.9775, 229.2617
321.4596, 227.4627
321.9417, 225.9831
322.4238, 225.2303
322.9059, 224.4663
323.3881, 223.5285
323.8702, 222.4310
324.3523, 221.2855
324.8344, 219.7819
325.3165, 218.4534
325.7986, 217.6007
326.2808, 217.7613
326.7629, 217.7967
327.2450, 217.5947
327.7271, 217.2049
328.2092, 216.8213
328.6913, 216.5277
329.1735, 216.1687
329.6556, 215.6522
330.1377, 214.7533
330.6198, 214.1196
331.1019, 213.7937
331.5840, 213.7181
332.0662, 213.7991
332.5483, 214.1613
333.0304, 214.4953
333.5125, 214.6750
333.9946, 214.6521
334.4767, 214.7243
334.9589, 214.8854
335.4410, 215.1438
335.9231, 215.5636
336.4052, 216.2788
336.8873, 216.7462
337.3694, 216.5305
337.8516, 215.7375
338.3336, 216.5028
338.8158, 219.3665
339.2979, 222.6592
339.7800, 224.8230
340.2621, 225.6522
340.7442, 226.7101
341.2263, 228.3256
341.7085, 230.3093
342.1906, 231.7584
342.6727, 232.5381
343.1548, 233.7079
343.6369, 236.2607
344.1190, 240.0789
344.6012, 243.5737
345.0833, 246.4453
345.5654, 249.1281
346.0475, 252.6187
346.5296, 256.8301
347.0117, 260.6561
347.4939, 263.1705
347.9760, 264.7671
348.4581, 266.8540
348.9402, 269.5839
349.4223, 272.2494
349.9044, 274.1893
350.3866, 275.4611
350.8687, 276.2887
351.3508, 276.3844
351.8329, 276.2679
352.3150, 276.9782
352.7971, 278.4868
353.2793, 279.7218
353.7614, 279.5489
354.2435, 278.6196
354.7256, 278.0075
355.2077, 278.2099
355.6898, 278.6028
356.1720, 278.9178
356.6541, 279.0451
357.1362, 278.5429
357.6183, 276.4930
358.1004, 274.0510
358.5826, 272.4055
359.0647, 272.2238
359.5468, 271.6993
360.0289, 269.6450
360.5110, 266.5775
360.9931, 263.4673
361.4753, 260.7149
361.9574, 258.0365
362.4395, 255.3330
362.9216, 252.6127
363.4037, 249.7546
363.8858, 246.8115
364.3680, 243.6817
364.8501, 240.2440
365.3322, 236.3651
365.8143, 232.3393
366.2964, 228.0798
366.7785, 223.5889
367.2607, 219.5128
367.7428, 216.2078
368.2249, 213.1077
368.7070, 209.8491
369.1891, 205.6990
369.6712, 202.4085
370.1534, 200.4428
370.6355, 199.3674
371.1176, 197.8138
371.5997, 195.4156
372.0818, 192.9975
372.5639, 190.8787
373.0461, 189.1477
373.5282, 187.3755
374.0103, 185.5245
374.4924, 183.6254
374.9745, 181.6772
375.4566, 179.5247
375.9388, 177.7880
376.4209, 176.8053
376.9030, 176.5034
377.3851, 175.7959
377.8672, 174.5596
378.3493, 173.2966
378.8315, 172.5497
379.3136, 172.3252
379.7957, 172.0845
380.2778, 171.7457
380.7599, 171.3152
381.2420, 170.7320
381.7242, 170.0056
382.2063, 169.3467
382.6884, 168.8569
383.1705, 168.5419
383.6526, 168.4624
384.1347, 168.6372
384.6169, 168.9756
385.0990, 169.4553
385.5811, 170.0213
386.0632, 170.4789
386.5453, 170.5341
387.0274, 170.5210
387.5096, 170.9191
387.9917, 171.7296
388.4738, 172.6646
388.9559, 173.6520
389.4380, 174.5702
389.9201, 175.2234
390.4023, 175.0853
390.8844, 175.2002
391.3665, 176.4586
391.8486, 178.6183
392.3307, 180.7460
392.8128, 182.4143
393.2950, 183.8801
393.7771, 185.3447
394.2592, 186.8848
394.7413, 188.2822
395.2234, 189.1802
395.7055, 189.9333
396.1877, 191.0912
396.6698, 193.2676
397.1519, 195.3938
397.6340, 196.9606
398.1161, 197.8164
398.5982, 199.3808
399.0804, 202.5807
399.5625, 206.0216
400.0446, 208.6684
400.5267, 209.6042
401.0088, 211.1088
401.4909, 213.4844
401.9731, 216.5774
402.4552, 219.7185
402.9373, 222.7958
403.4194, 226.1099
403.9015, 229.8816
404.3836, 234.2911
404.8658, 238.3859
405.3479, 241.9289
405.8300, 245.4175
406.3121, 249.6927
406.7942, 254.8415
407.2763, 260.1432
407.7585, 265.3480
408.2406, 270.5288
408.7227, 275.7772
409.2048, 280.9908
409.6869, 286.8752
410.1690, 294.3987
410.6512, 303.2044
411.1333, 311.8264
411.6154, 319.8342
412.0975, 327.8462
412.5796, 336.9246
413.0617, 346.9655
413.5439, 357.5750
414.0260, 368.5832
414.5081, 380.1346
414.9902, 392.2314
415.4723, 404.9191
415.9544, 418.3645
416.4366, 432.7021
416.9187, 447.7847
417.4008, 463.3247
417.8829, 479.2177
418.3650, 495.6665
418.8471, 512.8933
419.3293, 530.7919
419.8114, 549.7261
420.2935, 569.4016
420.7756, 590.3837
421.2577, 612.6253
421.7398, 636.9309
422.2220, 661.6225
422.7041, 686.0869
423.1862, 710.9105
423.6683, 737.2074
424.1504, 765.7972
424.6325, 795.6653
425.1147, 826.5466
425.5968, 859.0131
426.0789, 890.8575
426.5610, 921.4037
427.0431, 951.9608
427.5252, 983.3268
428.0074, 1015.889
428.4895, 1048.456
428.9716, 1081.075
429.4537, 1113.098
429.9358, 1141.946
430.4179, 1167.212
430.9001, 1190.456
431.3822, 1212.703
431.8643, 1233.999
432.3464, 1251.012
432.8285, 1263.352
433.3106, 1272.674
433.7928, 1280.840
434.2749, 1287.802
434.7570, 1293.191
435.2391, 1297.015
435.7212, 1299.106
436.2033, 1299.009
436.6855, 1296.785
437.1676, 1292.942
437.6497, 1287.234
438.1318, 1280.333
438.6139, 1273.716
439.0960, 1268.223
439.5782, 1260.803
440.0603, 1248.087
440.5424, 1231.666
441.0245, 1214.743
441.5066, 1199.447
441.9887, 1183.252
442.4709, 1164.459
442.9530, 1143.079
443.4351, 1120.798
443.9172, 1098.140
444.3993, 1075.009
444.8814, 1051.594
445.3636, 1026.116
445.8457, 1002.505
446.3278, 982.1520
446.8099, 964.1487
447.2920, 945.6669
447.7741, 925.4684
448.2563, 905.9940
448.7384, 888.7164
449.2205, 873.9359
449.7026, 857.6320
450.1847, 839.6008
450.6668, 820.5723
451.1490, 801.4265
451.6311, 782.4307
452.1132, 761.9925
452.5953, 739.3648
453.0774, 715.4033
453.5595, 690.9661
454.0417, 665.8768
454.5238, 641.0532
455.0059, 616.2935
455.4880, 592.0067
455.9701, 569.0084
456.4522, 547.3997
456.9344, 527.3582
457.4165, 509.2667
457.8986, 492.8275
458.3807, 477.8190
458.8628, 464.2729
459.3449, 451.7855
459.8271, 439.4891
460.3092, 427.6154
460.7913, 416.9121
461.2734, 407.4777
461.7555, 399.6395
462.2376, 393.9552
462.7198, 390.9748
463.2019, 388.1622
463.6840, 384.2108
464.1661, 379.8413
464.6482, 375.9253
465.1303, 372.3737
465.6125, 369.6204
466.0946, 368.2398
466.5767, 368.0255
467.0588, 367.2177
467.5409, 365.4296
468.0230, 363.2499
468.5052, 360.8523
468.9873, 357.9400
469.4694, 355.5752
469.9515, 353.9186
470.4336, 352.6820
470.9157, 351.5787
471.3979, 350.8300
471.8800, 349.4881
472.3621, 347.3016
472.8442, 344.3449
473.3263, 340.7806
473.8084, 336.5716
474.2906, 332.0371
474.7727, 327.2947
475.2548, 322.3893
475.7369, 317.5638
476.2190, 312.8381
476.7011, 308.1381
477.1833, 303.5156
477.6654, 298.8115
478.1475, 293.5844
478.6296, 287.1968
479.1117, 280.5153
479.5938, 274.3799
480.0760, 268.7234
480.5581, 263.3038
481.0402, 257.9960
481.5223, 252.7935
482.0044, 247.6525
482.4865, 242.5664
482.9687, 237.6901
483.4508, 233.1149
483.9329, 228.7587
484.4150, 224.5678
484.8971, 220.1664
485.3792, 216.2664
485.8614, 213.3692
486.3435, 211.3588
486.8256, 208.5117
487.3077, 204.0444
487.7898, 199.7027
488.2719, 196.4606
488.7541, 194.7327
489.2362, 192.9625
489.7183, 191.1017
490.2004, 189.2479
490.6825, 187.5640
491.1646, 186.0708
491.6468, 184.4462
492.1289, 182.4785
492.6110, 180.3646
493.0931, 178.5627
493.5752, 177.0648
494.0573, 175.7600
494.5395, 174.6598
495.0216, 173.6688
495.5037, 172.5258
495.9858, 171.1941
496.4679, 169.8686
496.9500, 168.5261
497.4322, 167.3566
497.9143, 166.7014
498.3964, 167.4137
498.8785, 168.0310
499.3606, 167.6216
499.8427, 166.3559
500.3249, 165.0703
500.8070, 163.7977
501.2891, 162.7706
501.7712, 162.2145
502.2533, 162.4402
502.7354, 162.3098
503.2176, 161.3827
503.6997, 160.2445
504.1818, 159.4720
504.6639, 159.1188
505.1460, 159.0541
505.6281, 159.4057
506.1103, 160.0094
506.5924, 160.1585
507.0745, 159.7213
507.5566, 159.2868
508.0387, 159.2333
508.5208, 159.5297
509.0030, 159.4655
509.4851, 158.9693
509.9672, 158.5151
510.4493, 158.7128
510.9314, 159.3915
511.4135, 159.9671
511.8957, 160.2615
512.3778, 160.4456
512.8599, 160.6877
513.3420, 160.9800
513.8242, 161.2933
514.3063, 161.8504
514.7884, 162.2617
515.2705, 161.9958
515.7526, 161.0146
516.2347, 160.4858
516.7169, 161.1244
517.1990, 162.2493
517.6811, 163.3564
518.1632, 164.5923
518.6453, 165.4877
519.1274, 165.5833
519.6096, 165.3835
520.0917, 165.8302
520.5738, 167.2680
521.0559, 168.7883
521.5380, 170.2832
522.0201, 171.7255
522.5023, 172.4567
522.9844, 172.1504
523.4665, 172.0762
523.9486, 173.3798
524.4307, 175.9832
524.9128, 178.1802
525.3950, 179.8059
525.8771, 181.0464
526.3592, 181.9353
526.8413, 182.5863
527.3234, 183.4595
527.8055, 184.8460
528.2877, 186.4002
528.7698, 187.7872
529.2519, 189.0091
529.7340, 190.1338
530.2161, 190.9010
530.6982, 191.7832
531.1804, 193.2394
531.6625, 195.3966
532.1446, 197.5286
532.6267, 199.3415
533.1088, 201.0376
533.5909, 202.7752
534.0731, 204.3780
534.5552, 206.3037
535.0373, 208.7839
535.5194, 211.5705
536.0015, 214.1493
536.4836, 216.3620
536.9658, 218.6447
537.4479, 221.1365
537.9300, 223.8171
538.4121, 226.6170
538.8942, 229.6000
539.3763, 232.3555
539.8585, 234.2775
540.3406, 235.5658
540.8227, 237.4155
541.3048, 240.0652
541.7869, 243.0480
542.2690, 245.6960
542.7512, 248.2227
543.2333, 251.1721
543.7154, 255.2710
544.1975, 259.4654
544.6796, 262.7305
545.1617, 265.2999
545.6439, 268.0661
546.1260, 271.2508
546.6081, 274.9047
547.0902, 279.2713
547.5723, 284.6322
548.0544, 289.4155
548.5366, 292.9816
549.0187, 296.1556
549.5008, 299.6718
549.9829, 303.7204
550.4650, 307.7722
550.9471, 311.8083
551.4293, 315.8040
551.9114, 319.8332
552.3935, 323.9437
552.8756, 327.8509
553.3577, 331.3139
553.8398, 334.4875
554.3220, 338.2469
554.8041, 342.6337
555.2862, 346.8120
555.7683, 350.2219
556.2504, 352.9689
556.7325, 355.2645
557.2147, 357.0847
557.6968, 358.7303
558.1789, 360.2998
558.6610, 361.9005
559.1431, 363.6747
559.6252, 366.6974
560.1074, 368.8480
560.5895, 368.8597
561.0716, 367.2449
561.5537, 365.7334
562.0358, 364.8258
562.5179, 363.9022
563.0001, 362.7809
563.4822, 361.4691
563.9643, 359.9972
564.4464, 358.5316
564.9285, 356.6710
565.4106, 354.1224
565.8928, 350.8639
566.3749, 346.9217
566.8570, 342.1499
567.3391, 336.9293
567.8212, 331.7406
568.3033, 326.5476
568.7855, 321.4248
569.2676, 316.2572
569.7497, 311.2485
570.2318, 306.8555
570.7139, 302.9494
571.1960, 298.6006
571.6782, 292.7661
572.1603, 286.6529
572.6424, 281.4880
573.1245, 277.4024
573.6066, 273.0202
574.0887, 267.3345
574.5709, 261.3802
575.0530, 255.9161
575.5351, 251.3724
576.0172, 246.7559
576.4993, 241.8836
576.9814, 236.9895
577.4636, 232.5786
577.9457, 228.8697
578.4278, 225.0463
578.9099, 220.8406
579.3920, 216.4737
579.8741, 212.6622
580.3563, 209.4106
580.8384, 206.9215
581.3205, 206.2789
581.8026, 206.4334
582.2847, 204.0326
582.7668, 198.9334
583.2490, 193.4521
583.7311, 189.2543
584.2132, 185.9531
584.6953, 183.0287
585.1774, 180.4302
