##NAMES=Natrolite
##RRUFFID=R050589
##IDEAL CHEMISTRY=Na_2_(Si_3_Al_2_)O_10_&#183;2H_2_O
##LOCALITY=Mont Saint-Hilaire, Rouville County, Quebec, Canada
##OWNER=RRUFF
##SOURCE=Bob Downs
##DESCRIPTION=White to colorless prismatic crystals associated with aegirine
##STATUS=The identification of this mineral has been confirmed by X-ray diffraction and chemical analysis
##URL=rruff.info/R050589
##MEASURED CHEMISTRY=Na_2.00_(Si_3.00_Al_2.00_)O_10_Â·2H_2_O
92.06543, 258.9182
92.54755, 257.3967
93.02966, 258.2738
93.51178, 260.7977
93.99390, 261.6920
94.47601, 260.7621
94.95813, 258.6653
95.44025, 256.3264
95.92236, 254.4823
96.40448, 253.1021
96.88660, 251.4869
97.36871, 249.3881
97.85082, 247.4847
98.33294, 246.2819
98.81506, 245.6936
99.29717, 244.9362
99.77929, 244.0629
100.2614, 243.1364
100.7435, 243.2119
101.2256, 244.9069
101.7078, 247.6917
102.1899, 250.4373
102.6720, 252.8731
103.1541, 255.2689
103.6362, 257.8118
104.1183, 260.4861
104.6005, 263.2926
105.0826, 266.3847
105.5647, 269.8708
106.0468, 272.8260
106.5289, 274.4977
107.0110, 275.8304
107.4931, 277.1605
107.9753, 278.6064
108.4574, 280.4196
108.9395, 283.1115
109.4216, 286.9177
109.9037, 291.3737
110.3858, 296.3372
110.8680, 301.8466
111.3501, 308.4231
111.8322, 316.4928
112.3143, 325.3456
112.7964, 330.3813
113.2785, 330.1753
113.7607, 328.1431
114.2428, 323.5777
114.7249, 317.5741
115.2070, 312.4636
115.6891, 309.7580
116.1712, 309.7882
116.6534, 312.2769
117.1355, 316.5050
117.6176, 323.4504
118.0997, 334.5208
118.5818, 349.9827
119.0639, 367.2178
119.5461, 385.3896
120.0282, 403.7842
120.5103, 419.4753
120.9924, 433.6234
121.4745, 444.3924
121.9566, 447.0190
122.4388, 438.7592
122.9209, 424.9047
123.4030, 408.7778
123.8851, 390.8709
124.3672, 372.6592
124.8493, 354.6119
125.3315, 336.4829
125.8136, 321.4474
126.2957, 311.4698
126.7778, 303.6921
127.2599, 297.3973
127.7420, 292.3985
128.2242, 288.5128
128.7063, 285.7156
129.1884, 284.8006
129.6705, 283.3457
130.1526, 280.4454
130.6347, 277.5974
131.1169, 275.8668
131.5990, 275.6165
132.0811, 276.5594
132.5632, 278.0895
133.0453, 280.1183
133.5274, 282.9401
134.0096, 286.6825
134.4917, 291.2145
134.9738, 296.4527
135.4559, 302.4592
135.9380, 308.9826
136.4201, 315.0477
136.9023, 320.1200
137.3844, 325.5316
137.8665, 331.9420
138.3486, 339.2025
138.8307, 346.6685
139.3128, 353.8519
139.7950, 361.0489
140.2771, 368.7631
140.7592, 377.2961
141.2413, 386.1099
141.7234, 395.2963
142.2055, 405.2572
142.6877, 413.2806
143.1698, 417.3590
143.6519, 418.7623
144.1340, 418.4519
144.6161, 416.4713
145.0982, 413.1779
145.5803, 409.3747
146.0625, 404.5575
146.5446, 400.0474
147.0267, 395.4349
147.5088, 391.4591
147.9909, 389.2552
148.4730, 389.7180
148.9552, 392.7525
149.4373, 396.2938
149.9194, 399.4556
150.4015, 404.1117
150.8836, 410.9975
151.3657, 419.8481
151.8479, 430.0180
152.3300, 440.8270
152.8121, 452.2473
153.2942, 465.2561
153.7763, 480.0372
154.2584, 495.8519
154.7406, 512.1891
155.2227, 529.0690
155.7048, 547.2351
156.1869, 567.5607
156.6690, 590.5727
157.1511, 614.4857
157.6333, 640.7433
158.1154, 667.0920
158.5975, 692.1055
159.0796, 715.5570
159.5617, 736.2428
160.0438, 752.7469
160.5260, 765.6319
161.0081, 772.4014
161.4902, 772.3428
161.9723, 765.7399
162.4544, 752.3709
162.9365, 731.0898
163.4187, 705.0455
163.9008, 677.6083
164.3829, 648.9792
164.8650, 619.9581
165.3471, 589.9515
165.8292, 559.4341
166.3113, 531.9767
166.7935, 508.5463
167.2756, 488.6738
167.7577, 471.7407
168.2398, 457.6530
168.7219, 446.0314
169.2040, 437.0584
169.6862, 431.0678
170.1683, 425.5298
170.6504, 420.1395
171.1325, 415.0735
171.6146, 410.6744
172.0967, 406.9448
172.5789, 403.2387
173.0610, 398.7527
173.5431, 393.7094
174.0252, 387.1839
174.5073, 378.3881
174.9894, 368.8034
175.4716, 359.2207
175.9537, 350.0045
176.4358, 341.2729
176.9179, 333.2690
177.4000, 325.6045
177.8821, 319.4517
178.3643, 315.0160
178.8464, 311.9341
179.3285, 309.9320
179.8106, 308.8838
180.2927, 308.7715
180.7748, 309.6084
181.2570, 311.7281
181.7391, 314.3753
182.2212, 317.7869
182.7033, 321.6330
183.1854, 325.4561
183.6675, 329.0916
184.1497, 332.4803
184.6318, 335.4931
185.1139, 339.1556
185.5960, 341.1646
186.0781, 340.5832
186.5602, 337.6911
187.0423, 333.0924
187.5245, 326.6560
188.0066, 318.9974
188.4887, 311.6406
188.9708, 304.5146
189.4529, 297.8680
189.9350, 291.8177
190.4172, 286.3878
190.8993, 281.5704
191.3814, 277.3167
191.8635, 273.8167
192.3456, 271.1799
192.8277, 269.4751
193.3099, 268.5645
193.7920, 268.4962
194.2741, 269.3686
194.7562, 270.3539
195.2383, 270.5789
195.7204, 271.0166
196.2026, 272.6467
196.6847, 275.8712
197.1668, 279.9424
197.6489, 283.6800
198.1310, 286.7965
198.6131, 290.4341
199.0953, 295.0739
199.5774, 300.2691
200.0595, 305.5886
200.5416, 310.8751
201.0237, 316.3233
201.5058, 322.3734
201.9880, 329.4334
202.4701, 336.4251
202.9522, 343.4935
203.4343, 350.2383
203.9164, 356.4837
204.3985, 362.1799
204.8807, 366.8844
205.3628, 369.2432
205.8449, 368.9550
206.3270, 366.1913
206.8091, 360.4039
207.2912, 352.5355
207.7733, 343.4339
208.2555, 333.5357
208.7376, 322.9025
209.2197, 311.7523
209.7018, 298.2235
210.1839, 286.2991
210.6660, 276.9502
211.1482, 269.3698
211.6303, 262.4983
212.1124, 255.8017
212.5945, 249.3746
213.0766, 243.4611
213.5587, 237.9695
214.0409, 233.0353
214.5230, 228.8504
215.0051, 225.2246
215.4872, 221.7655
215.9693, 218.2580
216.4514, 214.8167
216.9336, 211.9505
217.4157, 209.8156
217.8978, 207.8748
218.3799, 205.9279
218.8620, 204.0375
219.3441, 202.3946
219.8263, 201.2070
220.3084, 200.2092
220.7905, 198.6843
221.2726, 196.4291
221.7547, 194.0704
222.2368, 191.8131
222.7190, 189.6768
223.2011, 187.7582
223.6832, 186.1568
224.1653, 184.7664
224.6474, 183.3535
225.1295, 181.9245
225.6117, 180.4586
226.0938, 178.7871
226.5759, 176.9695
227.0580, 175.5759
227.5401, 175.0394
228.0222, 174.8919
228.5043, 174.4695
228.9865, 173.6648
229.4686, 172.9041
229.9507, 172.6350
230.4328, 172.8532
230.9149, 172.9483
231.3970, 172.5424
231.8792, 172.0836
232.3613, 171.9353
232.8434, 172.1464
233.3255, 172.5863
233.8076, 173.1860
234.2897, 173.9616
234.7719, 174.7151
235.2540, 175.4260
235.7361, 176.0850
236.2182, 176.5406
236.7003, 176.7993
237.1824, 177.2862
237.6646, 178.7102
238.1467, 181.3687
238.6288, 183.3192
239.1109, 183.8726
239.5930, 183.9173
240.0751, 183.8832
240.5573, 183.8188
241.0394, 183.5011
241.5215, 182.6564
242.0036, 181.2090
242.4857, 179.5039
242.9678, 177.2832
243.4500, 175.0286
243.9321, 172.9170
244.4142, 171.0002
244.8963, 169.2785
245.3784, 167.7708
245.8605, 166.5184
246.3427, 165.3492
246.8248, 164.1811
247.3069, 163.1596
247.7890, 162.4462
248.2711, 161.9925
248.7532, 161.5720
249.2354, 160.9057
249.7175, 159.8735
250.1996, 159.1335
250.6817, 158.8284
251.1638, 158.6484
251.6459, 158.4264
252.1281, 158.1811
252.6102, 158.0663
253.0923, 158.2634
253.5744, 158.8592
254.0565, 159.2119
254.5386, 159.1505
255.0208, 159.0493
255.5029, 159.0866
255.9850, 159.2436
256.4671, 159.3795
256.9492, 159.3510
257.4313, 159.1224
257.9135, 159.1617
258.3956, 159.5850
258.8777, 160.0955
259.3598, 160.6121
259.8419, 161.1153
260.3240, 161.6064
260.8062, 162.0996
261.2883, 162.5943
261.7704, 162.9011
262.2525, 162.9473
262.7346, 162.9335
263.2167, 162.7545
263.6989, 162.5564
264.1810, 162.7645
264.6631, 163.7490
265.1452, 165.3589
265.6273, 166.2298
266.1094, 165.7264
266.5916, 165.3278
267.0737, 165.6175
267.5558, 166.4191
268.0379, 167.2898
268.5200, 167.9900
269.0021, 168.5813
269.4843, 169.3399
269.9664, 170.6118
270.4485, 171.6040
270.9306, 171.8875
271.4127, 171.7100
271.8948, 171.6647
272.3770, 172.0950
272.8591, 172.6542
273.3412, 172.3117
273.8233, 170.6001
274.3054, 169.1696
274.7875, 168.7144
275.2697, 168.8643
275.7518, 168.9825
276.2339, 168.8876
276.7160, 168.5668
277.1981, 167.8873
277.6802, 166.7670
278.1623, 165.7765
278.6444, 165.0598
279.1266, 164.5752
279.6087, 164.3376
280.0908, 164.4145
280.5729, 164.4984
281.0550, 164.0020
281.5371, 162.9048
282.0193, 162.1747
282.5014, 162.1514
282.9835, 162.6065
283.4656, 163.3130
283.9477, 164.2827
284.4298, 165.2206
284.9120, 165.6935
285.3941, 165.7784
285.8762, 166.0530
286.3583, 166.8300
286.8404, 167.7680
287.3225, 168.3896
287.8047, 168.6171
288.2868, 168.8735
288.7689, 169.5813
289.2510, 170.6121
289.7331, 171.5228
290.2152, 172.2816
290.6974, 172.8605
291.1795, 173.1524
291.6616, 173.1473
292.1437, 173.1420
292.6258, 173.3377
293.1079, 173.6631
293.5901, 173.9200
294.0722, 173.8728
294.5543, 173.9944
295.0364, 174.6995
295.5185, 175.9744
296.0006, 177.5306
296.4828, 179.3188
296.9649, 181.2848
297.4470, 183.3363
297.9291, 185.5625
298.4112, 187.6569
298.8933, 189.3669
299.3755, 190.7303
299.8576, 191.8988
300.3397, 192.4359
300.8218, 193.3804
301.3039, 196.2804
301.7860, 201.4105
302.2682, 206.3254
302.7503, 209.6164
303.2324, 211.6071
303.7145, 213.5028
304.1966, 215.6623
304.6787, 217.6089
305.1609, 219.2680
305.6430, 220.6058
306.1251, 220.4737
306.6072, 217.9693
307.0893, 213.6990
307.5714, 208.8366
308.0536, 203.3877
308.5357, 197.7024
309.0178, 191.7596
309.4999, 185.7704
309.9820, 180.4372
310.4641, 176.0484
310.9463, 172.4346
311.4284, 169.5200
311.9105, 167.3940
312.3926, 165.5161
312.8747, 163.4563
313.3568, 161.4433
313.8390, 159.9499
314.3211, 159.3109
314.8032, 158.9712
315.2853, 158.3147
315.7674, 157.3340
316.2495, 156.5025
316.7317, 156.1341
317.2138, 155.9905
317.6959, 155.6523
318.1780, 154.9601
318.6601, 154.4133
319.1422, 154.5112
319.6243, 155.1574
320.1064, 155.6516
320.5886, 155.6372
321.0707, 155.5477
321.5528, 155.9939
322.0349, 157.0203
322.5170, 157.9411
322.9991, 158.3692
323.4813, 158.4102
323.9634, 158.2958
324.4455, 157.9373
324.9276, 157.7168
325.4097, 158.1382
325.8918, 159.0779
326.3740, 159.9634
326.8561, 160.4654
327.3382, 160.8369
327.8203, 161.5029
328.3024, 162.5290
328.7845, 163.6887
329.2667, 165.0279
329.7488, 166.3723
330.2309, 167.2528
330.7130, 167.3706
331.1951, 167.1315
331.6772, 166.8885
332.1594, 166.6408
332.6415, 166.3682
333.1236, 166.0691
333.6057, 165.7254
334.0878, 165.3161
334.5699, 164.8384
335.0521, 164.3020
335.5342, 163.6174
336.0163, 162.8499
336.4984, 162.2835
336.9805, 162.0781
337.4626, 162.0389
337.9448, 161.8152
338.4269, 161.3511
338.9090, 161.0730
339.3911, 161.3588
339.8732, 161.9088
340.3553, 162.1121
340.8375, 161.7985
341.3196, 161.3351
341.8017, 161.0949
342.2838, 161.0592
342.7659, 161.1267
343.2480, 161.3105
343.7302, 161.5702
344.2123, 161.7884
344.6944, 161.9608
345.1765, 162.4029
345.6586, 163.5367
346.1407, 165.1764
346.6229, 166.1815
347.1050, 165.8680
347.5871, 165.5145
348.0692, 166.0107
348.5513, 167.1573
349.0334, 168.1732
349.5156, 168.6288
349.9977, 168.7499
350.4798, 169.1512
350.9619, 169.9090
351.4440, 170.7243
351.9261, 171.4804
352.4083, 172.2329
352.8904, 173.0542
353.3725, 173.9548
353.8546, 174.9947
354.3367, 176.3248
354.8188, 178.0514
355.3010, 179.6009
355.7831, 180.9219
356.2652, 182.0431
356.7473, 183.0117
357.2294, 183.8255
357.7115, 184.4352
358.1937, 184.8266
358.6758, 184.9821
359.1579, 184.7011
359.6400, 183.8581
360.1221, 182.7522
360.6042, 181.5839
361.0863, 180.2769
361.5685, 178.5858
362.0506, 176.3262
362.5327, 173.6470
363.0148, 171.1543
363.4969, 168.8983
363.9790, 166.7572
364.4612, 164.7773
364.9433, 162.8756
365.4254, 160.9339
365.9075, 158.9176
366.3896, 156.9771
366.8717, 155.3469
367.3539, 154.0709
367.8360, 153.0783
368.3181, 152.5570
368.8002, 152.1551
369.2823, 151.7168
369.7644, 151.1859
370.2466, 150.4766
370.7287, 149.4621
371.2108, 148.1059
371.6929, 147.0977
372.1750, 146.6647
372.6571, 146.3042
373.1393, 145.8936
373.6214, 145.4470
374.1035, 145.0051
374.5856, 144.5913
375.0677, 144.2023
375.5498, 143.8178
376.0320, 143.3403
376.5141, 143.0263
376.9962, 143.0862
377.4783, 143.1946
377.9604, 143.0065
378.4425, 142.4631
378.9247, 141.8557
379.4068, 141.6083
379.8889, 141.8556
380.3710, 141.9944
380.8531, 142.0411
381.3352, 141.9644
381.8174, 141.7106
382.2995, 141.3118
382.7816, 140.8234
383.2637, 140.1931
383.7458, 139.5082
384.2279, 139.4506
384.7101, 140.5914
385.1922, 141.4960
385.6743, 141.5764
386.1564, 141.2687
386.6385, 141.1088
387.1206, 141.3168
387.6028, 141.6796
388.0849, 141.8298
388.5670, 141.6977
389.0491, 141.6886
389.5312, 142.1600
390.0133, 142.5930
390.4955, 142.4949
390.9776, 141.8835
391.4597, 141.4262
391.9418, 141.8053
392.4239, 142.8554
392.9060, 143.5684
393.3882, 143.7377
393.8703, 143.8034
394.3524, 144.0328
394.8345, 144.3778
395.3166, 144.7473
395.7987, 145.1520
396.2809, 145.5284
396.7630, 145.7965
397.2451, 145.9587
397.7272, 145.9810
398.2093, 145.6052
398.6914, 145.2401
399.1736, 145.5443
399.6557, 146.7176
400.1378, 147.9819
400.6199, 149.0363
401.1020, 149.8335
401.5841, 150.1328
402.0662, 149.7445
402.5483, 149.2554
403.0305, 149.3547
403.5126, 149.9994
403.9947, 150.8489
404.4768, 152.0368
404.9589, 153.2766
405.4410, 154.2795
405.9232, 155.0426
406.4053, 155.7207
406.8874, 156.3328
407.3695, 156.9638
407.8516, 158.0546
408.3337, 160.0997
408.8159, 161.9595
409.2980, 163.2578
409.7801, 164.1555
410.2622, 164.8938
410.7443, 165.5605
411.2264, 166.1365
411.7086, 166.6125
412.1907, 167.0663
412.6728, 167.1601
413.1549, 166.5044
413.6370, 165.8095
414.1191, 165.5224
414.6013, 165.6584
415.0834, 166.0229
415.5655, 166.4658
416.0476, 166.9927
416.5297, 167.6796
417.0118, 168.8806
417.4940, 169.8309
417.9761, 169.8043
418.4582, 169.6783
418.9403, 170.6703
419.4224, 173.2255
419.9045, 176.5247
420.3867, 179.0556
420.8688, 180.1939
421.3509, 182.2149
421.8330, 185.4785
422.3151, 189.3499
422.7972, 193.6372
423.2794, 198.2456
423.7615, 203.0809
424.2436, 208.1425
424.7257, 213.3716
425.2078, 218.4261
425.6899, 223.2218
426.1721, 227.9718
426.6542, 232.5299
427.1363, 237.1963
427.6184, 242.3721
428.1005, 248.2102
428.5826, 254.4515
429.0648, 260.6566
429.5469, 266.8521
430.0290, 273.6112
430.5111, 281.0721
430.9932, 289.1338
431.4753, 297.4749
431.9575, 306.1448
432.4396, 315.5692
432.9217, 325.7523
433.4038, 336.8329
433.8859, 349.2088
434.3680, 362.8904
434.8502, 377.4330
435.3323, 392.5264
435.8144, 408.3808
436.2965, 425.3703
436.7786, 443.8466
437.2607, 462.9293
437.7429, 482.6262
438.2250, 502.4929
438.7071, 522.0255
439.1892, 541.3372
439.6713, 558.8051
440.1534, 572.3517
440.6356, 582.1217
441.1177, 586.1025
441.5998, 583.6401
442.0819, 575.7610
442.5640, 562.2299
443.0461, 543.7310
443.5282, 521.7003
444.0103, 496.8287
444.4925, 469.7256
444.9746, 444.0361
445.4567, 419.9605
445.9388, 397.1948
446.4209, 375.7369
446.9030, 355.7240
447.3852, 336.9779
447.8673, 319.6096
448.3494, 303.8537
448.8315, 290.1778
449.3136, 278.9343
449.7957, 268.0349
450.2779, 256.8767
450.7600, 246.6122
451.2421, 237.6935
451.7242, 229.9673
452.2063, 223.1098
452.6884, 217.0201
453.1706, 211.6169
453.6527, 206.8139
454.1348, 202.6472
454.6169, 199.0374
455.0990, 196.4381
455.5811, 194.0950
456.0633, 191.4737
456.5454, 188.5416
457.0275, 185.6797
457.5096, 183.0979
457.9917, 180.8023
458.4738, 178.8014
458.9560, 177.1397
459.4381, 175.6398
459.9202, 174.1021
460.4023, 172.6597
460.8844, 171.6296
461.3665, 171.3691
461.8487, 171.1023
462.3308, 170.1021
462.8129, 168.5834
463.2950, 167.2771
463.7771, 166.3866
464.2592, 165.8576
464.7414, 165.7007
465.2235, 165.9785
465.7056, 166.1427
466.1877, 166.0214
466.6698, 165.8496
467.1519, 165.7995
467.6341, 165.8741
468.1162, 166.0195
468.5983, 166.2106
469.0804, 166.4332
469.5625, 166.6124
470.0446, 166.4166
470.5268, 166.6110
471.0089, 167.4120
471.4910, 168.5390
471.9731, 169.7627
472.4552, 171.0218
472.9373, 172.3542
473.4195, 173.8544
473.9016, 175.5586
474.3837, 176.8983
474.8658, 177.3827
475.3479, 178.0278
475.8300, 179.0390
476.3122, 180.4002
476.7943, 182.1725
477.2764, 184.4248
477.7585, 186.7750
478.2406, 188.6716
478.7227, 190.0823
479.2049, 191.2430
479.6870, 191.9872
480.1691, 192.6988
480.6512, 193.7108
481.1333, 194.9553
481.6154, 196.0993
482.0976, 196.9995
482.5797, 197.6988
483.0618, 198.2574
483.5439, 198.6761
484.0260, 198.9748
484.5081, 199.1749
484.9902, 199.2450
485.4724, 199.1338
485.9545, 198.8091
486.4366, 198.4176
486.9187, 198.0879
487.4008, 197.6820
487.8829, 196.9277
488.3651, 195.8071
488.8472, 194.6983
489.3293, 193.9497
489.8114, 193.5535
490.2935, 193.0959
490.7756, 192.4667
491.2578, 191.9162
491.7399, 191.6687
492.2220, 191.4861
492.7041, 191.0203
493.1862, 190.1657
493.6683, 189.1450
494.1505, 188.3304
494.6326, 187.8885
495.1147, 187.0047
495.5968, 184.9429
496.0789, 183.1639
496.5610, 182.5510
497.0432, 182.5752
497.5253, 182.1077
498.0074, 180.4641
498.4895, 178.3753
498.9716, 177.2438
499.4537, 177.2021
499.9359, 177.2851
500.4180, 177.3658
500.9001, 177.4090
501.3822, 177.3560
501.8643, 177.2208
502.3464, 177.1365
502.8286, 177.0426
503.3107, 177.0921
503.7928, 177.6113
504.2749, 178.6079
504.7570, 179.5623
505.2391, 180.0587
505.7213, 180.4368
506.2034, 181.6252
506.6855, 183.9969
507.1676, 186.1928
507.6497, 187.6216
508.1318, 188.8141
508.6140, 190.2526
509.0961, 192.0462
509.5782, 194.2970
510.0603, 197.1831
510.5424, 200.6457
511.0245, 203.4505
511.5067, 204.3810
511.9888, 206.1225
512.4709, 209.3976
512.9530, 213.5742
513.4351, 218.0323
513.9172, 222.5869
514.3994, 227.2972
514.8815, 232.2149
515.3636, 237.3537
515.8457, 242.7945
516.3278, 248.7928
516.8099, 254.7979
517.2921, 260.5858
517.7742, 266.2154
518.2563, 271.7262
518.7384, 277.1005
519.2205, 282.5578
519.7026, 288.3505
520.1848, 294.4578
520.6669, 300.6912
521.1490, 306.9261
521.6311, 313.4457
522.1132, 320.4146
522.5953, 327.8297
523.0775, 335.8510
523.5596, 343.9898
524.0417, 353.1575
524.5238, 364.0993
525.0059, 376.5421
525.4880, 389.7825
525.9702, 403.4597
526.4523, 417.9503
526.9344, 434.1443
527.4165, 452.3812
527.8986, 471.4134
528.3807, 491.6564
528.8629, 512.3317
529.3450, 533.6329
529.8271, 554.9369
530.3092, 575.3656
530.7913, 594.5588
531.2734, 611.7955
531.7556, 625.8901
532.2377, 637.9100
532.7198, 643.5745
533.2019, 641.6464
533.6840, 633.3958
534.1661, 618.1113
534.6483, 596.5127
535.1304, 571.2364
535.6125, 542.5467
536.0946, 511.7817
536.5767, 480.3423
537.0588, 448.0987
537.5410, 417.8471
538.0231, 390.9122
538.5052, 366.5549
538.9873, 343.4673
539.4694, 321.2694
539.9515, 301.8354
540.4337, 286.6836
540.9158, 273.7587
541.3979, 260.9071
541.8800, 248.2122
542.3621, 237.0171
542.8442, 228.3060
543.3264, 221.5200
543.8085, 214.7427
544.2906, 207.4962
544.7726, 201.0273
545.2548, 195.5181
545.7369, 190.6621
546.2190, 186.3555
546.7011, 182.5228
547.1832, 179.0541
547.6653, 175.9433
548.1475, 173.1158
548.6296, 170.3007
549.1117, 167.4068
549.5938, 164.7783
550.0759, 162.6328
550.5580, 160.7240
551.0402, 158.8818
551.5223, 157.0948
552.0044, 155.4100
552.4865, 153.8641
552.9686, 152.4272
553.4507, 151.0488
553.9329, 149.7268
554.4150, 148.4330
554.8971, 147.1030
555.3792, 145.8322
555.8613, 144.9289
556.3434, 144.5732
556.8256, 144.0565
557.3077, 143.0644
557.7898, 141.9733
558.2719, 141.0900
558.7540, 140.4464
559.2361, 140.0358
559.7183, 139.9007
560.2004, 139.8925
560.6825, 139.3140
561.1646, 137.4937
561.6467, 136.2724
562.1288, 136.2441
562.6110, 136.4637
563.0931, 136.2488
563.5752, 135.6056
564.0573, 134.9778
564.5394, 134.7198
565.0215, 134.6730
565.5037, 134.3772
565.9858, 133.7705
566.4679, 133.3274
566.9500, 133.3461
567.4321, 133.5125
567.9142, 133.4202
568.3964, 133.0602
568.8785, 132.5939
569.3606, 131.7271
569.8427, 131.0159
570.3248, 131.3037
570.8069, 132.3849
571.2891, 133.1056
571.7712, 132.7889
572.2533, 131.8591
572.7354, 131.3777
573.2175, 131.7123
573.6996, 131.8570
574.1818, 131.6772
574.6639, 131.4394
575.1460, 131.2793
575.6281, 131.2005
576.1102, 131.1442
576.5923, 131.0584
577.0745, 131.0323
577.5566, 131.3671
578.0387, 132.1971
578.5208, 132.6421
579.0029, 132.3028
579.4850, 131.7547
579.9672, 131.3179
580.4493, 131.0284
580.9314, 131.0186
581.4135, 131.5811
581.8956, 132.2413
582.3777, 132.5422
582.8599, 132.5450
583.3420, 132.5043
583.8241, 132.5196
584.3062, 132.4390
584.7883, 131.9549
585.2704, 130.8361
585.7526, 130.5574
586.2347, 131.9389
586.7168, 133.2251
587.1989, 133.5597
