##NAMES=Natrolite
##RRUFFID=R040102
##IDEAL CHEMISTRY=Na_2_(Si_3_Al_2_)O_10_&#183;2H_2_O
##LOCALITY=Ross' Quarry, Northland, New Zealand
##OWNER=RRUFF
##SOURCE=University of Arizona Mineral Museum
##DESCRIPTION=Mass of colorless acicular crystals
##STATUS=The identification of this mineral has been confirmed by X-ray diffraction and chemical analysis
##URL=rruff.info/R040102
##MEASURED CHEMISTRY=(Na_0.92_Ca_0.02_)_2_(Si_3.03_Al_1.99_)O_10_Â·2H_2_O
123.5578, 1937.041
124.0400, 2052.386
124.5221, 2169.785
125.0042, 2286.047
125.4863, 2400.658
125.9684, 2508.276
126.4505, 2587.090
126.9327, 2680.780
127.4148, 2801.956
127.8969, 2944.094
128.3790, 3096.230
128.8611, 3252.547
129.3432, 3413.386
129.8254, 3553.413
130.3075, 3683.997
130.7896, 3786.953
131.2717, 3848.473
131.7538, 3874.991
132.2359, 3884.137
132.7181, 3890.366
133.2002, 3894.753
133.6823, 3875.795
134.1644, 3815.480
134.6465, 3752.529
135.1286, 3699.505
135.6108, 3660.099
136.0929, 3637.473
136.5750, 3634.203
137.0571, 3652.209
137.5392, 3695.033
138.0213, 3772.473
138.5035, 3865.427
138.9856, 3962.361
139.4677, 4061.879
139.9498, 4163.082
140.4319, 4259.286
140.9140, 4345.477
141.3961, 4477.876
141.8783, 4698.427
142.3604, 4943.712
142.8425, 5162.721
143.3246, 5347.069
143.8067, 5498.822
144.2888, 5608.529
144.7710, 5671.594
145.2531, 5753.270
145.7352, 5862.130
146.2173, 5915.369
146.6994, 5876.567
147.1815, 5803.542
147.6637, 5731.603
148.1458, 5705.539
148.6279, 5720.384
149.1100, 5736.545
149.5921, 5727.430
150.0742, 5716.504
150.5564, 5746.001
151.0385, 5828.167
151.5206, 5936.169
152.0027, 6037.054
152.4848, 6129.953
152.9669, 6236.899
153.4491, 6355.612
153.9312, 6492.689
154.4133, 6672.427
154.8954, 6917.110
155.3775, 7170.109
155.8596, 7358.024
156.3418, 7480.959
156.8239, 7617.296
157.3060, 7824.456
157.7881, 8079.574
158.2702, 8303.381
158.7523, 8478.557
159.2345, 8615.404
159.7166, 8737.512
160.1987, 8846.209
160.6808, 8917.271
161.1629, 8958.600
161.6451, 8961.977
162.1272, 8861.777
162.6093, 8606.722
163.0914, 8287.291
163.5735, 7984.052
164.0556, 7697.700
164.5378, 7424.708
165.0199, 7165.537
165.5020, 6919.083
165.9841, 6675.282
166.4662, 6420.821
166.9483, 6180.837
167.4305, 5969.137
167.9126, 5786.400
168.3947, 5629.931
168.8768, 5503.636
169.3589, 5407.279
169.8410, 5315.674
170.3232, 5227.071
170.8053, 5139.333
171.2874, 5049.521
171.7695, 4957.823
172.2516, 4867.094
172.7337, 4780.935
173.2159, 4699.385
173.6980, 4615.143
174.1801, 4513.097
174.6622, 4418.292
175.1443, 4352.336
175.6264, 4315.829
176.1085, 4283.672
176.5907, 4222.027
177.0728, 4123.760
177.5549, 4059.065
178.0370, 4072.795
178.5191, 4100.468
179.0012, 4104.673
179.4834, 4081.800
179.9655, 4054.700
180.4476, 4048.982
180.9297, 4068.375
181.4118, 4082.528
181.8939, 4085.040
182.3761, 4082.485
182.8582, 4077.698
183.3403, 4071.094
183.8224, 4061.580
184.3045, 4049.671
184.7866, 4036.825
185.2688, 4013.407
185.7509, 3978.933
186.2330, 3932.341
186.7151, 3870.240
187.1972, 3792.991
187.6793, 3707.491
188.1615, 3615.511
188.6436, 3513.421
189.1257, 3425.915
189.6078, 3350.448
190.0899, 3294.652
190.5720, 3268.243
191.0542, 3269.954
191.5363, 3285.388
192.0184, 3300.213
192.5005, 3313.465
192.9826, 3331.812
193.4647, 3358.378
193.9469, 3388.466
194.4290, 3423.846
194.9111, 3462.852
195.3932, 3498.042
195.8753, 3516.275
196.3574, 3511.472
196.8396, 3527.852
197.3217, 3576.101
197.8038, 3640.422
198.2859, 3720.651
198.7680, 3813.794
199.2501, 3909.533
199.7323, 3997.223
200.2144, 4076.086
200.6965, 4155.066
201.1786, 4242.192
201.6607, 4322.955
202.1428, 4392.791
202.6250, 4450.829
203.1071, 4497.652
203.5892, 4534.737
204.0713, 4562.537
204.5534, 4575.720
205.0355, 4579.067
205.5177, 4560.840
205.9998, 4516.229
206.4819, 4445.380
206.9640, 4350.313
207.4461, 4224.334
207.9282, 4066.074
208.4104, 3925.606
208.8925, 3808.145
209.3746, 3705.827
209.8567, 3623.283
210.3388, 3554.971
210.8209, 3486.894
211.3030, 3404.545
211.7852, 3309.833
212.2673, 3235.365
212.7494, 3192.563
213.2315, 3160.477
213.7136, 3138.070
214.1957, 3120.482
214.6779, 3098.655
215.1600, 3063.808
215.6421, 3018.688
216.1242, 2987.067
216.6063, 2983.039
217.0884, 2974.851
217.5706, 2950.733
218.0527, 2915.640
218.5348, 2878.536
219.0169, 2844.720
219.4990, 2813.094
219.9811, 2777.491
220.4633, 2728.896
220.9454, 2691.042
221.4275, 2685.359
221.9096, 2690.411
222.3917, 2672.983
222.8738, 2609.500
223.3560, 2520.655
223.8381, 2469.052
224.3202, 2476.205
224.8023, 2481.327
225.2844, 2457.613
225.7665, 2424.538
226.2487, 2406.464
226.7308, 2416.159
227.2129, 2439.163
227.6950, 2444.845
228.1771, 2425.887
228.6592, 2407.938
229.1414, 2396.753
229.6235, 2390.834
230.1056, 2390.194
230.5877, 2395.475
231.0698, 2402.829
231.5519, 2401.383
232.0341, 2382.971
232.5162, 2387.227
232.9983, 2449.798
233.4804, 2525.437
233.9625, 2581.023
234.4446, 2608.007
234.9268, 2624.314
235.4089, 2650.642
235.8910, 2688.493
236.3731, 2723.908
236.8552, 2749.644
237.3373, 2774.781
237.8195, 2810.890
238.3016, 2859.129
238.7837, 2897.885
239.2658, 2906.630
239.7479, 2885.827
240.2300, 2852.384
240.7122, 2800.869
241.1943, 2744.871
241.6764, 2696.622
242.1585, 2655.454
242.6406, 2610.587
243.1227, 2549.873
243.6049, 2477.042
244.0870, 2413.493
244.5691, 2363.572
245.0512, 2321.492
245.5333, 2280.692
246.0154, 2242.111
246.4975, 2211.520
246.9797, 2193.283
247.4618, 2185.035
247.9439, 2182.879
248.4260, 2190.916
248.9081, 2194.850
249.3902, 2180.230
249.8724, 2152.887
250.3545, 2126.962
250.8366, 2103.561
251.3187, 2085.956
251.8008, 2082.862
252.2829, 2097.317
252.7651, 2111.066
253.2472, 2109.249
253.7293, 2097.668
254.2114, 2088.772
254.6935, 2081.106
255.1756, 2079.779
255.6578, 2094.244
256.1399, 2124.371
256.6220, 2151.865
257.1041, 2168.099
257.5862, 2173.448
258.0684, 2171.635
258.5505, 2155.106
259.0326, 2141.112
259.5147, 2142.724
259.9968, 2157.376
260.4789, 2173.865
260.9611, 2188.938
261.4432, 2201.710
261.9253, 2209.783
262.4074, 2208.863
262.8895, 2212.623
263.3716, 2230.981
263.8537, 2257.570
264.3358, 2277.915
264.8180, 2285.778
265.3001, 2289.996
265.7822, 2308.667
266.2643, 2349.194
266.7464, 2377.535
267.2285, 2374.932
267.7107, 2361.770
268.1928, 2365.932
268.6749, 2393.665
269.1570, 2425.405
269.6391, 2436.289
270.1212, 2417.715
270.6034, 2406.855
271.0855, 2413.191
271.5676, 2420.785
272.0497, 2414.063
272.5318, 2393.600
273.0139, 2375.794
273.4961, 2378.168
273.9782, 2404.454
274.4603, 2403.728
274.9424, 2355.861
275.4245, 2304.869
275.9066, 2266.462
276.3888, 2241.370
276.8709, 2227.475
277.3530, 2224.608
277.8351, 2231.032
278.3172, 2230.600
278.7993, 2221.114
279.2815, 2207.486
279.7636, 2185.354
280.2457, 2160.922
280.7278, 2143.464
281.2099, 2137.617
281.6920, 2138.783
282.1742, 2133.246
282.6563, 2104.332
283.1384, 2094.494
283.6205, 2126.610
284.1026, 2166.314
284.5847, 2183.157
285.0669, 2168.792
285.5490, 2136.609
286.0311, 2103.485
286.5132, 2062.522
286.9953, 2039.942
287.4774, 2047.088
287.9596, 2062.905
288.4417, 2075.302
288.9238, 2084.140
289.4059, 2097.832
289.8880, 2129.209
290.3701, 2180.014
290.8523, 2214.753
291.3344, 2222.508
291.8165, 2224.116
292.2986, 2224.707
292.7807, 2225.943
293.2628, 2230.439
293.7450, 2240.502
294.2271, 2254.866
294.7092, 2268.300
295.1913, 2278.233
295.6734, 2292.854
296.1555, 2317.752
296.6377, 2348.374
297.1198, 2378.329
297.6019, 2404.028
298.0840, 2430.934
298.5661, 2466.204
299.0482, 2510.003
299.5304, 2560.566
300.0125, 2626.788
300.4946, 2693.698
300.9767, 2743.665
301.4588, 2772.493
301.9409, 2795.119
302.4231, 2819.090
302.9052, 2844.917
303.3873, 2875.827
303.8694, 2915.640
304.3515, 2956.053
304.8336, 2997.282
305.3158, 3042.336
305.7979, 3047.182
306.2800, 2974.665
306.7621, 2862.516
307.2442, 2760.613
307.7263, 2676.338
308.2085, 2600.180
308.6906, 2523.678
309.1727, 2447.160
309.6548, 2378.759
310.1369, 2313.279
310.6190, 2260.800
311.1012, 2236.032
311.5833, 2233.003
312.0654, 2226.183
312.5475, 2199.026
313.0296, 2155.162
313.5117, 2118.103
313.9939, 2087.486
314.4760, 2062.571
314.9581, 2041.523
315.4402, 2026.613
315.9223, 2023.487
316.4044, 2034.496
316.8866, 2052.275
317.3687, 2062.276
317.8508, 2064.705
318.3329, 2057.432
318.8150, 2024.295
319.2971, 1993.223
319.7793, 1990.855
320.2614, 2017.432
320.7435, 2046.553
321.2256, 2043.862
321.7077, 1998.496
322.1898, 1989.580
322.6720, 2059.547
323.1541, 2126.171
323.6362, 2156.917
324.1183, 2161.267
324.6004, 2165.739
325.0826, 2188.871
325.5647, 2224.738
326.0468, 2245.711
326.5289, 2238.237
327.0110, 2241.231
327.4931, 2275.718
327.9753, 2321.855
328.4574, 2358.970
328.9395, 2380.679
329.4216, 2390.382
329.9037, 2390.089
330.3858, 2379.117
330.8680, 2367.759
331.3501, 2360.243
331.8322, 2351.598
332.3143, 2336.437
332.7964, 2314.448
333.2785, 2292.894
333.7606, 2279.033
334.2427, 2268.772
334.7249, 2249.462
335.2070, 2216.682
335.6891, 2183.222
336.1712, 2161.439
336.6533, 2149.217
337.1354, 2136.903
337.6176, 2114.406
338.0997, 2097.146
338.5818, 2105.156
339.0639, 2135.255
339.5460, 2159.963
340.0281, 2162.120
340.5103, 2147.038
340.9924, 2138.531
341.4745, 2140.673
341.9566, 2143.369
342.4387, 2141.907
342.9208, 2139.871
343.4030, 2143.454
343.8851, 2154.794
344.3672, 2169.731
344.8493, 2182.227
345.3314, 2197.370
345.8135, 2197.224
346.2957, 2162.648
346.7778, 2129.099
347.2599, 2122.818
347.7420, 2142.193
348.2241, 2167.178
348.7062, 2179.919
349.1884, 2180.529
349.6705, 2187.651
350.1526, 2207.282
350.6347, 2227.283
351.1168, 2245.105
351.5989, 2261.408
352.0811, 2277.418
352.5632, 2293.735
353.0453, 2309.927
353.5274, 2326.675
354.0095, 2346.497
354.4916, 2357.820
354.9738, 2341.131
355.4559, 2325.321
355.9380, 2335.780
356.4201, 2374.984
356.9022, 2413.265
357.3843, 2425.358
357.8665, 2415.934
358.3486, 2406.012
358.8307, 2397.575
359.3128, 2389.765
359.7949, 2386.099
360.2770, 2383.559
360.7592, 2370.028
361.2413, 2332.575
361.7234, 2289.280
362.2055, 2258.325
362.6876, 2238.970
363.1697, 2222.178
363.6519, 2204.492
364.1340, 2185.017
364.6161, 2160.924
365.0982, 2129.561
365.5803, 2098.332
366.0624, 2069.482
366.5446, 2041.939
367.0267, 2012.655
367.5088, 1981.179
367.9909, 1951.693
368.4730, 1929.840
368.9551, 1915.312
369.4373, 1910.878
369.9194, 1926.890
370.4015, 1942.147
370.8836, 1946.645
371.3657, 1940.752
371.8478, 1927.323
372.3300, 1906.424
372.8121, 1881.458
373.2942, 1872.328
373.7763, 1896.899
374.2584, 1909.886
374.7405, 1891.305
375.2227, 1863.937
375.7048, 1851.876
376.1869, 1862.318
376.6690, 1879.389
377.1511, 1884.088
377.6332, 1875.980
378.1154, 1865.993
378.5975, 1851.629
379.0796, 1840.413
379.5617, 1839.637
380.0438, 1847.142
380.5259, 1852.357
381.0081, 1845.778
381.4902, 1835.846
381.9723, 1839.670
382.4544, 1858.851
382.9365, 1870.761
383.4186, 1857.257
383.9008, 1828.124
384.3829, 1815.366
384.8650, 1829.994
385.3471, 1844.589
385.8292, 1847.148
386.3113, 1841.982
386.7935, 1837.117
387.2756, 1835.007
387.7577, 1832.049
388.2398, 1821.903
388.7219, 1797.759
389.2040, 1788.816
389.6862, 1801.984
390.1683, 1822.970
390.6504, 1850.944
391.1325, 1880.405
391.6146, 1898.938
392.0967, 1897.400
392.5789, 1879.098
393.0610, 1860.013
393.5431, 1828.170
394.0252, 1815.407
394.5073, 1840.053
394.9894, 1876.730
395.4716, 1905.286
395.9537, 1919.946
396.4358, 1920.813
396.9179, 1898.451
397.4000, 1853.180
397.8821, 1832.948
398.3643, 1854.639
398.8464, 1886.095
399.3285, 1909.965
399.8106, 1925.946
400.2927, 1932.664
400.7748, 1918.085
401.2570, 1900.880
401.7391, 1904.939
402.2212, 1929.261
402.7033, 1959.010
403.1854, 1991.194
403.6675, 2020.836
404.1497, 2033.476
404.6317, 2018.982
405.1139, 2013.158
405.5960, 2030.143
406.0781, 2058.352
406.5602, 2085.573
407.0423, 2109.143
407.5244, 2131.706
408.0066, 2156.290
408.4887, 2183.597
408.9708, 2205.166
409.4529, 2216.188
409.9350, 2227.282
410.4171, 2248.600
410.8993, 2270.506
411.3814, 2275.550
411.8635, 2255.244
412.3456, 2222.562
412.8277, 2203.229
413.3098, 2201.366
413.7920, 2198.952
414.2741, 2192.492
414.7562, 2185.523
415.2383, 2179.061
415.7204, 2173.596
416.2025, 2170.766
416.6847, 2172.665
417.1668, 2177.767
417.6489, 2182.297
418.1310, 2185.903
418.6131, 2190.755
419.0952, 2199.543
419.5774, 2210.015
420.0595, 2216.202
420.5416, 2213.112
421.0237, 2214.000
421.5058, 2228.769
421.9879, 2251.013
422.4701, 2266.306
422.9522, 2270.611
423.4343, 2278.526
423.9164, 2308.856
424.3985, 2367.685
424.8806, 2421.302
425.3628, 2471.585
425.8449, 2515.683
426.3270, 2541.294
426.8091, 2560.734
427.2912, 2599.210
427.7733, 2670.999
428.2555, 2764.101
428.7376, 2848.336
429.2197, 2912.164
429.7018, 2994.495
430.1839, 3104.104
430.6660, 3230.860
431.1482, 3370.685
431.6303, 3522.489
432.1124, 3685.919
432.5945, 3857.412
433.0766, 4039.580
433.5587, 4242.363
434.0409, 4467.531
434.5230, 4704.678
435.0051, 4951.463
435.4872, 5205.147
435.9693, 5463.509
436.4514, 5730.397
436.9336, 5993.949
437.4157, 6260.365
437.8978, 6517.382
438.3799, 6745.999
438.8620, 6941.657
439.3441, 7111.189
439.8263, 7270.950
440.3084, 7433.646
440.7905, 7494.575
441.2726, 7440.546
441.7547, 7316.350
442.2368, 7113.435
442.7190, 6858.355
443.2011, 6591.467
443.6832, 6332.561
444.1653, 6070.193
444.6474, 5775.788
445.1295, 5432.174
445.6117, 5118.940
446.0938, 4858.077
446.5759, 4621.712
447.0580, 4402.293
447.5401, 4197.253
448.0222, 4002.204
448.5044, 3813.528
448.9865, 3634.394
449.4686, 3470.402
449.9507, 3321.169
450.4328, 3189.383
450.9149, 3078.238
451.3971, 2984.821
451.8792, 2902.105
452.3613, 2832.804
452.8434, 2766.891
453.3255, 2697.738
453.8076, 2632.170
454.2898, 2580.764
454.7719, 2543.524
455.2540, 2506.699
455.7361, 2456.753
456.2182, 2394.594
456.7003, 2345.795
457.1825, 2317.600
457.6646, 2294.963
458.1467, 2278.879
458.6288, 2265.561
459.1109, 2251.639
459.5930, 2235.919
460.0752, 2218.144
460.5573, 2194.833
461.0394, 2166.037
461.5215, 2148.674
462.0036, 2149.627
462.4857, 2152.962
462.9679, 2148.103
463.4500, 2138.224
463.9321, 2130.044
464.4142, 2123.942
464.8963, 2121.833
465.3784, 2129.542
465.8606, 2143.226
466.3427, 2150.435
466.8248, 2147.355
467.3069, 2135.376
467.7890, 2112.834
468.2711, 2070.702
468.7533, 2054.557
469.2354, 2088.758
469.7175, 2125.363
470.1996, 2135.451
470.6817, 2127.474
471.1638, 2125.830
471.6460, 2144.155
472.1281, 2171.976
472.6102, 2183.445
473.0923, 2170.995
473.5744, 2163.598
474.0565, 2162.703
474.5387, 2170.062
475.0208, 2191.234
475.5029, 2223.459
475.9850, 2253.979
476.4671, 2270.477
476.9492, 2283.161
477.4313, 2313.951
477.9135, 2363.066
478.3956, 2402.223
478.8777, 2415.613
479.3598, 2414.710
479.8419, 2424.049
480.3240, 2448.111
480.8062, 2466.780
481.2883, 2475.837
481.7704, 2478.100
482.2525, 2474.619
482.7346, 2466.503
483.2167, 2455.900
483.6989, 2443.970
484.1810, 2431.530
484.6631, 2423.045
485.1452, 2419.235
485.6273, 2418.537
486.1094, 2420.972
486.5916, 2425.848
487.0737, 2435.866
487.5558, 2449.763
488.0379, 2457.841
488.5200, 2449.766
489.0021, 2429.919
489.4843, 2409.421
489.9664, 2386.718
490.4485, 2373.933
490.9306, 2385.344
491.4127, 2407.887
491.8948, 2409.604
492.3770, 2379.250
492.8591, 2353.466
493.3412, 2349.098
493.8233, 2353.633
494.3054, 2352.107
494.7875, 2342.758
495.2697, 2332.745
495.7518, 2328.462
496.2339, 2329.129
496.7160, 2325.149
497.1981, 2314.346
497.6802, 2301.368
498.1624, 2278.913
498.6445, 2259.460
499.1266, 2258.531
499.6087, 2277.531
500.0908, 2297.257
500.5729, 2294.104
501.0551, 2275.990
501.5372, 2281.851
502.0193, 2320.213
502.5014, 2354.110
502.9835, 2357.696
503.4656, 2343.248
503.9478, 2341.436
504.4299, 2357.729
504.9120, 2377.094
505.3941, 2395.515
505.8762, 2412.897
506.3583, 2429.132
506.8405, 2444.215
507.3226, 2457.455
507.8047, 2467.277
508.2868, 2474.517
508.7689, 2491.024
509.2510, 2531.202
509.7332, 2561.258
510.2153, 2559.701
510.6974, 2555.622
511.1795, 2581.675
511.6616, 2641.704
512.1437, 2703.392
512.6259, 2733.019
513.1080, 2741.113
513.5901, 2768.902
514.0722, 2821.738
514.5543, 2873.307
515.0364, 2908.628
515.5186, 2932.191
516.0007, 2954.715
516.4828, 2965.879
516.9649, 2997.508
517.4470, 3074.201
517.9291, 3167.742
518.4113, 3247.547
518.8934, 3310.854
519.3755, 3372.187
519.8576, 3441.630
520.3397, 3520.080
520.8218, 3613.277
521.3040, 3713.821
521.7861, 3843.273
522.2682, 4020.040
522.7503, 4212.521
523.2324, 4385.121
523.7145, 4539.052
524.1967, 4722.814
524.6788, 4988.678
525.1609, 5301.752
525.6430, 5586.120
526.1251, 5838.171
526.6072, 6094.541
527.0894, 6375.017
527.5715, 6670.050
528.0536, 6964.000
528.5357, 7262.422
529.0178, 7547.590
529.4999, 7830.941
529.9821, 8091.012
530.4642, 8322.201
530.9463, 8514.871
531.4284, 8653.814
531.9105, 8731.284
532.3926, 8739.030
532.8748, 8647.845
533.3569, 8442.963
533.8390, 8184.653
534.3211, 7856.916
534.8032, 7497.995
535.2853, 7127.106
535.7675, 6746.884
536.2496, 6363.519
536.7317, 5964.679
537.2138, 5573.753
537.6959, 5220.257
538.1780, 4900.661
538.6602, 4600.274
539.1423, 4313.517
539.6244, 4051.298
540.1065, 3831.866
540.5886, 3662.801
541.0707, 3512.828
541.5529, 3390.448
542.0350, 3276.506
542.5171, 3162.198
542.9992, 3050.939
543.4813, 2950.128
543.9634, 2862.454
544.4456, 2781.708
544.9277, 2697.599
545.4098, 2610.107
545.8919, 2532.740
546.3740, 2465.917
546.8561, 2411.178
547.3383, 2375.610
547.8204, 2353.096
548.3025, 2329.273
548.7846, 2308.922
549.2667, 2278.115
549.7488, 2217.389
550.2310, 2147.297
550.7131, 2099.411
551.1952, 2078.705
551.6773, 2069.823
552.1594, 2060.165
552.6415, 2049.274
553.1237, 2029.189
553.6058, 1986.135
554.0879, 1956.202
554.5700, 1957.414
555.0521, 1966.308
555.5342, 1961.544
556.0164, 1940.878
556.4985, 1918.487
556.9806, 1898.935
557.4627, 1885.544
557.9448, 1890.812
558.4269, 1913.657
558.9091, 1924.374
559.3912, 1907.086
559.8733, 1872.240
560.3554, 1838.834
560.8375, 1796.390
561.3196, 1780.352
561.8018, 1818.929
562.2839, 1858.221
562.7660, 1871.869
563.2481, 1860.354
563.7302, 1827.301
564.2123, 1771.725
564.6945, 1713.785
565.1766, 1691.299
565.6587, 1705.770
566.1408, 1713.392
566.6229, 1705.334
567.1050, 1694.312
567.5872, 1687.923
568.0693, 1686.248
568.5514, 1690.947
569.0335, 1710.391
569.5156, 1726.562
569.9977, 1726.469
570.4799, 1719.577
570.9620, 1718.376
571.4441, 1725.799
571.9262, 1740.560
572.4083, 1763.871
572.8904, 1793.725
573.3726, 1807.130
573.8547, 1796.400
574.3368, 1782.407
574.8189, 1767.164
575.3010, 1752.963
575.7831, 1740.469
576.2653, 1730.162
576.7474, 1725.921
577.2295, 1734.347
577.7116, 1747.350
578.1937, 1754.569
578.6758, 1756.315
579.1580, 1756.127
579.6401, 1755.391
580.1222, 1754.044
580.6042, 1751.779
581.0864, 1747.634
581.5685, 1745.523
582.0506, 1750.454
582.5327, 1751.858
583.0148, 1738.580
583.4969, 1720.769
583.9791, 1716.142
584.4612, 1731.716
584.9433, 1753.858
585.4254, 1769.226
585.9075, 1778.511
586.3896, 1784.825
586.8718, 1788.088
587.3539, 1790.412
587.8360, 1793.882
588.3181, 1797.345
588.8002, 1796.112
589.2823, 1786.871
589.7645, 1778.671
590.2466, 1768.194
590.7287, 1762.844
591.2108, 1776.781
591.6929, 1803.174
592.1750, 1816.186
592.6572, 1796.271
593.1393, 1759.306
593.6214, 1743.665
594.1035, 1751.815
594.5856, 1757.901
595.0677, 1753.729
595.5499, 1750.413
596.0320, 1760.411
596.5141, 1780.797
596.9962, 1798.222
597.4783, 1813.601
597.9604, 1822.403
598.4426, 1821.473
598.9247, 1812.891
599.4068, 1797.862
599.8889, 1777.604
600.3710, 1755.964
600.8531, 1735.153
601.3353, 1716.412
601.8174, 1712.970
602.2995, 1733.772
602.7816, 1749.490
603.2637, 1755.960
603.7458, 1750.387
604.2280, 1721.229
604.7101, 1669.799
605.1922, 1635.152
605.6743, 1643.683
606.1564, 1665.888
606.6385, 1679.856
607.1207, 1685.003
607.6028, 1680.611
608.0849, 1666.308
608.5670, 1650.262
609.0491, 1644.568
609.5313, 1651.311
610.0134, 1652.488
610.4955, 1642.931
610.9776, 1634.700
611.4597, 1633.364
611.9418, 1634.299
612.4240, 1631.628
612.9061, 1624.118
613.3882, 1616.778
613.8703, 1611.505
614.3524, 1608.746
614.8345, 1611.044
615.3167, 1617.312
615.7988, 1620.245
616.2809, 1615.742
616.7630, 1608.207
617.2451, 1607.246
617.7272, 1618.478
618.2094, 1620.316
618.6915, 1596.884
