##NAMES=Natrolite
##RRUFFID=R040112
##IDEAL CHEMISTRY=Na_2_(Si_3_Al_2_)O_10_&#183;2H_2_O
##LOCALITY=Ice River Alkaline Complex, Moose Creek Valley, Yoho National Park, British Columbia, Canada
##OWNER=RRUFF
##SOURCE=National Museums of Canada
##DESCRIPTION=Colorless pseudohexagonal prism
##STATUS=The identification of this mineral has been confirmed by X-ray diffraction and chemical analysis
##URL=rruff.info/R040112
##MEASURED CHEMISTRY=Na_2.00_(Si_3.00_Al_2.00_)O_10_Â·2H_2_O
150.4285, 2499.381
150.9106, 2546.864
151.3928, 2609.702
151.8749, 2670.022
152.3570, 2713.310
152.8391, 2761.857
153.3212, 2835.465
153.8033, 2935.510
154.2855, 3054.979
154.7676, 3186.864
155.2497, 3335.064
155.7318, 3514.072
156.2139, 3734.790
156.6960, 3983.495
157.1782, 4246.942
157.6603, 4524.530
158.1424, 4814.019
158.6245, 5125.458
159.1066, 5447.780
159.5887, 5751.868
160.0709, 6054.952
160.5530, 6325.870
161.0351, 6520.616
161.5172, 6638.094
161.9993, 6675.597
162.4814, 6604.264
162.9636, 6453.309
163.4457, 6258.072
163.9278, 6021.201
164.4099, 5750.493
164.8920, 5452.214
165.3741, 5112.238
165.8563, 4786.589
166.3384, 4508.612
166.8205, 4267.545
167.3026, 4049.458
167.7847, 3842.608
168.2668, 3656.273
168.7490, 3512.698
169.2311, 3420.360
169.7132, 3352.522
170.1953, 3296.166
170.6774, 3251.899
171.1595, 3223.880
171.6417, 3224.187
172.1238, 3237.757
172.6059, 3227.423
173.0880, 3190.144
173.5701, 3132.602
174.0522, 3055.728
174.5344, 2963.503
175.0165, 2860.470
175.4986, 2743.471
175.9807, 2619.816
176.4628, 2507.117
176.9449, 2403.896
177.4271, 2316.159
177.9092, 2241.324
178.3913, 2181.672
178.8734, 2141.731
179.3555, 2125.278
179.8376, 2127.997
180.3197, 2136.207
180.8019, 2145.663
181.2840, 2169.858
181.7661, 2210.381
182.2482, 2265.792
182.7303, 2336.463
183.2124, 2425.413
183.6946, 2525.263
184.1767, 2616.750
184.6588, 2704.125
185.1409, 2772.431
185.6230, 2824.568
186.1051, 2856.832
186.5873, 2866.952
187.0694, 2854.806
187.5515, 2816.943
188.0336, 2738.905
188.5157, 2594.629
188.9978, 2454.215
189.4800, 2327.869
189.9621, 2215.365
190.4442, 2115.441
190.9263, 2028.579
191.4084, 1953.730
191.8905, 1888.221
192.3727, 1830.083
192.8548, 1786.362
193.3369, 1756.223
193.8190, 1738.830
194.3011, 1734.610
194.7832, 1743.837
195.2654, 1763.299
195.7475, 1786.261
196.2296, 1813.367
196.7117, 1843.612
197.1938, 1876.258
197.6759, 1911.667
198.1581, 1948.316
198.6402, 1986.028
199.1223, 2028.865
199.6044, 2084.505
200.0865, 2155.621
200.5686, 2236.089
201.0508, 2319.339
201.5329, 2413.262
202.0150, 2524.297
202.4971, 2654.371
202.9792, 2797.590
203.4613, 2948.134
203.9435, 3117.365
204.4256, 3266.406
204.9077, 3412.708
205.3898, 3529.796
205.8719, 3602.079
206.3540, 3625.476
206.8362, 3603.093
207.3183, 3533.302
207.8004, 3398.962
208.2825, 3259.921
208.7646, 3115.676
209.2467, 2968.149
209.7289, 2816.324
210.2110, 2661.972
210.6931, 2508.963
211.1752, 2358.508
211.6573, 2204.280
212.1395, 2080.530
212.6216, 2003.234
213.1037, 1940.773
213.5858, 1880.935
214.0679, 1822.391
214.5500, 1769.100
215.0322, 1726.029
215.5143, 1695.126
215.9964, 1662.353
216.4785, 1619.537
216.9606, 1582.253
217.4427, 1560.350
217.9249, 1549.940
218.4070, 1539.105
218.8891, 1517.390
219.3712, 1484.403
219.8533, 1454.768
220.3354, 1431.012
220.8176, 1408.349
221.2997, 1388.778
221.7818, 1369.304
222.2639, 1344.253
222.7460, 1309.245
223.2281, 1265.021
223.7103, 1222.725
224.1924, 1183.334
224.6745, 1144.853
225.1566, 1106.172
225.6387, 1068.165
226.1208, 1031.802
226.6030, 997.6075
227.0851, 965.9285
227.5672, 938.1251
228.0493, 912.8895
228.5314, 894.0633
229.0135, 885.0352
229.4957, 881.2994
229.9778, 878.2283
230.4599, 873.7924
230.9420, 868.2876
231.4241, 861.8707
231.9062, 851.1622
232.3884, 845.8802
232.8705, 841.7972
233.3526, 845.5105
233.8347, 868.6519
234.3168, 913.9741
234.7989, 963.7843
235.2811, 983.0286
235.7632, 948.9398
236.2453, 939.0308
236.7274, 975.1004
237.2095, 1023.552
237.6916, 1063.605
238.1738, 1090.818
238.6559, 1112.921
239.1380, 1141.172
239.6201, 1180.047
240.1022, 1208.314
240.5843, 1228.676
241.0665, 1235.487
241.5486, 1222.478
242.0307, 1191.244
242.5128, 1150.422
242.9949, 1107.181
243.4770, 1061.416
243.9592, 1013.428
244.4413, 957.1083
244.9234, 904.0181
245.4055, 856.6198
245.8876, 815.7411
246.3697, 782.9254
246.8519, 760.6291
247.3340, 747.6349
247.8161, 733.9825
248.2982, 717.1091
248.7803, 703.1958
249.2624, 695.6564
249.7446, 691.9014
250.2267, 687.6024
250.7088, 679.9141
251.1909, 670.7039
251.6730, 665.6162
252.1551, 666.4798
252.6373, 667.8591
253.1194, 667.2070
253.6015, 666.3935
254.0836, 667.5609
254.5657, 671.6190
255.0478, 677.3847
255.5300, 682.8080
256.0121, 687.3658
256.4942, 693.5541
256.9763, 703.3229
257.4584, 714.3134
257.9406, 725.3145
258.4227, 736.0924
258.9048, 746.1676
259.3869, 754.8781
259.8690, 762.1805
260.3511, 769.3904
260.8333, 776.1993
261.3154, 783.6129
261.7975, 792.4994
262.2796, 802.8151
262.7617, 813.6245
263.2438, 823.5110
263.7260, 833.0510
264.2081, 845.9455
264.6902, 864.6989
265.1723, 883.5969
265.6544, 897.9160
266.1365, 908.8814
266.6187, 920.2968
267.1008, 935.5114
267.5829, 952.1198
268.0650, 963.5552
268.5471, 967.3152
269.0292, 973.5367
269.5114, 993.7591
269.9935, 1020.852
270.4756, 1042.607
270.9577, 1051.646
271.4398, 1057.531
271.9219, 1074.412
272.4041, 1102.854
272.8862, 1122.999
273.3683, 1121.399
273.8504, 1106.338
274.3325, 1095.142
274.8146, 1090.496
275.2968, 1086.217
275.7789, 1078.653
276.2610, 1068.125
276.7431, 1056.089
277.2252, 1043.614
277.7073, 1028.907
278.1895, 1008.185
278.6716, 980.4172
279.1537, 953.2140
279.6358, 926.8522
280.1179, 903.4272
280.6000, 887.5070
281.0822, 880.5323
281.5643, 878.0120
282.0464, 874.5046
282.5285, 869.6230
283.0106, 868.9590
283.4927, 875.7699
283.9749, 885.4175
284.4570, 893.4114
284.9391, 899.5486
285.4212, 906.8978
285.9033, 917.9587
286.3854, 932.8021
286.8676, 948.5308
287.3497, 965.6881
287.8318, 983.1301
288.3139, 1001.736
288.7960, 1020.371
289.2781, 1036.426
289.7603, 1048.736
290.2424, 1056.969
290.7245, 1059.132
291.2066, 1048.292
291.6887, 1040.383
292.1708, 1038.163
292.6530, 1040.030
293.1351, 1044.521
293.6172, 1051.064
294.0993, 1058.787
294.5814, 1065.957
295.0635, 1070.668
295.5457, 1078.771
296.0278, 1090.316
296.5099, 1104.845
296.9920, 1122.102
297.4741, 1142.045
297.9562, 1164.191
298.4384, 1187.434
298.9205, 1210.656
299.4026, 1243.670
299.8847, 1289.156
300.3668, 1341.332
300.8489, 1397.484
301.3310, 1459.156
301.8131, 1529.746
302.2953, 1611.994
302.7774, 1704.539
303.2595, 1800.959
303.7416, 1905.518
304.2237, 2007.640
304.7058, 2124.181
305.1880, 2229.440
305.6701, 2297.564
306.1522, 2319.048
306.6343, 2299.524
307.1164, 2245.093
307.5985, 2152.224
308.0807, 2038.092
308.5628, 1888.026
309.0449, 1729.263
309.5270, 1572.982
310.0091, 1421.744
310.4912, 1284.064
310.9734, 1167.047
311.4555, 1069.997
311.9376, 988.4240
312.4197, 923.5870
312.9018, 874.1248
313.3839, 840.0402
313.8661, 818.5668
314.3482, 803.4860
314.8303, 795.9492
315.3124, 791.3396
315.7945, 779.3756
316.2766, 757.9937
316.7588, 741.5482
317.2409, 741.0757
317.7230, 749.7258
318.2051, 756.2838
318.6872, 759.0803
319.1693, 760.2396
319.6515, 758.9379
320.1336, 756.5419
320.6157, 759.9807
321.0978, 773.3442
321.5799, 790.7771
322.0620, 802.5554
322.5442, 807.6916
323.0263, 814.4277
323.5084, 822.3967
323.9905, 834.4268
324.4726, 856.4722
324.9547, 889.5533
325.4369, 923.7749
325.9190, 947.9647
326.4011, 960.6945
326.8832, 986.3569
327.3653, 1035.358
327.8474, 1087.306
328.3296, 1132.494
328.8117, 1171.266
329.2938, 1207.318
329.7759, 1243.493
330.2580, 1277.921
330.7401, 1300.893
331.2223, 1308.950
331.7044, 1309.772
332.1865, 1306.776
332.6686, 1295.712
333.1507, 1269.352
333.6328, 1226.352
334.1150, 1175.451
334.5971, 1128.965
335.0792, 1088.090
335.5613, 1049.163
336.0434, 1009.693
336.5255, 974.1153
337.0077, 945.5592
337.4898, 923.3519
337.9719, 904.4979
338.4540, 886.7617
338.9361, 870.3731
339.4182, 857.2844
339.9004, 847.0771
340.3825, 841.4272
340.8646, 843.1141
341.3467, 848.1649
341.8288, 851.5208
342.3109, 851.1340
342.7931, 849.2083
343.2752, 848.7503
343.7573, 849.8055
344.2394, 852.0370
344.7215, 855.4796
345.2036, 860.1210
345.6858, 866.1166
346.1679, 873.4555
346.6500, 881.3226
347.1321, 890.2684
347.6142, 899.3344
348.0963, 905.0206
348.5785, 905.6299
349.0606, 907.0888
349.5427, 913.9147
350.0248, 925.3398
350.5069, 939.7517
350.9890, 958.1439
351.4712, 978.5022
351.9533, 998.6057
352.4354, 1019.009
352.9175, 1043.155
353.3996, 1073.687
353.8817, 1107.780
354.3639, 1137.468
354.8460, 1158.551
355.3281, 1184.543
355.8102, 1220.981
356.2923, 1262.718
356.7744, 1305.233
357.2566, 1347.240
357.7387, 1385.185
358.2208, 1415.226
358.7029, 1436.913
359.1850, 1452.181
359.6671, 1465.619
360.1493, 1469.303
360.6314, 1457.905
361.1135, 1434.024
361.5956, 1403.813
362.0777, 1370.902
362.5598, 1333.695
363.0420, 1285.199
363.5241, 1214.224
364.0062, 1149.873
364.4883, 1092.828
364.9704, 1044.624
365.4525, 1008.574
365.9347, 984.6685
366.4168, 966.0287
366.8989, 946.4016
367.3810, 925.7073
367.8631, 902.1636
368.3452, 869.4135
368.8274, 841.5704
369.3095, 828.7803
369.7916, 825.8866
370.2737, 820.4491
370.7558, 805.3513
371.2379, 785.4407
371.7201, 768.3267
372.2022, 754.0612
372.6843, 742.7380
373.1664, 738.4113
373.6485, 734.5413
374.1306, 719.7815
374.6128, 689.6411
375.0949, 663.6394
375.5770, 655.3920
376.0591, 657.9887
376.5412, 658.7936
377.0233, 655.5267
377.5055, 647.9390
377.9876, 633.4058
378.4697, 610.9141
378.9518, 598.2411
379.4339, 603.5062
379.9160, 611.5747
380.3982, 613.8966
380.8803, 611.5665
381.3624, 609.1227
381.8445, 609.0869
382.3266, 610.3972
382.8087, 609.8261
383.2909, 606.9695
383.7730, 602.4821
384.2551, 593.6168
384.7372, 584.9572
385.2193, 580.6911
385.7014, 581.1713
386.1836, 583.2680
386.6657, 583.4702
387.1478, 581.5482
387.6299, 582.3462
388.1120, 591.2190
388.5941, 596.4625
389.0763, 589.8201
389.5584, 578.2336
390.0405, 573.1041
390.5226, 580.1661
391.0047, 593.0086
391.4868, 602.1713
391.9690, 607.4333
392.4511, 610.5430
392.9332, 609.5682
393.4153, 608.7383
393.8974, 612.2685
394.3795, 620.1786
394.8617, 628.6987
395.3438, 636.0833
395.8259, 642.8602
396.3080, 649.9667
396.7901, 657.4808
397.2722, 664.8494
397.7544, 670.7334
398.2365, 676.2119
398.7186, 686.2185
399.2007, 704.6762
399.6828, 723.0355
400.1649, 738.2854
400.6471, 751.1714
401.1292, 761.8705
401.6113, 770.4791
402.0934, 780.3787
402.5755, 797.2615
403.0576, 824.8500
403.5398, 847.8927
404.0219, 862.0294
404.5040, 876.5354
404.9861, 893.7508
405.4682, 915.3793
405.9503, 945.3441
406.4325, 987.6473
406.9146, 1036.656
407.3967, 1070.348
407.8788, 1078.914
408.3609, 1092.169
408.8430, 1115.444
409.3252, 1145.566
409.8073, 1184.507
410.2894, 1231.237
410.7715, 1273.026
411.2536, 1298.151
411.7357, 1308.681
412.2179, 1313.334
412.7000, 1310.862
413.1821, 1306.807
413.6642, 1306.638
414.1463, 1307.490
414.6284, 1303.176
415.1106, 1291.073
415.5927, 1275.271
416.0748, 1258.262
416.5569, 1239.936
417.0390, 1219.045
417.5211, 1194.396
418.0033, 1170.053
418.4854, 1151.827
418.9675, 1140.367
419.4496, 1134.188
419.9317, 1137.714
420.4138, 1142.963
420.8960, 1142.180
421.3781, 1137.871
421.8602, 1138.779
422.3423, 1150.617
422.8244, 1172.051
423.3065, 1197.196
423.7887, 1226.581
424.2708, 1259.397
424.7529, 1293.477
425.2350, 1331.952
425.7171, 1376.708
426.1992, 1428.412
426.6814, 1486.907
427.1635, 1549.970
427.6456, 1618.805
428.1277, 1702.853
428.6098, 1806.536
429.0919, 1917.005
429.5741, 2028.312
430.0562, 2142.337
430.5383, 2261.579
431.0204, 2386.135
431.5025, 2517.195
431.9846, 2647.421
432.4668, 2783.536
432.9489, 2951.081
433.4310, 3158.551
433.9131, 3392.184
434.3952, 3634.856
434.8773, 3884.144
435.3595, 4166.779
435.8416, 4474.333
436.3237, 4823.718
436.8058, 5235.937
437.2879, 5699.130
437.7701, 6193.226
438.2522, 6709.452
438.7343, 7238.445
439.2164, 7758.688
439.6985, 8318.694
440.1806, 8774.717
440.6628, 9175.265
441.1449, 9449.257
441.6270, 9567.256
442.1091, 9519.630
442.5912, 9291.279
443.0733, 8845.924
443.5555, 8220.673
444.0376, 7539.697
444.5197, 6768.594
445.0018, 6036.994
445.4839, 5383.447
445.9660, 4795.946
446.4482, 4267.172
446.9303, 3798.901
447.4124, 3386.869
447.8945, 3035.938
448.3766, 2738.041
448.8587, 2481.441
449.3409, 2264.114
449.8230, 2080.912
450.3051, 1931.215
450.7872, 1813.787
451.2693, 1706.074
451.7514, 1606.282
452.2336, 1517.425
452.7157, 1443.897
453.1978, 1380.959
453.6799, 1322.778
454.1620, 1267.592
454.6441, 1217.410
455.1263, 1175.416
455.6084, 1143.043
456.0905, 1111.005
456.5726, 1072.680
457.0547, 1042.088
457.5368, 1028.333
458.0190, 1024.114
458.5011, 1018.527
458.9832, 1007.386
459.4653, 991.2297
459.9474, 966.5469
460.4295, 933.1348
460.9117, 912.2212
461.3938, 913.3199
461.8759, 920.8104
462.3580, 919.8968
462.8401, 912.4658
463.3222, 908.6568
463.8044, 915.9365
464.2865, 924.2709
464.7686, 924.0338
465.2507, 916.8099
465.7328, 908.3428
466.2149, 900.2520
466.6971, 895.3983
467.1792, 900.1545
467.6613, 923.2991
468.1434, 937.4549
468.6255, 936.9581
469.1076, 932.6137
469.5898, 927.0628
470.0719, 923.3447
470.5540, 927.7245
471.0361, 945.2003
471.5182, 970.6094
472.0003, 989.1294
472.4825, 998.6121
472.9646, 1006.713
473.4467, 1010.333
473.9288, 1016.498
474.4109, 1030.949
474.8930, 1053.345
475.3752, 1077.674
475.8573, 1101.159
476.3394, 1124.084
476.8215, 1147.733
477.3036, 1172.099
477.7857, 1193.501
478.2679, 1207.656
478.7500, 1219.641
479.2321, 1243.675
479.7142, 1286.373
480.1963, 1322.280
480.6784, 1344.996
481.1606, 1359.907
481.6427, 1369.735
482.1248, 1376.067
482.6069, 1382.127
483.0890, 1390.398
483.5711, 1400.414
484.0533, 1410.206
484.5354, 1423.655
485.0175, 1430.056
485.4996, 1420.083
485.9817, 1408.855
486.4638, 1410.103
486.9460, 1424.257
487.4281, 1439.446
487.9102, 1446.616
488.3923, 1447.694
488.8744, 1446.823
489.3565, 1442.808
489.8387, 1444.505
490.3208, 1460.601
490.8029, 1483.136
491.2850, 1495.435
491.7671, 1495.006
492.2492, 1491.935
492.7314, 1487.161
493.2135, 1482.861
493.6956, 1482.807
494.1777, 1486.593
494.6598, 1488.887
495.1419, 1485.131
495.6241, 1476.730
496.1062, 1472.877
496.5883, 1479.185
497.0704, 1482.212
497.5525, 1476.127
498.0346, 1469.486
498.5168, 1469.510
498.9989, 1476.816
499.4810, 1487.155
499.9631, 1498.271
500.4452, 1509.594
500.9273, 1518.003
501.4095, 1522.358
501.8916, 1528.567
502.3737, 1538.336
502.8558, 1552.256
503.3379, 1570.505
503.8200, 1593.158
504.3022, 1619.612
504.7843, 1652.473
505.2664, 1687.343
505.7485, 1716.887
506.2306, 1741.881
506.7127, 1770.611
507.1949, 1809.190
507.6770, 1855.466
508.1591, 1899.662
508.6412, 1942.428
509.1233, 1982.173
509.6054, 2008.609
510.0876, 2039.915
510.5697, 2095.315
511.0518, 2170.595
511.5339, 2241.644
512.0161, 2289.578
512.4982, 2321.780
512.9803, 2357.227
513.4624, 2395.303
513.9445, 2439.226
514.4266, 2490.958
514.9088, 2548.678
515.3909, 2610.003
515.8730, 2675.147
516.3551, 2741.721
516.8372, 2813.006
517.3193, 2882.604
517.8015, 2939.941
518.2836, 2989.224
518.7657, 3049.359
519.2478, 3130.574
519.7299, 3226.532
520.2120, 3320.974
520.6942, 3401.686
521.1763, 3505.918
521.6584, 3639.621
522.1405, 3787.808
522.6226, 3940.626
523.1047, 4101.870
523.5869, 4277.836
524.0690, 4469.664
524.5511, 4684.761
525.0332, 4935.811
525.5153, 5222.763
525.9974, 5535.254
526.4796, 5867.210
526.9617, 6230.672
527.4438, 6643.234
527.9259, 7101.066
528.4080, 7578.088
528.8901, 8073.504
529.3723, 8585.454
529.8544, 9135.162
530.3365, 9697.658
530.8186, 10242.14
531.3007, 10757.61
531.7828, 11190.28
532.2650, 11468.26
532.7471, 11586.74
533.2292, 11586.25
533.7113, 11473.21
534.1934, 11220.66
534.6755, 10780.40
535.1577, 10214.72
535.6398, 9592.905
536.1219, 8928.231
536.6040, 8246.899
537.0861, 7554.546
537.5682, 6865.557
538.0504, 6225.570
538.5325, 5641.759
539.0146, 5118.477
539.4967, 4670.459
539.9788, 4290.480
540.4609, 3946.835
540.9431, 3638.012
541.4252, 3358.394
541.9073, 3109.757
542.3894, 2888.068
542.8715, 2689.923
543.3536, 2513.878
543.8358, 2359.834
544.3179, 2229.026
544.8000, 2118.336
545.2821, 2014.309
545.7642, 1916.566
546.2463, 1826.812
546.7285, 1746.724
547.2106, 1674.847
547.6926, 1612.103
548.1747, 1557.782
548.6569, 1503.963
549.1390, 1445.644
549.6211, 1387.721
550.1032, 1333.762
550.5853, 1284.663
551.0674, 1245.811
551.5496, 1219.812
552.0317, 1200.633
552.5138, 1178.525
552.9959, 1152.315
553.4780, 1126.833
553.9601, 1101.656
554.4423, 1077.420
554.9244, 1053.025
555.4065, 1030.139
555.8886, 1012.604
556.3707, 1001.935
556.8528, 991.4811
557.3350, 970.9691
557.8171, 942.1712
558.2992, 919.5662
558.7813, 904.8536
559.2634, 895.4083
559.7455, 892.8903
560.2277, 893.9428
560.7098, 887.7058
561.1919, 867.7451
561.6740, 851.6027
562.1561, 849.6356
562.6382, 851.2289
563.1204, 843.2419
563.6025, 826.0900
564.0846, 810.7546
564.5667, 805.5041
565.0488, 807.6013
565.5309, 806.0703
566.0131, 799.4853
566.4952, 792.8854
566.9773, 787.4927
567.4594, 781.9966
567.9415, 775.9678
568.4236, 769.1937
568.9058, 760.9362
569.3879, 748.0735
569.8700, 736.0694
570.3521, 731.0672
570.8342, 731.6110
571.3163, 733.6413
571.7985, 736.1990
572.2806, 736.7479
572.7627, 730.8118
573.2448, 716.5144
573.7269, 713.5971
574.2090, 737.0358
574.6912, 753.3622
575.1733, 750.0176
575.6554, 737.4381
576.1375, 726.6560
576.6196, 720.3840
577.1017, 716.0169
577.5839, 711.3488
578.0660, 706.6809
578.5481, 702.5198
579.0302, 698.6181
579.5123, 697.5841
579.9944, 701.0208
580.4766, 707.6821
580.9587, 716.5861
581.4408, 729.9868
581.9229, 736.5614
582.4050, 728.2001
582.8871, 718.4152
583.3693, 716.0723
583.8514, 719.4873
584.3335, 723.7786
584.8156, 726.7236
585.2977, 728.8029
585.7798, 730.9717
586.2620, 733.3537
586.7441, 734.4742
587.2262, 735.1293
587.7083, 733.0542
588.1904, 719.1559
588.6725, 703.7267
589.1547, 706.4331
589.6368, 737.7696
590.1189, 766.2994
590.6010, 776.6280
591.0831, 775.8224
591.5652, 769.5719
592.0474, 760.2558
592.5295, 753.4510
593.0116, 752.8969
593.4937, 757.4421
593.9758, 763.8864
594.4579, 773.3283
594.9401, 781.9809
595.4222, 792.1083
595.9043, 798.8718
596.3864, 797.8571
596.8685, 791.4925
597.3506, 786.2086
597.8328, 785.6233
598.3149, 784.4270
598.7970, 776.7794
599.2791, 764.8462
599.7612, 754.9118
600.2433, 748.1593
600.7255, 739.5212
601.2076, 723.8600
601.6897, 702.5206
602.1718, 686.5054
602.6539, 679.1635
603.1360, 672.8663
603.6182, 665.7693
604.1003, 660.4949
604.5824, 660.2832
605.0645, 664.0563
605.5466, 667.3654
606.0287, 668.6014
606.5109, 666.7288
606.9930, 658.4496
607.4751, 644.7013
607.9572, 632.9584
608.4393, 624.9421
608.9214, 619.7776
609.4036, 617.3477
609.8857, 617.6585
610.3678, 615.5126
610.8499, 609.1865
611.3320, 602.8553
611.8141, 595.6896
612.2963, 590.0876
612.7784, 589.7002
613.2605, 593.9935
613.7426, 597.9202
614.2247, 596.9680
614.7068, 593.5322
615.1890, 594.5658
615.6711, 600.4019
616.1532, 603.0249
616.6353, 599.5565
617.1174, 593.0245
617.5995, 585.3082
618.0817, 576.3654
618.5638, 572.6182
619.0459, 575.9277
619.5280, 582.5930
620.0101, 596.1671
620.4922, 609.8348
620.9744, 614.1719
621.4565, 608.1984
621.9386, 599.3090
622.4207, 593.1040
622.9028, 589.7393
623.3849, 591.1447
623.8671, 598.5923
624.3492, 603.4432
624.8313, 603.2194
625.3134, 599.1539
625.7955, 589.0731
626.2776, 573.4272
626.7598, 568.3102
627.2419, 587.6771
627.7240, 605.3954
628.2061, 606.3395
628.6882, 598.0367
629.1703, 590.4391
629.6525, 586.5912
630.1346, 586.4866
630.6167, 591.1456
631.0988, 599.4018
631.5809, 604.8223
632.0630, 607.1870
632.5452, 607.4947
633.0273, 604.7509
633.5094, 601.2930
633.9915, 598.6810
634.4736, 596.9915
634.9557, 599.4547
635.4379, 612.7756
635.9200, 624.0264
636.4021, 624.5161
636.8842, 618.7005
637.3663, 613.9320
637.8484, 611.8357
638.3306, 608.4626
638.8127, 598.5707
639.2948, 584.2163
639.7769, 579.3960
640.2590, 587.2436
640.7411, 593.4344
641.2233, 593.2286
641.7054, 590.3069
642.1875, 588.8971
642.6696, 588.7385
643.1517, 586.3279
643.6339, 577.6019
644.1160, 570.0158
644.5981, 569.5515
645.0802, 572.1238
