##NAMES=Natroalunite
##RRUFFID=R060406
##IDEAL CHEMISTRY=NaAl_3_(S^6+^O_4_)_2_(OH)_6_
##LOCALITY=Sugar Loaf Butte, Arizona, USA
##OWNER=RRUFF
##SOURCE=American Museum of Natural History
##DESCRIPTION=Tan colored consolidated powder
##STATUS=The identification of this mineral has been confirmed only by X-ray diffraction
##URL=rruff.info/R060406
165.3335, 2013.533
165.8156, 2005.412
166.2977, 1997.931
166.7798, 1989.603
167.2620, 1981.305
167.7441, 1974.463
168.2262, 1969.769
168.7083, 1966.741
169.1904, 1964.166
169.6725, 1962.111
170.1547, 1960.250
170.6368, 1958.609
171.1189, 1957.106
171.6010, 1955.447
172.0831, 1953.476
172.5652, 1951.276
173.0474, 1949.000
173.5295, 1946.549
174.0116, 1944.216
174.4937, 1941.972
174.9758, 1939.814
175.4579, 1938.660
175.9401, 1940.250
176.4222, 1942.415
176.9043, 1942.599
177.3864, 1939.864
177.8685, 1936.208
178.3506, 1934.292
178.8328, 1934.652
179.3149, 1934.833
179.7970, 1933.251
180.2791, 1931.445
180.7612, 1931.167
181.2433, 1933.328
181.7255, 1936.225
182.2076, 1935.718
182.6897, 1928.565
183.1718, 1924.013
183.6539, 1925.477
184.1360, 1929.404
184.6181, 1932.287
185.1003, 1932.429
185.5824, 1930.430
186.0645, 1928.421
186.5466, 1926.528
187.0287, 1924.434
187.5108, 1921.712
187.9930, 1918.889
188.4751, 1916.618
188.9572, 1915.283
189.4393, 1914.782
189.9214, 1914.581
190.4035, 1915.645
190.8857, 1915.962
191.3678, 1914.293
191.8499, 1911.689
192.3320, 1910.180
192.8141, 1911.195
193.2962, 1914.182
193.7784, 1914.724
194.2605, 1910.823
194.7426, 1907.231
195.2247, 1905.691
195.7068, 1905.786
196.1889, 1906.268
196.6711, 1906.543
197.1532, 1906.504
197.6353, 1905.854
198.1174, 1904.068
198.5995, 1902.196
199.0816, 1900.403
199.5638, 1898.807
200.0459, 1898.357
200.5280, 1900.366
201.0101, 1903.721
201.4922, 1905.170
201.9743, 1903.861
202.4565, 1901.383
202.9386, 1898.493
203.4207, 1895.148
203.9028, 1892.857
204.3849, 1892.977
204.8670, 1894.577
205.3492, 1896.501
205.8313, 1899.032
206.3134, 1901.196
206.7955, 1901.713
207.2776, 1900.406
207.7597, 1898.271
208.2419, 1893.929
208.7240, 1889.660
209.2061, 1888.301
209.6882, 1891.543
210.1703, 1896.442
210.6524, 1897.312
211.1346, 1891.887
211.6167, 1888.291
212.0988, 1890.089
212.5809, 1894.294
213.0630, 1898.379
213.5451, 1901.401
214.0273, 1903.473
214.5094, 1904.644
214.9915, 1904.033
215.4736, 1904.143
215.9557, 1905.470
216.4378, 1907.613
216.9200, 1910.531
217.4021, 1914.251
217.8842, 1918.079
218.3663, 1919.952
218.8484, 1918.346
219.3305, 1916.832
219.8127, 1915.180
220.2948, 1914.081
220.7769, 1914.389
221.2590, 1916.495
221.7411, 1919.857
222.2232, 1922.880
222.7054, 1925.277
223.1875, 1927.638
223.6696, 1930.131
224.1517, 1932.563
224.6338, 1934.361
225.1159, 1935.262
225.5980, 1936.028
226.0802, 1938.928
226.5623, 1946.197
227.0444, 1953.004
227.5265, 1958.360
228.0086, 1963.251
228.4907, 1968.962
228.9729, 1976.059
229.4550, 1984.000
229.9371, 1991.250
230.4192, 1996.740
230.9013, 2003.238
231.3834, 2012.175
231.8656, 2022.139
232.3477, 2031.491
232.8298, 2039.827
233.3119, 2046.409
233.7940, 2049.397
234.2761, 2049.386
234.7583, 2045.750
235.2404, 2037.176
235.7225, 2025.026
236.2046, 2011.285
236.6867, 1996.194
237.1688, 1980.529
237.6510, 1965.341
238.1331, 1950.658
238.6152, 1936.292
239.0973, 1921.383
239.5794, 1906.768
240.0615, 1894.493
240.5437, 1885.347
241.0258, 1878.111
241.5079, 1871.492
241.9900, 1865.487
242.4721, 1859.238
242.9542, 1851.217
243.4364, 1842.680
243.9185, 1837.232
244.4006, 1836.600
244.8827, 1837.385
245.3648, 1836.346
245.8469, 1833.687
246.3290, 1830.403
246.8112, 1826.318
247.2933, 1821.931
247.7754, 1818.783
248.2575, 1817.470
248.7396, 1816.818
249.2217, 1815.970
249.7039, 1814.972
250.1860, 1813.989
250.6681, 1813.252
251.1502, 1812.623
251.6323, 1811.630
252.1144, 1810.386
252.5966, 1808.490
253.0787, 1805.128
253.5608, 1801.002
254.0429, 1797.687
254.5250, 1796.465
255.0071, 1796.785
255.4893, 1796.404
255.9714, 1794.677
256.4535, 1793.316
256.9356, 1793.198
257.4177, 1793.875
257.8998, 1794.706
258.3820, 1795.600
258.8641, 1796.278
259.3462, 1795.620
259.8283, 1792.753
260.3104, 1789.928
260.7925, 1788.083
261.2747, 1786.645
261.7568, 1784.826
262.2389, 1782.155
262.7210, 1778.979
263.2031, 1776.344
263.6852, 1774.796
264.1674, 1772.833
264.6495, 1768.867
265.1316, 1764.860
265.6137, 1763.192
266.0958, 1764.973
266.5779, 1768.804
267.0601, 1771.556
267.5422, 1773.539
268.0243, 1773.622
268.5064, 1770.842
268.9885, 1766.891
269.4706, 1763.076
269.9528, 1759.883
270.4349, 1757.261
270.9170, 1755.225
271.3991, 1754.366
271.8812, 1752.931
272.3633, 1750.170
272.8455, 1747.289
273.3276, 1744.999
273.8097, 1743.549
274.2918, 1743.037
274.7739, 1744.028
275.2560, 1748.693
275.7382, 1750.017
276.2202, 1745.315
276.7024, 1740.000
277.1845, 1737.733
277.6666, 1738.831
278.1487, 1740.920
278.6308, 1741.004
279.1129, 1738.089
279.5951, 1736.620
280.0772, 1737.763
280.5593, 1739.062
281.0414, 1739.795
281.5235, 1739.592
282.0056, 1737.819
282.4878, 1733.531
282.9699, 1726.006
283.4520, 1721.141
283.9341, 1720.779
284.4162, 1720.855
284.8983, 1720.108
285.3805, 1718.453
285.8626, 1716.037
286.3447, 1712.789
286.8268, 1708.766
287.3089, 1706.572
287.7910, 1707.883
288.2732, 1709.077
288.7553, 1708.859
289.2374, 1707.791
289.7195, 1707.186
290.2016, 1707.915
290.6837, 1709.566
291.1659, 1709.803
291.6480, 1706.739
292.1301, 1704.454
292.6122, 1704.862
293.0943, 1706.123
293.5764, 1705.327
294.0586, 1701.064
294.5407, 1694.814
295.0228, 1690.569
295.5049, 1689.339
295.9870, 1689.057
296.4691, 1690.393
296.9513, 1692.335
297.4334, 1694.140
297.9155, 1695.515
298.3976, 1695.959
298.8797, 1694.505
299.3618, 1689.367
299.8440, 1685.650
300.3261, 1683.918
300.8082, 1683.236
301.2903, 1683.062
301.7724, 1683.213
302.2545, 1683.506
302.7367, 1683.880
303.2188, 1684.707
303.7009, 1683.721
304.1830, 1678.464
304.6651, 1673.532
305.1472, 1672.429
305.6294, 1674.798
306.1115, 1677.436
306.5936, 1677.511
307.0757, 1674.823
307.5578, 1673.356
308.0399, 1674.368
308.5221, 1675.129
309.0042, 1674.442
309.4863, 1672.523
309.9684, 1669.984
310.4505, 1667.084
310.9326, 1664.003
311.4148, 1662.122
311.8969, 1662.617
312.3790, 1662.761
312.8611, 1661.215
313.3432, 1659.026
313.8253, 1658.173
314.3075, 1659.668
314.7896, 1662.312
315.2717, 1662.995
315.7538, 1660.213
316.2359, 1657.639
316.7180, 1655.315
317.2001, 1653.447
317.6823, 1652.383
318.1644, 1652.199
318.6465, 1652.497
319.1286, 1652.736
319.6107, 1653.068
320.0928, 1652.837
320.5750, 1652.024
321.0571, 1650.664
321.5392, 1648.340
322.0213, 1645.221
322.5034, 1642.340
322.9855, 1640.689
323.4677, 1640.330
323.9498, 1641.083
324.4319, 1644.046
324.9140, 1646.915
325.3961, 1648.963
325.8782, 1649.987
326.3604, 1649.604
326.8425, 1647.320
327.3246, 1643.412
327.8067, 1640.976
328.2888, 1640.564
328.7709, 1640.786
329.2531, 1642.074
329.7352, 1643.653
330.2173, 1644.314
330.6994, 1643.482
331.1815, 1641.502
331.6636, 1639.270
332.1458, 1636.054
332.6279, 1633.533
333.1100, 1631.421
333.5921, 1630.203
334.0742, 1630.559
334.5563, 1632.621
335.0385, 1635.744
335.5206, 1639.200
336.0027, 1644.087
336.4848, 1646.141
336.9669, 1643.057
337.4490, 1639.279
337.9312, 1637.526
338.4133, 1637.981
338.8954, 1639.527
339.3775, 1641.296
339.8596, 1643.401
340.3417, 1644.257
340.8239, 1642.781
341.3060, 1641.350
341.7881, 1641.204
342.2702, 1641.727
342.7523, 1641.508
343.2344, 1639.629
343.7166, 1636.462
344.1987, 1633.842
344.6808, 1632.889
345.1629, 1631.190
345.6450, 1627.774
346.1271, 1623.824
346.6093, 1620.661
347.0914, 1618.786
347.5735, 1617.727
348.0556, 1616.749
348.5377, 1616.584
349.0198, 1615.076
349.5020, 1611.683
349.9841, 1607.581
350.4662, 1603.180
350.9483, 1598.778
351.4304, 1594.955
351.9125, 1592.594
352.3947, 1592.139
352.8768, 1590.216
353.3589, 1584.151
353.8410, 1579.282
354.3231, 1577.764
354.8052, 1578.921
355.2874, 1581.327
355.7695, 1584.338
356.2516, 1587.480
356.7337, 1588.014
357.2158, 1583.610
357.6979, 1579.610
358.1800, 1576.584
358.6621, 1574.592
359.1443, 1573.953
359.6264, 1574.776
360.1085, 1576.207
360.5906, 1576.574
361.0727, 1575.181
361.5548, 1574.568
362.0370, 1576.137
362.5191, 1577.656
363.0012, 1577.474
363.4833, 1575.606
363.9654, 1573.509
364.4475, 1572.752
364.9297, 1573.437
365.4118, 1573.667
365.8939, 1572.799
366.3760, 1572.163
366.8581, 1572.163
367.3402, 1572.779
367.8224, 1573.999
368.3045, 1576.051
368.7866, 1578.498
369.2687, 1580.069
369.7508, 1580.656
370.2329, 1580.542
370.7151, 1579.190
371.1972, 1577.558
371.6793, 1576.622
372.1614, 1576.717
372.6435, 1577.239
373.1256, 1577.789
373.6078, 1578.452
374.0899, 1577.799
374.5720, 1572.912
375.0541, 1569.074
375.5362, 1571.104
376.0183, 1578.517
376.5005, 1585.779
376.9826, 1589.027
377.4647, 1589.178
377.9468, 1589.611
378.4289, 1590.598
378.9110, 1591.669
379.3932, 1593.007
379.8753, 1594.172
380.3574, 1594.161
380.8395, 1592.226
381.3216, 1589.373
381.8037, 1586.828
382.2859, 1584.598
382.7680, 1582.203
383.2501, 1579.898
383.7322, 1576.918
384.2143, 1571.991
384.6964, 1564.548
385.1786, 1557.211
385.6607, 1551.720
386.1428, 1547.550
386.6249, 1543.256
387.1070, 1538.494
387.5891, 1533.649
388.0713, 1528.831
388.5534, 1524.064
389.0355, 1520.519
389.5176, 1519.584
389.9997, 1519.265
390.4818, 1517.324
390.9640, 1513.732
391.4461, 1510.374
391.9282, 1508.815
392.4103, 1508.506
392.8924, 1506.520
393.3745, 1500.009
393.8567, 1495.052
394.3388, 1495.400
394.8209, 1498.824
395.3030, 1501.173
395.7851, 1500.948
396.2672, 1498.769
396.7494, 1495.459
397.2315, 1489.866
397.7136, 1485.989
398.1957, 1484.802
398.6778, 1484.812
399.1599, 1485.383
399.6420, 1486.131
400.1241, 1486.016
400.6063, 1483.983
401.0884, 1479.953
401.5705, 1476.542
402.0526, 1473.725
402.5347, 1471.467
403.0168, 1469.436
403.4990, 1468.039
403.9811, 1468.416
404.4632, 1471.160
404.9453, 1474.802
405.4274, 1475.571
405.9095, 1470.682
406.3917, 1467.615
406.8738, 1468.733
407.3559, 1470.034
407.8380, 1468.039
408.3201, 1462.770
408.8022, 1457.303
409.2844, 1454.813
409.7665, 1455.529
410.2486, 1455.665
410.7307, 1454.431
411.2128, 1453.437
411.6949, 1453.067
412.1771, 1453.254
412.6592, 1454.032
413.1413, 1455.569
413.6234, 1457.175
414.1055, 1457.163
414.5876, 1454.891
415.0698, 1452.957
415.5519, 1452.370
416.0340, 1452.084
416.5161, 1451.475
416.9982, 1450.449
417.4803, 1449.183
417.9625, 1447.391
418.4446, 1445.303
418.9267, 1444.618
419.4088, 1446.166
419.8909, 1447.853
420.3730, 1448.530
420.8552, 1448.355
421.3373, 1447.506
421.8194, 1445.705
422.3015, 1443.606
422.7836, 1442.023
423.2657, 1440.951
423.7479, 1439.900
424.2300, 1438.874
424.7121, 1437.570
425.1942, 1435.252
425.6763, 1431.528
426.1584, 1428.827
426.6406, 1428.929
427.1227, 1430.526
427.6048, 1431.338
428.0869, 1430.950
428.5690, 1430.434
429.0511, 1430.963
429.5333, 1432.497
430.0154, 1432.897
430.4975, 1431.000
430.9796, 1429.053
431.4617, 1428.605
431.9438, 1429.132
432.4260, 1429.211
432.9081, 1428.161
433.3902, 1426.306
433.8723, 1424.375
434.3544, 1421.996
434.8365, 1420.176
435.3187, 1419.630
435.8008, 1419.190
436.2829, 1417.844
436.7650, 1415.524
437.2471, 1412.747
437.7292, 1409.822
438.2114, 1406.694
438.6935, 1405.254
439.1756, 1407.781
439.6577, 1409.489
440.1398, 1408.532
440.6219, 1406.369
441.1040, 1405.107
441.5862, 1405.639
442.0683, 1407.005
442.5504, 1407.550
443.0325, 1407.246
443.5146, 1406.218
443.9967, 1403.316
444.4789, 1400.679
444.9610, 1399.529
445.4431, 1399.725
445.9252, 1400.400
446.4073, 1401.348
446.8894, 1402.227
447.3716, 1401.504
447.8537, 1398.511
448.3358, 1395.563
448.8179, 1393.390
449.3000, 1391.898
449.7821, 1391.219
450.2643, 1391.532
450.7464, 1391.908
451.2285, 1391.322
451.7106, 1390.021
452.1927, 1389.351
452.6748, 1389.796
453.1570, 1390.474
453.6391, 1390.610
454.1212, 1390.263
454.6033, 1389.478
455.0854, 1387.617
455.5675, 1385.805
456.0497, 1385.239
456.5318, 1385.759
457.0139, 1386.333
457.4960, 1386.560
457.9781, 1386.363
458.4602, 1385.427
458.9424, 1383.443
459.4245, 1381.526
459.9066, 1378.721
460.3887, 1376.733
460.8708, 1378.277
461.3529, 1383.266
461.8351, 1388.145
462.3172, 1389.517
462.7993, 1387.258
463.2814, 1385.049
463.7635, 1382.158
464.2456, 1380.140
464.7278, 1379.883
465.2099, 1380.553
465.6920, 1380.683
466.1741, 1379.752
466.6562, 1379.094
467.1383, 1381.625
467.6205, 1389.547
468.1026, 1393.816
468.5847, 1390.514
469.0668, 1386.733
469.5489, 1385.689
470.0310, 1386.859
470.5132, 1388.093
470.9953, 1387.924
471.4774, 1387.089
471.9595, 1387.755
472.4416, 1390.505
472.9237, 1392.589
473.4059, 1392.250
473.8880, 1391.266
474.3701, 1391.174
474.8522, 1392.149
475.3343, 1393.646
475.8164, 1395.542
476.2986, 1397.676
476.7807, 1399.662
477.2628, 1401.434
477.7449, 1403.123
478.2270, 1404.786
478.7091, 1406.436
479.1913, 1408.108
479.6734, 1409.385
480.1555, 1411.140
480.6376, 1413.953
481.1197, 1417.551
481.6018, 1421.678
482.0839, 1426.324
482.5660, 1430.586
483.0482, 1433.356
483.5303, 1434.671
484.0124, 1433.707
484.4945, 1429.835
484.9766, 1424.443
485.4587, 1417.720
485.9409, 1410.066
486.4230, 1402.093
486.9051, 1394.082
487.3872, 1386.163
487.8693, 1378.860
488.3514, 1372.649
488.8336, 1366.049
489.3157, 1357.728
489.7978, 1350.016
490.2799, 1344.635
490.7620, 1341.504
491.2441, 1339.401
491.7263, 1337.471
492.2084, 1335.771
492.6905, 1334.847
493.1726, 1335.579
493.6547, 1334.989
494.1368, 1329.648
494.6190, 1323.452
495.1011, 1320.754
495.5832, 1322.644
496.0653, 1325.322
496.5474, 1326.228
497.0295, 1325.651
497.5117, 1324.005
497.9938, 1320.907
498.4759, 1318.629
498.9580, 1319.902
499.4401, 1323.835
499.9222, 1325.563
500.4044, 1322.407
500.8865, 1319.445
501.3686, 1319.602
501.8507, 1321.800
502.3328, 1323.909
502.8149, 1325.211
503.2971, 1326.062
503.7792, 1327.006
504.2613, 1328.295
504.7434, 1328.709
505.2255, 1327.085
505.7076, 1325.840
506.1898, 1326.712
506.6719, 1328.792
507.1540, 1330.253
507.6361, 1330.160
508.1182, 1328.724
508.6003, 1326.391
509.0825, 1323.064
509.5646, 1319.083
510.0467, 1313.971
510.5288, 1308.655
511.0109, 1303.458
511.4930, 1298.459
511.9752, 1293.655
512.4573, 1288.542
512.9394, 1283.939
513.4215, 1282.452
513.9036, 1284.775
514.3857, 1285.729
514.8679, 1282.627
515.3500, 1277.605
515.8321, 1273.371
516.3142, 1270.004
516.7963, 1267.162
517.2784, 1265.131
517.7606, 1263.325
518.2427, 1260.372
518.7248, 1256.295
519.2069, 1253.533
519.6890, 1254.057
520.1711, 1257.087
520.6533, 1258.703
521.1354, 1258.080
521.6175, 1257.401
522.0996, 1257.489
522.5817, 1257.416
523.0638, 1255.828
523.5460, 1252.774
524.0281, 1249.892
524.5102, 1248.886
524.9923, 1249.687
525.4744, 1249.627
525.9565, 1247.387
526.4387, 1246.033
526.9208, 1247.186
527.4029, 1248.958
527.8850, 1249.297
528.3671, 1247.713
528.8492, 1245.402
529.3314, 1243.235
529.8135, 1241.291
530.2956, 1240.532
530.7777, 1241.758
531.2598, 1242.631
531.7419, 1241.122
532.2241, 1238.423
532.7062, 1236.366
533.1883, 1235.337
533.6704, 1234.899
534.1525, 1235.256
534.6346, 1235.931
535.1168, 1235.457
535.5989, 1233.375
536.0810, 1231.561
536.5631, 1232.272
537.0452, 1235.663
537.5273, 1236.918
538.0095, 1234.606
538.4916, 1231.965
538.9737, 1229.903
539.4558, 1228.357
539.9379, 1227.028
540.4200, 1225.853
540.9022, 1225.251
541.3843, 1226.077
541.8664, 1228.842
542.3485, 1230.158
542.8306, 1228.628
543.3127, 1227.106
543.7948, 1226.859
544.2769, 1227.084
544.7590, 1226.215
545.2411, 1223.486
545.7233, 1220.874
546.2054, 1221.497
546.6875, 1225.057
547.1696, 1226.986
547.6517, 1225.941
548.1339, 1224.373
548.6160, 1224.573
549.0981, 1225.915
549.5802, 1226.644
550.0623, 1225.569
550.5444, 1224.712
551.0266, 1225.752
551.5087, 1227.960
551.9908, 1229.736
552.4729, 1230.602
552.9550, 1230.870
553.4371, 1231.014
553.9193, 1231.230
554.4014, 1230.004
554.8835, 1225.620
555.3656, 1221.917
555.8477, 1220.510
556.3298, 1220.582
556.8120, 1221.073
557.2941, 1221.549
557.7762, 1221.756
558.2583, 1221.148
558.7404, 1219.561
559.2225, 1218.608
559.7047, 1219.065
560.1868, 1219.183
560.6689, 1217.658
561.1510, 1215.397
561.6331, 1214.054
562.1152, 1214.443
562.5974, 1214.958
563.0795, 1214.355
563.5616, 1212.672
564.0437, 1209.649
564.5258, 1204.853
565.0079, 1200.470
565.4901, 1198.817
565.9722, 1199.767
566.4543, 1199.596
566.9364, 1197.577
567.4185, 1195.299
567.9006, 1192.515
568.3828, 1190.172
568.8649, 1190.386
569.3470, 1193.360
569.8291, 1195.919
570.3112, 1193.934
570.7933, 1186.988
571.2755, 1183.016
571.7576, 1185.053
572.2397, 1186.309
572.7218, 1184.274
573.2039, 1181.065
573.6860, 1179.350
574.1682, 1179.738
574.6503, 1180.144
575.1324, 1178.272
575.6145, 1174.668
576.0966, 1171.629
576.5787, 1169.177
577.0609, 1167.792
577.5430, 1168.444
578.0251, 1170.197
578.5072, 1170.763
578.9893, 1169.674
579.4714, 1168.349
579.9536, 1167.612
580.4357, 1166.796
580.9178, 1164.863
581.3999, 1161.829
581.8820, 1158.638
582.3641, 1155.921
582.8463, 1153.738
583.3284, 1152.388
583.8105, 1152.335
584.2926, 1152.506
584.7747, 1153.260
585.2568, 1153.872
585.7390, 1153.755
586.2211, 1152.932
586.7032, 1151.802
587.1853, 1150.507
587.6674, 1149.211
588.1495, 1148.386
588.6317, 1148.067
589.1138, 1148.080
589.5959, 1148.853
590.0780, 1149.460
590.5601, 1148.668
591.0422, 1146.502
591.5244, 1144.513
592.0065, 1143.242
592.4886, 1142.288
592.9707, 1141.205
593.4528, 1140.115
593.9349, 1139.595
594.4171, 1139.955
594.8992, 1140.575
595.3813, 1140.339
595.8634, 1138.865
596.3455, 1137.629
596.8276, 1136.531
597.3098, 1135.728
597.7919, 1135.665
598.2740, 1135.839
598.7561, 1135.295
599.2382, 1133.610
599.7203, 1131.725
600.2025, 1131.026
600.6846, 1131.475
601.1667, 1131.689
601.6488, 1131.664
602.1309, 1131.143
602.6130, 1129.399
603.0952, 1127.110
603.5773, 1125.706
604.0594, 1125.561
604.5415, 1125.961
605.0236, 1127.270
605.5057, 1128.619
605.9879, 1128.473
606.4700, 1126.681
606.9521, 1124.369
607.4342, 1122.387
607.9163, 1120.744
608.3984, 1119.534
608.8806, 1119.100
609.3627, 1118.633
609.8448, 1118.076
610.3269, 1117.440
610.8090, 1116.520
611.2911, 1115.465
611.7733, 1114.919
612.2554, 1115.684
612.7375, 1116.932
613.2196, 1116.588
613.7017, 1114.509
614.1838, 1112.278
614.6660, 1110.147
615.1481, 1108.323
615.6302, 1107.129
616.1123, 1106.520
616.5944, 1105.983
617.0765, 1106.113
617.5587, 1105.634
618.0408, 1102.498
618.5229, 1098.240
619.0050, 1096.698
619.4871, 1099.149
619.9692, 1102.557
620.4514, 1102.611
620.9335, 1098.644
621.4156, 1096.396
621.8977, 1097.614
622.3798, 1098.531
622.8619, 1098.606
623.3441, 1097.676
623.8262, 1094.829
624.3083, 1089.980
624.7904, 1086.223
625.2725, 1087.549
625.7546, 1091.856
626.2367, 1092.879
626.7188, 1090.024
627.2009, 1087.398
627.6830, 1087.409
628.1652, 1088.775
628.6473, 1088.309
629.1294, 1085.175
629.6115, 1083.237
630.0936, 1083.884
630.5757, 1085.194
631.0579, 1086.024
631.5400, 1086.310
632.0221, 1086.217
632.5042, 1085.818
632.9863, 1085.298
633.4684, 1084.880
633.9506, 1084.405
634.4327, 1084.919
634.9148, 1087.845
635.3969, 1089.993
635.8790, 1088.546
636.3611, 1085.649
636.8433, 1085.237
637.3254, 1088.874
637.8075, 1093.198
638.2896, 1096.238
638.7717, 1098.120
639.2538, 1098.769
639.7360, 1098.228
640.2181, 1097.799
640.7002, 1098.502
641.1823, 1099.955
641.6644, 1100.601
642.1465, 1099.084
642.6287, 1098.647
643.1108, 1099.986
643.5929, 1101.850
644.0750, 1103.104
644.5571, 1104.146
645.0392, 1106.430
645.5214, 1110.991
646.0035, 1116.394
646.4856, 1119.866
646.9677, 1121.419
647.4498, 1124.079
647.9319, 1128.515
648.4141, 1133.837
648.8962, 1139.959
649.3783, 1146.446
649.8604, 1151.406
650.3425, 1153.544
650.8246, 1155.683
651.3068, 1160.203
651.7889, 1164.642
652.2710, 1165.895
652.7531, 1163.644
653.2352, 1159.425
653.7173, 1154.384
654.1995, 1148.436
654.6816, 1141.043
655.1637, 1131.703
655.6458, 1122.165
656.1279, 1112.298
656.6100, 1102.638
657.0922, 1093.214
657.5743, 1084.223
658.0564, 1076.298
658.5385, 1069.705
659.0206, 1064.182
659.5027, 1059.695
659.9849, 1056.085
660.4670, 1053.069
660.9491, 1050.619
661.4312, 1047.761
661.9133, 1043.149
662.3954, 1037.111
662.8776, 1034.411
663.3597, 1039.866
