##NAMES=Natrolite
##RRUFFID=R040112
##IDEAL CHEMISTRY=Na_2_(Si_3_Al_2_)O_10_&#183;2H_2_O
##LOCALITY=Ice River Alkaline Complex, Moose Creek Valley, Yoho National Park, British Columbia, Canada
##OWNER=RRUFF
##SOURCE=National Museums of Canada
##DESCRIPTION=Colorless pseudohexagonal prism
##STATUS=The identification of this mineral has been confirmed by X-ray diffraction and chemical analysis
##URL=rruff.info/R040112
##MEASURED CHEMISTRY=Na_2.00_(Si_3.00_Al_2.00_)O_10_Â·2H_2_O
153.5188, 4584.999
154.0009, 4855.495
154.4830, 5165.003
154.9651, 5509.409
155.4472, 5889.041
155.9293, 6298.019
156.4115, 6748.834
156.8936, 7259.070
157.3757, 7818.178
157.8578, 8396.315
158.3399, 9008.518
158.8221, 9622.407
159.3042, 10223.57
159.7863, 10897.13
160.2684, 11470.11
160.7505, 11912.54
161.2326, 12222.42
161.7148, 12348.94
162.1969, 12227.12
162.6790, 11928.00
163.1611, 11523.31
163.6432, 10986.58
164.1253, 10387.64
164.6075, 9733.686
165.0896, 9023.906
165.5717, 8346.992
166.0538, 7734.535
166.5359, 7189.220
167.0180, 6712.400
167.5002, 6304.458
167.9823, 5960.446
168.4644, 5682.391
168.9465, 5473.463
169.4286, 5309.542
169.9107, 5178.018
170.3929, 5079.440
170.8750, 5011.614
171.3571, 5001.038
171.8392, 5009.685
172.3213, 5002.489
172.8034, 4979.592
173.2856, 4926.193
173.7677, 4821.147
174.2498, 4671.078
174.7319, 4501.191
175.2140, 4304.875
175.6961, 4103.230
176.1783, 3928.349
176.6604, 3787.437
177.1425, 3676.081
177.6246, 3589.841
178.1067, 3529.679
178.5888, 3496.394
179.0710, 3486.356
179.5531, 3504.083
180.0352, 3563.831
180.5173, 3679.062
180.9994, 3827.121
181.4815, 3967.587
181.9637, 4102.248
182.4458, 4247.931
182.9279, 4429.391
183.4100, 4637.649
183.8921, 4844.443
184.3742, 5058.095
184.8564, 5258.402
185.3385, 5403.906
185.8206, 5497.612
186.3027, 5515.168
186.7848, 5418.493
187.2669, 5215.313
187.7491, 4962.339
188.2312, 4653.946
188.7133, 4311.314
189.1954, 4002.099
189.6775, 3727.933
190.1596, 3489.218
190.6418, 3285.156
191.1239, 3116.650
191.6060, 2977.311
192.0881, 2865.402
192.5702, 2780.798
193.0524, 2724.679
193.5345, 2699.668
194.0166, 2696.411
194.4987, 2704.777
194.9808, 2725.270
195.4629, 2749.926
195.9451, 2770.965
196.4272, 2789.004
196.9093, 2825.863
197.3914, 2885.282
197.8735, 2958.728
198.3556, 3026.763
198.8378, 3085.924
199.3199, 3159.665
199.8020, 3259.798
200.2841, 3385.848
200.7662, 3532.971
201.2483, 3703.688
201.7305, 3892.751
202.2126, 4087.280
202.6947, 4286.327
203.1768, 4494.378
203.6589, 4724.704
204.1410, 4982.972
204.6232, 5212.782
205.1053, 5419.973
205.5874, 5590.772
206.0695, 5678.911
206.5516, 5679.992
207.0337, 5609.915
207.5159, 5466.008
207.9980, 5237.688
208.4801, 4996.718
208.9622, 4742.931
209.4443, 4483.432
209.9264, 4251.695
210.4086, 4047.201
210.8907, 3870.878
211.3728, 3726.261
211.8549, 3614.059
212.3370, 3527.796
212.8191, 3469.609
213.3013, 3437.659
213.7834, 3413.767
214.2655, 3400.805
214.7476, 3391.236
215.2297, 3376.182
215.7118, 3348.063
216.1940, 3336.219
216.6761, 3351.803
217.1582, 3393.037
217.6403, 3420.136
218.1224, 3434.887
218.6045, 3432.809
219.0867, 3405.827
219.5688, 3342.685
220.0509, 3282.134
220.5330, 3237.438
221.0151, 3208.774
221.4972, 3159.896
221.9794, 3086.652
222.4615, 2997.436
222.9436, 2898.736
223.4257, 2786.101
223.9078, 2671.760
224.3899, 2560.708
224.8721, 2452.131
225.3542, 2336.303
225.8363, 2201.760
226.3184, 2069.853
226.8005, 1964.902
227.2827, 1897.525
227.7648, 1838.416
228.2469, 1780.372
228.7290, 1722.734
229.2111, 1672.498
229.6932, 1629.662
230.1754, 1594.803
230.6575, 1567.945
231.1396, 1547.922
231.6217, 1538.541
232.1038, 1542.242
232.5859, 1561.091
233.0681, 1581.797
233.5502, 1602.875
234.0323, 1626.748
234.5144, 1657.802
234.9965, 1698.929
235.4786, 1742.012
235.9608, 1784.326
236.4429, 1824.061
236.9250, 1868.477
237.4071, 1915.807
237.8892, 1968.665
238.3713, 2032.625
238.8535, 2115.675
239.3356, 2197.062
239.8177, 2277.764
240.2998, 2371.958
240.7819, 2409.301
241.2640, 2376.238
241.7462, 2294.867
242.2283, 2199.754
242.7104, 2080.191
243.1925, 1964.428
243.6746, 1861.135
244.1567, 1770.748
244.6389, 1690.245
245.1210, 1619.719
245.6031, 1559.096
246.0852, 1509.631
246.5673, 1474.922
247.0494, 1445.307
247.5316, 1418.292
248.0137, 1395.250
248.4958, 1369.276
248.9779, 1336.266
249.4600, 1302.782
249.9421, 1282.730
250.4243, 1282.377
250.9064, 1283.895
251.3885, 1279.523
251.8706, 1264.543
252.3527, 1260.052
252.8348, 1269.654
253.3170, 1287.451
253.7991, 1302.449
254.2812, 1313.390
254.7633, 1323.635
255.2454, 1334.402
255.7275, 1345.750
256.2097, 1356.382
256.6918, 1363.335
257.1739, 1371.476
257.6560, 1391.558
258.1381, 1429.864
258.6202, 1467.274
259.1024, 1496.460
259.5845, 1514.945
260.0666, 1534.170
260.5487, 1554.067
261.0308, 1574.723
261.5129, 1597.537
261.9951, 1623.248
262.4772, 1648.861
262.9593, 1672.107
263.4414, 1691.761
263.9235, 1716.024
264.4056, 1746.152
264.8878, 1780.040
265.3699, 1814.083
265.8520, 1847.218
266.3341, 1884.367
266.8162, 1928.024
267.2983, 1978.208
267.7805, 2033.662
268.2626, 2097.410
268.7447, 2162.549
269.2268, 2217.160
269.7089, 2259.965
270.1910, 2296.581
270.6732, 2327.223
271.1553, 2350.535
271.6374, 2380.593
272.1195, 2419.186
272.6016, 2461.980
273.0837, 2502.712
273.5659, 2542.833
274.0480, 2574.712
274.5301, 2596.766
275.0122, 2608.955
275.4943, 2608.551
275.9764, 2596.904
276.4586, 2570.115
276.9407, 2517.573
277.4228, 2437.418
277.9049, 2353.819
278.3870, 2274.554
278.8691, 2199.722
279.3513, 2131.214
279.8334, 2068.691
280.3155, 2013.370
280.7976, 1966.609
281.2798, 1928.810
281.7619, 1899.297
282.2440, 1877.240
282.7261, 1863.040
283.2082, 1859.849
283.6903, 1867.869
284.1725, 1886.165
284.6546, 1915.852
285.1367, 1956.399
285.6188, 2000.804
286.1009, 2048.772
286.5830, 2098.776
287.0652, 2145.829
287.5473, 2190.125
288.0294, 2227.771
288.5115, 2255.463
288.9936, 2273.071
289.4757, 2278.662
289.9579, 2267.663
290.4400, 2245.260
290.9221, 2225.598
291.4042, 2208.973
291.8863, 2191.408
292.3684, 2165.438
292.8506, 2133.963
293.3327, 2109.318
293.8148, 2097.599
294.2969, 2093.643
294.7790, 2087.222
295.2611, 2078.304
295.7433, 2069.944
296.2254, 2056.650
296.7075, 2045.047
297.1896, 2054.121
297.6717, 2093.917
298.1538, 2153.221
298.6360, 2216.241
299.1181, 2283.639
299.6002, 2356.365
300.0823, 2435.040
300.5644, 2520.320
301.0465, 2613.070
301.5287, 2708.955
302.0108, 2817.972
302.4929, 2948.014
302.9750, 3099.994
303.4571, 3271.637
303.9392, 3490.664
304.4214, 3720.840
304.9035, 3924.107
305.3856, 4105.789
305.8677, 4227.006
306.3498, 4259.051
306.8319, 4201.963
307.3141, 4054.214
307.7962, 3753.920
308.2783, 3392.565
308.7604, 3049.197
309.2425, 2737.977
309.7246, 2466.388
310.2068, 2241.079
310.6889, 2058.782
311.1710, 1907.878
311.6531, 1791.570
312.1352, 1698.836
312.6173, 1623.352
313.0995, 1565.423
313.5816, 1523.160
314.0637, 1502.410
314.5458, 1496.190
315.0279, 1491.087
315.5100, 1479.296
315.9922, 1469.282
316.4743, 1465.530
316.9564, 1469.042
317.4385, 1476.805
317.9206, 1490.316
318.4027, 1506.920
318.8849, 1522.910
319.3670, 1529.509
319.8491, 1542.167
320.3312, 1568.761
320.8133, 1612.425
321.2954, 1654.933
321.7776, 1686.970
322.2597, 1718.597
322.7418, 1760.536
323.2239, 1810.845
323.7060, 1875.081
324.1881, 1959.321
324.6703, 2065.542
325.1524, 2168.058
325.6345, 2256.119
326.1166, 2343.446
326.5987, 2441.776
327.0808, 2548.965
327.5630, 2669.763
328.0451, 2810.896
328.5272, 2971.091
329.0093, 3125.202
329.4914, 3286.117
329.9735, 3425.909
330.4557, 3527.525
330.9378, 3600.574
331.4199, 3618.038
331.9020, 3573.507
332.3841, 3471.302
332.8662, 3326.140
333.3484, 3114.849
333.8305, 2897.886
334.3126, 2704.395
334.7947, 2538.127
335.2768, 2389.338
335.7589, 2256.765
336.2411, 2142.189
336.7232, 2047.897
337.2053, 1977.011
337.6874, 1919.364
338.1695, 1870.060
338.6516, 1829.396
339.1338, 1799.131
339.6159, 1781.618
340.0980, 1771.280
340.5801, 1758.673
341.0622, 1743.021
341.5443, 1731.029
342.0265, 1726.297
342.5086, 1728.122
342.9907, 1730.104
343.4728, 1732.529
343.9549, 1733.915
344.4370, 1731.708
344.9192, 1726.283
345.4013, 1720.964
345.8834, 1716.327
346.3655, 1712.852
346.8476, 1710.485
347.3297, 1709.036
347.8119, 1713.448
348.2940, 1730.701
348.7761, 1757.956
349.2582, 1785.822
349.7403, 1809.959
350.2225, 1835.891
350.7046, 1872.503
351.1867, 1919.252
351.6688, 1969.432
352.1509, 2021.191
352.6331, 2072.645
353.1152, 2119.585
353.5973, 2156.863
354.0794, 2197.383
354.5615, 2255.615
355.0436, 2327.205
355.5258, 2398.901
356.0079, 2463.602
356.4900, 2525.122
356.9721, 2588.091
357.4542, 2655.514
357.9363, 2716.603
358.4185, 2770.557
358.9006, 2813.536
359.3827, 2838.897
359.8648, 2845.448
360.3469, 2832.603
360.8290, 2798.438
361.3112, 2741.521
361.7933, 2671.360
362.2754, 2584.452
362.7575, 2487.895
363.2396, 2388.985
363.7217, 2276.394
364.2039, 2175.902
364.6860, 2096.522
365.1681, 2038.263
365.6502, 1985.899
366.1323, 1934.043
366.6144, 1889.229
367.0966, 1855.941
367.5787, 1841.024
368.0608, 1829.911
368.5429, 1824.941
369.0250, 1824.077
369.5071, 1817.443
369.9893, 1806.764
370.4714, 1788.466
370.9535, 1759.436
371.4356, 1713.223
371.9177, 1672.307
372.3998, 1641.117
372.8820, 1613.089
373.3641, 1572.540
373.8462, 1514.314
374.3283, 1457.131
374.8104, 1407.439
375.2925, 1364.563
375.7747, 1334.339
376.2568, 1320.125
376.7389, 1311.394
377.2210, 1292.410
377.7031, 1262.135
378.1852, 1236.831
378.6674, 1222.907
379.1495, 1217.809
379.6316, 1210.023
380.1137, 1199.380
380.5958, 1188.189
381.0779, 1177.898
381.5601, 1168.657
382.0422, 1162.107
382.5243, 1159.096
383.0064, 1158.087
383.4885, 1156.051
383.9706, 1153.302
384.4528, 1152.273
384.9349, 1156.793
385.4170, 1163.564
385.8991, 1166.577
386.3812, 1163.881
386.8633, 1160.920
387.3455, 1164.171
387.8276, 1171.110
388.3097, 1176.013
388.7918, 1174.157
389.2739, 1170.222
389.7560, 1166.801
390.2382, 1163.819
390.7203, 1164.723
391.2024, 1172.677
391.6845, 1185.058
392.1666, 1198.980
392.6487, 1218.921
393.1309, 1235.068
393.6130, 1240.212
394.0951, 1235.612
394.5772, 1235.645
395.0593, 1245.995
395.5414, 1260.847
396.0236, 1276.492
396.5057, 1293.525
396.9878, 1310.099
397.4699, 1325.399
397.9520, 1339.969
398.4341, 1355.258
398.9163, 1369.237
399.3984, 1386.029
399.8805, 1407.286
400.3626, 1433.971
400.8447, 1462.060
401.3268, 1490.138
401.8090, 1520.646
402.2911, 1557.515
402.7732, 1600.543
403.2553, 1649.924
403.7374, 1708.670
404.2195, 1775.801
404.7017, 1830.628
405.1838, 1868.296
405.6659, 1907.412
406.1480, 1967.292
406.6301, 2048.482
407.1122, 2128.247
407.5944, 2202.039
408.0765, 2272.867
408.5586, 2346.146
409.0407, 2422.153
409.5228, 2500.120
410.0049, 2585.450
410.4871, 2671.703
410.9692, 2741.799
411.4513, 2793.584
411.9334, 2831.362
412.4155, 2865.270
412.8976, 2890.631
413.3798, 2893.502
413.8619, 2856.453
414.3440, 2800.608
414.8261, 2745.068
415.3082, 2690.167
415.7903, 2636.178
416.2725, 2581.314
416.7546, 2527.741
417.2367, 2476.715
417.7188, 2429.431
418.2009, 2385.330
418.6830, 2341.013
419.1652, 2298.885
419.6473, 2269.524
420.1294, 2263.611
420.6115, 2265.761
421.0937, 2266.806
421.5758, 2260.536
422.0579, 2264.108
422.5400, 2280.233
423.0221, 2307.357
423.5042, 2343.439
423.9864, 2389.689
424.4685, 2442.748
424.9506, 2500.798
425.4327, 2562.219
425.9148, 2640.282
426.3969, 2737.605
426.8791, 2848.479
427.3612, 2965.022
427.8433, 3081.317
428.3254, 3220.959
428.8075, 3388.528
429.2896, 3581.087
429.7718, 3781.558
430.2539, 3986.781
430.7360, 4216.903
431.2181, 4482.926
431.7002, 4783.980
432.1823, 5104.218
432.6645, 5439.510
433.1466, 5806.825
433.6287, 6228.973
434.1108, 6700.365
434.5929, 7198.414
435.0750, 7696.580
435.5572, 8218.728
436.0393, 8798.745
436.5214, 9437.180
437.0035, 10148.51
437.4856, 10948.10
437.9677, 11819.48
438.4499, 12744.95
438.9320, 13757.76
439.4141, 14759.18
439.8962, 15800.68
440.3783, 16783.11
440.8604, 17481.51
441.3426, 17873.51
441.8247, 17884.18
442.3068, 17417.71
442.7889, 16401.23
443.2710, 15211.47
443.7531, 13789.54
444.2353, 12310.17
444.7174, 10941.80
445.1995, 9698.807
445.6816, 8599.547
446.1637, 7660.771
446.6458, 6882.314
447.1280, 6191.026
447.6101, 5596.858
448.0922, 5076.995
448.5743, 4626.889
449.0564, 4250.249
449.5385, 3924.458
450.0207, 3656.482
450.5028, 3432.751
450.9849, 3232.673
451.4670, 3059.460
451.9491, 2902.622
452.4312, 2757.382
452.9134, 2625.198
453.3955, 2514.781
453.8776, 2428.028
454.3597, 2351.808
454.8418, 2272.700
455.3239, 2193.277
455.8061, 2128.314
456.2882, 2083.166
456.7703, 2049.432
457.2524, 2017.126
457.7345, 1986.304
458.2166, 1956.420
458.6988, 1925.678
459.1809, 1896.742
459.6630, 1874.380
460.1451, 1859.809
460.6272, 1844.542
461.1093, 1818.388
461.5915, 1789.940
462.0736, 1770.449
462.5557, 1772.434
463.0378, 1775.327
463.5199, 1770.353
464.0020, 1758.746
464.4842, 1750.407
464.9663, 1745.955
465.4484, 1746.456
465.9305, 1753.281
466.4126, 1775.591
466.8947, 1787.764
467.3769, 1780.833
467.8590, 1767.664
468.3411, 1770.325
468.8232, 1797.108
469.3053, 1822.969
469.7874, 1838.702
470.2696, 1845.550
470.7517, 1870.298
471.2338, 1918.975
471.7159, 1966.782
472.1980, 1988.149
472.6801, 1983.867
473.1623, 1985.528
473.6444, 1997.596
474.1265, 2017.509
474.6086, 2041.503
475.0907, 2069.609
475.5728, 2102.038
476.0550, 2142.528
476.5371, 2186.314
477.0192, 2223.603
477.5013, 2254.128
477.9834, 2286.410
478.4655, 2333.108
478.9477, 2383.778
479.4298, 2423.598
479.9119, 2439.443
480.3940, 2455.162
480.8761, 2484.159
481.3582, 2522.861
481.8404, 2560.714
482.3225, 2596.911
482.8046, 2629.283
483.2867, 2657.240
483.7688, 2680.761
484.2509, 2699.708
484.7331, 2711.413
485.2152, 2719.805
485.6973, 2729.068
486.1794, 2742.949
486.6615, 2750.516
487.1436, 2745.106
487.6258, 2731.985
488.1079, 2739.048
488.5900, 2773.593
489.0721, 2808.076
489.5542, 2823.495
490.0363, 2819.656
490.5185, 2831.475
491.0006, 2863.143
491.4827, 2899.119
491.9648, 2917.582
492.4470, 2921.405
492.9291, 2926.188
493.4112, 2940.292
493.8933, 2955.427
494.3754, 2954.847
494.8575, 2941.177
495.3397, 2930.971
495.8218, 2931.291
496.3039, 2942.604
496.7860, 2968.503
497.2681, 3014.393
497.7502, 3056.553
498.2324, 3081.137
498.7145, 3094.995
499.1966, 3107.909
499.6787, 3112.258
500.1608, 3126.470
500.6429, 3160.645
501.1251, 3213.424
501.6072, 3261.698
502.0893, 3294.509
502.5714, 3331.334
503.0535, 3380.834
503.5356, 3442.954
504.0178, 3519.352
504.4999, 3618.975
504.9820, 3724.075
505.4641, 3804.868
505.9462, 3854.260
506.4283, 3915.381
506.9105, 4003.600
507.3926, 4111.816
507.8747, 4211.157
508.3568, 4301.494
508.8389, 4392.011
509.3210, 4490.616
509.8032, 4596.128
510.2853, 4708.503
510.7674, 4829.750
511.2495, 4949.183
511.7316, 5052.425
512.2137, 5146.350
512.6959, 5243.233
513.1780, 5348.655
513.6601, 5459.504
514.1422, 5579.580
514.6243, 5706.231
515.1064, 5822.040
515.5886, 5900.879
516.0707, 5980.724
516.5528, 6084.711
517.0349, 6226.888
517.5170, 6371.724
517.9991, 6511.007
518.4813, 6652.143
518.9634, 6803.335
519.4455, 6961.557
519.9276, 7134.357
520.4097, 7320.546
520.8918, 7519.999
521.3740, 7751.570
521.8561, 8012.133
522.3382, 8315.207
522.8203, 8672.641
523.3024, 9080.663
523.7845, 9529.262
524.2667, 10023.67
524.7488, 10548.34
525.2309, 11086.76
525.7130, 11651.83
526.1951, 12274.14
526.6772, 12964.48
527.1594, 13727.08
527.6415, 14564.23
528.1236, 15469.61
528.6057, 16439.25
529.0878, 17488.75
529.5699, 18580.81
530.0521, 19703.26
530.5342, 20900.01
531.0163, 21965.78
531.4984, 22931.87
531.9805, 23703.35
532.4626, 24185.39
532.9448, 24425.46
533.4269, 24291.84
533.9090, 23730.22
534.3911, 22780.13
534.8732, 21598.72
535.3553, 20084.10
535.8375, 18496.07
536.3196, 16932.39
536.8017, 15367.64
537.2838, 13941.11
537.7659, 12642.25
538.2480, 11472.67
538.7302, 10440.98
539.2123, 9534.272
539.6944, 8728.780
540.1765, 8021.442
540.6586, 7407.597
541.1407, 6875.309
541.6229, 6419.081
542.1050, 6010.000
542.5871, 5645.744
543.0692, 5312.393
543.5513, 4999.020
544.0334, 4707.761
544.5156, 4448.783
544.9977, 4235.936
545.4798, 4052.240
545.9619, 3887.513
546.4440, 3748.311
546.9261, 3615.132
547.4083, 3483.532
547.8904, 3356.304
548.3725, 3240.404
548.8546, 3135.957
549.3367, 3041.635
549.8188, 2959.715
550.3010, 2888.977
550.7831, 2813.229
551.2652, 2729.177
551.7473, 2650.835
552.2294, 2592.269
552.7115, 2551.119
553.1937, 2505.417
553.6758, 2452.155
554.1579, 2399.606
554.6400, 2360.576
555.1221, 2330.695
555.6042, 2297.969
556.0864, 2253.743
556.5685, 2208.684
557.0506, 2174.732
557.5327, 2149.326
558.0148, 2123.522
558.4969, 2094.004
558.9791, 2061.824
559.4612, 2024.846
559.9433, 1979.806
560.4254, 1946.751
560.9075, 1939.337
561.3896, 1940.044
561.8718, 1932.956
562.3539, 1910.892
562.8360, 1893.665
563.3181, 1886.236
563.8002, 1883.011
564.2823, 1868.354
564.7645, 1839.130
565.2466, 1813.284
565.7287, 1800.188
566.2108, 1796.570
566.6929, 1786.832
567.1750, 1770.939
567.6572, 1751.451
568.1393, 1725.364
568.6214, 1698.328
569.1035, 1683.872
569.5856, 1685.943
570.0677, 1692.500
570.5499, 1698.177
571.0320, 1700.784
571.5141, 1696.949
571.9962, 1676.996
572.4783, 1658.772
572.9604, 1649.160
573.4426, 1647.477
573.9247, 1649.469
574.4068, 1662.752
574.8889, 1671.884
575.3710, 1668.914
575.8531, 1649.951
576.3353, 1640.260
576.8174, 1643.941
577.2995, 1650.951
577.7816, 1652.531
578.2637, 1648.541
578.7458, 1639.182
579.2280, 1622.456
579.7101, 1604.089
580.1922, 1594.841
580.6743, 1593.534
581.1564, 1593.512
581.6385, 1591.313
582.1207, 1588.853
582.6028, 1587.251
583.0849, 1586.969
583.5670, 1591.430
584.0491, 1614.465
584.5313, 1635.508
585.0134, 1634.678
585.4955, 1599.035
585.9776, 1574.399
586.4597, 1581.365
586.9418, 1601.697
587.4240, 1614.659
587.9061, 1614.080
588.3882, 1614.830
588.8703, 1619.474
589.3524, 1626.193
589.8345, 1629.424
590.3167, 1628.485
590.7988, 1626.618
591.2809, 1624.765
591.7630, 1623.091
592.2451, 1621.430
592.7272, 1619.619
593.2094, 1621.842
593.6915, 1634.233
594.1736, 1652.599
594.6557, 1669.773
595.1378, 1684.800
595.6199, 1696.303
596.1021, 1704.691
596.5842, 1708.416
597.0663, 1705.253
597.5485, 1686.455
598.0306, 1669.150
598.5127, 1662.872
598.9948, 1663.721
599.4769, 1654.310
599.9590, 1625.419
600.4412, 1596.036
600.9233, 1572.446
601.4054, 1554.883
601.8875, 1537.389
602.3696, 1519.615
602.8517, 1503.066
603.3339, 1489.104
603.8160, 1477.625
604.2981, 1470.225
604.7802, 1468.347
605.2623, 1466.319
605.7444, 1455.991
606.2266, 1439.535
606.7087, 1423.007
607.1908, 1403.250
607.6729, 1389.497
608.1550, 1395.372
608.6371, 1414.369
609.1193, 1425.541
609.6014, 1414.306
610.0835, 1398.467
610.5656, 1384.545
611.0477, 1372.314
611.5298, 1368.038
612.0120, 1377.315
612.4941, 1389.067
612.9762, 1396.543
613.4583, 1399.863
613.9404, 1397.637
614.4225, 1387.841
614.9047, 1375.922
615.3868, 1369.193
615.8689, 1367.415
616.3510, 1368.608
616.8331, 1373.786
617.3152, 1379.529
617.7974, 1378.739
618.2795, 1373.389
618.7616, 1371.072
619.2437, 1377.449
619.7258, 1387.332
620.2079, 1398.652
620.6901, 1411.111
621.1722, 1419.728
621.6543, 1421.961
622.1364, 1420.358
622.6185, 1415.862
623.1006, 1405.062
623.5828, 1399.409
624.0649, 1401.404
624.5470, 1406.253
625.0291, 1408.046
625.5112, 1406.068
625.9933, 1404.659
626.4755, 1404.130
626.9576, 1405.227
627.4397, 1411.656
627.9218, 1422.399
628.4039, 1429.685
628.8860, 1423.727
629.3682, 1415.239
629.8503, 1420.956
630.3324, 1439.146
630.8145, 1456.419
631.2966, 1466.161
631.7787, 1471.187
632.2609, 1471.716
632.7430, 1465.231
633.2251, 1464.507
633.7072, 1479.148
634.1893, 1496.161
634.6714, 1504.572
635.1536, 1499.803
635.6357, 1496.547
636.1178, 1496.350
636.5999, 1497.642
637.0820, 1498.495
637.5641, 1499.019
638.0463, 1495.355
638.5284, 1482.933
639.0105, 1468.424
639.4926, 1468.211
639.9747, 1479.641
640.4568, 1487.370
640.9390, 1479.810
641.4211, 1465.801
641.9032, 1452.057
642.3853, 1439.130
642.8674, 1429.081
643.3495, 1425.397
643.8317, 1423.137
644.3138, 1418.777
644.7959, 1410.627
645.2780, 1402.679
645.7601, 1393.338
646.2422, 1385.611
646.7244, 1383.789
647.2065, 1389.209
647.6886, 1393.849
648.1707, 1396.598
