##NAMES=Natrojarosite
##RRUFFID=R080062
##IDEAL CHEMISTRY=NaFe^3+^_3_(S^6+^O_4_)_2_(OH)_6_
##LOCALITY=Lavra  do Tomé, Galiléja, Minas Gerais, Brazil
##OWNER=RRUFF
##SOURCE=Luiz Menezes
##DESCRIPTION=Golden brown rhombohedral crystals associated with colorless to pale purple phosphosiderite 
##STATUS=The identification of this mineral has been confirmed only by single crystal X-ray diffraction.
##URL=rruff.info/R080062
92.35352, 16.49330
92.83563, 15.11318
93.31775, 14.52554
93.79987, 15.07813
94.28198, 16.46948
94.76410, 17.84121
95.24622, 19.00144
95.72833, 20.07309
96.21045, 21.25612
96.69257, 22.55458
97.17468, 23.98105
97.65680, 25.46213
98.13892, 27.00790
98.62103, 28.91753
99.10315, 31.34760
99.58527, 34.21806
100.0674, 36.71071
100.5495, 38.55798
101.0316, 40.57027
101.5137, 43.82500
101.9958, 48.65858
102.4780, 53.62310
102.9601, 58.21399
103.4422, 62.34023
103.9243, 66.67219
104.4064, 71.26784
104.8885, 76.05495
105.3707, 81.07415
105.8528, 86.60765
106.3349, 91.91587
106.8170, 96.67134
107.2991, 100.6649
107.7813, 104.4993
108.2634, 108.1515
108.7455, 111.6593
109.2276, 115.0174
109.7097, 117.7193
110.1918, 120.6735
110.6740, 124.2620
111.1561, 128.0261
111.6382, 132.9510
112.1203, 139.1361
112.6024, 146.5925
113.0845, 155.0616
113.5667, 165.1992
114.0488, 175.9126
114.5309, 186.5844
115.0130, 196.4130
115.4951, 206.7103
115.9772, 217.6774
116.4594, 229.4296
116.9415, 242.3424
117.4236, 257.1835
117.9057, 273.0681
118.3878, 288.9799
118.8699, 305.2297
119.3521, 321.0879
119.8342, 336.3687
120.3163, 351.0577
120.7984, 365.1471
121.2805, 378.6614
121.7626, 391.5708
122.2448, 403.8243
122.7269, 415.6748
123.2090, 426.7238
123.6911, 436.3868
124.1732, 444.4065
124.6553, 451.8598
125.1375, 458.8084
125.6196, 465.7614
126.1017, 474.3298
126.5838, 486.0060
127.0659, 499.8744
127.5480, 514.3650
128.0302, 529.3626
128.5123, 544.8779
128.9944, 560.1959
129.4765, 575.5388
129.9586, 592.9798
130.4407, 614.0918
130.9229, 638.5788
131.4050, 665.3040
131.8871, 693.0531
132.3692, 723.0917
132.8513, 757.4098
133.3334, 794.6832
133.8156, 833.0726
134.2977, 873.1978
134.7798, 917.8322
135.2619, 967.5602
135.7440, 1025.481
136.2261, 1088.017
136.7083, 1146.382
137.1904, 1204.155
137.6725, 1248.616
138.1546, 1269.933
138.6367, 1269.656
139.1188, 1240.815
139.6010, 1175.760
140.0831, 1074.850
140.5652, 976.4307
141.0473, 876.8555
141.5294, 782.7200
142.0115, 703.8555
142.4937, 640.8968
142.9758, 589.0894
143.4579, 547.2620
143.9400, 516.6320
144.4221, 490.5848
144.9042, 469.7614
145.3864, 452.9274
145.8685, 438.6107
146.3506, 427.5160
146.8327, 417.7181
147.3148, 408.5377
147.7969, 400.1058
148.2791, 392.0789
148.7612, 384.0257
149.2433, 376.4278
149.7254, 370.3068
150.2075, 366.8038
150.6896, 363.8173
151.1718, 360.6304
151.6539, 357.0587
152.1360, 353.5648
152.6181, 349.7950
153.1002, 346.0482
153.5823, 343.2393
154.0645, 342.1684
154.5466, 341.4664
155.0287, 340.5082
155.5108, 339.3333
155.9929, 337.7436
156.4750, 335.3724
156.9572, 332.4493
157.4393, 329.9766
157.9214, 328.4525
158.4035, 327.2382
158.8856, 325.9302
159.3677, 324.1220
159.8499, 322.5237
160.3320, 321.4113
160.8141, 320.7269
161.2962, 320.1254
161.7783, 319.6478
162.2604, 319.1374
162.7426, 318.4651
163.2247, 317.3482
163.7068, 316.2780
164.1889, 315.4957
164.6710, 314.9931
165.1531, 314.5364
165.6353, 313.8274
166.1174, 313.1630
166.5995, 312.8631
167.0816, 313.1876
167.5637, 313.7969
168.0458, 314.5845
168.5280, 315.5353
169.0101, 316.3849
169.4922, 317.0912
169.9743, 317.5597
170.4564, 317.6510
170.9385, 317.0294
171.4207, 316.1738
171.9028, 315.4267
172.3849, 314.7998
172.8670, 314.3978
173.3491, 314.2675
173.8312, 314.4155
174.3134, 314.8572
174.7955, 315.8779
175.2776, 317.0704
175.7597, 317.8583
176.2418, 318.1681
176.7239, 318.5207
177.2061, 319.3930
177.6882, 320.7077
178.1703, 322.2303
178.6524, 324.0682
179.1345, 326.0059
179.6166, 327.6610
180.0988, 329.0197
180.5809, 330.1464
181.0630, 330.7101
181.5451, 330.9650
182.0272, 331.9066
182.5093, 334.3810
182.9915, 337.9196
183.4736, 341.3511
183.9557, 344.6057
184.4378, 347.8163
184.9199, 351.3350
185.4020, 355.0473
185.8842, 358.6167
186.3663, 361.7695
186.8484, 364.6007
187.3305, 367.2910
187.8126, 369.8404
188.2947, 372.3705
188.7769, 375.1160
189.2590, 378.0695
189.7411, 381.0345
190.2232, 383.8609
190.7053, 386.5891
191.1874, 389.5218
191.6696, 392.7032
192.1517, 396.1280
192.6338, 399.8081
193.1159, 403.7442
193.5980, 407.9287
194.0801, 412.3384
194.5623, 416.9568
195.0444, 421.8872
195.5265, 427.0941
196.0086, 432.6188
196.4907, 438.1728
196.9728, 443.5821
197.4550, 450.4263
197.9371, 459.9132
198.4192, 472.0687
198.9013, 484.9341
199.3834, 498.3062
199.8655, 512.2575
200.3477, 527.0674
200.8298, 542.6108
201.3119, 559.5113
201.7940, 578.2648
202.2761, 598.8857
202.7582, 621.0845
203.2404, 644.6185
203.7225, 669.8718
204.2046, 698.2510
204.6867, 730.2633
205.1688, 763.8167
205.6509, 796.7916
206.1331, 828.7899
206.6152, 864.1635
207.0973, 904.2784
207.5794, 947.4991
208.0615, 988.5254
208.5436, 1026.514
209.0258, 1064.722
209.5079, 1104.960
209.9900, 1147.402
210.4721, 1190.079
210.9542, 1232.345
211.4363, 1274.884
211.9185, 1320.139
212.4006, 1368.596
212.8827, 1419.122
213.3648, 1469.693
213.8469, 1520.160
214.3290, 1573.050
214.8112, 1628.620
215.2933, 1686.521
215.7754, 1747.310
216.2575, 1810.500
216.7396, 1877.737
217.2217, 1949.822
217.7038, 2027.261
218.1860, 2107.199
218.6681, 2188.559
219.1502, 2271.905
219.6323, 2358.847
220.1144, 2450.006
220.5965, 2542.441
221.0787, 2635.056
221.5608, 2731.255
222.0429, 2818.107
222.5250, 2894.620
223.0071, 2961.186
223.4892, 3017.882
223.9714, 3071.466
224.4535, 3105.598
224.9356, 3112.008
225.4177, 3088.953
225.8998, 3041.573
226.3819, 2967.734
226.8641, 2869.811
227.3462, 2757.332
227.8283, 2626.425
228.3104, 2487.141
228.7925, 2344.858
229.2746, 2192.675
229.7568, 2048.727
230.2389, 1912.902
230.7210, 1786.220
231.2031, 1665.603
231.6852, 1557.628
232.1673, 1457.283
232.6495, 1363.594
233.1316, 1275.211
233.6137, 1196.951
234.0958, 1132.529
234.5779, 1078.449
235.0600, 1025.921
235.5422, 972.9760
236.0243, 923.5909
236.5064, 879.5333
236.9885, 842.0305
237.4706, 807.2011
237.9527, 775.6063
238.4349, 746.9418
238.9170, 720.9869
239.3991, 698.5713
239.8812, 677.6174
240.3633, 657.1921
240.8454, 636.8500
241.3276, 618.1970
241.8097, 601.7127
242.2918, 586.9857
242.7739, 573.3447
243.2560, 560.9749
243.7381, 549.4081
244.2203, 538.5168
244.7024, 528.4127
245.1845, 518.6384
245.6666, 508.9237
246.1487, 499.6908
246.6308, 491.6089
247.1130, 485.0538
247.5951, 479.0176
248.0772, 473.3615
248.5593, 468.3334
249.0414, 462.5986
249.5235, 455.6860
250.0057, 448.3683
250.4878, 441.7713
250.9699, 435.9839
251.4520, 430.7392
251.9341, 426.0859
252.4162, 422.1165
252.8984, 418.1716
253.3805, 414.3228
253.8626, 410.4081
254.3447, 406.1849
254.8268, 401.1128
255.3089, 396.7296
255.7911, 393.7794
256.2732, 392.5179
256.7553, 390.3011
257.2374, 386.5327
257.7195, 382.3869
258.2017, 379.3051
258.6838, 377.5249
259.1659, 376.2265
259.6480, 375.3267
260.1301, 374.8575
260.6122, 374.0657
261.0944, 372.6012
261.5765, 371.2476
262.0586, 370.9821
262.5407, 372.3158
263.0228, 373.2841
263.5049, 373.1696
263.9871, 372.0603
264.4692, 372.2853
264.9513, 374.2994
265.4334, 376.9232
265.9155, 379.0440
266.3976, 380.3365
266.8798, 382.0764
267.3619, 384.4117
267.8440, 387.3694
268.3261, 391.1190
268.8082, 395.9144
269.2903, 400.9456
269.7725, 405.3680
270.2546, 408.8260
270.7367, 413.0728
271.2188, 418.4797
271.7009, 424.7813
272.1830, 431.0083
272.6652, 437.0527
273.1473, 443.1890
273.6294, 449.5828
274.1115, 456.1741
274.5936, 463.3601
275.0757, 471.1700
275.5579, 479.6625
276.0400, 488.8843
276.5221, 498.9390
277.0042, 509.2828
277.4863, 519.4859
277.9684, 529.4874
278.4506, 540.1550
278.9327, 551.5987
279.4148, 563.6682
279.8969, 576.1483
280.3790, 589.0837
280.8611, 602.1277
281.3433, 615.0209
281.8254, 627.8256
282.3075, 641.0908
282.7896, 655.0652
283.2717, 669.1896
283.7538, 682.2252
284.2360, 694.1049
284.7181, 706.7139
285.2002, 720.9577
285.6823, 736.7264
286.1644, 753.4074
286.6465, 771.1169
287.1287, 788.7274
287.6108, 804.3356
288.0929, 818.0552
288.5750, 832.1004
289.0571, 847.7880
289.5392, 864.5285
290.0214, 879.6638
290.5035, 893.0712
290.9856, 905.4319
291.4677, 917.3566
291.9498, 928.8493
292.4319, 939.6309
292.9141, 950.2032
293.3962, 959.8177
293.8783, 967.0438
294.3604, 971.8513
294.8425, 973.7947
295.3246, 972.4044
295.8068, 967.8336
296.2889, 960.5662
296.7710, 950.3448
297.2531, 937.8442
297.7352, 924.2385
298.2173, 909.5583
298.6995, 893.3766
299.1816, 875.7960
299.6637, 856.5174
300.1458, 835.0806
300.6279, 810.6925
301.1100, 785.2112
301.5922, 761.1743
302.0743, 738.2704
302.5564, 715.3695
303.0385, 690.5622
303.5206, 665.6166
304.0027, 642.7337
304.4849, 622.6456
304.9670, 603.6643
305.4491, 584.3613
305.9312, 565.1387
306.4133, 546.9556
306.8954, 530.9469
307.3776, 515.8411
307.8597, 500.3417
308.3418, 484.1078
308.8239, 468.9186
309.3060, 456.6320
309.7881, 446.0404
310.2703, 435.6288
310.7524, 424.8203
311.2345, 413.7853
311.7166, 402.1955
312.1987, 390.1291
312.6808, 379.4915
313.1630, 372.1845
313.6451, 366.4557
314.1272, 360.3581
314.6093, 353.0957
315.0914, 345.5454
315.5735, 337.7071
316.0557, 329.7938
316.5378, 322.9488
317.0199, 318.5907
317.5020, 314.9649
317.9841, 310.6797
318.4662, 304.8867
318.9484, 299.3505
319.4305, 294.6791
319.9126, 290.7109
320.3947, 287.0197
320.8768, 283.5330
321.3589, 280.2553
321.8411, 277.2785
322.3232, 274.9585
322.8053, 272.1632
323.2874, 267.8924
323.7695, 263.1576
324.2516, 259.5605
324.7338, 258.6947
325.2159, 257.7582
325.6980, 255.7186
326.1801, 252.1529
326.6622, 249.1504
327.1443, 247.2818
327.6265, 245.8372
328.1086, 244.0953
328.5907, 241.6125
329.0728, 239.3385
329.5549, 237.4249
330.0370, 235.8679
330.5192, 234.4813
331.0013, 233.2655
331.4834, 232.2104
331.9655, 231.3333
332.4476, 230.9461
332.9297, 230.1624
333.4119, 228.5994
333.8940, 226.5493
334.3761, 225.3645
334.8582, 225.3721
335.3403, 225.7539
335.8224, 226.1071
336.3046, 226.3607
336.7867, 226.7974
337.2688, 227.4508
337.7509, 228.2673
338.2330, 229.0986
338.7151, 229.8299
339.1973, 230.9303
339.6794, 232.7711
340.1615, 235.3940
340.6436, 237.4570
341.1257, 238.7760
341.6078, 239.9027
342.0899, 241.4478
342.5721, 243.3799
343.0542, 245.8267
343.5363, 248.8452
344.0184, 252.3815
344.5005, 256.3963
344.9826, 260.9047
345.4648, 265.5526
345.9469, 269.8115
346.4290, 273.8273
346.9111, 278.2289
347.3932, 283.0869
347.8753, 288.5010
348.3575, 294.7531
348.8396, 301.7549
349.3217, 308.9183
349.8038, 315.5917
350.2859, 322.0748
350.7680, 329.1545
351.2502, 336.9861
351.7323, 345.1519
352.2144, 352.9631
352.6965, 360.7077
353.1786, 369.0309
353.6607, 378.5465
354.1429, 388.7050
354.6250, 398.8887
355.1071, 409.0760
355.5892, 419.2880
356.0713, 429.4896
356.5534, 439.7470
357.0356, 450.1465
357.5177, 460.2537
357.9998, 470.9684
358.4819, 483.4567
358.9640, 497.3297
359.4461, 510.0936
359.9283, 520.2487
360.4104, 528.8371
360.8925, 536.7960
361.3746, 544.8292
361.8567, 551.3870
362.3388, 555.9557
362.8210, 558.5554
363.3031, 559.3600
363.7852, 558.9393
364.2673, 556.3085
364.7494, 550.9350
365.2315, 542.5719
365.7137, 532.1349
366.1958, 518.2986
366.6779, 503.1139
367.1600, 488.8658
367.6421, 476.8593
368.1242, 464.7342
368.6064, 451.9048
369.0885, 438.2734
369.5706, 424.9577
370.0527, 411.5293
370.5348, 398.6762
371.0169, 386.6629
371.4991, 375.6349
371.9812, 365.4247
372.4633, 356.0886
372.9454, 347.5299
373.4275, 339.6152
373.9096, 332.3561
374.3918, 325.5693
374.8739, 319.3265
375.3560, 313.5940
375.8381, 308.1993
376.3202, 303.1298
376.8023, 298.4879
377.2845, 294.5334
377.7666, 291.3871
378.2487, 288.4221
378.7308, 285.5017
379.2129, 282.6094
379.6950, 279.8112
380.1772, 277.0078
380.6593, 274.6778
381.1414, 273.5233
381.6235, 273.4089
382.1056, 272.9507
382.5877, 271.7881
383.0699, 270.2542
383.5520, 268.8176
384.0341, 267.4922
384.5162, 266.5454
384.9983, 266.3108
385.4804, 266.5464
385.9626, 266.7833
386.4447, 267.0032
386.9268, 267.0697
387.4089, 266.7352
387.8910, 266.1354
388.3731, 265.5842
388.8553, 264.7591
389.3374, 264.3324
389.8195, 265.3194
390.3016, 267.6172
390.7837, 269.7303
391.2658, 270.3589
391.7480, 270.4570
392.2301, 271.0518
392.7122, 272.8822
393.1943, 274.6311
393.6764, 275.3651
394.1585, 275.4843
394.6407, 276.1034
395.1228, 277.7081
395.6049, 279.8287
396.0870, 282.3831
396.5691, 285.5748
397.0512, 288.4535
397.5334, 290.5123
398.0155, 292.2761
398.4976, 294.3730
398.9797, 297.1718
399.4618, 299.9928
399.9439, 302.6063
400.4261, 305.0103
400.9082, 307.8340
401.3903, 311.3143
401.8724, 314.9801
402.3545, 318.5605
402.8366, 322.0150
403.3188, 325.3488
403.8009, 328.3751
404.2830, 331.3607
404.7651, 335.0742
405.2472, 339.6959
405.7293, 344.4283
406.2115, 348.9284
406.6936, 353.1467
407.1757, 357.4996
407.6578, 361.9109
408.1399, 366.7064
408.6220, 372.5248
409.1042, 379.3434
409.5863, 386.0294
410.0684, 392.1264
410.5505, 398.0143
411.0326, 404.8675
411.5147, 412.7085
411.9969, 421.1617
412.4790, 430.0620
412.9611, 439.4806
413.4432, 449.4073
413.9253, 459.9328
414.4074, 471.0251
414.8896, 482.3937
415.3717, 494.3174
415.8538, 507.4082
416.3359, 522.1227
416.8180, 537.9381
417.3001, 554.0687
417.7823, 570.7225
418.2644, 588.1802
418.7465, 606.1780
419.2286, 625.6763
419.7107, 647.4150
420.1928, 672.6413
420.6750, 699.0809
421.1571, 725.3759
421.6392, 752.3134
422.1213, 781.2834
422.6034, 812.2075
423.0855, 845.4949
423.5677, 881.9222
424.0498, 921.9476
424.5319, 962.7806
425.0140, 1003.941
425.4961, 1046.327
425.9782, 1090.950
426.4604, 1138.357
426.9425, 1187.251
427.4246, 1237.349
427.9067, 1289.050
428.3888, 1341.643
428.8709, 1394.134
429.3531, 1449.052
429.8352, 1509.166
430.3173, 1574.604
430.7994, 1639.893
431.2815, 1703.646
431.7636, 1768.979
432.2458, 1839.707
432.7279, 1915.905
433.2100, 1995.895
433.6921, 2079.307
434.1742, 2166.336
434.6563, 2255.391
435.1385, 2347.557
435.6206, 2442.340
436.1027, 2541.063
436.5848, 2642.360
437.0669, 2743.241
437.5490, 2844.697
438.0312, 2942.311
438.5133, 3034.038
438.9954, 3119.311
439.4775, 3196.487
439.9596, 3270.317
440.4417, 3332.254
440.9239, 3374.839
441.4060, 3397.694
441.8881, 3403.827
442.3702, 3396.480
442.8523, 3372.500
443.3344, 3328.599
443.8166, 3258.174
444.2987, 3174.390
444.7808, 3076.579
445.2629, 2967.794
445.7450, 2856.145
446.2271, 2740.332
446.7093, 2627.132
447.1914, 2518.859
447.6735, 2414.708
448.1556, 2317.926
448.6377, 2230.163
449.1198, 2149.555
449.6020, 2074.462
450.0841, 2007.901
450.5662, 1944.047
451.0483, 1883.724
451.5304, 1825.216
452.0125, 1762.249
452.4947, 1693.451
452.9768, 1622.821
453.4589, 1551.919
453.9410, 1480.161
454.4231, 1407.025
454.9052, 1330.912
455.3874, 1255.240
455.8695, 1182.221
456.3516, 1111.804
456.8337, 1046.255
457.3158, 985.7920
457.7979, 930.0784
458.2801, 877.9996
458.7622, 829.8174
459.2443, 785.5918
459.7264, 747.1614
460.2085, 712.4711
460.6906, 679.3936
461.1728, 647.6035
461.6549, 617.7656
462.1370, 591.5824
462.6191, 567.8682
463.1012, 545.5046
463.5833, 523.5309
464.0655, 503.2510
464.5476, 485.8999
465.0297, 471.2930
465.5118, 457.1036
465.9939, 442.8925
466.4760, 429.1030
466.9582, 416.0562
467.4403, 403.6968
467.9224, 391.9805
468.4045, 380.9322
468.8866, 370.5474
469.3687, 360.6696
469.8509, 351.6065
470.3330, 342.7919
470.8151, 334.0219
471.2972, 325.3572
471.7793, 317.5327
472.2614, 310.6751
472.7436, 304.1119
473.2257, 297.1808
473.7078, 289.8359
474.1899, 283.4492
474.6720, 278.1834
475.1541, 273.6066
475.6363, 269.2675
476.1184, 265.1228
476.6005, 260.8812
477.0826, 256.1244
477.5647, 251.3870
478.0468, 247.5582
478.5290, 244.5753
479.0111, 241.8710
479.4932, 239.2594
479.9753, 236.6104
480.4574, 233.6861
480.9395, 230.3009
481.4217, 227.0996
481.9038, 224.7198
482.3859, 222.7702
482.8680, 220.7086
483.3501, 217.8780
483.8322, 215.3666
484.3144, 213.7625
484.7965, 213.0114
485.2786, 212.0063
485.7607, 210.3336
486.2428, 208.5757
486.7249, 207.0307
487.2071, 205.8890
487.6892, 204.5642
488.1713, 202.8384
488.6534, 201.0875
489.1355, 199.9489
489.6176, 199.7704
490.0998, 199.1456
490.5819, 197.5773
491.0640, 195.2959
491.5461, 193.4607
492.0282, 192.0754
492.5103, 191.0411
492.9925, 190.4593
493.4746, 190.2223
493.9567, 189.8313
494.4388, 189.2434
494.9209, 188.4987
495.4030, 187.3436
495.8852, 186.0475
496.3673, 185.2963
496.8494, 185.8601
497.3315, 186.5875
497.8136, 186.3198
498.2957, 185.2308
498.7779, 184.0537
499.2600, 183.0938
499.7421, 182.2247
500.2242, 181.3333
500.7063, 180.3587
501.1884, 179.5427
501.6706, 179.0939
502.1527, 178.7876
502.6348, 178.4050
503.1169, 177.8898
503.5990, 177.3345
504.0811, 176.6732
504.5633, 175.9776
505.0454, 175.5123
505.5275, 175.3804
506.0096, 175.3176
506.4917, 175.2400
506.9738, 175.1507
507.4560, 174.9587
507.9381, 174.6122
508.4202, 174.2997
508.9023, 174.1861
509.3844, 174.2715
509.8665, 174.5942
510.3487, 175.2266
510.8308, 175.9800
511.3129, 176.5651
511.7950, 176.9991
512.2772, 177.3589
512.7593, 177.5570
513.2414, 177.7716
513.7235, 178.2165
514.2056, 178.8936
514.6877, 179.7269
515.1699, 180.8574
515.6520, 182.0214
516.1341, 182.9317
516.6162, 183.2887
517.0983, 183.8541
517.5804, 185.0652
518.0626, 186.6084
518.5447, 187.9700
519.0268, 189.0217
519.5089, 189.9242
519.9910, 190.4755
520.4731, 190.7414
520.9553, 191.8228
521.4374, 194.0956
521.9195, 196.6029
522.4016, 198.8394
522.8837, 200.7448
523.3658, 202.5775
523.8480, 204.3014
524.3301, 206.0495
524.8122, 208.0603
525.2943, 210.3030
525.7764, 212.3239
526.2585, 213.7986
526.7407, 215.2180
527.2228, 217.6662
527.7049, 221.0067
528.1870, 224.3507
528.6691, 227.2237
529.1512, 229.8140
529.6334, 232.2039
530.1155, 234.4041
530.5976, 236.8987
531.0797, 240.1235
531.5618, 243.7492
532.0439, 247.4262
532.5261, 251.3039
533.0082, 254.9392
533.4903, 257.9554
533.9724, 260.7020
534.4545, 264.0072
534.9366, 267.9989
535.4188, 272.4776
535.9009, 277.5626
536.3830, 283.2335
536.8651, 288.4435
537.3472, 292.8970
537.8293, 297.4613
538.3115, 302.6984
538.7936, 308.6291
539.2757, 314.6371
539.7578, 320.6113
540.2399, 326.7804
540.7220, 333.6640
541.2042, 341.0915
541.6863, 348.5279
542.1684, 355.7003
542.6505, 363.0314
543.1326, 371.4595
543.6147, 380.6626
544.0969, 389.6531
544.5790, 397.0389
545.0611, 404.2928
545.5432, 412.5409
546.0253, 421.8510
546.5074, 431.9121
546.9896, 443.1961
547.4717, 454.7445
547.9538, 465.7647
548.4359, 475.1963
548.9180, 485.3853
549.4001, 497.0097
549.8823, 509.4139
550.3644, 521.4484
550.8465, 532.9758
551.3286, 544.6423
551.8107, 556.6586
552.2928, 569.0253
552.7750, 581.1378
553.2571, 592.9185
553.7392, 605.1256
554.2213, 618.6142
554.7034, 633.0129
555.1855, 646.9727
555.6677, 660.4567
556.1498, 673.3123
556.6319, 685.1984
557.1140, 696.2460
557.5961, 706.5773
558.0782, 716.0635
558.5604, 725.1498
559.0425, 734.3854
559.5246, 743.4318
560.0067, 751.4759
560.4888, 758.3463
560.9709, 763.9105
561.4531, 768.0278
561.9352, 770.7234
562.4173, 772.0923
562.8994, 772.3469
563.3815, 771.0806
563.8636, 767.9522
564.3458, 762.4117
564.8279, 756.6356
565.3100, 750.9348
565.7921, 744.5422
566.2742, 736.4413
566.7563, 726.4872
567.2385, 715.9775
567.7206, 705.3973
568.2027, 694.2283
568.6848, 681.4224
569.1669, 667.0482
569.6490, 652.9060
570.1312, 640.7217
570.6133, 628.7999
571.0954, 614.3676
571.5775, 597.3627
572.0596, 580.6893
572.5417, 565.7433
573.0239, 551.9667
573.5060, 539.3284
573.9881, 528.2540
574.4702, 516.7571
574.9523, 503.6681
575.4344, 489.8841
575.9166, 476.7092
576.3987, 464.6094
576.8808, 452.2685
577.3629, 438.8242
577.8450, 425.0428
578.3271, 413.3507
578.8093, 404.1613
579.2914, 395.9263
579.7735, 388.3847
580.2556, 381.4723
580.7377, 373.8224
581.2198, 365.4147
581.7020, 356.7924
582.1841, 347.9196
582.6662, 339.2471
583.1483, 331.8831
583.6304, 326.2543
584.1125, 321.0324
584.5947, 315.0319
585.0768, 308.7181
585.5589, 302.7655
586.0410, 297.2931
586.5231, 292.3666
587.0052, 288.5010
587.4873, 285.2603
587.9694, 281.5406
588.4515, 276.5927
