##NAMES=Natrolite
##RRUFFID=R040022
##IDEAL CHEMISTRY=Na_2_(Si_3_Al_2_)O_10_&#183;2H_2_O
##LOCALITY=Patterson, Passaic County, New Jersey, USA
##OWNER=RRUFF
##SOURCE=University of Arizona Mineral Museum
##DESCRIPTION=White fine fibrous mass
##STATUS=The identification of this mineral has been confirmed by X-ray diffraction and chemical analysis
##URL=rruff.info/R040022
##MEASURED CHEMISTRY=(Na_1.87_Ca_0.08_[box]_0.05_)_Σ=2_(Si_2.97_Al_2.03_)O_10_·1.95H_2_O; H_2_O estimated by difference
130.1867, 100.6889
130.6688, 101.2248
131.1509, 101.8046
131.6330, 102.2368
132.1152, 102.6116
132.5973, 102.9390
133.0794, 103.2141
133.5615, 103.5542
134.0436, 104.4550
134.5257, 107.0108
135.0079, 108.9683
135.4900, 109.6489
135.9721, 109.5466
136.4542, 109.5079
136.9363, 110.0757
137.4184, 111.2262
137.9006, 112.4251
138.3827, 113.5773
138.8648, 114.8568
139.3469, 116.5500
139.8290, 118.5575
140.3111, 120.3076
140.7933, 121.2168
141.2754, 121.3763
141.7575, 121.8591
142.2396, 123.1466
142.7217, 124.5715
143.2038, 125.6237
143.6860, 126.3853
144.1681, 126.2496
144.6502, 124.1639
145.1323, 120.7733
145.6144, 117.3050
146.0965, 114.2975
146.5787, 111.6088
147.0608, 108.7202
147.5429, 105.3700
148.0250, 102.1850
148.5071, 99.34506
148.9892, 96.89563
149.4714, 94.92565
149.9535, 93.50551
150.4356, 92.63538
150.9177, 92.31236
151.3998, 93.13931
151.8819, 94.07890
152.3641, 94.68896
152.8462, 95.00343
153.3283, 95.38277
153.8104, 96.27677
154.2925, 97.89724
154.7746, 99.45483
155.2568, 100.8800
155.7389, 102.3100
156.2210, 103.7573
156.7031, 105.2507
157.1852, 106.9040
157.6673, 108.9209
158.1495, 111.7583
158.6316, 114.1530
159.1137, 115.8132
159.5958, 117.1808
160.0779, 118.8903
160.5600, 121.1964
161.0422, 123.4556
161.5243, 124.2354
162.0064, 123.2847
162.4885, 121.7816
162.9706, 119.9555
163.4527, 117.7476
163.9349, 115.0142
164.4170, 111.6426
164.8991, 107.7647
165.3812, 103.5027
165.8633, 98.53789
166.3454, 94.03996
166.8276, 90.79260
167.3097, 88.68660
167.7918, 86.79087
168.2739, 84.80299
168.7560, 82.86266
169.2381, 81.12577
169.7203, 79.63058
170.2024, 78.28601
170.6845, 76.95914
171.1666, 75.62104
171.6487, 74.50651
172.1308, 73.98025
172.6130, 73.57999
173.0951, 72.90408
173.5772, 71.79591
174.0593, 70.56026
174.5414, 69.75768
175.0235, 69.61699
175.5057, 69.45586
175.9878, 69.15887
176.4699, 68.76441
176.9520, 68.23556
177.4341, 67.54041
177.9162, 66.82384
178.3984, 66.54405
178.8805, 67.14107
179.3626, 67.64957
179.8447, 67.98846
180.3268, 68.16406
180.8089, 68.15383
181.2911, 67.93040
181.7732, 67.56282
182.2553, 67.44930
182.7374, 67.84401
183.2195, 68.21265
183.7016, 68.54183
184.1838, 68.77139
184.6659, 68.81522
185.1480, 68.62095
185.6301, 68.19146
186.1122, 67.55551
186.5943, 66.87228
187.0764, 65.89235
187.5586, 64.21406
188.0407, 62.07611
188.5228, 60.22501
189.0049, 59.16628
189.4870, 58.87303
189.9691, 58.73226
190.4513, 58.94220
190.9334, 59.13242
191.4155, 59.07644
191.8976, 58.77716
192.3797, 58.30584
192.8618, 57.51836
193.3440, 56.62612
193.8261, 56.20148
194.3082, 56.59053
194.7903, 57.28436
195.2724, 57.75529
195.7545, 57.97327
196.2367, 58.16417
196.7188, 58.58186
197.2009, 59.04166
197.6830, 59.26439
198.1651, 59.06324
198.6472, 58.65054
199.1294, 58.36863
199.6115, 58.22005
200.0936, 58.21192
200.5757, 58.21172
201.0578, 58.36365
201.5399, 58.94644
202.0221, 60.28162
202.5042, 61.99431
202.9863, 62.92674
203.4684, 62.48609
203.9505, 62.20036
204.4326, 62.81930
204.9148, 63.81837
205.3969, 64.45444
205.8790, 64.26292
206.3611, 63.41731
206.8432, 62.79758
207.3253, 62.58204
207.8075, 62.40423
208.2896, 62.18021
208.7717, 61.93963
209.2538, 61.75051
209.7359, 61.67168
210.2180, 61.67419
210.7002, 61.48970
211.1823, 60.97482
211.6644, 60.40722
212.1465, 59.81200
212.6286, 59.20198
213.1107, 58.52760
213.5929, 57.71603
214.0750, 56.81672
214.5571, 56.60452
215.0392, 58.05815
215.5213, 59.09650
216.0034, 58.75191
216.4856, 57.51640
216.9677, 56.56581
217.4498, 56.74950
217.9319, 57.93406
218.4140, 58.24416
218.8961, 57.10577
219.3783, 55.89359
219.8604, 55.15325
220.3425, 54.78344
220.8246, 54.38315
221.3067, 53.65749
221.7888, 52.68913
222.2710, 52.03948
222.7531, 52.11516
223.2352, 52.08786
223.7173, 51.40659
224.1994, 50.19415
224.6815, 49.06421
225.1637, 48.40587
225.6458, 48.12477
226.1279, 47.73972
226.6100, 47.07140
227.0921, 46.47617
227.5742, 46.23418
228.0564, 46.31946
228.5385, 46.46154
229.0206, 46.56289
229.5027, 46.60138
229.9848, 46.54026
230.4669, 46.31483
230.9491, 46.07230
231.4312, 45.86679
231.9133, 45.69596
232.3954, 45.78685
232.8775, 46.62862
233.3596, 47.60405
233.8418, 47.84771
234.3239, 47.02861
234.8060, 45.91737
235.2881, 45.21064
235.7702, 44.90501
236.2523, 45.04765
236.7345, 46.16438
237.2166, 47.49406
237.6987, 48.34394
238.1808, 48.53137
238.6629, 48.41694
239.1451, 48.38882
239.6272, 48.44849
240.1093, 48.58559
240.5914, 49.08032
241.0735, 49.49005
241.5556, 49.49361
242.0378, 49.01345
242.5199, 48.17922
243.0020, 47.00279
243.4841, 45.28460
243.9662, 44.00446
244.4483, 43.65601
244.9305, 43.58436
245.4126, 43.40168
245.8947, 43.01875
246.3768, 42.56872
246.8589, 42.21433
247.3410, 41.94987
247.8231, 41.80857
248.3053, 41.82782
248.7874, 41.93443
249.2695, 42.16729
249.7516, 42.49788
250.2337, 42.76046
250.7158, 42.71569
251.1980, 42.25599
251.6801, 41.76870
252.1622, 40.87660
252.6443, 40.24708
253.1264, 40.45470
253.6085, 41.46277
254.0907, 42.65940
254.5728, 43.29245
255.0549, 43.22413
255.5370, 42.97792
256.0191, 42.14248
256.5013, 41.48598
256.9834, 41.54452
257.4655, 42.28283
257.9476, 43.23833
258.4297, 43.92876
258.9118, 44.34035
259.3940, 44.51563
259.8761, 44.31137
260.3582, 44.04780
260.8403, 43.80082
261.3224, 43.62716
261.8045, 43.64491
262.2867, 44.01675
262.7688, 44.85315
263.2509, 45.25337
263.7330, 44.74342
264.2151, 44.32873
264.6972, 44.54867
265.1794, 45.31849
265.6615, 46.21718
266.1436, 46.91805
266.6257, 47.41986
267.1078, 47.74514
267.5899, 47.88496
268.0721, 47.90699
268.5542, 47.68116
269.0363, 47.33548
269.5184, 47.23174
270.0005, 47.67179
270.4826, 48.59960
270.9648, 49.14994
271.4469, 49.08464
271.9290, 48.98211
272.4111, 49.03740
272.8932, 49.22115
273.3753, 49.46272
273.8575, 49.74599
274.3396, 50.03229
274.8217, 50.10779
275.3038, 49.89625
275.7859, 49.61544
276.2680, 49.25128
276.7502, 48.86750
277.2323, 48.64445
277.7144, 48.72029
278.1965, 48.90983
278.6786, 48.58607
279.1607, 47.39735
279.6428, 46.44557
280.1249, 46.21956
280.6071, 46.40555
281.0892, 46.44133
281.5713, 46.11640
282.0534, 45.57475
282.5355, 45.03044
283.0176, 44.37307
283.4998, 44.02271
283.9819, 44.20147
284.4640, 44.72235
284.9461, 45.35615
285.4282, 46.06982
285.9103, 46.74512
286.3925, 47.17790
286.8746, 47.35305
287.3567, 47.54288
287.8388, 47.90501
288.3209, 48.27290
288.8030, 48.40681
289.2852, 48.25371
289.7673, 47.97689
290.2494, 47.68185
290.7315, 47.37481
291.2136, 47.26100
291.6957, 47.53074
292.1779, 47.92389
292.6600, 48.16500
293.1421, 48.22609
293.6242, 48.20363
294.1063, 48.09161
294.5884, 47.94514
295.0706, 48.03241
295.5527, 48.84171
296.0348, 49.57498
296.5169, 49.29184
296.9990, 48.02773
297.4811, 46.98621
297.9633, 46.97125
298.4454, 47.77245
298.9275, 48.55339
299.4096, 49.37561
299.8917, 50.07563
300.3738, 50.47680
300.8560, 50.61682
301.3381, 50.75498
301.8202, 51.00825
302.3023, 51.33171
302.7844, 51.57891
303.2665, 51.60020
303.7487, 51.88966
304.2308, 53.15163
304.7129, 55.00581
305.1950, 56.05383
305.6771, 55.67286
306.1592, 54.51016
306.6414, 53.51017
307.1235, 52.69251
307.6056, 51.80642
308.0877, 50.71051
308.5698, 49.46619
309.0519, 48.17855
309.5341, 46.82709
310.0162, 45.54025
310.4983, 44.38566
310.9804, 43.35279
311.4625, 42.71571
311.9446, 42.83916
312.4268, 43.31714
312.9089, 43.53693
313.3910, 43.41632
313.8731, 43.14858
314.3552, 42.80952
314.8373, 42.43847
315.3195, 42.16938
315.8016, 42.00224
316.2837, 41.96464
316.7658, 42.22874
317.2479, 42.81233
317.7300, 43.11921
318.2122, 42.49665
318.6943, 41.41350
319.1764, 41.02142
319.6585, 41.77666
320.1406, 42.77298
320.6227, 43.30697
321.1049, 43.44196
321.5870, 43.66396
322.0691, 44.24321
322.5512, 44.96623
323.0333, 45.48730
323.5154, 45.83096
323.9976, 45.91329
324.4797, 45.30327
324.9618, 44.34444
325.4439, 44.19744
325.9260, 45.41727
326.4081, 47.10530
326.8903, 48.09069
327.3724, 48.39188
327.8545, 48.61315
328.3366, 49.04665
328.8187, 49.50951
329.3008, 49.61061
329.7830, 49.21367
330.2651, 48.83248
330.7472, 49.17807
331.2293, 50.06955
331.7114, 50.45841
332.1935, 49.92456
332.6757, 48.93428
333.1578, 47.86931
333.6399, 46.74961
334.1220, 45.72630
334.6041, 44.88415
335.0862, 44.23041
335.5684, 43.72105
336.0505, 43.41753
336.5326, 43.19521
337.0147, 42.97780
337.4968, 42.77229
337.9789, 42.63372
338.4611, 42.64419
338.9432, 42.67263
339.4253, 42.36128
339.9074, 41.45555
340.3895, 40.88741
340.8716, 41.28533
341.3538, 42.24606
341.8359, 42.96173
342.3180, 43.19312
342.8001, 43.17673
343.2822, 43.22845
343.7643, 43.35931
344.2465, 43.43819
344.7286, 43.43200
345.2107, 43.36616
345.6928, 43.22087
346.1749, 42.99568
346.6570, 42.84837
347.1392, 42.95906
347.6213, 43.33730
348.1034, 43.56818
348.5855, 43.57578
349.0676, 43.50068
349.5497, 43.32640
350.0319, 43.11332
350.5140, 43.12952
350.9961, 43.59515
351.4782, 44.38528
351.9603, 44.89791
352.4424, 45.05738
352.9246, 45.09258
353.4067, 44.98930
353.8888, 44.82200
354.3709, 44.68749
354.8530, 44.60813
355.3351, 44.66643
355.8173, 45.06384
356.2994, 46.04889
356.7815, 46.79699
357.2636, 47.24122
357.7457, 47.41635
358.2278, 47.26464
358.7100, 46.80759
359.1921, 46.28286
359.6742, 45.95720
360.1563, 45.87626
360.6384, 45.72885
361.1205, 45.59184
361.6027, 45.32908
362.0848, 44.84910
362.5669, 44.17549
363.0490, 43.35576
363.5311, 42.39553
364.0132, 41.33717
364.4954, 40.55447
364.9775, 40.37416
365.4596, 40.06713
365.9417, 39.35899
366.4238, 38.48041
366.9059, 37.74818
367.3881, 37.28809
367.8702, 37.01038
368.3523, 36.72840
368.8344, 36.39295
369.3165, 36.14135
369.7986, 35.96756
370.2808, 35.87225
370.7629, 35.93777
371.2450, 36.12652
371.7271, 36.23182
372.2092, 36.00394
372.6913, 35.36641
373.1735, 34.88068
373.6556, 34.62754
374.1377, 34.43625
374.6198, 34.23107
375.1019, 34.04244
375.5840, 33.96723
376.0662, 34.08443
376.5483, 34.33104
377.0304, 34.40118
377.5125, 34.18638
377.9946, 33.93703
378.4767, 33.62540
378.9589, 33.33514
379.4410, 33.18330
379.9231, 33.20127
380.4052, 33.25444
380.8873, 33.10063
381.3694, 32.63198
381.8516, 32.31382
382.3337, 32.16850
382.8158, 32.19140
383.2979, 32.52674
383.7800, 33.08312
384.2621, 33.51992
384.7443, 33.47005
385.2264, 32.98812
385.7085, 32.78366
386.1906, 33.11061
386.6727, 33.35218
387.1548, 33.21690
387.6370, 32.86160
388.1191, 32.46657
388.6012, 32.01756
389.0833, 31.75197
389.5654, 32.30707
390.0475, 33.97286
390.5297, 35.12516
391.0118, 34.71511
391.4939, 33.88712
391.9760, 33.54124
392.4581, 33.80564
392.9402, 34.20758
393.4224, 34.34675
393.9045, 34.27662
394.3866, 34.33978
394.8687, 34.63617
395.3508, 34.98745
395.8329, 35.15078
396.3151, 35.22201
396.7972, 35.54567
397.2793, 36.68489
397.7614, 37.95075
398.2435, 38.19422
398.7256, 37.32795
399.2078, 36.51856
399.6899, 36.45903
400.1720, 36.89473
400.6541, 37.23003
401.1362, 37.43096
401.6183, 37.55072
402.1004, 37.44434
402.5826, 37.26730
403.0647, 37.52155
403.5468, 38.44319
404.0289, 39.61267
404.5110, 40.45601
404.9931, 40.97042
405.4753, 41.37067
405.9574, 41.57079
406.4395, 41.74681
406.9216, 42.04688
407.4037, 42.48964
407.8858, 43.07499
408.3680, 43.84558
408.8501, 44.77438
409.3322, 45.48941
409.8143, 45.96850
410.2964, 46.30357
410.7785, 46.45430
411.2607, 46.49811
411.7428, 46.56012
412.2249, 46.69088
412.7070, 46.87045
413.1891, 47.06017
413.6712, 47.25505
414.1534, 47.47210
414.6355, 47.80700
415.1176, 48.09361
415.5997, 48.28922
416.0818, 48.34061
416.5639, 48.07488
417.0461, 47.24787
417.5282, 45.84457
418.0103, 45.08783
418.4924, 45.47016
418.9745, 45.99443
419.4566, 46.59369
419.9388, 47.16132
420.4209, 47.51247
420.9030, 47.55416
421.3851, 47.54475
421.8672, 48.05657
422.3493, 49.34345
422.8315, 50.50895
423.3136, 51.41952
423.7957, 52.23795
424.2778, 53.08069
424.7599, 53.94203
425.2420, 54.70934
425.7242, 55.23956
426.2063, 55.56664
426.6884, 56.01252
427.1705, 56.66737
427.6526, 57.28931
428.1347, 57.70131
428.6169, 58.04027
429.0990, 58.48924
429.5811, 59.09306
430.0632, 59.87146
430.5453, 60.88938
431.0274, 62.15083
431.5096, 63.46348
431.9917, 64.81644
432.4738, 66.15825
432.9559, 67.39725
433.4380, 68.53615
433.9201, 69.79842
434.4023, 71.31367
434.8844, 73.01211
435.3665, 74.76222
435.8486, 76.55576
436.3307, 78.41293
436.8128, 80.37370
437.2950, 82.40864
437.7771, 84.38239
438.2592, 86.46656
438.7413, 88.31053
439.2234, 89.62463
439.7055, 90.54887
440.1877, 91.50420
440.6698, 92.70012
441.1519, 93.73908
441.6340, 94.03517
442.1161, 93.65549
442.5982, 92.16959
443.0804, 88.90102
443.5625, 85.01456
444.0446, 81.18967
444.5267, 77.55018
445.0088, 73.98593
445.4909, 70.38944
445.9731, 66.80441
446.4552, 63.60622
446.9373, 60.80479
447.4194, 58.34960
447.9015, 56.36463
448.3836, 54.66148
448.8658, 53.08252
449.3479, 51.57058
449.8300, 50.10595
450.3121, 48.66387
450.7942, 47.22431
451.2763, 45.88411
451.7585, 44.58649
452.2406, 43.44649
452.7227, 42.62659
453.2048, 42.00666
453.6869, 41.29731
454.1690, 40.26435
454.6512, 39.12289
455.1333, 38.44692
455.6154, 38.37224
456.0975, 38.36303
456.5796, 38.41871
457.0617, 38.37048
457.5439, 37.97674
458.0260, 37.21129
458.5081, 36.53027
458.9902, 36.36595
459.4723, 36.58012
459.9544, 36.68258
460.4366, 36.62000
460.9187, 36.45187
461.4008, 36.13676
461.8829, 35.74834
462.3650, 35.47256
462.8471, 35.31220
463.3293, 35.30248
463.8114, 35.60571
464.2935, 36.11123
464.7756, 36.41348
465.2577, 36.35447
465.7398, 36.04777
466.2220, 35.60817
466.7041, 34.91909
467.1862, 34.57322
467.6683, 34.88186
468.1504, 35.38196
468.6325, 35.73428
469.1147, 35.91333
469.5968, 35.99066
470.0789, 35.99383
470.5610, 35.95650
471.0431, 36.10533
471.5252, 36.80492
472.0074, 37.24068
472.4895, 37.16944
472.9716, 36.87772
473.4537, 36.58430
473.9358, 36.37174
474.4179, 36.30098
474.9001, 36.48383
475.3822, 36.96143
475.8643, 37.34440
476.3464, 37.67259
476.8285, 37.84567
477.3106, 37.68015
477.7928, 37.37351
478.2749, 37.22050
478.7570, 37.34249
479.2391, 37.70760
479.7212, 38.38663
480.2033, 39.45643
480.6855, 40.18119
481.1676, 40.16058
481.6497, 39.96333
482.1318, 40.08105
482.6139, 40.48030
483.0960, 40.83076
483.5782, 40.93994
484.0603, 40.91986
484.5424, 40.94892
485.0245, 41.03477
485.5066, 41.10239
485.9887, 41.10080
486.4709, 41.05878
486.9530, 41.05231
487.4351, 41.09038
487.9172, 41.14117
488.3993, 41.22579
488.8814, 41.30397
489.3636, 41.30265
489.8457, 41.21271
490.3278, 41.10283
490.8099, 41.00592
491.2920, 40.91012
491.7741, 41.13194
492.2563, 42.00777
492.7384, 42.75944
493.2205, 43.05182
493.7026, 43.10636
494.1847, 43.22923
494.6668, 43.53682
495.1490, 43.95843
495.6311, 44.39538
496.1132, 44.85643
496.5953, 45.29985
497.0774, 45.92555
497.5595, 46.34077
498.0417, 46.17990
498.5238, 45.69336
499.0059, 45.40308
499.4880, 45.57417
499.9701, 46.11391
500.4522, 46.96495
500.9344, 48.22984
501.4165, 49.14808
501.8986, 49.22564
502.3807, 49.10834
502.8628, 49.39330
503.3449, 50.08037
503.8271, 50.82168
504.3092, 51.41720
504.7913, 51.98211
505.2734, 52.70116
505.7555, 53.58372
506.2376, 54.52489
506.7198, 55.49748
507.2019, 56.47293
507.6840, 57.35168
508.1661, 58.06862
508.6482, 58.82597
509.1303, 59.73985
509.6125, 60.69014
510.0946, 61.38486
510.5767, 61.84855
511.0588, 62.62318
511.5409, 64.28835
512.0230, 66.83533
512.5051, 68.88551
512.9872, 69.64303
513.4694, 70.85305
513.9515, 73.13456
514.4336, 75.90221
514.9157, 78.47659
515.3978, 80.66891
515.8799, 82.76772
516.3621, 85.25230
516.8442, 88.19587
517.3263, 90.66733
517.8084, 92.44548
518.2905, 94.03195
518.7726, 95.55003
519.2548, 97.07480
519.7369, 98.73638
520.2190, 100.6161
520.7011, 102.5715
521.1832, 104.3565
521.6653, 106.0266
522.1475, 108.0390
522.6296, 110.5528
523.1117, 113.3262
523.5938, 116.0656
524.0759, 118.7864
524.5580, 121.7846
525.0402, 125.2253
525.5223, 128.8559
526.0044, 132.4575
526.4865, 136.0881
526.9686, 139.9499
527.4507, 144.0964
527.9329, 148.5938
528.4150, 153.6195
528.8971, 159.6162
529.3792, 165.0486
529.8613, 170.1597
530.3434, 174.5038
530.8256, 177.8820
531.3077, 180.2939
531.7898, 181.9102
532.2719, 182.8805
532.7540, 182.9049
533.2361, 181.2131
533.7183, 177.7061
534.2004, 172.7259
534.6825, 165.5171
535.1646, 157.4015
535.6467, 148.9140
536.1288, 140.1340
536.6110, 131.2753
537.0931, 122.2366
537.5752, 113.3261
538.0573, 105.1827
538.5394, 97.79458
539.0215, 91.02882
539.5037, 84.77039
539.9858, 79.18967
540.4679, 74.58183
540.9500, 70.97521
541.4321, 67.71132
541.9142, 64.69339
542.3964, 61.86826
542.8785, 59.05578
543.3606, 56.33657
543.8427, 54.18135
544.3248, 52.99260
544.8069, 52.43632
545.2891, 51.26846
545.7712, 48.57625
546.2533, 46.52614
546.7354, 45.48958
547.2175, 44.87498
547.6996, 44.39368
548.1818, 43.93314
548.6639, 43.35787
549.1460, 42.54702
549.6281, 41.55636
550.1102, 40.59153
550.5923, 39.54798
551.0745, 38.79346
551.5566, 38.69171
552.0387, 38.76662
552.5208, 38.66060
553.0029, 38.34237
553.4850, 37.97636
553.9672, 37.58707
554.4493, 37.23452
554.9314, 37.07381
555.4135, 37.11373
555.8956, 37.10212
556.3777, 36.90954
556.8599, 36.56890
557.3420, 36.15742
557.8241, 35.65222
558.3062, 35.14607
558.7883, 34.43245
559.2704, 33.87985
559.7526, 34.05850
560.2347, 34.82043
560.7168, 35.36998
561.1989, 35.12153
561.6810, 34.21955
562.1631, 33.28009
562.6453, 32.01886
563.1274, 31.24086
563.6095, 31.24113
564.0916, 31.52737
564.5737, 31.80842
565.0558, 32.03944
565.5380, 32.27404
566.0201, 32.65086
566.5022, 33.01123
566.9843, 32.86555
567.4664, 32.13348
567.9485, 31.39916
568.4307, 30.79995
568.9128, 30.38949
569.3949, 30.25531
569.8770, 30.41845
570.3591, 30.58354
570.8412, 30.55865
571.3234, 30.55338
571.8055, 30.93710
572.2876, 31.60269
572.7697, 31.93421
573.2518, 31.54745
573.7339, 30.75029
574.2161, 30.34224
574.6982, 30.71679
575.1803, 30.79571
575.6624, 30.19893
576.1445, 29.65790
576.6266, 29.74290
577.1088, 30.26918
577.5909, 30.66822
578.0730, 30.59051
578.5551, 30.22756
579.0372, 29.96655
579.5193, 29.79927
580.0015, 29.79360
580.4836, 30.13171
580.9657, 30.46062
581.4478, 30.43511
581.9299, 30.14850
582.4120, 30.01435
582.8942, 30.33697
583.3763, 30.74990
583.8584, 30.94229
584.3405, 30.92729
584.8226, 30.70425
585.3047, 30.23850
585.7869, 29.73138
586.2690, 29.45632
586.7511, 29.45296
587.2332, 29.52475
587.7153, 29.79667
588.1974, 30.00529
588.6796, 30.03508
589.1617, 29.92904
589.6438, 29.72245
590.1259, 29.43880
590.6080, 29.18878
591.0901, 29.15333
591.5723, 29.35662
592.0544, 29.53842
592.5365, 29.68300
593.0186, 29.82232
593.5007, 29.98482
593.9828, 30.14668
594.4650, 30.29327
594.9471, 30.44623
595.4292, 30.48304
595.9113, 30.22103
596.3934, 29.78533
596.8755, 29.44996
597.3577, 29.25492
597.8398, 29.20347
598.3219, 29.33935
598.8040, 29.62359
599.2861, 29.78717
599.7682, 29.95323
600.2504, 29.85928
600.7325, 29.09568
601.2146, 28.29617
601.6967, 28.16812
602.1788, 28.67570
602.6609, 29.18288
603.1431, 29.16354
603.6252, 28.75145
604.1073, 28.52448
604.5894, 28.52345
605.0715, 28.60174
605.5536, 28.85714
606.0358, 29.07932
606.5179, 29.07275
607.0000, 28.85886
607.4821, 28.67061
607.9642, 28.55749
608.4464, 28.56852
608.9285, 28.89096
609.4106, 29.44698
609.8927, 29.76363
610.3748, 29.64130
610.8569, 29.26438
611.3391, 28.88025
611.8212, 28.46863
612.3033, 28.14799
612.7854, 27.90974
613.2675, 27.76698
613.7496, 27.75949
614.2318, 27.84098
614.7139, 27.92879
615.1960, 27.99527
615.6781, 28.10299
616.1602, 28.41841
616.6423, 28.96497
617.1245, 29.14069
617.6066, 28.70029
618.0887, 28.30417
618.5708, 28.35431
619.0529, 28.61796
619.5350, 28.80510
620.0172, 28.88511
620.4993, 28.83196
620.9814, 28.51859
621.4635, 28.10967
621.9456, 27.84566
622.4277, 27.75305
622.9099, 27.79457
623.3920, 27.96487
623.8741, 28.22481
624.3562, 28.43570
