##NAMES=Natrodufrenite
##RRUFFID=R070599
##IDEAL CHEMISTRY=NaFe^2+^Fe^3+^_5_(PO_4_)_4_(OH)_6_&#183;2H_2_O
##LOCALITY=Hout Bay, Cape of Good Hope Province, South Africa
##OWNER=RRUFF
##SOURCE=James Shigley
##DESCRIPTION=Sheaflike, dark brown to red-brown aggregates
##STATUS=The identification of this mineral has been confirmed by X-ray diffraction and chemical analysis
##URL=rruff.info/R070599
##MEASURED CHEMISTRY=(Na_0.62_[box]_0.19_Mn_0.10_Ca_0.09_)_Σ=1_Fe^2+^_1.00_(Fe^3+^_4.95_Al_0.05_)_Σ=5_(P_1.00_O_4_)_4_((OH)_4.76_F_0.24_)_Σ=6_·2H_2_O ; H not measured but estimated by difference and charge balance
113.9630, 10555.62
114.4451, 10617.21
114.9272, 10700.51
115.4094, 10779.94
115.8915, 10865.57
116.3736, 10930.26
116.8557, 10960.63
117.3378, 10973.74
117.8199, 10989.40
118.3021, 11018.46
118.7842, 11057.31
119.2663, 11082.11
119.7484, 11079.67
120.2305, 11079.32
120.7126, 11087.15
121.1948, 11104.27
121.6769, 11133.98
122.1590, 11182.92
122.6411, 11251.03
123.1232, 11304.30
123.6053, 11330.62
124.0875, 11348.73
124.5696, 11379.13
125.0517, 11426.56
125.5338, 11471.53
126.0159, 11481.34
126.4980, 11464.70
126.9802, 11467.31
127.4623, 11519.82
127.9444, 11606.67
128.4265, 11679.27
128.9086, 11722.33
129.3907, 11755.87
129.8729, 11798.10
130.3550, 11849.17
130.8371, 11901.56
131.3192, 11954.04
131.8013, 12009.78
132.2834, 12044.54
132.7656, 12031.00
133.2477, 12006.76
133.7298, 11995.80
134.2119, 12005.48
134.6940, 12023.67
135.1761, 12027.03
135.6583, 12007.14
136.1404, 11985.61
136.6225, 11968.36
137.1046, 11951.16
137.5867, 11930.68
138.0688, 11905.46
138.5510, 11874.84
139.0331, 11833.10
139.5152, 11780.51
139.9973, 11715.78
140.4794, 11638.27
140.9615, 11548.28
141.4437, 11446.52
141.9258, 11331.81
142.4079, 11203.12
142.8900, 11076.35
143.3721, 10961.74
143.8542, 10840.66
144.3364, 10700.61
144.8185, 10541.55
145.3006, 10373.75
145.7827, 10204.11
146.2648, 10028.71
146.7469, 9874.788
147.2291, 9765.697
147.7112, 9669.448
148.1933, 9548.434
148.6754, 9390.341
149.1575, 9217.099
149.6396, 9059.236
150.1218, 8915.765
150.6039, 8782.096
151.0860, 8656.762
151.5681, 8540.113
152.0502, 8431.104
152.5323, 8332.085
153.0145, 8239.505
153.4966, 8142.492
153.9787, 8034.647
154.4608, 7942.733
154.9429, 7899.891
155.4250, 7908.732
155.9072, 7904.812
156.3893, 7853.551
156.8714, 7781.339
157.3535, 7707.811
157.8356, 7635.945
158.3177, 7568.629
158.7999, 7510.155
159.2820, 7460.228
159.7641, 7420.404
160.2462, 7401.197
160.7283, 7387.837
161.2104, 7362.951
161.6926, 7315.815
162.1747, 7252.034
162.6568, 7196.315
163.1389, 7156.207
163.6210, 7116.036
164.1031, 7072.814
164.5853, 7026.564
165.0674, 6978.408
165.5495, 6930.769
166.0316, 6883.962
166.5137, 6822.497
166.9958, 6718.083
167.4780, 6624.556
167.9601, 6561.957
168.4422, 6528.251
168.9243, 6510.944
169.4064, 6500.907
169.8885, 6506.433
170.3707, 6483.826
170.8528, 6413.712
171.3349, 6335.867
171.8170, 6272.215
172.2991, 6226.846
172.7813, 6192.468
173.2634, 6159.561
173.7455, 6127.946
174.2276, 6099.146
174.7097, 6069.227
175.1918, 6043.921
175.6740, 6029.169
176.1561, 6026.827
176.6382, 6034.294
177.1203, 6049.455
177.6024, 6079.042
178.0845, 6099.715
178.5667, 6109.465
179.0488, 6107.088
179.5309, 6086.479
180.0130, 6040.254
180.4951, 5983.488
180.9772, 5948.502
181.4594, 5936.689
181.9415, 5937.003
182.4236, 5951.746
182.9057, 5977.156
183.3878, 5995.559
183.8699, 5996.493
184.3521, 5987.008
184.8342, 5982.676
185.3163, 5986.390
185.7984, 5991.296
186.2805, 5989.531
186.7626, 5980.678
187.2448, 5977.416
187.7269, 5993.685
188.2090, 6016.681
188.6911, 6029.351
189.1732, 6023.688
189.6553, 6011.046
190.1375, 6008.379
190.6196, 6019.744
191.1017, 6027.627
191.5838, 6020.802
192.0659, 6006.624
192.5480, 5992.797
193.0302, 5980.762
193.5123, 5972.254
193.9944, 5973.827
194.4765, 5994.628
194.9586, 6009.167
195.4407, 6006.112
195.9229, 5991.390
196.4050, 5972.863
196.8871, 5950.018
197.3692, 5926.472
197.8513, 5927.762
198.3334, 5977.012
198.8156, 6026.748
199.2977, 6066.203
199.7798, 6094.384
200.2619, 6110.280
200.7440, 6107.100
201.2261, 6083.560
201.7083, 6086.783
202.1904, 6143.740
202.6725, 6205.382
203.1546, 6263.257
203.6367, 6313.965
204.1188, 6353.196
204.6010, 6372.597
205.0831, 6363.757
205.5652, 6383.852
206.0473, 6462.953
206.5294, 6542.341
207.0115, 6592.615
207.4937, 6614.832
207.9758, 6629.918
208.4579, 6662.042
208.9400, 6720.042
209.4221, 6767.833
209.9042, 6793.999
210.3864, 6820.396
210.8685, 6862.322
211.3506, 6920.906
211.8327, 6985.744
212.3148, 7044.033
212.7970, 7098.011
213.2791, 7135.981
213.7612, 7142.936
214.2433, 7144.217
214.7254, 7162.271
215.2075, 7201.678
215.6897, 7248.367
216.1718, 7281.156
216.6539, 7292.402
217.1360, 7302.464
217.6181, 7314.206
218.1002, 7323.698
218.5824, 7322.220
219.0645, 7306.820
219.5466, 7291.590
220.0287, 7304.647
220.5108, 7366.867
220.9929, 7408.304
221.4751, 7402.562
221.9572, 7375.803
222.4393, 7367.517
222.9214, 7393.549
223.4035, 7430.127
223.8856, 7425.879
224.3678, 7366.981
224.8499, 7314.970
225.3320, 7285.747
225.8141, 7273.365
226.2962, 7268.948
226.7783, 7271.886
227.2605, 7276.409
227.7426, 7272.859
228.2247, 7265.357
228.7068, 7243.374
229.1889, 7194.533
229.6710, 7127.569
230.1532, 7063.986
230.6353, 7011.436
231.1174, 6966.707
231.5995, 6923.537
232.0816, 6881.266
232.5637, 6841.941
233.0459, 6804.965
233.5280, 6771.447
234.0101, 6746.491
234.4922, 6735.809
234.9743, 6731.485
235.4564, 6721.179
235.9386, 6705.627
236.4207, 6682.908
236.9028, 6635.935
237.3849, 6572.297
237.8670, 6547.761
238.3491, 6612.281
238.8313, 6703.163
239.3134, 6727.686
239.7955, 6665.682
240.2776, 6588.768
240.7597, 6551.015
241.2418, 6550.049
241.7240, 6549.615
242.2061, 6535.119
242.6882, 6516.512
243.1703, 6506.061
243.6524, 6506.245
244.1345, 6509.517
244.6167, 6509.572
245.0988, 6506.374
245.5809, 6502.673
246.0630, 6491.911
246.5451, 6486.504
247.0272, 6505.052
247.5094, 6557.268
247.9915, 6604.876
248.4736, 6599.650
248.9557, 6536.758
249.4378, 6491.472
249.9199, 6501.586
250.4021, 6532.993
250.8842, 6556.756
251.3663, 6567.563
251.8484, 6574.405
252.3305, 6584.660
252.8126, 6597.830
253.2948, 6619.096
253.7769, 6664.867
254.2590, 6710.902
254.7411, 6732.683
255.2232, 6722.157
255.7053, 6710.278
256.1874, 6739.822
256.6696, 6819.669
257.1517, 6884.118
257.6338, 6895.967
258.1159, 6895.128
258.5980, 6908.030
259.0801, 6940.662
259.5623, 6982.786
260.0444, 7023.752
260.5265, 7063.799
261.0086, 7101.392
261.4907, 7129.331
261.9728, 7158.448
262.4550, 7197.948
262.9371, 7250.108
263.4192, 7305.393
263.9013, 7354.029
264.3834, 7395.245
264.8655, 7432.083
265.3477, 7457.878
265.8298, 7483.728
266.3119, 7517.617
266.7940, 7561.015
267.2761, 7607.795
267.7582, 7650.476
268.2404, 7688.276
268.7225, 7726.255
269.2046, 7760.931
269.6867, 7799.389
270.1688, 7851.925
270.6509, 7919.338
271.1331, 7982.564
271.6152, 8013.053
272.0973, 8002.034
272.5794, 8008.579
273.0615, 8064.195
273.5436, 8125.673
274.0258, 8164.803
274.5079, 8179.315
274.9900, 8195.034
275.4721, 8243.146
275.9542, 8329.087
276.4363, 8412.748
276.9185, 8494.689
277.4006, 8569.091
277.8827, 8631.380
278.3648, 8681.672
278.8469, 8723.396
279.3290, 8756.802
279.8112, 8780.445
280.2933, 8810.184
280.7754, 8848.552
281.2575, 8893.259
281.7396, 8950.881
282.2217, 9018.183
282.7039, 9076.760
283.1860, 9101.680
283.6681, 9089.196
284.1502, 9096.303
284.6323, 9150.515
285.1144, 9204.030
285.5966, 9237.097
286.0787, 9248.874
286.5608, 9244.902
287.0429, 9220.339
287.5250, 9174.589
288.0071, 9151.619
288.4893, 9179.237
288.9714, 9203.408
289.4535, 9199.396
289.9356, 9170.505
290.4177, 9131.305
290.8998, 9087.560
291.3820, 9040.018
291.8641, 9005.768
292.3462, 8994.589
292.8283, 8986.171
293.3104, 8977.013
293.7925, 8963.866
294.2747, 8939.533
294.7568, 8893.868
295.2389, 8831.601
295.7210, 8783.457
296.2031, 8766.387
296.6852, 8738.541
297.1674, 8676.896
297.6495, 8593.436
298.1316, 8511.392
298.6137, 8443.009
299.0958, 8385.083
299.5779, 8328.166
300.0601, 8278.094
300.5422, 8217.199
301.0243, 8123.553
301.5064, 8018.778
301.9885, 7936.536
302.4706, 7901.325
302.9528, 7890.582
303.4349, 7849.975
303.9170, 7767.170
304.3991, 7683.924
304.8812, 7619.003
305.3633, 7562.308
305.8455, 7502.336
306.3276, 7433.288
306.8097, 7362.264
307.2918, 7305.825
307.7739, 7273.256
308.2560, 7222.203
308.7382, 7112.490
309.2203, 6987.869
309.7024, 6887.430
310.1845, 6823.928
310.6666, 6779.698
311.1487, 6737.419
311.6309, 6698.312
312.1130, 6650.553
312.5951, 6574.588
313.0772, 6497.241
313.5593, 6445.295
314.0414, 6426.198
314.5236, 6410.750
315.0057, 6372.088
315.4878, 6310.411
315.9699, 6242.033
316.4520, 6158.821
316.9341, 6081.905
317.4163, 6032.046
317.8984, 6010.935
318.3805, 5997.033
318.8626, 5979.473
319.3447, 5957.550
319.8268, 5925.383
320.3090, 5874.991
320.7911, 5823.193
321.2732, 5786.839
321.7553, 5764.845
322.2374, 5744.152
322.7195, 5716.584
323.2017, 5685.019
323.6838, 5658.043
324.1659, 5637.989
324.6480, 5619.685
325.1301, 5597.925
325.6122, 5573.622
326.0944, 5550.554
326.5765, 5528.154
327.0586, 5508.521
327.5407, 5498.127
328.0228, 5500.053
328.5049, 5497.616
328.9871, 5467.285
329.4692, 5419.887
329.9513, 5393.521
330.4334, 5418.377
330.9155, 5453.287
331.3976, 5451.274
331.8798, 5411.136
332.3619, 5371.469
332.8440, 5357.336
333.3261, 5363.349
333.8082, 5363.889
334.2903, 5346.776
334.7725, 5334.414
335.2546, 5346.790
335.7367, 5378.989
336.2188, 5406.173
336.7010, 5414.296
337.1831, 5410.406
337.6652, 5416.061
338.1473, 5433.455
338.6294, 5455.565
339.1115, 5480.134
339.5937, 5507.436
340.0758, 5540.105
340.5579, 5581.097
341.0400, 5623.159
341.5221, 5649.887
342.0042, 5657.084
342.4864, 5661.886
342.9685, 5655.975
343.4506, 5653.645
343.9327, 5679.120
344.4148, 5738.877
344.8969, 5807.474
345.3791, 5848.735
345.8612, 5847.827
346.3433, 5854.372
346.8254, 5870.942
347.3075, 5893.227
347.7896, 5914.515
348.2718, 5935.642
348.7539, 5968.414
349.2360, 6028.992
349.7181, 6126.190
350.2002, 6190.154
350.6823, 6198.586
351.1645, 6200.377
351.6466, 6218.850
352.1287, 6251.866
352.6108, 6285.394
353.0929, 6308.540
353.5750, 6322.375
354.0572, 6348.021
354.5393, 6401.845
355.0214, 6449.324
355.5035, 6480.623
355.9856, 6501.198
356.4677, 6518.884
356.9499, 6537.421
357.4320, 6558.083
357.9141, 6585.600
358.3962, 6629.207
358.8783, 6666.253
359.3604, 6691.903
359.8426, 6711.702
360.3247, 6731.132
360.8068, 6751.797
361.2889, 6771.694
361.7710, 6787.254
362.2531, 6797.957
362.7353, 6805.480
363.2174, 6807.498
363.6995, 6808.438
364.1816, 6808.158
364.6637, 6808.049
365.1458, 6813.625
365.6280, 6836.545
366.1101, 6879.593
366.5922, 6901.670
367.0743, 6876.920
367.5564, 6856.709
368.0385, 6874.032
368.5207, 6916.727
369.0028, 6949.396
369.4849, 6949.191
369.9670, 6921.112
370.4491, 6881.042
370.9312, 6819.664
371.4134, 6765.551
371.8955, 6738.362
372.3776, 6725.791
372.8597, 6710.499
373.3418, 6685.801
373.8239, 6656.521
374.3061, 6629.074
374.7882, 6603.738
375.2703, 6578.704
375.7524, 6560.254
376.2345, 6537.201
376.7166, 6492.834
377.1988, 6419.023
377.6809, 6343.600
378.1630, 6285.843
378.6451, 6242.980
379.1272, 6204.274
379.6093, 6168.179
380.0915, 6132.523
380.5736, 6095.677
381.0557, 6058.573
381.5378, 6014.589
382.0199, 5943.704
382.5020, 5871.162
382.9842, 5843.619
383.4663, 5871.182
383.9484, 5900.614
384.4305, 5879.801
384.9126, 5803.113
385.3947, 5726.331
385.8769, 5641.155
386.3590, 5563.563
386.8411, 5508.314
387.3232, 5472.013
387.8053, 5438.779
388.2874, 5398.566
388.7696, 5352.366
389.2517, 5307.376
389.7338, 5264.817
390.2159, 5221.959
390.6980, 5174.958
391.1801, 5128.113
391.6623, 5088.894
392.1444, 5060.733
392.6265, 5038.660
393.1086, 5011.676
393.5907, 4974.359
394.0728, 4940.247
394.5550, 4909.385
395.0371, 4881.751
395.5192, 4857.876
396.0013, 4837.658
396.4834, 4819.303
396.9655, 4800.699
397.4477, 4781.192
397.9298, 4764.669
398.4119, 4748.329
398.8940, 4737.713
399.3761, 4732.896
399.8582, 4735.611
400.3404, 4749.470
400.8225, 4778.277
401.3046, 4819.711
401.7867, 4864.465
402.2688, 4919.161
402.7509, 4964.492
403.2331, 4988.294
403.7152, 5002.834
404.1973, 5022.031
404.6794, 5050.658
405.1615, 5084.900
405.6436, 5120.933
406.1258, 5159.173
406.6079, 5195.669
407.0900, 5224.093
407.5721, 5255.194
408.0542, 5299.672
408.5363, 5358.365
409.0185, 5421.945
409.5006, 5493.143
409.9827, 5564.882
410.4648, 5611.196
410.9469, 5619.656
411.4290, 5630.680
411.9112, 5695.890
412.3933, 5804.357
412.8754, 5885.870
413.3575, 5904.355
413.8396, 5908.400
414.3217, 5940.828
414.8039, 6000.335
415.2860, 6065.027
415.7681, 6125.565
416.2502, 6179.150
416.7323, 6212.572
417.2144, 6210.268
417.6966, 6209.706
418.1787, 6223.126
418.6608, 6244.158
419.1429, 6263.178
419.6250, 6276.938
420.1071, 6288.100
420.5893, 6301.736
421.0714, 6321.732
421.5535, 6335.556
422.0356, 6343.478
422.5177, 6345.609
422.9998, 6341.906
423.4820, 6332.464
423.9641, 6317.277
424.4462, 6295.593
424.9283, 6267.307
425.4104, 6240.828
425.8925, 6223.190
426.3747, 6199.299
426.8568, 6161.058
427.3389, 6115.394
427.8210, 6072.991
428.3031, 6039.229
428.7852, 6009.755
429.2674, 5976.014
429.7495, 5936.966
430.2316, 5897.204
430.7137, 5859.630
431.1958, 5820.864
431.6779, 5779.271
432.1601, 5734.710
432.6422, 5684.961
433.1243, 5621.203
433.6064, 5548.987
434.0885, 5494.137
434.5706, 5464.735
435.0528, 5443.219
435.5349, 5411.761
436.0170, 5374.701
436.4991, 5349.017
436.9812, 5352.747
437.4633, 5360.575
437.9455, 5346.487
438.4276, 5311.576
438.9097, 5269.797
439.3918, 5222.987
439.8739, 5178.493
440.3560, 5161.537
440.8382, 5191.040
441.3203, 5215.046
441.8024, 5214.836
442.2845, 5202.563
442.7666, 5191.558
443.2487, 5185.985
443.7309, 5189.239
444.2130, 5207.766
444.6951, 5249.875
445.1772, 5279.388
445.6593, 5285.603
446.1414, 5290.727
446.6236, 5305.877
447.1057, 5330.066
447.5878, 5356.603
448.0699, 5380.108
448.5520, 5402.736
449.0341, 5437.350
449.5163, 5497.522
449.9984, 5548.362
450.4805, 5572.918
450.9626, 5590.842
451.4447, 5622.242
451.9268, 5673.156
452.4090, 5732.667
452.8911, 5789.536
453.3732, 5843.899
453.8553, 5891.710
454.3374, 5922.953
454.8195, 5958.305
455.3017, 6008.691
455.7838, 6074.233
456.2659, 6154.976
456.7480, 6270.665
457.2301, 6393.667
457.7122, 6472.623
458.1944, 6503.951
458.6765, 6539.711
459.1586, 6609.578
459.6407, 6707.419
460.1228, 6808.840
460.6049, 6922.279
461.0871, 7026.716
461.5692, 7103.837
462.0513, 7168.512
462.5334, 7247.787
463.0155, 7349.953
463.4977, 7464.072
463.9798, 7576.051
464.4619, 7686.613
464.9440, 7791.560
465.4261, 7881.806
465.9082, 7974.790
466.3904, 8085.076
466.8725, 8208.168
467.3546, 8327.980
467.8367, 8434.000
468.3188, 8527.727
468.8009, 8614.123
469.2831, 8691.530
469.7652, 8764.073
470.2473, 8830.565
470.7294, 8893.972
471.2115, 8962.274
471.6936, 9036.345
472.1758, 9097.513
472.6579, 9114.887
473.1400, 9089.055
473.6221, 9086.601
474.1042, 9133.193
474.5863, 9176.430
475.0685, 9180.329
475.5506, 9152.741
476.0327, 9116.705
476.5148, 9085.453
476.9969, 9047.228
477.4790, 8987.362
477.9612, 8906.527
478.4433, 8813.988
478.9254, 8713.602
479.4075, 8604.841
479.8896, 8485.502
480.3717, 8346.830
480.8539, 8218.497
481.3360, 8118.981
481.8181, 8028.894
482.3002, 7924.088
482.7823, 7801.097
483.2644, 7675.204
483.7466, 7562.679
484.2287, 7464.990
484.7108, 7364.249
485.1929, 7266.336
485.6750, 7158.583
486.1571, 7027.326
486.6393, 6886.090
487.1214, 6751.147
487.6035, 6629.656
488.0856, 6525.075
488.5677, 6452.519
489.0498, 6425.989
489.5320, 6381.910
490.0141, 6292.374
490.4962, 6197.048
490.9783, 6116.119
491.4604, 6050.388
491.9425, 5991.159
492.4247, 5935.703
492.9068, 5882.902
493.3889, 5829.821
493.8710, 5776.956
494.3531, 5721.852
494.8352, 5659.841
495.3174, 5595.921
495.7995, 5541.420
496.2816, 5502.017
496.7637, 5463.001
497.2458, 5415.309
497.7279, 5363.844
498.2101, 5317.374
498.6922, 5278.162
499.1743, 5242.805
499.6564, 5207.435
500.1385, 5171.740
500.6206, 5137.628
501.1028, 5099.440
501.5849, 5067.877
502.0670, 5057.562
502.5491, 5056.247
503.0312, 5037.467
503.5133, 4986.169
503.9955, 4918.218
504.4776, 4874.558
504.9597, 4868.679
505.4418, 4853.888
505.9239, 4816.792
506.4060, 4774.631
506.8882, 4740.656
507.3703, 4713.793
507.8524, 4680.109
508.3345, 4620.959
508.8166, 4548.254
509.2987, 4496.486
509.7809, 4469.150
510.2630, 4450.410
510.7451, 4439.089
511.2272, 4428.131
511.7093, 4402.420
512.1914, 4355.360
512.6735, 4304.491
513.1556, 4251.945
513.6378, 4202.920
514.1199, 4172.041
514.6020, 4162.589
515.0841, 4153.074
515.5662, 4117.418
516.0483, 4049.065
516.5305, 3997.405
517.0126, 3971.604
517.4947, 3949.799
517.9768, 3924.160
518.4589, 3896.398
518.9410, 3871.820
519.4232, 3853.413
519.9053, 3834.921
520.3874, 3802.271
520.8695, 3749.527
521.3516, 3703.278
521.8337, 3675.069
522.3159, 3647.179
522.7980, 3607.033
523.2801, 3557.306
523.7622, 3512.344
524.2443, 3482.228
524.7264, 3460.683
525.2086, 3436.071
525.6907, 3408.215
526.1728, 3381.827
526.6549, 3359.252
527.1370, 3339.643
527.6191, 3321.815
528.1013, 3308.200
528.5834, 3290.063
529.0655, 3262.344
529.5476, 3230.162
530.0297, 3197.789
530.5118, 3166.498
530.9940, 3138.551
531.4761, 3116.105
531.9582, 3099.025
532.4403, 3083.143
532.9224, 3071.009
533.4045, 3057.127
533.8867, 3039.979
534.3688, 3021.043
534.8509, 2998.217
535.3330, 2971.988
535.8151, 2953.310
536.2972, 2965.059
536.7794, 3006.919
537.2615, 3013.550
537.7436, 2951.498
538.2257, 2901.713
538.7078, 2932.527
539.1899, 3009.231
539.6721, 3057.869
540.1542, 3041.792
540.6363, 3015.078
541.1184, 3025.067
541.6005, 3061.615
542.0826, 3089.189
542.5648, 3094.636
543.0469, 3098.100
543.5290, 3128.270
544.0111, 3195.196
544.4932, 3252.081
544.9753, 3283.726
545.4575, 3319.662
545.9396, 3378.333
546.4217, 3453.241
546.9038, 3529.370
547.3859, 3599.066
547.8680, 3664.293
548.3502, 3728.594
548.8323, 3788.257
549.3144, 3858.018
549.7965, 3946.982
550.2786, 4041.431
550.7607, 4137.590
551.2429, 4233.783
551.7250, 4326.267
552.2071, 4413.508
552.6892, 4496.016
553.1713, 4576.308
553.6534, 4654.688
554.1356, 4723.080
554.6177, 4775.072
555.0998, 4817.979
555.5819, 4869.151
556.0640, 4935.749
556.5461, 4987.364
557.0283, 5022.333
557.5104, 5036.830
557.9925, 5023.248
558.4746, 4984.513
558.9567, 4931.924
559.4388, 4873.118
559.9210, 4808.459
560.4031, 4740.935
560.8852, 4670.621
561.3673, 4597.203
561.8494, 4522.670
562.3315, 4444.589
562.8137, 4355.370
563.2958, 4257.051
563.7779, 4168.364
564.2600, 4110.791
564.7421, 4074.231
565.2242, 4026.165
565.7064, 3963.710
566.1885, 3903.659
566.6706, 3854.696
567.1527, 3814.856
567.6348, 3778.030
568.1169, 3742.802
568.5991, 3713.765
569.0812, 3699.585
569.5633, 3688.652
570.0454, 3664.594
570.5275, 3626.949
571.0096, 3589.876
571.4918, 3563.944
571.9739, 3549.198
572.4560, 3545.062
572.9381, 3566.502
573.4202, 3578.239
573.9023, 3559.080
574.3845, 3538.135
574.8666, 3549.089
575.3487, 3595.107
575.8308, 3640.352
576.3129, 3648.756
576.7950, 3629.251
577.2772, 3618.601
577.7593, 3618.250
578.2414, 3626.017
578.7235, 3650.499
579.2056, 3678.993
579.6877, 3680.583
580.1699, 3638.459
580.6520, 3602.859
581.1341, 3604.568
581.6162, 3617.820
582.0984, 3608.987
582.5805, 3574.057
583.0626, 3530.258
583.5447, 3491.223
584.0269, 3456.983
584.5090, 3428.866
584.9911, 3403.420
585.4732, 3389.964
585.9553, 3403.155
586.4374, 3420.262
586.9196, 3417.672
587.4017, 3392.343
587.8838, 3364.276
588.3659, 3351.080
588.8480, 3349.042
589.3301, 3347.452
589.8123, 3347.950
590.2944, 3338.087
590.7765, 3306.396
591.2586, 3261.061
591.7407, 3223.423
592.2228, 3197.417
592.7050, 3170.318
593.1871, 3133.213
593.6692, 3096.114
594.1513, 3073.090
594.6334, 3063.362
595.1155, 3053.010
595.5977, 3030.790
596.0798, 2998.691
596.5619, 2969.619
597.0440, 2941.663
597.5261, 2920.496
598.0082, 2912.087
598.4904, 2906.496
598.9725, 2898.184
599.4546, 2885.633
599.9367, 2865.608
600.4188, 2829.197
600.9009, 2785.725
601.3831, 2754.205
601.8652, 2735.221
602.3473, 2725.042
602.8294, 2725.075
603.3115, 2729.928
603.7936, 2727.213
604.2758, 2715.700
604.7579, 2701.433
605.2400, 2678.454
