##NAMES=Natrojarosite
##RRUFFID=R050289
##IDEAL CHEMISTRY=NaFe^3+^_3_(S^6+^O_4_)_2_(OH)_6_
##LOCALITY=Bristol mine, Pioche, Lincoln County, Nevada, USA
##OWNER=RRUFF
##SOURCE=Marcus Origlieri
##DESCRIPTION=Mustard-colored massive
##STATUS=The identification of this mineral has been confirmed by X-ray diffraction and chemical analysis
##URL=rruff.info/R050289
##MEASURED CHEMISTRY=(Na_0.99_K_0.01_)_Î£=1_Fe^3+^_3.00_(S_1.00_O_4_)_2_(OH)_6_
92.04132, 0.0000000E+00
92.52344, 73.68600
93.00555, 73.34668
93.48767, 73.47042
93.96979, 75.68164
94.45190, 77.62598
94.93402, 78.88155
95.41614, 78.73781
95.89825, 77.81086
96.38037, 76.85941
96.86249, 75.86565
97.34460, 74.81434
97.82672, 73.81274
98.30884, 72.79355
98.79095, 71.74702
99.27307, 70.58916
99.75519, 69.29016
100.2373, 68.03046
100.7194, 66.88501
101.2015, 65.91375
101.6837, 65.11263
102.1658, 64.42429
102.6479, 63.79396
103.1300, 63.20704
103.6121, 62.72539
104.0942, 62.46054
104.5764, 62.31783
105.0585, 62.17809
105.5406, 61.96568
106.0227, 61.71581
106.5048, 61.56477
106.9869, 61.63648
107.4691, 61.58548
107.9512, 61.15014
108.4333, 60.45579
108.9154, 59.81663
109.3975, 59.49754
109.8796, 59.53321
110.3617, 59.64785
110.8439, 59.86874
111.3260, 60.13908
111.8081, 60.49187
112.2902, 60.89965
112.7723, 61.26160
113.2544, 61.40903
113.7366, 61.03748
114.2187, 61.04433
114.7008, 61.56165
115.1829, 62.34967
115.6650, 63.22409
116.1471, 64.12276
116.6293, 65.03998
117.1114, 65.99265
117.5935, 67.18345
118.0756, 68.05161
118.5577, 68.25235
119.0398, 68.01187
119.5220, 67.86754
120.0041, 68.05437
120.4862, 68.50776
120.9683, 69.04121
121.4504, 69.75961
121.9325, 70.38412
122.4147, 70.55605
122.8968, 70.22205
123.3789, 70.07928
123.8610, 70.56627
124.3431, 71.41108
124.8252, 72.45434
125.3074, 73.74617
125.7895, 75.08938
126.2716, 76.04269
126.7537, 76.38244
127.2358, 76.69463
127.7179, 77.06583
128.2001, 77.54716
128.6822, 78.21505
129.1643, 79.12410
129.6464, 80.26472
130.1285, 81.46545
130.6106, 82.82430
131.0928, 84.16269
131.5749, 85.29162
132.0570, 86.34177
132.5391, 87.60110
133.0212, 89.31756
133.5033, 91.55234
133.9855, 93.97692
134.4676, 96.62576
134.9497, 99.38966
135.4318, 102.3097
135.9139, 105.3446
136.3960, 108.3573
136.8782, 111.4046
137.3603, 114.7079
137.8424, 116.1491
138.3245, 115.3471
138.8066, 112.7165
139.2887, 108.3666
139.7709, 102.0808
140.2530, 95.05932
140.7351, 88.51089
141.2172, 82.39780
141.6993, 76.98067
142.1814, 72.44454
142.6636, 68.74911
143.1457, 65.76120
143.6278, 63.73477
144.1099, 62.20542
144.5920, 60.68170
145.0741, 59.16572
145.5563, 57.82732
146.0384, 56.85440
146.5205, 56.28241
147.0026, 55.78629
147.4847, 55.36211
147.9668, 54.96809
148.4490, 54.60748
148.9311, 54.27563
149.4132, 53.92250
149.8953, 53.45339
150.3774, 52.75161
150.8595, 52.17186
151.3417, 51.72639
151.8238, 51.39561
152.3059, 51.18026
152.7880, 51.07880
153.2701, 51.06382
153.7522, 51.07019
154.2344, 51.27427
154.7165, 51.28297
155.1986, 50.96609
155.6807, 50.47776
156.1628, 49.97769
156.6449, 49.53595
157.1271, 49.17638
157.6092, 49.01959
158.0913, 49.23458
158.5734, 49.41961
159.0555, 49.49449
159.5376, 49.45847
160.0198, 49.26997
160.5019, 48.81593
160.9840, 48.25114
161.4661, 48.10524
161.9482, 48.76418
162.4303, 49.42097
162.9125, 49.49226
163.3946, 48.99929
163.8767, 48.40400
164.3588, 47.84198
164.8409, 47.40090
165.3230, 47.23333
165.8052, 47.48222
166.2873, 47.91114
166.7694, 48.21695
167.2515, 48.37473
167.7336, 48.49604
168.2157, 48.66113
168.6979, 48.81855
169.1800, 48.89347
169.6621, 48.82379
170.1442, 48.67341
170.6263, 48.64051
171.1084, 48.85870
171.5906, 48.97673
172.0727, 48.82259
172.5548, 48.52594
173.0369, 48.26097
173.5190, 48.12863
174.0011, 48.12106
174.4833, 48.17382
174.9654, 48.40266
175.4475, 48.57799
175.9296, 48.56315
176.4117, 48.45994
176.8938, 48.46354
177.3760, 48.73556
177.8581, 49.28606
178.3402, 49.71274
178.8223, 50.02282
179.3044, 50.22142
179.7865, 50.26514
180.2687, 50.18666
180.7508, 50.06005
181.2329, 49.93612
181.7150, 49.81130
182.1971, 49.79040
182.6792, 49.83384
183.1614, 49.99252
183.6435, 50.41297
184.1256, 51.05419
184.6077, 51.59073
185.0898, 51.68128
185.5719, 51.28924
186.0540, 51.09203
186.5362, 51.20583
187.0183, 51.46048
187.5004, 51.71003
187.9825, 51.93908
188.4646, 52.18304
188.9467, 52.53951
189.4289, 52.95892
189.9110, 53.22173
190.3931, 53.07290
190.8752, 52.79942
191.3573, 52.88417
191.8394, 53.45355
192.3216, 54.12621
192.8037, 54.60772
193.2858, 54.96235
193.7679, 55.33191
194.2500, 55.78844
194.7321, 56.30854
195.2143, 56.79427
195.6964, 57.11111
196.1785, 57.62203
196.6606, 58.61532
197.1427, 59.92476
197.6248, 61.16847
198.1070, 61.98387
198.5891, 62.44658
199.0712, 63.32936
199.5533, 64.80206
200.0354, 66.57133
200.5175, 68.68845
200.9997, 71.00254
201.4818, 73.20705
201.9639, 75.00101
202.4460, 76.36914
202.9281, 77.95420
203.4102, 79.75462
203.8924, 81.78788
204.3745, 84.15353
204.8566, 86.78428
205.3387, 89.50723
205.8208, 92.22202
206.3029, 94.98808
206.7851, 97.25794
207.2672, 98.35696
207.7493, 99.64540
208.2314, 101.8702
208.7135, 104.8325
209.1956, 107.7308
209.6778, 109.7812
210.1599, 110.7899
210.6420, 112.4654
211.1241, 115.1463
211.6062, 118.0444
212.0883, 120.7860
212.5705, 123.3484
213.0526, 125.9104
213.5347, 128.6422
214.0168, 131.5661
214.4989, 134.4947
214.9810, 137.2373
215.4632, 140.1332
215.9453, 143.4220
216.4274, 147.1161
216.9095, 151.0656
217.3916, 155.2629
217.8737, 159.7032
218.3559, 163.6616
218.8380, 166.8013
219.3201, 169.7017
219.8022, 173.0338
220.2843, 176.8470
220.7664, 180.3606
221.2486, 183.0636
221.7307, 184.9297
222.2128, 185.8336
222.6949, 185.3848
223.1770, 184.1480
223.6591, 182.9452
224.1413, 181.9313
224.6234, 180.0441
225.1055, 176.2884
225.5876, 171.1043
226.0697, 165.0386
226.5518, 157.9448
227.0340, 150.2140
227.5161, 142.2549
227.9982, 133.8879
228.4803, 125.9185
228.9624, 118.8497
229.4445, 112.4874
229.9267, 106.5969
230.4088, 101.1578
230.8909, 96.16415
231.3730, 91.69288
231.8551, 87.82929
232.3372, 84.32087
232.8194, 80.98392
233.3015, 77.89485
233.7836, 75.16312
234.2657, 72.85806
234.7478, 70.89711
235.2299, 69.11697
235.7121, 67.55349
236.1942, 66.09975
236.6763, 64.68678
237.1584, 63.35860
237.6405, 62.16069
238.1227, 61.11107
238.6048, 60.18723
239.0869, 59.35118
239.5690, 58.68750
240.0511, 57.95549
240.5332, 56.90576
241.0154, 55.86263
241.4975, 55.21856
241.9796, 55.14582
242.4617, 55.39417
242.9438, 55.32731
243.4259, 54.66380
243.9081, 54.11435
244.3902, 53.90114
244.8723, 53.76057
245.3544, 53.40133
245.8365, 52.71411
246.3186, 51.87734
246.8007, 51.29898
247.2829, 51.22522
247.7650, 51.07317
248.2471, 50.73313
248.7292, 50.35050
249.2113, 50.09459
249.6934, 50.01480
250.1756, 49.98195
250.6577, 49.72968
251.1398, 48.88719
251.6219, 48.37626
252.1040, 48.44422
252.5861, 48.69812
253.0683, 48.76739
253.5504, 48.55131
254.0325, 48.24530
254.5146, 48.18281
254.9967, 48.64701
255.4788, 48.81958
255.9610, 48.42873
256.4431, 47.90659
256.9252, 47.66277
257.4073, 47.78363
257.8894, 48.01318
258.3716, 47.99247
258.8537, 47.54801
259.3358, 47.31804
259.8179, 47.32151
260.3000, 47.52569
260.7821, 48.04639
261.2643, 48.87157
261.7464, 49.59534
262.2285, 49.72259
262.7106, 49.07040
263.1927, 48.66578
263.6748, 48.59749
264.1570, 48.73569
264.6391, 48.99970
265.1212, 49.37401
265.6033, 49.84759
266.0854, 50.47075
266.5675, 51.24043
267.0497, 51.73409
267.5318, 51.64156
268.0139, 51.47608
268.4960, 51.64324
268.9781, 52.16101
269.4602, 52.82396
269.9424, 53.50931
270.4245, 54.21691
270.9066, 54.93407
271.3887, 55.64042
271.8708, 56.37453
272.3529, 57.23806
272.8351, 58.21071
273.3172, 59.02354
273.7993, 59.44256
274.2814, 59.58922
274.7635, 59.89400
275.2456, 60.37344
275.7278, 61.00051
276.2099, 61.81092
276.6920, 62.78503
277.1741, 63.77068
277.6562, 64.72557
278.1383, 65.61915
278.6204, 66.36816
279.1025, 66.85649
279.5847, 67.46580
280.0668, 68.59861
280.5489, 70.15195
281.0310, 71.46526
281.5131, 72.20469
281.9952, 72.69063
282.4774, 73.40723
282.9595, 74.39214
283.4416, 75.37630
283.9237, 76.10409
284.4058, 76.66676
284.8879, 77.50681
285.3701, 78.90254
285.8522, 80.36443
286.3343, 81.33806
286.8164, 81.84915
287.2985, 82.35856
287.7806, 83.08711
288.2628, 84.00517
288.7449, 85.03941
289.2270, 86.26688
289.7091, 87.45485
290.1912, 88.55745
290.6733, 89.51995
291.1555, 90.10234
291.6376, 90.11539
292.1197, 89.67464
292.6018, 89.00932
293.0839, 88.07310
293.5660, 87.04427
294.0482, 85.99034
294.5303, 84.93809
295.0124, 83.93262
295.4945, 83.08678
295.9766, 82.25671
296.4587, 81.12386
296.9409, 79.57763
297.4230, 78.10633
297.9051, 77.13640
298.3872, 76.32514
298.8693, 75.24936
299.3514, 73.72920
299.8336, 72.00168
300.3157, 70.36800
300.7978, 68.83945
301.2799, 67.27582
301.7620, 65.47701
302.2441, 63.69109
302.7263, 62.16407
303.2084, 60.96392
303.6905, 59.86993
304.1726, 58.58212
304.6547, 57.08495
305.1368, 55.85645
305.6190, 55.27489
306.1011, 54.79065
306.5832, 53.95250
307.0653, 52.74009
307.5474, 51.49125
308.0295, 50.46714
308.5117, 49.65566
308.9938, 48.88332
309.4759, 48.10103
309.9580, 47.40204
310.4401, 46.87021
310.9222, 46.47472
311.4044, 46.09678
311.8865, 45.62141
312.3686, 45.09447
312.8507, 44.72986
313.3328, 44.62590
313.8149, 44.52160
314.2971, 44.24302
314.7792, 43.86666
315.2613, 43.53646
315.7434, 43.35156
316.2255, 43.22905
316.7076, 42.97818
317.1898, 42.55285
317.6719, 42.11913
318.1540, 41.67303
318.6361, 41.28548
319.1182, 41.06240
319.6003, 41.06225
320.0825, 41.15656
320.5646, 41.19497
321.0467, 41.18117
321.5288, 41.08584
322.0109, 40.79493
322.4930, 40.48086
322.9752, 40.29850
323.4573, 40.27514
323.9394, 40.27063
324.4215, 40.09732
324.9036, 39.76264
325.3857, 39.62929
325.8679, 39.95708
326.3500, 40.30653
326.8321, 40.37932
327.3142, 40.19052
327.7963, 39.88676
328.2784, 39.46678
328.7606, 38.98491
329.2427, 38.71373
329.7248, 38.73329
330.2069, 38.86098
330.6890, 39.03127
331.1711, 39.21539
331.6533, 39.35027
332.1354, 39.39447
332.6175, 39.37840
333.0996, 39.34821
333.5817, 39.28533
334.0638, 39.26870
334.5460, 39.37809
335.0281, 39.54234
335.5102, 39.69346
335.9923, 39.82643
336.4744, 39.91472
336.9565, 39.89706
337.4387, 39.76423
337.9208, 39.68269
338.4029, 39.72169
338.8850, 39.83028
339.3671, 39.92451
339.8492, 39.98923
340.3314, 40.17416
340.8135, 40.74964
341.2956, 41.61852
341.7777, 42.08807
342.2598, 41.79577
342.7419, 41.41968
343.2241, 41.62090
343.7062, 42.28855
344.1883, 42.86767
344.6704, 42.95395
345.1525, 42.79089
345.6346, 42.96598
346.1168, 43.61933
346.5989, 44.25266
347.0810, 44.40493
347.5631, 44.29284
348.0452, 44.28196
348.5273, 44.47374
349.0095, 44.79737
349.4916, 45.23542
349.9737, 45.79089
350.4558, 46.24882
350.9379, 46.45985
351.4200, 46.53486
351.9022, 46.64395
352.3843, 46.77242
352.8664, 46.99593
353.3485, 47.41795
353.8306, 47.99029
354.3127, 48.53916
354.7949, 49.05603
355.2770, 49.46743
355.7591, 49.58838
356.2412, 49.41973
356.7233, 49.45054
357.2054, 50.06224
357.6876, 50.91657
358.1697, 51.45803
358.6518, 51.59127
359.1339, 51.58931
359.6160, 51.64843
360.0981, 51.76548
360.5803, 51.91824
361.0624, 52.19611
361.5445, 52.43958
362.0266, 52.54650
362.5087, 52.51165
362.9908, 52.29843
363.4730, 51.83549
363.9551, 51.20455
364.4372, 50.66667
364.9193, 50.29729
365.4014, 49.89167
365.8835, 49.35501
366.3657, 48.72640
366.8478, 48.04579
367.3299, 47.30534
367.8120, 46.61731
368.2941, 46.22425
368.7762, 46.24965
369.2584, 46.00984
369.7405, 45.13522
370.2226, 44.11621
370.7047, 43.49769
371.1868, 43.32226
371.6689, 43.15454
372.1511, 42.55778
372.6332, 41.50746
373.1153, 40.80947
373.5974, 40.69140
374.0795, 40.65721
374.5616, 40.53322
375.0438, 40.30285
375.5259, 39.91239
376.0080, 39.29808
376.4901, 38.58961
376.9722, 38.26243
377.4543, 38.64612
377.9365, 38.97772
378.4186, 39.20942
378.9007, 39.33831
379.3828, 39.31321
379.8649, 39.13319
380.3470, 38.93040
380.8292, 38.90417
381.3113, 39.16830
381.7934, 39.26228
382.2755, 39.04006
382.7576, 38.79809
383.2397, 38.69129
383.7219, 38.71907
384.2040, 38.81999
384.6861, 38.95345
385.1682, 39.11594
385.6503, 39.24425
386.1324, 39.32342
386.6146, 39.38225
387.0967, 39.36643
387.5788, 39.35211
388.0609, 39.48060
388.5430, 39.80943
389.0251, 40.17741
389.5073, 40.23140
389.9894, 39.75116
390.4715, 39.41425
390.9536, 39.18559
391.4357, 39.14060
391.9178, 39.44318
392.4000, 40.03405
392.8821, 40.59906
393.3642, 40.75770
393.8463, 40.48735
394.3284, 40.61695
394.8105, 41.67761
395.2927, 42.52998
395.7748, 42.66155
396.2569, 42.35540
396.7390, 42.08987
397.2211, 42.10026
397.7032, 42.29344
398.1854, 42.45111
398.6675, 42.52946
399.1496, 42.70938
399.6317, 43.24722
400.1138, 43.78212
400.5959, 43.98393
401.0780, 43.80311
401.5602, 43.56353
402.0423, 43.52044
402.5244, 43.66938
403.0065, 43.99549
403.4886, 44.63030
403.9707, 45.24751
404.4529, 45.58624
404.9350, 45.72521
405.4171, 45.88868
405.8992, 46.26536
406.3813, 46.67229
406.8634, 46.75886
407.3456, 46.48277
407.8277, 46.27964
408.3098, 46.41475
408.7919, 46.73449
409.2740, 46.99612
409.7561, 47.22310
410.2383, 47.29592
410.7204, 47.06684
411.2025, 46.62144
411.6846, 46.15536
412.1667, 45.65420
412.6488, 45.32267
413.1310, 45.53000
413.6131, 46.25700
414.0952, 46.86725
414.5773, 47.20689
415.0594, 47.41457
415.5415, 47.56132
416.0237, 47.67057
416.5058, 47.83781
416.9879, 48.12043
417.4700, 48.51559
417.9521, 49.00484
418.4342, 49.68639
418.9164, 50.32709
419.3985, 50.66918
419.8806, 50.99035
420.3627, 51.78483
420.8448, 53.20718
421.3269, 54.83486
421.8091, 56.01727
422.2912, 56.47224
422.7733, 57.28195
423.2554, 58.49363
423.7375, 59.97952
424.2196, 61.84898
424.7018, 63.94762
425.1839, 65.86227
425.6660, 67.26884
426.1481, 68.25572
426.6302, 69.47440
427.1123, 71.01475
427.5945, 72.69486
428.0766, 74.62022
428.5587, 76.60217
429.0408, 78.49033
429.5229, 80.22884
430.0050, 81.84914
430.4872, 83.33101
430.9693, 84.56318
431.4514, 86.09319
431.9335, 88.07886
432.4156, 90.27015
432.8977, 92.73557
433.3799, 95.34276
433.8620, 97.83749
434.3441, 100.0391
434.8262, 102.0186
435.3083, 103.9254
435.7904, 105.6722
436.2726, 107.5727
436.7547, 109.8995
437.2368, 112.3601
437.7189, 114.7305
438.2010, 116.9757
438.6831, 119.0588
439.1653, 120.9530
439.6474, 122.6562
440.1295, 124.2223
440.6116, 125.7672
441.0937, 126.9459
441.5758, 127.4654
442.0580, 127.4041
442.5401, 126.8422
443.0222, 125.6574
443.5043, 124.0803
443.9864, 122.2963
444.4685, 120.3151
444.9507, 118.1188
445.4328, 115.6377
445.9149, 112.9948
446.3970, 110.4944
446.8791, 108.1996
447.3612, 105.8562
447.8434, 103.2312
448.3255, 100.5959
448.8076, 98.32619
449.2897, 96.46341
449.7718, 94.73380
450.2539, 92.88908
450.7361, 90.91606
451.2182, 88.95301
451.7003, 87.18327
452.1824, 85.22681
452.6645, 82.94971
453.1466, 80.38228
453.6288, 77.52856
454.1109, 74.38152
454.5930, 71.15067
455.0751, 68.22787
455.5572, 65.73155
456.0393, 63.33459
456.5215, 60.98986
457.0036, 58.76693
457.4857, 56.68139
457.9678, 54.74856
458.4499, 52.96925
458.9320, 51.34507
459.4142, 49.87799
459.8963, 48.58715
460.3784, 47.63459
460.8605, 46.57230
461.3426, 45.12983
461.8247, 43.60572
462.3069, 42.24654
462.7890, 41.11468
463.2711, 40.22129
463.7532, 39.65618
464.2353, 39.39334
464.7174, 39.12643
465.1996, 38.86511
465.6817, 38.52226
466.1638, 37.95309
466.6459, 37.25620
467.1280, 36.68539
467.6101, 36.38055
468.0923, 36.18881
468.5744, 35.92088
469.0565, 35.59256
469.5386, 35.40617
470.0207, 35.49562
470.5028, 35.69793
470.9850, 35.75835
471.4671, 35.70803
471.9492, 35.44435
472.4313, 34.54276
472.9134, 33.64545
473.3955, 33.67146
473.8777, 34.58771
474.3598, 35.34248
474.8419, 35.08633
475.3240, 33.94173
475.8061, 33.12458
476.2882, 32.71489
476.7704, 32.47996
477.2525, 32.51816
477.7346, 32.64568
478.2167, 32.62062
478.6988, 32.38939
479.1809, 32.12507
479.6631, 32.06207
480.1452, 32.25816
480.6273, 32.36086
481.1094, 32.33033
481.5915, 32.24455
482.0736, 32.11276
482.5558, 31.94435
483.0379, 31.72758
483.5200, 31.44208
484.0021, 31.17625
484.4842, 31.14069
484.9663, 31.40951
485.4485, 31.20923
485.9306, 31.55666
486.4127, 31.74125
486.8948, 31.77176
487.3769, 31.18671
487.8590, 31.39653
488.3412, 31.28780
488.8233, 31.16600
489.3054, 31.48770
489.7875, 30.99218
490.2696, 31.30685
490.7517, 31.29810
491.2339, 31.43736
491.7160, 31.25611
492.1981, 31.17386
492.6802, 31.41223
493.1623, 31.13193
493.6444, 30.93618
494.1266, 30.76807
494.6087, 30.65587
495.0908, 30.61165
495.5729, 30.67451
496.0550, 30.84006
496.5371, 30.84047
497.0193, 30.48527
497.5014, 30.21221
497.9835, 30.23563
498.4656, 30.39354
498.9477, 30.46448
499.4298, 30.37363
499.9120, 30.17548
500.3941, 29.92221
500.8762, 29.54860
501.3583, 29.37615
501.8404, 29.60002
502.3225, 29.82726
502.8047, 29.96223
503.2868, 29.99212
503.7689, 29.88265
504.2510, 29.59119
504.7331, 29.26263
505.2152, 29.18382
505.6974, 29.39538
506.1795, 29.61079
506.6616, 29.86289
507.1437, 30.00720
507.6258, 29.86151
508.1079, 29.48495
508.5901, 29.20414
509.0722, 29.27109
509.5543, 29.47838
510.0364, 29.50835
510.5185, 29.36173
511.0006, 29.22003
511.4828, 29.16562
511.9649, 29.16984
512.4470, 29.16761
512.9291, 29.14334
513.4112, 29.16224
513.8933, 29.29371
514.3754, 29.44446
514.8575, 29.52933
515.3397, 29.53630
515.8218, 29.45551
516.3039, 29.25129
516.7860, 28.96605
517.2681, 28.90948
517.7502, 29.39157
518.2324, 29.71711
518.7145, 29.68105
519.1966, 29.54825
519.6787, 29.60821
520.1608, 29.88463
520.6429, 30.14334
521.1251, 30.11979
521.6072, 29.82525
522.0893, 29.67082
522.5714, 29.72508
523.0535, 29.81511
523.5356, 29.95201
524.0178, 30.05612
524.4999, 29.98552
524.9820, 29.68400
525.4641, 29.42584
525.9462, 29.52832
526.4283, 29.90497
526.9105, 30.15297
527.3926, 30.18264
527.8747, 30.18175
528.3568, 30.27677
528.8389, 30.46051
529.3210, 30.71145
529.8032, 31.14109
530.2853, 31.50773
530.7674, 31.64762
531.2495, 31.63574
531.7316, 31.60412
532.2137, 31.59056
532.6959, 31.59719
533.1780, 31.62251
533.6601, 31.65989
534.1422, 31.76266
534.6243, 32.02366
535.1064, 32.23915
535.5886, 32.25766
536.0707, 32.20217
536.5528, 32.29500
537.0349, 32.61870
537.5170, 33.00258
537.9991, 33.11543
538.4813, 32.85291
538.9634, 32.86240
539.4455, 33.37977
539.9276, 33.95123
540.4097, 34.38327
540.8918, 34.71138
541.3740, 35.00243
541.8561, 35.24058
542.3382, 35.54058
542.8203, 36.17766
543.3024, 37.08807
543.7845, 37.59278
544.2667, 37.36847
544.7488, 36.99950
545.2309, 37.16439
545.7130, 37.80178
546.1951, 38.42340
546.6772, 39.00532
547.1594, 39.50189
547.6415, 39.83281
548.1236, 40.05564
548.6057, 40.32817
549.0878, 40.71466
549.5699, 41.13281
550.0521, 41.44285
550.5342, 41.60033
551.0163, 41.77960
551.4984, 41.89372
551.9805, 42.11161
552.4626, 42.58786
552.9448, 43.21004
553.4269, 43.75463
553.9090, 44.10927
554.3911, 44.40598
554.8732, 44.94167
555.3553, 45.79474
555.8375, 46.34287
556.3196, 46.29018
556.8017, 46.15763
557.2838, 46.31886
557.7659, 46.67357
558.2480, 46.92680
558.7302, 46.88811
559.2123, 46.80656
559.6944, 46.99989
560.1765, 47.39109
560.6586, 47.60241
561.1407, 47.48168
561.6229, 47.27541
562.1050, 47.32311
562.5871, 47.68874
563.0692, 47.82068
563.5513, 47.57355
564.0334, 47.23127
564.5156, 46.89564
564.9977, 46.57756
565.4798, 46.28194
565.9619, 46.01094
566.4440, 45.74506
566.9261, 45.45927
567.4083, 45.16272
567.8904, 44.80762
568.3725, 44.30650
568.8546, 43.83627
569.3367, 43.54329
569.8188, 43.29902
570.3010, 42.88605
570.7831, 42.20609
571.2652, 41.41141
571.7473, 40.59644
572.2294, 39.78918
572.7115, 39.21339
573.1937, 38.95618
573.6758, 38.81844
574.1579, 38.76079
574.6400, 38.70438
575.1221, 38.32961
575.6042, 37.28441
576.0864, 36.28146
576.5685, 35.69044
577.0506, 35.37404
577.5327, 35.15477
578.0148, 34.97639
578.4969, 34.74759
578.9791, 34.34411
579.4612, 33.75102
579.9433, 33.36192
580.4254, 33.29366
580.9075, 33.30066
581.3896, 33.45425
581.8718, 33.60032
582.3539, 33.58838
582.8360, 33.38099
583.3181, 33.02265
583.8002, 32.41407
584.2823, 31.63202
584.7645, 31.31421
585.2466, 31.62354
585.7287, 31.93322
586.2108, 31.88005
586.6929, 31.66995
587.1750, 31.61922
587.6572, 31.79934
