##NAMES=Natroalunite
##RRUFFID=R060406
##IDEAL CHEMISTRY=NaAl_3_(S^6+^O_4_)_2_(OH)_6_
##LOCALITY=Sugar Loaf Butte, Arizona, USA
##OWNER=RRUFF
##SOURCE=American Museum of Natural History
##DESCRIPTION=Tan colored consolidated powder
##STATUS=The identification of this mineral has been confirmed only by X-ray diffraction
##URL=rruff.info/R060406
172.0309, 1177.246
172.5130, 1186.547
172.9951, 1194.983
173.4772, 1203.107
173.9593, 1211.814
174.4414, 1221.918
174.9236, 1232.462
175.4057, 1242.436
175.8878, 1251.926
176.3699, 1260.586
176.8520, 1268.110
177.3341, 1274.672
177.8163, 1280.678
178.2984, 1285.799
178.7805, 1290.561
179.2626, 1295.752
179.7447, 1301.294
180.2268, 1307.075
180.7090, 1313.123
181.1911, 1319.300
181.6732, 1325.116
182.1553, 1330.461
182.6374, 1335.274
183.1195, 1338.893
183.6017, 1341.132
184.0838, 1343.470
184.5659, 1347.821
185.0480, 1353.891
185.5301, 1360.460
186.0123, 1367.192
186.4944, 1373.966
186.9765, 1380.094
187.4586, 1385.510
187.9407, 1390.617
188.4228, 1396.000
188.9050, 1401.600
189.3871, 1407.179
189.8692, 1412.759
190.3513, 1418.212
190.8334, 1423.054
191.3155, 1427.248
191.7977, 1430.823
192.2798, 1433.498
192.7619, 1435.289
193.2440, 1437.383
193.7261, 1440.750
194.2082, 1445.240
194.6904, 1449.043
195.1725, 1451.956
195.6546, 1454.426
196.1367, 1456.998
196.6188, 1459.658
197.1009, 1462.753
197.5831, 1466.774
198.0652, 1471.746
198.5473, 1475.918
199.0294, 1479.078
199.5115, 1481.538
199.9937, 1483.770
200.4758, 1485.647
200.9579, 1487.791
201.4400, 1490.742
201.9221, 1494.589
202.4042, 1497.693
202.8864, 1499.716
203.3685, 1501.170
203.8506, 1503.309
204.3327, 1506.230
204.8148, 1509.319
205.2969, 1512.081
205.7791, 1514.356
206.2612, 1517.628
206.7433, 1522.559
207.2254, 1528.096
207.7075, 1531.232
208.1896, 1531.237
208.6718, 1531.014
209.1539, 1532.325
209.6360, 1535.581
210.1181, 1538.258
210.6002, 1540.154
211.0823, 1541.468
211.5645, 1542.635
212.0466, 1543.543
212.5287, 1544.681
213.0108, 1546.384
213.4929, 1548.841
213.9750, 1551.234
214.4572, 1553.444
214.9393, 1555.601
215.4214, 1558.060
215.9035, 1560.640
216.3856, 1563.899
216.8678, 1568.315
217.3499, 1574.576
217.8320, 1579.797
218.3141, 1583.579
218.7962, 1586.225
219.2783, 1588.667
219.7605, 1590.908
220.2426, 1592.800
220.7247, 1594.041
221.2068, 1594.014
221.6889, 1595.021
222.1710, 1597.263
222.6532, 1600.584
223.1353, 1604.504
223.6174, 1609.431
224.0995, 1614.403
224.5816, 1619.031
225.0637, 1623.571
225.5459, 1627.244
226.0280, 1629.733
226.5101, 1631.438
226.9922, 1633.374
227.4743, 1635.260
227.9564, 1637.835
228.4386, 1641.617
228.9207, 1647.097
229.4028, 1652.397
229.8849, 1657.542
230.3670, 1662.460
230.8492, 1667.141
231.3313, 1671.577
231.8134, 1675.709
232.2955, 1679.468
232.7776, 1682.336
233.2597, 1686.046
233.7419, 1691.267
234.2240, 1697.212
234.7061, 1701.691
235.1882, 1704.574
235.6703, 1706.272
236.1524, 1707.019
236.6346, 1707.032
237.1167, 1705.540
237.5988, 1702.072
238.0809, 1697.289
238.5630, 1692.462
239.0451, 1686.828
239.5273, 1682.319
240.0094, 1680.053
240.4915, 1681.547
240.9736, 1681.100
241.4557, 1677.804
241.9378, 1672.919
242.4200, 1669.066
242.9021, 1666.420
243.3842, 1664.415
243.8663, 1662.825
244.3484, 1661.573
244.8306, 1660.992
245.3127, 1661.438
245.7948, 1662.374
246.2769, 1662.788
246.7590, 1662.377
247.2411, 1661.973
247.7233, 1661.836
248.2054, 1661.964
248.6875, 1662.444
249.1696, 1663.393
249.6517, 1664.636
250.1338, 1666.010
250.6160, 1668.047
251.0981, 1669.250
251.5802, 1668.708
252.0623, 1665.698
252.5444, 1664.871
253.0265, 1667.400
253.5087, 1671.172
253.9908, 1673.046
254.4729, 1672.094
254.9550, 1671.153
255.4371, 1670.810
255.9192, 1670.985
256.4014, 1672.671
256.8835, 1677.031
257.3656, 1681.749
257.8477, 1683.867
258.3298, 1682.090
258.8120, 1680.612
259.2941, 1680.565
259.7762, 1682.046
260.2583, 1683.141
260.7404, 1683.616
261.2225, 1683.958
261.7047, 1684.545
262.1868, 1685.040
262.6689, 1686.678
263.1510, 1690.328
263.6331, 1695.841
264.1152, 1699.310
264.5974, 1700.387
265.0795, 1699.900
265.5616, 1697.954
266.0437, 1693.262
266.5258, 1691.510
267.0079, 1694.767
267.4901, 1702.301
267.9722, 1707.053
268.4543, 1708.392
268.9364, 1708.409
269.4185, 1708.775
269.9006, 1709.660
270.3828, 1710.204
270.8649, 1710.105
271.3470, 1709.576
271.8291, 1709.754
272.3112, 1710.874
272.7933, 1711.971
273.2755, 1711.877
273.7576, 1710.123
274.2397, 1710.341
274.7218, 1713.733
275.2039, 1718.869
275.6860, 1721.295
276.1682, 1720.593
276.6503, 1718.840
277.1324, 1716.935
277.6145, 1714.820
278.0966, 1714.096
278.5787, 1715.436
279.0609, 1717.693
279.5430, 1717.821
280.0251, 1715.388
280.5072, 1713.833
280.9893, 1715.882
281.4715, 1721.510
281.9536, 1724.951
282.4357, 1725.507
282.9178, 1724.682
283.3999, 1724.910
283.8820, 1726.197
284.3642, 1727.844
284.8463, 1729.563
285.3284, 1731.321
285.8105, 1732.894
286.2926, 1734.088
286.7747, 1735.556
287.2569, 1738.829
287.7390, 1743.780
288.2211, 1747.580
288.7032, 1748.428
289.1853, 1747.077
289.6674, 1747.090
290.1496, 1748.649
290.6317, 1750.477
291.1138, 1751.041
291.5959, 1750.535
292.0780, 1750.151
292.5602, 1750.312
293.0423, 1750.886
293.5244, 1751.412
294.0065, 1751.883
294.4886, 1752.767
294.9707, 1754.913
295.4529, 1757.944
295.9350, 1760.515
296.4171, 1762.563
296.8992, 1763.721
297.3813, 1762.553
297.8634, 1759.293
298.3456, 1756.557
298.8277, 1756.409
299.3098, 1758.259
299.7919, 1761.027
300.2740, 1764.829
300.7561, 1768.831
301.2383, 1772.018
301.7204, 1774.455
302.2025, 1776.183
302.6846, 1776.961
303.1667, 1777.147
303.6488, 1777.171
304.1310, 1776.947
304.6131, 1777.031
305.0952, 1778.162
305.5773, 1780.071
306.0594, 1782.024
306.5415, 1783.534
307.0237, 1784.943
307.5058, 1786.815
307.9879, 1789.294
308.4700, 1791.440
308.9521, 1792.129
309.4343, 1792.029
309.9164, 1792.340
310.3985, 1794.019
310.8806, 1795.999
311.3627, 1797.375
311.8448, 1798.112
312.3270, 1798.956
312.8091, 1800.435
313.2912, 1802.253
313.7733, 1804.062
314.2554, 1805.869
314.7375, 1807.530
315.2197, 1808.870
315.7018, 1809.944
316.1839, 1811.106
316.6660, 1812.584
317.1481, 1814.193
317.6302, 1815.760
318.1124, 1817.139
318.5945, 1818.605
319.0766, 1820.328
319.5587, 1822.233
320.0408, 1824.083
320.5229, 1826.514
321.0051, 1828.365
321.4872, 1828.806
321.9693, 1826.543
322.4514, 1825.052
322.9335, 1825.262
323.4156, 1826.694
323.8978, 1828.424
324.3799, 1831.267
324.8620, 1833.542
325.3441, 1834.403
325.8262, 1833.090
326.3083, 1832.562
326.7905, 1833.456
327.2726, 1835.126
327.7547, 1836.762
328.2368, 1838.128
328.7189, 1839.684
329.2010, 1841.420
329.6832, 1843.282
330.1653, 1845.859
330.6474, 1850.974
331.1295, 1855.492
331.6116, 1856.630
332.0938, 1850.706
332.5759, 1847.309
333.0580, 1848.515
333.5401, 1853.619
334.0222, 1857.291
334.5043, 1859.114
334.9865, 1860.119
335.4686, 1860.831
335.9507, 1861.051
336.4328, 1861.515
336.9149, 1862.312
337.3970, 1863.360
337.8792, 1864.324
338.3613, 1865.041
338.8434, 1866.187
339.3255, 1868.401
339.8076, 1871.997
340.2898, 1874.340
340.7719, 1875.238
341.2540, 1875.312
341.7361, 1875.233
342.2182, 1874.935
342.7003, 1875.224
343.1825, 1876.378
343.6646, 1878.366
344.1467, 1881.153
344.6288, 1884.926
345.1109, 1888.637
345.5930, 1891.123
346.0752, 1892.455
346.5573, 1893.900
347.0394, 1896.041
347.5215, 1898.208
348.0036, 1898.312
348.4857, 1896.407
348.9679, 1895.226
349.4500, 1898.170
349.9321, 1903.525
350.4142, 1906.125
350.8963, 1904.734
351.3784, 1901.575
351.8606, 1898.682
352.3427, 1896.260
352.8248, 1895.020
353.3069, 1896.444
353.7890, 1898.904
354.2711, 1899.894
354.7533, 1899.047
355.2354, 1898.426
355.7175, 1900.225
356.1996, 1903.423
356.6817, 1906.228
357.1638, 1907.789
357.6460, 1908.736
358.1281, 1909.416
358.6102, 1909.854
359.0923, 1910.299
359.5744, 1911.149
360.0565, 1911.953
360.5387, 1912.244
361.0208, 1911.418
361.5029, 1910.658
361.9850, 1910.302
362.4671, 1910.396
362.9492, 1911.100
363.4314, 1912.961
363.9135, 1915.098
364.3956, 1917.152
364.8777, 1919.400
365.3598, 1920.810
365.8419, 1919.666
366.3241, 1917.895
366.8062, 1918.397
367.2883, 1925.010
367.7704, 1930.615
368.2526, 1932.604
368.7347, 1929.966
369.2168, 1929.319
369.6989, 1932.201
370.1810, 1936.201
370.6631, 1939.391
371.1453, 1941.392
371.6274, 1943.145
372.1095, 1944.846
372.5916, 1946.430
373.0737, 1947.306
373.5558, 1946.838
374.0380, 1946.608
374.5201, 1947.598
375.0022, 1950.230
375.4843, 1952.584
375.9664, 1954.378
376.4485, 1956.055
376.9307, 1958.651
377.4128, 1962.345
377.8949, 1966.116
378.3770, 1969.777
378.8591, 1973.265
379.3412, 1975.404
379.8234, 1975.927
380.3055, 1975.969
380.7876, 1976.720
381.2697, 1978.166
381.7518, 1979.914
382.2339, 1982.085
382.7161, 1984.341
383.1982, 1986.045
383.6803, 1987.184
384.1624, 1987.613
384.6445, 1986.938
385.1266, 1985.472
385.6088, 1983.972
386.0909, 1982.567
386.5730, 1981.133
387.0551, 1979.228
387.5372, 1977.147
388.0193, 1975.698
388.5015, 1975.484
388.9836, 1976.031
389.4657, 1977.243
389.9478, 1979.151
390.4299, 1980.287
390.9120, 1978.601
391.3942, 1975.876
391.8763, 1974.344
392.3584, 1975.833
392.8405, 1977.682
393.3226, 1978.949
393.8047, 1979.565
394.2869, 1979.207
394.7690, 1976.054
395.2511, 1973.052
395.7332, 1972.174
396.2154, 1974.793
396.6975, 1977.329
397.1796, 1978.935
397.6617, 1980.031
398.1438, 1981.328
398.6259, 1983.207
399.1081, 1985.012
399.5902, 1986.835
400.0723, 1988.869
400.5544, 1989.382
401.0365, 1986.555
401.5186, 1983.508
402.0008, 1982.959
402.4829, 1986.629
402.9650, 1989.402
403.4471, 1990.231
403.9292, 1989.731
404.4113, 1990.681
404.8935, 1993.807
405.3756, 1996.727
405.8577, 1998.276
406.3398, 1998.390
406.8219, 1997.402
407.3040, 1994.848
407.7862, 1992.154
408.2683, 1991.789
408.7504, 1993.863
409.2325, 1995.361
409.7146, 1994.874
410.1967, 1993.176
410.6789, 1992.812
411.1610, 1993.835
411.6431, 1995.420
412.1252, 1997.072
412.6073, 1998.734
413.0894, 2000.153
413.5716, 2001.126
414.0537, 2002.097
414.5358, 2003.570
415.0179, 2005.455
415.5000, 2007.535
415.9821, 2009.981
416.4643, 2012.321
416.9464, 2013.964
417.4285, 2014.790
417.9106, 2015.414
418.3927, 2015.933
418.8748, 2016.533
419.3570, 2017.430
419.8391, 2018.644
420.3212, 2020.220
420.8033, 2022.685
421.2854, 2025.736
421.7675, 2027.964
422.2497, 2028.644
422.7318, 2028.667
423.2139, 2028.320
423.6960, 2026.947
424.1781, 2026.817
424.6602, 2029.836
425.1424, 2033.838
425.6245, 2035.533
426.1066, 2032.179
426.5887, 2029.984
427.0709, 2030.598
427.5530, 2034.008
428.0351, 2036.732
428.5172, 2038.472
428.9993, 2039.926
429.4814, 2041.638
429.9636, 2043.751
430.4457, 2045.465
430.9278, 2046.596
431.4099, 2047.392
431.8920, 2048.328
432.3741, 2049.395
432.8563, 2050.710
433.3384, 2052.485
433.8205, 2054.619
434.3026, 2056.524
434.7847, 2058.263
435.2668, 2059.374
435.7490, 2058.693
436.2311, 2056.845
436.7132, 2056.179
437.1953, 2057.767
437.6774, 2060.170
438.1595, 2061.756
438.6417, 2062.560
439.1238, 2062.718
439.6059, 2061.021
440.0880, 2059.395
440.5701, 2060.522
441.0522, 2065.187
441.5344, 2069.177
442.0165, 2068.942
442.4986, 2066.814
442.9807, 2065.644
443.4628, 2067.406
443.9449, 2069.284
444.4271, 2070.135
444.9092, 2070.104
445.3913, 2070.146
445.8734, 2070.265
446.3555, 2070.659
446.8376, 2071.498
447.3198, 2073.293
447.8019, 2074.488
448.2840, 2074.316
448.7661, 2073.820
449.2482, 2074.555
449.7303, 2077.620
450.2125, 2080.028
450.6946, 2080.905
451.1767, 2080.408
451.6588, 2080.802
452.1409, 2082.466
452.6230, 2084.177
453.1052, 2085.068
453.5873, 2085.105
454.0694, 2084.653
454.5515, 2083.430
455.0337, 2082.357
455.5158, 2083.184
455.9979, 2085.809
456.4800, 2088.747
456.9621, 2092.226
457.4442, 2095.345
457.9264, 2095.106
458.4085, 2091.658
458.8906, 2088.822
459.3727, 2090.717
459.8548, 2095.065
460.3369, 2098.191
460.8191, 2099.170
461.3012, 2099.231
461.7833, 2098.548
462.2654, 2097.723
462.7475, 2097.992
463.2296, 2101.595
463.7118, 2105.045
464.1939, 2105.720
464.6760, 2103.417
465.1581, 2102.444
465.6402, 2105.544
466.1223, 2109.568
466.6045, 2112.256
467.0866, 2111.202
467.5687, 2111.320
468.0508, 2113.112
468.5329, 2116.197
469.0150, 2119.932
469.4972, 2125.286
469.9793, 2129.769
470.4614, 2132.619
470.9435, 2133.819
471.4256, 2133.645
471.9077, 2131.402
472.3899, 2129.238
472.8720, 2129.182
473.3541, 2131.409
473.8362, 2133.980
474.3183, 2136.689
474.8004, 2139.552
475.2826, 2142.751
475.7647, 2146.242
476.2468, 2149.458
476.7289, 2151.808
477.2110, 2153.724
477.6931, 2156.260
478.1753, 2159.420
478.6574, 2162.473
479.1395, 2164.782
479.6216, 2166.604
480.1037, 2168.352
480.5858, 2170.286
481.0680, 2171.908
481.5501, 2172.560
482.0322, 2172.689
482.5143, 2173.212
482.9964, 2173.794
483.4786, 2175.492
483.9607, 2179.793
484.4428, 2187.055
484.9249, 2192.043
485.4070, 2192.971
485.8892, 2191.750
486.3713, 2189.613
486.8534, 2185.526
487.3355, 2182.190
487.8176, 2179.808
488.2997, 2178.160
488.7819, 2176.714
489.2640, 2175.311
489.7461, 2174.468
490.2282, 2174.771
490.7103, 2176.041
491.1924, 2174.951
491.6746, 2170.862
492.1567, 2166.923
492.6388, 2165.927
493.1209, 2167.639
493.6030, 2170.310
494.0851, 2173.961
494.5673, 2177.796
495.0494, 2180.342
495.5315, 2181.990
496.0136, 2184.077
496.4957, 2188.350
496.9778, 2192.747
497.4600, 2194.537
497.9421, 2193.990
498.4242, 2193.868
498.9063, 2197.348
499.3884, 2201.133
499.8705, 2202.159
500.3527, 2198.766
500.8348, 2195.223
501.3169, 2192.463
501.7990, 2190.660
502.2811, 2190.062
502.7632, 2192.365
503.2454, 2194.154
503.7275, 2194.502
504.2096, 2193.557
504.6917, 2192.828
505.1738, 2192.360
505.6559, 2192.106
506.1381, 2191.962
506.6202, 2191.760
507.1023, 2192.625
507.5844, 2194.917
508.0665, 2197.677
508.5486, 2199.586
509.0308, 2200.632
509.5129, 2201.429
509.9950, 2201.991
510.4771, 2202.493
510.9592, 2203.403
511.4413, 2204.642
511.9235, 2205.819
512.4056, 2207.183
512.8877, 2208.086
513.3698, 2207.083
513.8519, 2203.906
514.3340, 2201.121
514.8162, 2201.476
515.2983, 2202.989
515.7804, 2203.215
516.2625, 2199.852
516.7446, 2197.145
517.2267, 2197.521
517.7089, 2199.897
518.1910, 2201.567
518.6731, 2201.649
519.1552, 2201.294
519.6373, 2200.710
520.1194, 2199.833
520.6016, 2199.471
521.0837, 2199.451
521.5658, 2200.102
522.0479, 2201.705
522.5300, 2204.357
523.0121, 2207.753
523.4943, 2212.597
523.9764, 2217.172
524.4585, 2217.710
524.9406, 2214.104
525.4227, 2210.935
525.9048, 2209.590
526.3870, 2209.954
526.8691, 2212.754
527.3513, 2217.779
527.8334, 2221.606
528.3155, 2220.914
528.7976, 2217.847
529.2797, 2215.099
529.7618, 2212.790
530.2440, 2212.068
530.7261, 2215.294
531.2082, 2220.098
531.6903, 2223.387
532.1724, 2221.606
532.6545, 2220.870
533.1367, 2224.563
533.6188, 2231.152
534.1009, 2235.291
534.5830, 2234.025
535.0651, 2232.229
535.5472, 2231.593
536.0294, 2232.397
536.5115, 2232.284
536.9936, 2230.668
537.4757, 2228.977
537.9578, 2228.202
538.4399, 2228.260
538.9221, 2230.168
539.4042, 2234.893
539.8863, 2240.042
540.3684, 2240.950
540.8505, 2237.921
541.3326, 2234.532
541.8148, 2231.073
542.2969, 2228.849
542.7790, 2231.321
543.2611, 2237.927
543.7432, 2244.211
544.2253, 2247.512
544.7075, 2248.779
545.1896, 2248.508
545.6717, 2246.405
546.1538, 2244.897
546.6359, 2244.856
547.1180, 2246.167
547.6002, 2248.714
548.0823, 2255.303
548.5644, 2259.865
549.0465, 2259.662
549.5286, 2256.575
550.0107, 2256.243
550.4929, 2261.200
550.9750, 2264.998
551.4571, 2264.812
551.9392, 2260.596
552.4213, 2259.915
552.9034, 2263.602
553.3856, 2268.140
553.8677, 2270.817
554.3498, 2271.744
554.8319, 2272.049
555.3140, 2271.650
555.7961, 2271.367
556.2783, 2272.498
556.7604, 2274.647
557.2425, 2276.743
557.7246, 2279.092
558.2067, 2280.528
558.6888, 2278.775
559.1710, 2274.903
559.6531, 2272.522
560.1352, 2274.720
560.6173, 2277.938
561.0994, 2280.176
561.5815, 2281.203
562.0637, 2281.933
562.5458, 2281.726
563.0279, 2281.812
563.5100, 2283.171
563.9921, 2287.492
564.4742, 2290.003
564.9564, 2290.042
565.4385, 2288.609
565.9206, 2287.087
566.4027, 2285.251
566.8848, 2284.386
567.3669, 2284.973
567.8491, 2286.714
568.3312, 2289.314
568.8133, 2292.688
569.2954, 2294.851
569.7775, 2293.244
570.2596, 2289.909
570.7418, 2288.872
571.2239, 2290.430
571.7060, 2292.195
572.1881, 2291.925
572.6702, 2291.073
573.1523, 2291.422
573.6345, 2294.575
574.1166, 2296.875
574.5987, 2295.942
575.0808, 2293.468
575.5629, 2292.247
576.0450, 2294.515
576.5272, 2296.083
577.0093, 2296.051
577.4914, 2294.621
577.9735, 2292.948
578.4556, 2290.697
578.9377, 2288.960
579.4199, 2288.202
579.9020, 2288.457
580.3841, 2289.990
580.8662, 2293.028
581.3483, 2296.246
581.8304, 2298.455
582.3126, 2299.747
582.7947, 2300.237
583.2768, 2299.692
583.7589, 2299.131
584.2410, 2299.820
584.7231, 2301.252
585.2053, 2302.435
585.6874, 2301.667
586.1696, 2301.650
586.6517, 2304.796
587.1338, 2310.188
587.6159, 2313.868
588.0980, 2313.952
588.5801, 2312.772
589.0623, 2310.644
589.5444, 2307.067
590.0265, 2306.139
590.5086, 2309.522
590.9907, 2313.462
591.4728, 2314.962
591.9550, 2313.659
592.4371, 2312.405
592.9192, 2311.384
593.4013, 2310.709
593.8834, 2310.642
594.3655, 2311.152
594.8477, 2311.808
595.3298, 2312.306
595.8119, 2313.146
596.2940, 2315.719
596.7761, 2319.349
597.2582, 2321.835
597.7404, 2320.703
598.2225, 2318.957
598.7046, 2318.701
599.1867, 2320.017
599.6688, 2321.390
600.1509, 2322.437
600.6331, 2323.286
601.1152, 2324.042
601.5973, 2324.961
602.0794, 2325.073
602.5615, 2323.687
603.0436, 2322.149
603.5258, 2322.137
604.0079, 2323.971
604.4900, 2325.726
604.9721, 2327.132
605.4542, 2328.315
605.9363, 2329.729
606.4185, 2331.289
606.9006, 2332.124
607.3827, 2331.343
607.8648, 2329.935
608.3469, 2328.969
608.8290, 2328.530
609.3112, 2329.120
609.7933, 2332.382
610.2754, 2335.819
610.7575, 2337.259
611.2396, 2336.109
611.7217, 2335.435
612.2039, 2335.979
612.6860, 2337.320
613.1681, 2339.176
613.6502, 2341.842
614.1323, 2344.489
614.6144, 2347.855
615.0966, 2350.474
615.5787, 2349.422
616.0608, 2343.790
616.5429, 2340.704
617.0250, 2342.781
617.5071, 2347.322
617.9893, 2347.616
618.4714, 2344.241
618.9535, 2341.536
619.4356, 2342.345
619.9177, 2344.804
620.3998, 2346.852
620.8820, 2348.450
621.3641, 2349.498
621.8462, 2349.428
622.3283, 2349.143
622.8104, 2349.421
623.2925, 2350.626
623.7747, 2351.208
624.2568, 2349.382
624.7389, 2347.726
625.2210, 2348.539
625.7031, 2353.916
626.1852, 2356.994
626.6674, 2356.845
627.1495, 2354.848
627.6316, 2352.616
628.1137, 2350.064
628.5958, 2349.622
629.0779, 2352.825
629.5601, 2357.613
630.0422, 2360.185
630.5243, 2360.763
631.0064, 2360.418
631.4885, 2358.758
631.9706, 2357.159
632.4528, 2357.102
632.9349, 2358.531
633.4170, 2360.131
633.8991, 2360.531
634.3812, 2361.553
634.8633, 2364.739
635.3455, 2371.507
635.8276, 2376.177
636.3097, 2377.210
636.7918, 2377.385
637.2739, 2379.193
637.7560, 2383.232
638.2382, 2386.090
638.7203, 2386.987
639.2024, 2387.434
639.6845, 2390.014
640.1666, 2394.445
640.6487, 2398.497
641.1309, 2401.313
641.6130, 2403.678
642.0951, 2406.944
642.5772, 2410.643
643.0594, 2413.370
643.5415, 2413.722
644.0236, 2413.549
644.5057, 2413.928
644.9879, 2414.860
645.4700, 2415.784
645.9521, 2415.738
646.4342, 2416.575
646.9163, 2419.604
647.3984, 2425.570
647.8806, 2429.011
648.3627, 2428.956
648.8448, 2428.418
649.3269, 2429.852
649.8090, 2433.300
650.2911, 2437.305
650.7733, 2442.011
651.2554, 2446.488
651.7375, 2449.364
652.2196, 2451.196
652.7017, 2453.473
653.1838, 2456.992
653.6660, 2460.231
654.1481, 2462.000
654.6302, 2462.616
655.1123, 2462.676
655.5944, 2463.272
656.0765, 2462.270
656.5587, 2458.093
657.0408, 2451.446
657.5229, 2445.660
658.0050, 2440.822
658.4871, 2436.787
658.9692, 2433.615
659.4514, 2431.242
659.9335, 2429.094
660.4156, 2427.200
660.8977, 2425.377
661.3798, 2423.418
661.8619, 2421.483
662.3441, 2420.176
662.8262, 2419.575
663.3083, 2418.561
663.7904, 2415.033
664.2725, 2411.228
664.7546, 2410.002
665.2368, 2413.261
665.7189, 2415.552
666.2010, 2413.713
666.6831, 2410.619
667.1652, 2409.688
667.6473, 2413.722
668.1295, 2415.397
668.6116, 2413.034
669.0937, 2408.960
669.5758, 2407.863
670.0579, 2409.995
