##NAMES=Natroboltwoodite
##RRUFFID=R060880
##IDEAL CHEMISTRY=Na(U^6+^O_2_)(SiO_3_OH)&#183;H_2_O
##LOCALITY=Alluaiv Mountain, Lovozero, Russia
##OWNER=RRUFF
##SOURCE=Michael Scott
##DESCRIPTION=Pale yellow massive, X-ray diffraction indicates that this is amorphous
##STATUS=The identification of this mineral is not yet confirmed.
##URL=rruff.info/R060880
166.8464, 1098.548
167.3285, 1108.445
167.8106, 1116.448
168.2927, 1121.643
168.7749, 1125.384
169.2570, 1129.606
169.7391, 1134.481
170.2212, 1136.766
170.7033, 1131.527
171.1854, 1122.194
171.6676, 1117.506
172.1497, 1124.572
172.6318, 1133.751
173.1139, 1133.100
173.5960, 1121.407
174.0781, 1110.139
174.5603, 1107.559
175.0424, 1110.919
175.5245, 1114.854
176.0066, 1121.146
176.4887, 1125.997
176.9708, 1122.884
177.4530, 1110.259
177.9351, 1098.493
178.4172, 1096.100
178.8993, 1099.061
179.3814, 1100.571
179.8635, 1096.791
180.3457, 1091.812
180.8278, 1091.253
181.3099, 1095.654
181.7920, 1101.964
182.2741, 1109.900
182.7562, 1118.277
183.2384, 1125.018
183.7205, 1127.927
184.2026, 1129.795
184.6847, 1135.032
185.1668, 1144.311
185.6489, 1154.058
186.1311, 1162.079
186.6132, 1169.170
187.0953, 1176.445
187.5774, 1184.818
188.0595, 1193.189
188.5416, 1199.587
189.0238, 1203.588
189.5059, 1207.356
189.9880, 1211.837
190.4701, 1216.950
190.9522, 1222.933
191.4343, 1231.763
191.9165, 1240.121
192.3986, 1241.506
192.8807, 1233.742
193.3628, 1227.593
193.8449, 1229.574
194.3270, 1236.562
194.8092, 1245.545
195.2913, 1257.051
195.7734, 1268.888
196.2555, 1276.428
196.7376, 1277.989
197.2197, 1282.462
197.7019, 1298.533
198.1840, 1319.211
198.6661, 1336.293
199.1482, 1346.974
199.6303, 1353.702
200.1124, 1358.584
200.5946, 1360.732
201.0767, 1365.256
201.5588, 1378.271
202.0409, 1393.990
202.5230, 1406.041
203.0051, 1411.438
203.4873, 1414.360
203.9694, 1420.539
204.4515, 1430.677
204.9336, 1439.984
205.4157, 1445.642
205.8978, 1449.540
206.3800, 1453.716
206.8621, 1459.260
207.3442, 1464.016
207.8263, 1464.371
208.3084, 1459.641
208.7905, 1456.459
209.2727, 1461.248
209.7548, 1467.182
210.2369, 1466.080
210.7190, 1454.280
211.2011, 1440.700
211.6832, 1435.005
212.1654, 1437.629
212.6475, 1441.740
213.1296, 1446.970
213.6117, 1451.262
214.0938, 1452.108
214.5760, 1448.521
215.0581, 1443.760
215.5402, 1441.419
216.0223, 1441.505
216.5044, 1439.549
216.9865, 1433.784
217.4687, 1425.391
217.9508, 1415.436
218.4329, 1403.776
218.9150, 1391.819
219.3971, 1379.689
219.8792, 1367.580
220.3614, 1359.195
220.8435, 1360.042
221.3256, 1360.732
221.8077, 1349.987
222.2898, 1326.149
222.7719, 1302.673
223.2541, 1289.202
223.7362, 1284.300
224.2183, 1280.621
224.7004, 1277.672
225.1825, 1273.932
225.6646, 1268.364
226.1468, 1260.992
226.6289, 1251.451
227.1110, 1238.177
227.5931, 1222.341
228.0752, 1207.842
228.5573, 1195.519
229.0395, 1184.685
229.5216, 1174.448
230.0037, 1164.803
230.4858, 1156.601
230.9679, 1149.457
231.4500, 1144.118
231.9322, 1143.649
232.4143, 1150.673
232.8964, 1156.973
233.3785, 1153.025
233.8606, 1140.671
234.3427, 1128.251
234.8249, 1116.239
235.3070, 1106.404
235.7891, 1103.395
236.2712, 1109.119
236.7533, 1114.243
237.2354, 1108.311
237.7176, 1093.902
238.1997, 1082.681
238.6818, 1077.883
239.1639, 1076.776
239.6460, 1078.097
240.1281, 1081.997
240.6103, 1082.698
241.0924, 1073.384
241.5745, 1056.487
242.0566, 1045.406
242.5387, 1044.888
243.0208, 1047.826
243.5030, 1048.658
243.9851, 1047.517
244.4672, 1047.503
244.9493, 1051.674
245.4314, 1058.413
245.9135, 1060.429
246.3957, 1055.019
246.8778, 1047.593
247.3599, 1038.920
247.8420, 1030.097
248.3241, 1025.847
248.8062, 1029.694
249.2884, 1038.992
249.7705, 1044.308
250.2526, 1043.911
250.7347, 1042.485
251.2168, 1040.006
251.6989, 1037.719
252.1811, 1039.371
252.6632, 1047.509
253.1453, 1057.821
253.6274, 1058.827
254.1095, 1042.587
254.5916, 1032.273
255.0738, 1036.186
255.5559, 1047.170
256.0380, 1056.286
256.5201, 1060.730
257.0022, 1061.908
257.4843, 1061.682
257.9665, 1057.249
258.4486, 1057.465
258.9307, 1069.501
259.4128, 1082.392
259.8949, 1084.390
260.3770, 1073.868
260.8592, 1060.232
261.3413, 1054.891
261.8234, 1061.077
262.3055, 1065.608
262.7876, 1065.743
263.2697, 1066.599
263.7519, 1072.141
264.2340, 1081.927
264.7161, 1092.706
265.1982, 1101.981
265.6803, 1110.266
266.1624, 1111.946
266.6446, 1098.226
267.1267, 1087.521
267.6088, 1087.932
268.0909, 1097.114
268.5730, 1109.471
269.0551, 1122.044
269.5373, 1134.020
270.0194, 1136.733
270.5015, 1114.575
270.9836, 1099.324
271.4657, 1100.911
271.9478, 1111.614
272.4300, 1120.303
272.9121, 1121.277
273.3942, 1117.005
273.8763, 1114.823
274.3584, 1115.858
274.8405, 1117.363
275.3227, 1120.564
275.8048, 1123.149
276.2869, 1122.052
276.7690, 1116.307
277.2511, 1109.562
277.7332, 1108.401
278.2154, 1115.390
278.6975, 1120.040
279.1796, 1118.028
279.6617, 1115.469
280.1438, 1116.535
280.6259, 1121.630
281.1081, 1127.584
281.5902, 1131.601
282.0723, 1133.674
282.5544, 1134.186
283.0365, 1133.636
283.5186, 1130.770
284.0008, 1122.432
284.4829, 1110.447
284.9650, 1101.809
285.4471, 1104.174
285.9292, 1114.496
286.4113, 1118.629
286.8935, 1113.583
287.3756, 1107.616
287.8577, 1105.425
288.3398, 1105.890
288.8219, 1106.994
289.3040, 1109.099
289.7862, 1110.751
290.2683, 1109.007
290.7504, 1103.265
291.2325, 1098.051
291.7146, 1095.909
292.1967, 1095.873
292.6789, 1096.178
293.1610, 1095.958
293.6431, 1097.030
294.1252, 1101.938
294.6073, 1109.996
295.0894, 1116.915
295.5716, 1121.222
296.0537, 1123.192
296.5358, 1123.097
297.0179, 1119.943
297.5000, 1117.871
297.9821, 1118.944
298.4643, 1122.130
298.9464, 1124.985
299.4285, 1126.500
299.9106, 1129.500
300.3927, 1139.456
300.8748, 1158.987
301.3570, 1172.136
301.8391, 1173.259
302.3212, 1169.809
302.8033, 1167.294
303.2854, 1166.690
303.7675, 1168.279
304.2497, 1172.969
304.7318, 1181.264
305.2139, 1185.452
305.6960, 1182.855
306.1781, 1179.448
306.6602, 1176.739
307.1424, 1175.402
307.6245, 1177.054
308.1066, 1183.244
308.5887, 1192.462
309.0708, 1196.054
309.5529, 1187.805
310.0351, 1180.800
310.5172, 1178.706
310.9993, 1177.809
311.4814, 1173.001
311.9635, 1162.387
312.4456, 1149.499
312.9278, 1141.750
313.4099, 1144.466
313.8920, 1140.964
314.3741, 1125.330
314.8562, 1107.874
315.3383, 1094.965
315.8205, 1087.527
316.3026, 1082.948
316.7847, 1079.430
317.2668, 1077.284
317.7489, 1072.884
318.2310, 1065.184
318.7132, 1056.125
319.1953, 1044.843
319.6774, 1032.808
320.1595, 1023.220
320.6416, 1018.115
321.1237, 1016.823
321.6059, 1019.096
322.0880, 1028.299
322.5701, 1032.231
323.0522, 1018.208
323.5343, 997.5615
324.0164, 985.1795
324.4986, 987.7605
324.9807, 993.9009
325.4628, 990.6950
325.9449, 978.7103
326.4270, 969.0673
326.9091, 966.4509
327.3913, 967.2772
327.8734, 966.2534
328.3555, 963.2485
328.8376, 959.2819
329.3197, 953.0650
329.8018, 946.5583
330.2840, 944.4388
330.7661, 948.3746
331.2482, 952.4375
331.7303, 949.5496
332.2124, 938.9209
332.6945, 930.0532
333.1767, 924.0615
333.6588, 919.6694
334.1409, 916.3667
334.6230, 913.9084
335.1051, 911.8825
335.5873, 910.4326
336.0694, 909.1913
336.5515, 903.7301
337.0336, 889.3851
337.5157, 876.8849
337.9979, 869.8504
338.4800, 865.8947
338.9621, 861.1545
339.4442, 854.0093
339.9263, 846.1060
340.4084, 841.0764
340.8906, 840.9175
341.3727, 840.1083
341.8548, 838.5417
342.3369, 836.3397
342.8190, 833.1478
343.3011, 829.1704
343.7833, 825.4487
344.2654, 822.9728
344.7475, 821.7679
345.2296, 821.4107
345.7117, 824.0908
346.1938, 825.0209
346.6760, 820.3240
347.1581, 812.7351
347.6402, 807.8596
348.1223, 809.4415
348.6044, 814.6071
349.0865, 817.3770
349.5687, 817.4979
350.0508, 816.1904
350.5329, 811.3919
351.0150, 806.6454
351.4971, 806.8889
351.9792, 814.4553
352.4614, 820.8392
352.9435, 817.7033
353.4256, 807.5172
353.9077, 800.7215
354.3898, 801.0607
354.8719, 803.0676
355.3541, 798.2567
355.8362, 786.8596
356.3183, 780.2379
356.8004, 785.5629
357.2825, 794.1494
357.7646, 796.6072
358.2468, 792.6352
358.7289, 788.1828
359.2110, 787.6997
359.6931, 790.8261
360.1752, 792.3716
360.6573, 792.2109
361.1395, 790.9220
361.6216, 787.0261
362.1037, 782.4861
362.5858, 780.9632
363.0679, 784.0267
363.5500, 789.0829
364.0322, 790.5524
364.5143, 784.0512
364.9964, 781.6660
365.4785, 785.1021
365.9606, 790.8148
366.4427, 797.9651
366.9249, 805.5391
367.4070, 811.1254
367.8891, 811.9578
368.3712, 808.1132
368.8533, 804.6636
369.3354, 799.6365
369.8176, 797.8786
370.2997, 803.7579
370.7818, 813.1421
371.2639, 819.2217
371.7460, 818.2917
372.2281, 814.6393
372.7103, 815.0606
373.1924, 820.0400
373.6745, 823.9916
374.1566, 823.5234
374.6387, 822.5822
375.1208, 826.6524
375.6030, 836.7318
376.0851, 844.4907
376.5672, 843.4367
377.0493, 837.6608
377.5314, 835.0663
378.0135, 837.0258
378.4957, 840.7969
378.9778, 844.4380
379.4599, 847.8670
379.9420, 850.2563
380.4241, 852.3361
380.9063, 852.6918
381.3884, 848.1001
381.8705, 841.0197
382.3526, 838.4233
382.8347, 844.4034
383.3168, 855.0010
383.7990, 859.0090
384.2811, 847.1373
384.7632, 840.8972
385.2453, 844.7151
385.7274, 851.4788
386.2095, 855.4475
386.6917, 855.7621
387.1738, 855.2252
387.6559, 857.5090
388.1380, 863.1566
388.6201, 863.4380
389.1022, 852.6072
389.5844, 842.7720
390.0665, 838.2667
390.5486, 837.4616
391.0307, 837.6219
391.5128, 837.7816
391.9949, 837.7088
392.4771, 836.3729
392.9592, 833.3944
393.4413, 832.7387
393.9234, 838.0110
394.4055, 844.2664
394.8876, 845.6028
395.3698, 841.4150
395.8519, 837.5759
396.3340, 838.6414
396.8161, 841.5450
397.2982, 839.8439
397.7803, 832.3709
398.2625, 825.5238
398.7446, 826.2106
399.2267, 833.6467
399.7088, 832.2195
400.1909, 812.2827
400.6730, 793.8921
401.1552, 786.0979
401.6373, 786.2404
402.1194, 789.4448
402.6015, 793.7725
403.0836, 797.8890
403.5657, 798.8466
404.0479, 793.6594
404.5300, 790.7190
405.0121, 793.8884
405.4942, 795.9061
405.9763, 791.1392
406.4584, 780.4305
406.9406, 768.9515
407.4227, 760.3584
407.9048, 754.6317
408.3869, 752.1849
408.8690, 755.7184
409.3511, 757.5684
409.8333, 753.2495
410.3154, 746.6559
410.7975, 742.3496
411.2796, 741.7884
411.7617, 742.3967
412.2438, 742.4910
412.7260, 741.8694
413.2081, 738.4050
413.6902, 729.6528
414.1723, 721.8429
414.6544, 724.8755
415.1365, 737.3633
415.6187, 744.2214
416.1008, 738.2827
416.5829, 728.9020
417.0650, 723.0902
417.5471, 720.7946
418.0292, 720.0269
418.5114, 719.9691
418.9935, 720.1113
419.4756, 718.6974
419.9577, 714.2252
420.4398, 710.0782
420.9219, 705.7115
421.4041, 702.1794
421.8862, 700.8795
422.3683, 701.7404
422.8504, 703.1293
423.3325, 703.6834
423.8146, 703.4380
424.2968, 700.9788
424.7789, 694.8105
425.2610, 688.2505
425.7431, 681.9378
426.2252, 676.1179
426.7073, 670.9799
427.1895, 666.4134
427.6716, 663.1345
428.1537, 662.3693
428.6358, 664.0401
429.1179, 666.8251
429.6000, 671.8275
430.0822, 675.8076
430.5643, 674.1943
431.0464, 667.3437
431.5285, 661.4828
432.0106, 659.4141
432.4927, 658.3042
432.9749, 654.2291
433.4570, 647.9133
433.9391, 644.8061
434.4212, 648.9204
434.9033, 657.7720
435.3854, 661.6772
435.8676, 654.1978
436.3497, 650.1046
436.8318, 652.9633
437.3139, 658.1144
437.7960, 662.0188
438.2781, 663.7457
438.7603, 663.5409
439.2424, 660.9567
439.7245, 655.9646
440.2066, 654.0906
440.6887, 659.3846
441.1708, 662.1499
441.6530, 655.6202
442.1351, 645.8758
442.6172, 642.3578
443.0993, 649.6011
443.5814, 658.4287
444.0635, 656.8373
444.5457, 646.4924
445.0278, 641.7834
445.5099, 648.1116
445.9920, 656.6659
446.4741, 656.3411
446.9562, 648.0229
447.4384, 642.9017
447.9205, 645.2864
448.4026, 649.4455
448.8847, 651.5225
449.3668, 651.6752
449.8489, 651.1121
450.3311, 650.4172
450.8132, 649.5471
451.2953, 648.2737
451.7774, 644.4836
452.2595, 643.7098
452.7416, 649.2628
453.2238, 655.0634
453.7059, 657.1844
454.1880, 655.4540
454.6701, 651.5783
455.1522, 645.7096
455.6343, 639.0854
456.1165, 638.3639
456.5986, 646.1048
457.0807, 653.6880
457.5628, 657.2244
458.0449, 659.2844
458.5270, 662.6398
459.0092, 668.0246
459.4913, 672.5513
459.9734, 674.3519
460.4555, 673.9120
460.9376, 671.9996
461.4197, 668.6508
461.9019, 664.6876
462.3840, 659.9758
462.8661, 654.9042
463.3482, 654.4557
463.8303, 661.3877
464.3124, 669.4014
464.7946, 679.3155
465.2767, 687.9731
465.7588, 690.0923
466.2409, 684.2948
466.7230, 675.2077
467.2051, 668.6230
467.6873, 664.1373
468.1694, 664.2018
468.6515, 674.5875
469.1336, 683.6916
469.6157, 688.0624
470.0978, 688.0883
470.5800, 684.1933
471.0621, 674.9644
471.5442, 665.6088
472.0263, 663.9437
472.5084, 669.5588
472.9905, 674.7731
473.4727, 678.0700
473.9548, 679.5573
474.4369, 679.0608
474.9190, 676.7466
475.4011, 673.1301
475.8832, 666.9482
476.3654, 660.6168
476.8475, 654.7256
477.3296, 650.1100
477.8117, 649.3173
478.2938, 653.9158
478.7759, 661.6654
479.2581, 667.3849
479.7402, 672.4527
480.2223, 672.7120
480.7044, 665.2206
481.1865, 656.0648
481.6686, 647.5912
482.1508, 640.6201
482.6329, 636.1289
483.1150, 635.2145
483.5971, 636.8357
484.0792, 638.4083
484.5613, 639.8491
485.0435, 641.8718
485.5256, 646.6801
486.0077, 650.5584
486.4898, 647.3575
486.9719, 635.7461
487.4540, 628.7539
487.9362, 636.9465
488.4183, 649.0297
488.9004, 650.5350
489.3825, 641.8212
489.8646, 633.7227
490.3467, 633.2548
490.8289, 638.6415
491.3110, 642.4389
491.7931, 642.8888
492.2752, 643.9914
492.7573, 649.4493
493.2394, 653.1153
493.7216, 647.0485
494.2037, 632.8125
494.6858, 621.6471
495.1679, 624.8867
495.6500, 638.3493
496.1321, 642.5787
496.6143, 634.6824
497.0964, 626.3907
497.5785, 620.9310
498.0606, 618.4442
498.5427, 620.6854
499.0248, 629.3247
499.5070, 634.0147
499.9891, 624.6302
500.4712, 610.7491
500.9533, 606.9446
501.4355, 614.1155
501.9176, 623.2837
502.3997, 628.7615
502.8818, 630.5174
503.3639, 628.1694
503.8460, 613.4458
504.3282, 605.2141
504.8103, 609.9112
505.2924, 618.4821
505.7745, 623.6337
506.2566, 624.2650
506.7387, 623.1436
507.2209, 622.8900
507.7030, 622.9515
508.1851, 619.1942
508.6672, 608.7908
509.1493, 603.1119
509.6314, 611.3679
510.1136, 624.7635
510.5957, 632.1300
511.0778, 632.1172
511.5599, 629.2336
512.0420, 623.2210
512.5241, 616.6588
513.0062, 613.3270
513.4883, 613.3591
513.9705, 614.1075
514.4526, 613.7120
514.9347, 612.4832
515.4168, 612.0676
515.8989, 614.0045
516.3810, 614.6621
516.8632, 610.9684
517.3453, 607.9265
517.8274, 611.5960
518.3095, 620.9839
518.7916, 627.9630
519.2737, 623.5803
519.7559, 612.4004
520.2380, 610.9551
520.7201, 621.5048
521.2022, 630.8793
521.6843, 634.0050
522.1664, 632.7648
522.6486, 630.0924
523.1307, 625.6508
523.6128, 621.5240
524.0949, 616.0948
524.5770, 612.8162
525.0591, 616.9410
525.5413, 627.2143
526.0234, 636.9363
526.5055, 642.0712
526.9876, 643.6126
527.4697, 644.7532
527.9518, 644.8724
528.4340, 645.7693
528.9161, 648.4120
529.3982, 651.0727
529.8803, 651.5318
530.3624, 650.7736
530.8445, 652.5741
531.3267, 660.2902
531.8088, 670.9115
532.2909, 679.3030
532.7730, 685.4918
533.2551, 690.8536
533.7372, 695.3288
534.2194, 699.9831
534.7015, 706.8989
535.1836, 716.6304
535.6657, 724.1589
536.1478, 729.0693
536.6299, 731.5341
537.1121, 729.4584
537.5942, 725.1887
538.0763, 724.0537
538.5584, 728.5238
539.0405, 735.3713
539.5226, 738.6056
540.0048, 737.2747
540.4869, 736.4347
540.9690, 736.5687
541.4511, 736.9581
541.9332, 738.5989
542.4153, 740.0988
542.8975, 737.8613
543.3796, 727.8281
543.8617, 718.9417
544.3438, 722.3397
544.8259, 732.9373
545.3080, 735.1337
545.7902, 724.8842
546.2723, 712.1777
546.7544, 707.9304
547.2365, 712.7565
547.7186, 708.5789
548.2007, 684.5227
548.6829, 665.4938
549.1650, 658.6579
549.6471, 659.2017
550.1292, 663.0441
550.6113, 668.6096
551.0934, 673.5384
551.5756, 677.1461
552.0577, 678.5972
552.5398, 670.6242
553.0219, 649.4819
553.5040, 632.5876
553.9861, 630.7977
554.4683, 637.5524
554.9504, 639.1177
555.4325, 632.9725
555.9146, 629.3668
556.3967, 636.2961
556.8788, 643.9114
557.3610, 640.6789
557.8431, 628.0726
558.3252, 616.6449
558.8073, 613.2978
559.2894, 615.0336
559.7715, 612.1519
560.2537, 600.9349
560.7358, 594.2459
561.2179, 597.2935
561.7000, 602.1459
562.1821, 605.8675
562.6642, 607.8630
563.1464, 607.0873
563.6285, 601.6176
564.1106, 594.7582
564.5927, 589.7377
565.0748, 586.3508
565.5569, 584.3785
566.0391, 584.0168
566.5212, 583.0729
567.0033, 578.0803
567.4854, 567.6422
567.9675, 564.3327
568.4496, 575.4290
568.9318, 584.2165
569.4139, 582.5103
569.8960, 577.2429
570.3781, 578.2390
570.8602, 587.7444
571.3423, 597.7618
571.8245, 600.0200
572.3066, 595.7542
572.7887, 590.7670
573.2708, 585.0837
573.7529, 579.1579
574.2350, 571.8207
574.7172, 565.1709
575.1993, 564.2076
575.6814, 571.5804
576.1635, 577.0630
576.6456, 577.6982
577.1277, 576.0679
577.6099, 573.3303
578.0920, 570.2279
578.5741, 568.0152
579.0562, 567.4222
579.5383, 568.2001
580.0204, 570.0179
580.5026, 573.2311
580.9847, 575.9965
581.4668, 578.6998
581.9489, 580.1073
582.4310, 578.6878
582.9132, 575.3759
583.3953, 573.0672
583.8774, 572.9617
584.3596, 573.4952
584.8417, 574.9996
585.3238, 576.0622
585.8059, 572.3096
586.2880, 563.2258
586.7701, 555.8596
587.2523, 557.6520
587.7344, 568.0354
588.2165, 575.8121
588.6986, 581.1406
589.1807, 583.3884
589.6628, 580.5512
590.1450, 576.2040
590.6271, 572.8041
591.1092, 570.8313
591.5913, 570.5460
592.0734, 573.6620
592.5555, 577.7234
593.0377, 578.8138
593.5198, 577.2406
594.0019, 575.6533
594.4840, 575.1595
594.9661, 574.8706
595.4482, 573.2503
595.9304, 569.4749
596.4125, 567.4521
596.8946, 567.8454
597.3767, 569.0232
597.8588, 572.0225
598.3409, 574.8028
598.8231, 573.7176
599.3052, 567.6326
599.7873, 561.4474
600.2694, 561.7706
600.7515, 566.2913
601.2336, 564.8239
601.7158, 555.7457
602.1979, 548.4344
602.6800, 548.6451
603.1621, 553.8922
603.6442, 557.7582
604.1263, 560.2187
604.6085, 561.5339
605.0906, 560.7916
605.5727, 559.7180
606.0548, 559.5308
606.5369, 560.0062
607.0190, 560.3326
607.5012, 560.1002
607.9833, 559.4718
608.4654, 559.2273
608.9475, 559.3363
609.4296, 556.1621
609.9117, 547.1144
610.3939, 539.7709
610.8760, 541.2312
611.3581, 549.1204
611.8402, 553.3704
612.3223, 551.5488
612.8044, 549.2798
613.2866, 548.6655
613.7687, 548.0417
614.2508, 545.6630
614.7329, 541.4998
615.2150, 536.4095
615.6971, 530.7585
616.1793, 525.1204
616.6614, 520.8134
617.1435, 517.6815
617.6256, 517.3624
618.1077, 522.9241
618.5898, 527.8602
619.0720, 524.5576
619.5541, 515.1826
620.0362, 509.3441
620.5183, 513.2169
621.0004, 515.7795
621.4825, 507.9347
621.9647, 497.2342
622.4468, 495.7057
622.9289, 504.5280
623.4110, 514.2797
623.8931, 516.5327
624.3752, 512.7839
624.8574, 511.0833
625.3395, 512.3785
625.8216, 512.7627
626.3037, 511.2241
626.7858, 508.4032
627.2679, 503.7590
627.7501, 497.7703
628.2322, 494.8840
628.7143, 499.6884
629.1964, 504.5127
629.6785, 504.0437
630.1606, 500.1718
630.6428, 495.3834
631.1249, 490.7172
631.6070, 488.5198
632.0891, 491.9966
632.5712, 500.4766
633.0533, 506.0633
633.5355, 508.5852
634.0176, 508.5964
634.4997, 503.9355
634.9818, 498.4516
635.4639, 495.7199
635.9460, 495.8026
636.4282, 496.3743
636.9103, 496.7851
637.3924, 497.3420
637.8745, 498.0548
638.3566, 499.1265
638.8387, 501.7115
639.3209, 505.9520
639.8030, 509.0303
640.2851, 507.2964
640.7672, 500.8962
641.2493, 495.1219
641.7314, 489.7358
642.2136, 485.3587
642.6957, 481.2508
643.1778, 478.9495
643.6599, 479.8767
644.1420, 484.1131
644.6241, 491.1526
645.1063, 506.3452
645.5884, 519.2979
646.0705, 519.5428
646.5526, 511.7056
647.0347, 506.0407
647.5168, 505.9065
647.9990, 507.7965
648.4811, 508.0511
648.9632, 506.6413
649.4453, 501.6431
649.9274, 490.2494
650.4095, 481.7482
650.8917, 481.7666
651.3738, 484.6993
651.8559, 483.3177
652.3380, 477.1350
652.8201, 475.4564
653.3022, 486.0048
653.7844, 497.3113
654.2665, 500.3947
654.7486, 498.1449
655.2307, 497.0396
655.7128, 499.0328
656.1949, 500.9805
656.6771, 498.8691
657.1592, 493.0710
657.6413, 488.8061
658.1234, 486.1223
658.6055, 484.9037
659.0876, 485.9695
659.5698, 487.8317
660.0519, 488.1842
660.5340, 486.9024
661.0161, 487.3833
661.4982, 491.9151
661.9803, 496.7872
662.4625, 501.3776
662.9446, 504.2585
663.4267, 501.8329
663.9088, 493.8629
664.3909, 486.3190
