##NAMES=Natrolemoynite
##RRUFFID=R060958
##IDEAL CHEMISTRY=Na_4_Zr^4+^_2_Si_10_O_26_&#183;9H_2_O
##LOCALITY=Mont St. Hilaire, Quebec, Canada
##OWNER=RRUFF
##SOURCE=Michael Scott
##DESCRIPTION=Radial aggregates of colorless bladed crystals
##STATUS=The identification of this mineral is confirmed by single-crystal X-ray diffraction and chemical analysis.
##URL=rruff.info/R060958
##MEASURED CHEMISTRY=(Na_3.25_K_0.38_Ca_0.23_[box]_0.14_)_Σ=4_(Zr_1.91_Fe^3+^_0.05_Nb^5+^_0.02_Ti_0.02_)_Σ=2_Si_10_O_26_·9H_2_O
124.4157, 4539.902
124.8979, 4666.047
125.3800, 4782.766
125.8621, 4892.677
126.3442, 4992.587
126.8263, 5078.216
127.3084, 5149.399
127.7905, 5210.686
128.2727, 5261.775
128.7548, 5304.730
129.2369, 5344.874
129.7190, 5386.139
130.2011, 5424.094
130.6832, 5446.772
131.1654, 5453.256
131.6475, 5454.085
132.1296, 5462.769
132.6117, 5477.895
133.0938, 5483.948
133.5759, 5467.269
134.0581, 5432.852
134.5402, 5421.982
135.0223, 5439.580
135.5044, 5468.009
135.9865, 5477.189
136.4686, 5463.916
136.9508, 5456.014
137.4329, 5468.168
137.9150, 5502.351
138.3971, 5537.523
138.8792, 5576.541
139.3613, 5614.078
139.8434, 5635.522
140.3256, 5636.515
140.8077, 5632.859
141.2898, 5632.752
141.7719, 5636.148
142.2540, 5644.460
142.7361, 5661.586
143.2183, 5684.845
143.7004, 5693.350
144.1825, 5672.927
144.6646, 5654.438
145.1467, 5663.461
145.6288, 5726.204
146.1110, 5772.269
146.5931, 5786.961
147.0752, 5768.070
147.5573, 5755.055
148.0394, 5755.837
148.5215, 5757.671
149.0037, 5747.404
149.4858, 5705.753
149.9679, 5672.677
150.4500, 5657.718
150.9321, 5667.046
151.4142, 5674.550
151.8964, 5681.958
152.3785, 5687.491
152.8606, 5688.622
153.3427, 5667.876
153.8248, 5658.333
154.3069, 5673.494
154.7890, 5729.832
155.2712, 5778.542
155.7533, 5807.775
156.2354, 5824.840
156.7175, 5846.415
157.1996, 5880.330
157.6817, 5916.619
158.1639, 5949.482
158.6460, 5968.069
159.1281, 5996.338
159.6102, 6043.490
160.0923, 6106.056
160.5744, 6171.381
161.0566, 6232.625
161.5387, 6295.662
162.0208, 6364.789
162.5029, 6456.675
162.9850, 6539.886
163.4671, 6596.065
163.9493, 6627.339
164.4314, 6659.751
164.9135, 6709.053
165.3956, 6764.417
165.8777, 6814.766
166.3598, 6853.997
166.8420, 6889.033
167.3241, 6926.021
167.8062, 6965.556
168.2883, 6998.598
168.7704, 7015.257
169.2525, 7023.145
169.7346, 7033.645
170.2168, 7057.216
170.6989, 7082.537
171.1810, 7098.225
171.6631, 7102.507
172.1452, 7106.014
172.6273, 7116.227
173.1095, 7131.957
173.5916, 7150.764
174.0737, 7168.490
174.5558, 7189.695
175.0379, 7223.413
175.5201, 7274.859
176.0022, 7324.292
176.4843, 7348.442
176.9664, 7351.922
177.4485, 7351.285
177.9306, 7349.225
178.4128, 7350.709
178.8949, 7368.564
179.3770, 7412.805
179.8591, 7458.408
180.3412, 7467.681
180.8233, 7444.683
181.3055, 7418.306
181.7876, 7411.937
182.2697, 7418.057
182.7518, 7415.573
183.2339, 7397.072
183.7160, 7371.246
184.1982, 7352.060
184.6803, 7339.446
185.1624, 7332.585
185.6445, 7336.709
186.1266, 7347.927
186.6087, 7348.802
187.0908, 7331.314
187.5730, 7302.206
188.0551, 7275.975
188.5372, 7251.799
189.0193, 7235.911
189.5014, 7234.342
189.9835, 7246.576
190.4657, 7268.461
190.9478, 7304.745
191.4299, 7349.840
191.9120, 7376.280
192.3941, 7380.900
192.8762, 7382.268
193.3584, 7404.736
193.8405, 7447.960
194.3226, 7487.671
194.8047, 7512.228
195.2868, 7524.088
195.7689, 7543.431
196.2511, 7570.789
196.7332, 7605.280
197.2153, 7647.230
197.6974, 7697.490
198.1795, 7748.099
198.6616, 7797.958
199.1438, 7847.589
199.6259, 7889.232
200.1080, 7923.816
200.5901, 7949.062
201.0722, 7956.573
201.5543, 7942.846
202.0364, 7931.227
202.5186, 7939.758
203.0007, 7972.926
203.4828, 7971.410
203.9649, 7922.651
204.4470, 7851.106
204.9291, 7810.704
205.4113, 7808.574
205.8934, 7808.909
206.3755, 7794.546
206.8576, 7763.709
207.3397, 7728.809
207.8218, 7692.875
208.3040, 7651.501
208.7861, 7587.341
209.2682, 7489.782
209.7503, 7400.233
210.2324, 7349.139
210.7145, 7351.977
211.1967, 7328.997
211.6788, 7268.373
212.1609, 7181.391
212.6430, 7104.080
213.1251, 7038.844
213.6072, 6980.087
214.0894, 6924.775
214.5715, 6873.876
215.0536, 6822.182
215.5357, 6766.509
216.0178, 6709.680
216.4999, 6668.631
216.9820, 6652.736
217.4642, 6636.561
217.9463, 6599.706
218.4284, 6530.146
218.9105, 6474.553
219.3926, 6444.117
219.8747, 6433.458
220.3569, 6404.495
220.8390, 6345.973
221.3211, 6284.946
221.8032, 6241.215
222.2853, 6223.824
222.7674, 6203.581
223.2496, 6177.958
223.7317, 6146.811
224.2138, 6108.922
224.6959, 6059.131
225.1780, 6009.035
225.6601, 5966.080
226.1423, 5931.122
226.6244, 5902.645
227.1065, 5882.911
227.5886, 5871.208
228.0707, 5855.419
228.5528, 5834.506
229.0350, 5809.979
229.5171, 5782.133
229.9992, 5744.544
230.4813, 5715.469
230.9634, 5700.361
231.4455, 5699.061
231.9276, 5694.477
232.4098, 5688.218
232.8919, 5677.008
233.3740, 5657.439
233.8561, 5625.667
234.3382, 5592.857
234.8203, 5559.583
235.3025, 5525.886
235.7846, 5497.742
236.2667, 5480.727
236.7488, 5464.105
237.2309, 5435.508
237.7130, 5383.792
238.1952, 5341.484
238.6773, 5316.432
239.1594, 5309.609
239.6415, 5303.906
240.1236, 5299.072
240.6057, 5295.620
241.0879, 5295.037
241.5700, 5302.543
242.0521, 5303.183
242.5342, 5290.914
243.0163, 5263.988
243.4984, 5246.266
243.9806, 5240.573
244.4627, 5241.341
244.9448, 5242.899
245.4269, 5245.632
245.9090, 5248.080
246.3911, 5250.813
246.8732, 5254.172
247.3554, 5251.156
247.8375, 5238.556
248.3196, 5222.212
248.8017, 5208.798
249.2838, 5200.958
249.7659, 5191.297
250.2481, 5177.794
250.7302, 5160.206
251.2123, 5142.140
251.6944, 5117.549
252.1765, 5098.703
252.6586, 5102.335
253.1408, 5145.241
253.6229, 5177.709
254.1050, 5186.242
254.5871, 5169.193
255.0692, 5155.129
255.5513, 5141.611
256.0334, 5133.767
256.5156, 5139.302
256.9977, 5167.263
257.4798, 5189.095
257.9619, 5196.600
258.4440, 5188.803
258.9261, 5183.201
259.4083, 5179.167
259.8904, 5177.582
260.3725, 5178.688
260.8546, 5180.323
261.3367, 5189.892
261.8188, 5211.489
262.3010, 5245.726
262.7831, 5274.080
263.2652, 5297.064
263.7473, 5313.605
264.2294, 5320.159
264.7115, 5310.330
265.1937, 5308.928
265.6758, 5326.543
266.1579, 5362.426
266.6400, 5380.247
267.1221, 5373.872
267.6042, 5359.149
268.0864, 5352.979
268.5685, 5357.933
269.0506, 5362.489
269.5327, 5362.095
270.0148, 5357.622
270.4969, 5365.409
270.9791, 5389.945
271.4612, 5418.032
271.9433, 5435.263
272.4254, 5439.533
272.9075, 5442.188
273.3896, 5440.981
273.8718, 5438.635
274.3539, 5462.987
274.8360, 5521.890
275.3181, 5588.705
275.8002, 5638.717
276.2823, 5670.397
276.7645, 5694.366
277.2466, 5708.366
277.7287, 5716.042
278.2108, 5741.894
278.6929, 5789.113
279.1750, 5843.406
279.6572, 5892.029
280.1393, 5934.490
280.6214, 5978.047
281.1035, 6025.535
281.5856, 6074.756
282.0677, 6116.493
282.5499, 6149.858
283.0320, 6180.007
283.5141, 6208.724
283.9962, 6236.124
284.4783, 6271.854
284.9604, 6321.595
285.4425, 6378.944
285.9247, 6426.275
286.4068, 6463.884
286.8889, 6488.021
287.3710, 6490.563
287.8531, 6473.750
288.3352, 6458.592
288.8174, 6450.782
289.2995, 6444.712
289.7816, 6427.928
290.2637, 6400.673
290.7458, 6366.186
291.2279, 6327.687
291.7101, 6284.259
292.1922, 6228.656
292.6743, 6154.469
293.1564, 6077.184
293.6385, 6030.160
294.1206, 6011.402
294.6028, 5989.921
295.0849, 5940.665
295.5670, 5872.312
296.0491, 5807.874
296.5312, 5749.619
297.0133, 5700.623
297.4955, 5669.956
297.9776, 5655.622
298.4597, 5642.399
298.9418, 5615.409
299.4239, 5584.227
299.9060, 5570.106
300.3882, 5579.251
300.8703, 5593.743
301.3524, 5587.452
301.8345, 5567.262
302.3166, 5557.188
302.7987, 5574.800
303.2809, 5608.420
303.7630, 5644.098
304.2451, 5680.752
304.7272, 5715.294
305.2093, 5741.116
305.6914, 5761.999
306.1736, 5785.990
306.6557, 5816.769
307.1378, 5853.274
307.6199, 5896.899
308.1020, 5949.178
308.5841, 5999.417
309.0663, 6038.932
309.5484, 6071.767
310.0305, 6103.322
310.5126, 6127.283
310.9947, 6157.477
311.4768, 6207.315
311.9590, 6277.536
312.4411, 6349.453
312.9232, 6418.039
313.4053, 6479.992
313.8874, 6530.192
314.3695, 6559.829
314.8517, 6584.536
315.3337, 6613.796
315.8159, 6647.407
316.2980, 6675.765
316.7801, 6696.064
317.2622, 6708.915
317.7443, 6715.054
318.2264, 6706.662
318.7086, 6699.530
319.1907, 6702.623
319.6728, 6713.917
320.1549, 6718.099
320.6370, 6709.906
321.1191, 6693.457
321.6013, 6671.379
322.0834, 6648.199
322.5655, 6615.001
323.0476, 6564.995
323.5297, 6501.902
324.0118, 6441.248
324.4940, 6384.392
324.9761, 6331.199
325.4582, 6282.051
325.9403, 6244.527
326.4224, 6199.985
326.9045, 6140.352
327.3867, 6072.030
327.8688, 6012.551
328.3509, 5969.512
328.8330, 5928.938
329.3151, 5886.225
329.7972, 5841.682
330.2794, 5793.857
330.7615, 5735.862
331.2436, 5676.415
331.7257, 5632.465
332.2078, 5614.955
332.6899, 5597.209
333.1721, 5569.110
333.6542, 5525.880
334.1363, 5497.800
334.6184, 5496.654
335.1005, 5500.170
335.5826, 5474.614
336.0648, 5399.211
336.5469, 5344.186
337.0290, 5332.919
337.5111, 5365.613
337.9932, 5383.221
338.4753, 5381.881
338.9575, 5372.353
339.4396, 5364.819
339.9217, 5359.841
340.4038, 5352.927
340.8859, 5342.175
341.3680, 5328.817
341.8502, 5318.041
342.3323, 5310.107
342.8144, 5304.684
343.2965, 5300.642
343.7786, 5298.156
344.2607, 5303.498
344.7429, 5321.412
345.2250, 5343.905
345.7071, 5349.892
346.1892, 5339.271
346.6713, 5329.593
347.1534, 5336.828
347.6355, 5355.611
348.1176, 5363.743
348.5998, 5357.693
349.0819, 5342.794
349.5640, 5320.240
350.0461, 5292.378
350.5282, 5274.257
351.0103, 5276.479
351.4925, 5292.661
351.9746, 5314.547
352.4567, 5342.572
352.9388, 5368.299
353.4209, 5383.500
353.9030, 5390.176
354.3852, 5392.790
354.8673, 5388.230
355.3494, 5383.758
355.8315, 5389.930
356.3136, 5406.798
356.7957, 5419.703
357.2779, 5415.802
357.7600, 5402.822
358.2421, 5390.701
358.7242, 5384.254
359.2063, 5378.325
359.6884, 5371.170
360.1706, 5362.463
360.6527, 5350.289
361.1348, 5338.519
361.6169, 5320.078
362.0990, 5288.872
362.5811, 5234.034
363.0633, 5179.616
363.5454, 5131.634
364.0275, 5089.437
364.5096, 5051.292
364.9917, 5014.372
365.4738, 4983.237
365.9560, 4961.343
366.4381, 4955.700
366.9202, 4945.318
367.4023, 4927.744
367.8844, 4904.235
368.3665, 4876.791
368.8487, 4834.611
369.3308, 4799.327
369.8129, 4777.883
370.2950, 4773.061
370.7771, 4767.185
371.2592, 4759.032
371.7414, 4750.696
372.2235, 4744.474
372.7056, 4742.488
373.1877, 4737.825
373.6698, 4724.938
374.1519, 4705.771
374.6341, 4706.373
375.1162, 4734.297
375.5983, 4767.750
376.0804, 4790.385
376.5625, 4800.018
377.0446, 4808.462
377.5267, 4816.575
378.0089, 4824.686
378.4910, 4834.087
378.9731, 4845.219
379.4552, 4854.993
379.9373, 4859.654
380.4194, 4860.065
380.9016, 4865.211
381.3837, 4875.328
381.8658, 4891.707
382.3479, 4921.747
382.8300, 4963.023
383.3121, 4997.357
383.7943, 5010.212
384.2764, 5010.688
384.7585, 5022.875
385.2406, 5047.531
385.7227, 5069.495
386.2048, 5067.191
386.6870, 5051.108
387.1691, 5043.725
387.6512, 5057.632
388.1333, 5078.799
388.6154, 5093.044
389.0975, 5101.093
389.5797, 5108.902
390.0618, 5122.168
390.5439, 5136.196
391.0260, 5146.166
391.5081, 5151.076
391.9902, 5151.931
392.4724, 5146.489
392.9545, 5137.502
393.4366, 5131.232
393.9187, 5127.194
394.4008, 5129.140
394.8829, 5140.290
395.3651, 5163.045
395.8472, 5186.980
396.3293, 5210.581
396.8114, 5233.558
397.2935, 5255.540
397.7756, 5277.141
398.2578, 5296.872
398.7399, 5310.589
399.2220, 5317.164
399.7041, 5337.201
400.1862, 5386.606
400.6683, 5437.427
401.1505, 5469.178
401.6326, 5461.792
402.1147, 5470.261
402.5968, 5502.762
403.0789, 5553.929
403.5610, 5605.414
404.0432, 5658.276
404.5253, 5709.546
405.0074, 5756.920
405.4895, 5799.259
405.9716, 5844.452
406.4537, 5891.848
406.9359, 5942.900
407.4180, 6000.998
407.9001, 6066.994
408.3822, 6132.698
408.8643, 6196.625
409.3464, 6258.302
409.8285, 6313.384
410.3106, 6360.619
410.7928, 6409.768
411.2749, 6474.542
411.7570, 6550.753
412.2391, 6619.277
412.7212, 6670.620
413.2033, 6719.630
413.6855, 6792.876
414.1676, 6885.330
414.6497, 6973.140
415.1318, 7031.233
415.6139, 7078.643
416.0960, 7140.167
416.5782, 7223.047
417.0603, 7307.013
417.5424, 7373.889
418.0245, 7430.992
418.5066, 7491.022
418.9887, 7578.186
419.4709, 7654.723
419.9530, 7694.319
420.4351, 7694.660
420.9172, 7696.958
421.3993, 7710.225
421.8814, 7734.735
422.3636, 7770.734
422.8457, 7846.703
423.3278, 7902.683
423.8099, 7916.021
424.2920, 7896.861
424.7741, 7892.078
425.2563, 7917.323
425.7384, 7945.324
426.2205, 7966.874
426.7026, 7987.448
427.1847, 7987.111
427.6668, 7955.668
428.1490, 7909.839
428.6311, 7874.957
429.1132, 7853.339
429.5953, 7835.596
430.0774, 7819.697
430.5595, 7805.503
431.0417, 7796.417
431.5238, 7797.604
432.0059, 7787.507
432.4880, 7739.478
432.9701, 7654.707
433.4522, 7578.588
433.9344, 7519.392
434.4165, 7470.834
434.8986, 7416.305
435.3807, 7357.084
435.8628, 7306.762
436.3449, 7285.396
436.8271, 7276.685
437.3092, 7244.714
437.7913, 7185.180
438.2734, 7117.459
438.7555, 7052.987
439.2376, 6993.775
439.7197, 6943.568
440.2018, 6916.944
440.6840, 6889.783
441.1661, 6837.152
441.6482, 6763.440
442.1303, 6699.374
442.6124, 6666.804
443.0945, 6645.854
443.5767, 6621.492
444.0588, 6587.845
444.5409, 6555.278
445.0230, 6525.725
445.5051, 6499.132
445.9872, 6475.730
446.4694, 6460.203
446.9515, 6443.719
447.4336, 6422.476
447.9157, 6394.742
448.3978, 6372.470
448.8799, 6361.338
449.3621, 6351.244
449.8442, 6331.133
450.3263, 6291.297
450.8084, 6266.262
451.2905, 6267.850
451.7726, 6286.317
452.2548, 6279.649
452.7369, 6239.877
453.2190, 6202.924
453.7011, 6193.152
454.1832, 6209.750
454.6653, 6217.007
455.1475, 6212.703
455.6296, 6201.694
456.1117, 6188.953
456.5938, 6174.796
457.0759, 6159.896
457.5580, 6140.513
458.0402, 6123.148
458.5223, 6123.758
459.0044, 6140.653
459.4865, 6153.611
459.9686, 6136.536
460.4507, 6111.060
460.9329, 6107.667
461.4150, 6142.594
461.8971, 6178.028
462.3792, 6187.282
462.8613, 6180.033
463.3434, 6175.652
463.8256, 6193.856
464.3077, 6206.383
464.7898, 6191.117
465.2719, 6141.770
465.7540, 6116.404
466.2361, 6142.508
466.7183, 6188.348
467.2004, 6228.543
467.6825, 6268.633
468.1646, 6293.366
468.6467, 6296.263
469.1288, 6282.828
469.6110, 6270.533
470.0930, 6252.259
470.5752, 6247.363
471.0573, 6269.309
471.5394, 6323.892
472.0215, 6359.941
472.5036, 6373.806
472.9857, 6376.434
473.4679, 6380.150
473.9500, 6384.944
474.4321, 6387.725
474.9142, 6385.363
475.3963, 6382.634
475.8784, 6392.954
476.3606, 6415.635
476.8427, 6439.060
477.3248, 6460.654
477.8069, 6476.417
478.2890, 6474.087
478.7711, 6448.251
479.2533, 6426.077
479.7354, 6436.949
480.2175, 6466.909
480.6996, 6492.188
481.1817, 6497.902
481.6638, 6500.067
482.1460, 6501.891
482.6281, 6504.963
483.1102, 6522.535
483.5923, 6576.319
484.0744, 6633.962
484.5565, 6674.932
485.0387, 6685.181
485.5208, 6696.479
486.0029, 6713.432
486.4850, 6732.313
486.9671, 6747.420
487.4492, 6756.827
487.9314, 6765.208
488.4135, 6773.090
488.8956, 6780.686
489.3777, 6792.296
489.8598, 6810.562
490.3419, 6827.907
490.8241, 6836.847
491.3062, 6836.885
491.7883, 6842.292
492.2704, 6854.597
492.7525, 6873.258
493.2346, 6899.522
493.7168, 6932.248
494.1989, 6966.070
494.6810, 7002.470
495.1631, 7036.636
495.6452, 7054.917
496.1273, 7057.716
496.6095, 7067.910
497.0916, 7108.000
497.5737, 7163.458
498.0558, 7217.484
498.5379, 7265.322
499.0201, 7311.295
499.5022, 7356.745
499.9843, 7402.039
500.4664, 7447.058
500.9485, 7487.288
501.4306, 7531.017
501.9127, 7579.790
502.3948, 7633.044
502.8770, 7696.698
503.3591, 7787.896
503.8412, 7877.240
504.3233, 7944.430
504.8054, 7973.826
505.2875, 8009.441
505.7697, 8053.463
506.2518, 8105.413
506.7339, 8164.968
507.2160, 8234.272
507.6981, 8302.107
508.1802, 8363.938
508.6624, 8420.278
509.1445, 8479.097
509.6266, 8542.442
510.1087, 8593.277
510.5908, 8608.736
511.0729, 8597.825
511.5551, 8586.823
512.0372, 8577.548
512.5193, 8578.487
513.0014, 8611.454
513.4835, 8663.826
513.9656, 8702.104
514.4478, 8700.048
514.9299, 8684.499
515.4120, 8674.457
515.8941, 8670.875
516.3762, 8663.848
516.8583, 8644.146
517.3405, 8622.224
517.8226, 8606.271
518.3047, 8609.940
518.7868, 8603.227
519.2689, 8569.939
519.7510, 8525.963
520.2332, 8504.188
520.7153, 8517.937
521.1974, 8533.244
521.6795, 8539.887
522.1616, 8537.969
522.6437, 8543.353
523.1259, 8559.140
523.6080, 8574.126
524.0901, 8574.520
524.5722, 8560.945
525.0543, 8562.776
525.5364, 8586.386
526.0186, 8618.665
526.5007, 8643.913
526.9828, 8661.409
527.4649, 8669.186
527.9470, 8651.114
528.4291, 8631.007
528.9113, 8645.154
529.3934, 8689.756
529.8755, 8728.197
530.3576, 8729.944
530.8397, 8719.723
531.3218, 8721.511
531.8040, 8749.423
532.2861, 8767.060
532.7682, 8753.436
533.2503, 8724.445
533.7324, 8703.625
534.2145, 8703.013
534.6967, 8701.308
535.1788, 8695.746
535.6609, 8686.380
536.1430, 8670.820
536.6251, 8644.491
537.1072, 8620.383
537.5894, 8609.616
538.0715, 8616.129
538.5536, 8606.673
539.0357, 8578.262
539.5178, 8539.509
539.9999, 8504.249
540.4821, 8470.852
540.9642, 8419.569
541.4463, 8332.548
541.9284, 8235.979
542.4105, 8179.595
542.8926, 8155.802
543.3748, 8125.982
543.8569, 8065.336
544.3390, 7987.551
544.8211, 7899.951
545.3032, 7800.276
545.7853, 7712.250
546.2675, 7663.781
546.7495, 7625.334
547.2316, 7567.816
547.7137, 7456.700
548.1959, 7359.078
548.6780, 7292.480
549.1601, 7246.924
549.6422, 7192.583
550.1243, 7130.835
550.6064, 7058.175
551.0886, 6970.740
551.5707, 6868.004
552.0528, 6765.804
552.5349, 6659.421
553.0170, 6569.274
553.4991, 6525.196
553.9813, 6523.223
554.4634, 6498.939
554.9455, 6440.711
555.4276, 6365.431
555.9097, 6290.331
556.3918, 6218.344
556.8740, 6157.842
557.3561, 6128.740
557.8382, 6102.331
558.3203, 6042.349
558.8024, 5954.275
559.2845, 5877.340
559.7667, 5835.258
560.2488, 5808.539
560.7309, 5784.804
561.2130, 5764.222
561.6951, 5740.607
562.1772, 5709.920
562.6594, 5676.563
563.1415, 5645.730
563.6236, 5622.131
564.1057, 5593.405
564.5878, 5554.633
565.0699, 5509.968
565.5521, 5474.586
566.0342, 5451.250
566.5163, 5426.465
566.9984, 5388.328
567.4805, 5340.362
567.9626, 5314.897
568.4448, 5313.514
568.9269, 5316.309
569.4090, 5302.612
569.8911, 5279.287
570.3732, 5261.710
570.8553, 5254.647
571.3375, 5250.761
571.8196, 5247.433
572.3017, 5242.377
572.7838, 5231.334
573.2659, 5200.715
573.7480, 5174.724
574.2302, 5169.154
574.7123, 5182.275
575.1944, 5186.104
575.6765, 5163.396
576.1586, 5140.993
576.6407, 5131.672
577.1229, 5139.957
577.6050, 5148.230
578.0871, 5158.042
578.5692, 5166.088
579.0513, 5166.290
579.5334, 5157.224
580.0156, 5154.385
580.4977, 5162.553
580.9798, 5176.148
581.4619, 5184.294
581.9440, 5187.335
582.4261, 5188.011
582.9083, 5181.576
583.3904, 5176.492
583.8725, 5186.228
584.3546, 5210.373
584.8367, 5237.205
585.3188, 5264.465
585.8010, 5288.462
586.2831, 5303.680
586.7652, 5299.290
587.2473, 5308.216
587.7294, 5352.549
588.2115, 5410.735
588.6937, 5452.304
589.1758, 5463.109
589.6579, 5476.391
590.1400, 5496.099
590.6221, 5522.084
591.1042, 5556.338
591.5864, 5602.457
592.0685, 5642.974
592.5506, 5661.493
593.0327, 5662.827
593.5148, 5694.169
593.9969, 5758.105
594.4791, 5827.480
594.9612, 5873.093
595.4433, 5906.678
595.9254, 5953.134
596.4075, 6021.976
596.8896, 6092.015
597.3718, 6139.628
597.8539, 6177.501
598.3360, 6226.268
598.8181, 6309.554
599.3002, 6389.124
599.7823, 6444.123
600.2645, 6479.633
600.7466, 6530.744
601.2287, 6612.763
601.7108, 6696.000
602.1929, 6771.529
602.6750, 6839.723
603.1572, 6889.942
603.6393, 6913.166
604.1214, 6939.218
604.6035, 7005.429
605.0856, 7109.706
605.5677, 7190.646
606.0499, 7235.958
606.5320, 7266.815
607.0141, 7315.834
607.4962, 7375.494
607.9783, 7425.171
608.4604, 7454.001
608.9425, 7469.905
609.4246, 7473.642
609.9067, 7468.074
610.3889, 7465.374
610.8710, 7486.635
611.3531, 7498.932
611.8352, 7482.567
612.3173, 7429.656
612.7994, 7377.907
613.2816, 7341.505
613.7637, 7295.753
614.2458, 7219.730
614.7279, 7104.694
615.2100, 6987.062
615.6921, 6865.213
616.1743, 6748.406
616.6564, 6665.593
617.1385, 6613.907
617.6206, 6537.250
618.1027, 6398.682
