##NAMES=Neighborite
##RRUFFID=R080108
##IDEAL CHEMISTRY=NaMgF_3_
##LOCALITY=Mont Saint-Hilaire, Quebec, Canada
##OWNER=RRUFF
##SOURCE=William W. Pinch
##DESCRIPTION=Translucent brown zoned pseudocubic crystals associated with calcite and clinoenstatite
##STATUS=The identification of this mineral has been confirmed by single-crystal X-ray diffraction.
##URL=rruff.info/R080108
92.52344, 7952.741
93.00555, 7881.061
93.48767, 7894.785
93.96979, 8178.551
94.45190, 8458.850
94.93402, 8699.653
95.41614, 8798.136
95.89825, 8803.938
96.38037, 8792.974
96.86249, 8765.095
97.34460, 8723.451
97.82672, 8676.067
98.30884, 8626.719
98.79095, 8577.648
99.27307, 8517.086
99.75519, 8438.798
100.2373, 8365.231
100.7194, 8302.830
101.2015, 8248.359
101.6837, 8197.582
102.1658, 8152.481
102.6479, 8113.634
103.1300, 8080.104
103.6121, 8053.979
104.0942, 8040.151
104.5764, 8033.298
105.0585, 8027.365
105.5406, 8019.217
106.0227, 8009.685
106.5048, 8001.379
106.9869, 7990.928
107.4691, 7981.860
107.9512, 7975.493
108.4333, 7971.402
108.9154, 7968.753
109.3975, 7966.280
109.8796, 7963.181
110.3618, 7963.649
110.8439, 7971.146
111.3260, 7978.805
111.8081, 7983.850
112.2902, 7985.769
112.7723, 7985.551
113.2544, 7984.405
113.7366, 7980.935
114.2187, 7979.306
114.7008, 7979.849
115.1829, 7981.734
115.6650, 7984.593
116.1471, 7988.302
116.6293, 7992.170
117.1114, 7994.290
117.5935, 7992.589
118.0756, 7992.916
118.5577, 7998.735
119.0398, 8007.712
119.5220, 8014.094
120.0041, 8014.338
120.4862, 8010.909
120.9683, 8009.571
121.4504, 8010.155
121.9325, 8012.774
122.4147, 8018.879
122.8968, 8028.862
123.3789, 8036.972
123.8610, 8037.825
124.3431, 8035.954
124.8252, 8035.500
125.3074, 8037.920
125.7895, 8042.149
126.2716, 8046.022
126.7537, 8049.131
127.2358, 8052.529
127.7179, 8059.287
128.2001, 8065.966
128.6822, 8067.228
129.1643, 8058.428
129.6464, 8040.916
130.1285, 8032.381
130.6107, 8043.625
131.0928, 8054.239
131.5749, 8058.684
132.0570, 8058.453
132.5391, 8058.124
133.0212, 8061.857
133.5034, 8070.600
133.9855, 8077.447
134.4676, 8081.384
134.9497, 8084.773
135.4318, 8089.382
135.9139, 8095.206
136.3960, 8100.422
136.8782, 8102.436
137.3603, 8100.245
137.8424, 8100.545
138.3245, 8106.791
138.8066, 8114.513
139.2887, 8117.721
139.7709, 8114.362
140.2530, 8109.292
140.7351, 8108.363
141.2172, 8111.040
141.6993, 8115.391
142.1814, 8122.225
142.6636, 8130.455
143.1457, 8135.660
143.6278, 8134.153
144.1099, 8132.435
144.5920, 8136.483
145.0741, 8146.277
145.5563, 8157.051
146.0384, 8165.284
146.5205, 8170.988
147.0026, 8174.119
147.4847, 8169.674
147.9668, 8165.881
148.4490, 8168.932
148.9311, 8179.648
149.4132, 8192.126
149.8953, 8196.355
150.3774, 8185.067
150.8595, 8180.538
151.3417, 8187.912
151.8238, 8199.401
152.3059, 8209.054
152.7880, 8214.529
153.2701, 8217.417
153.7522, 8221.672
154.2344, 8230.986
154.7165, 8237.246
155.1986, 8237.546
155.6807, 8235.318
156.1628, 8235.313
156.6449, 8240.119
157.1271, 8248.010
157.6092, 8251.740
158.0913, 8247.706
158.5734, 8244.495
159.0555, 8244.941
159.5376, 8248.154
160.0198, 8251.731
160.5019, 8254.286
160.9840, 8256.323
161.4661, 8259.521
161.9482, 8264.193
162.4303, 8269.608
162.9125, 8275.266
163.3946, 8281.169
163.8767, 8287.808
164.3588, 8298.137
164.8409, 8308.365
165.3230, 8311.435
165.8052, 8300.521
166.2873, 8287.104
166.7694, 8288.558
167.2515, 8309.784
167.7336, 8329.143
168.2157, 8334.643
168.6979, 8332.760
169.1800, 8330.224
169.6621, 8329.364
170.1442, 8330.080
170.6263, 8332.018
171.1084, 8335.040
171.5906, 8339.839
172.0727, 8348.757
172.5548, 8358.915
173.0369, 8366.074
173.5190, 8367.139
174.0011, 8363.002
174.4833, 8361.254
174.9654, 8365.098
175.4475, 8368.263
175.9296, 8367.688
176.4117, 8365.466
176.8938, 8365.990
177.3760, 8373.197
177.8581, 8387.431
178.3402, 8394.716
178.8223, 8388.479
179.3044, 8382.606
179.7865, 8382.366
180.2687, 8386.933
180.7508, 8392.561
181.2329, 8396.121
181.7150, 8397.415
182.1971, 8399.119
182.6792, 8402.182
183.1614, 8404.869
183.6435, 8405.656
184.1256, 8404.696
184.6077, 8403.854
185.0898, 8404.550
185.5719, 8407.011
186.0541, 8411.058
186.5362, 8420.182
187.0183, 8428.808
187.5004, 8429.723
187.9825, 8421.688
188.4646, 8414.349
188.9468, 8419.146
189.4289, 8432.913
189.9110, 8442.916
190.3931, 8442.267
190.8752, 8437.405
191.3573, 8439.565
191.8395, 8452.164
192.3216, 8464.381
192.8037, 8466.484
193.2858, 8461.852
193.7679, 8457.647
194.2500, 8457.781
194.7322, 8460.924
195.2143, 8462.498
195.6964, 8461.092
196.1785, 8460.310
196.6606, 8461.693
197.1427, 8465.013
197.6249, 8469.860
198.1070, 8476.856
198.5891, 8485.596
199.0712, 8491.976
199.5533, 8493.385
200.0354, 8495.101
200.5176, 8500.434
200.9997, 8507.722
201.4818, 8512.946
201.9639, 8511.771
202.4460, 8503.880
202.9281, 8501.738
203.4103, 8510.550
203.8924, 8520.843
204.3745, 8532.067
204.8566, 8542.799
205.3387, 8550.273
205.8208, 8551.520
206.3030, 8545.530
206.7851, 8543.101
207.2672, 8545.937
207.7493, 8550.340
208.2314, 8555.700
208.7135, 8561.537
209.1957, 8567.212
209.6778, 8572.245
210.1599, 8576.705
210.6420, 8579.369
211.1241, 8578.697
211.6062, 8577.855
212.0884, 8578.020
212.5705, 8579.386
213.0526, 8582.162
213.5347, 8587.050
214.0168, 8594.421
214.4989, 8598.358
214.9811, 8595.673
215.4632, 8592.338
215.9453, 8592.068
216.4274, 8595.118
216.9095, 8599.931
217.3916, 8605.561
217.8737, 8612.090
218.3559, 8618.188
218.8380, 8625.813
219.3201, 8631.876
219.8022, 8632.054
220.2843, 8626.077
220.7664, 8621.188
221.2486, 8624.827
221.7307, 8634.881
222.2128, 8641.830
222.6949, 8642.481
223.1770, 8640.366
223.6591, 8638.791
224.1413, 8637.695
224.6234, 8638.055
225.1055, 8641.796
225.5876, 8647.398
226.0697, 8652.179
226.5518, 8654.518
227.0340, 8656.049
227.5161, 8659.476
227.9982, 8665.379
228.4803, 8671.018
228.9624, 8675.635
229.4445, 8678.801
229.9267, 8679.323
230.4088, 8675.275
230.8909, 8669.561
231.3730, 8668.348
231.8551, 8673.725
232.3372, 8678.409
232.8194, 8678.937
233.3015, 8677.342
233.7836, 8675.736
234.2657, 8674.804
234.7478, 8674.689
235.2299, 8675.992
235.7121, 8679.933
236.1942, 8682.881
236.6763, 8682.836
237.1584, 8681.815
237.6405, 8681.777
238.1227, 8683.517
238.6048, 8686.919
239.0869, 8692.007
239.5690, 8700.741
240.0511, 8707.674
240.5332, 8711.813
241.0154, 8713.961
241.4975, 8714.365
241.9796, 8713.099
242.4617, 8711.136
242.9438, 8711.108
243.4259, 8715.272
243.9081, 8717.796
244.3902, 8715.705
244.8723, 8712.939
245.3544, 8713.288
245.8365, 8718.212
246.3186, 8726.301
246.8008, 8734.679
247.2829, 8745.972
247.7650, 8753.236
248.2471, 8753.780
248.7292, 8751.659
249.2113, 8750.376
249.6935, 8751.153
250.1756, 8753.105
250.6577, 8754.440
251.1398, 8752.740
251.6219, 8754.073
252.1040, 8762.043
252.5862, 8770.925
253.0683, 8774.901
253.5504, 8772.476
254.0325, 8767.449
254.5146, 8766.092
254.9967, 8771.525
255.4789, 8775.158
255.9610, 8776.396
256.4431, 8776.295
256.9252, 8774.567
257.4073, 8771.475
257.8894, 8769.979
258.3716, 8774.532
258.8537, 8789.058
259.3358, 8799.621
259.8179, 8804.360
260.3000, 8806.360
260.7821, 8808.231
261.2643, 8810.435
261.7464, 8811.705
262.2285, 8809.856
262.7106, 8803.434
263.1927, 8802.376
263.6748, 8810.741
264.1570, 8821.974
264.6391, 8831.932
265.1212, 8839.862
265.6033, 8844.051
266.0854, 8840.986
266.5675, 8830.404
267.0497, 8826.528
267.5318, 8836.459
268.0139, 8848.475
268.4960, 8852.705
268.9781, 8848.831
269.4602, 8843.619
269.9424, 8842.223
270.4245, 8844.081
270.9066, 8844.145
271.3887, 8837.635
271.8708, 8832.906
272.3529, 8840.061
272.8351, 8857.876
273.3172, 8870.247
273.7993, 8863.618
274.2814, 8845.082
274.7635, 8838.464
275.2456, 8852.213
275.7278, 8869.085
276.2099, 8876.328
276.6920, 8875.112
277.1741, 8875.381
277.6562, 8883.583
278.1383, 8894.871
278.6205, 8898.818
279.1026, 8891.963
279.5847, 8885.294
280.0668, 8886.546
280.5489, 8894.657
281.0310, 8903.757
281.5132, 8913.038
281.9953, 8920.933
282.4774, 8925.417
282.9595, 8926.090
283.4416, 8925.743
283.9237, 8925.593
284.4059, 8925.665
284.8880, 8926.163
285.3701, 8927.311
285.8522, 8928.661
286.3343, 8929.057
286.8164, 8928.579
287.2986, 8930.002
287.7807, 8937.256
288.2628, 8947.905
288.7449, 8953.332
289.2270, 8950.294
289.7091, 8945.595
290.1913, 8944.205
290.6734, 8945.712
291.1555, 8949.037
291.6376, 8954.772
292.1197, 8961.854
292.6018, 8967.567
293.0840, 8971.010
293.5661, 8974.916
294.0482, 8983.604
294.5303, 8993.899
295.0124, 8999.530
295.4945, 8995.496
295.9767, 8986.710
296.4588, 8982.474
296.9409, 8984.301
297.4230, 8985.522
297.9051, 8979.340
298.3872, 8971.546
298.8694, 8970.152
299.3515, 8980.235
299.8336, 8992.714
300.3157, 8993.587
300.7978, 8980.299
301.2799, 8970.892
301.7621, 8976.084
302.2442, 8986.470
302.7263, 8994.150
303.2084, 8997.527
303.6905, 8999.270
304.1726, 9002.922
304.6548, 9008.688
305.1369, 9010.760
305.6190, 9003.709
306.1011, 8995.690
306.5832, 8992.896
307.0653, 8995.704
307.5475, 9000.894
308.0296, 9007.011
308.5117, 9013.857
308.9938, 9018.751
309.4759, 9019.569
309.9580, 9020.490
310.4402, 9025.153
310.9223, 9032.557
311.4044, 9038.778
311.8865, 9040.665
312.3686, 9039.131
312.8507, 9037.601
313.3329, 9033.907
313.8150, 9034.309
314.2971, 9045.729
314.7792, 9062.726
315.2613, 9075.100
315.7434, 9076.485
316.2256, 9071.533
316.7077, 9070.728
317.1898, 9075.900
317.6719, 9080.003
318.1540, 9076.121
318.6361, 9070.957
319.1183, 9072.982
319.6004, 9086.387
320.0825, 9103.027
320.5646, 9111.877
321.0467, 9112.005
321.5288, 9110.265
322.0110, 9106.536
322.4931, 9103.152
322.9752, 9101.488
323.4573, 9101.738
323.9394, 9104.786
324.4215, 9114.162
324.9037, 9129.583
325.3858, 9138.387
325.8679, 9133.455
326.3500, 9125.966
326.8321, 9124.241
327.3142, 9127.690
327.7964, 9131.244
328.2785, 9130.063
328.7606, 9125.728
329.2427, 9126.432
329.7248, 9135.310
330.2069, 9144.688
330.6891, 9149.239
331.1712, 9150.853
331.6533, 9153.729
332.1354, 9162.343
332.6175, 9172.118
333.0996, 9171.713
333.5818, 9157.077
334.0639, 9145.365
334.5460, 9147.910
335.0281, 9157.294
335.5102, 9166.059
335.9923, 9172.487
336.4745, 9177.420
336.9566, 9181.724
337.4387, 9185.365
337.9208, 9188.568
338.4029, 9191.388
338.8850, 9193.745
339.3671, 9195.597
339.8492, 9196.948
340.3314, 9197.807
340.8135, 9198.465
341.2956, 9198.774
341.7777, 9197.178
342.2598, 9191.076
342.7419, 9186.514
343.2241, 9189.623
343.7062, 9199.054
344.1883, 9208.201
344.6704, 9213.537
345.1525, 9216.463
345.6346, 9220.121
346.1168, 9224.979
346.5989, 9229.519
347.0810, 9233.372
347.5631, 9236.067
348.0452, 9236.098
348.5273, 9229.991
349.0095, 9223.848
349.4916, 9226.204
349.9737, 9237.287
350.4558, 9246.697
350.9379, 9248.803
351.4200, 9246.746
351.9022, 9245.946
352.3843, 9247.058
352.8664, 9248.300
353.3485, 9248.050
353.8306, 9246.834
354.3127, 9246.913
354.7949, 9249.389
355.2770, 9252.566
355.7591, 9254.063
356.2412, 9253.897
356.7233, 9254.270
357.2054, 9256.699
357.6876, 9259.896
358.1697, 9262.082
358.6518, 9263.093
359.1339, 9262.368
359.6160, 9256.884
360.0981, 9248.464
360.5803, 9247.091
361.0624, 9261.292
361.5445, 9277.509
362.0266, 9283.882
362.5087, 9281.306
362.9908, 9278.111
363.4730, 9279.033
363.9551, 9282.460
364.4372, 9283.186
364.9193, 9279.089
365.4014, 9275.999
365.8835, 9277.004
366.3657, 9280.615
366.8478, 9283.647
367.3299, 9284.849
367.8120, 9285.848
368.2941, 9289.349
368.7762, 9295.693
369.2584, 9302.638
369.7405, 9311.473
370.2226, 9319.818
370.7047, 9325.842
371.1868, 9329.197
371.6689, 9329.031
372.1511, 9323.375
372.6332, 9311.963
373.1153, 9307.095
373.5974, 9314.490
374.0795, 9322.143
374.5616, 9323.748
375.0438, 9320.918
375.5259, 9317.892
376.0080, 9316.644
376.4901, 9317.635
376.9722, 9322.753
377.4543, 9339.920
377.9365, 9350.891
378.4186, 9350.783
378.9007, 9344.868
379.3828, 9337.183
379.8649, 9329.297
380.3470, 9323.775
380.8292, 9324.918
381.3113, 9337.082
381.7934, 9342.577
382.2755, 9336.197
382.7576, 9328.614
383.2397, 9325.832
383.7219, 9327.531
384.2040, 9330.234
384.6861, 9331.075
385.1682, 9330.368
385.6503, 9332.541
386.1324, 9341.034
386.6146, 9348.853
387.0967, 9356.509
387.5788, 9362.238
388.0609, 9362.647
388.5430, 9356.343
389.0251, 9347.749
389.5073, 9346.140
389.9894, 9355.333
390.4715, 9363.647
390.9536, 9371.724
391.4357, 9377.772
391.9178, 9378.638
392.4000, 9375.290
392.8821, 9373.314
393.3642, 9379.396
393.8463, 9393.909
394.3284, 9402.813
394.8105, 9400.853
395.2927, 9399.079
395.7748, 9401.941
396.2569, 9407.412
396.7390, 9411.829
397.2211, 9413.146
397.7032, 9412.891
398.1854, 9414.832
398.6675, 9420.234
399.1496, 9424.140
399.6317, 9424.009
400.1138, 9422.627
400.5959, 9422.229
401.0781, 9423.177
401.5602, 9423.784
402.0423, 9420.669
402.5244, 9414.595
403.0065, 9414.866
403.4886, 9426.581
403.9708, 9438.997
404.4529, 9444.340
404.9350, 9444.344
405.4171, 9443.801
405.8992, 9444.470
406.3813, 9445.871
406.8635, 9447.262
407.3456, 9448.604
407.8277, 9450.177
408.3098, 9452.184
408.7919, 9454.502
409.2740, 9456.643
409.7562, 9458.009
410.2383, 9460.751
410.7204, 9468.050
411.2025, 9477.926
411.6846, 9484.407
412.1667, 9485.624
412.6489, 9484.285
413.1310, 9483.341
413.6131, 9482.777
414.0952, 9482.065
414.5773, 9478.720
415.0594, 9476.814
415.5416, 9481.759
416.0237, 9492.922
416.5058, 9503.517
416.9879, 9509.409
417.4700, 9510.917
417.9521, 9509.941
418.4343, 9500.103
418.9164, 9495.688
419.3985, 9504.559
419.8806, 9520.016
420.3627, 9532.240
420.8448, 9538.112
421.3270, 9540.850
421.8091, 9545.265
422.2912, 9552.488
422.7733, 9557.908
423.2554, 9560.259
423.7375, 9562.019
424.2197, 9565.216
424.7018, 9569.231
425.1839, 9571.495
425.6660, 9569.817
426.1481, 9565.125
426.6302, 9563.738
427.1124, 9568.443
427.5945, 9573.369
428.0766, 9580.438
428.5587, 9586.119
429.0408, 9585.428
429.5229, 9577.401
430.0051, 9567.885
430.4872, 9565.422
430.9693, 9571.733
431.4514, 9578.061
431.9335, 9587.654
432.4156, 9594.123
432.8978, 9591.087
433.3799, 9582.565
433.8620, 9579.011
434.3441, 9589.011
434.8262, 9606.743
435.3083, 9614.403
435.7905, 9608.091
436.2726, 9602.375
436.7547, 9603.215
437.2368, 9606.577
437.7189, 9609.189
438.2010, 9610.410
438.6832, 9611.293
439.1653, 9612.451
439.6474, 9613.937
440.1295, 9615.895
440.6116, 9617.847
441.0938, 9621.250
441.5759, 9628.349
442.0580, 9638.009
442.5401, 9646.917
443.0222, 9653.826
443.5043, 9659.759
443.9865, 9667.475
444.4686, 9676.248
444.9507, 9678.851
445.4328, 9669.187
445.9149, 9654.022
446.3970, 9649.513
446.8792, 9658.707
447.3613, 9667.470
447.8434, 9672.331
448.3255, 9674.549
448.8076, 9675.474
449.2897, 9675.399
449.7719, 9674.171
450.2540, 9671.182
450.7361, 9666.247
451.2182, 9664.677
451.7003, 9667.530
452.1824, 9672.049
452.6646, 9678.783
453.1467, 9686.204
453.6288, 9691.439
454.1109, 9693.232
454.5930, 9693.663
455.0751, 9697.230
455.5573, 9707.356
456.0394, 9713.729
456.5215, 9714.479
457.0036, 9713.650
457.4857, 9711.669
457.9678, 9709.974
458.4500, 9711.967
458.9321, 9721.223
459.4142, 9736.005
459.8963, 9746.125
460.3784, 9749.702
460.8605, 9751.696
461.3427, 9752.176
461.8248, 9752.646
462.3069, 9755.261
462.7890, 9760.560
463.2711, 9765.337
463.7532, 9764.747
464.2354, 9759.426
464.7175, 9758.753
465.1996, 9766.459
465.6817, 9774.747
466.1638, 9776.110
466.6459, 9773.607
467.1281, 9775.313
467.6102, 9787.291
468.0923, 9801.443
468.5744, 9808.579
469.0565, 9809.278
469.5386, 9809.280
470.0208, 9810.954
470.5029, 9812.837
470.9850, 9810.537
471.4671, 9801.761
471.9492, 9800.782
472.4313, 9819.998
472.9135, 9843.666
473.3956, 9854.983
473.8777, 9852.714
474.3598, 9844.118
474.8419, 9833.563
475.3240, 9821.608
475.8062, 9813.717
476.2883, 9811.614
476.7704, 9810.970
477.2525, 9811.112
477.7346, 9812.270
478.2167, 9815.506
478.6989, 9820.828
479.1810, 9825.800
479.6631, 9826.723
480.1452, 9821.954
480.6273, 9821.516
481.1094, 9831.678
481.5916, 9839.652
482.0737, 9839.479
482.5558, 9834.457
483.0379, 9830.583
483.5200, 9830.741
484.0021, 9833.191
484.4843, 9834.776
484.9664, 9835.339
485.4485, 9835.659
485.9306, 9835.541
486.4127, 9835.517
486.8948, 9835.389
487.3770, 9835.480
487.8591, 9837.257
488.3412, 9842.816
488.8233, 9850.263
489.3054, 9856.177
489.7875, 9860.542
490.2697, 9863.128
490.7518, 9862.972
491.2339, 9861.346
491.7160, 9860.796
492.1981, 9861.360
492.6802, 9862.890
493.1624, 9866.011
493.6445, 9869.792
494.1266, 9872.782
494.6087, 9874.750
495.0908, 9876.528
495.5729, 9879.142
496.0551, 9882.515
496.5372, 9883.442
497.0193, 9879.819
497.5014, 9876.599
497.9835, 9875.264
498.4656, 9875.237
498.9478, 9875.966
499.4299, 9877.163
499.9120, 9878.152
500.3941, 9878.006
500.8762, 9876.721
501.3583, 9874.185
501.8405, 9867.825
502.3226, 9862.815
502.8047, 9861.509
503.2868, 9862.841
503.7689, 9864.280
504.2510, 9864.217
504.7331, 9865.267
505.2152, 9874.121
505.6974, 9892.962
506.1795, 9906.170
506.6616, 9907.651
507.1437, 9905.038
507.6258, 9903.331
508.1079, 9902.612
508.5901, 9902.334
509.0722, 9902.139
509.5543, 9902.325
510.0364, 9903.347
510.5185, 9905.213
511.0006, 9907.780
511.4828, 9911.504
511.9649, 9915.393
512.4470, 9917.099
512.9291, 9915.925
513.4113, 9915.269
513.8934, 9913.964
514.3755, 9914.779
514.8576, 9923.217
515.3397, 9938.229
515.8218, 9950.470
516.3040, 9952.616
516.7861, 9946.150
517.2682, 9941.840
517.7503, 9939.392
518.2324, 9939.603
518.7145, 9942.554
519.1967, 9948.192
519.6788, 9959.646
520.1609, 9975.545
520.6430, 9986.893
521.1251, 9982.630
521.6072, 9963.355
522.0894, 9951.391
522.5715, 9948.735
523.0536, 9950.581
523.5357, 9959.331
524.0178, 9969.207
524.4999, 9972.767
524.9821, 9967.729
525.4642, 9960.728
525.9463, 9956.926
526.4284, 9956.168
526.9105, 9958.394
527.3926, 9964.819
527.8748, 9970.646
528.3569, 9971.213
528.8390, 9968.066
529.3211, 9966.579
529.8032, 9969.051
530.2853, 9971.307
530.7675, 9970.422
531.2496, 9967.835
531.7317, 9966.938
532.2138, 9968.739
532.6959, 9969.940
533.1780, 9965.575
533.6602, 9953.432
534.1423, 9949.679
534.6244, 9958.987
535.1065, 9970.068
535.5886, 9981.928
536.0707, 9991.787
536.5529, 9994.876
537.0350, 9989.469
537.5171, 9980.687
537.9992, 9977.096
538.4813, 9980.064
538.9634, 9981.169
539.4456, 9976.677
539.9277, 9974.215
540.4098, 9979.192
540.8919, 9988.457
541.3740, 9995.396
541.8561, 9996.667
542.3383, 9996.243
542.8204, 9999.639
543.3025, 10006.28
543.7846, 10010.13
544.2667, 10008.43
544.7488, 10006.01
545.2310, 10008.72
545.7131, 10015.93
546.1952, 10022.58
546.6773, 10027.92
547.1594, 10032.42
547.6415, 10036.55
548.1237, 10040.08
548.6058, 10042.41
549.0879, 10043.31
549.5700, 10043.20
550.0521, 10042.84
550.5342, 10042.71
551.0164, 10040.91
551.4985, 10036.18
551.9806, 10031.43
552.4627, 10025.33
552.9448, 10020.61
553.4269, 10022.96
553.9091, 10035.50
554.3912, 10051.83
554.8733, 10060.13
555.3554, 10058.95
555.8375, 10059.70
556.3196, 10065.96
556.8018, 10071.89
557.2839, 10073.06
557.7660, 10070.97
558.2481, 10069.81
558.7302, 10071.03
559.2123, 10073.84
559.6945, 10078.74
560.1766, 10084.91
560.6587, 10088.59
561.1408, 10088.60
561.6229, 10085.89
562.1050, 10080.61
562.5872, 10071.99
563.0693, 10067.73
563.5514, 10070.83
564.0335, 10075.43
564.5156, 10079.17
564.9977, 10082.13
565.4799, 10084.42
565.9620, 10086.10
566.4441, 10088.32
566.9262, 10093.40
567.4083, 10102.68
567.8904, 10109.15
568.3726, 10109.89
568.8547, 10110.62
569.3368, 10113.72
569.8189, 10117.98
570.3010, 10121.25
570.7831, 10122.68
571.2653, 10123.32
571.7474, 10124.01
572.2295, 10124.87
572.7116, 10127.62
573.1937, 10134.01
573.6758, 10138.63
574.1580, 10135.11
574.6401, 10125.72
575.1222, 10119.36
575.6043, 10116.76
576.0864, 10117.51
576.5685, 10125.01
577.0507, 10134.76
577.5328, 10137.50
578.0149, 10131.43
578.4970, 10125.74
578.9791, 10131.38
579.4612, 10149.18
579.9434, 10158.30
580.4255, 10148.92
580.9076, 10142.29
581.3897, 10143.05
581.8718, 10148.11
582.3539, 10155.43
582.8361, 10163.93
583.3182, 10170.34
583.8003, 10168.70
584.2824, 10160.88
584.7645, 10161.74
585.2466, 10173.99
585.7288, 10187.32
586.2108, 10198.28
586.6929, 10206.45
587.1750, 10210.49
587.6572, 10209.34
588.1393, 10208.03
588.6214, 10209.80
589.1035, 10212.15
589.5856, 10210.28
