##NAMES=Neighborite
##RRUFFID=R080108
##IDEAL CHEMISTRY=NaMgF_3_
##LOCALITY=Mont Saint-Hilaire, Quebec, Canada
##OWNER=RRUFF
##SOURCE=William W. Pinch
##DESCRIPTION=Translucent brown zoned pseudocubic crystals associated with calcite and clinoenstatite
##STATUS=The identification of this mineral has been confirmed by single-crystal X-ray diffraction.
##URL=rruff.info/R080108
91.87140, 0.0000000E+00
92.35352, 165.3570
92.83563, 154.6904
93.31775, 150.1497
93.79987, 153.7100
94.28198, 163.6604
94.76410, 175.1598
95.24622, 187.0907
95.72833, 200.1940
96.21045, 215.3237
96.69257, 232.4844
97.17468, 252.5275
97.65680, 275.8763
98.13892, 302.6096
98.62103, 332.4488
99.10315, 365.8572
99.58527, 402.0268
100.0674, 441.8876
100.5495, 484.8512
101.0316, 532.0656
101.5137, 583.8895
101.9958, 640.4203
102.4780, 702.3995
102.9601, 769.7453
103.4422, 842.4951
103.9243, 919.8856
104.4064, 1002.014
104.8885, 1089.109
105.3707, 1183.775
105.8528, 1286.002
106.3349, 1394.711
106.8170, 1509.121
107.2991, 1631.546
107.7813, 1755.291
108.2634, 1879.263
108.7455, 2005.016
109.2276, 2133.094
109.7097, 2268.645
110.1918, 2403.990
110.6740, 2536.159
111.1561, 2666.993
111.6382, 2792.499
112.1203, 2910.323
112.6024, 3022.328
113.0845, 3133.056
113.5667, 3237.417
114.0488, 3343.520
114.5309, 3458.084
115.0130, 3581.158
115.4951, 3713.116
115.9772, 3853.962
116.4594, 4004.922
116.9415, 4166.140
117.4236, 4343.830
117.9057, 4530.000
118.3878, 4715.292
118.8699, 4899.572
119.3521, 5081.758
119.8342, 5265.085
120.3163, 5450.308
120.7984, 5629.804
121.2805, 5801.147
121.7626, 5963.478
122.2448, 6115.332
122.7269, 6255.401
123.2090, 6384.954
123.6911, 6504.742
124.1732, 6614.460
124.6553, 6716.011
125.1375, 6810.033
125.6196, 6897.039
126.1017, 6978.654
126.5838, 7055.011
127.0659, 7126.756
127.5480, 7194.403
128.0302, 7256.813
128.5123, 7318.761
128.9944, 7385.954
129.4765, 7458.333
129.9586, 7535.333
130.4407, 7616.459
130.9229, 7701.843
131.4050, 7793.003
131.8871, 7889.033
132.3692, 7989.655
132.8513, 8092.205
133.3334, 8183.740
133.8156, 8241.448
134.2977, 8277.272
134.7798, 8319.699
135.2619, 8361.443
135.7440, 8402.316
136.2261, 8441.291
136.7083, 8475.826
137.1904, 8505.903
137.6725, 8533.258
138.1546, 8560.598
138.6367, 8588.903
139.1188, 8613.646
139.6010, 8634.164
140.0831, 8650.481
140.5652, 8662.963
141.0473, 8671.654
141.5294, 8676.729
142.0115, 8678.533
142.4937, 8677.612
142.9758, 8671.784
143.4579, 8658.940
143.9400, 8636.838
144.4221, 8617.535
144.9042, 8600.454
145.3864, 8585.871
145.8685, 8575.030
146.3506, 8569.766
146.8327, 8565.149
147.3148, 8559.396
147.7969, 8551.491
148.2791, 8544.837
148.7612, 8541.261
149.2433, 8538.892
149.7254, 8533.121
150.2075, 8517.146
150.6896, 8503.974
151.1718, 8498.723
151.6539, 8508.416
152.1360, 8515.884
152.6181, 8518.009
153.1002, 8517.301
153.5823, 8521.197
154.0645, 8536.101
154.5466, 8551.376
155.0287, 8562.048
155.5108, 8565.702
155.9929, 8567.001
156.4750, 8566.082
156.9572, 8563.064
157.4393, 8558.651
157.9214, 8550.361
158.4035, 8542.151
158.8856, 8536.467
159.3677, 8537.569
159.8499, 8537.528
160.3320, 8535.166
160.8141, 8530.366
161.2962, 8521.823
161.7783, 8505.083
162.2604, 8486.457
162.7426, 8471.150
163.2247, 8463.542
163.7068, 8457.122
164.1889, 8448.897
164.6710, 8439.052
165.1531, 8429.577
165.6353, 8422.129
166.1174, 8415.279
166.5995, 8407.483
167.0816, 8396.962
167.5637, 8386.079
168.0458, 8376.219
168.5280, 8367.432
169.0101, 8358.947
169.4922, 8351.119
169.9743, 8343.167
170.4564, 8334.061
170.9385, 8321.740
171.4207, 8309.052
171.9028, 8299.270
172.3849, 8292.738
172.8670, 8285.432
173.3491, 8273.944
173.8312, 8259.464
174.3134, 8244.165
174.7955, 8228.657
175.2776, 8213.229
175.7597, 8198.177
176.2418, 8183.390
176.7239, 8169.502
177.2061, 8158.383
177.6882, 8148.578
178.1703, 8136.328
178.6524, 8117.249
179.1345, 8095.042
179.6166, 8076.657
180.0988, 8062.801
180.5809, 8050.018
181.0630, 8034.705
181.5451, 8017.035
182.0272, 7998.398
182.5093, 7978.844
182.9915, 7958.618
183.4736, 7938.826
183.9557, 7919.437
184.4378, 7899.992
184.9199, 7879.601
185.4020, 7858.548
185.8842, 7836.346
186.3663, 7813.655
186.8484, 7789.819
187.3305, 7763.155
187.8126, 7733.016
188.2947, 7700.752
188.7769, 7667.600
189.2590, 7633.653
189.7411, 7600.468
190.2232, 7570.797
190.7053, 7543.502
191.1874, 7509.476
191.6696, 7466.066
192.1517, 7418.693
192.6338, 7377.678
193.1159, 7343.267
193.5980, 7308.788
194.0801, 7269.638
194.5623, 7226.361
195.0444, 7184.190
195.5265, 7144.056
196.0086, 7104.943
196.4907, 7064.674
196.9728, 7023.088
197.4550, 6981.306
197.9371, 6939.832
198.4192, 6898.648
198.9013, 6858.092
199.3834, 6818.364
199.8655, 6779.247
200.3477, 6739.487
200.8298, 6699.035
201.3119, 6658.528
201.7940, 6618.142
202.2761, 6577.987
202.7582, 6536.992
203.2404, 6494.806
203.7225, 6452.009
204.2046, 6410.420
204.6867, 6370.535
205.1688, 6330.155
205.6509, 6287.923
206.1331, 6243.150
206.6152, 6199.866
207.0973, 6158.607
207.5794, 6118.953
208.0615, 6079.765
208.5436, 6041.182
209.0258, 6002.490
209.5079, 5963.231
209.9900, 5923.141
210.4721, 5884.300
210.9542, 5846.803
211.4363, 5810.622
211.9185, 5775.621
212.4006, 5741.435
212.8827, 5708.804
213.3648, 5679.009
213.8469, 5652.118
214.3290, 5626.601
214.8112, 5603.053
215.2933, 5580.667
215.7754, 5555.120
216.2575, 5524.148
216.7396, 5494.084
217.2217, 5469.636
217.7039, 5453.566
218.1860, 5434.618
218.6681, 5411.175
219.1502, 5384.598
219.6323, 5360.191
220.1144, 5339.103
220.5966, 5318.686
221.0787, 5297.498
221.5608, 5274.875
222.0429, 5253.729
222.5250, 5235.009
223.0071, 5217.922
223.4893, 5199.993
223.9714, 5180.026
224.4535, 5160.994
224.9356, 5144.604
225.4177, 5132.606
225.8998, 5119.303
226.3820, 5104.057
226.8641, 5087.297
227.3462, 5071.220
227.8283, 5056.941
228.3104, 5041.602
228.7925, 5023.417
229.2747, 4999.452
229.7568, 4978.677
230.2389, 4961.898
230.7210, 4948.181
231.2031, 4935.586
231.6852, 4926.065
232.1674, 4914.753
232.6495, 4898.858
233.1316, 4875.325
233.6137, 4854.140
234.0958, 4836.737
234.5779, 4821.820
235.0601, 4805.918
235.5422, 4787.838
236.0243, 4770.289
236.5064, 4755.001
236.9885, 4745.171
237.4706, 4730.237
237.9528, 4707.864
238.4349, 4681.192
238.9170, 4658.384
239.3991, 4641.353
239.8812, 4625.311
240.3633, 4608.364
240.8455, 4590.414
241.3276, 4571.838
241.8097, 4553.013
242.2918, 4533.667
242.7739, 4513.127
243.2560, 4489.981
243.7382, 4467.864
244.2203, 4448.604
244.7024, 4434.063
245.1845, 4416.995
245.6666, 4395.799
246.1487, 4372.898
246.6309, 4352.522
247.1130, 4335.446
247.5951, 4319.565
248.0772, 4304.605
248.5593, 4291.038
249.0414, 4276.235
249.5236, 4259.489
250.0057, 4241.934
250.4878, 4224.962
250.9699, 4208.026
251.4520, 4192.565
251.9341, 4179.647
252.4163, 4170.025
252.8984, 4158.694
253.3805, 4144.685
253.8626, 4129.592
254.3447, 4116.420
254.8268, 4106.437
255.3090, 4095.377
255.7911, 4081.775
256.2732, 4065.142
256.7553, 4049.684
257.2374, 4035.748
257.7195, 4022.605
258.2017, 4009.405
258.6838, 3996.075
259.1659, 3982.641
259.6480, 3969.064
260.1301, 3955.493
260.6122, 3941.195
261.0944, 3925.782
261.5765, 3910.071
262.0586, 3894.944
262.5407, 3880.809
263.0228, 3866.247
263.5049, 3850.647
263.9871, 3834.017
264.4692, 3819.780
264.9513, 3808.355
265.4334, 3798.480
265.9155, 3788.858
266.3976, 3779.619
266.8798, 3770.846
267.3619, 3763.039
267.8440, 3755.846
268.3261, 3746.851
268.8082, 3735.485
269.2903, 3723.534
269.7725, 3712.588
270.2546, 3703.070
270.7367, 3693.083
271.2188, 3682.123
271.7009, 3670.618
272.1830, 3659.967
272.6652, 3649.994
273.1473, 3641.532
273.6294, 3635.569
274.1115, 3632.628
274.5936, 3629.081
275.0757, 3624.768
275.5579, 3619.414
276.0400, 3611.792
276.5221, 3601.202
277.0042, 3591.042
277.4863, 3583.406
277.9684, 3578.422
278.4506, 3574.284
278.9327, 3571.488
279.4148, 3568.724
279.8969, 3562.649
280.3790, 3552.798
280.8611, 3543.088
281.3433, 3536.073
281.8254, 3531.714
282.3075, 3525.634
282.7896, 3517.194
283.2717, 3508.146
283.7538, 3501.196
284.2360, 3496.398
284.7181, 3492.683
285.2002, 3489.326
285.6823, 3486.487
286.1644, 3485.855
286.6465, 3487.671
287.1287, 3490.757
287.6108, 3494.072
288.0929, 3497.544
288.5750, 3500.308
289.0571, 3502.108
289.5392, 3502.925
290.0214, 3501.980
290.5035, 3498.976
290.9856, 3496.659
291.4677, 3498.926
291.9498, 3504.995
292.4319, 3509.810
292.9141, 3511.206
293.3962, 3510.781
293.8783, 3512.473
294.3604, 3516.330
294.8425, 3520.411
295.3246, 3522.865
295.8068, 3524.212
296.2889, 3525.979
296.7710, 3528.306
297.2531, 3531.582
297.7352, 3536.398
298.2173, 3542.698
298.6995, 3550.274
299.1816, 3559.463
299.6637, 3569.724
300.1458, 3579.768
300.6279, 3589.491
301.1100, 3598.730
301.5922, 3606.319
302.0743, 3612.795
302.5564, 3620.429
303.0385, 3631.676
303.5206, 3644.492
304.0027, 3656.068
304.4849, 3665.682
304.9670, 3674.910
305.4491, 3685.433
305.9312, 3696.669
306.4133, 3707.237
306.8954, 3715.711
307.3776, 3723.684
307.8597, 3732.846
308.3418, 3743.555
308.8239, 3754.211
309.3060, 3762.863
309.7881, 3770.979
310.2703, 3780.558
310.7524, 3792.360
311.2345, 3806.125
311.7166, 3822.714
312.1987, 3841.958
312.6808, 3859.839
313.1630, 3872.827
313.6451, 3883.851
314.1272, 3896.165
314.6093, 3910.833
315.0914, 3926.751
315.5735, 3942.979
316.0557, 3959.690
316.5378, 3977.953
317.0199, 3999.756
317.5020, 4022.291
317.9841, 4043.734
318.4662, 4062.010
318.9484, 4081.007
319.4305, 4102.537
319.9126, 4125.810
320.3947, 4148.731
320.8768, 4169.376
321.3589, 4190.543
321.8411, 4214.066
322.3232, 4241.342
322.8053, 4267.483
323.2874, 4291.189
323.7695, 4313.239
324.2516, 4334.871
324.7338, 4355.296
325.2159, 4376.198
325.6980, 4398.095
326.1801, 4421.195
326.6622, 4444.727
327.1443, 4469.528
327.6265, 4494.518
328.1086, 4518.700
328.5907, 4541.161
329.0728, 4563.579
329.5549, 4586.076
330.0370, 4608.760
330.5192, 4631.961
331.0013, 4657.578
331.4834, 4682.317
331.9655, 4703.976
332.4476, 4720.297
332.9297, 4737.519
333.4119, 4756.458
333.8940, 4776.633
334.3761, 4795.712
334.8582, 4812.663
335.3403, 4829.397
335.8224, 4847.021
336.3046, 4866.438
336.7867, 4883.877
337.2688, 4898.874
337.7509, 4912.208
338.2330, 4926.236
338.7151, 4941.707
339.1973, 4955.164
339.6794, 4964.150
340.1615, 4968.225
340.6436, 4977.737
341.1257, 4994.690
341.6078, 5012.743
342.0900, 5023.195
342.5721, 5025.438
343.0542, 5027.141
343.5363, 5030.672
344.0184, 5035.491
344.5005, 5039.144
344.9827, 5041.570
345.4648, 5043.286
345.9469, 5044.572
346.4290, 5045.437
346.9111, 5046.159
347.3932, 5047.107
347.8754, 5047.319
348.3575, 5045.168
348.8396, 5040.607
349.3217, 5033.696
349.8038, 5022.753
350.2859, 5009.482
350.7681, 4999.036
351.2502, 4992.942
351.7323, 4985.904
352.2144, 4971.377
352.6965, 4950.740
353.1786, 4928.580
353.6608, 4907.763
354.1429, 4886.521
354.6250, 4861.641
355.1071, 4832.930
355.5892, 4805.210
356.0714, 4784.781
356.5535, 4767.297
357.0356, 4746.278
357.5177, 4717.817
357.9998, 4686.243
358.4819, 4654.222
358.9641, 4621.830
359.4462, 4590.264
359.9283, 4561.354
360.4104, 4532.832
360.8925, 4502.646
361.3746, 4469.284
361.8568, 4435.894
362.3389, 4403.663
362.8210, 4372.415
363.3031, 4341.056
363.7852, 4308.896
364.2673, 4276.818
364.7495, 4245.381
365.2316, 4214.952
365.7137, 4183.868
366.1958, 4150.455
366.6779, 4117.024
367.1600, 4085.991
367.6422, 4058.991
368.1243, 4033.035
368.6064, 4008.495
369.0885, 3985.440
369.5706, 3959.739
370.0527, 3928.293
370.5349, 3896.511
371.0170, 3867.478
371.4991, 3842.355
371.9812, 3818.671
372.4633, 3796.796
372.9454, 3776.181
373.4276, 3755.258
373.9097, 3733.413
374.3918, 3711.960
374.8739, 3692.062
375.3560, 3673.874
375.8381, 3655.459
376.3203, 3636.782
376.8024, 3618.168
377.2845, 3599.894
377.7666, 3581.889
378.2487, 3565.277
378.7308, 3551.102
379.2130, 3538.825
379.6951, 3526.142
380.1772, 3512.764
380.6593, 3499.803
381.1414, 3488.731
381.6235, 3479.324
382.1057, 3468.263
382.5878, 3454.208
383.0699, 3439.228
383.5520, 3427.137
384.0341, 3417.722
384.5162, 3409.848
384.9984, 3403.353
385.4805, 3397.725
385.9626, 3391.823
386.4447, 3385.527
386.9268, 3378.970
387.4089, 3371.790
387.8911, 3364.389
388.3732, 3357.862
388.8553, 3353.556
389.3374, 3349.751
389.8195, 3344.622
390.3016, 3338.295
390.7838, 3332.190
391.2659, 3327.574
391.7480, 3323.566
392.2301, 3319.236
392.7122, 3314.024
393.1943, 3308.954
393.6765, 3304.289
394.1586, 3300.182
394.6407, 3297.085
395.1228, 3296.501
395.6049, 3295.938
396.0870, 3293.882
396.5692, 3289.436
397.0513, 3285.976
397.5334, 3284.950
398.0155, 3284.986
398.4976, 3284.372
398.9797, 3282.590
399.4619, 3280.439
399.9440, 3277.687
400.4261, 3274.307
400.9082, 3271.942
401.3903, 3272.677
401.8724, 3272.346
402.3546, 3267.816
402.8367, 3255.990
403.3188, 3246.887
403.8009, 3242.009
404.2830, 3239.766
404.7651, 3236.168
405.2473, 3231.021
405.7294, 3225.233
406.2115, 3219.144
406.6936, 3212.823
407.1757, 3206.002
407.6578, 3198.580
408.1400, 3190.936
408.6221, 3183.820
409.1042, 3177.198
409.5863, 3168.964
410.0684, 3157.931
410.5505, 3145.444
411.0327, 3133.958
411.5148, 3123.423
411.9969, 3113.736
412.4790, 3104.605
412.9611, 3096.154
413.4432, 3089.236
413.9254, 3084.332
414.4075, 3079.282
414.8896, 3071.252
415.3717, 3061.240
415.8538, 3051.613
416.3359, 3043.082
416.8181, 3035.774
417.3002, 3030.218
417.7823, 3026.293
418.2644, 3022.904
418.7465, 3020.708
419.2286, 3017.992
419.7108, 3012.968
420.1929, 3002.721
420.6750, 2993.254
421.1571, 2987.111
421.6392, 2983.428
422.1213, 2980.168
422.6035, 2976.934
423.0856, 2973.888
423.5677, 2971.093
424.0498, 2968.642
424.5319, 2966.317
425.0140, 2964.342
425.4962, 2962.434
425.9783, 2960.360
426.4604, 2958.929
426.9425, 2956.147
427.4246, 2950.571
427.9067, 2942.998
428.3889, 2939.339
428.8710, 2940.633
429.3531, 2944.004
429.8352, 2948.206
430.3173, 2953.372
430.7994, 2958.295
431.2816, 2962.870
431.7637, 2967.208
432.2458, 2971.624
432.7279, 2976.139
433.2100, 2979.607
433.6921, 2980.747
434.1743, 2980.613
434.6564, 2983.419
435.1385, 2989.255
435.6206, 2995.825
436.1027, 3000.997
436.5848, 3005.380
437.0670, 3010.895
437.5491, 3018.446
438.0312, 3025.986
438.5133, 3030.458
438.9954, 3033.027
439.4775, 3036.863
439.9597, 3045.262
440.4418, 3054.678
440.9239, 3061.522
441.4060, 3065.613
441.8881, 3070.203
442.3702, 3078.004
442.8524, 3086.765
443.3345, 3094.367
443.8166, 3099.586
444.2987, 3104.294
444.7808, 3108.042
445.2629, 3111.533
445.7451, 3116.925
446.2272, 3126.169
446.7093, 3135.873
447.1914, 3144.740
447.6735, 3152.476
448.1556, 3160.115
448.6378, 3167.528
449.1199, 3174.840
449.6020, 3182.194
450.0841, 3189.438
450.5662, 3196.766
451.0483, 3204.222
451.5305, 3211.823
452.0126, 3219.493
452.4947, 3227.438
452.9768, 3235.019
453.4589, 3241.675
453.9410, 3247.409
454.4232, 3253.946
454.9053, 3261.591
455.3874, 3269.361
455.8695, 3276.271
456.3516, 3282.342
456.8337, 3287.560
457.3159, 3291.694
457.7980, 3295.243
458.2801, 3298.742
458.7622, 3302.307
459.2443, 3306.854
459.7264, 3315.086
460.2086, 3323.906
460.6907, 3328.503
461.1728, 3327.432
461.6549, 3325.967
462.1370, 3326.819
462.6191, 3329.942
463.1013, 3335.271
463.5834, 3346.014
464.0655, 3355.934
464.5476, 3361.427
465.0297, 3362.941
465.5118, 3365.046
465.9940, 3369.099
466.4761, 3373.832
466.9582, 3378.485
467.4403, 3382.534
467.9224, 3387.399
468.4045, 3394.462
468.8867, 3401.728
469.3688, 3406.088
469.8509, 3404.791
470.3330, 3405.589
470.8151, 3410.994
471.2972, 3420.457
471.7794, 3427.836
472.2615, 3432.729
472.7436, 3436.936
473.2257, 3441.877
473.7078, 3447.604
474.1899, 3452.059
474.6721, 3454.625
475.1542, 3457.212
475.6363, 3463.496
476.1184, 3472.803
476.6005, 3480.822
477.0826, 3484.546
477.5648, 3486.679
478.0469, 3491.905
478.5290, 3500.002
479.0111, 3508.965
479.4932, 3518.136
479.9753, 3527.062
480.4575, 3535.343
480.9396, 3543.088
481.4217, 3549.646
481.9038, 3553.021
482.3859, 3555.198
482.8680, 3559.059
483.3502, 3567.099
483.8323, 3575.426
484.3144, 3582.634
484.7965, 3588.672
485.2786, 3594.740
485.7607, 3601.741
486.2429, 3608.073
486.7250, 3612.753
487.2071, 3614.124
487.6892, 3617.257
488.1713, 3622.551
488.6534, 3629.376
489.1356, 3637.513
489.6177, 3648.420
490.0998, 3656.542
490.5819, 3659.979
491.0640, 3659.834
491.5461, 3660.683
492.0283, 3662.330
492.5104, 3666.800
492.9925, 3676.703
493.4746, 3691.117
493.9567, 3704.618
494.4388, 3717.064
494.9210, 3728.133
495.4031, 3737.239
495.8852, 3744.688
496.3673, 3751.542
496.8494, 3757.410
497.3315, 3763.338
497.8137, 3770.030
498.2958, 3777.537
498.7779, 3785.948
499.2600, 3797.003
499.7421, 3807.893
500.2242, 3816.418
500.7064, 3821.915
501.1885, 3827.405
501.6706, 3834.978
502.1527, 3842.534
502.6348, 3847.816
503.1169, 3847.632
503.5991, 3848.792
504.0812, 3853.074
504.5633, 3859.365
505.0454, 3863.514
505.5275, 3864.758
506.0096, 3865.054
506.4918, 3864.987
506.9739, 3864.495
507.4560, 3864.131
507.9381, 3863.772
508.4202, 3863.817
508.9023, 3864.952
509.3845, 3867.091
509.8666, 3868.825
510.3487, 3869.851
510.8308, 3870.467
511.3129, 3871.583
511.7950, 3872.918
512.2772, 3873.083
512.7593, 3870.382
513.2414, 3866.641
513.7235, 3864.349
514.2056, 3863.457
514.6877, 3861.896
515.1699, 3856.847
515.6520, 3851.262
516.1341, 3848.013
516.6162, 3848.807
517.0983, 3849.747
517.5804, 3850.748
518.0626, 3850.791
518.5447, 3848.222
519.0268, 3839.977
519.5089, 3832.007
519.9910, 3826.144
520.4731, 3822.144
520.9553, 3816.396
521.4374, 3807.820
521.9195, 3799.258
522.4016, 3792.307
522.8837, 3787.278
523.3658, 3783.038
523.8480, 3780.099
524.3301, 3776.959
524.8122, 3771.192
525.2943, 3763.038
525.7764, 3755.286
526.2585, 3748.267
526.7407, 3742.635
527.2228, 3740.359
527.7049, 3740.890
528.1870, 3741.029
528.6691, 3738.892
529.1512, 3735.240
529.6334, 3730.783
530.1155, 3725.487
530.5976, 3719.754
531.0797, 3712.782
531.5618, 3705.817
532.0439, 3700.241
532.5261, 3697.500
533.0082, 3694.382
533.4903, 3689.633
533.9724, 3683.921
534.4545, 3678.599
534.9366, 3675.460
535.4188, 3670.836
535.9009, 3663.379
536.3830, 3653.207
536.8651, 3644.301
537.3472, 3636.671
537.8293, 3630.456
538.3115, 3626.583
538.7936, 3625.421
539.2757, 3621.969
539.7578, 3615.576
540.2399, 3608.229
540.7220, 3602.447
541.2042, 3598.065
541.6863, 3593.775
542.1684, 3589.284
542.6505, 3584.441
543.1326, 3579.405
543.6147, 3573.927
544.0969, 3566.949
544.5790, 3555.912
545.0611, 3544.507
545.5432, 3536.854
546.0253, 3533.567
546.5074, 3527.954
546.9896, 3514.069
547.4717, 3498.498
547.9538, 3486.612
548.4359, 3482.584
548.9180, 3477.850
549.4001, 3471.591
549.8823, 3464.288
550.3644, 3456.710
550.8465, 3448.757
551.3286, 3440.684
551.8107, 3432.830
552.2928, 3424.961
552.7750, 3415.369
553.2571, 3403.731
553.7392, 3391.801
554.2213, 3380.788
554.7034, 3370.552
555.1855, 3359.379
555.6677, 3346.965
556.1498, 3335.099
556.6319, 3326.974
557.1140, 3320.748
557.5961, 3312.622
558.0782, 3300.864
558.5604, 3287.872
559.0425, 3275.334
559.5246, 3263.103
560.0067, 3250.933
560.4888, 3240.005
560.9709, 3228.065
561.4531, 3212.856
561.9352, 3194.317
562.4173, 3179.412
562.8994, 3174.203
563.3815, 3168.715
563.8636, 3157.503
564.3458, 3137.769
564.8279, 3120.181
565.3100, 3105.248
565.7921, 3091.617
566.2742, 3078.023
566.7563, 3064.492
567.2385, 3050.083
567.7206, 3034.335
568.2027, 3018.053
568.6848, 3004.012
569.1669, 2991.751
569.6490, 2979.252
570.1312, 2964.468
570.6133, 2949.033
571.0954, 2936.087
571.5775, 2925.328
572.0596, 2913.922
572.5417, 2899.461
573.0239, 2883.675
573.5060, 2868.164
573.9881, 2852.911
574.4702, 2838.374
574.9523, 2824.616
575.4344, 2811.506
575.9166, 2799.070
576.3987, 2788.415
576.8808, 2776.623
577.3629, 2762.725
577.8450, 2747.465
578.3271, 2733.268
578.8093, 2720.683
579.2914, 2707.503
579.7735, 2692.199
580.2556, 2675.443
580.7377, 2661.546
581.2198, 2650.778
581.7020, 2640.274
582.1841, 2627.402
582.6662, 2613.041
583.1483, 2598.940
583.6304, 2585.496
584.1125, 2572.596
584.5947, 2561.148
585.0768, 2550.011
585.5589, 2537.474
586.0410, 2521.311
586.5231, 2505.611
587.0052, 2492.919
587.4874, 2482.155
587.9695, 2470.586
588.4516, 2456.327
588.9337, 2442.584
