##NAMES=Nekoite
##RRUFFID=R070475
##IDEAL CHEMISTRY=Ca_3_Si_6_O_15_&#183;7H_2_O
##LOCALITY=LaCotita mine, Inca de Oro, Chile
##OWNER=RRUFF
##SOURCE=Bob Jenkins
##DESCRIPTION=Globular to radial aggregates of thin white acicular crystals associated with colorless apophyllite
##STATUS=The identification of this mineral has been confirmed by single-crystal X-ray diffraction.
##URL=rruff.info/R070475
##MEASURED CHEMISTRY=Ca_3.00_Si_6.00_O_15_Â·5.83H_2_O ; H_2_O estimated by diference
145.8163, 1293.175
146.2984, 1313.754
146.7805, 1329.761
147.2626, 1342.250
147.7448, 1346.365
148.2269, 1354.735
148.7090, 1370.904
149.1911, 1393.705
149.6732, 1410.255
150.1554, 1413.730
150.6375, 1415.510
151.1196, 1423.030
151.6017, 1437.588
152.0838, 1456.707
152.5659, 1484.025
153.0481, 1520.992
153.5302, 1548.154
154.0123, 1555.349
154.4944, 1556.045
154.9765, 1562.967
155.4586, 1584.437
155.9408, 1605.829
156.4229, 1623.740
156.9050, 1631.285
157.3871, 1628.436
157.8692, 1624.029
158.3513, 1616.680
158.8335, 1603.267
159.3156, 1576.025
159.7977, 1548.575
160.2798, 1525.992
160.7619, 1507.962
161.2440, 1496.880
161.7262, 1498.629
162.2083, 1507.883
162.6904, 1513.250
163.1725, 1510.635
163.6546, 1502.863
164.1367, 1491.226
164.6189, 1472.930
165.1010, 1455.156
165.5831, 1439.905
166.0652, 1427.408
166.5473, 1418.764
167.0294, 1415.302
167.5116, 1415.604
167.9937, 1418.697
168.4758, 1428.698
168.9579, 1437.141
169.4400, 1437.524
169.9221, 1430.529
170.4043, 1422.324
170.8864, 1414.342
171.3685, 1408.045
171.8506, 1405.270
172.3327, 1411.319
172.8148, 1418.400
173.2970, 1418.680
173.7791, 1411.988
174.2612, 1404.546
174.7433, 1403.485
175.2254, 1405.338
175.7076, 1403.307
176.1897, 1388.159
176.6718, 1370.058
177.1539, 1362.672
177.6360, 1367.680
178.1181, 1376.573
178.6003, 1383.112
179.0824, 1387.234
179.5645, 1388.491
180.0466, 1384.699
180.5287, 1378.332
181.0108, 1374.136
181.4930, 1372.851
181.9751, 1372.679
182.4572, 1371.140
182.9393, 1368.498
183.4214, 1366.446
183.9035, 1366.730
184.3857, 1368.413
184.8678, 1368.959
185.3499, 1367.792
185.8320, 1365.663
186.3141, 1364.834
186.7962, 1365.104
187.2784, 1362.846
187.7605, 1352.129
188.2426, 1335.566
188.7247, 1325.004
189.2068, 1324.092
189.6889, 1329.239
190.1711, 1334.400
190.6532, 1339.753
191.1353, 1341.572
191.6174, 1331.871
192.0995, 1312.666
192.5816, 1303.305
193.0638, 1313.422
193.5459, 1335.226
194.0280, 1340.497
194.5101, 1327.184
194.9922, 1309.613
195.4743, 1303.649
195.9565, 1309.217
196.4386, 1310.964
196.9207, 1302.059
197.4028, 1285.070
197.8849, 1276.995
198.3671, 1279.415
198.8492, 1285.626
199.3313, 1287.457
199.8134, 1284.455
200.2955, 1281.811
200.7776, 1282.292
201.2598, 1285.587
201.7419, 1283.389
202.2240, 1273.783
202.7061, 1262.324
203.1882, 1257.495
203.6703, 1260.354
204.1525, 1264.122
204.6346, 1266.479
205.1167, 1267.334
205.5988, 1268.237
206.0809, 1270.049
206.5630, 1270.756
207.0452, 1264.721
207.5273, 1248.600
208.0094, 1237.398
208.4915, 1239.737
208.9736, 1258.782
209.4557, 1272.555
209.9379, 1281.208
210.4200, 1284.356
210.9021, 1279.651
211.3842, 1264.206
211.8663, 1248.675
212.3484, 1238.439
212.8306, 1234.578
213.3127, 1231.323
213.7948, 1227.999
214.2769, 1225.434
214.7590, 1226.861
215.2411, 1234.817
215.7233, 1241.317
216.2054, 1240.794
216.6875, 1229.980
217.1696, 1223.379
217.6517, 1222.474
218.1338, 1226.219
218.6160, 1231.406
219.0981, 1239.572
219.5802, 1246.512
220.0623, 1249.182
220.5444, 1245.769
221.0265, 1242.958
221.5087, 1240.622
221.9908, 1239.224
222.4729, 1241.237
222.9550, 1247.608
223.4371, 1256.008
223.9192, 1265.669
224.4014, 1278.157
224.8835, 1287.511
225.3656, 1292.039
225.8477, 1292.531
226.3298, 1294.474
226.8119, 1298.298
227.2941, 1302.979
227.7762, 1308.095
228.2583, 1314.325
228.7404, 1318.773
229.2225, 1318.495
229.7046, 1314.585
230.1868, 1321.436
230.6689, 1346.062
231.1510, 1372.904
231.6331, 1389.129
232.1152, 1387.669
232.5974, 1389.914
233.0795, 1401.262
233.5616, 1421.115
234.0437, 1433.356
234.5258, 1436.034
235.0079, 1433.563
235.4901, 1428.781
235.9722, 1417.774
236.4543, 1412.509
236.9364, 1417.309
237.4185, 1432.234
237.9006, 1440.879
238.3828, 1440.065
238.8649, 1436.281
239.3470, 1435.598
239.8291, 1440.310
240.3112, 1443.685
240.7933, 1443.549
241.2755, 1439.669
241.7576, 1439.588
242.2397, 1446.903
242.7218, 1454.388
243.2039, 1454.386
243.6860, 1442.436
244.1682, 1431.351
244.6503, 1424.218
245.1324, 1421.242
245.6145, 1416.432
246.0966, 1408.731
246.5787, 1400.269
247.0609, 1393.194
247.5430, 1387.683
248.0251, 1383.327
248.5072, 1380.614
248.9893, 1379.763
249.4714, 1376.751
249.9536, 1369.917
250.4357, 1362.522
250.9178, 1358.055
251.3999, 1357.100
251.8820, 1358.099
252.3641, 1361.879
252.8463, 1368.840
253.3284, 1371.599
253.8105, 1369.272
254.2926, 1363.692
254.7747, 1356.108
255.2568, 1343.954
255.7390, 1335.240
256.2211, 1332.465
256.7032, 1336.036
257.1853, 1338.811
257.6674, 1339.903
258.1495, 1341.166
258.6317, 1345.518
259.1138, 1355.828
259.5959, 1362.336
260.0780, 1361.867
260.5601, 1354.036
261.0422, 1346.708
261.5244, 1339.410
262.0065, 1333.180
262.4886, 1329.462
262.9707, 1328.844
263.4528, 1328.987
263.9349, 1328.534
264.4171, 1327.337
264.8992, 1333.076
265.3813, 1351.255
265.8634, 1368.569
266.3455, 1368.005
266.8276, 1342.580
267.3098, 1321.141
267.7919, 1310.700
268.2740, 1311.233
268.7561, 1314.583
269.2382, 1322.196
269.7203, 1330.051
270.2025, 1332.658
270.6846, 1327.757
271.1667, 1326.649
271.6488, 1333.891
272.1309, 1348.740
272.6130, 1356.834
273.0952, 1356.475
273.5773, 1352.996
274.0594, 1351.766
274.5415, 1353.144
275.0236, 1354.719
275.5057, 1355.621
275.9879, 1356.110
276.4700, 1359.018
276.9521, 1365.305
277.4342, 1371.460
277.9163, 1372.261
278.3984, 1366.634
278.8806, 1366.223
279.3627, 1376.048
279.8448, 1393.500
280.3269, 1403.303
280.8090, 1403.880
281.2911, 1402.090
281.7733, 1403.715
282.2554, 1408.753
282.7375, 1417.046
283.2196, 1431.106
283.7017, 1447.736
284.1838, 1452.749
284.6660, 1444.514
285.1481, 1433.741
285.6302, 1430.486
286.1123, 1434.321
286.5944, 1436.154
287.0765, 1432.534
287.5587, 1426.435
288.0408, 1428.531
288.5229, 1439.724
289.0050, 1449.534
289.4871, 1446.834
289.9692, 1433.726
290.4514, 1424.175
290.9335, 1422.245
291.4156, 1424.387
291.8977, 1421.236
292.3798, 1412.825
292.8619, 1407.036
293.3441, 1413.358
293.8262, 1428.305
294.3083, 1438.331
294.7904, 1440.828
295.2726, 1437.636
295.7547, 1428.976
296.2368, 1415.573
296.7189, 1404.825
297.2010, 1404.961
297.6831, 1411.824
298.1653, 1415.160
298.6474, 1412.719
299.1295, 1407.182
299.6116, 1400.196
300.0937, 1392.468
300.5758, 1387.431
301.0580, 1389.627
301.5401, 1395.575
302.0222, 1399.466
302.5043, 1400.365
302.9864, 1399.109
303.4685, 1396.434
303.9507, 1392.303
304.4328, 1386.663
304.9149, 1377.350
305.3970, 1367.379
305.8791, 1361.268
306.3612, 1360.785
306.8434, 1359.846
307.3255, 1352.046
307.8076, 1339.678
308.2897, 1327.856
308.7718, 1321.059
309.2539, 1315.112
309.7361, 1304.956
310.2182, 1289.106
310.7003, 1275.073
311.1824, 1268.559
311.6645, 1267.454
312.1466, 1268.140
312.6288, 1272.871
313.1109, 1276.138
313.5930, 1273.060
314.0751, 1262.719
314.5572, 1252.733
315.0393, 1247.783
315.5215, 1245.366
316.0036, 1242.303
316.4857, 1236.703
316.9678, 1230.820
317.4499, 1225.409
317.9320, 1220.510
318.4142, 1216.673
318.8963, 1216.015
319.3784, 1215.729
319.8605, 1213.095
320.3426, 1202.450
320.8247, 1194.042
321.3069, 1192.615
321.7890, 1197.757
322.2711, 1201.691
322.7532, 1202.164
323.2353, 1200.916
323.7174, 1199.203
324.1996, 1193.344
324.6817, 1191.198
325.1638, 1196.936
325.6459, 1209.073
326.1280, 1217.023
326.6101, 1213.950
327.0923, 1210.383
327.5744, 1212.040
328.0565, 1226.722
328.5386, 1237.526
329.0207, 1243.645
329.5028, 1245.577
329.9850, 1245.001
330.4671, 1237.730
330.9492, 1232.084
331.4313, 1231.509
331.9134, 1237.330
332.3955, 1246.151
332.8777, 1261.536
333.3598, 1278.909
333.8419, 1288.204
334.3240, 1284.844
334.8061, 1280.417
335.2882, 1278.211
335.7704, 1277.144
336.2525, 1283.383
336.7346, 1301.341
337.2167, 1322.625
337.6988, 1332.959
338.1809, 1328.444
338.6631, 1324.658
339.1452, 1327.378
339.6273, 1336.914
340.1094, 1343.020
340.5915, 1344.837
341.0736, 1345.116
341.5558, 1348.028
342.0379, 1354.280
342.5200, 1357.178
343.0021, 1354.217
343.4842, 1346.440
343.9663, 1338.293
344.4485, 1329.501
344.9306, 1322.240
345.4127, 1320.000
345.8948, 1322.198
346.3769, 1322.402
346.8590, 1317.583
347.3412, 1311.383
347.8233, 1315.234
348.3054, 1328.861
348.7875, 1339.145
349.2696, 1334.171
349.7517, 1317.701
350.2339, 1298.965
350.7160, 1277.052
351.1981, 1258.719
351.6802, 1256.965
352.1623, 1268.736
352.6444, 1278.753
353.1266, 1273.107
353.6087, 1261.109
354.0908, 1258.584
354.5729, 1269.779
355.0550, 1280.604
355.5371, 1275.715
356.0193, 1260.556
356.5014, 1247.448
356.9835, 1245.929
357.4656, 1247.158
357.9477, 1242.711
358.4298, 1231.567
358.9120, 1221.505
359.3941, 1219.673
359.8762, 1221.102
360.3583, 1219.432
360.8404, 1205.626
361.3225, 1193.893
361.8047, 1193.506
362.2868, 1204.037
362.7689, 1212.342
363.2510, 1211.540
363.7331, 1207.347
364.2152, 1204.353
364.6974, 1206.799
365.1795, 1207.144
365.6616, 1201.888
366.1437, 1192.417
366.6258, 1185.538
367.1079, 1183.501
367.5901, 1183.513
368.0722, 1184.348
368.5543, 1187.739
369.0364, 1189.315
369.5185, 1187.921
370.0006, 1184.736
370.4828, 1182.387
370.9649, 1182.063
371.4470, 1181.297
371.9291, 1179.355
372.4112, 1176.208
372.8933, 1171.229
373.3755, 1160.243
373.8576, 1150.693
374.3397, 1154.989
374.8218, 1181.362
375.3039, 1201.639
375.7861, 1206.834
376.2682, 1197.259
376.7503, 1189.560
377.2324, 1182.336
377.7145, 1180.141
378.1967, 1189.939
378.6788, 1213.258
379.1609, 1232.937
379.6430, 1246.136
380.1251, 1253.235
380.6072, 1252.970
381.0894, 1244.358
381.5715, 1238.623
382.0536, 1244.936
382.5357, 1261.773
383.0178, 1280.955
383.4999, 1303.305
383.9821, 1323.956
384.4642, 1332.330
384.9463, 1330.613
385.4284, 1331.532
385.9105, 1342.073
386.3926, 1359.848
386.8748, 1383.508
387.3569, 1414.415
387.8390, 1440.865
388.3211, 1444.475
388.8032, 1435.944
389.2853, 1436.589
389.7675, 1466.325
390.2496, 1501.428
390.7317, 1520.151
391.2138, 1523.140
391.6959, 1525.086
392.1780, 1533.697
392.6602, 1546.102
393.1423, 1559.426
393.6244, 1575.269
394.1065, 1589.140
394.5886, 1598.061
395.0707, 1603.285
395.5529, 1609.447
396.0350, 1624.924
396.5171, 1636.676
396.9992, 1636.329
397.4813, 1614.141
397.9634, 1597.566
398.4456, 1594.676
398.9277, 1598.945
399.4098, 1598.960
399.8919, 1591.190
400.3740, 1581.788
400.8561, 1573.250
401.3383, 1566.938
401.8204, 1553.006
402.3025, 1524.450
402.7846, 1494.165
403.2667, 1475.484
403.7488, 1475.520
404.2310, 1471.674
404.7131, 1459.923
405.1952, 1441.385
405.6773, 1419.635
406.1594, 1391.107
406.6415, 1368.707
407.1237, 1365.487
407.6058, 1383.634
408.0879, 1390.382
408.5700, 1380.307
409.0521, 1361.652
409.5342, 1349.894
410.0164, 1345.003
410.4985, 1342.238
410.9806, 1340.521
411.4627, 1339.183
411.9448, 1335.476
412.4269, 1329.130
412.9091, 1321.947
413.3912, 1312.926
413.8733, 1304.396
414.3554, 1303.400
414.8375, 1319.351
415.3196, 1338.694
415.8018, 1344.306
416.2839, 1337.455
416.7660, 1328.021
417.2481, 1323.241
417.7302, 1319.297
418.2123, 1310.877
418.6945, 1292.005
419.1766, 1278.105
419.6587, 1285.932
420.1408, 1305.590
420.6229, 1314.746
421.1050, 1288.385
421.5872, 1262.666
422.0693, 1258.307
422.5514, 1283.205
423.0335, 1302.219
423.5156, 1302.285
423.9977, 1295.115
424.4799, 1293.229
424.9620, 1303.848
425.4441, 1313.501
425.9262, 1320.630
426.4083, 1325.188
426.8904, 1327.162
427.3726, 1323.387
427.8547, 1320.385
428.3368, 1322.102
428.8189, 1330.173
429.3010, 1339.314
429.7831, 1350.025
430.2653, 1361.251
430.7474, 1371.334
431.2295, 1380.743
431.7116, 1387.146
432.1937, 1388.981
432.6758, 1386.442
433.1580, 1382.966
433.6401, 1378.040
434.1222, 1374.172
434.6043, 1375.785
435.0864, 1381.911
435.5685, 1385.015
436.0507, 1380.515
436.5328, 1373.778
437.0149, 1378.798
437.4970, 1393.605
437.9791, 1402.703
438.4612, 1386.566
438.9434, 1360.002
439.4255, 1347.421
439.9076, 1356.191
440.3897, 1368.069
440.8718, 1369.263
441.3539, 1362.510
441.8361, 1352.779
442.3182, 1335.522
442.8003, 1321.368
443.2824, 1319.796
443.7645, 1331.598
444.2466, 1339.113
444.7288, 1331.472
445.2109, 1318.970
445.6930, 1310.229
446.1751, 1311.818
446.6572, 1311.453
447.1393, 1304.901
447.6215, 1294.179
448.1036, 1288.148
448.5857, 1293.895
449.0678, 1297.062
449.5499, 1290.309
450.0320, 1267.144
450.5142, 1256.549
450.9963, 1265.065
451.4784, 1280.154
451.9605, 1282.990
452.4426, 1268.686
452.9247, 1259.939
453.4069, 1263.924
453.8890, 1278.041
454.3711, 1288.735
454.8532, 1296.297
455.3353, 1298.979
455.8174, 1291.369
456.2996, 1275.762
456.7817, 1268.247
457.2638, 1272.312
457.7459, 1281.454
458.2281, 1288.298
458.7102, 1292.782
459.1923, 1295.006
459.6744, 1293.102
460.1565, 1289.844
460.6386, 1288.617
461.1208, 1289.549
461.6029, 1292.046
462.0850, 1297.959
462.5671, 1304.454
463.0492, 1308.047
463.5313, 1305.143
464.0135, 1302.402
464.4956, 1306.298
464.9777, 1313.405
465.4598, 1312.936
465.9419, 1293.025
466.4240, 1272.005
466.9062, 1258.041
467.3883, 1252.795
467.8704, 1251.599
468.3525, 1260.123
468.8346, 1269.498
469.3167, 1269.941
469.7989, 1255.023
470.2810, 1242.002
470.7631, 1234.229
471.2452, 1230.927
471.7273, 1225.883
472.2094, 1218.208
472.6916, 1211.006
473.1737, 1205.527
473.6558, 1201.708
474.1379, 1202.659
474.6200, 1209.911
475.1021, 1218.972
475.5843, 1222.714
476.0664, 1221.619
476.5485, 1219.907
477.0306, 1218.886
477.5127, 1218.552
477.9948, 1218.395
478.4770, 1218.496
478.9591, 1220.511
479.4412, 1229.084
479.9233, 1239.268
480.4054, 1243.370
480.8875, 1237.355
481.3697, 1230.235
481.8518, 1227.510
482.3339, 1227.935
482.8160, 1229.010
483.2981, 1232.458
483.7802, 1234.009
484.2624, 1229.953
484.7445, 1219.450
485.2266, 1212.691
485.7087, 1216.468
486.1908, 1221.769
486.6729, 1221.505
487.1551, 1207.263
487.6372, 1199.568
488.1193, 1202.390
488.6014, 1211.970
489.0835, 1218.272
489.5656, 1220.340
490.0478, 1221.354
490.5299, 1223.642
491.0120, 1227.482
491.4941, 1223.212
491.9762, 1208.594
492.4583, 1192.850
492.9405, 1185.661
493.4226, 1186.445
493.9047, 1190.397
494.3868, 1197.621
494.8689, 1205.797
495.3510, 1211.583
495.8332, 1214.996
496.3153, 1216.412
496.7974, 1212.414
497.2795, 1208.204
497.7616, 1211.302
498.2437, 1222.831
498.7259, 1235.059
499.2080, 1246.926
499.6901, 1255.277
500.1722, 1256.478
500.6543, 1241.139
501.1364, 1227.115
501.6186, 1221.440
502.1007, 1222.259
502.5828, 1221.773
503.0649, 1215.012
503.5470, 1209.855
504.0291, 1210.438
504.5113, 1219.781
504.9934, 1224.237
505.4755, 1218.283
505.9576, 1212.387
506.4397, 1219.705
506.9218, 1246.305
507.4040, 1266.830
507.8861, 1275.743
508.3682, 1275.839
508.8503, 1274.583
509.3324, 1271.374
509.8145, 1272.343
510.2967, 1284.028
510.7788, 1303.451
511.2609, 1319.479
511.7430, 1331.809
512.2252, 1338.904
512.7073, 1333.926
513.1894, 1322.751
513.6715, 1318.284
514.1536, 1328.463
514.6357, 1342.949
515.1179, 1354.663
515.6000, 1363.766
516.0821, 1370.618
516.5642, 1373.989
517.0463, 1376.356
517.5284, 1379.089
518.0106, 1382.364
518.4927, 1385.995
518.9748, 1389.203
519.4569, 1393.091
519.9390, 1398.807
520.4211, 1408.366
520.9033, 1417.041
521.3854, 1425.521
521.8675, 1432.801
522.3496, 1433.946
522.8317, 1426.060
523.3138, 1419.127
523.7960, 1418.850
524.2781, 1425.430
524.7602, 1428.986
525.2423, 1429.670
525.7244, 1426.995
526.2065, 1419.234
526.6887, 1407.259
527.1708, 1394.452
527.6529, 1380.107
528.1350, 1368.031
528.6171, 1365.474
529.0992, 1370.129
529.5814, 1373.594
530.0635, 1370.591
530.5456, 1364.745
531.0277, 1357.843
531.5098, 1349.865
531.9919, 1344.979
532.4741, 1352.581
532.9562, 1360.088
533.4383, 1356.688
533.9204, 1323.496
534.4025, 1298.888
534.8846, 1292.695
535.3668, 1298.586
535.8489, 1301.589
536.3310, 1302.109
536.8131, 1299.210
537.2952, 1291.352
537.7773, 1278.459
538.2595, 1268.564
538.7416, 1260.891
539.2237, 1258.109
539.7058, 1266.810
540.1879, 1286.194
540.6700, 1293.425
541.1522, 1283.589
541.6343, 1266.010
542.1164, 1253.120
542.5985, 1244.299
543.0806, 1237.185
543.5627, 1227.176
544.0449, 1220.383
544.5270, 1227.339
545.0091, 1246.181
545.4912, 1261.901
545.9733, 1265.458
546.4554, 1262.486
546.9376, 1256.448
547.4197, 1245.622
547.9018, 1237.996
548.3839, 1240.093
548.8660, 1245.266
549.3481, 1244.395
549.8303, 1228.578
550.3124, 1217.271
550.7945, 1214.544
551.2766, 1218.985
551.7587, 1222.754
552.2408, 1225.980
552.7230, 1228.276
553.2051, 1228.330
553.6872, 1225.965
554.1693, 1228.772
554.6514, 1237.816
555.1335, 1247.656
555.6157, 1252.126
556.0978, 1252.083
556.5799, 1250.498
557.0620, 1247.619
557.5441, 1244.347
558.0262, 1242.841
558.5084, 1242.030
558.9905, 1238.688
559.4726, 1225.386
559.9547, 1213.390
560.4368, 1210.399
560.9189, 1217.032
561.4011, 1228.330
561.8832, 1251.731
562.3653, 1273.571
562.8474, 1284.222
563.3295, 1271.307
563.8116, 1262.272
564.2938, 1256.519
564.7759, 1254.954
565.2580, 1260.044
565.7401, 1274.949
566.2222, 1287.910
566.7043, 1294.788
567.1865, 1297.359
567.6686, 1305.573
568.1507, 1319.983
568.6328, 1334.532
569.1149, 1347.686
569.5970, 1357.874
570.0792, 1356.362
570.5613, 1340.461
571.0434, 1328.632
571.5255, 1342.685
572.0076, 1371.298
572.4897, 1396.951
572.9719, 1415.279
573.4540, 1427.066
573.9361, 1426.766
574.4182, 1419.624
574.9003, 1419.761
575.3824, 1436.988
575.8646, 1456.713
576.3467, 1474.862
576.8288, 1491.612
577.3109, 1502.316
577.7930, 1500.796
578.2751, 1500.304
578.7573, 1512.067
579.2394, 1540.705
579.7215, 1559.500
580.2036, 1564.566
580.6857, 1563.912
581.1678, 1570.153
581.6500, 1582.799
582.1321, 1596.407
582.6142, 1609.732
583.0963, 1622.275
583.5784, 1633.242
584.0605, 1642.766
584.5427, 1651.721
585.0248, 1666.672
585.5069, 1677.502
585.9890, 1670.743
586.4711, 1642.580
586.9532, 1620.777
587.4354, 1621.558
587.9175, 1631.138
588.3996, 1637.641
588.8817, 1643.128
589.3638, 1640.126
589.8459, 1623.255
590.3281, 1599.358
590.8102, 1581.835
591.2923, 1573.953
591.7744, 1564.266
592.2565, 1547.622
592.7386, 1526.291
593.2208, 1515.501
593.7029, 1516.380
594.1850, 1516.203
594.6671, 1503.513
595.1492, 1482.809
595.6313, 1467.630
596.1135, 1459.760
596.5956, 1451.353
597.0777, 1432.033
597.5598, 1408.403
598.0419, 1390.648
598.5240, 1385.427
599.0062, 1381.469
599.4883, 1372.578
599.9704, 1361.162
600.4525, 1352.637
600.9346, 1351.910
601.4167, 1350.476
601.8989, 1345.524
602.3810, 1337.201
602.8631, 1329.380
603.3452, 1321.405
603.8273, 1314.958
604.3094, 1311.675
604.7916, 1311.898
605.2737, 1310.406
605.7558, 1306.809
606.2379, 1302.161
606.7200, 1297.958
607.2021, 1293.764
607.6843, 1287.357
608.1664, 1275.766
608.6485, 1265.795
609.1306, 1267.342
609.6127, 1276.468
610.0948, 1283.180
610.5770, 1279.980
611.0591, 1275.556
611.5412, 1274.765
612.0233, 1277.682
612.5054, 1280.206
612.9875, 1284.590
613.4697, 1285.712
613.9518, 1279.549
614.4339, 1260.652
614.9160, 1252.232
615.3981, 1257.805
615.8802, 1269.010
616.3624, 1278.527
616.8445, 1286.639
617.3266, 1285.751
617.8087, 1271.219
618.2908, 1252.777
618.7729, 1248.081
619.2551, 1254.887
619.7372, 1263.370
620.2193, 1268.707
620.7014, 1273.440
621.1835, 1282.712
621.6656, 1295.119
622.1478, 1301.499
622.6299, 1290.133
623.1120, 1276.798
623.5941, 1271.989
624.0762, 1279.715
624.5583, 1286.162
625.0405, 1290.991
625.5226, 1293.335
626.0047, 1291.690
626.4868, 1283.208
626.9689, 1279.124
627.4510, 1281.767
627.9332, 1287.616
628.4153, 1289.492
628.8974, 1287.450
629.3795, 1286.940
629.8616, 1290.945
630.3438, 1296.791
630.8259, 1299.363
631.3080, 1299.160
631.7901, 1298.936
632.2722, 1301.453
632.7543, 1303.995
633.2365, 1302.054
633.7186, 1294.720
634.2007, 1294.170
634.6828, 1314.680
635.1649, 1337.414
635.6470, 1347.634
636.1292, 1331.865
636.6113, 1325.259
637.0934, 1330.755
637.5755, 1343.075
638.0576, 1357.183
638.5397, 1374.936
639.0219, 1381.280
639.5040, 1363.048
639.9861, 1342.884
640.4682, 1393.257
