##NAMES=Nelenite
##RRUFFID=R120150
##IDEAL CHEMISTRY=Mn^2+^_16_As^3+^_3_Si_12_O_36_(OH)_17_
##LOCALITY=Trotter mine, Franklin, New Jersey, USA
##OWNER=RRUFF
##SOURCE=Rock Currier
##DESCRIPTION=Massive dark brown to pale brown grains
##STATUS=The identification of this mineral has been confirmed only by single crystal X-ray diffraction.
##URL=rruff.info/R120150
126.9062, 1982.369
127.3883, 1985.135
127.8704, 1990.030
128.3525, 1995.398
128.8347, 1998.836
129.3168, 2000.386
129.7989, 2000.859
130.2810, 2000.941
130.7631, 2000.520
131.2452, 1999.043
131.7274, 1995.951
132.2095, 1991.942
132.6916, 1988.775
133.1737, 1986.465
133.6558, 1984.947
134.1379, 1984.221
134.6201, 1984.298
135.1022, 1984.768
135.5843, 1985.532
136.0664, 1986.601
136.5485, 1987.936
137.0306, 1989.457
137.5128, 1991.468
137.9949, 1994.507
138.4770, 1998.740
138.9591, 2003.242
139.4412, 2008.106
139.9233, 2013.412
140.4055, 2016.976
140.8876, 2018.318
141.3697, 2018.334
141.8518, 2018.422
142.3339, 2018.481
142.8160, 2018.759
143.2982, 2019.227
143.7803, 2019.590
144.2624, 2021.152
144.7445, 2024.486
145.2266, 2028.857
145.7087, 2032.471
146.1909, 2035.417
146.6730, 2037.619
147.1551, 2039.020
147.6372, 2039.035
148.1193, 2039.269
148.6014, 2039.679
149.0836, 2040.327
149.5657, 2041.421
150.0478, 2042.914
150.5299, 2044.872
151.0120, 2047.340
151.4941, 2051.132
151.9763, 2054.406
152.4584, 2056.630
152.9405, 2058.087
153.4226, 2060.330
153.9047, 2064.292
154.3868, 2068.512
154.8690, 2072.191
155.3511, 2075.605
155.8332, 2078.068
156.3153, 2078.778
156.7974, 2078.024
157.2795, 2078.097
157.7617, 2080.141
158.2438, 2082.880
158.7259, 2085.400
159.2080, 2087.152
159.6901, 2089.039
160.1722, 2091.330
160.6544, 2094.040
161.1365, 2097.022
161.6186, 2100.255
162.1007, 2103.702
162.5828, 2107.403
163.0649, 2112.174
163.5471, 2116.458
164.0292, 2119.094
164.5113, 2120.027
164.9934, 2121.319
165.4755, 2124.559
165.9576, 2128.580
166.4398, 2131.897
166.9219, 2133.343
167.4040, 2134.331
167.8861, 2135.597
168.3682, 2137.168
168.8503, 2139.277
169.3325, 2142.853
169.8146, 2147.015
170.2967, 2150.291
170.7788, 2151.187
171.2609, 2151.465
171.7430, 2152.856
172.2252, 2155.601
172.7073, 2158.420
173.1894, 2159.917
173.6715, 2160.706
174.1536, 2162.100
174.6357, 2165.217
175.1179, 2169.109
175.6000, 2172.662
176.0821, 2175.729
176.5642, 2178.600
177.0463, 2181.546
177.5284, 2184.532
178.0106, 2187.403
178.4927, 2190.288
178.9748, 2192.983
179.4569, 2194.794
179.9390, 2195.408
180.4211, 2196.214
180.9033, 2199.066
181.3854, 2203.699
181.8675, 2208.686
182.3496, 2213.366
182.8317, 2217.801
183.3138, 2222.325
183.7960, 2226.878
184.2781, 2231.655
184.7602, 2237.106
185.2423, 2243.160
185.7244, 2248.844
186.2065, 2253.322
186.6887, 2256.903
187.1708, 2260.935
187.6529, 2265.647
188.1350, 2270.603
188.6171, 2274.821
189.0992, 2278.349
189.5814, 2282.029
190.0635, 2286.509
190.5456, 2291.734
191.0277, 2296.899
191.5098, 2301.995
191.9919, 2306.944
192.4741, 2311.316
192.9562, 2315.065
193.4383, 2318.906
193.9204, 2323.263
194.4025, 2328.117
194.8846, 2333.208
195.3668, 2338.513
195.8489, 2344.017
196.3310, 2349.784
196.8131, 2355.851
197.2952, 2361.808
197.7773, 2367.175
198.2595, 2371.889
198.7416, 2377.494
199.2237, 2384.269
199.7058, 2391.914
200.1879, 2399.541
200.6700, 2407.216
201.1522, 2414.981
201.6343, 2423.010
202.1164, 2431.378
202.5985, 2439.431
203.0806, 2447.058
203.5627, 2454.267
204.0449, 2460.953
204.5270, 2467.066
205.0091, 2472.763
205.4912, 2478.438
205.9733, 2484.358
206.4554, 2488.611
206.9376, 2491.123
207.4197, 2491.758
207.9018, 2489.848
208.3839, 2484.977
208.8660, 2478.628
209.3481, 2471.709
209.8303, 2464.099
210.3124, 2456.457
210.7945, 2448.875
211.2766, 2441.381
211.7587, 2433.532
212.2408, 2424.867
212.7230, 2416.819
213.2051, 2410.351
213.6872, 2405.798
214.1693, 2401.488
214.6514, 2396.983
215.1335, 2392.530
215.6157, 2389.688
216.0978, 2388.800
216.5799, 2388.712
217.0620, 2388.851
217.5441, 2389.533
218.0262, 2389.325
218.5084, 2387.702
218.9905, 2385.034
219.4726, 2383.281
219.9547, 2382.615
220.4368, 2382.567
220.9189, 2382.877
221.4011, 2383.592
221.8832, 2384.730
222.3653, 2386.591
222.8474, 2388.931
223.3295, 2390.627
223.8116, 2391.434
224.2938, 2391.967
224.7759, 2392.454
225.2580, 2392.505
225.7401, 2393.460
226.2222, 2395.748
226.7043, 2398.980
227.1865, 2401.776
227.6686, 2404.295
228.1507, 2406.019
228.6328, 2406.454
229.1149, 2404.835
229.5970, 2403.656
230.0792, 2402.801
230.5613, 2402.517
231.0434, 2403.957
231.5255, 2408.116
232.0076, 2412.586
232.4897, 2416.120
232.9719, 2418.660
233.4540, 2420.462
233.9361, 2421.322
234.4182, 2421.512
234.9003, 2421.927
235.3824, 2422.551
235.8646, 2423.430
236.3467, 2424.562
236.8288, 2425.853
237.3109, 2427.534
237.7930, 2429.615
238.2751, 2432.038
238.7573, 2434.686
239.2394, 2437.933
239.7215, 2440.764
240.2036, 2442.597
240.6857, 2442.644
241.1678, 2443.432
241.6500, 2445.391
242.1321, 2447.937
242.6142, 2449.560
243.0963, 2449.636
243.5784, 2449.693
244.0605, 2450.420
244.5427, 2452.192
245.0248, 2453.708
245.5069, 2454.892
245.9890, 2455.891
246.4711, 2457.085
246.9532, 2458.976
247.4354, 2460.317
247.9175, 2460.461
248.3996, 2458.831
248.8817, 2458.043
249.3638, 2458.421
249.8459, 2459.520
250.3281, 2460.522
250.8102, 2461.373
251.2923, 2462.298
251.7744, 2463.367
252.2565, 2464.548
252.7386, 2465.979
253.2208, 2467.366
253.7029, 2469.222
254.1850, 2472.630
254.6671, 2478.708
255.1492, 2484.076
255.6313, 2487.228
256.1135, 2487.541
256.5956, 2489.697
257.0777, 2494.640
257.5598, 2500.391
258.0419, 2504.087
258.5240, 2504.589
259.0062, 2505.444
259.4883, 2507.802
259.9704, 2511.752
260.4525, 2515.086
260.9346, 2517.683
261.4167, 2519.781
261.8989, 2521.599
262.3810, 2523.050
262.8631, 2524.519
263.3452, 2526.079
263.8273, 2527.789
264.3094, 2529.797
264.7916, 2532.332
265.2737, 2534.968
265.7558, 2537.203
266.2379, 2538.755
266.7200, 2540.956
267.2021, 2544.432
267.6843, 2548.948
268.1664, 2552.200
268.6485, 2553.784
269.1306, 2554.879
269.6127, 2556.359
270.0948, 2558.187
270.5770, 2560.424
271.0591, 2563.333
271.5412, 2566.560
272.0233, 2568.337
272.5054, 2568.092
272.9875, 2567.756
273.4697, 2568.892
273.9518, 2571.785
274.4339, 2574.268
274.9160, 2576.093
275.3981, 2577.352
275.8802, 2578.346
276.3624, 2579.093
276.8445, 2579.535
277.3266, 2579.379
277.8087, 2578.550
278.2908, 2578.587
278.7729, 2579.817
279.2551, 2581.777
279.7372, 2583.563
280.2193, 2585.251
280.7014, 2586.361
281.1835, 2586.168
281.6656, 2584.712
282.1478, 2584.676
282.6299, 2586.539
283.1120, 2589.108
283.5941, 2590.079
284.0762, 2589.348
284.5583, 2589.148
285.0405, 2590.731
285.5226, 2593.908
286.0047, 2597.040
286.4868, 2600.182
286.9689, 2603.046
287.4510, 2605.147
287.9332, 2606.505
288.4153, 2607.658
288.8974, 2608.618
289.3795, 2609.498
289.8616, 2610.902
290.3438, 2612.915
290.8259, 2614.808
291.3080, 2615.366
291.7901, 2614.876
292.2722, 2615.157
292.7543, 2617.197
293.2365, 2620.200
293.7186, 2622.156
294.2007, 2623.032
294.6828, 2623.891
295.1649, 2626.202
295.6470, 2629.353
296.1292, 2631.263
296.6113, 2630.787
297.0934, 2629.454
297.5755, 2629.837
298.0576, 2631.813
298.5397, 2633.968
299.0219, 2634.789
299.5040, 2635.101
299.9861, 2636.876
300.4682, 2641.045
300.9503, 2645.719
301.4324, 2648.217
301.9146, 2649.089
302.3967, 2650.679
302.8788, 2655.685
303.3609, 2661.933
303.8430, 2665.851
304.3251, 2666.446
304.8073, 2666.618
305.2894, 2669.019
305.7715, 2673.059
306.2536, 2677.401
306.7357, 2681.372
307.2178, 2685.197
307.7000, 2688.870
308.1821, 2692.292
308.6642, 2696.128
309.1463, 2701.433
309.6284, 2707.321
310.1105, 2712.505
310.5927, 2715.305
311.0748, 2717.925
311.5569, 2722.210
312.0390, 2728.193
312.5211, 2734.090
313.0032, 2738.956
313.4854, 2743.298
313.9675, 2747.590
314.4496, 2751.573
314.9317, 2755.980
315.4138, 2761.264
315.8959, 2767.380
316.3781, 2774.035
316.8602, 2782.397
317.3423, 2790.490
317.8244, 2796.714
318.3065, 2799.131
318.7886, 2801.932
319.2708, 2806.276
319.7529, 2811.996
320.2350, 2818.647
320.7171, 2826.347
321.1992, 2834.642
321.6813, 2843.464
322.1635, 2853.388
322.6456, 2862.384
323.1277, 2869.486
323.6098, 2875.462
324.0919, 2881.633
324.5740, 2887.716
325.0562, 2894.354
325.5383, 2901.906
326.0204, 2910.680
326.5025, 2919.180
326.9846, 2926.519
327.4667, 2933.885
327.9489, 2942.653
328.4310, 2955.387
328.9131, 2966.780
329.3952, 2975.984
329.8773, 2982.988
330.3594, 2989.372
330.8416, 2994.690
331.3237, 2999.723
331.8058, 3005.130
332.2879, 3012.272
332.7700, 3017.462
333.2521, 3020.326
333.7343, 3021.009
334.2164, 3020.154
334.6985, 3017.395
335.1806, 3013.621
335.6627, 3009.335
336.1448, 3004.812
336.6270, 2998.699
337.1091, 2990.034
337.5912, 2980.531
338.0733, 2973.940
338.5554, 2971.239
339.0375, 2968.524
339.5197, 2963.893
340.0018, 2957.214
340.4839, 2952.010
340.9660, 2948.516
341.4481, 2946.192
341.9302, 2945.027
342.4124, 2945.178
342.8945, 2943.885
343.3766, 2939.342
343.8587, 2932.714
344.3408, 2929.711
344.8229, 2930.761
345.3051, 2932.592
345.7872, 2932.609
346.2693, 2930.902
346.7514, 2927.707
347.2335, 2922.408
347.7156, 2916.582
348.1978, 2913.814
348.6799, 2913.913
349.1620, 2914.197
349.6441, 2913.003
350.1262, 2910.695
350.6083, 2907.914
351.0905, 2904.558
351.5726, 2901.365
352.0547, 2899.030
352.5368, 2897.511
353.0189, 2896.696
353.5010, 2897.034
353.9832, 2897.782
354.4653, 2898.455
354.9474, 2899.069
355.4295, 2898.350
355.9116, 2893.129
356.3937, 2886.342
356.8759, 2882.473
357.3580, 2885.473
357.8401, 2889.942
358.3222, 2892.398
358.8043, 2893.097
359.2864, 2893.411
359.7686, 2893.410
360.2507, 2893.696
360.7328, 2894.860
361.2149, 2897.604
361.6970, 2900.251
362.1791, 2902.409
362.6613, 2903.951
363.1434, 2904.621
363.6255, 2902.448
364.1076, 2900.838
364.5897, 2901.785
365.0718, 2906.483
365.5540, 2910.218
366.0361, 2911.733
366.5182, 2912.000
367.0003, 2912.190
367.4824, 2913.298
367.9645, 2913.511
368.4467, 2911.695
368.9288, 2907.748
369.4109, 2905.910
369.8930, 2907.433
370.3751, 2910.196
370.8572, 2912.851
371.3394, 2915.439
371.8215, 2917.875
372.3036, 2920.088
372.7857, 2922.143
373.2678, 2924.291
373.7499, 2926.493
374.2321, 2928.811
374.7142, 2931.258
375.1963, 2933.864
375.6784, 2936.316
376.1605, 2938.347
376.6426, 2940.488
377.1248, 2943.511
377.6069, 2947.496
378.0890, 2952.006
378.5711, 2957.291
379.0532, 2963.108
379.5353, 2967.095
380.0175, 2969.073
380.4996, 2970.360
380.9817, 2972.263
381.4638, 2974.672
381.9459, 2976.596
382.4280, 2977.546
382.9102, 2978.246
383.3923, 2980.216
383.8744, 2983.344
384.3565, 2986.510
384.8386, 2989.001
385.3207, 2990.988
385.8029, 2992.460
386.2850, 2993.232
386.7671, 2994.524
387.2492, 2998.448
387.7313, 3003.903
388.2134, 3008.309
388.6956, 3010.012
389.1777, 3010.449
389.6598, 3010.381
390.1419, 3009.937
390.6240, 3010.403
391.1061, 3013.477
391.5883, 3017.551
392.0704, 3020.949
392.5525, 3023.063
393.0346, 3024.708
393.5167, 3025.742
393.9988, 3026.579
394.4810, 3028.351
394.9631, 3032.393
395.4452, 3036.741
395.9273, 3040.175
396.4094, 3041.899
396.8915, 3044.788
397.3737, 3050.147
397.8558, 3056.653
398.3379, 3062.673
398.8200, 3067.705
399.3021, 3072.500
399.7842, 3076.884
400.2664, 3080.829
400.7485, 3085.628
401.2306, 3091.779
401.7127, 3098.156
402.1948, 3103.901
402.6769, 3108.128
403.1591, 3113.714
403.6412, 3121.673
404.1233, 3130.664
404.6054, 3137.456
405.0875, 3141.461
405.5696, 3144.814
406.0518, 3148.109
406.5339, 3151.345
407.0160, 3155.688
407.4981, 3161.349
407.9802, 3167.556
408.4623, 3173.409
408.9445, 3178.978
409.4266, 3184.669
409.9087, 3190.449
410.3908, 3196.607
410.8729, 3203.643
411.3550, 3211.625
411.8372, 3220.592
412.3193, 3231.684
412.8014, 3243.786
413.2835, 3254.198
413.7656, 3262.403
414.2477, 3269.762
414.7299, 3276.950
415.2120, 3284.301
415.6941, 3292.464
416.1762, 3303.629
416.6583, 3314.499
417.1404, 3321.903
417.6226, 3325.860
418.1047, 3328.452
418.5868, 3330.581
419.0689, 3332.036
419.5510, 3332.690
420.0331, 3332.832
420.5153, 3331.667
420.9974, 3328.540
421.4795, 3323.883
421.9616, 3318.880
422.4437, 3313.606
422.9258, 3308.284
423.4080, 3303.134
423.8901, 3298.340
424.3722, 3293.187
424.8543, 3286.492
425.3364, 3280.073
425.8185, 3275.770
426.3007, 3274.911
426.7828, 3274.274
427.2649, 3273.751
427.7470, 3273.189
428.2291, 3271.390
428.7112, 3267.674
429.1934, 3263.856
429.6755, 3260.980
430.1576, 3259.328
430.6397, 3256.829
431.1218, 3252.896
431.6039, 3248.901
432.0861, 3247.429
432.5682, 3248.677
433.0503, 3249.499
433.5324, 3248.843
434.0145, 3246.950
434.4966, 3244.463
434.9788, 3241.395
435.4609, 3238.209
435.9430, 3235.294
436.4251, 3232.566
436.9072, 3229.733
437.3893, 3226.657
437.8715, 3223.682
438.3536, 3221.105
438.8357, 3218.930
439.3178, 3217.157
439.7999, 3216.146
440.2820, 3215.252
440.7642, 3214.042
441.2463, 3212.439
441.7284, 3210.111
442.2105, 3205.850
442.6926, 3201.155
443.1747, 3197.462
443.6569, 3195.153
444.1390, 3193.819
444.6211, 3193.758
445.1032, 3194.628
445.5853, 3195.470
446.0674, 3196.921
446.5496, 3197.667
447.0317, 3196.975
447.5138, 3194.142
447.9959, 3192.409
448.4780, 3192.544
448.9601, 3193.376
449.4423, 3193.688
449.9244, 3192.872
450.4065, 3193.028
450.8886, 3194.976
451.3707, 3198.112
451.8528, 3199.703
452.3350, 3199.213
452.8171, 3198.707
453.2992, 3199.188
453.7813, 3200.625
454.2634, 3202.807
454.7455, 3205.952
455.2277, 3208.927
455.7098, 3209.754
456.1919, 3208.783
456.6740, 3208.768
457.1561, 3211.217
457.6382, 3214.609
458.1204, 3216.460
458.6025, 3216.872
459.0846, 3216.355
459.5667, 3214.092
460.0488, 3211.628
460.5309, 3211.327
461.0131, 3213.991
461.4952, 3216.729
461.9773, 3217.220
462.4594, 3216.551
462.9415, 3216.305
463.4236, 3216.721
463.9058, 3218.000
464.3879, 3220.972
464.8700, 3225.300
465.3521, 3228.385
465.8342, 3228.071
466.3163, 3227.445
466.7985, 3228.214
467.2806, 3231.097
467.7627, 3234.301
468.2448, 3238.287
468.7269, 3242.313
469.2090, 3245.324
469.6912, 3246.775
470.1733, 3248.224
470.6554, 3249.994
471.1375, 3252.056
471.6196, 3254.172
472.1017, 3256.304
472.5839, 3258.571
473.0660, 3261.233
473.5481, 3264.291
474.0302, 3266.955
474.5123, 3269.106
474.9944, 3271.120
475.4766, 3273.562
475.9587, 3276.417
476.4408, 3279.429
476.9229, 3282.579
477.4050, 3285.820
477.8871, 3288.576
478.3693, 3291.040
478.8514, 3294.721
479.3335, 3302.127
479.8156, 3310.774
480.2977, 3317.156
480.7798, 3319.699
481.2620, 3323.133
481.7441, 3330.752
482.2262, 3340.821
482.7083, 3350.789
483.1904, 3359.824
483.6725, 3368.542
484.1547, 3376.574
484.6368, 3384.001
485.1189, 3392.627
485.6010, 3403.794
486.0831, 3415.358
486.5652, 3426.090
487.0474, 3435.392
487.5295, 3445.281
488.0116, 3455.951
488.4937, 3466.944
488.9758, 3477.876
489.4579, 3489.063
489.9401, 3499.282
490.4222, 3508.188
490.9043, 3515.938
491.3864, 3523.702
491.8685, 3531.575
492.3506, 3539.018
492.8328, 3545.616
493.3149, 3551.460
493.7970, 3557.180
494.2791, 3562.935
494.7612, 3568.192
495.2433, 3572.416
495.7255, 3575.754
496.2076, 3578.574
496.6897, 3580.641
497.1718, 3582.673
497.6539, 3586.271
498.1360, 3590.699
498.6182, 3593.106
499.1003, 3590.950
499.5824, 3586.922
500.0645, 3583.045
500.5466, 3579.807
501.0287, 3575.254
501.5109, 3568.565
501.9930, 3560.342
502.4751, 3551.263
502.9572, 3539.614
503.4393, 3529.231
503.9214, 3521.318
504.4036, 3515.090
504.8857, 3507.447
505.3678, 3497.259
505.8499, 3487.493
506.3320, 3479.552
506.8141, 3473.614
507.2963, 3466.925
507.7784, 3459.063
508.2605, 3451.397
508.7426, 3445.103
509.2247, 3440.151
509.7068, 3436.290
510.1890, 3433.811
510.6711, 3431.739
511.1532, 3428.251
511.6353, 3423.615
512.1174, 3419.298
512.5995, 3415.469
513.0817, 3412.610
513.5638, 3412.202
514.0459, 3414.084
514.5280, 3414.835
515.0101, 3410.964
515.4922, 3405.642
515.9744, 3401.962
516.4565, 3401.385
516.9386, 3400.905
517.4207, 3399.522
517.9028, 3397.664
518.3849, 3396.013
518.8671, 3394.216
519.3492, 3393.164
519.8313, 3393.214
520.3134, 3394.281
520.7955, 3395.208
521.2776, 3395.737
521.7598, 3396.440
522.2419, 3397.802
522.7240, 3400.098
523.2061, 3401.310
523.6882, 3401.049
524.1703, 3400.444
524.6525, 3401.088
525.1346, 3402.918
525.6167, 3404.881
526.0988, 3407.130
526.5809, 3408.888
527.0630, 3408.107
527.5452, 3405.232
528.0273, 3402.675
528.5094, 3401.663
528.9915, 3401.859
529.4736, 3403.010
529.9557, 3405.111
530.4379, 3407.652
530.9200, 3410.876
531.4021, 3414.096
531.8842, 3416.659
532.3663, 3418.466
532.8484, 3419.413
533.3306, 3418.704
533.8127, 3417.109
534.2948, 3416.314
534.7769, 3416.837
535.2590, 3417.731
535.7411, 3419.016
536.2233, 3420.686
536.7054, 3421.743
537.1875, 3421.931
537.6696, 3422.124
538.1517, 3423.176
538.6339, 3425.261
539.1160, 3425.866
539.5981, 3424.290
540.0802, 3422.914
540.5623, 3425.845
541.0444, 3432.208
541.5266, 3437.002
542.0087, 3437.956
542.4908, 3437.342
542.9729, 3438.172
543.4550, 3440.179
543.9371, 3442.381
544.4193, 3443.991
544.9014, 3445.691
545.3835, 3448.090
545.8656, 3451.247
546.3477, 3454.609
546.8298, 3458.639
547.3120, 3462.411
547.7941, 3465.112
548.2762, 3465.299
548.7583, 3466.216
549.2404, 3469.121
549.7225, 3472.568
550.2047, 3473.952
550.6868, 3471.993
551.1689, 3470.401
551.6510, 3469.989
552.1331, 3470.720
552.6152, 3472.952
553.0974, 3477.271
553.5795, 3480.422
554.0616, 3479.212
554.5437, 3474.652
555.0258, 3472.362
555.5079, 3472.764
555.9901, 3474.901
556.4722, 3478.869
556.9543, 3483.751
557.4364, 3487.537
557.9185, 3489.219
558.4006, 3490.307
558.8828, 3491.871
559.3649, 3493.710
559.8470, 3495.433
560.3291, 3496.560
560.8112, 3497.671
561.2933, 3498.923
561.7755, 3500.270
562.2576, 3501.773
562.7397, 3503.058
563.2218, 3504.710
563.7039, 3507.221
564.1860, 3511.540
564.6682, 3514.212
565.1503, 3514.836
565.6324, 3514.453
566.1145, 3514.405
566.5966, 3514.817
567.0787, 3514.947
567.5609, 3514.595
568.0430, 3514.090
568.5251, 3513.963
569.0072, 3514.258
569.4893, 3515.087
569.9714, 3516.698
570.4536, 3518.806
570.9357, 3521.048
571.4178, 3523.388
571.8999, 3525.831
572.3820, 3528.648
572.8641, 3531.345
573.3463, 3533.300
573.8284, 3533.970
574.3105, 3535.031
574.7926, 3537.330
575.2747, 3540.121
575.7568, 3542.446
576.2390, 3543.564
576.7211, 3545.081
577.2032, 3547.267
577.6853, 3549.974
578.1674, 3552.558
578.6495, 3554.820
579.1317, 3557.664
579.6138, 3562.312
580.0959, 3568.215
580.5780, 3569.878
581.0601, 3566.962
581.5422, 3563.918
582.0244, 3565.111
582.5065, 3569.034
582.9886, 3571.621
583.4707, 3572.079
583.9528, 3572.857
584.4349, 3576.731
584.9171, 3582.206
585.3992, 3587.060
585.8813, 3590.600
586.3634, 3593.247
586.8455, 3594.417
587.3276, 3594.715
587.8098, 3595.809
588.2919, 3598.196
588.7740, 3601.192
589.2561, 3604.567
589.7382, 3608.302
590.2203, 3612.738
590.7025, 3618.592
591.1846, 3623.756
591.6667, 3626.065
592.1488, 3625.150
592.6309, 3627.648
593.1130, 3634.523
593.5952, 3642.229
594.0773, 3645.738
594.5594, 3646.281
595.0415, 3648.353
595.5236, 3652.983
596.0057, 3659.956
596.4879, 3670.419
596.9700, 3683.032
597.4521, 3694.528
597.9342, 3702.960
598.4163, 3710.265
598.8984, 3716.886
599.3806, 3723.051
599.8627, 3730.211
600.3448, 3738.037
600.8269, 3747.496
601.3090, 3759.490
601.7911, 3775.074
602.2733, 3788.886
602.7554, 3799.772
603.2375, 3810.465
603.7196, 3823.792
604.2017, 3840.265
604.6838, 3854.905
605.1660, 3866.547
605.6481, 3877.819
606.1302, 3893.319
606.6123, 3912.270
607.0944, 3930.926
607.5765, 3947.830
608.0587, 3963.987
608.5408, 3981.125
609.0229, 3998.709
609.5050, 4015.494
609.9871, 4031.178
610.4692, 4045.321
610.9514, 4058.082
611.4335, 4069.644
611.9156, 4077.607
612.3977, 4081.109
612.8798, 4081.024
613.3619, 4078.060
613.8441, 4072.689
614.3262, 4062.918
614.8083, 4047.792
615.2904, 4029.600
615.7725, 4011.323
616.2546, 3993.058
616.7368, 3973.420
617.2189, 3951.262
617.7010, 3928.749
618.1831, 3910.148
618.6652, 3894.838
619.1473, 3880.217
619.6295, 3864.741
620.1116, 3849.727
620.5937, 3836.198
621.0758, 3824.251
621.5579, 3813.997
622.0400, 3806.347
622.5222, 3799.978
623.0043, 3794.056
623.4864, 3788.320
623.9685, 3784.083
624.4506, 3782.293
