##NAMES=Nenadkevichite
##RRUFFID=R070610
##IDEAL CHEMISTRY=(Na,[box])_8_Nb^5+^_4_(Si_4_O_12_)_2_(O,OH)_4_&#183;8H_2_O
##LOCALITY=Desourdy Quarry, Mount Saint Hilaire, Rouville County, Quebec, Canada
##OWNER=RRUFF
##SOURCE=James Shigley
##DESCRIPTION=Cluster of pale-pink translucent tabular pseudohexagonal crystals, associated with analcime
##STATUS=The identification of this mineral has been confirmed only by single crystal X-ray diffraction.
##URL=rruff.info/R070610
91.76941, 2188.789
92.25153, 2349.782
92.73364, 2532.844
93.21576, 2750.638
93.69788, 2997.912
94.17999, 3255.492
94.66211, 3500.428
95.14423, 3710.399
95.62634, 3968.570
96.10846, 4317.038
96.59058, 4685.500
97.07269, 5012.696
97.55481, 5278.145
98.03693, 5509.720
98.51904, 5769.240
99.00116, 6073.922
99.48328, 6370.840
99.96539, 6658.180
100.4475, 6931.453
100.9296, 7151.149
101.4117, 7214.476
101.8939, 7192.229
102.3760, 7178.722
102.8581, 7181.064
103.3402, 7184.553
103.8223, 7175.248
104.3044, 7151.889
104.7866, 7125.786
105.2687, 7097.444
105.7508, 7070.547
106.2329, 7052.111
106.7150, 7053.751
107.1971, 7066.808
107.6793, 7055.415
108.1614, 6993.970
108.6435, 6938.286
109.1256, 6912.588
109.6077, 6912.000
110.0898, 6920.485
110.5720, 6927.119
111.0541, 6934.677
111.5362, 6926.945
112.0183, 6887.421
112.5004, 6845.507
112.9825, 6819.102
113.4647, 6810.687
113.9468, 6808.253
114.4289, 6789.953
114.9110, 6729.798
115.3931, 6688.552
115.8752, 6677.367
116.3574, 6680.604
116.8395, 6681.108
117.3216, 6670.215
117.8037, 6651.847
118.2858, 6644.653
118.7680, 6667.355
119.2501, 6679.356
119.7322, 6654.138
120.2143, 6603.241
120.6964, 6566.555
121.1785, 6574.886
121.6607, 6625.128
122.1428, 6662.637
122.6249, 6682.649
123.1070, 6692.795
123.5891, 6698.494
124.0712, 6699.677
124.5534, 6698.536
125.0355, 6691.844
125.5176, 6682.824
125.9997, 6682.855
126.4818, 6700.227
126.9639, 6730.282
127.4461, 6758.831
127.9282, 6781.518
128.4103, 6806.634
128.8924, 6842.228
129.3745, 6886.721
129.8566, 6929.767
130.3387, 6961.700
130.8209, 6981.394
131.3030, 7000.962
131.7851, 7007.249
132.2672, 7023.766
132.7493, 7070.376
133.2314, 7150.258
133.7136, 7242.003
134.1957, 7308.142
134.6778, 7326.375
135.1599, 7359.511
135.6420, 7413.821
136.1241, 7482.900
136.6063, 7565.357
137.0884, 7661.240
137.5705, 7763.285
138.0526, 7843.378
138.5347, 7862.730
139.0168, 7900.393
139.4990, 7975.766
139.9811, 8077.199
140.4632, 8182.149
140.9453, 8275.642
141.4274, 8357.729
141.9095, 8452.884
142.3917, 8565.467
142.8738, 8684.126
143.3559, 8800.307
143.8380, 8915.301
144.3201, 9040.193
144.8022, 9189.033
145.2844, 9364.658
145.7665, 9530.358
146.2486, 9669.737
146.7307, 9805.845
147.2128, 9961.997
147.6949, 10143.34
148.1771, 10340.65
148.6592, 10551.92
149.1413, 10774.26
149.6234, 10992.39
150.1055, 11191.72
150.5877, 11381.70
151.0698, 11595.04
151.5519, 11845.71
152.0340, 12112.03
152.5161, 12368.72
152.9982, 12615.88
153.4804, 12867.30
153.9625, 13139.20
154.4446, 13433.57
154.9267, 13715.34
155.4088, 13953.65
155.8909, 14191.12
156.3731, 14459.31
156.8552, 14764.80
157.3373, 15088.70
157.8194, 15405.70
158.3015, 15715.36
158.7836, 16022.16
159.2658, 16327.07
159.7479, 16630.79
160.2300, 16934.56
160.7121, 17240.09
161.1942, 17543.11
161.6763, 17826.71
162.1585, 18072.02
162.6406, 18319.44
163.1227, 18602.55
163.6048, 18885.70
164.0869, 19120.46
164.5690, 19273.24
165.0512, 19352.98
165.5333, 19446.25
166.0154, 19577.26
166.4975, 19697.87
166.9796, 19818.66
167.4617, 19921.30
167.9439, 19969.22
168.4260, 19928.74
168.9081, 19792.45
169.3902, 19653.75
169.8723, 19524.99
170.3544, 19384.84
170.8366, 19218.69
171.3187, 19027.95
171.8008, 18828.49
172.2829, 18636.65
172.7650, 18457.51
173.2471, 18251.00
173.7293, 17985.14
174.2114, 17711.47
174.6935, 17476.63
175.1756, 17289.52
175.6577, 17127.25
176.1398, 16970.56
176.6220, 16822.29
177.1041, 16655.74
177.5862, 16446.84
178.0683, 16219.73
178.5504, 16014.42
179.0325, 15841.24
179.5147, 15689.86
179.9968, 15545.39
180.4789, 15404.81
180.9610, 15285.41
181.4431, 15210.82
181.9252, 15168.28
182.4074, 15106.63
182.8895, 15001.68
183.3716, 14883.75
183.8537, 14784.61
184.3358, 14705.62
184.8179, 14640.39
185.3001, 14587.07
185.7822, 14545.76
186.2643, 14507.76
186.7464, 14474.98
187.2285, 14442.22
187.7106, 14404.22
188.1928, 14359.60
188.6749, 14314.71
189.1570, 14272.23
189.6391, 14226.38
190.1212, 14206.77
190.6033, 14237.19
191.0855, 14287.52
191.5676, 14337.04
192.0497, 14378.29
192.5318, 14417.93
193.0139, 14467.84
193.4960, 14527.48
193.9782, 14600.32
194.4603, 14684.69
194.9424, 14780.20
195.4245, 14886.48
195.9066, 15003.33
196.3887, 15130.61
196.8709, 15269.49
197.3530, 15424.98
197.8351, 15586.65
198.3172, 15742.00
198.7993, 15904.25
199.2814, 16092.90
199.7636, 16318.81
200.2457, 16577.54
200.7278, 16837.75
201.2099, 17081.02
201.6920, 17344.19
202.1741, 17645.93
202.6563, 17972.37
203.1384, 18294.00
203.6205, 18587.07
204.1026, 18855.01
204.5847, 19176.53
205.0668, 19610.07
205.5490, 20034.61
206.0311, 20405.87
206.5132, 20736.04
206.9953, 21058.35
207.4774, 21397.49
207.9595, 21755.67
208.4417, 22116.76
208.9238, 22484.95
209.4059, 22852.24
209.8880, 23218.62
210.3701, 23580.95
210.8522, 23930.12
211.3344, 24255.77
211.8165, 24553.41
212.2986, 24848.04
212.7807, 25156.92
213.2628, 25450.26
213.7449, 25706.07
214.2271, 25922.95
214.7092, 26120.57
215.1913, 26317.75
215.6734, 26515.29
216.1555, 26677.29
216.6376, 26805.54
217.1198, 26896.17
217.6019, 26942.40
218.0840, 26943.43
218.5661, 26909.49
219.0482, 26847.83
219.5303, 26758.12
220.0125, 26635.86
220.4946, 26472.47
220.9767, 26279.50
221.4588, 26066.44
221.9409, 25831.85
222.4230, 25587.57
222.9052, 25335.68
223.3873, 25077.59
223.8694, 24843.36
224.3515, 24643.39
224.8336, 24469.33
225.3158, 24306.83
225.7979, 24151.06
226.2800, 24013.58
226.7621, 23908.17
227.2442, 23830.03
227.7263, 23767.70
228.2085, 23705.12
228.6906, 23656.19
229.1727, 23654.27
229.6548, 23710.04
230.1369, 23804.00
230.6190, 23923.63
231.1012, 24065.02
231.5833, 24214.52
232.0654, 24352.14
232.5475, 24489.67
233.0296, 24674.52
233.5117, 24936.08
233.9939, 25211.71
234.4760, 25444.06
234.9581, 25641.55
235.4402, 25853.72
235.9223, 26116.72
236.4044, 26421.29
236.8866, 26721.76
237.3687, 27003.35
237.8508, 27293.58
238.3329, 27619.59
238.8150, 27973.39
239.2971, 28319.30
239.7793, 28628.02
240.2614, 28903.02
240.7435, 29173.21
241.2256, 29431.22
241.7077, 29694.77
242.1898, 29986.99
242.6720, 30298.70
243.1541, 30589.29
243.6362, 30829.13
244.1183, 31018.61
244.6004, 31168.90
245.0825, 31269.34
245.5647, 31336.31
246.0468, 31388.78
246.5289, 31421.50
247.0110, 31411.18
247.4931, 31335.17
247.9752, 31192.09
248.4574, 31015.28
248.9395, 30810.01
249.4216, 30558.72
249.9037, 30242.36
250.3858, 29868.09
250.8679, 29471.15
251.3501, 29083.30
251.8322, 28707.45
252.3143, 28302.06
252.7964, 27861.44
253.2785, 27394.02
253.7606, 26889.34
254.2428, 26354.54
254.7249, 25816.64
255.2070, 25303.83
255.6891, 24818.10
256.1712, 24316.62
256.6534, 23789.76
257.1355, 23253.55
257.6176, 22710.17
258.0997, 22163.10
258.5818, 21619.04
259.0639, 21088.86
259.5461, 20574.08
260.0282, 20054.27
260.5103, 19507.13
260.9924, 18975.95
261.4745, 18467.39
261.9566, 17984.69
262.4388, 17537.08
262.9209, 17133.74
263.4030, 16781.54
263.8851, 16420.00
264.3672, 16023.36
264.8493, 15641.96
265.3315, 15296.77
265.8136, 14983.73
266.2957, 14681.92
266.7778, 14373.31
267.2599, 14056.36
267.7420, 13764.11
268.2242, 13513.75
268.7063, 13272.53
269.1884, 13034.14
269.6705, 12797.12
270.1526, 12558.71
270.6347, 12310.69
271.1169, 12051.10
271.5990, 11842.85
272.0811, 11745.64
272.5632, 11647.07
273.0453, 11510.97
273.5274, 11348.18
274.0096, 11189.35
274.4917, 11055.62
274.9738, 10946.35
275.4559, 10848.08
275.9380, 10763.40
276.4201, 10688.17
276.9023, 10621.73
277.3844, 10564.35
277.8665, 10519.35
278.3486, 10491.69
278.8307, 10478.36
279.3128, 10447.24
279.7950, 10372.45
280.2771, 10306.18
280.7592, 10261.94
281.2413, 10233.21
281.7234, 10210.45
282.2055, 10189.00
282.6877, 10167.23
283.1698, 10133.87
283.6519, 10064.27
284.1340, 10012.23
284.6161, 10003.56
285.0982, 10014.85
285.5804, 10014.49
286.0625, 9984.794
286.5446, 9931.360
287.0267, 9874.811
287.5088, 9809.940
287.9909, 9749.493
288.4731, 9696.637
288.9552, 9648.871
289.4373, 9606.662
289.9194, 9571.318
290.4015, 9535.044
290.8836, 9473.575
291.3658, 9364.133
291.8479, 9263.154
292.3300, 9184.994
292.8121, 9114.713
293.2942, 9037.370
293.7763, 8946.972
294.2585, 8847.630
294.7406, 8747.396
295.2227, 8641.456
295.7048, 8543.092
296.1869, 8459.662
296.6690, 8379.594
297.1512, 8293.459
297.6333, 8197.772
298.1154, 8097.101
298.5975, 7998.232
299.0796, 7896.678
299.5617, 7807.083
300.0439, 7744.306
300.5260, 7682.375
301.0081, 7601.434
301.4902, 7498.366
301.9723, 7385.660
302.4544, 7278.966
302.9366, 7177.014
303.4187, 7086.134
303.9008, 7023.654
304.3829, 6958.820
304.8650, 6869.774
305.3471, 6757.251
305.8293, 6642.597
306.3114, 6550.630
306.7935, 6487.751
307.2756, 6418.062
307.7577, 6343.576
308.2398, 6260.480
308.7220, 6161.083
309.2041, 6048.932
309.6862, 5937.240
310.1683, 5837.173
310.6504, 5748.949
311.1325, 5662.681
311.6147, 5578.103
312.0968, 5495.027
312.5789, 5414.344
313.0610, 5335.094
313.5431, 5253.680
314.0252, 5165.668
314.5074, 5072.854
314.9895, 4992.042
315.4716, 4931.588
315.9537, 4873.482
316.4358, 4810.966
316.9179, 4746.176
317.4001, 4684.443
317.8822, 4631.374
318.3643, 4581.446
318.8464, 4512.933
319.3285, 4407.521
319.8106, 4319.098
320.2928, 4279.884
320.7749, 4261.084
321.2570, 4226.484
321.7391, 4157.728
322.2212, 4073.814
322.7033, 4011.542
323.1855, 3976.484
323.6676, 3945.543
324.1497, 3912.491
324.6318, 3879.249
325.1139, 3847.860
325.5960, 3819.261
326.0782, 3791.039
326.5603, 3760.586
327.0424, 3728.125
327.5245, 3692.164
328.0066, 3642.843
328.4887, 3596.606
328.9709, 3569.222
329.4530, 3563.252
329.9351, 3561.752
330.4172, 3551.858
330.8993, 3533.719
331.3814, 3509.408
331.8636, 3471.992
332.3457, 3436.652
332.8278, 3417.217
333.3099, 3412.985
333.7920, 3409.843
334.2741, 3396.103
334.7563, 3376.099
335.2384, 3366.635
335.7205, 3373.997
336.2026, 3383.903
336.6847, 3388.104
337.1668, 3386.237
337.6490, 3374.184
338.1311, 3340.145
338.6132, 3297.869
339.0953, 3271.643
339.5774, 3264.586
340.0595, 3264.547
340.5417, 3263.024
341.0238, 3261.775
341.5059, 3266.047
341.9880, 3290.037
342.4701, 3311.395
342.9522, 3303.532
343.4344, 3267.195
343.9165, 3229.199
344.3986, 3200.718
344.8807, 3184.189
345.3628, 3181.097
345.8449, 3204.300
346.3271, 3225.567
346.8092, 3223.859
347.2913, 3205.281
347.7734, 3191.814
348.2555, 3192.743
348.7376, 3204.202
349.2198, 3217.922
349.7019, 3235.056
350.1840, 3251.474
350.6661, 3268.583
351.1482, 3283.595
351.6303, 3289.334
352.1125, 3282.624
352.5946, 3273.329
353.0767, 3276.930
353.5588, 3297.193
354.0409, 3318.693
354.5230, 3338.447
355.0052, 3359.987
355.4873, 3389.374
355.9694, 3426.622
356.4515, 3461.964
356.9336, 3483.370
357.4157, 3485.927
357.8979, 3504.813
358.3800, 3551.833
358.8621, 3602.928
359.3442, 3643.938
359.8263, 3676.612
360.3084, 3712.586
360.7906, 3761.240
361.2727, 3821.667
361.7548, 3870.183
362.2369, 3885.782
362.7190, 3913.872
363.2011, 3972.932
363.6833, 4050.608
364.1654, 4128.961
364.6475, 4199.171
365.1296, 4260.944
365.6117, 4311.536
366.0938, 4336.009
366.5760, 4370.560
367.0581, 4428.942
367.5402, 4492.061
368.0223, 4541.952
368.5044, 4573.521
368.9865, 4594.912
369.4687, 4616.384
369.9508, 4634.341
370.4329, 4663.085
370.9150, 4723.724
371.3971, 4778.100
371.8792, 4800.454
372.3614, 4792.980
372.8435, 4778.671
373.3256, 4780.369
373.8077, 4798.599
374.2898, 4806.861
374.7719, 4805.866
375.2541, 4792.465
375.7362, 4760.005
376.2183, 4715.123
376.7004, 4672.279
377.1825, 4644.077
377.6646, 4620.866
378.1468, 4571.896
378.6289, 4483.294
379.1110, 4403.776
379.5931, 4366.660
380.0752, 4345.403
380.5573, 4309.013
381.0395, 4244.926
381.5216, 4173.664
382.0037, 4119.333
382.4858, 4082.235
382.9679, 4043.898
383.4500, 4001.422
383.9322, 3952.228
384.4143, 3890.911
384.8964, 3813.970
385.3785, 3746.698
385.8606, 3709.701
386.3427, 3692.817
386.8249, 3670.759
387.3070, 3638.518
387.7891, 3600.882
388.2712, 3559.082
388.7533, 3513.735
389.2354, 3476.645
389.7176, 3450.768
390.1997, 3434.058
390.6818, 3430.575
391.1639, 3438.973
391.6460, 3439.660
392.1281, 3415.117
392.6103, 3368.397
393.0924, 3335.841
393.5745, 3327.593
394.0566, 3321.832
394.5387, 3310.498
395.0208, 3294.659
395.5030, 3276.123
395.9851, 3255.301
396.4672, 3234.424
396.9493, 3219.893
397.4314, 3223.991
397.9135, 3218.240
398.3957, 3191.789
398.8778, 3160.173
399.3599, 3138.139
399.8420, 3128.973
400.3241, 3126.707
400.8062, 3124.000
401.2884, 3120.914
401.7705, 3117.149
402.2526, 3113.853
402.7347, 3108.931
403.2168, 3098.584
403.6989, 3085.353
404.1811, 3076.226
404.6632, 3077.324
405.1453, 3087.164
405.6274, 3092.631
406.1095, 3088.464
406.5916, 3087.330
407.0738, 3094.636
407.5559, 3105.744
408.0380, 3115.659
408.5201, 3122.673
409.0022, 3126.036
409.4843, 3122.589
409.9665, 3110.212
410.4486, 3102.057
410.9307, 3106.622
411.4128, 3113.022
411.8949, 3113.096
412.3770, 3106.169
412.8592, 3097.419
413.3413, 3089.166
413.8234, 3081.938
414.3055, 3078.520
414.7876, 3080.849
415.2697, 3083.590
415.7519, 3079.871
416.2340, 3072.261
416.7161, 3069.974
417.1982, 3080.531
417.6803, 3094.360
418.1624, 3099.045
418.6446, 3095.188
419.1267, 3095.946
419.6088, 3110.134
420.0909, 3133.862
420.5730, 3153.794
421.0551, 3175.297
421.5373, 3186.152
422.0194, 3171.027
422.5015, 3144.801
422.9836, 3134.281
423.4657, 3148.466
423.9478, 3173.653
424.4300, 3189.043
424.9121, 3190.781
425.3942, 3190.747
425.8763, 3184.967
426.3584, 3180.602
426.8405, 3179.965
427.3227, 3184.774
427.8048, 3200.110
428.2869, 3232.895
428.7690, 3282.063
429.2511, 3311.030
429.7332, 3293.804
430.2154, 3282.882
430.6975, 3294.702
431.1796, 3316.306
431.6617, 3329.494
432.1438, 3326.169
432.6259, 3314.044
433.1081, 3305.985
433.5902, 3300.381
434.0723, 3304.160
434.5544, 3324.250
435.0365, 3350.126
435.5186, 3380.310
436.0008, 3412.758
436.4829, 3437.201
436.9650, 3437.146
437.4471, 3419.792
437.9292, 3424.632
438.4113, 3465.115
438.8935, 3503.713
439.3756, 3509.406
439.8577, 3495.526
440.3398, 3488.396
440.8219, 3499.690
441.3040, 3516.370
441.7862, 3525.165
442.2683, 3527.146
442.7504, 3530.858
443.2325, 3539.152
443.7146, 3552.207
444.1967, 3571.833
444.6789, 3601.834
445.1610, 3627.258
445.6431, 3637.529
446.1252, 3643.723
446.6073, 3662.309
447.0894, 3695.675
447.5716, 3729.697
448.0537, 3748.587
448.5358, 3749.411
449.0179, 3755.618
449.5000, 3767.784
449.9821, 3783.708
450.4643, 3803.757
450.9464, 3826.694
451.4285, 3851.979
451.9106, 3879.803
452.3927, 3906.466
452.8748, 3919.643
453.3570, 3908.821
453.8391, 3902.599
454.3212, 3901.975
454.8033, 3907.792
455.2854, 3923.712
455.7675, 3949.028
456.2497, 3974.809
456.7318, 3990.688
457.2139, 3997.032
457.6960, 4007.842
458.1782, 4027.495
458.6603, 4045.998
459.1424, 4058.393
459.6245, 4065.824
460.1066, 4070.082
460.5887, 4068.230
461.0709, 4067.113
461.5530, 4078.117
462.0351, 4100.804
462.5172, 4118.750
462.9993, 4121.596
463.4814, 4119.561
463.9636, 4131.119
464.4457, 4158.851
464.9278, 4188.831
465.4099, 4217.174
465.8920, 4244.951
466.3741, 4275.530
466.8563, 4309.036
467.3384, 4337.281
467.8205, 4350.978
468.3026, 4348.834
468.7847, 4352.804
469.2668, 4368.465
469.7490, 4383.429
470.2311, 4389.134
470.7132, 4391.592
471.1953, 4403.253
471.6774, 4430.342
472.1595, 4464.123
472.6417, 4482.807
473.1238, 4471.314
473.6059, 4476.952
474.0880, 4521.309
474.5701, 4567.104
475.0522, 4586.195
475.5344, 4580.830
476.0165, 4577.482
476.4986, 4600.417
476.9807, 4644.525
477.4628, 4681.248
477.9449, 4710.626
478.4271, 4731.990
478.9092, 4735.518
479.3913, 4733.720
479.8734, 4746.070
480.3555, 4784.452
480.8376, 4821.114
481.3198, 4829.107
481.8019, 4814.699
482.2840, 4802.585
482.7661, 4798.954
483.2482, 4801.383
483.7303, 4809.159
484.2125, 4823.376
484.6946, 4831.635
485.1767, 4833.277
485.6588, 4827.668
486.1409, 4811.012
486.6230, 4785.754
487.1052, 4760.613
487.5873, 4741.537
488.0694, 4726.873
488.5515, 4709.563
489.0336, 4701.053
489.5157, 4674.181
489.9979, 4612.621
490.4800, 4540.636
490.9621, 4477.451
491.4442, 4428.172
491.9263, 4389.321
492.4084, 4361.797
492.8906, 4347.489
493.3727, 4312.984
493.8548, 4235.919
494.3369, 4168.103
494.8190, 4141.018
495.3011, 4135.434
495.7833, 4115.496
496.2654, 4061.257
496.7475, 3999.289
497.2296, 3962.621
497.7117, 3950.223
498.1938, 3944.653
498.6760, 3945.559
499.1581, 3944.774
499.6402, 3926.584
500.1223, 3889.237
500.6044, 3864.509
501.0865, 3866.937
501.5687, 3881.528
502.0508, 3894.780
502.5329, 3905.706
503.0150, 3918.417
503.4971, 3936.572
503.9792, 3958.327
504.4614, 3972.893
504.9435, 3968.491
505.4256, 3971.870
505.9077, 3991.127
506.3898, 4016.805
506.8719, 4039.897
507.3541, 4058.284
507.8362, 4075.106
508.3183, 4094.917
508.8004, 4118.363
509.2825, 4136.129
509.7646, 4148.796
510.2468, 4154.173
510.7289, 4146.361
511.2110, 4132.502
511.6931, 4124.479
512.1752, 4127.812
512.6573, 4136.063
513.1395, 4143.679
513.6216, 4150.392
514.1037, 4151.329
514.5858, 4144.059
515.0679, 4132.284
515.5500, 4117.728
516.0322, 4100.125
516.5143, 4090.428
516.9964, 4106.846
517.4785, 4120.347
517.9606, 4100.512
518.4427, 4052.580
518.9249, 4003.446
519.4070, 3968.007
519.8891, 3944.842
520.3712, 3929.262
520.8533, 3937.333
521.3354, 3931.391
521.8176, 3900.001
522.2997, 3861.550
522.7818, 3829.962
523.2639, 3806.964
523.7460, 3787.227
524.2281, 3764.391
524.7103, 3739.825
525.1924, 3729.754
525.6745, 3748.172
526.1566, 3755.104
526.6387, 3723.136
527.1208, 3676.806
527.6030, 3644.909
528.0851, 3635.210
528.5672, 3634.157
529.0493, 3635.477
529.5314, 3637.039
530.0135, 3629.930
530.4957, 3610.537
530.9778, 3591.577
531.4599, 3588.127
531.9420, 3599.950
532.4241, 3596.485
532.9063, 3565.240
533.3884, 3531.009
533.8705, 3499.706
534.3526, 3474.915
534.8347, 3465.815
535.3168, 3476.060
535.7990, 3490.986
536.2811, 3483.519
536.7632, 3440.299
537.2453, 3410.415
537.7274, 3402.219
538.2095, 3398.720
538.6917, 3396.185
539.1738, 3392.272
539.6559, 3382.475
540.1380, 3361.429
540.6201, 3338.040
541.1022, 3331.138
541.5844, 3342.411
542.0665, 3352.831
542.5486, 3357.604
543.0307, 3358.266
543.5128, 3357.410
543.9949, 3355.162
544.4771, 3348.953
544.9592, 3334.393
545.4413, 3317.722
545.9234, 3303.810
546.4055, 3293.501
546.8876, 3289.519
547.3698, 3294.454
547.8519, 3305.313
548.3340, 3311.627
548.8161, 3315.642
549.2982, 3311.496
549.7803, 3286.813
550.2625, 3262.631
550.7446, 3256.480
551.2267, 3268.571
551.7088, 3288.410
552.1909, 3311.607
552.6730, 3334.554
553.1552, 3332.945
553.6373, 3294.676
554.1194, 3259.522
554.6015, 3238.098
555.0836, 3229.025
555.5657, 3237.966
556.0479, 3268.814
556.5300, 3290.816
557.0121, 3275.671
557.4942, 3241.418
557.9763, 3222.505
558.4584, 3223.475
558.9406, 3229.579
559.4227, 3230.269
559.9048, 3226.548
560.3869, 3226.481
560.8690, 3232.623
561.3511, 3238.676
561.8333, 3244.805
562.3154, 3249.454
562.7975, 3251.023
563.2796, 3249.167
563.7617, 3244.351
564.2438, 3236.208
564.7260, 3224.756
565.2081, 3216.281
565.6902, 3210.823
566.1723, 3208.606
566.6544, 3211.411
567.1365, 3216.339
567.6187, 3219.345
568.1008, 3218.931
568.5829, 3219.428
569.0650, 3224.495
569.5471, 3233.246
570.0292, 3244.759
570.5114, 3259.941
570.9935, 3270.923
571.4756, 3269.525
571.9577, 3256.846
572.4398, 3249.704
572.9219, 3254.856
573.4041, 3257.209
573.8862, 3244.371
574.3683, 3229.227
574.8504, 3232.241
575.3325, 3256.885
575.8146, 3284.880
576.2968, 3295.009
576.7789, 3286.567
577.2610, 3271.365
577.7431, 3237.427
578.2252, 3213.706
578.7073, 3216.246
579.1895, 3231.762
579.6716, 3242.369
580.1537, 3242.375
580.6358, 3241.325
581.1179, 3248.621
581.6000, 3261.555
582.0822, 3270.804
582.5643, 3274.288
583.0464, 3278.385
583.5285, 3290.427
584.0106, 3308.981
584.4927, 3316.642
584.9749, 3305.156
585.4570, 3293.446
585.9391, 3287.013
586.4212, 3283.651
