##NAMES=Nenadkevichite
##RRUFFID=R070610
##IDEAL CHEMISTRY=(Na,[box])_8_Nb^5+^_4_(Si_4_O_12_)_2_(O,OH)_4_&#183;8H_2_O
##LOCALITY=Desourdy Quarry, Mount Saint Hilaire, Rouville County, Quebec, Canada
##OWNER=RRUFF
##SOURCE=James Shigley
##DESCRIPTION=Cluster of pale-pink translucent tabular pseudohexagonal crystals, associated with analcime
##STATUS=The identification of this mineral has been confirmed only by single crystal X-ray diffraction.
##URL=rruff.info/R070610
115.5352, 2055.684
116.0173, 2215.871
116.4994, 2361.129
116.9815, 2506.990
117.4637, 2667.890
117.9458, 2849.974
118.4279, 3047.649
118.9100, 3259.558
119.3921, 3483.920
119.8742, 3717.972
120.3564, 3941.299
120.8385, 4174.711
121.3206, 4457.476
121.8027, 4876.788
122.2848, 5328.776
122.7669, 5675.020
123.2491, 5873.523
123.7312, 6049.446
124.2133, 6351.107
124.6954, 6754.647
125.1775, 7142.403
125.6596, 7425.878
126.1417, 7641.021
126.6239, 7870.249
127.1060, 8128.589
127.5881, 8411.426
128.0702, 8709.929
128.5523, 9025.461
129.0345, 9349.921
129.5166, 9681.200
129.9987, 10017.50
130.4808, 10334.11
130.9629, 10615.73
131.4450, 10872.28
131.9271, 11130.92
132.4093, 11389.27
132.8914, 11666.32
133.3735, 12002.63
133.8556, 12401.73
134.3377, 12792.81
134.8198, 13161.53
135.3020, 13513.79
135.7841, 13772.26
136.2662, 13904.60
136.7483, 13969.35
137.2304, 14098.75
137.7125, 14300.46
138.1947, 14549.60
138.6768, 14853.77
139.1589, 15253.26
139.6410, 15575.49
140.1231, 15769.24
140.6052, 15858.27
141.0874, 16039.23
141.5695, 16335.04
142.0516, 16694.35
142.5337, 17071.74
143.0158, 17479.41
143.4979, 17878.30
143.9801, 18148.87
144.4622, 18359.74
144.9443, 18593.94
145.4264, 18853.29
145.9085, 19133.20
146.3906, 19424.90
146.8728, 19747.91
147.3549, 20062.38
147.8370, 20352.76
148.3191, 20595.52
148.8012, 20865.28
149.2833, 21182.97
149.7655, 21528.48
150.2476, 21851.70
150.7297, 22124.77
151.2118, 22397.31
151.6939, 22688.69
152.1760, 23037.42
152.6582, 23355.35
153.1403, 23623.08
153.6224, 23849.13
154.1045, 24083.96
154.5866, 24332.59
155.0687, 24593.65
155.5508, 24869.10
156.0330, 25183.93
156.5151, 25486.45
156.9972, 25760.11
157.4793, 26004.35
157.9614, 26246.83
158.4435, 26491.16
158.9257, 26741.03
159.4078, 27001.56
159.8899, 27298.20
160.3720, 27586.07
160.8541, 27847.97
161.3362, 28081.85
161.8184, 28291.67
162.3005, 28477.42
162.7826, 28640.45
163.2647, 28783.08
163.7468, 28918.09
164.2289, 29027.05
164.7111, 29096.83
165.1932, 29128.06
165.6753, 29117.88
166.1574, 29067.36
166.6395, 28975.17
167.1216, 28838.00
167.6038, 28644.36
168.0859, 28407.81
168.5680, 28144.62
169.0501, 27852.26
169.5322, 27540.35
170.0143, 27207.71
170.4965, 26859.54
170.9786, 26512.20
171.4607, 26181.48
171.9428, 25857.50
172.4249, 25527.93
172.9070, 25177.38
173.3892, 24824.73
173.8713, 24494.50
174.3534, 24189.49
174.8355, 23890.48
175.3176, 23571.17
175.7997, 23242.56
176.2819, 22938.13
176.7640, 22679.23
177.2461, 22450.55
177.7282, 22236.97
178.2103, 22038.10
178.6924, 21843.19
179.1745, 21625.95
179.6567, 21393.54
180.1388, 21185.24
180.6209, 21037.18
181.1030, 20929.09
181.5851, 20795.21
182.0672, 20620.11
182.5494, 20440.68
183.0315, 20318.82
183.5136, 20250.64
183.9957, 20201.39
184.4778, 20147.68
184.9599, 20092.39
185.4421, 20047.89
185.9242, 20016.62
186.4063, 19996.43
186.8884, 19984.24
187.3705, 19980.30
187.8526, 19980.57
188.3348, 19977.67
188.8169, 19973.30
189.2990, 19983.36
189.7811, 20009.39
190.2632, 20052.89
190.7453, 20120.02
191.2275, 20210.87
191.7096, 20324.25
192.1917, 20461.97
192.6738, 20626.14
193.1559, 20800.68
193.6380, 20982.53
194.1202, 21171.09
194.6023, 21367.53
195.0844, 21568.90
195.5665, 21782.77
196.0486, 22016.23
196.5307, 22268.35
197.0129, 22547.40
197.4950, 22865.82
197.9771, 23224.54
198.4592, 23568.69
198.9413, 23890.19
199.4234, 24209.47
199.9055, 24561.83
200.3877, 24949.50
200.8698, 25361.00
201.3519, 25795.00
201.8340, 26257.75
202.3161, 26700.25
202.7982, 27113.38
203.2804, 27510.86
203.7625, 27933.79
204.2446, 28395.11
204.7267, 28841.40
205.2088, 29231.94
205.6909, 29547.05
206.1731, 29893.46
206.6552, 30295.46
207.1373, 30731.54
207.6194, 31113.89
208.1015, 31421.06
208.5836, 31714.71
209.0658, 32046.25
209.5479, 32432.08
210.0300, 32784.33
210.5121, 33087.51
210.9942, 33344.70
211.4763, 33602.12
211.9585, 33877.11
212.4406, 34125.68
212.9227, 34301.77
213.4048, 34388.25
213.8869, 34455.76
214.3690, 34521.61
214.8512, 34584.68
215.3333, 34615.01
215.8154, 34629.15
216.2975, 34589.29
216.7796, 34446.26
217.2617, 34163.75
217.7439, 33854.99
218.2260, 33537.16
218.7081, 33212.20
219.1902, 32887.76
219.6723, 32565.96
220.1544, 32243.00
220.6366, 31904.40
221.1187, 31539.68
221.6008, 31183.88
222.0829, 30842.33
222.5650, 30504.23
223.0471, 30220.79
223.5293, 30003.50
224.0114, 29831.80
224.4935, 29665.18
224.9756, 29496.29
225.4577, 29347.38
225.9398, 29226.68
226.4220, 29129.44
226.9041, 29073.11
227.3862, 29059.30
227.8683, 29086.18
228.3504, 29151.76
228.8325, 29264.54
229.3147, 29403.09
229.7968, 29551.60
230.2789, 29688.39
230.7610, 29887.60
231.2431, 30169.61
231.7252, 30512.13
232.2074, 30851.66
232.6895, 31195.32
233.1716, 31530.88
233.6537, 31848.79
234.1358, 32119.03
234.6179, 32429.94
235.1001, 32805.67
235.5822, 33227.58
236.0643, 33621.10
236.5464, 33965.18
237.0285, 34308.28
237.5106, 34683.93
237.9928, 35111.58
238.4749, 35520.11
238.9570, 35893.00
239.4391, 36237.23
239.9212, 36601.65
240.4033, 37011.76
240.8855, 37411.68
241.3676, 37769.70
241.8497, 38095.69
242.3318, 38350.15
242.8139, 38509.94
243.2960, 38583.54
243.7782, 38674.35
244.2603, 38823.88
244.7424, 38943.90
245.2245, 38962.53
245.7066, 38846.61
246.1887, 38693.20
246.6708, 38513.32
247.1530, 38306.75
247.6351, 38066.89
248.1172, 37790.06
248.5993, 37483.73
249.0814, 37154.61
249.5635, 36812.00
250.0457, 36431.85
250.5278, 36005.16
251.0099, 35531.56
251.4920, 35031.59
251.9741, 34510.82
252.4562, 33964.33
252.9384, 33382.14
253.4205, 32733.75
253.9026, 32110.55
254.3847, 31544.54
254.8668, 31035.00
255.3489, 30488.72
255.8311, 29884.53
256.3132, 29260.38
256.7953, 28670.25
257.2774, 28131.15
257.7595, 27572.64
258.2416, 26983.57
258.7238, 26353.61
259.2059, 25734.61
259.6880, 25110.14
260.1701, 24509.37
260.6522, 23961.84
261.1343, 23488.75
261.6165, 23025.10
262.0986, 22547.67
262.5807, 22050.99
263.0628, 21616.00
263.5449, 21243.62
264.0270, 20927.15
264.5092, 20661.28
264.9913, 20466.45
265.4734, 20268.05
265.9555, 20036.47
266.4376, 19770.44
266.9197, 19537.36
267.4019, 19339.81
267.8840, 19174.21
268.3661, 19040.13
268.8482, 18939.57
269.3303, 18863.66
269.8124, 18817.33
270.2946, 18803.06
270.7767, 18771.61
271.2588, 18713.11
271.7409, 18651.38
272.2230, 18621.52
272.7051, 18626.44
273.1873, 18647.98
273.6694, 18683.91
274.1515, 18735.04
274.6336, 18780.54
275.1157, 18819.96
275.5978, 18855.39
276.0800, 18888.69
276.5621, 18919.77
277.0442, 18950.62
277.5263, 18977.84
278.0084, 19001.90
278.4905, 19045.74
278.9726, 19112.67
279.4547, 19192.67
279.9369, 19286.26
280.4190, 19397.14
280.9011, 19466.16
281.3832, 19446.74
281.8653, 19347.13
282.3474, 19290.39
282.8296, 19290.94
283.3117, 19296.48
283.7938, 19222.28
284.2759, 19068.96
284.7580, 18913.85
285.2401, 18801.63
285.7223, 18722.27
286.2044, 18607.63
286.6865, 18452.99
287.1686, 18279.80
287.6507, 18121.53
288.1328, 17975.70
288.6150, 17822.38
289.0971, 17650.26
289.5792, 17462.68
290.0613, 17268.53
290.5434, 17066.61
291.0255, 16868.73
291.5077, 16689.29
291.9898, 16525.56
292.4719, 16367.28
292.9540, 16213.45
293.4361, 16059.33
293.9182, 15895.01
294.4004, 15717.79
294.8825, 15534.62
295.3646, 15348.72
295.8467, 15161.55
296.3288, 14980.64
296.8109, 14805.94
297.2931, 14641.53
297.7752, 14502.61
298.2573, 14392.54
298.7394, 14289.45
299.2215, 14173.85
299.7036, 14048.75
300.1858, 13925.53
300.6679, 13807.13
301.1500, 13693.74
301.6321, 13583.47
302.1142, 13476.84
302.5963, 13373.47
303.0785, 13278.61
303.5606, 13186.19
304.0427, 13086.21
304.5248, 12978.19
305.0069, 12857.79
305.4890, 12717.25
305.9712, 12553.10
306.4533, 12390.36
306.9354, 12246.49
307.4175, 12113.31
307.8996, 11980.81
308.3817, 11849.29
308.8639, 11713.38
309.3460, 11565.37
309.8281, 11404.38
310.3102, 11252.64
310.7923, 11141.56
311.2744, 11042.18
311.7566, 10918.17
312.2387, 10713.91
312.7208, 10515.81
313.2029, 10379.43
313.6850, 10307.29
314.1671, 10236.57
314.6493, 10147.11
315.1314, 10042.87
315.6135, 9929.185
316.0956, 9778.865
316.5777, 9645.595
317.0598, 9561.882
317.5420, 9527.542
318.0241, 9477.461
318.5062, 9371.800
318.9883, 9252.792
319.4704, 9155.889
319.9525, 9114.335
320.4347, 9069.294
320.9168, 8997.755
321.3989, 8901.650
321.8810, 8828.545
322.3631, 8808.718
322.8452, 8801.566
323.3273, 8778.177
323.8094, 8715.792
324.2916, 8659.172
324.7737, 8614.409
325.2558, 8580.902
325.7379, 8549.898
326.2200, 8523.006
326.7021, 8497.355
327.1843, 8470.908
327.6664, 8438.600
328.1485, 8412.443
328.6306, 8397.851
329.1127, 8391.770
329.5948, 8374.751
330.0770, 8336.078
330.5591, 8298.002
331.0412, 8274.630
331.5233, 8274.429
332.0054, 8270.769
332.4875, 8263.525
332.9697, 8251.899
333.4518, 8231.501
333.9339, 8198.045
334.4160, 8163.362
334.8981, 8131.454
335.3802, 8098.745
335.8624, 8082.820
336.3445, 8089.871
336.8266, 8109.874
337.3087, 8119.316
337.7908, 8116.672
338.2729, 8108.275
338.7551, 8093.853
339.2372, 8072.696
339.7193, 8063.055
340.2014, 8070.497
340.6835, 8081.643
341.1656, 8065.295
341.6478, 8018.966
342.1299, 7985.204
342.6120, 7994.665
343.0941, 8039.762
343.5762, 8064.981
344.0583, 8066.603
344.5405, 8058.811
345.0226, 8069.043
345.5047, 8092.646
345.9868, 8093.250
346.4689, 8031.840
346.9510, 7937.422
347.4332, 7883.693
347.9153, 7873.602
348.3974, 7883.379
348.8795, 7892.506
349.3616, 7902.413
349.8438, 7917.353
350.3259, 7940.698
350.8080, 7969.073
351.2901, 8000.750
351.7722, 8035.435
352.2543, 8066.655
352.7365, 8085.787
353.2186, 8098.273
353.7007, 8112.661
354.1828, 8132.659
354.6649, 8154.989
355.1470, 8177.725
355.6292, 8200.854
356.1113, 8225.102
356.5934, 8250.338
357.0755, 8277.154
357.5576, 8305.822
358.0397, 8331.265
358.5219, 8364.707
359.0040, 8417.707
359.4861, 8485.297
359.9682, 8545.727
360.4503, 8590.892
360.9324, 8626.206
361.4146, 8653.863
361.8967, 8662.326
362.3788, 8681.174
362.8609, 8726.279
363.3430, 8787.891
363.8251, 8838.776
364.3073, 8852.748
364.7894, 8871.712
365.2715, 8915.881
365.7536, 9011.763
366.2357, 9086.308
366.7178, 9126.313
367.2000, 9144.496
367.6820, 9163.042
368.1642, 9182.146
368.6463, 9201.361
369.1284, 9220.839
369.6105, 9240.807
370.0926, 9259.828
370.5747, 9281.472
371.0569, 9299.383
371.5390, 9303.905
372.0211, 9287.549
372.5032, 9275.440
372.9853, 9279.884
373.4674, 9301.280
373.9496, 9294.161
374.4317, 9251.923
374.9138, 9193.928
375.3959, 9136.406
375.8780, 9077.657
376.3601, 9030.561
376.8423, 9002.450
377.3244, 8986.777
377.8065, 8953.648
378.2886, 8900.072
378.7707, 8847.355
379.2528, 8818.761
379.7350, 8809.806
380.2171, 8788.595
380.6992, 8744.667
381.1813, 8691.870
381.6634, 8651.702
382.1455, 8624.281
382.6277, 8606.826
383.1098, 8606.835
383.5919, 8614.577
384.0740, 8608.111
384.5561, 8579.259
385.0382, 8550.936
385.5204, 8551.401
386.0025, 8573.174
386.4846, 8594.904
386.9667, 8600.121
387.4488, 8602.807
387.9309, 8618.671
388.4131, 8651.553
388.8952, 8683.082
389.3773, 8706.107
389.8594, 8719.394
390.3415, 8721.313
390.8236, 8691.549
391.3058, 8666.391
391.7879, 8668.771
392.2700, 8700.743
392.7521, 8727.860
393.2342, 8740.561
393.7163, 8742.733
394.1985, 8737.640
394.6806, 8714.932
395.1627, 8696.793
395.6448, 8695.898
396.1269, 8709.511
396.6090, 8702.668
397.0912, 8651.865
397.5733, 8594.952
398.0554, 8551.968
398.5375, 8531.489
399.0196, 8512.279
399.5017, 8498.316
399.9839, 8484.688
400.4660, 8454.117
400.9481, 8393.705
401.4302, 8337.806
401.9123, 8304.517
402.3944, 8302.654
402.8766, 8289.470
403.3587, 8264.817
403.8408, 8229.813
404.3229, 8181.146
404.8050, 8115.165
405.2871, 8059.671
405.7693, 8029.281
406.2514, 8021.054
406.7335, 8007.738
407.2156, 7989.936
407.6977, 7964.604
408.1798, 7923.649
408.6620, 7869.902
409.1441, 7820.019
409.6262, 7770.808
410.1083, 7733.948
410.5904, 7746.750
411.0725, 7805.237
411.5547, 7850.699
412.0368, 7824.549
412.5189, 7758.084
413.0010, 7707.030
413.4831, 7692.284
413.9652, 7680.413
414.4473, 7626.472
414.9294, 7548.288
415.4116, 7497.095
415.8937, 7525.052
416.3758, 7575.076
416.8579, 7604.226
417.3400, 7602.132
417.8221, 7593.309
418.3043, 7581.632
418.7864, 7571.166
419.2685, 7567.973
419.7506, 7570.815
420.2327, 7583.808
420.7148, 7613.453
421.1970, 7663.343
421.6791, 7702.455
422.1612, 7720.124
422.6433, 7729.140
423.1254, 7739.854
423.6075, 7741.643
424.0897, 7760.002
424.5718, 7804.573
425.0539, 7870.672
425.5360, 7925.859
426.0181, 7962.552
426.5002, 7998.986
426.9824, 8047.991
427.4645, 8115.166
427.9466, 8171.671
428.4287, 8211.689
428.9108, 8244.427
429.3929, 8290.628
429.8751, 8351.635
430.3572, 8415.632
430.8393, 8477.622
431.3214, 8537.827
431.8035, 8595.310
432.2856, 8650.320
432.7678, 8703.944
433.2499, 8754.304
433.7320, 8803.515
434.2141, 8861.411
434.6962, 8939.691
435.1783, 9022.755
435.6605, 9083.276
436.1426, 9122.968
436.6247, 9162.504
437.1068, 9220.019
437.5889, 9285.235
438.0710, 9344.763
438.5532, 9391.653
439.0353, 9436.736
439.5174, 9481.419
439.9995, 9528.875
440.4816, 9588.140
440.9637, 9680.744
441.4459, 9772.388
441.9280, 9837.742
442.4101, 9857.702
442.8922, 9902.045
443.3743, 10007.36
443.8564, 10139.96
444.3386, 10253.36
444.8207, 10330.95
445.3028, 10402.42
445.7849, 10470.73
446.2670, 10535.23
446.7491, 10607.64
447.2313, 10691.83
447.7134, 10780.74
448.1955, 10867.26
448.6776, 10948.32
449.1597, 11038.14
449.6418, 11140.80
450.1240, 11251.65
450.6061, 11352.14
451.0882, 11439.72
451.5703, 11527.95
452.0524, 11632.10
452.5345, 11749.07
453.0167, 11834.57
453.4988, 11884.23
453.9809, 11908.14
454.4630, 11914.78
454.9451, 11905.23
455.4272, 11884.72
455.9094, 11851.45
456.3915, 11810.23
456.8736, 11771.29
457.3557, 11734.26
457.8378, 11684.12
458.3199, 11611.05
458.8020, 11519.19
459.2841, 11410.41
459.7663, 11271.09
460.2484, 11137.01
460.7305, 11033.77
461.2126, 10954.31
461.6947, 10876.45
462.1768, 10782.02
462.6590, 10695.97
463.1411, 10633.72
463.6232, 10609.83
464.1053, 10573.40
464.5874, 10497.39
465.0695, 10410.95
465.5517, 10351.78
466.0338, 10322.71
466.5159, 10318.54
466.9980, 10349.78
467.4801, 10414.30
467.9622, 10445.16
468.4444, 10415.42
468.9265, 10394.95
469.4086, 10445.38
469.8907, 10586.24
470.3728, 10692.77
470.8549, 10744.72
471.3371, 10766.96
471.8192, 10810.30
472.3013, 10874.98
472.7834, 10951.12
473.2655, 11033.32
473.7477, 11122.90
474.2298, 11227.61
474.7119, 11348.10
475.1940, 11472.02
475.6761, 11585.22
476.1582, 11692.38
476.6404, 11803.80
477.1225, 11928.32
477.6046, 12054.48
478.0867, 12171.11
478.5688, 12279.56
479.0509, 12384.04
479.5331, 12466.77
480.0152, 12558.56
480.4973, 12688.31
480.9794, 12885.26
481.4615, 13068.57
481.9436, 13210.55
482.4258, 13324.81
482.9079, 13436.04
483.3900, 13559.35
483.8721, 13668.57
484.3542, 13752.16
484.8363, 13805.71
485.3185, 13874.83
485.8006, 13979.41
486.2827, 14077.79
486.7648, 14133.16
487.2469, 14128.97
487.7290, 14140.02
488.2112, 14181.89
488.6933, 14239.98
489.1754, 14275.58
489.6575, 14288.66
490.1396, 14282.96
490.6217, 14264.66
491.1039, 14230.49
491.5860, 14162.27
492.0681, 14056.26
492.5502, 13932.78
493.0323, 13801.05
493.5144, 13667.59
493.9966, 13547.54
494.4787, 13453.53
494.9608, 13369.39
495.4429, 13282.59
495.9250, 13193.12
496.4071, 13105.44
496.8893, 13023.61
497.3714, 12941.95
497.8535, 12856.19
498.3356, 12760.49
498.8177, 12668.60
499.2998, 12592.62
499.7820, 12520.36
500.2641, 12431.65
500.7462, 12284.01
501.2283, 12160.17
501.7104, 12089.18
502.1925, 12074.52
502.6746, 12033.09
503.1567, 11952.04
503.6389, 11860.87
504.1210, 11783.02
504.6031, 11722.14
505.0852, 11655.84
505.5673, 11580.26
506.0494, 11500.02
506.5316, 11423.42
507.0137, 11350.88
507.4958, 11278.21
507.9779, 11208.04
508.4600, 11136.71
508.9421, 11051.10
509.4243, 10949.94
509.9064, 10844.17
510.3885, 10742.12
510.8706, 10641.66
511.3527, 10538.33
511.8348, 10423.33
512.3170, 10314.27
512.7991, 10231.87
513.2812, 10167.50
513.7633, 10093.99
514.2454, 9991.542
514.7275, 9882.441
515.2097, 9778.200
515.6918, 9680.684
516.1739, 9586.193
516.6560, 9494.661
517.1381, 9405.344
517.6202, 9317.227
518.1024, 9221.586
518.5845, 9142.299
519.0666, 9094.893
519.5487, 9069.757
520.0308, 8998.796
520.5129, 8859.859
520.9951, 8729.896
521.4772, 8666.445
521.9593, 8670.977
522.4414, 8636.298
522.9235, 8550.962
523.4056, 8446.616
523.8878, 8364.823
524.3699, 8302.429
524.8520, 8239.781
525.3341, 8162.875
525.8162, 8087.295
526.2983, 8035.325
526.7805, 8004.908
527.2626, 7981.380
527.7447, 7963.167
528.2268, 7942.845
528.7089, 7912.577
529.1910, 7867.814
529.6732, 7820.057
530.1553, 7767.126
530.6374, 7714.853
531.1195, 7671.332
531.6016, 7644.152
532.0837, 7620.078
532.5659, 7595.415
533.0480, 7569.843
533.5301, 7551.404
534.0122, 7549.288
534.4943, 7541.899
534.9764, 7511.746
535.4586, 7450.420
535.9407, 7404.552
536.4228, 7381.267
536.9049, 7367.430
537.3870, 7335.580
537.8691, 7286.366
538.3513, 7247.658
538.8334, 7232.188
539.3155, 7234.489
539.7976, 7249.561
540.2797, 7276.544
540.7618, 7294.668
541.2440, 7282.392
541.7261, 7253.744
542.2082, 7225.425
542.6903, 7197.975
543.1724, 7178.318
543.6545, 7181.915
544.1367, 7194.449
544.6188, 7189.965
545.1009, 7127.419
545.5830, 7078.283
546.0651, 7077.377
546.5472, 7129.711
547.0294, 7156.444
547.5115, 7141.305
547.9936, 7114.158
548.4757, 7092.624
548.9578, 7078.013
549.4399, 7065.071
549.9221, 7052.873
550.4042, 7042.779
550.8863, 7037.646
551.3684, 7037.619
551.8505, 7040.110
552.3326, 7044.568
552.8148, 7050.747
553.2969, 7061.085
553.7790, 7075.329
554.2611, 7081.798
554.7432, 7062.418
555.2253, 7032.055
555.7075, 7012.296
556.1896, 7006.992
556.6717, 7013.767
557.1538, 7039.793
557.6359, 7075.327
558.1180, 7103.949
558.6002, 7124.611
559.0823, 7133.151
559.5644, 7124.309
560.0465, 7098.107
560.5286, 7073.501
561.0107, 7048.204
561.4929, 7028.564
561.9750, 7018.548
562.4571, 7020.986
562.9392, 7026.740
563.4213, 7038.694
563.9034, 7050.253
564.3856, 7048.306
564.8677, 7031.629
565.3498, 7020.253
565.8319, 7021.824
566.3140, 7032.063
566.7961, 7039.141
567.2783, 7043.550
567.7604, 7052.625
568.2425, 7085.229
568.7246, 7120.331
569.2067, 7125.756
569.6888, 7091.406
570.1709, 7054.018
570.6530, 7026.392
571.1351, 7013.185
571.6172, 7020.361
572.0994, 7085.226
572.5815, 7133.590
573.0636, 7131.727
573.5457, 7088.841
574.0278, 7071.570
574.5099, 7104.813
574.9921, 7136.298
575.4742, 7141.000
575.9563, 7110.483
576.4384, 7098.048
576.9205, 7110.655
577.4026, 7127.915
577.8848, 7124.663
578.3669, 7101.412
578.8490, 7077.708
579.3311, 7053.920
579.8132, 7037.367
580.2953, 7049.247
580.7775, 7083.334
581.2596, 7109.783
581.7417, 7097.741
582.2238, 7077.716
582.7059, 7085.525
583.1880, 7124.616
583.6702, 7156.842
584.1523, 7156.501
584.6344, 7143.767
585.1165, 7136.329
585.5986, 7147.844
586.0807, 7151.983
586.5629, 7137.970
587.0450, 7116.043
587.5271, 7106.425
588.0092, 7112.805
588.4913, 7125.200
588.9734, 7143.865
589.4556, 7167.641
589.9377, 7181.057
590.4198, 7183.570
590.9019, 7178.570
591.3840, 7157.372
591.8661, 7128.296
592.3483, 7133.680
592.8304, 7185.868
593.3125, 7244.097
593.7946, 7264.205
594.2767, 7257.038
594.7589, 7244.655
595.2410, 7222.088
595.7231, 7209.530
596.2052, 7224.543
596.6873, 7262.615
597.1694, 7298.849
597.6516, 7289.291
598.1337, 7258.216
598.6158, 7337.200
599.0979, 7389.994
599.5800, 7418.002
600.0621, 7346.990
600.5443, 7403.848
601.0264, 7409.459
601.5085, 7412.967
601.9906, 7487.816
602.4727, 7431.209
602.9548, 7504.926
603.4370, 7526.626
603.9191, 7566.039
604.4012, 7608.911
604.8833, 7637.093
605.3654, 7654.466
605.8475, 7663.530
606.3297, 7664.728
606.8118, 7670.659
607.2939, 7696.331
607.7760, 7727.196
608.2581, 7748.836
608.7402, 7752.069
609.2224, 7759.140
609.7045, 7779.744
610.1866, 7806.944
