##NAMES=Nepheline
##RRUFFID=R090059
##IDEAL CHEMISTRY=Na_3_K(Al_4_Si_4_O_16_)
##LOCALITY=Lajuar Madan, Sar-e-Sang District, Badakhshan, Afghanistan
##OWNER=RRUFF
##SOURCE=Dudley Blauwet
##DESCRIPTION=Colorless blocky crystals coated with colorless sodalite with electric blue inclusions, on a marble matrix
##STATUS=The identification of this mineral has been confirmed only by single crystal X-ray diffraction.
##URL=rruff.info/R090059
92.07813, 40.00738
92.56024, 40.17642
93.04236, 40.00788
93.52448, 39.60703
94.00659, 39.36311
94.48871, 39.75047
94.97083, 40.47314
95.45294, 40.68040
95.93506, 40.15184
96.41718, 39.32275
96.89929, 38.90037
97.38141, 38.89075
97.86353, 39.10665
98.34564, 39.72628
98.82776, 40.69120
99.30988, 40.77654
99.79199, 39.41251
100.2741, 37.15350
100.7562, 36.31106
101.2383, 37.32930
101.7205, 38.52750
102.2026, 38.09187
102.6847, 35.38214
103.1668, 33.53670
103.6489, 33.33929
104.1310, 34.82436
104.6132, 36.51625
105.0953, 38.80364
105.5774, 40.91479
106.0595, 41.84632
106.5416, 41.21993
107.0237, 39.97585
107.5059, 37.98084
107.9880, 34.38403
108.4701, 32.78313
108.9522, 34.67469
109.4343, 38.26933
109.9164, 40.35248
110.3986, 38.88675
110.8807, 37.58718
111.3628, 37.67963
111.8449, 40.67999
112.3270, 42.63829
112.8091, 42.51804
113.2913, 41.07556
113.7734, 40.44181
114.2555, 40.88396
114.7376, 42.26778
115.2197, 44.53926
115.7018, 48.63110
116.1840, 52.54753
116.6661, 55.49766
117.1482, 57.69248
117.6303, 60.21730
118.1124, 63.21495
118.5945, 66.87186
119.0767, 71.30985
119.5588, 76.96275
120.0409, 83.11749
120.5230, 89.52554
121.0051, 96.14735
121.4872, 102.8735
121.9694, 108.6755
122.4515, 114.6601
122.9336, 122.3967
123.4157, 133.2016
123.8978, 145.5837
124.3799, 158.1394
124.8621, 170.7740
125.3442, 184.1214
125.8263, 198.9058
126.3084, 214.8492
126.7905, 231.3425
127.2726, 248.3548
127.7548, 265.5252
128.2369, 282.2824
128.7190, 298.6676
129.2011, 314.3063
129.6832, 329.2064
130.1653, 343.0923
130.6474, 355.1451
131.1296, 363.3237
131.6117, 368.8952
132.0938, 376.7174
132.5759, 387.5838
133.0580, 400.5301
133.5401, 413.5216
134.0223, 426.5888
134.5044, 440.5540
134.9865, 455.6959
135.4686, 472.1916
135.9507, 490.6772
136.4328, 511.8124
136.9150, 535.0469
137.3971, 558.1869
137.8792, 581.3380
138.3613, 604.4724
138.8434, 628.1021
139.3255, 652.4980
139.8077, 674.8365
140.2898, 694.2189
140.7719, 710.8965
141.2540, 729.2948
141.7361, 750.4117
142.2182, 771.2676
142.7004, 788.7703
143.1825, 801.6495
143.6646, 813.9373
144.1467, 826.0626
144.6288, 838.1681
145.1109, 850.3707
145.5931, 862.6468
146.0752, 875.1208
146.5573, 888.0551
147.0394, 900.4553
147.5215, 914.6907
148.0036, 931.4496
148.4858, 951.8494
148.9679, 971.2931
149.4500, 988.6582
149.9321, 1005.486
150.4142, 1023.670
150.8963, 1043.096
151.3785, 1064.336
151.8606, 1087.406
152.3427, 1113.262
152.8248, 1139.573
153.3069, 1167.135
153.7890, 1195.138
154.2712, 1218.382
154.7533, 1232.649
155.2354, 1244.024
155.7175, 1252.379
156.1996, 1256.034
156.6817, 1259.640
157.1639, 1264.707
157.6460, 1270.185
158.1281, 1273.687
158.6102, 1272.802
159.0923, 1271.252
159.5744, 1271.216
160.0566, 1275.936
160.5387, 1277.621
161.0208, 1272.010
161.5029, 1261.412
161.9850, 1252.512
162.4671, 1248.493
162.9493, 1246.424
163.4314, 1244.400
163.9135, 1242.258
164.3956, 1239.749
164.8777, 1236.137
165.3598, 1231.815
165.8420, 1228.456
166.3241, 1227.272
166.8062, 1227.151
167.2883, 1227.089
167.7704, 1226.458
168.2525, 1226.094
168.7346, 1226.278
169.2168, 1227.031
169.6989, 1228.641
170.1810, 1232.833
170.6631, 1237.497
171.1452, 1240.085
171.6273, 1238.252
172.1095, 1235.196
172.5916, 1233.391
173.0737, 1232.770
173.5558, 1232.531
174.0379, 1232.152
174.5201, 1231.772
175.0022, 1231.596
175.4843, 1231.493
175.9664, 1231.743
176.4485, 1233.254
176.9306, 1235.997
177.4128, 1237.913
177.8949, 1235.307
178.3770, 1230.465
178.8591, 1228.431
179.3412, 1234.223
179.8233, 1243.031
180.3055, 1246.772
180.7876, 1245.275
181.2697, 1242.407
181.7518, 1240.973
182.2339, 1241.093
182.7160, 1243.138
183.1982, 1248.386
183.6803, 1255.524
184.1624, 1261.281
184.6445, 1265.385
185.1266, 1269.786
185.6087, 1276.890
186.0909, 1286.402
186.5730, 1296.362
187.0551, 1306.339
187.5372, 1316.154
188.0193, 1325.157
188.5014, 1333.033
188.9836, 1341.258
189.4657, 1352.317
189.9478, 1365.895
190.4299, 1379.817
190.9120, 1392.718
191.3941, 1404.831
191.8763, 1418.266
192.3584, 1433.429
192.8405, 1448.587
193.3226, 1460.848
193.8047, 1470.137
194.2868, 1480.829
194.7690, 1495.959
195.2511, 1515.082
195.7332, 1532.706
196.2153, 1548.404
196.6974, 1563.361
197.1795, 1579.207
197.6617, 1596.152
198.1438, 1612.534
198.6259, 1627.409
199.1080, 1640.739
199.5901, 1653.998
200.0722, 1666.921
200.5544, 1680.172
201.0365, 1695.524
201.5186, 1713.634
202.0007, 1730.090
202.4828, 1742.495
202.9649, 1750.599
203.4471, 1758.027
203.9292, 1765.056
204.4113, 1771.249
204.8934, 1776.071
205.3755, 1779.668
205.8576, 1781.081
206.3398, 1779.489
206.8219, 1774.520
207.3040, 1769.087
207.7861, 1763.547
208.2682, 1757.354
208.7503, 1749.564
209.2325, 1740.466
209.7146, 1729.222
210.1967, 1715.107
210.6788, 1697.589
211.1609, 1679.858
211.6430, 1661.948
212.1252, 1643.791
212.6073, 1625.368
213.0894, 1606.547
213.5715, 1588.026
214.0536, 1569.990
214.5357, 1552.117
215.0179, 1535.818
215.5000, 1521.377
215.9821, 1508.191
216.4642, 1494.773
216.9463, 1480.755
217.4284, 1467.491
217.9105, 1455.577
218.3927, 1445.578
218.8748, 1435.311
219.3569, 1424.295
219.8390, 1413.283
220.3211, 1403.915
220.8032, 1397.078
221.2854, 1390.146
221.7675, 1381.686
222.2496, 1370.958
222.7317, 1361.314
223.2138, 1353.192
223.6959, 1345.947
224.1781, 1337.976
224.6602, 1329.203
225.1423, 1319.903
225.6244, 1310.102
226.1065, 1298.834
226.5886, 1289.727
227.0708, 1284.134
227.5529, 1279.955
228.0350, 1272.491
228.5171, 1259.362
228.9992, 1246.800
229.4813, 1237.447
229.9635, 1232.780
230.4456, 1226.792
230.9277, 1219.103
231.4098, 1210.374
231.8919, 1201.645
232.3740, 1192.812
232.8562, 1184.276
233.3383, 1176.398
233.8204, 1169.788
234.3025, 1161.711
234.7846, 1151.135
235.2667, 1139.645
235.7489, 1130.401
236.2310, 1124.474
236.7131, 1119.105
237.1952, 1113.486
237.6773, 1107.909
238.1594, 1101.212
238.6416, 1092.494
239.1237, 1083.212
239.6058, 1075.763
240.0879, 1070.684
240.5700, 1066.465
241.0521, 1062.838
241.5343, 1060.122
242.0164, 1056.648
242.4985, 1051.953
242.9806, 1046.793
243.4627, 1042.218
243.9448, 1038.134
244.4270, 1034.748
244.9091, 1032.147
245.3912, 1030.373
245.8733, 1029.070
246.3554, 1028.478
246.8375, 1028.124
247.3197, 1027.395
247.8018, 1026.193
248.2839, 1024.759
248.7660, 1022.936
249.2481, 1020.545
249.7302, 1019.333
250.2124, 1019.966
250.6945, 1021.181
251.1766, 1021.314
251.6587, 1019.107
252.1408, 1018.363
252.6229, 1020.382
253.1051, 1025.439
253.5872, 1029.508
254.0693, 1032.257
254.5514, 1034.486
255.0335, 1036.907
255.5156, 1039.231
255.9978, 1042.311
256.4799, 1046.358
256.9620, 1051.379
257.4441, 1056.944
257.9262, 1063.421
258.4083, 1069.926
258.8904, 1075.557
259.3726, 1080.121
259.8547, 1084.353
260.3368, 1088.212
260.8189, 1091.776
261.3010, 1095.617
261.7831, 1099.906
262.2653, 1104.196
262.7474, 1108.095
263.2295, 1111.620
263.7116, 1114.895
264.1937, 1118.287
264.6758, 1121.507
265.1580, 1122.917
265.6401, 1122.079
266.1222, 1120.256
266.6043, 1118.214
267.0864, 1115.877
267.5685, 1113.782
268.0507, 1112.811
268.5328, 1111.922
269.0149, 1106.617
269.4970, 1095.225
269.9791, 1083.250
270.4612, 1073.837
270.9434, 1067.633
271.4255, 1061.154
271.9076, 1053.966
272.3897, 1046.429
272.8718, 1039.317
273.3539, 1032.539
273.8361, 1026.415
274.3182, 1021.548
274.8003, 1018.297
275.2824, 1013.240
275.7645, 1005.465
276.2466, 996.7933
276.7288, 991.1894
277.2109, 989.2714
277.6930, 987.3883
278.1751, 983.5851
278.6572, 977.6950
279.1393, 973.0361
279.6215, 969.5999
280.1036, 967.4384
280.5857, 967.3185
281.0678, 969.5673
281.5499, 970.8305
282.0320, 969.3212
282.5142, 965.3001
282.9963, 962.2097
283.4784, 960.1254
283.9605, 958.7486
284.4426, 958.0646
284.9247, 958.0980
285.4069, 957.4404
285.8890, 954.9518
286.3711, 951.3300
286.8532, 950.2865
287.3353, 952.1501
287.8174, 954.7492
288.2996, 956.0109
288.7817, 955.9981
289.2638, 955.1516
289.7459, 952.9399
290.2280, 950.3069
290.7101, 950.2839
291.1923, 953.0172
291.6744, 956.0236
292.1565, 957.2582
292.6386, 956.9453
293.1207, 956.0730
293.6028, 954.4291
294.0850, 952.8093
294.5671, 953.0974
295.0492, 955.1653
295.5313, 957.0421
296.0134, 957.3399
296.4955, 956.3123
296.9777, 954.4259
297.4598, 951.3781
297.9419, 948.3615
298.4240, 947.2147
298.9061, 947.7371
299.3882, 948.8640
299.8704, 950.2424
300.3525, 951.7520
300.8346, 953.1696
301.3167, 954.4581
301.7988, 955.7480
302.2809, 957.3932
302.7631, 959.2109
303.2452, 960.6860
303.7273, 961.3906
304.2094, 961.6629
304.6915, 962.0186
305.1736, 962.5215
305.6558, 962.7072
306.1379, 960.9001
306.6200, 958.5535
307.1021, 958.4025
307.5842, 964.5582
308.0663, 971.5590
308.5485, 973.5586
309.0306, 970.6444
309.5127, 967.6428
309.9948, 968.2258
310.4769, 970.5660
310.9590, 972.3389
311.4412, 972.5071
311.9233, 972.1456
312.4054, 971.6432
312.8875, 971.1096
313.3696, 971.1523
313.8517, 972.3149
314.3339, 974.1002
314.8160, 976.1401
315.2981, 978.5289
315.7802, 980.8860
316.2623, 983.4183
316.7444, 985.8445
317.2266, 987.4164
317.7087, 986.8069
318.1908, 985.9325
318.6729, 985.9584
319.1550, 987.1816
319.6371, 988.9926
320.1193, 991.6006
320.6014, 994.5810
321.0835, 997.2813
321.5656, 998.9706
322.0477, 1000.747
322.5298, 1003.222
323.0120, 1006.640
323.4941, 1009.614
323.9762, 1011.262
324.4583, 1012.531
324.9404, 1014.445
325.4225, 1017.771
325.9047, 1021.182
326.3868, 1023.873
326.8689, 1025.801
327.3510, 1029.343
327.8331, 1036.864
328.3152, 1044.778
328.7974, 1050.599
329.2795, 1051.955
329.7616, 1054.010
330.2437, 1056.859
330.7258, 1060.576
331.2079, 1065.786
331.6901, 1073.547
332.1722, 1081.731
332.6543, 1089.383
333.1364, 1096.419
333.6185, 1102.813
334.1006, 1107.733
334.5828, 1112.213
335.0649, 1118.687
335.5470, 1128.162
336.0291, 1137.939
336.5112, 1146.958
336.9933, 1155.155
337.4755, 1163.076
337.9576, 1170.253
338.4397, 1177.610
338.9218, 1186.698
339.4039, 1197.881
339.8860, 1209.278
340.3681, 1220.510
340.8503, 1231.604
341.3324, 1241.321
341.8145, 1249.445
342.2966, 1257.126
342.7787, 1265.375
343.2608, 1274.088
343.7430, 1284.283
344.2251, 1296.681
344.7072, 1310.247
345.1893, 1321.682
345.6714, 1331.036
346.1535, 1338.887
346.6357, 1344.957
347.1178, 1349.613
347.5999, 1355.620
348.0820, 1364.130
348.5641, 1372.163
349.0462, 1374.235
349.5284, 1371.014
350.0105, 1367.675
350.4926, 1369.477
350.9747, 1372.765
351.4568, 1368.174
351.9389, 1354.750
352.4211, 1339.333
352.9032, 1329.558
353.3853, 1323.390
353.8674, 1315.852
354.3495, 1302.856
354.8316, 1288.841
355.3138, 1279.596
355.7959, 1274.738
356.2780, 1270.210
356.7601, 1262.974
357.2422, 1254.437
357.7243, 1246.181
358.2065, 1238.084
358.6886, 1231.371
359.1707, 1227.275
359.6528, 1225.338
360.1349, 1224.185
360.6170, 1222.961
361.0992, 1222.376
361.5813, 1223.059
362.0634, 1225.362
362.5455, 1228.001
363.0276, 1230.416
363.5097, 1232.836
363.9919, 1235.606
364.4740, 1239.013
364.9561, 1242.601
365.4382, 1245.633
365.9203, 1247.895
366.4024, 1252.318
366.8846, 1261.232
367.3667, 1271.625
367.8488, 1281.059
368.3309, 1288.674
368.8130, 1295.990
369.2951, 1302.641
369.7773, 1308.958
370.2594, 1316.821
370.7415, 1327.084
371.2236, 1338.183
371.7057, 1349.437
372.1878, 1360.102
372.6700, 1372.490
373.1521, 1387.109
373.6342, 1403.134
374.1163, 1418.972
374.5984, 1434.460
375.0805, 1449.775
375.5627, 1464.819
376.0448, 1479.527
376.5269, 1495.220
377.0090, 1511.653
377.4911, 1529.681
377.9732, 1551.184
378.4554, 1576.682
378.9375, 1601.360
379.4196, 1623.942
379.9017, 1645.180
380.3838, 1669.062
380.8659, 1695.663
381.3481, 1722.802
381.8302, 1747.605
382.3123, 1770.763
382.7944, 1797.081
383.2765, 1827.305
383.7586, 1860.895
384.2408, 1900.222
384.7229, 1943.788
385.2050, 1984.619
385.6871, 2016.211
386.1692, 2042.808
386.6513, 2073.738
387.1335, 2109.081
387.6156, 2146.252
388.0977, 2182.230
388.5798, 2217.910
389.0619, 2255.583
389.5440, 2296.506
390.0262, 2338.757
390.5083, 2380.999
390.9904, 2423.648
391.4725, 2466.915
391.9546, 2512.740
392.4367, 2558.105
392.9189, 2600.714
393.4010, 2639.080
393.8831, 2676.634
394.3652, 2716.050
394.8473, 2755.197
395.3294, 2790.835
395.8116, 2821.332
396.2937, 2848.198
396.7758, 2871.801
397.2579, 2892.102
397.7400, 2910.094
398.2221, 2926.402
398.7043, 2940.091
399.1864, 2950.323
399.6685, 2955.452
400.1506, 2958.902
400.6327, 2961.583
401.1148, 2963.042
401.5970, 2960.915
402.0791, 2953.060
402.5612, 2944.142
403.0433, 2936.062
403.5254, 2928.841
404.0075, 2922.482
404.4897, 2916.943
404.9718, 2912.404
405.4539, 2909.337
405.9360, 2908.243
406.4181, 2907.226
406.9002, 2905.862
407.3824, 2904.161
407.8645, 2901.586
408.3466, 2897.674
408.8287, 2894.585
409.3108, 2895.047
409.7929, 2898.807
410.2751, 2901.293
410.7572, 2902.305
411.2393, 2900.779
411.7214, 2894.063
412.2035, 2882.461
412.6856, 2869.203
413.1678, 2856.192
413.6499, 2842.802
414.1320, 2827.637
414.6141, 2810.494
415.0962, 2792.019
415.5783, 2773.824
416.0605, 2754.579
416.5426, 2731.305
417.0247, 2701.186
417.5068, 2668.181
417.9889, 2635.870
418.4710, 2603.888
418.9532, 2569.586
419.4353, 2529.652
419.9174, 2488.165
420.3995, 2449.075
420.8816, 2413.411
421.3637, 2377.989
421.8459, 2341.526
422.3280, 2304.572
422.8101, 2267.448
423.2922, 2230.105
423.7743, 2193.051
424.2564, 2156.462
424.7386, 2120.445
425.2207, 2085.700
425.7028, 2053.746
426.1849, 2022.468
426.6670, 1990.480
427.1491, 1956.505
427.6313, 1924.029
428.1134, 1893.567
428.5955, 1864.877
429.0776, 1837.364
429.5597, 1810.625
430.0418, 1785.272
430.5240, 1761.489
431.0061, 1739.473
431.4882, 1717.489
431.9703, 1695.457
432.4524, 1673.899
432.9345, 1653.113
433.4167, 1633.130
433.8988, 1614.770
434.3809, 1598.606
434.8630, 1584.254
435.3451, 1571.367
435.8272, 1559.904
436.3094, 1548.776
436.7915, 1536.823
437.2736, 1524.654
437.7557, 1513.829
438.2378, 1504.389
438.7199, 1496.492
439.2020, 1491.342
439.6841, 1487.820
440.1663, 1483.626
440.6484, 1477.941
441.1305, 1471.070
441.6126, 1461.915
442.0947, 1451.114
442.5768, 1442.862
443.0590, 1441.450
443.5411, 1442.216
444.0232, 1441.357
444.5053, 1437.016
444.9874, 1433.497
445.4695, 1432.473
445.9517, 1433.112
446.4338, 1434.073
446.9159, 1435.519
447.3980, 1436.853
447.8801, 1438.002
448.3622, 1438.990
448.8444, 1439.383
449.3265, 1438.398
449.8086, 1437.520
450.2907, 1437.751
450.7728, 1439.562
451.2549, 1441.306
451.7371, 1442.076
452.2192, 1443.248
452.7013, 1448.477
453.1834, 1458.884
453.6655, 1469.060
454.1476, 1476.432
454.6298, 1481.323
455.1119, 1487.834
455.5940, 1496.058
456.0761, 1505.090
456.5582, 1513.715
457.0403, 1522.186
457.5225, 1531.981
458.0046, 1543.611
458.4867, 1555.864
458.9688, 1565.746
459.4509, 1574.157
459.9330, 1584.419
460.4152, 1600.698
460.8973, 1618.876
461.3794, 1633.190
461.8615, 1643.444
462.3436, 1654.177
462.8257, 1670.505
463.3079, 1688.272
463.7900, 1702.787
464.2721, 1711.212
464.7542, 1718.196
465.2363, 1726.774
465.7184, 1735.504
466.2006, 1740.281
466.6827, 1740.839
467.1648, 1736.635
467.6469, 1727.076
468.1290, 1711.464
468.6111, 1693.144
469.0933, 1672.057
469.5754, 1648.319
470.0575, 1621.337
470.5396, 1588.850
471.0217, 1557.773
471.5038, 1528.614
471.9860, 1501.277
472.4681, 1474.902
472.9502, 1449.269
473.4323, 1425.215
473.9144, 1403.175
474.3965, 1383.057
474.8787, 1365.738
475.3608, 1351.435
475.8429, 1339.042
476.3250, 1327.767
476.8071, 1317.577
477.2892, 1308.409
477.7714, 1300.674
478.2535, 1293.482
478.7356, 1285.294
479.2177, 1276.411
479.6998, 1268.335
480.1819, 1262.064
480.6641, 1256.861
481.1462, 1252.088
481.6283, 1247.673
482.1104, 1243.733
482.5925, 1241.318
483.0746, 1239.021
483.5568, 1235.372
484.0389, 1227.061
484.5210, 1220.576
485.0031, 1218.757
485.4852, 1220.314
485.9673, 1221.147
486.4495, 1219.772
486.9316, 1218.393
487.4137, 1217.720
487.8958, 1217.844
488.3779, 1218.238
488.8600, 1219.630
489.3422, 1220.493
489.8243, 1219.084
490.3064, 1214.402
490.7885, 1210.945
491.2706, 1209.469
491.7527, 1209.389
492.2349, 1209.094
492.7170, 1208.502
493.1991, 1208.732
493.6812, 1211.245
494.1633, 1215.165
494.6454, 1216.702
495.1276, 1215.781
495.6097, 1213.990
496.0918, 1212.814
496.5739, 1211.839
497.0560, 1210.166
497.5381, 1207.342
498.0203, 1204.279
498.5024, 1201.151
498.9845, 1198.393
499.4666, 1196.887
499.9487, 1198.148
500.4308, 1199.905
500.9130, 1200.897
501.3951, 1201.061
501.8772, 1201.086
502.3593, 1201.645
502.8414, 1201.827
503.3235, 1200.967
503.8057, 1197.000
504.2878, 1194.943
504.7699, 1196.041
505.2520, 1198.688
505.7341, 1200.234
506.2162, 1200.369
506.6984, 1199.889
507.1805, 1198.466
507.6626, 1196.377
508.1447, 1196.664
508.6268, 1199.837
509.1089, 1203.440
509.5911, 1206.037
510.0732, 1207.620
510.5553, 1207.979
511.0374, 1206.966
511.5195, 1205.270
512.0016, 1203.119
512.4838, 1200.903
512.9659, 1200.020
513.4480, 1201.898
513.9301, 1204.429
514.4122, 1205.161
514.8943, 1204.414
515.3765, 1203.516
515.8586, 1203.161
516.3407, 1202.982
516.8228, 1202.558
517.3049, 1201.677
517.7870, 1201.419
518.2692, 1202.493
518.7513, 1204.200
519.2334, 1205.866
519.7155, 1208.334
520.1976, 1209.598
520.6797, 1209.040
521.1619, 1207.178
521.6440, 1205.247
522.1261, 1202.313
522.6082, 1201.053
523.0903, 1202.849
523.5724, 1207.776
524.0546, 1212.236
524.5367, 1216.396
525.0188, 1219.511
525.5009, 1220.389
525.9830, 1219.265
526.4651, 1218.904
526.9473, 1219.801
527.4294, 1221.267
527.9115, 1222.181
528.3936, 1222.771
528.8757, 1223.843
529.3578, 1225.706
529.8400, 1228.225
530.3221, 1231.215
530.8042, 1234.673
531.2863, 1238.852
531.7684, 1245.377
532.2505, 1251.654
532.7327, 1255.224
533.2148, 1254.604
533.6969, 1255.057
534.1790, 1258.439
534.6611, 1263.420
535.1432, 1268.462
535.6254, 1274.209
536.1075, 1279.120
536.5896, 1282.484
537.0717, 1284.941
537.5538, 1288.290
538.0359, 1292.148
538.5181, 1297.947
539.0002, 1307.127
539.4823, 1319.558
539.9644, 1329.727
540.4465, 1337.263
540.9286, 1344.427
541.4108, 1353.050
541.8929, 1363.085
542.3750, 1374.093
542.8571, 1386.124
543.3392, 1398.663
543.8214, 1411.413
544.3035, 1424.234
544.7856, 1437.234
545.2677, 1450.882
545.7498, 1464.364
546.2319, 1476.920
546.7141, 1488.621
547.1962, 1499.951
547.6783, 1512.919
548.1604, 1524.120
548.6425, 1531.787
549.1246, 1535.122
549.6068, 1536.512
550.0889, 1537.207
550.5710, 1535.429
551.0531, 1529.468
551.5352, 1518.710
552.0173, 1504.868
552.4995, 1487.644
552.9816, 1467.925
553.4637, 1447.725
553.9458, 1426.930
554.4279, 1406.443
554.9100, 1386.086
555.3922, 1366.371
555.8743, 1349.357
556.3564, 1335.186
556.8385, 1322.848
557.3206, 1311.612
557.8027, 1301.731
558.2849, 1293.713
558.7670, 1287.923
559.2491, 1282.598
559.7312, 1275.484
560.2133, 1268.313
560.6954, 1263.476
561.1776, 1263.473
561.6597, 1264.221
562.1418, 1264.870
562.6239, 1265.271
563.1060, 1264.954
563.5881, 1262.805
564.0703, 1260.973
564.5524, 1260.207
565.0345, 1260.617
565.5166, 1260.786
565.9987, 1260.732
566.4808, 1260.420
566.9630, 1259.566
567.4451, 1258.069
567.9272, 1257.642
568.4093, 1258.619
568.8914, 1260.167
569.3735, 1261.321
569.8557, 1262.074
570.3378, 1262.395
570.8199, 1262.069
571.3020, 1261.528
571.7841, 1261.304
572.2662, 1261.339
572.7484, 1261.424
573.2305, 1260.245
573.7126, 1259.957
574.1947, 1262.904
574.6768, 1269.446
575.1589, 1274.589
575.6411, 1275.755
576.1232, 1275.502
576.6053, 1275.543
577.0874, 1276.070
577.5695, 1276.819
578.0516, 1278.151
578.5338, 1279.447
579.0159, 1279.549
579.4980, 1277.845
579.9801, 1277.241
580.4622, 1278.802
580.9443, 1281.648
581.4265, 1282.930
581.9086, 1282.658
582.3907, 1282.120
582.8728, 1281.954
583.3549, 1282.069
583.8370, 1282.464
584.3192, 1283.124
584.8013, 1283.351
585.2834, 1281.953
585.7655, 1280.160
586.2476, 1279.385
586.7297, 1280.123
587.2118, 1281.283
587.6939, 1282.989
