##NAMES=Nepheline
##RRUFFID=R040025
##IDEAL CHEMISTRY=Na_3_K(Al_4_Si_4_O_16_)
##LOCALITY=Bancroft, Ontario, Canada
##OWNER=RRUFF
##SOURCE=University of Arizona Mineral Museum
##DESCRIPTION=White massive
##STATUS=The identification of this mineral has been confirmed by X-ray diffraction and chemical analysis
##URL=rruff.info/R040025
##MEASURED CHEMISTRY=(Na_0.77_K_0.23_)_Î£=1_Al_1.00_Si_1.00_O_4_
115.7232, 111.3253
116.2053, 111.8157
116.6874, 112.1839
117.1695, 112.3748
117.6517, 112.2829
118.1338, 112.5481
118.6159, 113.4180
119.0980, 114.4761
119.5801, 115.3363
120.0622, 115.9012
120.5444, 116.4491
121.0265, 117.5718
121.5086, 119.3353
121.9907, 120.5163
122.4728, 120.2543
122.9549, 119.1102
123.4371, 118.5170
123.9192, 118.9750
124.4013, 119.9891
124.8834, 120.9111
125.3655, 121.7324
125.8476, 122.6245
126.3298, 123.8309
126.8119, 125.3888
127.2940, 126.7166
127.7761, 127.7145
128.2582, 128.3712
128.7403, 128.5038
129.2225, 128.0608
129.7046, 127.4393
130.1867, 127.4045
130.6688, 128.5844
131.1509, 129.1350
131.6330, 128.3776
132.1152, 127.1801
132.5973, 126.4113
133.0794, 126.5049
133.5615, 127.1756
134.0436, 127.2252
134.5257, 125.4388
135.0079, 124.3172
135.4900, 124.6362
135.9721, 125.8258
136.4542, 126.8849
136.9363, 127.1450
137.4184, 126.6630
137.9006, 126.4536
138.3827, 126.6016
138.8648, 126.8721
139.3469, 127.1363
139.8290, 127.4061
140.3111, 127.7946
140.7933, 128.3911
141.2754, 129.2113
141.7575, 130.1715
142.2396, 131.2924
142.7217, 132.5392
143.2038, 133.8555
143.6860, 135.2299
144.1681, 136.7315
144.6502, 138.5580
145.1323, 140.5645
145.6144, 142.4346
146.0965, 143.9128
146.5787, 145.1331
147.0608, 146.4864
147.5429, 147.8061
148.0250, 149.5745
148.5071, 152.2870
148.9892, 155.6502
149.4714, 158.8729
149.9535, 161.2833
150.4356, 162.8261
150.9177, 164.2914
151.3998, 165.3758
151.8819, 166.6199
152.3641, 168.4468
152.8462, 170.7445
153.3283, 172.9653
153.8104, 174.4443
154.2925, 174.8334
154.7746, 175.4055
155.2568, 176.6091
155.7389, 177.6481
156.2210, 178.0163
156.7031, 177.6180
157.1852, 176.6917
157.6673, 175.5662
158.1495, 173.8286
158.6316, 172.6590
159.1137, 172.3294
159.5958, 172.4233
160.0779, 172.6207
160.5600, 172.8251
161.0422, 172.9222
161.5243, 172.6224
162.0064, 171.7849
162.4885, 170.9514
162.9706, 170.2196
163.4527, 169.5724
163.9349, 168.9482
164.4170, 168.2727
164.8991, 167.7006
165.3812, 167.5598
165.8633, 168.0160
166.3454, 168.3660
166.8276, 168.1336
167.3097, 167.3891
167.7918, 166.6451
168.2739, 166.0490
168.7560, 165.5959
169.2381, 165.2469
169.7203, 164.9871
170.2024, 164.8782
170.6845, 164.9471
171.1666, 165.1725
171.6487, 165.7075
172.1308, 166.9077
172.6130, 168.2960
173.0951, 169.5682
173.5772, 170.6467
174.0593, 171.5008
174.5414, 171.9884
175.0235, 171.7590
175.5057, 171.9125
175.9878, 172.7462
176.4699, 173.9568
176.9520, 175.2572
177.4341, 176.5090
177.9162, 177.8193
178.3984, 179.5622
178.8805, 182.2316
179.3626, 184.7264
179.8447, 186.8526
180.3268, 188.7582
180.8089, 190.6081
181.2911, 192.4726
181.7732, 194.3938
182.2553, 196.6542
182.7374, 199.6082
183.2195, 202.5208
183.7016, 205.1456
184.1838, 207.6393
184.6659, 210.2914
185.1480, 213.2969
185.6301, 216.6316
186.1122, 219.9968
186.5943, 223.4152
187.0764, 226.8135
187.5586, 230.1246
188.0407, 233.3723
188.5228, 236.6707
189.0049, 240.0893
189.4870, 243.6057
189.9691, 247.1337
190.4513, 250.6707
190.9334, 254.2146
191.4155, 257.7691
191.8976, 261.3197
192.3797, 264.8921
192.8618, 268.5230
193.3440, 272.1656
193.8261, 275.6814
194.3082, 279.0848
194.7903, 282.3270
195.2724, 285.2388
195.7545, 287.7549
196.2367, 290.3414
196.7188, 293.5870
197.2009, 297.0403
197.6830, 300.0990
198.1651, 302.6586
198.6472, 304.6737
199.1294, 305.9473
199.6115, 306.1928
200.0936, 306.3905
200.5757, 307.2869
201.0578, 308.3510
201.5399, 308.9474
202.0221, 308.8705
202.5042, 308.0614
202.9863, 306.2679
203.4684, 303.0580
203.9505, 299.4912
204.4326, 295.9420
204.9148, 292.3041
205.3969, 288.4609
205.8790, 284.3784
206.3611, 279.9986
206.8432, 274.9042
207.3253, 268.4549
207.8075, 261.9730
208.2896, 255.8725
208.7717, 249.9288
209.2538, 243.7031
209.7359, 236.9160
210.2180, 229.6416
210.7002, 222.8282
211.1823, 216.7263
211.6644, 210.8597
212.1465, 205.0886
212.6286, 199.4986
213.1107, 194.2458
213.5929, 189.4357
214.0750, 185.0498
214.5571, 180.9886
215.0392, 177.3070
215.5213, 173.8221
216.0034, 170.5330
216.4856, 167.4186
216.9677, 164.4235
217.4498, 161.4331
217.9319, 158.5253
218.4140, 156.5683
218.8961, 156.6901
219.3783, 156.4164
219.8604, 154.4832
220.3425, 151.2901
220.8246, 148.0642
221.3067, 145.4657
221.7888, 143.5515
222.2710, 142.3148
222.7531, 142.3217
223.2352, 142.3801
223.7173, 141.9196
224.1994, 140.9900
224.6815, 139.8597
225.1637, 138.6102
225.6458, 137.3043
226.1279, 136.1708
226.6100, 135.5295
227.0921, 134.7462
227.5742, 133.2280
228.0564, 131.0560
228.5385, 129.0149
229.0206, 127.6143
229.5027, 126.6101
229.9848, 125.4607
230.4669, 124.0844
230.9491, 122.6168
231.4312, 121.0879
231.9133, 119.4926
232.3954, 118.1081
232.8775, 117.2972
233.3596, 116.6703
233.8418, 115.7316
234.3239, 114.3728
234.8060, 112.7582
235.2881, 110.8899
235.7702, 108.7019
236.2523, 106.8872
236.7345, 106.1174
237.2166, 105.6602
237.6987, 104.8542
238.1808, 103.5114
238.6629, 102.0481
239.1451, 100.9878
239.6272, 100.3942
240.1093, 99.85451
240.5914, 99.33900
241.0735, 98.78548
241.5556, 98.11552
242.0378, 97.30390
242.5199, 96.48380
243.0020, 95.80257
243.4841, 95.26472
243.9662, 94.87157
244.4483, 94.75719
244.9305, 94.69441
245.4126, 94.56528
245.8947, 94.33719
246.3768, 94.00443
246.8589, 93.50734
247.3410, 92.73037
247.8231, 92.15839
248.3053, 91.93104
248.7874, 91.83424
249.2695, 91.84379
249.7516, 91.91117
250.2337, 91.86282
250.7158, 91.38882
251.1980, 90.19959
251.6801, 89.38480
252.1622, 89.11927
252.6443, 89.06027
253.1264, 89.05537
253.6085, 89.06480
254.0907, 89.09663
254.5728, 89.13612
255.0549, 89.10113
255.5370, 89.34856
256.0191, 90.20183
256.5013, 91.02656
256.9834, 91.42056
257.4655, 91.39101
257.9476, 91.23293
258.4297, 91.24635
258.9118, 91.41941
259.3940, 91.84095
259.8761, 92.71366
260.3582, 93.60258
260.8403, 94.22424
261.3224, 94.61662
261.8045, 95.08503
262.2867, 96.00046
262.7688, 97.55096
263.2509, 98.16203
263.7330, 97.31334
264.2151, 96.22978
264.6972, 95.43850
265.1794, 94.93217
265.6615, 94.44824
266.1436, 93.78767
266.6257, 92.94437
267.1078, 91.96658
267.5899, 90.86362
268.0721, 89.64468
268.5542, 88.15188
269.0363, 86.52020
269.5184, 85.12394
270.0005, 84.28098
270.4826, 83.93079
270.9648, 83.20958
271.4469, 81.89478
271.9290, 80.53236
272.4111, 79.19797
272.8932, 77.96564
273.3753, 77.01551
273.8575, 76.50832
274.3396, 76.32661
274.8217, 75.84988
275.3038, 74.78381
275.7859, 73.82382
276.2680, 73.32409
276.7502, 73.08217
277.2323, 72.61631
277.7144, 71.64394
278.1965, 70.41869
278.6786, 69.75290
279.1607, 69.94717
279.6428, 70.02374
280.1249, 69.58424
280.6071, 68.86429
281.0892, 68.25567
281.5713, 67.87476
282.0534, 67.32413
282.5355, 67.70556
283.0176, 67.85474
283.4998, 67.78415
283.9819, 66.83563
284.4640, 67.02081
284.9461, 66.75166
285.4282, 66.46387
285.9103, 66.80860
286.3925, 65.98776
286.8746, 66.32246
287.3567, 66.19592
287.8388, 66.28046
288.3209, 65.90788
288.8030, 65.67649
289.2852, 65.90236
289.7673, 65.87505
290.2494, 65.44984
290.7315, 65.54781
291.2136, 64.71104
291.6957, 64.98283
292.1779, 65.44909
292.6600, 65.73402
293.1421, 65.78352
293.6242, 65.67194
294.1063, 65.35571
294.5884, 64.90102
295.0706, 64.65978
295.5527, 64.83906
296.0348, 65.12502
296.5169, 65.26957
296.9990, 65.26858
297.4811, 65.17382
297.9633, 64.96079
298.4454, 64.68786
298.9275, 64.52560
299.4096, 64.47721
299.8917, 64.54248
300.3738, 64.83388
300.8560, 65.30167
301.3381, 65.57604
301.8202, 65.41683
302.3023, 65.01102
302.7844, 64.73874
303.2665, 64.59126
303.7487, 64.59386
304.2308, 64.87589
304.7129, 65.34628
305.1950, 65.67010
305.6771, 65.69830
306.1592, 65.59039
306.6414, 65.59785
307.1235, 65.73866
307.6056, 65.82081
308.0877, 65.59395
308.5698, 65.25704
309.0519, 65.33537
309.5341, 66.05152
310.0162, 66.91569
310.4983, 67.29812
310.9804, 67.28212
311.4625, 67.40840
311.9446, 68.08897
312.4268, 68.93342
312.9089, 69.29016
313.3910, 69.02635
313.8731, 68.62840
314.3552, 68.39540
314.8373, 68.33974
315.3195, 68.54750
315.8016, 69.21944
316.2837, 70.05740
316.7658, 70.79173
317.2479, 71.41920
317.7300, 71.87790
318.2122, 72.08035
318.6943, 72.08766
319.1764, 72.07059
319.6585, 72.04560
320.1406, 71.99415
320.6227, 71.82446
321.1049, 71.57199
321.5870, 71.51494
322.0691, 71.85247
322.5512, 72.39259
323.0333, 72.76844
323.5154, 72.93339
323.9976, 73.08466
324.4797, 73.20875
324.9618, 73.38634
325.4439, 73.89499
325.9260, 74.88686
326.4081, 76.09779
326.8903, 77.30248
327.3724, 78.51604
327.8545, 79.42395
328.3366, 79.63942
328.8187, 79.54782
329.3008, 79.77583
329.7830, 80.43124
330.2651, 81.35159
330.7472, 82.51409
331.2293, 83.85958
331.7114, 85.05990
332.1935, 86.01283
332.6757, 86.81864
333.1578, 87.41019
333.6399, 87.79151
334.1220, 88.58331
334.6041, 90.45867
335.0862, 93.06901
335.5684, 95.00797
336.0505, 95.80119
336.5326, 96.35951
337.0147, 97.18190
337.4968, 98.25063
337.9789, 99.49920
338.4611, 100.9349
338.9432, 102.5012
339.4253, 104.1195
339.9074, 105.8767
340.3895, 107.4532
340.8716, 108.5346
341.3538, 109.3681
341.8359, 110.4414
342.3180, 111.8977
342.8001, 113.6293
343.2822, 115.7086
343.7643, 118.2478
344.2465, 120.1057
344.7286, 120.4584
345.2107, 120.3336
345.6928, 121.1304
346.1749, 123.0301
346.6570, 124.6212
347.1392, 124.4583
347.6213, 122.4572
348.1034, 121.1551
348.5855, 121.4904
349.0676, 121.7333
349.5497, 120.6293
350.0319, 118.3452
350.5140, 115.8310
350.9961, 113.5556
351.4782, 111.5347
351.9603, 109.8458
352.4424, 108.5620
352.9246, 107.4443
353.4067, 106.7032
353.8888, 106.0322
354.3709, 104.7552
354.8530, 102.5527
355.3351, 100.0047
355.8173, 98.23319
356.2994, 97.51653
356.7815, 96.91416
357.2636, 96.27950
357.7457, 95.76315
358.2278, 95.55338
358.7100, 95.66767
359.1921, 95.92007
359.6742, 96.10103
360.1563, 96.17615
360.6384, 96.42728
361.1205, 96.95340
361.6027, 97.54456
362.0848, 98.04697
362.5669, 98.50471
363.0490, 99.10839
363.5311, 100.0094
364.0132, 101.1534
364.4954, 102.0790
364.9775, 102.3866
365.4596, 102.9570
365.9417, 103.9218
366.4238, 105.2633
366.9059, 107.0690
367.3881, 109.3781
367.8702, 111.8607
368.3523, 113.8195
368.8344, 114.6017
369.3165, 115.9228
369.7986, 118.1789
370.2808, 120.6551
370.7629, 122.6955
371.2450, 124.2943
371.7271, 126.0552
372.2092, 128.6866
372.6913, 132.4130
373.1735, 135.6682
373.6556, 137.9364
374.1377, 140.2722
374.6198, 142.8901
375.1019, 145.8769
375.5840, 149.3318
376.0662, 153.3702
376.5483, 157.8398
377.0304, 161.9031
377.5125, 165.0102
377.9946, 168.5025
378.4767, 172.7312
378.9589, 177.3160
379.4410, 181.8055
379.9231, 186.0647
380.4052, 190.4261
380.8873, 195.5602
381.3694, 201.8167
381.8516, 207.6475
382.3337, 212.3451
382.8158, 217.0821
383.2979, 222.6190
383.7800, 228.8429
384.2621, 235.0098
384.7443, 240.3680
385.2264, 244.9993
385.7085, 250.2122
386.1906, 256.2463
386.6727, 262.5790
387.1548, 269.1037
387.6370, 275.7125
388.1191, 282.1385
388.6012, 288.2071
389.0833, 294.2411
389.5654, 300.7881
390.0475, 307.9091
390.5297, 315.2627
391.0118, 323.3404
391.4939, 331.2733
391.9760, 338.2438
392.4581, 344.1317
392.9402, 349.5986
393.4224, 354.9153
393.9045, 360.1714
394.3866, 366.0396
394.8687, 372.9994
395.3508, 379.9327
395.8329, 386.1425
396.3151, 391.6591
396.7972, 396.4503
397.2793, 400.5840
397.7614, 403.9444
398.2435, 406.2363
398.7256, 407.3963
399.2078, 408.2176
399.6899, 409.1413
400.1720, 409.9767
400.6541, 410.3663
401.1362, 410.2040
401.6183, 409.7671
402.1004, 409.4955
402.5826, 409.1002
403.0647, 407.4985
403.5468, 404.0412
404.0289, 400.1647
404.5110, 398.1158
404.9931, 398.0274
405.4753, 397.6388
405.9574, 396.4998
406.4395, 394.9138
406.9216, 393.0226
407.4037, 390.8833
407.8858, 388.9054
408.3680, 387.6050
408.8501, 386.8144
409.3322, 384.6397
409.8143, 380.2524
410.2964, 375.6172
410.7785, 371.6356
411.2607, 367.8354
411.7428, 363.3270
412.2249, 357.7679
412.7070, 351.3995
413.1891, 344.6908
413.6712, 337.6852
414.1534, 330.2207
414.6355, 322.1015
415.1176, 313.6925
415.5997, 305.3369
416.0818, 297.0229
416.5639, 288.4278
417.0461, 279.1480
417.5282, 269.1782
418.0103, 260.1294
418.4924, 252.8954
418.9745, 245.6672
419.4566, 237.9137
419.9388, 229.9593
420.4209, 222.2044
420.9030, 214.8931
421.3851, 207.8915
421.8672, 200.9604
422.3493, 193.8682
422.8315, 187.4127
423.3136, 181.8071
423.7957, 176.6419
424.2778, 171.8432
424.7599, 167.2899
425.2420, 162.7089
425.7242, 157.7517
426.2063, 152.4788
426.6884, 147.6492
427.1705, 143.2297
427.6526, 139.3654
428.1347, 136.3764
428.6169, 133.8190
429.0990, 130.9930
429.5811, 127.5325
430.0632, 124.0435
430.5453, 121.4480
431.0274, 119.7693
431.5096, 117.8052
431.9917, 114.9751
432.4738, 111.9698
432.9559, 109.5134
433.4380, 107.6005
433.9201, 105.8050
434.4023, 103.8406
434.8844, 101.8906
435.3665, 100.3418
435.8486, 99.25144
436.3307, 98.30849
436.8128, 97.33337
437.2950, 96.32877
437.7771, 95.31940
438.2592, 94.25888
438.7413, 93.23806
439.2234, 92.47877
439.7055, 91.79964
440.1877, 90.61397
440.6698, 88.60772
441.1519, 86.47430
441.6340, 85.39400
442.1161, 85.84280
442.5982, 85.98215
443.0804, 85.33604
443.5625, 84.64627
444.0446, 84.49403
444.5267, 84.86271
445.0088, 85.39719
445.4909, 85.85889
445.9731, 86.23828
446.4552, 86.44774
446.9373, 86.22517
447.4194, 86.14839
447.9015, 86.33327
448.3836, 86.69151
448.8658, 87.13509
449.3479, 87.63155
449.8300, 88.18251
450.3121, 88.77560
450.7942, 89.38621
451.2763, 90.13271
451.7585, 91.60393
452.2406, 92.65076
452.7227, 92.28789
453.2048, 91.13954
453.6869, 90.66572
454.1690, 91.88611
454.6512, 94.11079
455.1333, 95.50853
455.6154, 95.73620
456.0975, 96.15742
456.5796, 97.52109
457.0617, 99.06055
457.5439, 100.1249
458.0260, 100.6208
458.5081, 101.1681
458.9902, 102.2157
459.4723, 103.6878
459.9544, 105.3681
460.4366, 107.3051
460.9187, 109.2680
461.4008, 111.2223
461.8829, 113.0728
462.3650, 114.5297
462.8471, 115.5258
463.3293, 116.1418
463.8114, 116.4962
464.2935, 116.5358
464.7756, 116.0161
465.2577, 114.7879
465.7398, 113.1195
466.2220, 111.5291
466.7041, 110.1917
467.1862, 108.2030
467.6683, 104.8822
468.1504, 101.2833
468.6325, 98.42097
469.1147, 96.19808
469.5968, 93.77481
470.0789, 90.50945
470.5610, 86.54395
471.0431, 82.89184
471.5252, 79.38438
472.0074, 76.39518
472.4895, 74.14045
472.9716, 72.32861
473.4537, 70.77779
473.9358, 69.40353
474.4179, 68.07005
474.9001, 66.60152
475.3822, 64.97466
475.8643, 63.47129
476.3464, 62.00154
476.8285, 60.78328
477.3106, 59.94170
477.7928, 59.38340
478.2749, 59.00356
478.7570, 58.79768
479.2391, 58.59293
479.7212, 58.05268
480.2033, 57.12334
480.6855, 56.30072
481.1676, 55.70647
481.6497, 55.24261
482.1318, 54.87981
482.6139, 54.59194
483.0960, 54.21559
483.5782, 53.56307
484.0603, 52.81929
484.5424, 52.33773
485.0245, 52.14197
485.5066, 51.79828
485.9887, 50.93207
486.4709, 49.83852
486.9530, 49.29649
487.4351, 49.51839
487.9172, 49.77895
488.3993, 49.86658
488.8814, 49.83498
489.3636, 49.76832
489.8457, 49.67887
490.3278, 49.48265
490.8099, 49.06359
491.2920, 48.40653
491.7741, 47.96364
492.2563, 47.78850
492.7384, 47.72761
493.2205, 47.89539
493.7026, 48.09670
494.1847, 47.99316
494.6668, 47.47496
495.1490, 46.86492
495.6311, 46.74767
496.1132, 47.40944
496.5953, 47.63506
497.0774, 47.05233
497.5595, 46.37520
498.0417, 45.81078
498.5238, 45.37550
499.0059, 45.04475
499.4880, 44.80011
499.9701, 44.65917
500.4522, 44.68701
500.9344, 44.91221
501.4165, 45.13286
501.8986, 45.39252
502.3807, 45.52936
502.8628, 45.35707
503.3449, 44.88607
503.8271, 44.40239
504.3092, 43.98096
504.7913, 43.65522
505.2734, 43.51259
505.7555, 43.55631
506.2376, 43.63044
506.7198, 43.65332
507.2019, 43.63887
507.6840, 43.64107
508.1661, 43.73283
508.6482, 43.70549
509.1303, 43.34109
509.6125, 42.91314
510.0946, 42.80097
510.5767, 43.03214
511.0588, 43.26823
511.5409, 43.17762
512.0230, 42.76339
512.5051, 42.52842
512.9872, 42.80504
513.4694, 42.86517
513.9515, 42.24031
514.4336, 41.48014
514.9157, 41.32354
515.3978, 41.94043
515.8799, 42.70654
516.3621, 42.78952
516.8442, 42.11129
517.3263, 41.57338
517.8084, 41.25114
518.2905, 40.98233
518.7726, 40.64338
519.2548, 40.31298
519.7369, 40.12807
520.2190, 40.14766
520.7011, 40.29140
521.1832, 40.52612
521.6653, 40.83166
522.1475, 41.00847
522.6296, 40.91370
523.1117, 40.87157
523.5938, 41.52227
524.0759, 42.72015
524.5580, 43.17121
525.0402, 41.88081
525.5223, 40.46258
526.0044, 40.24435
526.4865, 40.87346
526.9686, 41.20633
527.4507, 40.72912
527.9329, 39.84910
528.4150, 39.31640
528.8971, 39.26310
529.3792, 39.28931
529.8613, 39.35239
530.3434, 39.52645
530.8256, 39.97932
531.3077, 40.57726
531.7898, 41.00653
532.2719, 41.07351
532.7540, 40.89483
533.2361, 40.80415
533.7183, 40.92524
534.2004, 40.77985
534.6825, 39.84990
535.1646, 38.97309
535.6467, 38.77472
536.1288, 39.14132
536.6110, 39.40503
537.0931, 38.96002
537.5752, 38.26713
538.0573, 38.30413
538.5394, 39.10974
539.0215, 39.79490
539.5037, 40.04199
539.9858, 39.91164
540.4679, 39.43540
540.9500, 38.52499
541.4321, 37.81117
541.9142, 37.49704
542.3964, 37.44353
542.8785, 37.61681
543.3606, 37.95247
543.8427, 38.21019
544.3248, 38.22314
544.8069, 38.06591
545.2891, 38.01603
545.7712, 38.26728
546.2533, 38.35621
546.7354, 38.07771
547.2175, 37.78138
547.6996, 37.77555
548.1818, 38.02718
548.6639, 38.26989
549.1460, 38.30275
549.6281, 38.15652
550.1102, 37.95217
550.5923, 37.67752
551.0745, 37.37419
551.5566, 36.87921
552.0387, 36.47145
552.5208, 36.42802
553.0029, 36.76136
553.4850, 37.15308
553.9672, 37.51061
554.4493, 37.77671
554.9314, 37.81014
555.4135, 37.60327
555.8956, 37.37014
556.3777, 37.22341
556.8599, 37.13219
557.3420, 37.00179
557.8241, 36.75948
558.3062, 36.65108
558.7883, 36.85236
559.2704, 37.11980
559.7526, 37.30032
560.2347, 37.34148
560.7168, 37.12309
561.1989, 36.50816
561.6810, 35.65525
562.1631, 35.32658
562.6453, 35.94445
563.1274, 36.37202
563.6095, 36.32285
564.0916, 36.18922
564.5737, 36.33653
565.0558, 36.71416
565.5380, 36.90542
566.0201, 36.46265
566.5022, 35.69540
566.9843, 35.49252
567.4664, 35.95520
567.9485, 36.31599
568.4307, 36.21095
568.9128, 35.91998
569.3949, 35.82590
569.8770, 35.93998
570.3591, 35.66277
570.8412, 36.16839
571.3234, 36.44177
571.8055, 36.49541
572.2876, 35.67109
572.7697, 35.98046
573.2518, 35.83551
573.7339, 35.67192
574.2161, 36.14084
574.6982, 35.44423
575.1803, 35.90313
575.6624, 35.90077
576.1445, 36.10952
576.6266, 35.86113
577.1088, 35.75393
577.5909, 36.10402
578.0730, 36.20091
578.5551, 35.89990
579.0372, 36.12207
579.5193, 35.40948
580.0015, 35.51714
580.4836, 35.97873
580.9657, 35.70070
581.4478, 35.93122
581.9299, 35.96807
582.4120, 35.12469
582.8942, 35.81210
583.3763, 35.83749
583.8584, 35.18314
584.3405, 35.81810
584.8226, 35.25746
585.3047, 35.12358
585.7869, 35.31085
586.2690, 35.16333
586.7511, 35.54366
587.2332, 35.37000
587.7153, 35.70462
588.1974, 35.79781
588.6796, 35.19761
589.1617, 34.30285
589.6438, 33.74694
590.1259, 33.76219
590.6080, 34.07966
591.0901, 34.38519
591.5723, 34.69551
592.0544, 34.79142
592.5365, 34.37169
593.0186, 34.18290
593.5007, 34.92858
593.9828, 35.98655
594.4650, 36.35817
594.9471, 35.66644
595.4292, 34.81318
595.9113, 34.41205
596.3934, 34.36760
596.8755, 34.55501
597.3577, 34.96773
597.8398, 35.26137
598.3219, 35.11401
598.8040, 34.61643
599.2861, 34.39440
599.7682, 34.69879
600.2504, 34.90166
600.7325, 34.83220
601.2146, 34.66823
601.6967, 34.54482
602.1788, 34.49432
602.6609, 34.52560
603.1431, 34.66733
603.6252, 34.87502
604.1073, 34.92481
604.5894, 34.71926
605.0715, 34.61140
605.5536, 34.76213
606.0358, 34.98964
606.5179, 35.26134
607.0000, 35.53214
607.4821, 35.55554
607.9642, 34.90696
608.4464, 34.14691
608.9285, 34.06612
609.4106, 34.55470
609.8927, 34.92533
610.3748, 34.89799
610.8569, 34.70063
611.3391, 34.68229
611.8212, 34.92599
612.3033, 35.01608
