##NAMES=Neptunite
##RRUFFID=R060628
##IDEAL CHEMISTRY=KNa_2_LiFe^2+^_2_Ti^4+^_2_Si_8_O_24_
##LOCALITY=California, USA
##OWNER=RRUFF
##SOURCE=Gemological Institute of America
##DESCRIPTION=Black gemstone fragment
##STATUS=The identification of this mineral is confirmed by single-crystal X-ray diffraction and chemical analysis.
##URL=rruff.info/R060628
##MEASURED CHEMISTRY=(K_0.88_Na_0.12_)_Σ=1_Na_2.00_Li_1.00_(Fe^2+^_1.42_Mg_0.39_Mn_0.19_)_Σ=2_Ti_2.00_Si_8.00_O_24_ ; Li not measured but estimated by difference and stoichiometry
112.844, 761.009
113.326, 769.834
113.808, 786.311
114.290, 810.741
114.772, 843.201
115.255, 891.060
115.737, 944.893
116.219, 993.885
116.701, 1027.236
117.183, 1060.614
117.665, 1103.237
118.147, 1158.818
118.629, 1213.218
119.112, 1255.549
119.594, 1291.097
120.076, 1331.153
120.558, 1381.312
121.040, 1437.937
121.522, 1498.399
122.004, 1564.215
122.486, 1630.239
122.968, 1697.038
123.451, 1762.271
123.933, 1816.986
124.415, 1846.645
124.897, 1861.846
125.379, 1879.758
125.861, 1912.044
126.343, 1945.205
126.825, 1962.804
127.307, 1964.869
127.790, 1952.823
128.272, 1923.813
128.754, 1880.793
129.236, 1832.981
129.718, 1776.679
130.200, 1718.111
130.682, 1678.167
131.164, 1660.424
131.646, 1649.583
132.129, 1621.744
132.611, 1577.392
133.093, 1538.777
133.575, 1519.180
134.057, 1517.263
134.539, 1516.902
135.021, 1518.432
135.503, 1519.110
135.986, 1511.417
136.468, 1493.781
136.950, 1475.150
137.432, 1460.110
137.914, 1448.246
138.396, 1443.150
138.878, 1447.491
139.360, 1459.058
139.842, 1466.366
140.325, 1469.268
140.807, 1468.119
141.289, 1461.128
141.771, 1443.307
142.253, 1433.932
142.735, 1440.453
143.217, 1464.241
143.699, 1475.238
144.182, 1465.678
144.664, 1449.922
145.146, 1444.443
145.628, 1449.160
146.110, 1464.360
146.592, 1492.784
147.074, 1541.675
147.556, 1580.757
148.038, 1607.179
148.521, 1624.591
149.003, 1639.359
149.485, 1647.805
149.967, 1657.206
150.449, 1670.682
150.931, 1698.295
151.413, 1714.269
151.895, 1712.077
152.378, 1697.276
152.860, 1685.836
153.342, 1682.677
153.824, 1680.611
154.306, 1676.438
154.788, 1650.956
155.270, 1641.013
155.752, 1627.299
156.234, 1610.011
156.717, 1578.467
157.199, 1565.337
157.681, 1544.827
158.163, 1524.015
158.645, 1513.473
159.127, 1484.003
159.609, 1473.302
160.091, 1455.108
160.574, 1435.178
161.056, 1437.360
161.538, 1444.741
162.020, 1461.872
162.502, 1505.351
162.984, 1546.795
163.466, 1570.299
163.948, 1573.176
164.430, 1574.570
164.913, 1585.313
165.395, 1600.192
165.877, 1611.632
166.359, 1611.184
166.841, 1609.474
167.323, 1616.465
167.805, 1636.579
168.287, 1652.061
168.770, 1642.397
169.252, 1618.855
169.734, 1605.412
170.216, 1584.370
170.698, 1578.070
171.180, 1568.192
171.662, 1554.929
172.144, 1528.140
172.626, 1518.816
173.109, 1502.491
173.591, 1489.633
174.073, 1475.743
174.555, 1488.098
175.037, 1494.082
175.519, 1494.038
176.001, 1469.910
176.483, 1476.881
176.965, 1471.390
177.448, 1465.387
177.930, 1476.735
178.412, 1467.677
178.894, 1475.595
179.376, 1474.001
179.858, 1467.880
180.340, 1463.973
180.822, 1462.306
181.305, 1462.463
181.787, 1468.236
182.269, 1476.421
182.751, 1476.604
183.233, 1460.456
183.715, 1435.238
184.197, 1417.311
184.679, 1406.858
185.161, 1400.220
185.644, 1394.831
186.126, 1390.387
186.608, 1384.602
187.090, 1377.602
187.572, 1368.723
188.054, 1352.415
188.536, 1326.625
189.018, 1302.853
189.501, 1301.325
189.983, 1320.365
190.465, 1335.604
190.947, 1331.199
191.429, 1310.884
191.911, 1301.733
192.393, 1306.273
192.875, 1317.366
193.357, 1324.404
193.840, 1327.203
194.322, 1329.498
194.804, 1330.333
195.286, 1330.204
195.768, 1333.613
196.250, 1359.411
196.732, 1379.774
197.214, 1394.993
197.697, 1389.665
198.179, 1410.870
198.661, 1421.444
199.143, 1431.580
199.625, 1456.519
200.107, 1464.048
200.589, 1497.327
201.071, 1513.009
201.553, 1507.861
202.036, 1498.008
202.518, 1492.622
203.000, 1491.788
203.482, 1495.907
203.964, 1508.784
204.446, 1525.253
204.928, 1524.540
205.410, 1502.272
205.893, 1474.589
206.375, 1454.154
206.857, 1442.750
207.339, 1428.232
207.821, 1407.468
208.303, 1382.041
208.785, 1362.478
209.267, 1352.020
209.749, 1340.674
210.232, 1318.451
210.714, 1281.079
211.196, 1249.054
211.678, 1227.425
212.160, 1215.045
212.642, 1199.411
213.124, 1179.081
213.606, 1157.793
214.089, 1138.285
214.571, 1118.906
215.053, 1105.756
215.535, 1100.298
216.017, 1102.495
216.499, 1110.068
216.981, 1127.903
217.463, 1144.716
217.945, 1146.879
218.428, 1127.073
218.910, 1110.600
219.392, 1104.381
219.874, 1108.937
220.356, 1109.421
220.838, 1103.819
221.320, 1096.234
221.802, 1091.121
222.285, 1088.203
222.767, 1088.657
223.249, 1095.133
223.731, 1109.410
224.213, 1112.285
224.695, 1096.524
225.177, 1075.978
225.659, 1069.195
226.141, 1084.925
226.624, 1098.031
227.106, 1100.408
227.588, 1089.470
228.070, 1084.415
228.552, 1086.501
229.034, 1093.550
229.516, 1103.667
229.998, 1121.818
230.480, 1134.017
230.963, 1133.964
231.445, 1117.423
231.927, 1109.823
232.409, 1115.676
232.891, 1127.515
233.373, 1134.094
233.855, 1132.030
234.337, 1130.241
234.820, 1132.666
235.302, 1142.526
235.784, 1141.864
236.266, 1135.270
236.748, 1138.455
237.230, 1139.265
237.712, 1137.830
238.194, 1127.422
238.676, 1128.600
239.159, 1125.135
239.641, 1121.480
240.123, 1124.289
240.605, 1115.186
241.087, 1117.893
241.569, 1115.885
242.051, 1116.036
242.533, 1111.514
243.016, 1108.435
243.498, 1106.075
243.980, 1107.388
244.462, 1103.727
244.944, 1102.010
245.426, 1104.782
245.908, 1105.407
246.390, 1101.411
246.872, 1091.790
247.355, 1080.182
247.837, 1064.885
248.319, 1048.522
248.801, 1036.354
249.283, 1030.221
249.765, 1025.253
250.247, 1020.515
250.729, 1017.755
251.212, 1008.961
251.694, 990.366
252.176, 968.002
252.658, 954.014
253.140, 953.245
253.622, 952.527
254.104, 947.252
254.586, 936.816
255.068, 924.035
255.551, 907.789
256.033, 890.078
256.515, 874.492
256.997, 860.542
257.479, 849.619
257.961, 842.610
258.443, 840.667
258.925, 838.683
259.408, 837.596
259.890, 835.733
260.372, 828.519
260.854, 810.763
261.336, 798.411
261.818, 799.335
262.300, 818.159
262.782, 829.672
263.264, 831.079
263.746, 827.532
264.229, 827.419
264.711, 830.300
265.193, 837.773
265.675, 852.452
266.157, 876.684
266.639, 893.942
267.121, 902.737
267.603, 906.119
268.086, 907.513
268.568, 904.471
269.050, 906.917
269.532, 920.553
270.014, 947.198
270.496, 968.489
270.978, 982.557
271.460, 993.216
271.943, 1006.171
272.425, 1021.757
272.907, 1038.215
273.389, 1056.439
273.871, 1076.817
274.353, 1090.328
274.835, 1094.677
275.317, 1095.955
275.799, 1103.368
276.282, 1118.088
276.764, 1132.454
277.246, 1144.287
277.728, 1153.541
278.210, 1159.588
278.692, 1161.800
279.174, 1161.908
279.656, 1160.451
280.138, 1156.790
280.621, 1158.141
281.103, 1169.798
281.585, 1190.234
282.067, 1202.426
282.549, 1204.867
283.031, 1203.682
283.513, 1205.942
283.995, 1211.677
284.478, 1218.070
284.960, 1224.491
285.442, 1230.852
285.924, 1237.247
286.406, 1244.083
286.888, 1249.121
287.370, 1247.516
287.852, 1240.033
288.335, 1237.763
288.817, 1247.962
289.299, 1265.093
289.781, 1269.173
290.263, 1259.006
290.745, 1247.193
291.227, 1247.047
291.709, 1256.866
292.191, 1266.818
292.674, 1273.801
293.156, 1279.401
293.638, 1287.586
294.120, 1298.316
294.602, 1309.602
295.084, 1321.078
295.566, 1331.927
296.048, 1338.863
296.530, 1340.507
297.013, 1338.479
297.495, 1334.204
297.977, 1327.873
298.459, 1322.820
298.941, 1324.381
299.423, 1329.001
299.905, 1327.936
300.387, 1316.593
300.870, 1302.392
301.352, 1296.288
301.834, 1296.873
302.316, 1295.524
302.798, 1280.016
303.280, 1260.085
303.762, 1251.729
304.244, 1261.379
304.727, 1277.703
305.209, 1289.508
305.691, 1298.027
306.173, 1308.133
306.655, 1325.549
307.137, 1344.797
307.619, 1358.681
308.101, 1364.327
308.583, 1368.986
309.065, 1381.165
309.548, 1397.109
310.030, 1407.266
310.512, 1405.090
310.994, 1396.040
311.476, 1384.115
311.958, 1369.495
312.440, 1353.648
312.922, 1336.348
313.405, 1318.408
313.887, 1301.158
314.369, 1290.376
314.851, 1276.686
315.333, 1251.668
315.815, 1212.135
316.297, 1176.523
316.779, 1153.577
317.262, 1139.150
317.744, 1127.579
318.226, 1118.124
318.708, 1110.368
319.190, 1098.765
319.672, 1093.825
320.154, 1101.683
320.636, 1106.434
321.118, 1108.246
321.601, 1098.314
322.083, 1103.547
322.565, 1102.702
323.047, 1101.608
323.529, 1108.975
324.011, 1100.751
324.493, 1107.984
324.975, 1109.047
325.457, 1112.933
325.940, 1110.705
326.422, 1110.365
326.904, 1110.967
327.386, 1111.933
327.868, 1124.430
328.350, 1134.127
328.832, 1141.176
329.314, 1137.642
329.797, 1147.773
330.279, 1152.429
330.761, 1156.860
331.243, 1168.914
331.725, 1166.920
332.207, 1178.853
332.689, 1184.209
333.171, 1189.291
333.654, 1208.474
334.136, 1224.071
334.618, 1235.596
335.100, 1243.602
335.582, 1249.765
336.064, 1255.312
336.546, 1256.235
337.028, 1261.728
337.510, 1278.699
337.992, 1292.883
338.475, 1304.432
338.957, 1305.450
339.439, 1319.882
339.921, 1330.649
340.403, 1334.175
340.885, 1332.423
341.367, 1325.558
341.849, 1317.067
342.332, 1305.651
342.814, 1296.151
343.296, 1295.911
343.778, 1304.924
344.260, 1309.829
344.742, 1293.204
345.224, 1272.783
345.706, 1251.295
346.189, 1242.498
346.671, 1230.622
347.153, 1215.829
347.635, 1189.386
348.117, 1177.986
348.599, 1160.559
349.081, 1146.116
349.563, 1134.373
350.045, 1113.949
350.528, 1092.912
351.010, 1073.615
351.492, 1058.128
351.974, 1052.364
352.456, 1060.270
352.938, 1070.444
353.420, 1068.343
353.902, 1057.375
354.384, 1048.346
354.867, 1051.478
355.349, 1058.087
355.831, 1056.893
356.313, 1044.887
356.795, 1035.107
357.277, 1041.490
357.759, 1056.211
358.241, 1065.775
358.724, 1064.044
359.206, 1055.377
359.688, 1039.150
360.170, 1015.005
360.652, 995.704
361.134, 993.078
361.616, 996.089
362.098, 993.309
362.581, 974.869
363.063, 956.357
363.545, 941.897
364.027, 931.607
364.509, 925.625
364.991, 932.472
365.473, 938.344
365.955, 934.292
366.437, 904.302
366.919, 881.661
367.402, 873.671
367.884, 876.496
368.366, 876.061
368.848, 869.263
369.330, 861.187
369.812, 853.796
370.294, 848.471
370.776, 840.836
371.259, 829.009
371.741, 815.653
372.223, 804.956
372.705, 794.477
373.187, 791.000
373.669, 799.714
374.151, 823.659
374.633, 834.138
375.116, 826.463
375.598, 811.928
376.080, 802.142
376.562, 796.772
377.044, 797.872
377.526, 808.857
378.008, 826.976
378.490, 834.297
378.973, 828.838
379.455, 821.517
379.937, 822.139
380.419, 830.182
380.901, 835.677
381.383, 836.170
381.865, 834.507
382.347, 835.358
382.829, 838.794
383.311, 845.732
383.794, 848.299
384.276, 847.749
384.758, 850.461
385.240, 852.381
385.722, 853.552
386.204, 851.729
386.686, 853.772
387.168, 854.266
387.651, 854.697
388.133, 857.284
388.615, 855.896
389.097, 858.449
389.579, 859.141
390.061, 858.822
390.543, 859.073
391.025, 857.013
391.508, 850.690
391.990, 842.673
392.472, 833.050
392.954, 822.389
393.436, 813.916
393.918, 810.474
394.400, 808.826
394.882, 806.367
395.364, 799.591
395.847, 797.248
396.329, 806.897
396.811, 822.304
397.293, 829.959
397.775, 814.875
398.257, 802.941
398.739, 799.559
399.221, 798.758
399.703, 795.692
400.186, 802.462
400.668, 806.845
401.150, 808.968
401.632, 802.065
402.114, 806.818
402.596, 806.899
403.078, 809.293
403.560, 814.748
404.043, 826.644
404.525, 838.672
405.007, 845.831
405.489, 846.894
405.971, 849.051
406.453, 853.446
406.935, 859.062
407.417, 863.448
407.900, 866.441
408.382, 869.238
408.864, 873.500
409.346, 878.690
409.828, 879.032
410.310, 873.248
410.792, 866.984
411.274, 869.579
411.756, 878.792
412.238, 884.230
412.721, 879.706
413.203, 869.930
413.685, 861.381
414.167, 854.200
414.649, 850.107
415.131, 855.232
415.613, 863.004
416.095, 862.305
416.578, 843.902
417.060, 826.838
417.542, 837.354
418.024, 862.891
418.506, 866.621
418.988, 865.061
419.470, 873.387
419.952, 879.313
420.435, 882.968
420.917, 877.552
421.399, 883.849
421.881, 886.536
422.363, 895.381
422.845, 906.790
423.327, 914.048
423.809, 913.683
424.291, 905.465
424.774, 898.986
425.256, 898.248
425.738, 896.769
426.220, 889.804
426.702, 867.967
427.184, 857.635
427.666, 866.222
428.148, 885.998
428.630, 893.895
429.113, 886.277
429.595, 874.889
430.077, 863.600
430.559, 852.114
431.041, 845.602
431.523, 845.828
432.005, 847.010
432.487, 839.127
432.970, 822.090
433.452, 810.763
433.934, 803.355
434.416, 802.834
434.898, 800.642
435.380, 796.868
435.862, 786.774
436.344, 784.839
436.827, 779.635
437.309, 774.298
437.791, 773.513
438.273, 764.338
438.755, 763.481
439.237, 758.695
439.719, 756.233
440.201, 748.148
440.683, 739.108
441.165, 732.833
441.648, 729.630
442.130, 728.108
442.612, 730.570
443.094, 733.035
443.576, 731.500
444.058, 719.807
444.540, 709.237
445.022, 702.622
445.505, 699.689
445.987, 699.117
446.469, 699.518
446.951, 703.113
447.433, 712.575
447.915, 736.866
448.397, 746.974
448.879, 735.052
449.362, 712.887
449.844, 698.461
450.326, 694.460
450.808, 692.531
451.290, 691.041
451.772, 689.945
452.254, 688.182
452.736, 684.953
453.218, 683.373
453.701, 687.830
454.183, 698.179
454.665, 704.085
455.147, 703.172
455.629, 698.672
456.111, 696.352
456.593, 695.978
457.075, 695.181
457.557, 689.634
458.040, 683.536
458.522, 681.456
459.004, 689.654
459.486, 695.356
459.968, 698.698
460.450, 692.608
460.932, 698.697
461.414, 699.906
461.897, 700.915
462.379, 708.718
462.861, 704.000
463.343, 711.695
463.825, 714.436
464.307, 719.444
464.789, 719.542
465.271, 721.156
465.754, 727.682
466.236, 731.489
466.718, 728.524
467.200, 726.967
467.682, 728.043
468.164, 733.456
468.646, 746.383
469.128, 766.142
469.610, 777.179
470.093, 773.969
470.575, 769.997
471.057, 773.945
471.539, 787.369
472.021, 801.992
472.503, 818.363
472.985, 834.563
473.467, 847.149
473.949, 855.927
474.432, 863.003
474.914, 870.138
475.396, 876.137
475.878, 874.425
476.360, 864.701
476.842, 857.327
477.324, 862.834
477.806, 877.251
478.289, 893.263
478.771, 910.747
479.253, 926.280
479.735, 933.816
480.217, 936.607
480.699, 942.972
481.181, 961.471
481.663, 981.611
482.146, 997.903
482.628, 1009.966
483.110, 1016.823
483.592, 1014.527
484.074, 1008.596
484.556, 1003.918
485.038, 999.309
485.520, 998.164
486.002, 1004.286
486.484, 1014.485
486.967, 1018.743
487.449, 1013.187
487.931, 1006.753
488.413, 1002.736
488.895, 1001.445
489.377, 1000.718
489.859, 1000.843
490.341, 1001.132
490.824, 1002.355
491.306, 1005.039
491.788, 1000.955
492.270, 986.722
492.752, 966.289
493.234, 947.728
493.716, 931.408
494.198, 918.211
494.681, 901.323
495.163, 906.894
495.645, 907.014
496.127, 901.974
496.609, 876.326
497.091, 877.290
497.573, 867.590
498.055, 857.452
498.537, 862.161
499.020, 849.408
499.502, 849.815
499.984, 849.258
500.466, 846.778
500.948, 838.576
501.430, 831.099
501.912, 828.625
502.394, 835.890
502.876, 837.019
503.359, 824.899
503.841, 809.037
504.323, 799.976
504.805, 801.762
505.287, 802.923
505.769, 800.392
506.251, 795.633
506.733, 797.712
507.216, 809.290
507.698, 819.152
508.180, 817.544
508.662, 805.154
509.144, 803.438
509.626, 814.627
510.108, 830.399
510.590, 842.050
511.073, 849.691
511.555, 850.254
512.037, 816.698
512.519, 807.437
513.001, 828.873
513.483, 842.857
513.965, 849.790
514.447, 828.551
514.929, 843.690
515.412, 844.252
515.894, 844.214
516.376, 864.473
516.858, 847.332
517.340, 867.269
517.822, 872.404
518.304, 884.316
518.786, 881.557
519.268, 883.329
519.751, 887.359
520.233, 888.836
520.715, 892.156
521.197, 899.864
521.679, 914.371
522.161, 937.710
522.643, 957.539
523.125, 974.554
523.607, 986.979
524.090, 988.369
524.572, 978.719
525.054, 979.920
525.536, 999.601
526.018, 1029.969
526.500, 1057.190
526.982, 1081.379
527.464, 1102.497
527.947, 1119.589
528.429, 1133.731
528.911, 1146.358
529.393, 1157.435
529.875, 1167.326
530.357, 1174.064
530.839, 1180.518
531.321, 1189.680
531.804, 1200.897
532.286, 1216.944
532.768, 1244.705
533.250, 1278.483
533.732, 1301.458
534.214, 1297.252
534.696, 1295.893
535.178, 1307.525
535.661, 1334.053
536.143, 1359.114
536.625, 1383.713
537.107, 1405.450
537.589, 1421.509
538.071, 1430.563
538.553, 1442.294
539.035, 1459.671
539.517, 1477.551
540.000, 1483.701
540.482, 1479.036
540.964, 1477.253
541.446, 1487.823
541.928, 1504.375
542.410, 1513.292
542.892, 1515.011
543.374, 1516.868
543.856, 1527.517
544.339, 1539.798
544.821, 1544.660
545.303, 1537.385
545.785, 1530.655
546.267, 1532.280
546.749, 1537.900
547.231, 1540.950
547.713, 1533.722
548.195, 1530.075
548.678, 1518.963
549.160, 1520.781
549.642, 1519.462
550.124, 1515.170
550.606, 1499.014
551.088, 1498.180
551.570, 1491.206
552.052, 1483.980
552.534, 1485.303
553.017, 1470.871
553.499, 1472.059
553.981, 1467.012
554.463, 1464.818
554.945, 1456.445
555.427, 1449.982
555.909, 1449.697
556.391, 1445.992
556.874, 1436.908
557.356, 1428.417
557.838, 1419.061
558.320, 1394.130
558.802, 1352.004
559.284, 1313.291
559.766, 1295.074
560.248, 1283.004
560.731, 1263.989
561.213, 1223.718
561.695, 1192.850
562.177, 1182.705
562.659, 1184.997
563.141, 1182.518
563.623, 1173.257
564.105, 1161.915
564.588, 1150.742
565.070, 1139.158
565.552, 1116.345
566.034, 1076.835
566.516, 1043.436
566.998, 1028.448
567.480, 1017.120
567.962, 1024.230
568.444, 1026.864
568.927, 1025.263
569.409, 1006.743
569.891, 1010.071
570.373, 1004.643
570.855, 998.856
571.337, 1005.259
571.819, 997.325
572.301, 1009.236
572.783, 1020.948
573.266, 1019.832
573.748, 1016.086
574.230, 1016.492
574.712, 1022.791
575.194, 1023.508
575.676, 1009.864
576.158, 994.554
576.640, 986.618
577.122, 990.055
577.605, 992.494
578.087, 991.774
578.569, 991.195
579.051, 999.343
579.533, 1018.247
580.015, 1030.378
580.497, 1027.725
580.979, 1015.359
581.461, 1007.038
581.944, 1002.772
582.426, 1002.796
582.908, 1013.839
583.390, 1026.924
583.872, 1026.497
584.354, 1009.609
584.836, 991.395
585.318, 984.919
585.801, 981.613
586.283, 971.778
586.765, 941.130
587.247, 917.202
587.729, 911.204
588.211, 916.881
588.693, 917.966
589.175, 912.644
589.657, 904.120
590.140, 892.106
590.622, 876.722
591.104, 864.403
591.586, 856.037
592.068, 847.981
592.550, 837.430
593.032, 824.534
593.515, 810.902
593.997, 795.680
594.479, 783.971
594.961, 787.367
595.443, 799.080
595.925, 801.850
596.407, 783.609
596.889, 762.929
597.371, 753.701
597.854, 754.818
598.336, 753.425
598.818, 749.655
599.300, 736.390
599.782, 735.386
600.264, 729.468
600.746, 723.349
601.228, 724.070
601.710, 712.188
602.193, 712.128
602.675, 712.236
603.157, 706.257
603.639, 677.287
604.121, 671.611
604.603, 676.966
605.085, 679.644
605.567, 679.787
606.049, 669.808
606.532, 672.900
607.014, 670.754
607.496, 668.393
607.978, 673.325
608.460, 669.680
608.942, 663.653
609.424, 665.486
609.906, 674.690
610.388, 683.690
610.871, 689.994
611.353, 694.378
611.835, 696.872
612.317, 694.849
612.799, 696.581
613.281, 707.508
613.763, 718.985
614.245, 719.165
614.728, 703.223
615.210, 691.758
615.692, 690.383
616.174, 693.945
616.656, 686.407
617.138, 667.895
617.620, 654.795
618.102, 659.482
618.584, 673.877
619.067, 682.020
619.549, 684.272
620.031, 685.456
620.513, 687.850
620.995, 691.353
621.477, 696.007
621.959, 701.997
622.442, 708.242
622.924, 716.495
623.406, 723.831
623.888, 727.036
624.370, 722.326
624.852, 718.300
625.334, 714.551
625.816, 712.254
626.298, 715.722
626.781, 727.230
627.263, 734.506
627.745, 731.665
628.227, 721.747
628.709, 715.264
629.191, 712.206
629.673, 712.079
630.155, 714.047
630.638, 718.912
631.120, 729.563
631.602, 746.746
632.084, 762.217
632.566, 770.930
633.048, 775.146
633.530, 777.163
634.012, 777.192
634.494, 775.485
634.977, 771.890
635.459, 766.613
635.941, 758.855
636.423, 741.564
636.905, 735.945
637.387, 749.997
637.869, 777.881
638.351, 797.974
638.833, 809.608
639.316, 818.769
639.798, 829.099
640.280, 839.273
640.762, 846.020
641.244, 849.272
641.726, 849.529
642.208, 847.065
642.690, 841.899
643.172, 830.592
643.655, 806.775
644.137, 797.916
644.619, 830.704
645.101, 877.751
645.583, 908.709
646.065, 904.252
646.547, 903.286
647.029, 908.133
647.511, 918.038
