##NAMES=Neptunite
##RRUFFID=R060746
##IDEAL CHEMISTRY=KNa_2_LiFe^2+^_2_Ti^4+^_2_Si_8_O_24_
##LOCALITY=San Benito Mountains, San Benito County, California, USA
##OWNER=RRUFF
##SOURCE=California Institute of Technology
##DESCRIPTION=Deep red-black fragment of a prismatic single crystal
##STATUS=The identification of this mineral has been confirmed by X-ray diffraction and chemical analysis
##URL=rruff.info/R060746
##MEASURED CHEMISTRY=K_1.00_Na_2.00_Li_1.00_(Fe^2+^_1.48_Mg_0.36_Mn_0.16_)_Î£=2_Ti_2.00_Si_8.00_O_24_
123.938, 832.740
124.420, 940.435
124.902, 1069.242
125.385, 1216.177
125.867, 1371.455
126.349, 1541.995
126.831, 1708.260
127.313, 1850.173
127.795, 1966.111
128.277, 2058.182
128.760, 2130.036
129.242, 2181.528
129.724, 2205.188
130.206, 2182.919
130.688, 2137.675
131.170, 2093.425
131.652, 2056.953
132.134, 2012.581
132.616, 1937.715
133.098, 1825.457
133.581, 1715.407
134.063, 1620.581
134.545, 1534.597
135.027, 1452.236
135.509, 1370.919
135.991, 1295.709
136.473, 1233.360
136.955, 1181.574
137.438, 1150.381
137.920, 1146.611
138.402, 1160.361
138.884, 1183.842
139.366, 1214.195
139.848, 1251.861
140.330, 1297.836
140.812, 1349.734
141.294, 1415.681
141.777, 1496.317
142.259, 1588.872
142.741, 1691.903
143.223, 1805.055
143.705, 1925.931
144.187, 2047.424
144.669, 2166.206
145.151, 2289.992
145.633, 2415.876
146.116, 2547.783
146.598, 2692.201
147.080, 2852.952
147.562, 3027.651
148.044, 3203.575
148.526, 3394.823
149.008, 3570.773
149.490, 3738.256
149.973, 3885.627
150.455, 4000.258
150.937, 4075.667
151.419, 4110.077
151.901, 4079.817
152.383, 3950.510
152.865, 3789.349
153.347, 3587.119
153.829, 3363.033
154.312, 3145.849
154.794, 2952.095
155.276, 2782.008
155.758, 2625.130
156.240, 2473.665
156.722, 2342.154
157.204, 2234.777
157.686, 2150.286
158.169, 2084.232
158.651, 2033.626
159.133, 1998.433
159.615, 1981.922
160.097, 1989.370
160.579, 2005.994
161.061, 2028.666
161.543, 2056.477
162.025, 2088.314
162.508, 2123.414
162.990, 2162.029
163.472, 2205.334
163.954, 2256.139
164.436, 2307.860
164.918, 2358.689
165.400, 2408.050
165.883, 2456.304
166.365, 2503.255
166.847, 2548.700
167.329, 2592.624
167.811, 2636.731
168.293, 2677.953
168.775, 2719.115
169.257, 2757.556
169.739, 2784.296
170.221, 2794.212
170.704, 2785.442
171.186, 2752.864
171.668, 2680.385
172.150, 2601.037
172.632, 2529.436
173.114, 2466.693
173.596, 2411.562
174.078, 2362.179
174.561, 2320.269
175.043, 2292.901
175.525, 2286.709
176.007, 2288.625
176.489, 2291.420
176.971, 2295.070
177.453, 2302.231
177.935, 2315.206
178.417, 2334.010
178.900, 2353.867
179.382, 2373.591
179.864, 2395.402
180.346, 2423.122
180.828, 2455.864
181.310, 2487.091
181.792, 2516.397
182.274, 2539.507
182.757, 2542.370
183.239, 2510.479
183.721, 2469.559
184.203, 2439.937
184.685, 2420.287
185.167, 2393.620
185.649, 2346.552
186.131, 2282.518
186.613, 2224.327
187.096, 2169.710
187.578, 2122.589
188.060, 2085.499
188.542, 2058.395
189.024, 2042.191
189.506, 2037.523
189.988, 2045.751
190.470, 2064.643
190.952, 2099.116
191.435, 2139.923
191.917, 2176.142
192.399, 2209.393
192.881, 2256.853
193.363, 2328.717
193.845, 2423.535
194.327, 2529.149
194.809, 2651.819
195.292, 2778.231
195.774, 2898.058
196.256, 3011.994
196.738, 3126.308
197.220, 3242.627
197.702, 3362.638
198.184, 3487.886
198.666, 3617.920
199.148, 3754.198
199.631, 3904.895
200.113, 4067.088
200.595, 4215.826
201.077, 4340.472
201.559, 4442.044
202.041, 4533.563
202.523, 4627.095
203.005, 4688.911
203.488, 4692.937
203.970, 4643.269
204.452, 4564.617
204.934, 4464.272
205.416, 4339.142
205.898, 4190.144
206.380, 4012.399
206.862, 3822.333
207.344, 3617.197
207.827, 3403.457
208.309, 3212.171
208.791, 3058.050
209.273, 2929.463
209.755, 2804.704
210.237, 2682.484
210.719, 2569.953
211.201, 2471.085
211.684, 2385.559
212.166, 2310.360
212.648, 2246.149
213.130, 2191.289
213.612, 2141.574
214.094, 2096.478
214.576, 2058.582
215.058, 2033.325
215.540, 2016.557
216.023, 1995.526
216.505, 1964.152
216.987, 1933.200
217.469, 1916.911
217.951, 1915.056
218.433, 1915.782
218.915, 1917.123
219.397, 1917.565
219.880, 1912.550
220.362, 1899.162
220.844, 1885.479
221.326, 1881.871
221.808, 1887.185
222.290, 1893.306
222.772, 1900.118
223.254, 1905.505
223.736, 1902.787
224.219, 1888.279
224.701, 1877.493
225.183, 1891.115
225.665, 1925.137
226.147, 1955.194
226.629, 1975.209
227.111, 1988.705
227.593, 1996.105
228.076, 1996.224
228.558, 2003.056
229.040, 2031.375
229.522, 2078.293
230.004, 2126.203
230.486, 2177.354
230.968, 2225.824
231.450, 2265.135
231.932, 2295.028
232.415, 2321.019
232.897, 2345.876
233.379, 2369.806
233.861, 2394.044
234.343, 2426.032
234.825, 2452.578
235.307, 2461.920
235.789, 2455.559
236.271, 2444.818
236.754, 2435.906
237.236, 2427.678
237.718, 2416.284
238.200, 2403.370
238.682, 2385.861
239.164, 2356.072
239.646, 2318.784
240.128, 2291.068
240.611, 2282.441
241.093, 2287.626
241.575, 2290.295
242.057, 2284.600
242.539, 2285.604
243.021, 2302.632
243.503, 2330.011
243.985, 2355.996
244.467, 2376.024
244.950, 2393.146
245.432, 2414.229
245.914, 2441.062
246.396, 2467.039
246.878, 2494.226
247.360, 2518.915
247.842, 2537.775
248.324, 2550.105
248.807, 2552.302
249.289, 2538.125
249.771, 2504.342
250.253, 2461.361
250.735, 2405.728
251.217, 2343.167
251.699, 2278.137
252.181, 2211.516
252.663, 2143.756
253.146, 2075.764
253.628, 2007.826
254.110, 1937.856
254.592, 1855.350
255.074, 1778.556
255.556, 1721.401
256.038, 1683.361
256.520, 1654.402
257.003, 1626.791
257.485, 1600.608
257.967, 1574.895
258.449, 1543.484
258.931, 1518.375
259.413, 1506.574
259.895, 1505.584
260.377, 1509.119
260.859, 1513.391
261.342, 1518.303
261.824, 1522.739
262.306, 1522.494
262.788, 1526.582
263.270, 1537.242
263.752, 1553.404
264.234, 1573.611
264.716, 1597.165
265.198, 1623.706
265.681, 1651.735
266.163, 1681.347
266.645, 1712.832
267.127, 1743.851
267.609, 1777.786
268.091, 1819.302
268.573, 1869.470
269.056, 1923.767
269.538, 1972.683
270.020, 2006.637
270.502, 2054.969
270.984, 2127.594
271.466, 2205.458
271.948, 2273.542
272.430, 2331.269
272.912, 2390.261
273.395, 2464.219
273.877, 2557.209
274.359, 2648.990
274.841, 2739.271
275.323, 2828.656
275.805, 2918.249
276.287, 3007.070
276.769, 3091.626
277.251, 3165.733
277.734, 3231.002
278.216, 3311.396
278.698, 3421.873
279.180, 3528.671
279.662, 3620.687
280.144, 3701.029
280.626, 3774.741
281.108, 3843.173
281.591, 3907.998
282.073, 3976.640
282.555, 4055.880
283.037, 4120.963
283.519, 4166.830
284.001, 4194.000
284.483, 4202.034
284.965, 4191.127
285.447, 4159.657
285.930, 4103.737
286.412, 4022.721
286.894, 3925.407
287.376, 3797.690
287.858, 3666.115
288.340, 3551.628
288.822, 3456.672
289.304, 3374.298
289.786, 3300.384
290.269, 3234.794
290.751, 3177.193
291.233, 3123.824
291.715, 3085.328
292.197, 3078.030
292.679, 3097.403
293.161, 3112.387
293.643, 3100.645
294.125, 3079.640
294.608, 3084.397
295.090, 3122.422
295.572, 3157.446
296.054, 3151.328
296.536, 3115.536
297.018, 3100.667
297.500, 3133.018
297.983, 3173.505
298.465, 3192.779
298.947, 3191.427
299.429, 3176.821
299.911, 3147.913
300.393, 3111.313
300.875, 3090.182
301.357, 3085.318
301.839, 3092.805
302.322, 3107.859
302.804, 3134.677
303.286, 3181.010
303.768, 3250.063
304.250, 3339.567
304.732, 3445.612
305.214, 3564.696
305.696, 3709.120
306.178, 3894.877
306.661, 4097.766
307.143, 4301.224
307.625, 4500.491
308.107, 4690.209
308.589, 4867.138
309.071, 5034.270
309.553, 5170.459
310.035, 5288.208
310.517, 5369.424
311.000, 5409.295
311.482, 5405.357
311.964, 5353.967
312.446, 5251.461
312.928, 5099.514
313.410, 4913.261
313.892, 4658.722
314.374, 4405.270
314.857, 4157.828
315.339, 3920.873
315.821, 3695.571
316.303, 3482.030
316.785, 3287.994
317.267, 3130.206
317.749, 3014.719
318.231, 2922.469
318.714, 2861.563
319.196, 2813.567
319.678, 2767.273
320.160, 2720.666
320.642, 2678.033
321.124, 2643.271
321.606, 2616.557
322.088, 2595.258
322.570, 2582.443
323.052, 2571.743
323.535, 2559.636
324.017, 2546.430
324.499, 2533.272
324.981, 2526.096
325.463, 2518.075
325.945, 2487.919
326.427, 2427.204
326.909, 2376.979
327.392, 2367.430
327.874, 2381.752
328.356, 2394.807
328.838, 2401.092
329.320, 2407.104
329.802, 2417.405
330.284, 2431.881
330.766, 2448.712
331.249, 2464.892
331.731, 2486.335
332.213, 2524.145
332.695, 2580.261
333.177, 2640.352
333.659, 2699.292
334.141, 2760.111
334.623, 2828.979
335.105, 2906.814
335.588, 2986.662
336.070, 3059.583
336.552, 3122.916
337.034, 3201.142
337.516, 3302.594
337.998, 3410.815
338.480, 3521.648
338.962, 3631.566
339.444, 3734.104
339.927, 3825.580
340.409, 3905.608
340.891, 3972.604
341.373, 4018.497
341.855, 4059.956
342.337, 4114.111
342.819, 4158.127
343.301, 4166.595
343.784, 4130.956
344.266, 4062.448
344.748, 3979.626
345.230, 3885.490
345.712, 3766.882
346.194, 3601.846
346.676, 3430.459
347.158, 3268.249
347.641, 3117.650
348.123, 2979.159
348.605, 2854.711
349.087, 2742.796
349.569, 2634.165
350.051, 2522.126
350.533, 2426.042
351.015, 2354.148
351.497, 2300.681
351.979, 2258.193
352.462, 2225.140
352.944, 2200.001
353.426, 2182.964
353.908, 2174.276
354.390, 2164.884
354.872, 2149.262
355.354, 2134.120
355.836, 2127.715
356.319, 2130.944
356.801, 2136.463
357.283, 2141.722
357.765, 2146.677
358.247, 2152.453
358.729, 2159.833
359.211, 2163.896
359.693, 2162.429
360.176, 2154.448
360.658, 2129.617
361.140, 2073.296
361.622, 2012.525
362.104, 1962.013
362.586, 1921.314
363.068, 1887.095
363.550, 1858.335
364.032, 1833.090
364.515, 1803.977
364.997, 1768.786
365.479, 1732.450
365.961, 1695.493
366.443, 1657.490
366.925, 1615.906
367.407, 1571.185
367.889, 1527.687
368.371, 1490.235
368.854, 1458.457
369.336, 1435.319
369.818, 1430.108
370.300, 1424.439
370.782, 1407.566
371.264, 1384.990
371.746, 1369.632
372.228, 1370.212
372.711, 1381.987
373.193, 1392.424
373.675, 1402.583
374.157, 1408.450
374.639, 1400.305
375.121, 1391.748
375.603, 1395.697
376.085, 1415.147
376.568, 1440.697
377.050, 1464.108
377.532, 1486.628
378.014, 1515.486
378.496, 1553.111
378.978, 1594.775
379.460, 1639.703
379.942, 1686.351
380.424, 1726.082
380.906, 1747.994
381.389, 1768.128
381.871, 1802.070
382.353, 1848.648
382.835, 1898.124
383.317, 1946.354
383.799, 1992.366
384.281, 2032.272
384.763, 2062.138
385.246, 2092.281
385.728, 2130.960
386.210, 2167.908
386.692, 2192.679
387.174, 2202.424
387.656, 2198.917
388.138, 2184.112
388.620, 2157.792
389.103, 2120.175
389.585, 2060.161
390.067, 2000.530
390.549, 1951.600
391.031, 1909.493
391.513, 1864.240
391.995, 1808.399
392.477, 1748.990
392.959, 1704.645
393.442, 1678.691
393.924, 1659.116
394.406, 1648.136
394.888, 1638.931
395.370, 1625.593
395.852, 1607.259
396.334, 1589.506
396.816, 1574.141
397.298, 1562.449
397.781, 1562.114
398.263, 1578.170
398.745, 1593.527
399.227, 1590.270
399.709, 1574.349
400.191, 1565.891
400.673, 1569.236
401.155, 1579.938
401.638, 1598.319
402.120, 1622.099
402.602, 1643.253
403.084, 1658.056
403.566, 1669.601
404.048, 1684.752
404.530, 1706.710
405.012, 1725.881
405.495, 1743.719
405.977, 1757.400
406.459, 1761.726
406.941, 1758.440
407.423, 1757.358
407.905, 1768.744
408.387, 1791.371
408.869, 1797.951
409.351, 1772.868
409.833, 1750.367
410.316, 1739.349
410.798, 1733.899
411.280, 1726.641
411.762, 1715.011
412.244, 1702.454
412.726, 1695.483
413.208, 1694.745
413.690, 1685.325
414.173, 1656.321
414.655, 1628.947
415.137, 1622.086
415.619, 1631.129
416.101, 1636.479
416.583, 1627.265
417.065, 1611.879
417.547, 1602.049
418.030, 1597.445
418.512, 1588.534
418.994, 1568.013
419.476, 1542.250
419.958, 1528.807
420.440, 1534.546
420.922, 1536.450
421.404, 1526.716
421.886, 1511.828
422.369, 1497.808
422.851, 1486.076
423.333, 1476.726
423.815, 1470.495
424.297, 1467.824
424.779, 1459.903
425.261, 1446.363
425.743, 1427.808
426.225, 1398.212
426.708, 1365.708
427.190, 1343.242
427.672, 1336.249
428.154, 1332.874
428.636, 1312.763
429.118, 1273.076
429.600, 1236.196
430.082, 1205.801
430.565, 1178.172
431.047, 1151.841
431.529, 1126.299
432.011, 1099.888
432.493, 1068.985
432.975, 1038.042
433.457, 1014.305
433.939, 997.706
434.422, 981.834
434.904, 962.365
435.386, 942.827
435.868, 932.114
436.350, 933.842
436.832, 934.150
437.314, 930.445
437.796, 923.141
438.278, 910.462
438.760, 893.295
439.243, 877.996
439.725, 871.002
440.207, 872.194
440.689, 869.268
441.171, 852.072
441.653, 842.442
442.135, 850.070
442.617, 865.068
443.100, 876.549
443.582, 880.806
444.064, 880.274
444.546, 875.996
445.028, 867.411
445.510, 865.449
445.992, 877.323
446.474, 887.662
446.957, 883.962
447.439, 871.326
447.921, 863.561
448.403, 870.667
448.885, 879.743
449.367, 875.213
449.849, 859.338
450.331, 845.875
450.813, 840.036
451.296, 838.721
451.778, 837.084
452.260, 835.134
452.742, 832.896
453.224, 830.076
453.706, 827.219
454.188, 823.957
454.670, 820.901
455.152, 820.073
455.635, 823.098
456.117, 828.815
456.599, 832.361
457.081, 832.829
457.563, 832.462
458.045, 830.429
458.527, 828.543
459.009, 826.493
459.492, 825.093
459.974, 828.621
460.456, 843.764
460.938, 867.307
461.420, 886.315
461.902, 900.799
462.384, 909.951
462.866, 909.242
463.349, 903.963
463.831, 904.203
464.313, 912.846
464.795, 922.761
465.277, 927.765
465.759, 932.371
466.241, 946.320
466.723, 971.537
467.205, 997.599
467.688, 1013.448
468.170, 1018.056
468.652, 1027.646
469.134, 1046.348
469.616, 1064.732
470.098, 1080.329
470.580, 1093.945
471.062, 1104.089
471.544, 1110.757
472.027, 1122.187
472.509, 1153.404
472.991, 1207.128
473.473, 1254.092
473.955, 1286.291
474.437, 1319.201
474.919, 1359.996
475.401, 1407.676
475.884, 1460.307
476.366, 1520.189
476.848, 1580.926
477.330, 1634.789
477.812, 1683.089
478.294, 1732.248
478.776, 1784.894
479.258, 1837.345
479.741, 1885.583
480.223, 1929.128
480.705, 1968.983
481.187, 2005.319
481.669, 2037.791
482.151, 2068.569
482.633, 2095.482
483.115, 2111.882
483.597, 2113.926
484.079, 2109.710
484.562, 2118.497
485.044, 2147.201
485.526, 2169.365
486.008, 2184.424
486.490, 2190.485
486.972, 2183.130
487.454, 2165.020
487.936, 2144.826
488.419, 2127.007
488.901, 2109.755
489.383, 2091.798
489.865, 2072.986
490.347, 2048.711
490.829, 2018.245
491.311, 1980.161
491.793, 1928.059
492.276, 1858.121
492.758, 1796.675
493.240, 1750.710
493.722, 1712.726
494.204, 1680.058
494.686, 1650.727
495.168, 1620.448
495.650, 1586.593
496.132, 1550.485
496.615, 1515.077
497.097, 1478.844
497.579, 1447.090
498.061, 1418.085
498.543, 1395.154
499.025, 1384.856
499.507, 1383.860
499.989, 1378.680
500.471, 1357.516
500.954, 1329.251
501.436, 1310.464
501.918, 1301.311
502.400, 1295.408
502.882, 1289.765
503.364, 1286.611
503.846, 1291.205
504.328, 1305.197
504.810, 1316.719
505.293, 1319.631
505.775, 1322.281
506.257, 1330.452
506.739, 1344.528
507.221, 1364.559
507.703, 1391.380
508.185, 1421.123
508.668, 1442.174
509.150, 1451.679
509.632, 1458.123
510.114, 1463.296
510.596, 1464.942
511.078, 1460.456
511.560, 1450.791
512.042, 1439.786
512.524, 1428.068
513.006, 1417.528
513.489, 1414.599
513.971, 1419.076
514.453, 1413.966
514.935, 1390.223
515.417, 1357.697
515.899, 1330.007
516.381, 1306.215
516.864, 1290.324
517.346, 1288.397
517.828, 1289.706
518.310, 1286.882
518.792, 1280.853
519.274, 1275.952
519.756, 1274.583
520.238, 1274.913
520.720, 1272.245
521.203, 1264.237
521.685, 1259.911
522.167, 1259.008
522.649, 1263.156
523.131, 1278.837
523.613, 1300.815
524.095, 1314.098
524.577, 1308.651
525.059, 1295.531
525.542, 1287.448
526.024, 1283.583
526.506, 1277.789
526.988, 1266.808
527.470, 1257.877
527.952, 1261.942
528.434, 1283.104
528.916, 1294.486
529.398, 1282.079
529.881, 1274.517
530.363, 1289.835
530.845, 1317.955
531.327, 1340.380
531.809, 1349.888
532.291, 1355.858
532.773, 1371.864
533.255, 1398.584
533.737, 1429.444
534.220, 1468.842
534.702, 1505.875
535.184, 1532.830
535.666, 1553.912
536.148, 1576.585
536.630, 1602.087
537.112, 1630.713
537.594, 1667.938
538.077, 1707.332
538.559, 1733.446
539.041, 1743.152
539.523, 1749.371
540.005, 1764.535
540.487, 1788.354
540.969, 1804.636
541.451, 1801.679
541.933, 1805.900
542.416, 1821.091
542.898, 1845.842
543.380, 1881.417
543.862, 1926.655
544.344, 1973.038
544.826, 2011.148
545.308, 2043.865
545.791, 2085.273
546.273, 2137.961
546.755, 2186.638
547.237, 2225.595
547.719, 2254.931
548.201, 2274.348
548.683, 2280.504
549.165, 2289.602
549.647, 2314.239
550.130, 2337.731
550.612, 2345.447
551.094, 2337.485
551.576, 2319.731
552.058, 2295.219
552.540, 2264.493
553.022, 2227.815
553.504, 2182.502
553.987, 2138.505
554.469, 2097.959
554.951, 2057.672
555.433, 2019.442
555.915, 1980.523
556.397, 1932.812
556.879, 1867.862
557.361, 1798.649
557.843, 1737.668
558.326, 1684.148
558.808, 1635.271
559.290, 1590.699
559.772, 1549.738
560.254, 1512.710
560.736, 1480.257
561.218, 1445.068
561.700, 1403.210
562.182, 1363.475
562.665, 1326.438
563.147, 1293.973
563.629, 1269.948
564.111, 1254.678
564.593, 1240.230
565.075, 1217.493
565.557, 1187.878
566.039, 1160.472
566.521, 1135.548
567.004, 1112.339
567.486, 1089.637
567.968, 1069.028
568.450, 1053.111
568.932, 1042.718
569.414, 1034.407
569.896, 1025.596
570.378, 1019.616
570.860, 1022.123
571.343, 1030.894
571.825, 1036.465
572.307, 1032.712
572.789, 1025.055
573.271, 1029.096
573.753, 1050.845
574.235, 1064.978
574.718, 1061.167
575.200, 1056.908
575.682, 1064.255
576.164, 1079.170
576.646, 1089.171
577.128, 1085.915
577.610, 1082.253
578.092, 1090.828
578.574, 1107.266
579.057, 1119.938
579.539, 1126.052
580.021, 1131.868
580.503, 1143.562
580.985, 1161.097
581.467, 1179.648
581.949, 1203.259
582.431, 1222.817
582.914, 1233.068
583.396, 1240.987
583.878, 1253.626
584.360, 1271.452
584.842, 1289.195
585.324, 1301.346
585.806, 1310.900
586.288, 1326.633
586.770, 1348.473
587.253, 1364.638
587.735, 1371.603
588.217, 1368.386
588.699, 1351.217
589.181, 1313.981
589.663, 1284.975
590.145, 1269.745
590.627, 1257.634
591.109, 1248.376
591.592, 1237.009
592.074, 1214.995
592.556, 1179.142
593.038, 1137.465
593.520, 1098.955
594.002, 1063.591
594.484, 1033.373
594.966, 1010.920
595.448, 986.654
595.931, 951.566
596.413, 912.196
596.895, 883.683
597.377, 870.105
597.859, 857.544
598.341, 844.913
598.823, 829.474
599.305, 804.411
599.787, 773.458
600.270, 750.348
600.752, 743.821
601.234, 746.764
601.716, 741.463
602.198, 725.018
602.680, 714.868
603.162, 718.949
603.644, 722.360
604.127, 712.578
604.609, 694.682
605.091, 682.238
605.573, 681.157
606.055, 681.454
606.537, 675.515
607.019, 667.913
607.501, 666.102
607.984, 670.987
608.466, 678.851
608.948, 687.475
609.430, 695.591
609.912, 695.749
610.394, 684.288
610.876, 672.463
611.358, 657.328
611.841, 646.399
612.323, 646.918
612.805, 657.024
613.287, 666.924
613.769, 673.369
614.251, 677.184
614.733, 678.408
615.215, 677.643
615.697, 676.119
616.180, 674.179
616.662, 672.652
617.144, 672.633
617.626, 674.112
618.108, 673.778
618.590, 668.513
619.072, 665.966
619.554, 669.618
620.036, 674.951
620.519, 678.537
621.001, 679.870
621.483, 679.486
621.965, 674.121
622.447, 669.491
622.929, 674.729
623.411, 687.942
623.893, 700.944
624.375, 711.278
624.858, 717.388
625.340, 715.984
625.822, 705.153
626.304, 702.063
626.786, 717.584
627.268, 728.116
627.750, 726.424
628.232, 718.409
628.714, 707.391
629.197, 694.910
629.679, 689.772
630.161, 702.136
630.643, 723.835
631.125, 743.493
631.607, 760.377
632.089, 769.205
632.571, 766.329
633.054, 760.745
633.536, 766.807
634.018, 788.240
634.500, 804.463
634.982, 814.697
635.464, 820.855
635.946, 816.794
636.428, 812.200
636.911, 820.915
637.393, 845.616
637.875, 871.094
638.357, 882.977
638.839, 888.816
639.321, 904.878
639.803, 930.796
640.285, 954.409
640.768, 970.192
641.250, 981.941
641.732, 995.427
642.214, 1009.691
642.696, 1029.562
643.178, 1059.978
643.660, 1090.010
644.142, 1118.566
644.624, 1143.437
645.107, 1159.329
645.589, 1165.165
646.071, 1173.613
646.553, 1199.241
647.035, 1232.365
647.517, 1252.169
647.999, 1259.356
648.481, 1270.735
648.963, 1294.025
649.446, 1324.762
