##NAMES=Nesquehonite
##RRUFFID=R050639
##IDEAL CHEMISTRY=MgCO_3_&#183;3H_2_O
##LOCALITY=Nesquehoning, Pennsylvania, USA
##OWNER=RRUFF
##SOURCE=University of Arizona Mineral Museum
##DESCRIPTION=White to colorless bladed crystals
##STATUS=The identification of this mineral has been confirmed by X-ray diffraction and chemical analysis
##URL=rruff.info/R050639
##MEASURED CHEMISTRY=Mg_1.00_(HCO_3_)(OH)Â·2H_2_O ; C and H not measured but estimated by difference and charge balance
89.78156, 0.0000000E+00
90.26367, 51.86893
90.74579, 53.14286
91.22791, 52.65133
91.71002, 50.58020
92.19214, 48.55310
92.67426, 48.13961
93.15638, 48.83433
93.63850, 49.29055
94.12061, 48.66205
94.60273, 47.60352
95.08485, 48.09981
95.56696, 50.39704
96.04908, 52.55577
96.53120, 51.55323
97.01331, 47.59139
97.49543, 44.39824
97.97755, 44.06583
98.45966, 46.41250
98.94178, 47.98363
99.42390, 48.68440
99.90602, 48.70402
100.3881, 48.16231
100.8703, 46.78379
101.3524, 45.82397
101.8345, 46.16222
102.3166, 48.25159
102.7987, 49.66240
103.2808, 50.08768
103.7630, 49.71835
104.2451, 49.28205
104.7272, 48.43943
105.2093, 47.97384
105.6914, 48.50307
106.1735, 50.87523
106.6557, 52.73753
107.1378, 53.21426
107.6199, 52.21421
108.1020, 53.24152
108.5841, 58.37871
109.0662, 64.46056
109.5484, 68.71213
110.0305, 69.15894
110.5126, 69.78661
110.9947, 71.00926
111.4768, 72.66916
111.9590, 75.76595
112.4411, 81.11108
112.9232, 87.80260
113.4053, 94.52033
113.8874, 100.3257
114.3695, 106.7484
114.8517, 114.3343
115.3338, 123.2940
115.8159, 133.0146
116.2980, 143.3351
116.7801, 154.3872
117.2622, 166.3400
117.7444, 178.5343
118.2265, 192.1797
118.7086, 207.9828
119.1907, 226.2519
119.6728, 246.7642
120.1549, 270.0646
120.6371, 295.7739
121.1192, 322.4703
121.6013, 350.1299
122.0834, 377.8351
122.5655, 404.4340
123.0476, 429.4785
123.5298, 453.3654
124.0119, 476.5918
124.4940, 499.1164
124.9761, 520.4481
125.4582, 539.7930
125.9404, 557.5276
126.4225, 574.2041
126.9046, 588.8721
127.3867, 602.9678
127.8688, 618.2395
128.3509, 634.5691
128.8331, 653.2293
129.3152, 675.8237
129.7973, 702.1913
130.2794, 730.8575
130.7615, 762.1216
131.2436, 795.3312
131.7258, 827.7284
132.2079, 859.0520
132.6900, 890.0280
133.1721, 921.8952
133.6542, 954.5252
134.1364, 987.2753
134.6185, 1020.721
135.1006, 1054.894
135.5827, 1086.510
136.0648, 1115.000
136.5469, 1141.515
137.0291, 1169.188
137.5112, 1198.334
137.9933, 1226.593
138.4754, 1253.282
138.9575, 1278.458
139.4396, 1299.995
139.9218, 1316.448
140.4039, 1329.004
140.8860, 1343.175
141.3681, 1359.311
141.8502, 1376.291
142.3323, 1392.301
142.8145, 1405.854
143.2966, 1422.916
143.7787, 1445.135
144.2608, 1472.603
144.7429, 1498.766
145.2250, 1523.246
145.7072, 1547.072
146.1893, 1571.275
146.6714, 1595.633
147.1535, 1620.640
147.6356, 1646.286
148.1178, 1672.505
148.5999, 1699.208
149.0820, 1727.354
149.5641, 1755.481
150.0462, 1781.576
150.5283, 1803.986
151.0105, 1825.682
151.4926, 1830.581
151.9747, 1832.719
152.4568, 1835.451
152.9389, 1840.053
153.4210, 1845.029
153.9032, 1848.334
154.3853, 1848.373
154.8674, 1847.964
155.3495, 1847.862
155.8316, 1847.885
156.3137, 1848.713
156.7959, 1851.173
157.2780, 1854.415
157.7601, 1856.843
158.2422, 1856.287
158.7243, 1856.150
159.2065, 1858.163
159.6886, 1863.569
160.1707, 1869.264
160.6528, 1874.453
161.1349, 1879.236
161.6170, 1883.905
162.0992, 1887.818
162.5813, 1892.066
163.0634, 1897.435
163.5455, 1904.836
164.0276, 1912.335
164.5097, 1919.869
164.9919, 1927.062
165.4740, 1932.402
165.9561, 1933.808
166.4382, 1933.667
166.9203, 1934.160
167.4024, 1936.398
167.8846, 1938.947
168.3667, 1941.003
168.8488, 1942.621
169.3309, 1944.100
169.8130, 1946.770
170.2952, 1949.079
170.7773, 1949.019
171.2594, 1943.173
171.7415, 1936.768
172.2236, 1934.406
172.7057, 1935.865
173.1879, 1938.295
173.6700, 1939.439
174.1521, 1940.110
174.6342, 1941.696
175.1163, 1944.448
175.5984, 1948.476
176.0806, 1954.320
176.5627, 1961.999
177.0448, 1969.907
177.5269, 1976.629
178.0090, 1982.463
178.4911, 1988.313
178.9733, 1994.863
179.4554, 2001.509
179.9375, 2007.392
180.4196, 2012.445
180.9017, 2016.940
181.3838, 2020.682
181.8660, 2023.955
182.3481, 2027.874
182.8302, 2034.447
183.3123, 2041.926
183.7944, 2046.232
184.2766, 2047.219
184.7587, 2045.761
185.2408, 2042.151
185.7229, 2036.701
186.2050, 2031.026
186.6871, 2026.179
187.1693, 2021.763
187.6514, 2016.595
188.1335, 2010.453
188.6156, 2003.815
189.0977, 1996.830
189.5798, 1989.558
190.0620, 1983.071
190.5441, 1977.660
191.0262, 1973.342
191.5083, 1970.621
191.9904, 1969.789
192.4725, 1969.746
192.9547, 1968.526
193.4368, 1966.084
193.9189, 1963.736
194.4010, 1962.229
194.8831, 1961.535
195.3652, 1960.856
195.8474, 1959.875
196.3295, 1959.347
196.8116, 1960.548
197.2937, 1963.431
197.7758, 1968.289
198.2579, 1977.745
198.7401, 1992.054
199.2222, 1998.023
199.7043, 1992.487
200.1864, 1980.574
200.6685, 1974.307
201.1507, 1974.784
201.6328, 1975.819
202.1149, 1973.307
202.5970, 1966.780
203.0791, 1961.619
203.5612, 1958.863
204.0434, 1957.342
204.5255, 1953.433
205.0076, 1946.317
205.4897, 1939.687
205.9718, 1936.370
206.4539, 1937.166
206.9361, 1936.560
207.4182, 1933.896
207.9003, 1929.629
208.3824, 1924.550
208.8645, 1917.787
209.3466, 1912.488
209.8288, 1911.106
210.3109, 1914.747
210.7930, 1917.555
211.2751, 1919.226
211.7572, 1919.654
212.2393, 1918.031
212.7215, 1913.340
213.2036, 1908.838
213.6857, 1906.625
214.1678, 1907.135
214.6499, 1908.484
215.1320, 1910.808
215.6142, 1913.816
216.0963, 1916.218
216.5784, 1917.855
217.0605, 1919.157
217.5426, 1920.333
218.0247, 1921.271
218.5069, 1922.383
218.9890, 1923.713
219.4711, 1925.256
219.9532, 1926.837
220.4353, 1928.007
220.9175, 1930.000
221.3996, 1934.165
221.8817, 1942.320
222.3638, 1947.748
222.8459, 1949.155
223.3280, 1947.274
223.8102, 1945.716
224.2923, 1944.625
224.7744, 1943.572
225.2565, 1942.296
225.7386, 1940.735
226.2207, 1939.102
226.7029, 1937.740
227.1850, 1936.347
227.6671, 1933.493
228.1492, 1928.972
228.6313, 1923.281
229.1134, 1916.796
229.5956, 1909.735
230.0777, 1901.139
230.5598, 1889.801
231.0419, 1876.701
231.5240, 1866.834
232.0062, 1862.996
232.4883, 1858.640
232.9704, 1849.393
233.4525, 1832.161
233.9346, 1816.953
234.4167, 1804.847
234.8989, 1795.420
235.3810, 1786.922
235.8631, 1780.026
236.3452, 1772.995
236.8273, 1764.312
237.3094, 1751.632
237.7916, 1742.595
238.2737, 1739.607
238.7558, 1740.641
239.2379, 1736.804
239.7200, 1724.961
240.2021, 1712.445
240.6843, 1703.248
241.1664, 1699.245
241.6485, 1694.452
242.1306, 1688.389
242.6127, 1681.343
243.0948, 1674.497
243.5770, 1667.520
244.0591, 1661.244
244.5412, 1656.313
245.0233, 1653.545
245.5054, 1650.278
245.9876, 1646.158
246.4697, 1641.562
246.9518, 1637.534
247.4339, 1634.258
247.9160, 1631.262
248.3981, 1628.282
248.8803, 1624.953
249.3624, 1622.468
249.8445, 1621.179
250.3266, 1620.623
250.8087, 1619.586
251.2908, 1618.052
251.7730, 1616.005
252.2551, 1613.109
252.7372, 1608.047
253.2193, 1605.594
253.7014, 1606.936
254.1835, 1610.367
254.6657, 1611.874
255.1478, 1610.467
255.6299, 1608.889
256.1120, 1608.366
256.5941, 1609.457
257.0763, 1609.839
257.5584, 1609.213
258.0405, 1608.097
258.5226, 1607.564
259.0047, 1607.874
259.4868, 1608.247
259.9690, 1608.404
260.4511, 1608.316
260.9332, 1608.082
261.4153, 1607.412
261.8974, 1606.844
262.3795, 1607.573
262.8617, 1610.480
263.3438, 1612.525
263.8259, 1612.199
264.3080, 1608.894
264.7901, 1607.694
265.2722, 1609.266
265.7544, 1612.128
266.2365, 1613.965
266.7186, 1614.190
267.2007, 1615.224
267.6828, 1618.441
268.1649, 1624.161
268.6471, 1626.780
269.1292, 1625.414
269.6113, 1622.440
270.0934, 1620.952
270.5755, 1621.483
271.0576, 1621.342
271.5398, 1619.336
272.0219, 1615.550
272.5040, 1613.846
272.9861, 1614.792
273.4682, 1616.615
273.9503, 1617.540
274.4325, 1617.458
274.9146, 1616.942
275.3967, 1615.777
275.8788, 1614.172
276.3610, 1614.359
276.8431, 1616.947
277.3252, 1619.461
277.8073, 1619.096
278.2894, 1615.523
278.7715, 1613.092
279.2537, 1613.128
279.7358, 1614.876
280.2179, 1614.966
280.7000, 1613.128
281.1821, 1610.917
281.6642, 1609.519
282.1464, 1608.943
282.6285, 1608.633
283.1106, 1608.594
283.5927, 1608.677
284.0748, 1608.127
284.5569, 1606.775
285.0391, 1606.206
285.5212, 1608.352
286.0033, 1612.851
286.4854, 1615.420
286.9675, 1615.052
287.4496, 1613.178
287.9318, 1612.431
288.4139, 1612.815
288.8960, 1614.011
289.3781, 1616.569
289.8602, 1620.040
290.3423, 1621.754
290.8245, 1621.000
291.3066, 1619.743
291.7887, 1621.304
292.2708, 1625.455
292.7529, 1629.953
293.2350, 1634.175
293.7172, 1637.848
294.1993, 1639.686
294.6814, 1639.429
295.1635, 1638.397
295.6456, 1637.818
296.1277, 1637.737
296.6099, 1638.424
297.0920, 1640.184
297.5741, 1642.725
298.0562, 1645.470
298.5383, 1648.366
299.0204, 1651.631
299.5026, 1655.318
299.9847, 1659.506
300.4668, 1664.614
300.9489, 1672.960
301.4311, 1681.146
301.9132, 1682.884
302.3953, 1678.452
302.8774, 1674.087
303.3595, 1675.059
303.8416, 1679.508
304.3238, 1684.259
304.8059, 1688.352
305.2880, 1692.179
305.7701, 1695.421
306.2522, 1698.363
306.7343, 1702.576
307.2165, 1711.305
307.6986, 1721.198
308.1807, 1728.006
308.6628, 1730.091
309.1449, 1729.901
309.6270, 1728.777
310.1092, 1726.827
310.5913, 1724.469
311.0734, 1721.154
311.5555, 1717.913
312.0376, 1716.022
312.5197, 1716.473
313.0019, 1716.150
313.4840, 1712.424
313.9661, 1706.664
314.4482, 1701.638
314.9303, 1699.843
315.4124, 1698.230
315.8946, 1694.411
316.3767, 1687.402
316.8588, 1681.815
317.3409, 1681.201
317.8230, 1682.669
318.3051, 1682.408
318.7873, 1676.922
319.2694, 1671.525
319.7515, 1668.587
320.2336, 1668.393
320.7157, 1668.396
321.1978, 1667.531
321.6800, 1666.696
322.1621, 1666.705
322.6442, 1668.352
323.1263, 1670.182
323.6084, 1672.245
324.0905, 1674.450
324.5727, 1675.618
325.0548, 1673.333
325.5369, 1671.399
326.0190, 1672.131
326.5012, 1680.899
326.9833, 1686.317
327.4654, 1685.388
327.9475, 1679.877
328.4296, 1676.859
328.9117, 1677.411
329.3939, 1679.515
329.8760, 1682.546
330.3581, 1687.788
330.8402, 1691.497
331.3223, 1692.728
331.8044, 1692.661
332.2866, 1693.820
332.7687, 1697.383
333.2508, 1700.313
333.7329, 1701.303
334.2150, 1699.610
334.6971, 1699.656
335.1793, 1702.536
335.6614, 1706.106
336.1435, 1707.226
336.6256, 1704.590
337.1077, 1703.162
337.5898, 1704.731
338.0720, 1709.123
338.5541, 1711.623
339.0362, 1711.660
339.5183, 1711.272
340.0004, 1712.809
340.4825, 1716.834
340.9647, 1718.856
341.4468, 1717.371
341.9289, 1713.773
342.4110, 1713.002
342.8931, 1715.483
343.3752, 1717.928
343.8574, 1717.525
344.3395, 1714.483
344.8216, 1712.726
345.3037, 1712.908
345.7858, 1713.884
346.2679, 1713.839
346.7501, 1712.774
347.2322, 1711.075
347.7143, 1707.908
348.1964, 1704.172
348.6785, 1703.320
349.1607, 1705.870
349.6428, 1708.900
350.1249, 1709.317
350.6070, 1707.562
351.0891, 1704.949
351.5713, 1701.481
352.0534, 1697.785
352.5355, 1694.526
353.0176, 1691.776
353.4997, 1689.840
353.9818, 1689.425
354.4640, 1689.904
354.9461, 1690.399
355.4282, 1691.158
355.9103, 1691.213
356.3924, 1689.015
356.8745, 1685.140
357.3567, 1681.906
357.8388, 1680.935
358.3209, 1680.978
358.8030, 1680.962
359.2851, 1680.641
359.7672, 1680.417
360.2494, 1680.401
360.7315, 1680.646
361.2136, 1681.238
361.6957, 1682.414
362.1778, 1683.774
362.6599, 1685.218
363.1421, 1686.776
363.6242, 1688.009
364.1063, 1688.072
364.5884, 1688.012
365.0705, 1688.901
365.5526, 1691.627
366.0348, 1694.576
366.5169, 1697.463
366.9990, 1700.269
367.4811, 1702.984
367.9632, 1707.103
368.4453, 1710.097
368.9275, 1710.390
369.4096, 1702.918
369.8917, 1699.779
370.3738, 1703.629
370.8559, 1711.874
371.3380, 1717.259
371.8202, 1719.006
372.3023, 1718.996
372.7844, 1717.424
373.2665, 1713.404
373.7487, 1711.561
374.2308, 1712.558
374.7129, 1715.083
375.1950, 1717.678
375.6771, 1720.738
376.1592, 1722.578
376.6414, 1722.310
377.1235, 1720.250
377.6056, 1719.628
378.0877, 1720.701
378.5698, 1722.384
379.0519, 1723.968
379.5341, 1725.450
380.0162, 1726.272
380.4983, 1726.015
380.9804, 1725.431
381.4625, 1726.487
381.9446, 1729.155
382.4268, 1731.779
382.9089, 1733.379
383.3910, 1734.129
383.8731, 1734.664
384.3552, 1735.039
384.8373, 1735.107
385.3195, 1734.216
385.8016, 1732.792
386.2837, 1732.097
386.7658, 1733.655
387.2479, 1735.781
387.7300, 1736.123
388.2122, 1734.739
388.6943, 1733.200
389.1764, 1733.058
389.6585, 1733.323
390.1406, 1732.625
390.6227, 1729.665
391.1049, 1726.964
391.5870, 1726.712
392.0691, 1728.175
392.5512, 1729.151
393.0333, 1727.934
393.5154, 1726.390
393.9976, 1726.038
394.4797, 1727.796
394.9618, 1728.267
395.4439, 1725.551
395.9260, 1721.162
396.4081, 1717.123
396.8903, 1713.019
397.3724, 1710.113
397.8545, 1709.361
398.3366, 1710.890
398.8188, 1711.324
399.3009, 1709.614
399.7830, 1707.280
400.2651, 1705.238
400.7472, 1703.222
401.2293, 1701.928
401.7115, 1701.852
402.1936, 1702.461
402.6757, 1702.009
403.1578, 1699.666
403.6399, 1697.668
404.1220, 1697.036
404.6042, 1697.986
405.0863, 1699.097
405.5684, 1700.623
406.0505, 1701.877
406.5326, 1701.476
407.0147, 1699.045
407.4969, 1697.969
407.9790, 1699.786
408.4611, 1703.525
408.9432, 1705.125
409.4253, 1704.450
409.9074, 1703.044
410.3896, 1701.380
410.8717, 1699.814
411.3538, 1700.285
411.8359, 1703.625
412.3180, 1707.682
412.8001, 1709.071
413.2823, 1708.385
413.7644, 1708.101
414.2465, 1711.328
414.7286, 1714.902
415.2107, 1713.477
415.6928, 1706.659
416.1750, 1700.557
416.6571, 1700.296
417.1392, 1703.456
417.6213, 1706.835
418.1034, 1710.392
418.5855, 1712.757
419.0677, 1712.181
419.5498, 1709.465
420.0319, 1707.612
420.5140, 1708.569
420.9961, 1710.242
421.4782, 1711.499
421.9604, 1712.337
422.4425, 1712.331
422.9246, 1710.696
423.4067, 1708.358
423.8889, 1706.563
424.3710, 1705.053
424.8531, 1704.560
425.3352, 1705.836
425.8173, 1708.894
426.2994, 1710.538
426.7816, 1709.512
427.2637, 1708.329
427.7458, 1708.841
428.2279, 1712.414
428.7100, 1714.238
429.1921, 1713.345
429.6743, 1710.960
430.1564, 1709.941
430.6385, 1710.496
431.1206, 1711.646
431.6027, 1713.387
432.0848, 1715.655
432.5670, 1716.301
433.0491, 1714.989
433.5312, 1713.461
434.0133, 1713.953
434.4954, 1716.113
434.9775, 1717.478
435.4597, 1717.215
435.9418, 1716.154
436.4239, 1715.530
436.9060, 1715.352
437.3881, 1715.620
437.8702, 1716.663
438.3524, 1718.023
438.8345, 1718.799
439.3166, 1718.718
439.7987, 1719.167
440.2808, 1721.732
440.7629, 1725.452
441.2451, 1728.802
441.7272, 1732.957
442.2093, 1735.002
442.6914, 1731.417
443.1735, 1723.294
443.6556, 1717.864
444.1378, 1720.687
444.6199, 1725.074
445.1020, 1726.678
445.5841, 1723.011
446.0662, 1720.262
446.5483, 1719.657
447.0305, 1720.406
447.5126, 1721.209
447.9947, 1722.159
448.4768, 1723.004
448.9590, 1723.692
449.4411, 1724.212
449.9232, 1724.502
450.4053, 1724.278
450.8874, 1724.188
451.3695, 1724.873
451.8517, 1726.652
452.3338, 1727.598
452.8159, 1727.190
453.2980, 1726.214
453.7801, 1726.422
454.2622, 1727.888
454.7444, 1729.297
455.2265, 1729.866
455.7086, 1729.872
456.1907, 1730.613
456.6728, 1732.166
457.1549, 1733.715
457.6371, 1734.485
458.1192, 1734.700
458.6013, 1734.924
459.0834, 1735.326
459.5655, 1735.727
460.0476, 1735.899
460.5298, 1735.902
461.0119, 1735.917
461.4940, 1735.659
461.9761, 1735.708
462.4582, 1736.771
462.9403, 1739.002
463.4225, 1740.922
463.9046, 1742.021
464.3867, 1742.426
464.8688, 1742.239
465.3509, 1740.831
465.8330, 1739.593
466.3152, 1738.654
466.7973, 1738.084
467.2794, 1738.120
467.7615, 1738.969
468.2436, 1740.254
468.7257, 1742.227
469.2079, 1745.459
469.6900, 1746.366
470.1721, 1743.178
470.6542, 1739.575
471.1363, 1740.199
471.6184, 1746.822
472.1006, 1750.314
472.5827, 1747.960
473.0648, 1742.141
473.5469, 1740.558
474.0291, 1743.557
474.5112, 1746.777
474.9933, 1747.481
475.4754, 1746.265
475.9575, 1745.518
476.4396, 1745.299
476.9218, 1745.796
477.4039, 1747.856
477.8860, 1750.773
478.3681, 1752.840
478.8502, 1753.084
479.3323, 1752.765
479.8145, 1752.870
480.2966, 1753.388
480.7787, 1754.297
481.2608, 1755.711
481.7429, 1757.400
482.2250, 1759.645
482.7072, 1762.845
483.1893, 1764.349
483.6714, 1761.512
484.1535, 1757.293
484.6356, 1754.691
485.1177, 1755.525
485.5999, 1756.481
486.0820, 1757.103
486.5641, 1757.508
487.0462, 1758.121
487.5283, 1759.267
488.0104, 1760.247
488.4926, 1760.800
488.9747, 1760.888
489.4568, 1760.696
489.9389, 1759.887
490.4210, 1759.410
490.9031, 1760.787
491.3853, 1764.195
491.8674, 1766.306
492.3495, 1765.975
492.8316, 1764.479
493.3137, 1764.777
493.7958, 1766.705
494.2780, 1768.576
494.7601, 1769.246
495.2422, 1769.204
495.7243, 1769.168
496.2064, 1769.148
496.6885, 1769.638
497.1707, 1771.596
497.6528, 1774.137
498.1349, 1776.048
498.6170, 1776.805
499.0992, 1777.136
499.5813, 1777.348
500.0634, 1777.436
500.5455, 1777.396
501.0276, 1777.337
501.5097, 1777.053
501.9919, 1776.337
502.4740, 1775.080
502.9561, 1774.128
503.4382, 1773.169
503.9203, 1772.802
504.4024, 1773.641
504.8846, 1777.084
505.3667, 1778.729
505.8488, 1777.541
506.3309, 1774.902
506.8130, 1773.791
507.2951, 1774.423
507.7773, 1775.690
508.2594, 1777.548
508.7415, 1779.746
509.2236, 1780.821
509.7057, 1780.725
510.1878, 1780.161
510.6700, 1779.444
511.1521, 1778.714
511.6342, 1778.398
512.1163, 1778.614
512.5984, 1779.082
513.0806, 1779.358
513.5627, 1779.670
514.0448, 1780.493
514.5269, 1783.368
515.0090, 1785.713
515.4911, 1785.205
515.9733, 1782.251
516.4554, 1779.770
516.9375, 1778.469
517.4196, 1778.239
517.9017, 1779.300
518.3839, 1782.696
518.8660, 1784.829
519.3481, 1784.515
519.8302, 1783.100
520.3123, 1781.929
520.7944, 1780.788
521.2766, 1780.321
521.7587, 1780.812
522.2408, 1782.060
522.7229, 1783.466
523.2050, 1785.318
523.6871, 1786.398
524.1693, 1785.534
524.6514, 1782.993
525.1335, 1781.934
525.6156, 1782.492
526.0977, 1783.706
526.5798, 1784.818
527.0620, 1785.811
527.5441, 1786.696
528.0262, 1787.640
528.5083, 1788.091
528.9904, 1786.157
529.4725, 1783.149
529.9547, 1782.322
530.4368, 1787.551
530.9189, 1793.641
531.4010, 1797.340
531.8831, 1798.549
532.3652, 1798.792
532.8474, 1797.408
533.3295, 1796.044
533.8116, 1795.780
534.2937, 1797.527
534.7758, 1799.086
535.2579, 1800.753
535.7401, 1802.067
536.2222, 1802.148
536.7043, 1800.188
537.1864, 1799.043
537.6685, 1799.654
538.1506, 1801.550
538.6328, 1802.537
539.1149, 1802.617
539.5970, 1801.970
540.0791, 1799.969
540.5612, 1797.158
541.0433, 1796.561
541.5255, 1798.455
542.0076, 1800.794
542.4897, 1801.759
542.9718, 1801.658
543.4539, 1800.954
543.9360, 1799.048
544.4182, 1797.811
544.9003, 1799.416
545.3824, 1802.790
545.8645, 1805.577
546.3466, 1805.899
546.8287, 1806.222
547.3109, 1808.030
547.7930, 1811.395
548.2751, 1813.758
548.7572, 1813.831
549.2393, 1813.502
549.7214, 1813.836
550.2036, 1815.424
550.6857, 1816.367
551.1678, 1816.490
551.6499, 1816.189
552.1320, 1815.342
552.6141, 1813.401
553.0963, 1814.952
553.5784, 1822.634
554.0605, 1833.162
554.5426, 1837.795
555.0247, 1836.745
555.5068, 1833.704
555.9890, 1829.757
556.4711, 1825.650
556.9532, 1822.597
557.4353, 1820.640
557.9174, 1819.826
558.3995, 1821.021
558.8817, 1822.988
559.3638, 1824.407
559.8459, 1824.919
560.3281, 1824.906
560.8102, 1824.005
561.2923, 1822.787
561.7744, 1822.156
562.2565, 1822.246
562.7386, 1823.026
563.2208, 1825.188
563.7029, 1828.324
564.1850, 1829.388
564.6671, 1827.018
565.1492, 1825.004
565.6313, 1825.466
566.1135, 1828.637
566.5956, 1831.116
567.0777, 1832.878
567.5598, 1833.957
568.0419, 1834.142
568.5240, 1833.584
569.0062, 1833.070
569.4883, 1832.707
569.9704, 1832.556
570.4525, 1833.025
570.9346, 1833.808
571.4167, 1834.101
571.8989, 1832.943
572.3810, 1831.674
572.8631, 1831.178
573.3452, 1831.412
573.8273, 1831.934
574.3094, 1832.596
574.7916, 1833.503
575.2737, 1834.838
575.7558, 1836.935
576.2379, 1838.425
576.7200, 1839.093
577.2021, 1839.281
577.6843, 1839.122
578.1664, 1838.166
578.6485, 1838.288
579.1306, 1840.084
579.6127, 1842.571
580.0948, 1843.750
580.5770, 1843.611
581.0591, 1843.293
581.5412, 1843.026
582.0233, 1842.995
582.5054, 1844.085
582.9875, 1846.070
583.4697, 1847.327
583.9518, 1844.654
584.4339, 1841.784
