##NAMES=Nesquehonite
##RRUFFID=R070764
##IDEAL CHEMISTRY=MgCO_3_&#183;3H_2_O
##LOCALITY=Tucson, Arizona, USA from the interior of a rotting saguaro cactus
##OWNER=RRUFF
##SOURCE=Hexiong Yang
##DESCRIPTION=Aggregates of light brown platy crystals
##STATUS=The identification of this mineral has been confirmed by single-crystal X-ray diffraction.
##URL=rruff.info/R070764
91.87140, 0.0000000E+00
92.35352, 100.4619
92.83563, 85.17776
93.31775, 78.66743
93.79987, 87.23492
94.28198, 105.4106
94.76410, 116.7170
95.24622, 115.5426
95.72833, 108.2398
96.21045, 107.3812
96.69257, 113.0590
97.17468, 123.2328
97.65680, 137.0252
98.13892, 154.4281
98.62103, 172.7449
99.10315, 191.6109
99.58527, 210.8150
100.0674, 226.8298
100.5495, 237.9977
101.0316, 249.3231
101.5137, 266.3796
101.9958, 289.6172
102.4780, 317.5215
102.9601, 351.1347
103.4422, 392.0804
103.9243, 426.9203
104.4064, 451.2890
104.8885, 472.5099
105.3707, 505.0642
105.8528, 554.4024
106.3349, 607.0744
106.8170, 658.0205
107.2991, 706.9498
107.7813, 754.5814
108.2634, 798.3785
108.7455, 840.7423
109.2276, 888.0367
109.7097, 950.6153
110.1918, 1011.039
110.6740, 1062.167
111.1561, 1088.116
111.6382, 1122.399
112.1203, 1171.939
112.6024, 1234.405
113.0845, 1292.807
113.5667, 1337.783
114.0488, 1381.292
114.5309, 1431.943
115.0130, 1497.954
115.4951, 1564.833
115.9772, 1624.601
116.4594, 1678.184
116.9415, 1742.619
117.4236, 1835.261
117.9057, 1938.522
118.3878, 2033.171
118.8699, 2108.434
119.3521, 2177.131
119.8342, 2247.339
120.3163, 2319.790
120.7984, 2390.986
121.2805, 2456.475
121.7626, 2519.408
122.2448, 2585.174
122.7269, 2664.821
123.2090, 2744.401
123.6911, 2809.003
124.1732, 2855.219
124.6553, 2894.150
125.1375, 2934.580
125.6196, 2975.842
126.1017, 3015.822
126.5838, 3048.366
127.0659, 3079.579
127.5480, 3121.975
128.0302, 3180.478
128.5123, 3244.617
128.9944, 3299.246
129.4765, 3345.301
129.9586, 3391.503
130.4407, 3449.378
130.9229, 3514.233
131.4050, 3565.117
131.8871, 3590.603
132.3692, 3605.225
132.8513, 3642.747
133.3334, 3698.692
133.8156, 3745.397
134.2977, 3775.733
134.7798, 3802.798
135.2619, 3820.844
135.7440, 3824.843
136.2261, 3819.233
136.7083, 3826.373
137.1904, 3848.565
137.6725, 3876.057
138.1546, 3900.766
138.6367, 3923.475
139.1188, 3940.508
139.6010, 3950.274
140.0831, 3952.792
140.5652, 3954.060
141.0473, 3951.885
141.5294, 3951.323
142.0115, 3960.893
142.4937, 3987.376
142.9758, 4007.846
143.4579, 4013.272
143.9400, 3998.496
144.4221, 3993.518
144.9042, 4001.351
145.3864, 4016.811
145.8685, 4031.285
146.3506, 4045.773
146.8327, 4058.015
147.3148, 4067.826
147.7969, 4076.896
148.2791, 4079.449
148.7612, 4069.827
149.2433, 4054.317
149.7254, 4047.387
150.2075, 4058.451
150.6896, 4069.996
151.1718, 4075.306
151.6539, 4065.275
152.1360, 4062.452
152.6181, 4069.972
153.1002, 4085.367
153.5823, 4101.235
154.0645, 4123.687
154.5466, 4141.869
155.0287, 4150.579
155.5108, 4139.048
155.9929, 4130.450
156.4750, 4126.307
156.9572, 4127.082
157.4393, 4135.189
157.9214, 4161.291
158.4035, 4188.750
158.8856, 4207.283
159.3677, 4209.834
159.8499, 4208.190
160.3320, 4201.512
160.8141, 4191.426
161.2962, 4187.956
161.7783, 4205.236
162.2604, 4225.788
162.7426, 4235.196
163.2247, 4214.266
163.7068, 4194.443
164.1889, 4190.940
164.6710, 4202.969
165.1531, 4217.250
165.6353, 4230.029
166.1174, 4240.718
166.5995, 4248.673
167.0816, 4253.203
167.5637, 4255.226
168.0458, 4252.835
168.5280, 4246.090
169.0101, 4243.372
169.4922, 4256.303
169.9743, 4275.370
170.4564, 4287.201
170.9385, 4277.905
171.4207, 4264.077
171.9028, 4259.875
172.3849, 4266.021
172.8670, 4277.793
173.3491, 4300.603
173.8312, 4326.347
174.3134, 4339.497
174.7955, 4317.504
175.2776, 4285.854
175.7597, 4277.707
176.2418, 4296.847
176.7239, 4321.022
177.2061, 4329.657
177.6882, 4327.019
178.1703, 4324.555
178.6524, 4329.303
179.1345, 4337.432
179.6166, 4341.950
180.0988, 4341.988
180.5809, 4341.209
181.0630, 4346.478
181.5451, 4355.548
182.0272, 4359.195
182.5093, 4343.442
182.9915, 4319.099
183.4736, 4316.395
183.9557, 4341.482
184.4378, 4372.890
184.9199, 4379.433
185.4020, 4364.178
185.8842, 4349.813
186.3663, 4351.256
186.8484, 4364.206
187.3305, 4373.479
187.8126, 4378.146
188.2947, 4378.670
188.7769, 4373.373
189.2590, 4362.642
189.7411, 4354.326
190.2232, 4354.895
190.7053, 4362.748
191.1874, 4366.674
191.6696, 4364.443
192.1517, 4360.634
192.6338, 4363.226
193.1159, 4372.283
193.5980, 4385.840
194.0801, 4408.957
194.5623, 4439.903
195.0444, 4451.869
195.5265, 4437.408
196.0086, 4409.793
196.4907, 4397.094
196.9728, 4400.510
197.4550, 4408.397
197.9371, 4414.671
198.4192, 4419.313
198.9013, 4423.379
199.3834, 4427.462
199.8655, 4430.499
200.3477, 4428.208
200.8298, 4418.899
201.3119, 4412.016
201.7940, 4414.735
202.2761, 4428.129
202.7582, 4439.625
203.2404, 4448.861
203.7225, 4455.083
204.2046, 4453.883
204.6867, 4442.291
205.1688, 4433.559
205.6509, 4440.226
206.1331, 4466.881
206.6152, 4476.791
207.0973, 4459.036
207.5794, 4426.577
208.0615, 4422.865
208.5436, 4457.242
209.0258, 4495.791
209.5079, 4517.585
209.9900, 4519.989
210.4721, 4516.485
210.9542, 4503.402
211.4363, 4486.674
211.9185, 4489.132
212.4006, 4518.712
212.8827, 4550.351
213.3648, 4567.586
213.8469, 4566.786
214.3290, 4565.653
214.8112, 4565.222
215.2933, 4565.408
215.7754, 4566.137
216.2575, 4567.890
216.7396, 4569.199
217.2217, 4568.543
217.7039, 4564.164
218.1860, 4563.713
218.6681, 4570.348
219.1502, 4580.896
219.6323, 4582.555
220.1144, 4570.644
220.5966, 4557.939
221.0787, 4552.360
221.5608, 4557.377
222.0429, 4559.717
222.5250, 4555.744
223.0071, 4548.906
223.4893, 4553.094
223.9714, 4574.906
224.4535, 4597.513
224.9356, 4612.232
225.4177, 4617.331
225.8998, 4618.145
226.3820, 4612.932
226.8641, 4603.833
227.3462, 4597.849
227.8283, 4593.302
228.3104, 4594.301
228.7925, 4604.203
229.2747, 4629.539
229.7568, 4649.194
230.2389, 4661.808
230.7210, 4668.495
231.2031, 4672.398
231.6852, 4673.490
232.1674, 4671.796
232.6495, 4665.905
233.1316, 4649.221
233.6137, 4643.855
234.0958, 4656.048
234.5779, 4678.750
235.0601, 4691.272
235.5422, 4686.985
236.0243, 4682.363
236.5064, 4685.089
236.9885, 4699.323
237.4706, 4711.929
237.9528, 4723.621
238.4349, 4733.326
238.9170, 4737.470
239.3991, 4731.635
239.8812, 4726.825
240.3633, 4728.108
240.8455, 4738.777
241.3276, 4747.736
241.8097, 4756.729
242.2918, 4763.249
242.7739, 4760.069
243.2560, 4737.657
243.7382, 4720.336
244.2203, 4718.648
244.7024, 4739.601
245.1845, 4756.596
245.6666, 4769.154
246.1487, 4777.971
246.6309, 4784.563
247.1130, 4788.908
247.5951, 4790.919
248.0772, 4788.534
248.5593, 4777.159
249.0414, 4779.201
249.5236, 4802.890
250.0057, 4834.746
250.4878, 4852.747
250.9699, 4852.174
251.4520, 4845.903
251.9341, 4836.609
252.4163, 4822.767
252.8984, 4812.850
253.3805, 4805.937
253.8626, 4803.671
254.3447, 4809.421
254.8268, 4827.431
255.3090, 4845.037
255.7911, 4858.990
256.2732, 4869.372
256.7553, 4875.890
257.2374, 4877.138
257.7195, 4875.923
258.2017, 4875.427
258.6838, 4875.302
259.1659, 4876.754
259.6480, 4880.492
260.1301, 4886.595
260.6122, 4892.033
261.0944, 4896.067
261.5765, 4900.417
262.0586, 4908.633
262.5407, 4925.220
263.0228, 4932.634
263.5049, 4922.821
263.9871, 4896.889
264.4692, 4886.024
264.9513, 4895.405
265.4334, 4911.417
265.9155, 4922.538
266.3976, 4928.323
266.8798, 4929.570
267.3619, 4924.014
267.8440, 4913.192
268.3261, 4910.241
268.8082, 4916.388
269.2903, 4927.737
269.7725, 4943.691
270.2546, 4966.935
270.7367, 4980.673
271.2188, 4978.930
271.7009, 4966.399
272.1830, 4963.927
272.6652, 4974.405
273.1473, 4987.015
273.6294, 4993.940
274.1115, 4993.882
274.5936, 4995.867
275.0757, 5000.853
275.5579, 5008.353
276.0400, 5017.782
276.5221, 5029.998
277.0042, 5040.497
277.4863, 5045.348
277.9684, 5043.911
278.4506, 5046.523
278.9327, 5056.448
279.4148, 5067.547
279.8969, 5062.501
280.3790, 5038.083
280.8611, 5020.434
281.3433, 5026.462
281.8254, 5056.057
282.3075, 5082.607
282.7896, 5106.118
283.2717, 5125.133
283.7538, 5139.130
284.2360, 5148.382
284.7181, 5146.501
285.2002, 5123.799
285.6823, 5083.678
286.1644, 5056.301
286.6465, 5042.087
287.1287, 5039.782
287.6108, 5053.993
288.0929, 5083.529
288.5750, 5106.894
289.0571, 5112.839
289.5392, 5106.138
290.0214, 5106.015
290.5035, 5113.035
290.9856, 5121.828
291.4677, 5127.317
291.9498, 5129.795
292.4319, 5130.810
292.9141, 5130.224
293.3962, 5128.886
293.8783, 5127.083
294.3604, 5124.800
294.8425, 5127.109
295.3246, 5144.553
295.8068, 5171.430
296.2889, 5187.355
296.7710, 5183.988
297.2531, 5171.865
297.7352, 5168.248
298.2173, 5172.370
298.6995, 5177.615
299.1816, 5176.981
299.6637, 5174.141
300.1458, 5177.623
300.6279, 5190.662
301.1100, 5206.572
301.5922, 5218.401
302.0743, 5226.171
302.5564, 5230.175
303.0385, 5228.126
303.5206, 5223.125
304.0027, 5218.191
304.4849, 5212.505
304.9670, 5211.820
305.4491, 5224.796
305.9312, 5247.368
306.4133, 5269.803
306.8954, 5297.903
307.3776, 5317.993
307.8597, 5308.300
308.3418, 5264.649
308.8239, 5225.521
309.3060, 5224.027
309.7881, 5245.089
310.2703, 5264.844
310.7524, 5273.294
311.2345, 5277.410
311.7166, 5281.711
312.1987, 5286.258
312.6808, 5289.568
313.1630, 5289.094
313.6451, 5287.547
314.1272, 5287.829
314.6093, 5290.606
315.0914, 5295.531
315.5735, 5304.726
316.0557, 5316.893
316.5378, 5325.317
317.0199, 5321.140
317.5020, 5315.592
317.9841, 5317.463
318.4662, 5335.156
318.9484, 5350.799
319.4305, 5357.586
319.9126, 5357.816
320.3947, 5357.503
320.8768, 5359.745
321.3589, 5360.900
321.8411, 5358.683
322.3232, 5350.995
322.8053, 5344.462
323.2874, 5339.132
323.7695, 5335.917
324.2516, 5336.269
324.7338, 5340.679
325.2159, 5348.397
325.6980, 5360.890
326.1801, 5380.438
326.6622, 5394.649
327.1443, 5397.667
327.6265, 5397.259
328.1086, 5401.313
328.5907, 5419.578
329.0728, 5431.473
329.5549, 5430.688
330.0370, 5417.053
330.5192, 5410.208
331.0013, 5413.076
331.4834, 5420.219
331.9655, 5428.535
332.4476, 5442.163
332.9297, 5449.590
333.4119, 5447.023
333.8940, 5437.150
334.3761, 5431.391
334.8582, 5429.006
335.3403, 5431.893
335.8224, 5442.737
336.3046, 5466.679
336.7867, 5482.757
337.2688, 5488.741
337.7509, 5488.102
338.2330, 5488.104
338.7151, 5489.538
339.1973, 5489.108
339.6794, 5484.582
340.1615, 5475.717
340.6436, 5469.688
341.1257, 5466.678
341.6078, 5466.463
342.0900, 5469.011
342.5721, 5474.400
343.0542, 5482.209
343.5363, 5493.792
344.0184, 5507.623
344.5005, 5516.647
344.9827, 5520.420
345.4648, 5522.337
345.9469, 5526.162
346.4290, 5531.296
346.9111, 5532.025
347.3932, 5524.979
347.8754, 5515.890
348.3575, 5517.773
348.8396, 5529.603
349.3217, 5540.823
349.8038, 5543.292
350.2859, 5539.703
350.7681, 5535.502
351.2502, 5530.261
351.7323, 5528.322
352.2144, 5538.947
352.6965, 5557.921
353.1786, 5572.196
353.6608, 5570.393
354.1429, 5562.661
354.6250, 5561.147
355.1071, 5566.518
355.5892, 5575.872
356.0714, 5589.935
356.5535, 5606.033
357.0356, 5620.258
357.5177, 5636.165
357.9998, 5645.661
358.4819, 5636.165
358.9641, 5611.638
359.4462, 5594.471
359.9283, 5601.016
360.4104, 5617.403
360.8925, 5632.542
361.3746, 5644.935
361.8568, 5653.886
362.3389, 5658.521
362.8210, 5659.376
363.3031, 5657.861
363.7852, 5646.197
364.2673, 5638.774
364.7495, 5645.517
365.2316, 5673.831
365.7137, 5692.699
366.1958, 5684.754
366.6779, 5667.995
367.1600, 5663.514
367.6422, 5690.114
368.1243, 5712.182
368.6064, 5720.657
369.0885, 5714.702
369.5706, 5710.973
370.0527, 5709.218
370.5349, 5709.917
371.0170, 5713.694
371.4991, 5723.473
371.9812, 5731.394
372.4633, 5736.537
372.9454, 5739.545
373.4276, 5742.325
373.9097, 5744.306
374.3918, 5747.242
374.8739, 5754.497
375.3560, 5770.742
375.8381, 5767.254
376.3203, 5733.325
376.8024, 5693.573
377.2845, 5689.991
377.7666, 5729.336
378.2487, 5768.364
378.7308, 5794.343
379.2130, 5808.075
379.6951, 5809.502
380.1772, 5796.481
380.6593, 5782.085
381.1414, 5779.417
381.6235, 5787.265
382.1057, 5794.224
382.5878, 5797.760
383.0699, 5799.472
383.5520, 5802.212
384.0341, 5805.934
384.5162, 5809.815
384.9984, 5812.840
385.4805, 5815.755
385.9626, 5820.408
386.4447, 5827.172
386.9268, 5834.575
387.4089, 5841.741
387.8911, 5848.417
388.3732, 5853.889
388.8553, 5855.673
389.3374, 5857.438
389.8195, 5864.725
390.3016, 5876.934
390.7838, 5885.669
391.2659, 5881.809
391.7480, 5873.323
392.2301, 5868.616
392.7122, 5872.181
393.1943, 5877.031
393.6765, 5880.631
394.1586, 5883.132
394.6407, 5884.799
395.1228, 5883.103
395.6049, 5882.806
396.0870, 5886.991
396.5692, 5897.780
397.0513, 5907.319
397.5334, 5916.761
398.0155, 5923.322
398.4976, 5923.417
398.9797, 5901.250
399.4619, 5889.081
399.9440, 5898.270
400.4261, 5928.597
400.9082, 5947.220
401.3903, 5944.560
401.8724, 5939.116
402.3546, 5943.456
402.8367, 5964.943
403.3188, 5979.676
403.8009, 5984.253
404.2830, 5982.205
404.7651, 5982.521
405.2473, 5986.091
405.7294, 5989.622
406.2115, 5992.576
406.6936, 5995.059
407.1757, 5992.029
407.6578, 5981.505
408.1400, 5970.944
408.6221, 5970.933
409.1042, 5981.190
409.5863, 5987.581
410.0684, 5984.350
410.5505, 5976.472
411.0327, 5975.632
411.5148, 5981.720
411.9969, 5990.758
412.4790, 6003.597
412.9611, 6017.148
413.4432, 6021.510
413.9254, 6012.846
414.4075, 6005.182
414.8896, 6018.503
415.3717, 6044.775
415.8538, 6065.005
416.3359, 6062.658
416.8181, 6054.858
417.3002, 6060.767
417.7823, 6080.060
418.2644, 6091.410
418.7465, 6074.809
419.2286, 6047.988
419.7108, 6027.727
420.1929, 6014.343
420.6750, 6013.187
421.1571, 6036.159
421.6392, 6073.674
422.1213, 6100.333
422.6035, 6097.405
423.0856, 6092.491
423.5677, 6099.483
424.0498, 6126.082
424.5319, 6140.478
425.0140, 6128.888
425.4962, 6109.618
425.9783, 6101.313
426.4604, 6113.157
426.9425, 6122.709
427.4246, 6125.800
427.9067, 6123.676
428.3889, 6125.059
428.8710, 6132.409
429.3531, 6138.948
429.8352, 6140.446
430.3173, 6135.698
430.7994, 6130.979
431.2816, 6125.075
431.7637, 6121.256
432.2458, 6126.695
432.7279, 6141.944
433.2100, 6155.867
433.6921, 6164.175
434.1743, 6168.101
434.6564, 6173.587
435.1385, 6180.902
435.6206, 6183.623
436.1027, 6168.867
436.5848, 6145.014
437.0670, 6136.946
437.5491, 6153.610
438.0312, 6176.801
438.5133, 6184.084
438.9954, 6180.935
439.4775, 6182.427
439.9597, 6205.171
440.4418, 6230.563
440.9239, 6238.179
441.4060, 6226.891
441.8881, 6219.868
442.3702, 6236.953
442.8524, 6261.742
443.3345, 6278.656
443.8166, 6283.071
444.2987, 6279.484
444.7808, 6260.435
445.2629, 6233.163
445.7451, 6218.905
446.2272, 6233.612
446.7093, 6252.127
447.1914, 6265.623
447.6735, 6273.143
448.1556, 6277.212
448.6378, 6275.941
449.1199, 6272.425
449.6020, 6269.025
450.0841, 6262.760
450.5662, 6263.552
451.0483, 6276.004
451.5305, 6296.613
452.0126, 6307.929
452.4947, 6306.663
452.9768, 6306.537
453.4589, 6319.078
453.9410, 6344.914
454.4232, 6353.313
454.9053, 6339.619
455.3874, 6321.732
455.8695, 6327.171
456.3516, 6352.049
456.8337, 6367.253
457.3159, 6358.806
457.7980, 6339.211
458.2801, 6329.304
458.7622, 6328.552
459.2443, 6333.035
459.7264, 6341.601
460.2086, 6353.370
460.6907, 6368.605
461.1728, 6388.814
461.6549, 6405.824
462.1370, 6415.520
462.6191, 6417.734
463.1013, 6411.845
463.5834, 6383.837
464.0655, 6360.525
464.5476, 6355.701
465.0297, 6367.833
465.5118, 6382.435
465.9940, 6402.382
466.4761, 6418.520
466.9582, 6425.033
467.4403, 6413.552
467.9224, 6406.705
468.4045, 6409.126
468.8867, 6414.623
469.3688, 6413.802
469.8509, 6401.533
470.3330, 6392.553
470.8151, 6391.603
471.2972, 6397.660
471.7794, 6397.602
472.2615, 6387.434
472.7436, 6382.244
473.2257, 6397.883
473.7078, 6434.981
474.1899, 6455.655
474.6721, 6454.072
475.1542, 6444.083
475.6363, 6447.424
476.1184, 6461.768
476.6005, 6472.172
477.0826, 6469.758
477.5648, 6461.500
478.0469, 6458.811
478.5290, 6461.283
479.0111, 6465.204
479.4932, 6468.802
479.9753, 6472.028
480.4575, 6474.203
480.9396, 6474.215
481.4217, 6476.598
481.9038, 6485.555
482.3859, 6498.269
482.8680, 6510.517
483.3502, 6525.746
483.8323, 6535.485
484.3144, 6533.532
484.7965, 6520.789
485.2786, 6511.518
485.7607, 6504.380
486.2429, 6504.010
486.7250, 6514.888
487.2071, 6552.287
487.6892, 6566.516
488.1713, 6543.465
488.6534, 6507.218
489.1356, 6494.307
489.6177, 6513.869
490.0998, 6530.145
490.5819, 6533.414
491.0640, 6526.963
491.5461, 6526.842
492.0283, 6533.525
492.5104, 6543.651
492.9925, 6558.484
493.4746, 6575.970
493.9567, 6581.720
494.4388, 6572.699
494.9210, 6562.999
495.4031, 6573.384
495.8852, 6595.759
496.3673, 6609.894
496.8494, 6602.896
497.3315, 6589.095
497.8137, 6578.191
498.2958, 6570.972
498.7779, 6571.404
499.2600, 6588.792
499.7421, 6609.502
500.2242, 6624.737
500.7064, 6633.547
501.1885, 6637.076
501.6706, 6628.543
502.1527, 6618.205
502.6348, 6616.585
503.1169, 6641.834
503.5991, 6655.745
504.0812, 6647.311
504.5633, 6623.952
505.0454, 6613.696
505.5275, 6624.026
506.0096, 6634.827
506.4918, 6636.475
506.9739, 6627.498
507.4560, 6629.822
507.9381, 6647.986
508.4202, 6665.128
508.9023, 6657.492
509.3845, 6627.216
509.8666, 6613.451
510.3487, 6627.327
510.8308, 6653.798
511.3129, 6669.620
511.7950, 6676.214
512.2772, 6680.095
512.7593, 6683.691
513.2414, 6687.016
513.7235, 6688.596
514.2056, 6688.699
514.6877, 6692.696
515.1699, 6711.870
515.6520, 6732.370
516.1341, 6740.256
516.6162, 6725.258
517.0983, 6711.494
517.5804, 6709.398
518.0626, 6712.937
518.5447, 6712.252
519.0268, 6697.142
519.5089, 6686.843
519.9910, 6686.087
520.4731, 6694.399
520.9553, 6705.903
521.4374, 6723.709
521.9195, 6739.960
522.4016, 6749.298
522.8837, 6749.746
523.3658, 6754.134
523.8480, 6763.761
524.3301, 6775.100
524.8122, 6785.110
525.2943, 6793.575
525.7764, 6795.179
526.2585, 6785.428
526.7407, 6771.652
527.2228, 6766.243
527.7049, 6768.664
528.1870, 6775.656
528.6691, 6792.613
529.1512, 6809.276
529.6334, 6809.708
530.1155, 6792.145
530.5976, 6778.918
531.0797, 6787.567
531.5618, 6804.922
532.0439, 6817.590
532.5261, 6816.102
533.0082, 6818.500
533.4903, 6834.857
533.9724, 6857.708
534.4545, 6871.442
534.9366, 6865.972
535.4188, 6861.264
535.9009, 6863.347
536.3830, 6871.984
536.8651, 6873.934
537.3472, 6867.627
537.8293, 6858.067
538.3115, 6844.883
538.7936, 6826.778
539.2757, 6827.903
539.7578, 6854.290
540.2399, 6886.365
540.7220, 6895.204
541.2042, 6884.787
541.6863, 6878.761
542.1684, 6885.419
542.6505, 6898.750
543.1326, 6912.067
543.6147, 6924.981
544.0969, 6936.475
544.5790, 6947.506
545.0611, 6955.415
545.5432, 6956.468
546.0253, 6950.019
546.5074, 6944.267
546.9896, 6938.824
547.4717, 6937.730
547.9538, 6944.565
548.4359, 6972.626
548.9180, 6991.333
549.4001, 6996.194
549.8823, 6991.304
550.3644, 6982.260
550.8465, 6963.504
551.3286, 6951.070
551.8107, 6949.478
552.2928, 6957.805
552.7750, 6970.993
553.2571, 6990.879
553.7392, 7007.112
554.2213, 7010.903
554.7034, 7004.358
555.1855, 6998.630
555.6677, 6993.734
556.1498, 6993.232
556.6319, 7009.705
557.1140, 7032.458
557.5961, 7036.821
558.0782, 7003.709
558.5604, 6970.333
559.0425, 6970.616
559.5246, 6993.587
560.0067, 7015.045
560.4888, 7028.508
560.9709, 7034.999
561.4531, 7029.693
561.9352, 7012.760
562.4173, 7006.974
562.8994, 7031.112
563.3815, 7054.387
563.8636, 7060.205
564.3458, 7038.813
564.8279, 7026.192
565.3100, 7023.398
565.7921, 7027.938
566.2742, 7040.145
566.7563, 7061.946
567.2385, 7072.505
567.7206, 7064.029
568.2027, 7045.946
568.6848, 7039.014
569.1669, 7041.961
569.6490, 7046.104
570.1312, 7044.455
570.6133, 7042.255
571.0954, 7048.858
571.5775, 7063.910
572.0596, 7077.971
572.5417, 7082.259
573.0239, 7084.580
573.5060, 7093.274
573.9881, 7115.063
574.4702, 7128.938
574.9523, 7120.218
575.4344, 7103.387
575.9166, 7096.916
576.3987, 7112.958
576.8808, 7124.820
577.3629, 7127.917
577.8450, 7125.052
578.3271, 7125.568
578.8093, 7130.247
579.2914, 7135.933
579.7735, 7143.059
580.2556, 7150.466
580.7377, 7146.473
581.2198, 7129.602
581.7020, 7116.668
582.1841, 7126.208
582.6662, 7149.701
583.1483, 7167.369
583.6304, 7176.057
584.1125, 7180.267
584.5947, 7182.836
585.0768, 7183.839
585.5589, 7183.332
586.0410, 7179.580
586.5231, 7176.616
587.0052, 7173.650
587.4874, 7172.823
587.9695, 7179.651
588.4516, 7211.302
588.9337, 7234.176
