##NAMES=Nesquehonite
##RRUFFID=R050639
##IDEAL CHEMISTRY=MgCO_3_&#183;3H_2_O
##LOCALITY=Nesquehoning, Pennsylvania, USA
##OWNER=RRUFF
##SOURCE=University of Arizona Mineral Museum
##DESCRIPTION=White to colorless bladed crystals
##STATUS=The identification of this mineral has been confirmed by X-ray diffraction and chemical analysis
##URL=rruff.info/R050639
##MEASURED CHEMISTRY=Mg_1.00_(HCO_3_)(OH)Â·2H_2_O ; C and H not measured but estimated by difference and charge balance
92.02539, 1412.965
92.50751, 1421.500
92.98962, 1435.771
93.47174, 1436.065
93.95386, 1433.163
94.43597, 1426.711
94.91809, 1418.912
95.40021, 1410.529
95.88232, 1398.464
96.36444, 1381.988
96.84656, 1362.991
97.32867, 1342.899
97.81078, 1321.980
98.29290, 1300.131
98.77502, 1276.068
99.25713, 1247.231
99.73925, 1221.784
100.2214, 1200.129
100.7035, 1180.667
101.1856, 1162.898
101.6677, 1146.459
102.1498, 1131.092
102.6320, 1116.498
103.1141, 1102.370
103.5962, 1089.763
104.0783, 1079.229
104.5604, 1069.747
105.0425, 1060.693
105.5247, 1052.059
106.0068, 1042.754
106.4889, 1030.257
106.9710, 1014.226
107.4531, 998.0396
107.9352, 983.1347
108.4173, 969.2947
108.8995, 955.2352
109.3816, 939.8633
109.8637, 924.5246
110.3458, 910.7855
110.8279, 898.9727
111.3100, 887.8250
111.7922, 875.6961
112.2743, 862.2341
112.7564, 849.0749
113.2385, 836.1552
113.7206, 823.9119
114.2027, 812.8802
114.6849, 803.4199
115.1670, 795.1115
115.6491, 786.7298
116.1312, 778.7767
116.6133, 769.9443
117.0954, 759.5037
117.5776, 748.0992
118.0597, 736.6686
118.5418, 725.8234
119.0239, 715.5466
119.5060, 705.1660
119.9881, 694.4748
120.4703, 683.8636
120.9524, 673.2697
121.4345, 662.8266
121.9166, 652.9149
122.3987, 644.0865
122.8808, 636.5711
123.3630, 628.4745
123.8451, 619.2475
124.3272, 609.6946
124.8093, 600.6110
125.2914, 592.0757
125.7735, 584.0661
126.2557, 576.8235
126.7378, 570.2001
127.2199, 563.7195
127.7020, 557.2535
128.1841, 550.8185
128.6662, 544.6172
129.1483, 538.8810
129.6305, 533.1015
130.1126, 526.7082
130.5947, 519.7662
131.0768, 512.9920
131.5589, 506.8061
132.0410, 501.1558
132.5232, 496.5670
133.0053, 494.2331
133.4874, 492.2163
133.9695, 489.6133
134.4516, 486.2231
134.9337, 482.3852
135.4159, 478.5480
135.8980, 474.5692
136.3801, 470.8549
136.8622, 467.4498
137.3443, 464.2441
137.8264, 461.2220
138.3086, 458.3625
138.7907, 455.5635
139.2728, 452.6100
139.7549, 448.7465
140.2370, 445.5942
140.7191, 443.6665
141.2013, 442.4556
141.6834, 441.2845
142.1655, 439.8558
142.6476, 438.1306
143.1297, 435.9608
143.6118, 433.1138
144.0939, 430.1860
144.5761, 427.0733
145.0582, 423.9419
145.5403, 421.6444
146.0224, 421.2531
146.5045, 421.9170
146.9866, 421.0726
147.4688, 417.5773
147.9509, 413.4081
148.4330, 410.4760
148.9151, 408.9316
149.3972, 407.6624
149.8793, 405.5827
150.3615, 403.4310
150.8436, 402.3146
151.3257, 403.2801
151.8078, 405.2075
152.2899, 405.3968
152.7720, 402.8666
153.2542, 400.2388
153.7363, 398.4228
154.2184, 397.2441
154.7005, 396.4594
155.1826, 396.0130
155.6647, 395.8595
156.1469, 395.5330
156.6290, 394.4842
157.1111, 393.8234
157.5932, 393.9081
158.0753, 394.6184
158.5574, 395.7116
159.0396, 397.0739
159.5217, 398.8089
160.0038, 399.8071
160.4859, 399.2231
160.9680, 398.7650
161.4501, 399.3265
161.9323, 400.7980
162.4144, 402.4107
162.8965, 403.3870
163.3786, 403.5961
163.8607, 403.5587
164.3428, 402.9073
164.8250, 402.2817
165.3071, 402.3856
165.7892, 403.2767
166.2713, 404.0831
166.7534, 403.6616
167.2355, 401.8261
167.7177, 400.0670
168.1998, 398.5847
168.6819, 397.2386
169.1640, 395.8456
169.6461, 394.3567
170.1282, 392.8713
170.6104, 391.4623
171.0925, 390.1202
171.5746, 389.0038
172.0567, 388.1197
172.5388, 387.5056
173.0209, 387.3228
173.5031, 387.7847
173.9852, 388.4545
174.4673, 388.7225
174.9494, 388.6654
175.4315, 389.0681
175.9136, 390.8760
176.3958, 394.0247
176.8779, 396.4134
177.3600, 396.6778
177.8421, 397.0111
178.3242, 398.9865
178.8063, 402.5262
179.2885, 406.1177
179.7706, 408.1290
180.2527, 408.2076
180.7348, 408.2194
181.2169, 408.8270
181.6990, 409.0161
182.1812, 408.1735
182.6633, 406.2269
183.1454, 403.5698
183.6275, 400.6680
184.1096, 397.2786
184.5917, 394.1714
185.0738, 391.6267
185.5560, 389.1280
186.0381, 386.4555
186.5202, 383.5052
187.0023, 380.1439
187.4844, 376.1312
187.9665, 370.6981
188.4487, 365.8012
188.9308, 361.4617
189.4129, 357.6466
189.8950, 354.3556
190.3771, 351.6011
190.8592, 349.3225
191.3414, 347.4560
191.8235, 346.1250
192.3056, 344.9892
192.7877, 344.2534
193.2698, 343.6359
193.7519, 342.7246
194.2341, 341.3456
194.7162, 339.7171
195.1983, 338.2198
195.6804, 336.7579
196.1625, 335.6040
196.6446, 335.0152
197.1268, 334.7932
197.6089, 334.5616
198.0910, 334.3304
198.5731, 333.7982
199.0552, 332.4435
199.5373, 330.1502
200.0195, 327.8060
200.5016, 325.8035
200.9837, 324.1196
201.4658, 322.6586
201.9479, 321.3948
202.4300, 320.3692
202.9122, 319.7830
203.3943, 319.7118
203.8764, 319.3161
204.3585, 317.5862
204.8406, 314.5306
205.3227, 312.1048
205.8048, 311.2003
206.2870, 310.8310
206.7691, 310.3961
207.2512, 309.8221
207.7333, 309.1419
208.2154, 308.3638
208.6975, 307.4657
209.1797, 306.5993
209.6618, 305.5144
210.1439, 304.6594
210.6260, 304.4827
211.1081, 304.9975
211.5902, 305.6324
212.0724, 305.5858
212.5545, 304.5642
213.0366, 303.7458
213.5187, 303.2717
214.0008, 302.9643
214.4829, 302.8199
214.9651, 302.7947
215.4472, 302.7117
215.9293, 302.2338
216.4114, 300.8835
216.8935, 300.1632
217.3756, 300.3931
217.8578, 300.9075
218.3399, 301.4449
218.8220, 301.8636
219.3041, 301.9418
219.7862, 301.2820
220.2683, 299.2590
220.7505, 297.6953
221.2326, 296.9889
221.7147, 296.4370
222.1968, 295.5150
222.6789, 294.0942
223.1610, 292.3584
223.6432, 290.5595
224.1253, 288.6043
224.6074, 286.7950
225.0895, 285.0754
225.5716, 283.5245
226.0537, 282.4673
226.5358, 281.9373
227.0180, 281.2460
227.5001, 279.3798
227.9822, 275.9941
228.4643, 272.3966
228.9464, 268.3198
229.4285, 264.2244
229.9107, 260.6732
230.3928, 257.7999
230.8749, 255.3026
231.3570, 252.9202
231.8391, 250.6834
232.3212, 248.2772
232.8034, 245.3851
233.2855, 242.4087
233.7676, 239.9933
234.2497, 238.3425
234.7318, 236.7343
235.2139, 234.1199
235.6961, 230.6465
236.1782, 227.5295
236.6603, 225.2038
237.1424, 223.3805
237.6245, 221.6840
238.1066, 220.1215
238.5888, 218.4672
239.0709, 216.2104
239.5530, 213.5940
240.0351, 211.4550
240.5172, 210.5755
240.9993, 210.2559
241.4815, 209.0964
241.9636, 206.7729
242.4457, 204.2093
242.9278, 201.9404
243.4099, 199.9277
243.8920, 198.1594
244.3742, 196.8936
244.8563, 195.8355
245.3384, 194.2062
245.8205, 191.6963
246.3026, 189.3211
246.7847, 187.6808
247.2668, 186.5360
247.7490, 185.5627
248.2311, 184.7376
248.7132, 183.9336
249.1953, 182.7507
249.6774, 180.9387
250.1595, 179.2661
250.6417, 178.3506
251.1238, 177.6768
251.6059, 176.5045
252.0880, 174.3272
252.5701, 171.6628
253.0522, 169.8425
253.5344, 169.3053
254.0165, 168.8013
254.4986, 167.9077
254.9807, 166.8553
255.4628, 165.8914
255.9449, 165.1336
256.4271, 164.4971
256.9092, 163.7070
257.3913, 162.3974
257.8734, 161.6875
258.3555, 162.3281
258.8376, 163.3030
259.3198, 163.5346
259.8019, 162.5917
260.2840, 161.1440
260.7661, 160.6958
261.2482, 162.1372
261.7303, 162.8708
262.2125, 162.3260
262.6946, 161.2402
263.1767, 160.1219
263.6588, 159.1522
264.1409, 158.3615
264.6230, 157.8611
265.1052, 158.0359
265.5873, 157.7178
266.0694, 156.3771
266.5515, 154.9233
267.0336, 154.0642
267.5157, 153.9401
267.9979, 154.1571
268.4800, 154.1256
268.9621, 153.6429
269.4442, 153.3562
269.9263, 153.3652
270.4084, 153.4568
270.8906, 153.6003
271.3727, 153.7353
271.8548, 153.6855
272.3369, 153.1958
272.8190, 152.0687
273.3011, 151.1704
273.7833, 150.6184
274.2654, 150.1508
274.7475, 149.6941
275.2296, 149.2025
275.7117, 148.5855
276.1938, 147.7132
276.6760, 146.4830
277.1581, 145.6504
277.6402, 145.3367
278.1223, 145.2032
278.6044, 145.2497
279.0865, 145.3676
279.5686, 145.2726
280.0508, 144.6787
280.5329, 143.5653
281.0150, 142.9917
281.4971, 143.5542
281.9792, 143.9356
282.4613, 143.3166
282.9435, 142.0993
283.4256, 141.3193
283.9077, 141.7019
284.3898, 143.0809
284.8719, 143.9446
285.3540, 144.4613
285.8362, 144.3833
286.3183, 143.2821
286.8004, 141.5715
287.2825, 139.9085
287.7646, 138.5966
288.2467, 137.6593
288.7289, 137.1993
289.2110, 137.6792
289.6931, 138.0264
290.1752, 138.0107
290.6573, 137.7847
291.1394, 137.5394
291.6216, 137.3449
292.1037, 137.2001
292.5858, 137.0913
293.0679, 136.8984
293.5500, 136.9795
294.0321, 137.7398
294.5143, 138.6337
294.9964, 139.0157
295.4785, 138.7148
295.9606, 138.0667
296.4427, 137.5210
296.9248, 137.1114
297.4070, 136.7171
297.8891, 136.0764
298.3712, 135.6030
298.8533, 135.7744
299.3354, 136.6279
299.8175, 137.7065
300.2997, 138.6476
300.7818, 139.4615
301.2639, 139.6196
301.7460, 138.2584
302.2281, 136.9277
302.7102, 136.9635
303.1924, 138.2405
303.6745, 139.3545
304.1566, 139.1640
304.6387, 137.7295
305.1208, 136.7754
305.6029, 136.3403
306.0851, 136.2800
306.5672, 136.7353
307.0493, 137.5491
307.5314, 138.2444
308.0135, 138.5301
308.4956, 138.5081
308.9778, 138.6354
309.4599, 139.4544
309.9420, 139.7477
310.4241, 138.6731
310.9062, 136.8361
311.3883, 135.4235
311.8705, 134.9433
312.3526, 135.0766
312.8347, 135.2138
313.3168, 135.5522
313.7989, 135.4648
314.2810, 134.4452
314.7632, 133.0624
315.2453, 131.9872
315.7274, 131.3959
316.2095, 131.2836
316.6916, 131.8111
317.1737, 133.2539
317.6559, 134.0746
318.1380, 133.6432
318.6201, 132.8400
319.1022, 132.5109
319.5843, 132.7515
320.0664, 133.0677
320.5485, 132.9627
321.0306, 132.3939
321.5128, 132.1321
321.9949, 132.4351
322.4770, 132.8161
322.9591, 132.9379
323.4412, 132.8355
323.9233, 132.7791
324.4055, 132.9804
324.8876, 133.3761
325.3697, 133.5090
325.8518, 133.0561
326.3339, 132.7308
326.8160, 132.8439
327.2982, 133.2792
327.7803, 133.8102
328.2624, 134.3583
328.7445, 134.8790
329.2266, 135.2387
329.7087, 135.3524
330.1909, 135.4855
330.6730, 135.6282
331.1551, 135.8368
331.6372, 136.3004
332.1193, 137.0811
332.6014, 137.7883
333.0836, 137.7959
333.5657, 136.7297
334.0478, 136.0674
334.5299, 136.1380
335.0120, 136.4465
335.4941, 136.6393
335.9763, 136.6561
336.4584, 136.5640
336.9405, 136.4413
337.4226, 136.2932
337.9047, 135.8836
338.3868, 134.8138
338.8690, 133.8803
339.3511, 133.5905
339.8332, 133.8042
340.3153, 134.0462
340.7974, 134.0148
341.2795, 133.7612
341.7617, 133.6100
342.2438, 133.7267
342.7259, 133.7374
343.2080, 133.6278
343.6901, 133.3444
344.1722, 132.7173
344.6544, 131.6674
345.1365, 130.4756
345.6186, 129.7399
346.1007, 130.0544
346.5828, 129.9233
347.0649, 128.9349
347.5471, 127.7353
348.0292, 127.0058
348.5113, 126.8263
348.9934, 126.6062
349.4755, 125.5618
349.9576, 123.2888
350.4398, 121.9005
350.9219, 122.0280
351.4040, 122.3169
351.8861, 121.9878
352.3682, 121.1707
352.8503, 120.5050
353.3325, 120.5248
353.8146, 121.1586
354.2967, 121.2577
354.7788, 120.3812
355.2609, 119.4774
355.7430, 118.6138
356.2252, 117.8763
356.7073, 117.4246
357.1894, 117.3418
357.6715, 117.4267
358.1536, 117.1594
358.6357, 116.2410
359.1179, 115.4067
359.5999, 114.5543
360.0821, 113.8683
360.5642, 113.6658
361.0463, 113.9252
361.5284, 114.1500
362.0105, 113.6036
362.4926, 111.8785
362.9748, 110.9836
363.4569, 111.6917
363.9390, 112.4517
364.4211, 112.6773
364.9032, 112.3843
365.3853, 111.7626
365.8675, 110.8609
366.3496, 109.7640
366.8317, 109.2995
367.3138, 109.7838
367.7959, 110.5657
368.2780, 111.9680
368.7602, 113.4059
369.2423, 114.0775
369.7244, 113.6103
370.2065, 112.5726
370.6886, 112.0249
371.1707, 111.9762
371.6529, 112.4402
372.1350, 114.2100
372.6171, 115.8935
373.0992, 116.4575
373.5813, 115.8206
374.0634, 114.8045
374.5456, 114.0755
375.0277, 113.6204
375.5098, 113.7785
375.9919, 115.1701
376.4740, 116.5214
376.9561, 117.3198
377.4383, 117.6310
377.9204, 117.6060
378.4025, 117.1457
378.8846, 116.5150
379.3667, 116.5250
379.8488, 117.4258
380.3310, 118.3234
380.8131, 118.6893
381.2952, 118.9415
381.7773, 119.5685
382.2594, 120.7588
382.7415, 122.0393
383.2237, 122.8014
383.7058, 123.0508
384.1879, 123.5354
384.6700, 124.6478
385.1521, 125.8320
385.6342, 126.5083
386.1164, 126.7122
386.5985, 127.0422
387.0806, 128.0375
387.5627, 129.3716
388.0448, 130.2247
388.5269, 130.4338
389.0091, 130.4857
389.4912, 130.8739
389.9733, 131.3707
390.4554, 131.4176
390.9375, 130.6004
391.4196, 129.5699
391.9018, 128.8963
392.3839, 128.5502
392.8660, 128.3087
393.3481, 128.1561
393.8302, 127.9725
394.3123, 127.5547
394.7945, 126.9203
395.2766, 126.0500
395.7587, 124.7557
396.2408, 123.2653
396.7229, 122.0155
397.2050, 121.1097
397.6872, 120.2718
398.1693, 119.1516
398.6514, 117.7149
399.1335, 116.4824
399.6156, 115.8079
400.0977, 115.0652
400.5798, 113.5834
401.0620, 111.5439
401.5441, 109.8380
402.0262, 109.0859
402.5083, 109.0503
402.9904, 108.5498
403.4725, 107.1479
403.9547, 105.8951
404.4368, 105.0599
404.9189, 104.4532
405.4010, 103.8160
405.8831, 103.0760
406.3652, 102.3873
406.8474, 101.9816
407.3295, 101.9385
407.8116, 101.9857
408.2937, 102.0804
408.7758, 102.2884
409.2579, 102.8915
409.7401, 103.6820
410.2222, 104.0464
410.7043, 103.4733
411.1864, 102.0998
411.6685, 101.1191
412.1506, 100.7315
412.6328, 100.5345
413.1149, 100.6054
413.5970, 100.7717
414.0791, 100.8752
414.5612, 100.8574
415.0433, 100.7212
415.5255, 100.5248
416.0076, 100.3803
416.4897, 99.77370
416.9718, 97.94547
417.4539, 96.27063
417.9360, 95.33788
418.4182, 95.13789
418.9003, 95.47224
419.3824, 96.49422
419.8645, 97.90192
420.3466, 98.24509
420.8287, 97.00249
421.3109, 95.76542
421.7930, 95.16295
422.2751, 94.91735
422.7572, 94.79936
423.2393, 94.78737
423.7214, 94.69926
424.2036, 94.17876
424.6857, 93.25786
425.1678, 92.76497
425.6499, 93.02747
426.1320, 93.61113
426.6141, 94.26426
427.0963, 94.94113
427.5784, 95.24067
428.0605, 94.68285
428.5426, 93.77168
429.0247, 93.26030
429.5068, 93.19210
429.9890, 93.38252
430.4711, 93.80431
430.9532, 94.39069
431.4353, 94.90012
431.9174, 95.32301
432.3995, 95.68295
432.8817, 96.14796
433.3638, 96.54237
433.8459, 96.36373
434.3280, 95.39000
434.8101, 94.23995
435.2922, 93.84148
435.7744, 94.48377
436.2565, 94.69370
436.7386, 94.27729
437.2207, 93.52944
437.7028, 92.31968
438.1849, 90.88481
438.6671, 90.02670
439.1492, 90.36923
439.6313, 91.64577
440.1134, 92.28158
440.5955, 91.67156
441.0776, 91.15812
441.5598, 91.14873
442.0418, 91.17146
442.5240, 90.58413
443.0061, 89.29296
443.4882, 87.92493
443.9703, 87.34201
444.4524, 87.74020
444.9345, 88.00027
445.4167, 88.08396
445.8988, 88.06399
446.3809, 87.77773
446.8630, 87.42374
447.3451, 87.41779
447.8272, 88.07320
448.3094, 89.03162
448.7915, 89.31639
449.2736, 88.63757
449.7557, 88.11117
450.2378, 88.30782
450.7199, 88.55315
451.2021, 88.17748
451.6842, 87.16756
452.1663, 86.40983
452.6484, 86.93662
453.1305, 88.38125
453.6126, 89.09348
454.0948, 88.85578
454.5769, 88.15652
455.0590, 86.78333
455.5411, 85.23958
456.0232, 84.53040
456.5053, 85.32634
456.9875, 86.40018
457.4696, 86.64121
457.9517, 86.23546
458.4338, 86.09871
458.9159, 86.64455
459.3980, 87.36387
459.8802, 87.30458
460.3623, 86.33681
460.8444, 85.97722
461.3265, 87.20885
461.8086, 88.67411
462.2907, 88.95517
462.7729, 88.14417
463.2550, 87.45895
463.7371, 87.77100
464.2192, 88.86778
464.7013, 89.52908
465.1834, 89.58105
465.6656, 89.45457
466.1477, 89.11353
466.6298, 88.67110
467.1119, 88.16645
467.5940, 87.64314
468.0761, 87.28580
468.5583, 87.35799
469.0404, 87.95866
469.5225, 88.35317
470.0046, 88.32661
470.4867, 88.31368
470.9688, 88.64222
471.4510, 89.02890
471.9331, 88.92461
472.4152, 88.02222
472.8973, 86.81606
473.3794, 86.25481
473.8615, 86.45380
474.3437, 86.81300
474.8258, 87.55741
475.3079, 88.15407
475.7900, 88.28340
476.2721, 87.95190
476.7542, 87.32558
477.2364, 86.18465
477.7185, 84.88544
478.2006, 84.28149
478.6827, 84.45532
479.1648, 84.88563
479.6469, 85.55064
480.1291, 86.19132
480.6112, 86.28922
481.0933, 85.57209
481.5754, 85.01700
482.0575, 85.42817
482.5396, 86.26602
483.0217, 86.41985
483.5038, 85.64423
483.9860, 84.73011
484.4681, 84.45459
484.9502, 84.85117
485.4323, 85.00581
485.9144, 84.70930
486.3965, 84.40860
486.8787, 84.34309
487.3608, 84.39608
487.8429, 84.32052
488.3250, 84.01734
488.8071, 83.63226
489.2892, 83.42937
489.7714, 83.48457
490.2535, 83.53895
490.7356, 83.38618
491.2177, 83.42124
491.6998, 84.28004
492.1819, 85.50000
492.6641, 85.89842
493.1462, 84.58712
493.6283, 82.26005
494.1104, 80.95790
494.5925, 80.94291
495.0746, 81.25032
495.5568, 82.19823
496.0389, 83.01270
496.5210, 82.92619
497.0031, 81.97600
497.4852, 81.17011
497.9673, 81.47002
498.4495, 82.43713
498.9316, 82.83885
499.4137, 82.56162
499.8958, 82.04823
500.3779, 81.39890
500.8600, 80.72559
501.3422, 80.25099
501.8243, 80.01254
502.3064, 79.91219
502.7885, 80.09912
503.2706, 80.34073
503.7527, 80.16908
504.2349, 79.47948
504.7170, 78.60152
505.1991, 77.82108
505.6812, 77.13535
506.1633, 76.62715
506.6454, 76.34962
507.1276, 76.16826
507.6097, 76.02754
508.0918, 75.95249
508.5739, 75.95951
509.0560, 76.05930
509.5381, 76.32278
510.0203, 76.94039
510.5024, 78.16922
510.9845, 78.87067
511.4666, 78.71738
511.9487, 78.35648
512.4308, 78.05059
512.9130, 77.71811
513.3951, 77.12155
513.8772, 76.08668
514.3593, 74.88735
514.8414, 73.97343
515.3235, 73.33723
515.8057, 73.05025
516.2878, 73.44973
516.7699, 73.88592
517.2520, 73.74134
517.7341, 73.09277
518.2162, 72.52695
518.6984, 72.34512
519.1805, 72.34629
519.6626, 72.34801
520.1447, 72.33161
520.6268, 72.07816
521.1089, 71.35121
521.5911, 70.47908
522.0732, 70.30474
522.5553, 71.07008
523.0374, 71.67413
523.5195, 71.97581
524.0016, 72.01308
524.4838, 71.68633
524.9659, 71.08186
525.4480, 70.49138
525.9301, 70.09910
526.4122, 69.93394
526.8943, 70.17818
527.3765, 71.46072
527.8586, 72.23796
528.3407, 72.23174
528.8228, 71.80798
529.3049, 71.04711
529.7870, 70.09466
530.2692, 69.39052
530.7513, 69.40127
531.2334, 70.00265
531.7155, 70.47094
532.1976, 70.78867
532.6797, 71.01004
533.1619, 71.14417
533.6440, 71.19803
534.1261, 71.15293
534.6082, 70.99459
535.0903, 70.82861
535.5724, 70.64348
536.0546, 70.51485
536.5367, 70.64108
537.0188, 71.05969
537.5009, 71.57476
537.9830, 72.16541
538.4651, 72.72346
538.9473, 72.71213
539.4294, 71.42405
539.9115, 70.50854
540.3936, 70.71613
540.8757, 71.40789
541.3578, 71.83981
541.8400, 71.84989
542.3221, 71.66068
542.8042, 71.49862
543.2863, 71.36652
543.7684, 71.08048
544.2505, 70.21996
544.7326, 69.72791
545.2147, 70.08065
545.6968, 70.74094
546.1790, 71.10065
546.6611, 71.01436
547.1432, 70.81853
547.6253, 70.95377
548.1074, 71.36811
548.5895, 71.37343
549.0717, 70.68421
549.5538, 70.14402
550.0359, 70.33993
550.5180, 70.98941
551.0001, 71.81216
551.4822, 73.01627
551.9644, 73.76116
552.4465, 73.03020
552.9286, 71.55980
553.4107, 70.99001
553.8928, 71.65446
554.3749, 72.51495
554.8571, 72.64001
555.3392, 72.05014
555.8213, 71.61211
556.3034, 71.09966
556.7855, 70.98404
557.2676, 71.81740
557.7498, 72.90633
558.2319, 73.35284
558.7140, 72.99369
559.1961, 72.43134
559.6782, 72.40062
560.1603, 72.91526
560.6425, 72.77818
561.1246, 71.32237
561.6067, 70.19627
562.0888, 70.14341
562.5709, 70.53123
563.0530, 70.62172
563.5352, 70.23167
564.0173, 69.78671
564.4994, 69.62981
564.9815, 69.70892
565.4636, 69.84871
565.9457, 70.02539
566.4279, 70.32934
566.9100, 71.00301
567.3921, 71.81454
567.8742, 71.98447
568.3563, 71.08984
568.8384, 70.26508
569.3206, 69.89877
569.8027, 69.80954
570.2848, 69.83652
570.7669, 69.92476
571.2490, 69.98279
571.7311, 69.92197
572.2133, 69.75746
572.6954, 69.65666
573.1775, 69.58501
573.6596, 69.63473
574.1417, 69.93879
574.6238, 70.28220
575.1060, 70.53319
575.5881, 70.64739
576.0702, 70.56155
576.5523, 70.09922
577.0344, 69.40508
577.5165, 69.08620
577.9987, 69.25862
578.4808, 69.28884
578.9629, 68.77117
579.4450, 68.05907
579.9271, 67.69748
580.4092, 67.75993
580.8914, 67.70350
581.3735, 67.18713
581.8556, 66.53401
582.3377, 65.99232
582.8198, 65.62737
583.3019, 65.64846
583.7841, 66.23402
584.2662, 67.14606
584.7483, 67.73827
585.2304, 67.96537
585.7125, 67.91289
586.1946, 67.27586
586.6768, 66.64571
