##NAMES=Nesquehonite
##RRUFFID=R070764
##IDEAL CHEMISTRY=MgCO_3_&#183;3H_2_O
##LOCALITY=Tucson, Arizona, USA from the interior of a rotting saguaro cactus
##OWNER=RRUFF
##SOURCE=Hexiong Yang
##DESCRIPTION=Aggregates of light brown platy crystals
##STATUS=The identification of this mineral has been confirmed by single-crystal X-ray diffraction.
##URL=rruff.info/R070764
92.52344, 12197.39
93.00555, 12045.76
93.48767, 12071.07
93.96979, 12587.81
94.45190, 13090.97
94.93402, 13524.22
95.41614, 13724.16
95.89825, 13755.90
96.38037, 13733.20
96.86249, 13674.57
97.34460, 13650.17
97.82672, 13721.74
98.30884, 13773.79
98.79095, 13787.80
99.27307, 13753.69
99.75519, 13678.31
100.2373, 13604.80
100.7194, 13546.18
101.2015, 13507.90
101.6837, 13489.30
102.1658, 13481.97
102.6479, 13483.32
103.1300, 13493.53
103.6121, 13501.48
104.0942, 13491.51
104.5764, 13471.90
105.0585, 13456.91
105.5406, 13447.79
106.0227, 13445.56
106.5048, 13455.26
106.9869, 13479.69
107.4691, 13504.64
107.9512, 13520.99
108.4333, 13531.65
108.9154, 13544.47
109.3975, 13568.03
109.8796, 13604.82
110.3618, 13632.71
110.8439, 13649.26
111.3260, 13658.68
111.8081, 13657.71
112.2902, 13648.36
112.7723, 13638.73
113.2544, 13640.29
113.7366, 13658.68
114.2187, 13679.75
114.7008, 13711.81
115.1829, 13742.22
115.6650, 13754.00
116.1471, 13740.82
116.6293, 13718.93
117.1114, 13731.03
117.5935, 13804.14
118.0756, 13855.93
118.5577, 13853.30
119.0398, 13813.68
119.5220, 13777.83
120.0041, 13762.54
120.4862, 13764.62
120.9683, 13772.56
121.4504, 13788.03
121.9325, 13805.97
122.4147, 13822.54
122.8968, 13837.57
123.3789, 13852.56
123.8610, 13876.37
124.3431, 13897.39
124.8252, 13900.04
125.3074, 13872.02
125.7895, 13832.06
126.2716, 13821.35
126.7537, 13857.11
127.2358, 13893.11
127.7179, 13913.44
128.2001, 13925.20
128.6822, 13939.02
129.1643, 13962.91
129.6464, 13995.19
130.1285, 14012.62
130.6107, 14003.08
131.0928, 13989.18
131.5749, 13967.48
132.0570, 13944.73
132.5391, 13934.33
133.0212, 13950.39
133.5034, 13999.62
133.9855, 14029.59
134.4676, 14029.99
134.9497, 14024.03
135.4318, 14022.36
135.9139, 14026.87
136.3960, 14036.18
136.8782, 14050.01
137.3603, 14069.86
137.8424, 14085.57
138.3245, 14092.43
138.8066, 14096.37
139.2887, 14106.44
139.7709, 14126.48
140.2530, 14145.03
140.7351, 14141.88
141.2172, 14119.14
141.6993, 14103.91
142.1814, 14112.61
142.6636, 14139.34
143.1457, 14162.67
143.6278, 14177.87
144.1099, 14188.02
144.5920, 14195.84
145.0741, 14201.47
145.5563, 14206.55
146.0384, 14212.48
146.5205, 14219.36
147.0026, 14226.39
147.4847, 14234.62
147.9668, 14242.21
148.4490, 14247.31
148.9311, 14249.74
149.4132, 14251.89
149.8953, 14257.93
150.3774, 14271.40
150.8595, 14281.33
151.3417, 14281.88
151.8238, 14281.80
152.3059, 14288.99
152.7880, 14306.14
153.2701, 14329.20
153.7522, 14347.85
154.2344, 14361.20
154.7165, 14369.92
155.1986, 14369.51
155.6807, 14365.66
156.1628, 14365.93
156.6449, 14374.33
157.1271, 14388.54
157.6092, 14399.07
158.0913, 14401.07
158.5734, 14405.63
159.0555, 14419.42
159.5376, 14438.77
160.0198, 14453.68
160.5019, 14457.86
160.9840, 14453.53
161.4661, 14450.71
161.9482, 14448.44
162.4303, 14448.47
162.9125, 14453.92
163.3946, 14464.50
163.8767, 14472.60
164.3588, 14469.84
164.8409, 14462.84
165.3230, 14463.23
165.8052, 14476.55
166.2873, 14494.70
166.7694, 14508.02
167.2515, 14516.71
167.7336, 14519.68
168.2157, 14508.02
168.6979, 14492.90
169.1800, 14489.09
169.6621, 14507.09
170.1442, 14537.39
170.6263, 14551.31
171.1084, 14533.60
171.5906, 14523.86
172.0727, 14537.39
172.5548, 14564.98
173.0369, 14595.02
173.5190, 14622.04
174.0011, 14645.10
174.4833, 14656.35
174.9654, 14644.86
175.4475, 14630.97
175.9296, 14611.35
176.4117, 14592.55
176.8938, 14586.99
177.3760, 14606.59
177.8581, 14652.64
178.3402, 14672.81
178.8223, 14640.83
179.3044, 14611.83
179.7865, 14606.77
180.2687, 14622.34
180.7508, 14644.38
181.2329, 14662.11
181.7150, 14675.50
182.1971, 14679.60
182.6792, 14664.51
183.1614, 14649.81
183.6435, 14647.18
184.1256, 14656.87
184.6077, 14671.33
185.0898, 14684.14
185.5719, 14695.23
186.0541, 14708.93
186.5362, 14730.09
187.0183, 14751.03
187.5004, 14764.86
187.9825, 14770.82
188.4646, 14771.00
188.9468, 14763.36
189.4289, 14750.22
189.9110, 14741.25
190.3931, 14745.09
190.8752, 14752.46
191.3573, 14743.17
191.8395, 14706.16
192.3216, 14680.47
192.8037, 14711.73
193.2858, 14778.06
193.7679, 14830.15
194.2500, 14838.79
194.7322, 14815.47
195.2143, 14796.91
195.6964, 14785.87
196.1785, 14776.75
196.6606, 14761.12
197.1427, 14744.16
197.6249, 14738.08
198.1070, 14757.85
198.5891, 14799.47
199.0712, 14822.01
199.5533, 14813.18
200.0354, 14796.43
200.5176, 14772.16
200.9997, 14746.71
201.4818, 14732.66
201.9639, 14743.25
202.4460, 14779.36
202.9281, 14804.39
203.4103, 14810.15
203.8924, 14811.23
204.3745, 14807.94
204.8566, 14802.94
205.3387, 14800.77
205.8208, 14805.43
206.3030, 14817.45
206.7851, 14832.30
207.2672, 14863.76
207.7493, 14885.35
208.2314, 14876.36
208.7135, 14844.86
209.1957, 14818.50
209.6778, 14824.42
210.1599, 14869.32
210.6420, 14893.08
211.1241, 14880.79
211.6062, 14864.65
212.0884, 14856.31
212.5705, 14858.36
213.0526, 14873.65
213.5347, 14908.82
214.0168, 14967.42
214.4989, 15001.27
214.9811, 14994.61
215.4632, 14977.96
215.9453, 14969.89
216.4274, 14971.73
216.9095, 14976.36
217.3916, 14978.91
217.8737, 14978.91
218.3559, 14974.71
218.8380, 14954.85
219.3201, 14938.24
219.8022, 14948.77
220.2843, 14988.22
220.7664, 15022.21
221.2486, 15018.60
221.7307, 14984.88
222.2128, 14954.62
222.6949, 14922.58
223.1770, 14901.24
223.6591, 14911.95
224.1413, 14959.71
224.6234, 15007.60
225.1055, 15026.73
225.5876, 15026.91
226.0697, 15024.04
226.5518, 15024.26
227.0340, 15022.48
227.5161, 15004.84
227.9982, 14962.47
228.4803, 14935.35
228.9624, 14966.73
229.4445, 15022.90
229.9267, 15059.27
230.4088, 15051.79
230.8909, 15021.98
231.3730, 15012.02
231.8551, 15029.79
232.3372, 15047.86
232.8194, 15058.52
233.3015, 15062.11
233.7836, 15056.51
234.2657, 15037.81
234.7478, 15014.41
235.2299, 15005.91
235.7121, 15017.87
236.1942, 15034.66
236.6763, 15055.18
237.1584, 15075.93
237.6405, 15094.89
238.1227, 15112.12
238.6048, 15123.88
239.0869, 15118.28
239.5690, 15078.84
240.0511, 15051.04
240.5332, 15047.49
241.0154, 15055.96
241.4975, 15065.62
241.9796, 15071.84
242.4617, 15075.50
242.9438, 15078.65
243.4259, 15081.53
243.9081, 15083.36
244.3902, 15082.83
244.8723, 15081.89
245.3544, 15081.06
245.8365, 15080.68
246.3186, 15083.17
246.8008, 15095.38
247.2829, 15137.74
247.7650, 15158.68
248.2471, 15140.54
248.7292, 15109.41
249.2113, 15088.75
249.6935, 15086.61
250.1756, 15095.48
250.6577, 15100.80
251.1398, 15099.00
251.6219, 15098.36
252.1040, 15096.17
252.5862, 15096.39
253.0683, 15105.27
253.5504, 15123.89
254.0325, 15144.25
254.5146, 15153.01
254.9967, 15142.08
255.4789, 15133.46
255.9610, 15130.18
256.4431, 15127.66
256.9252, 15118.15
257.4073, 15100.83
257.8894, 15087.60
258.3716, 15095.57
258.8537, 15136.54
259.3358, 15169.94
259.8179, 15195.25
260.3000, 15213.58
260.7821, 15225.05
261.2643, 15229.89
261.7464, 15230.30
262.2285, 15229.24
262.7106, 15227.23
263.1927, 15216.41
263.6748, 15186.23
264.1570, 15153.69
264.6391, 15132.46
265.1212, 15123.97
265.6033, 15123.14
266.0854, 15125.92
266.5675, 15132.77
267.0497, 15143.59
267.5318, 15163.65
268.0139, 15183.91
268.4960, 15192.75
268.9781, 15190.60
269.4602, 15196.82
269.9424, 15234.87
270.4245, 15296.28
270.9066, 15324.02
271.3887, 15290.72
271.8708, 15243.19
272.3529, 15214.36
272.8351, 15203.90
273.3172, 15201.33
273.7993, 15204.00
274.2814, 15209.19
274.7635, 15208.33
275.2456, 15196.41
275.7278, 15183.96
276.2099, 15175.84
276.6920, 15172.50
277.1741, 15177.94
277.6562, 15196.42
278.1383, 15224.19
278.6205, 15254.75
279.1026, 15297.56
279.5847, 15323.37
280.0668, 15296.85
280.5489, 15228.49
281.0310, 15182.12
281.5132, 15184.63
281.9953, 15216.63
282.4774, 15251.66
282.9595, 15292.53
283.4416, 15320.37
283.9237, 15313.35
284.4059, 15280.75
284.8880, 15263.07
285.3701, 15276.72
285.8522, 15299.42
286.3343, 15306.74
286.8164, 15299.48
287.2986, 15291.72
287.7807, 15290.35
288.2628, 15294.31
288.7449, 15300.86
289.2270, 15311.75
289.7091, 15321.37
290.1913, 15324.46
290.6734, 15322.41
291.1555, 15320.06
291.6376, 15319.34
292.1197, 15319.91
292.6018, 15322.10
293.0840, 15328.19
293.5661, 15330.31
294.0482, 15318.25
294.5303, 15299.14
295.0124, 15286.22
295.4945, 15288.44
295.9767, 15297.91
296.4588, 15299.52
296.9409, 15290.68
297.4230, 15282.99
297.9051, 15282.51
298.3872, 15286.69
298.8694, 15292.94
299.3515, 15300.27
299.8336, 15309.95
300.3157, 15327.17
300.7978, 15354.83
301.2799, 15372.76
301.7621, 15361.52
302.2442, 15342.82
302.7263, 15338.25
303.2084, 15353.91
303.6905, 15370.03
304.1726, 15364.94
304.6548, 15337.80
305.1369, 15308.64
305.6190, 15271.74
306.1011, 15243.71
306.5832, 15240.68
307.0653, 15262.97
307.5475, 15290.50
308.0296, 15304.08
308.5117, 15305.72
308.9938, 15322.18
309.4759, 15373.84
309.9580, 15420.43
310.4402, 15435.53
310.9223, 15423.30
311.4044, 15400.85
311.8865, 15371.83
312.3686, 15339.76
312.8507, 15320.83
313.3329, 15321.10
313.8150, 15324.79
314.2971, 15321.71
314.7792, 15315.63
315.2613, 15313.72
315.7434, 15320.44
316.2256, 15332.49
316.7077, 15342.72
317.1898, 15350.42
317.6719, 15358.46
318.1540, 15369.21
318.6361, 15380.56
319.1183, 15389.92
319.6004, 15396.15
320.0825, 15401.34
320.5646, 15409.72
321.0467, 15422.55
321.5288, 15430.42
322.0110, 15425.15
322.4931, 15416.77
322.9752, 15412.58
323.4573, 15413.74
323.9394, 15418.00
324.4215, 15424.42
324.9037, 15432.91
325.3858, 15440.55
325.8679, 15450.01
326.3500, 15454.64
326.8321, 15450.30
327.3142, 15437.38
327.7964, 15418.91
328.2785, 15390.72
328.7606, 15356.89
329.2427, 15335.87
329.7248, 15326.91
330.2069, 15335.32
330.6891, 15380.84
331.1712, 15444.05
331.6533, 15482.35
332.1354, 15464.21
332.6175, 15415.45
333.0996, 15389.43
333.5818, 15392.38
334.0639, 15397.58
334.5460, 15391.05
335.0281, 15379.42
335.5102, 15369.51
335.9923, 15362.72
336.4745, 15358.64
336.9566, 15354.71
337.4387, 15350.38
337.9208, 15356.37
338.4029, 15389.19
338.8850, 15424.49
339.3671, 15436.00
339.8492, 15420.32
340.3314, 15401.23
340.8135, 15399.40
341.2956, 15411.22
341.7777, 15412.00
342.2598, 15388.19
342.7419, 15365.93
343.2241, 15373.44
343.7062, 15404.50
344.1883, 15427.53
344.6704, 15419.15
345.1525, 15393.63
345.6346, 15383.99
346.1168, 15396.53
346.5989, 15409.96
347.0810, 15405.83
347.5631, 15392.18
348.0452, 15382.75
348.5273, 15383.89
349.0095, 15388.20
349.4916, 15386.58
349.9737, 15378.88
350.4558, 15372.66
350.9379, 15370.04
351.4200, 15372.22
351.9022, 15381.70
352.3843, 15402.07
352.8664, 15419.99
353.3485, 15428.47
353.8306, 15427.58
354.3127, 15415.41
354.7949, 15386.23
355.2770, 15354.05
355.7591, 15335.28
356.2412, 15329.05
356.7233, 15331.35
357.2054, 15351.82
357.6876, 15376.43
358.1697, 15376.83
358.6518, 15345.67
359.1339, 15317.82
359.6160, 15333.72
360.0981, 15382.74
360.5803, 15406.19
361.0624, 15375.08
361.5445, 15332.40
362.0266, 15308.34
362.5087, 15303.23
362.9908, 15316.22
363.4730, 15354.79
363.9551, 15406.57
364.4372, 15434.16
364.9193, 15427.95
365.4014, 15416.12
365.8835, 15409.58
366.3657, 15405.57
366.8478, 15396.53
367.3299, 15378.52
367.8120, 15360.70
368.2941, 15359.96
368.7762, 15381.23
369.2584, 15396.13
369.7405, 15393.93
370.2226, 15387.59
370.7047, 15393.49
371.1868, 15412.51
371.6689, 15425.96
372.1511, 15413.29
372.6332, 15373.12
373.1153, 15358.44
373.5974, 15392.81
374.0795, 15426.81
374.5616, 15437.15
375.0438, 15427.94
375.5259, 15411.52
376.0080, 15393.79
376.4901, 15375.75
376.9722, 15361.27
377.4543, 15344.70
377.9365, 15338.65
378.4186, 15351.98
378.9007, 15372.98
379.3828, 15390.25
379.8649, 15400.23
380.3470, 15404.00
380.8292, 15403.21
381.3113, 15398.53
381.7934, 15385.72
382.2755, 15354.85
382.7576, 15325.54
383.2397, 15306.19
383.7219, 15298.27
384.2040, 15304.07
384.6861, 15328.03
385.1682, 15367.94
385.6503, 15385.87
386.1324, 15356.70
386.6146, 15332.54
387.0967, 15315.80
387.5788, 15311.40
388.0609, 15330.40
388.5430, 15377.19
389.0251, 15433.60
389.5073, 15461.81
389.9894, 15447.20
390.4715, 15433.72
390.9536, 15423.30
391.4357, 15414.83
391.9178, 15409.33
392.4000, 15405.74
392.8821, 15399.77
393.3642, 15385.46
393.8463, 15362.24
394.3284, 15346.46
394.8105, 15333.57
395.2927, 15334.71
395.7748, 15368.43
396.2569, 15415.36
396.7390, 15443.12
397.2211, 15433.12
397.7032, 15400.09
398.1854, 15373.97
398.6675, 15352.37
399.1496, 15345.24
399.6317, 15367.40
400.1138, 15397.92
400.5959, 15425.59
401.0781, 15448.04
401.5602, 15458.32
402.0423, 15444.36
402.5244, 15408.64
403.0065, 15377.66
403.4886, 15351.89
403.9708, 15335.83
404.4529, 15337.94
404.9350, 15351.78
405.4171, 15358.79
405.8992, 15341.05
406.3813, 15316.97
406.8635, 15320.17
407.3456, 15354.06
407.8277, 15383.85
408.3098, 15390.95
408.7919, 15383.88
409.2740, 15376.60
409.7562, 15367.83
410.2383, 15364.36
410.7204, 15375.27
411.2025, 15395.11
411.6846, 15407.55
412.1667, 15407.62
412.6489, 15402.02
413.1310, 15398.48
413.6131, 15396.94
414.0952, 15393.95
414.5773, 15390.46
415.0594, 15384.23
415.5416, 15369.29
416.0237, 15347.21
416.5058, 15331.35
416.9879, 15331.73
417.4700, 15345.25
417.9521, 15354.66
418.4343, 15355.50
418.9164, 15358.23
419.3985, 15366.20
419.8806, 15377.59
420.3627, 15391.61
420.8448, 15407.91
421.3270, 15421.38
421.8091, 15423.80
422.2912, 15409.85
422.7733, 15399.33
423.2554, 15395.58
423.7375, 15392.06
424.2197, 15379.51
424.7018, 15362.79
425.1839, 15359.34
425.6660, 15384.40
426.1481, 15431.00
426.6302, 15451.01
427.1124, 15409.28
427.5945, 15383.26
428.0766, 15399.55
428.5587, 15427.13
429.0408, 15430.17
429.5229, 15399.46
430.0051, 15360.21
430.4872, 15351.19
430.9693, 15383.02
431.4514, 15401.03
431.9335, 15384.38
432.4156, 15371.07
432.8978, 15383.39
433.3799, 15412.01
433.8620, 15431.29
434.3441, 15422.84
434.8262, 15396.04
435.3083, 15378.16
435.7905, 15372.46
436.2726, 15366.78
436.7547, 15354.27
437.2368, 15341.04
437.7189, 15330.48
438.2010, 15322.71
438.6832, 15324.40
439.1653, 15350.27
439.6474, 15393.75
440.1295, 15417.81
440.6116, 15410.77
441.0938, 15394.78
441.5759, 15388.29
442.0580, 15388.41
442.5401, 15386.50
443.0222, 15379.18
443.5043, 15369.47
443.9865, 15358.90
444.4686, 15347.92
444.9507, 15339.91
445.4328, 15336.02
445.9149, 15336.61
446.3970, 15344.24
446.8792, 15363.71
447.3613, 15375.62
447.8434, 15372.16
448.3255, 15359.50
448.8076, 15339.93
449.2897, 15315.16
449.7719, 15300.18
450.2540, 15312.45
450.7361, 15354.11
451.2182, 15375.90
451.7003, 15372.57
452.1824, 15358.68
452.6646, 15327.65
453.1467, 15292.20
453.6288, 15275.59
454.1109, 15288.03
454.5930, 15313.93
455.0751, 15320.60
455.5573, 15288.13
456.0394, 15275.67
456.5215, 15300.10
457.0036, 15326.62
457.4857, 15329.29
457.9678, 15313.63
458.4500, 15306.79
458.9321, 15334.46
459.4142, 15386.58
459.8963, 15400.31
460.3784, 15345.91
460.8605, 15305.89
461.3427, 15314.78
461.8248, 15339.64
462.3069, 15345.50
462.7890, 15323.73
463.2711, 15300.16
463.7532, 15304.63
464.2354, 15334.96
464.7175, 15361.58
465.1996, 15387.20
465.6817, 15398.45
466.1638, 15376.94
466.6459, 15334.47
467.1281, 15300.38
467.6102, 15284.04
468.0923, 15280.49
468.5744, 15290.88
469.0565, 15313.20
469.5386, 15325.19
470.0208, 15313.52
470.5029, 15292.77
470.9850, 15291.90
471.4671, 15315.66
471.9492, 15328.66
472.4313, 15311.46
472.9135, 15285.29
473.3956, 15272.83
473.8777, 15275.85
474.3598, 15284.97
474.8419, 15295.11
475.3240, 15305.21
475.8062, 15303.32
476.2883, 15280.74
476.7704, 15258.95
477.2525, 15239.02
477.7346, 15223.73
478.2167, 15216.67
478.6989, 15218.56
479.1810, 15227.12
479.6631, 15241.50
480.1452, 15265.41
480.6273, 15275.32
481.1094, 15258.92
481.5916, 15240.78
482.0737, 15226.45
482.5558, 15216.18
483.0379, 15210.35
483.5200, 15209.84
484.0021, 15209.87
484.4843, 15197.02
484.9664, 15164.51
485.4485, 15150.88
485.9306, 15188.40
486.4127, 15225.85
486.8948, 15220.55
487.3770, 15179.62
487.8591, 15149.86
488.3412, 15170.54
488.8233, 15216.41
489.3054, 15238.80
489.7875, 15235.99
490.2697, 15221.98
490.7518, 15196.92
491.2339, 15168.73
491.7160, 15152.16
492.1981, 15149.03
492.6802, 15152.39
493.1624, 15164.70
493.6445, 15179.82
494.1266, 15189.01
494.6087, 15190.80
495.0908, 15186.81
495.5729, 15177.85
496.0551, 15163.92
496.5372, 15149.14
497.0193, 15130.40
497.5014, 15114.56
497.9835, 15096.96
498.4656, 15085.82
498.9478, 15100.62
499.4299, 15145.47
499.9120, 15191.06
500.3941, 15191.60
500.8762, 15131.65
501.3583, 15087.87
501.8405, 15064.33
502.3226, 15053.00
502.8047, 15061.15
503.2868, 15078.14
503.7689, 15084.66
504.2510, 15069.79
504.7331, 15046.43
505.2152, 15039.10
505.6974, 15050.44
506.1795, 15061.77
506.6616, 15072.75
507.1437, 15079.13
507.6258, 15072.14
508.1079, 15055.62
508.5901, 15049.93
509.0722, 15079.73
509.5543, 15118.79
510.0364, 15122.63
510.5185, 15091.71
511.0006, 15069.11
511.4828, 15081.86
511.9649, 15108.74
512.4470, 15100.90
512.9291, 15046.11
513.4113, 15004.56
513.8934, 15000.62
514.3755, 15012.01
514.8576, 15017.09
515.3397, 15013.70
515.8218, 15008.78
516.3040, 15007.07
516.7861, 15008.51
517.2682, 15012.94
517.7503, 15033.62
518.2324, 15040.20
518.7145, 15016.42
519.1967, 14985.41
519.6788, 14969.83
520.1609, 14972.72
520.6430, 14980.64
521.1251, 14980.17
521.6072, 14971.60
522.0894, 14965.17
522.5715, 14960.77
523.0536, 14958.87
523.5357, 14960.35
524.0178, 14963.72
524.4999, 14970.24
524.9821, 14981.32
525.4642, 14983.84
525.9463, 14950.69
526.4284, 14895.08
526.9105, 14885.95
527.3926, 14950.04
527.8748, 15008.71
528.3569, 14983.86
528.8390, 14901.90
529.3211, 14855.02
529.8032, 14878.34
530.2853, 14908.89
530.7675, 14915.26
531.2496, 14904.26
531.7317, 14886.28
532.2138, 14864.13
532.6959, 14843.96
533.1780, 14834.00
533.6602, 14836.28
534.1423, 14835.92
534.6244, 14828.27
535.1065, 14823.35
535.5886, 14829.21
536.0707, 14838.93
536.5529, 14841.46
537.0350, 14832.47
537.5171, 14817.48
537.9992, 14804.04
538.4813, 14791.37
538.9634, 14784.77
539.4456, 14792.18
539.9277, 14797.31
540.4098, 14787.71
540.8919, 14771.16
541.3740, 14764.46
541.8561, 14777.76
542.3383, 14795.84
542.8204, 14797.12
543.3025, 14783.91
543.7846, 14780.24
544.2667, 14796.15
544.7488, 14815.07
545.2310, 14819.87
545.7131, 14811.66
546.1952, 14794.57
546.6773, 14753.74
547.1594, 14718.59
547.6415, 14716.58
548.1237, 14735.39
548.6058, 14741.15
549.0879, 14719.74
549.5700, 14689.08
550.0521, 14679.34
550.5342, 14699.52
551.0164, 14713.92
551.4985, 14718.25
551.9806, 14722.09
552.4627, 14734.90
552.9448, 14749.39
553.4269, 14750.36
553.9091, 14729.91
554.3912, 14699.56
554.8733, 14677.50
555.3554, 14663.33
555.8375, 14659.27
556.3196, 14668.22
556.8018, 14684.94
557.2839, 14713.82
557.7660, 14747.59
558.2481, 14765.81
558.7302, 14759.71
559.2123, 14736.80
559.6945, 14692.53
560.1766, 14634.62
560.6587, 14600.11
561.1408, 14602.84
561.6229, 14624.29
562.1050, 14644.94
562.5872, 14665.52
563.0693, 14676.05
563.5514, 14663.17
564.0335, 14653.59
564.5156, 14668.74
564.9977, 14695.22
565.4799, 14707.41
565.9620, 14695.17
566.4441, 14669.58
566.9262, 14646.19
567.4083, 14622.67
567.8904, 14610.69
568.3726, 14622.43
568.8547, 14633.48
569.3368, 14635.68
569.8189, 14631.56
570.3010, 14625.34
570.7831, 14618.09
571.2653, 14611.32
571.7474, 14605.88
572.2295, 14602.08
572.7116, 14603.99
573.1937, 14615.94
573.6758, 14624.52
574.1580, 14614.43
574.6401, 14590.91
575.1222, 14574.42
575.6043, 14569.17
576.0864, 14568.77
576.5685, 14578.20
577.0507, 14588.19
577.5328, 14576.20
578.0149, 14538.50
578.4970, 14506.32
578.9791, 14517.52
579.4612, 14575.15
579.9434, 14600.18
580.4255, 14555.17
580.9076, 14521.01
581.3897, 14520.97
581.8718, 14534.57
582.3539, 14538.63
582.8361, 14528.16
583.3182, 14515.03
583.8003, 14512.41
584.2824, 14518.33
584.7645, 14516.10
585.2466, 14500.18
585.7288, 14491.87
586.2108, 14509.79
586.6929, 14537.79
587.1750, 14552.29
587.6572, 14549.43
588.1393, 14542.58
588.6214, 14537.18
589.1035, 14531.52
589.5856, 14518.85
590.0677, 14500.76
