##NAMES=Newberyite
##RRUFFID=R050513
##IDEAL CHEMISTRY=Mg(PO_3_OH)&#183;3H_2_O
##LOCALITY=Australia
##OWNER=RRUFF
##SOURCE=American Museum of Natural History
##DESCRIPTION=An aggregate of beige fragments
##STATUS=The identification of this mineral has been confirmed by X-ray diffraction and chemical analysis
##URL=rruff.info/R050513
##MEASURED CHEMISTRY=(Mg_0.98_Mn_0.01_Ca_0.01_)_Σ=1_(P_1.00_O_3_OH)·3H_2_O
91.40820, 66.03542
91.89032, 70.62056
92.37244, 68.71651
92.85455, 61.23513
93.33667, 53.63387
93.81879, 49.76504
94.30090, 48.87416
94.78302, 48.64616
95.26514, 48.80575
95.74725, 49.16747
96.22937, 49.30569
96.71149, 49.20361
97.19360, 49.05493
97.67572, 48.98525
98.15784, 48.99704
98.63995, 49.20453
99.12207, 49.73209
99.60419, 50.52057
100.0863, 51.03118
100.5684, 51.15998
101.0505, 51.22075
101.5327, 51.62921
102.0148, 52.44865
102.4969, 53.39393
102.9790, 54.35066
103.4611, 55.25714
103.9432, 56.44673
104.4253, 57.82752
104.9075, 59.53855
105.3896, 61.78556
105.8717, 64.48415
106.3538, 67.86555
106.8359, 72.08167
107.3180, 77.17179
107.8002, 82.96190
108.2823, 89.51687
108.7644, 96.76801
109.2465, 104.7511
109.7286, 113.1246
110.2107, 122.3724
110.6929, 132.8619
111.1750, 144.4959
111.6571, 157.3560
112.1392, 171.3446
112.6213, 186.5051
113.1034, 203.4462
113.5856, 221.4165
114.0677, 241.8997
114.5498, 265.7573
115.0319, 292.1323
115.5140, 323.0547
115.9961, 359.3203
116.4783, 400.9149
116.9604, 445.8886
117.4425, 495.0075
117.9246, 547.2719
118.4067, 601.1019
118.8888, 658.7881
119.3710, 716.3284
119.8531, 772.0420
120.3352, 825.7089
120.8173, 876.5095
121.2994, 923.9866
121.7815, 967.7806
122.2637, 1007.430
122.7458, 1038.801
123.2279, 1067.406
123.7100, 1097.872
124.1921, 1130.418
124.6742, 1165.941
125.1564, 1204.715
125.6385, 1247.004
126.1206, 1293.841
126.6027, 1346.294
127.0848, 1403.258
127.5669, 1462.557
128.0491, 1523.951
128.5312, 1587.418
129.0133, 1654.117
129.4954, 1723.200
129.9775, 1792.401
130.4596, 1860.785
130.9418, 1927.644
131.4239, 1992.845
131.9060, 2056.435
132.3881, 2118.467
132.8702, 2178.475
133.3523, 2236.863
133.8345, 2291.851
134.3166, 2341.138
134.7987, 2385.149
135.2808, 2427.449
135.7629, 2469.782
136.2450, 2511.693
136.7272, 2549.227
137.2093, 2581.801
137.6914, 2612.496
138.1735, 2644.143
138.6556, 2676.472
139.1377, 2710.193
139.6199, 2745.702
140.1020, 2782.691
140.5841, 2821.776
141.0662, 2862.151
141.5483, 2905.063
142.0304, 2951.985
142.5126, 3002.433
142.9947, 3055.926
143.4768, 3102.595
143.9589, 3135.849
144.4410, 3169.371
144.9231, 3202.531
145.4053, 3236.567
145.8874, 3274.750
146.3695, 3321.931
146.8516, 3366.326
147.3337, 3403.575
147.8158, 3432.892
148.2980, 3459.510
148.7801, 3484.750
149.2622, 3507.409
149.7443, 3524.388
150.2264, 3537.703
150.7085, 3544.106
151.1907, 3542.490
151.6728, 3531.847
152.1549, 3515.530
152.6370, 3491.021
153.1191, 3460.667
153.6012, 3430.868
154.0834, 3401.720
154.5655, 3373.449
155.0476, 3345.634
155.5297, 3317.671
156.0118, 3291.503
156.4939, 3266.650
156.9761, 3243.389
157.4582, 3223.664
157.9403, 3209.616
158.4224, 3198.010
158.9045, 3186.865
159.3866, 3173.917
159.8688, 3163.716
160.3509, 3158.377
160.8330, 3157.223
161.3151, 3157.108
161.7972, 3157.895
162.2793, 3158.819
162.7615, 3159.293
163.2436, 3158.706
163.7257, 3158.087
164.2078, 3157.611
164.6899, 3157.323
165.1720, 3157.669
165.6541, 3159.433
166.1363, 3161.656
166.6184, 3163.396
167.1005, 3164.149
167.5826, 3164.411
168.0647, 3164.381
168.5468, 3164.060
169.0290, 3163.614
169.5111, 3162.757
169.9932, 3161.921
170.4753, 3161.681
170.9574, 3162.488
171.4395, 3163.856
171.9217, 3165.909
172.4038, 3168.653
172.8859, 3170.530
173.3680, 3169.706
173.8501, 3167.287
174.3322, 3165.183
174.8144, 3164.262
175.2965, 3164.049
175.7786, 3163.676
176.2607, 3163.063
176.7428, 3163.450
177.2249, 3166.810
177.7071, 3172.083
178.1892, 3176.781
178.6713, 3178.989
179.1534, 3180.103
179.6355, 3182.551
180.1176, 3186.493
180.5998, 3190.815
181.0819, 3194.058
181.5640, 3196.579
182.0461, 3199.861
182.5282, 3205.878
183.0103, 3212.988
183.4925, 3217.059
183.9746, 3217.584
184.4567, 3216.775
184.9388, 3217.343
185.4209, 3219.070
185.9030, 3220.520
186.3852, 3220.865
186.8673, 3220.407
187.3494, 3220.059
187.8315, 3219.833
188.3136, 3219.966
188.7957, 3220.815
189.2779, 3222.377
189.7600, 3224.387
190.2421, 3227.021
190.7242, 3230.102
191.2063, 3232.430
191.6884, 3233.653
192.1706, 3234.760
192.6527, 3237.556
193.1348, 3242.014
193.6169, 3246.512
194.0990, 3250.917
194.5811, 3255.021
195.0633, 3256.109
195.5454, 3253.262
196.0275, 3248.820
196.5096, 3247.336
196.9917, 3249.019
197.4738, 3251.139
197.9560, 3252.435
198.4381, 3252.939
198.9202, 3253.323
199.4023, 3253.747
199.8844, 3254.033
200.3665, 3253.744
200.8487, 3252.869
201.3308, 3251.865
201.8129, 3250.651
202.2950, 3249.128
202.7771, 3249.208
203.2592, 3251.454
203.7414, 3254.786
204.2235, 3256.639
204.7056, 3256.479
205.1877, 3256.657
205.6698, 3258.640
206.1519, 3262.795
206.6341, 3265.856
207.1162, 3267.177
207.5983, 3267.701
208.0804, 3269.706
208.5625, 3273.567
209.0446, 3277.623
209.5268, 3281.246
210.0089, 3284.567
210.4910, 3286.712
210.9731, 3287.037
211.4552, 3286.662
211.9373, 3288.457
212.4195, 3293.207
212.9016, 3298.212
213.3837, 3302.165
213.8658, 3304.787
214.3479, 3307.491
214.8300, 3310.335
215.3121, 3313.272
215.7943, 3316.373
216.2764, 3320.079
216.7585, 3322.856
217.2406, 3323.815
217.7227, 3322.282
218.2048, 3320.809
218.6870, 3319.173
219.1691, 3317.641
219.6512, 3316.941
220.1333, 3317.443
220.6154, 3318.025
221.0975, 3318.180
221.5797, 3317.695
222.0618, 3317.436
222.5439, 3317.412
223.0260, 3317.692
223.5081, 3318.441
223.9902, 3319.894
224.4724, 3321.602
224.9545, 3323.430
225.4366, 3325.554
225.9187, 3327.500
226.4008, 3328.801
226.8829, 3330.228
227.3651, 3333.581
227.8472, 3340.083
228.3293, 3346.516
228.8114, 3351.411
229.2935, 3353.790
229.7757, 3357.501
230.2578, 3362.923
230.7399, 3369.360
231.2220, 3375.684
231.7041, 3382.171
232.1862, 3387.868
232.6684, 3392.155
233.1505, 3394.223
233.6326, 3397.469
234.1147, 3402.706
234.5968, 3408.663
235.0789, 3412.739
235.5611, 3413.423
236.0432, 3414.739
236.5253, 3418.646
237.0074, 3426.727
237.4895, 3431.332
237.9716, 3430.933
238.4538, 3428.030
238.9359, 3426.603
239.4180, 3427.245
239.9001, 3428.432
240.3822, 3429.778
240.8643, 3431.296
241.3465, 3432.751
241.8286, 3433.294
242.3107, 3434.352
242.7928, 3438.283
243.2749, 3447.214
243.7570, 3455.252
244.2392, 3460.313
244.7213, 3461.602
245.2034, 3464.897
245.6855, 3471.027
246.1676, 3478.514
246.6497, 3485.528
247.1319, 3491.799
247.6140, 3498.208
248.0961, 3505.033
248.5782, 3512.390
249.0603, 3519.781
249.5424, 3527.529
250.0246, 3535.145
250.5067, 3542.140
250.9888, 3548.237
251.4709, 3554.324
251.9530, 3560.860
252.4351, 3567.955
252.9173, 3573.419
253.3994, 3577.139
253.8815, 3579.316
254.3636, 3579.917
254.8457, 3578.111
255.3278, 3576.356
255.8100, 3575.467
256.2921, 3575.329
256.7742, 3572.652
257.2563, 3565.698
257.7384, 3558.533
258.2205, 3555.019
258.7026, 3556.919
259.1848, 3558.030
259.6669, 3557.048
260.1490, 3554.365
260.6311, 3553.248
261.1132, 3554.377
261.5953, 3556.104
262.0775, 3557.272
262.5596, 3557.848
263.0417, 3557.987
263.5238, 3557.323
264.0059, 3556.198
264.4880, 3556.360
264.9702, 3557.966
265.4523, 3560.411
265.9344, 3563.717
266.4165, 3568.638
266.8986, 3571.306
267.3807, 3570.184
267.8629, 3567.050
268.3450, 3568.386
268.8271, 3576.206
269.3092, 3583.680
269.7913, 3586.652
270.2734, 3583.910
270.7556, 3582.841
271.2377, 3583.919
271.7198, 3586.914
272.2019, 3591.727
272.6840, 3599.097
273.1661, 3606.041
273.6483, 3610.487
274.1304, 3611.816
274.6125, 3615.731
275.0946, 3622.691
275.5767, 3631.600
276.0588, 3640.933
276.5410, 3650.789
277.0231, 3659.921
277.5052, 3667.316
277.9873, 3672.892
278.4694, 3678.622
278.9515, 3684.454
279.4337, 3690.274
279.9158, 3696.083
280.3979, 3701.874
280.8800, 3707.192
281.3621, 3712.057
281.8442, 3716.395
282.3264, 3718.798
282.8085, 3718.966
283.2906, 3718.509
283.7727, 3719.348
284.2548, 3721.551
284.7369, 3723.816
285.2191, 3726.004
285.7012, 3727.994
286.1833, 3729.086
286.6654, 3729.185
287.1475, 3729.130
287.6296, 3729.529
288.1118, 3730.380
288.5939, 3731.874
289.0760, 3734.181
289.5581, 3736.992
290.0402, 3739.581
290.5223, 3741.917
291.0045, 3744.396
291.4866, 3747.978
291.9687, 3752.195
292.4508, 3754.514
292.9329, 3753.719
293.4150, 3752.100
293.8972, 3754.181
294.3793, 3759.696
294.8614, 3765.185
295.3435, 3767.927
295.8256, 3768.862
296.3077, 3770.467
296.7899, 3773.078
297.2720, 3776.395
297.7541, 3780.227
298.2362, 3784.458
298.7183, 3788.631
299.2004, 3792.136
299.6826, 3795.430
300.1647, 3799.633
300.6468, 3804.896
301.1289, 3810.177
301.6110, 3814.519
302.0931, 3818.000
302.5753, 3821.025
303.0574, 3823.687
303.5395, 3825.976
304.0216, 3827.933
304.5037, 3829.591
304.9858, 3830.658
305.4680, 3830.111
305.9501, 3828.960
306.4322, 3828.946
306.9143, 3832.042
307.3964, 3835.648
307.8785, 3836.837
308.3607, 3835.937
308.8428, 3835.848
309.3249, 3839.483
309.8070, 3844.666
310.2891, 3848.713
310.7712, 3849.830
311.2534, 3850.940
311.7355, 3854.186
312.2176, 3859.134
312.6997, 3864.200
313.1818, 3868.147
313.6639, 3871.936
314.1461, 3876.285
314.6282, 3881.115
315.1103, 3886.886
315.5924, 3894.145
316.0745, 3902.472
316.5566, 3911.136
317.0388, 3920.456
317.5209, 3929.526
318.0030, 3937.877
318.4851, 3945.359
318.9672, 3952.653
319.4493, 3960.254
319.9315, 3967.756
320.4136, 3974.708
320.8957, 3979.656
321.3778, 3985.184
321.8599, 3992.970
322.3420, 4003.402
322.8242, 4012.106
323.3063, 4017.449
323.7884, 4021.004
324.2705, 4024.148
324.7526, 4026.514
325.2347, 4029.109
325.7169, 4032.421
326.1990, 4036.357
326.6811, 4039.438
327.1632, 4043.513
327.6453, 4045.373
328.1274, 4043.221
328.6096, 4032.071
329.0917, 4023.034
329.5738, 4017.512
330.0559, 4014.462
330.5380, 4010.490
331.0201, 4005.788
331.5023, 3999.968
331.9844, 3992.508
332.4665, 3981.974
332.9486, 3973.530
333.4307, 3968.092
333.9128, 3964.288
334.3950, 3959.820
334.8771, 3953.841
335.3592, 3948.682
335.8413, 3945.148
336.3234, 3943.318
336.8055, 3942.240
337.2877, 3942.722
337.7698, 3942.824
338.2519, 3939.669
338.7340, 3931.903
339.2161, 3926.420
339.6982, 3925.590
340.1803, 3928.411
340.6624, 3928.345
341.1446, 3924.623
341.6267, 3920.604
342.1088, 3918.959
342.5909, 3919.783
343.0730, 3920.559
343.5551, 3920.848
344.0373, 3920.998
344.5194, 3922.074
345.0015, 3924.138
345.4836, 3925.775
345.9657, 3925.387
346.4478, 3923.568
346.9300, 3924.027
347.4121, 3927.479
347.8942, 3931.491
348.3763, 3932.631
348.8584, 3931.321
349.3405, 3929.935
349.8227, 3928.757
350.3048, 3928.473
350.7869, 3931.214
351.2690, 3937.073
351.7511, 3943.202
352.2332, 3946.414
352.7154, 3947.933
353.1975, 3950.385
353.6796, 3954.986
354.1617, 3960.424
354.6438, 3965.395
355.1259, 3969.875
355.6081, 3973.959
356.0902, 3978.024
356.5723, 3981.496
357.0544, 3983.364
357.5365, 3982.387
358.0186, 3981.976
358.5008, 3985.385
358.9829, 3991.054
359.4650, 3995.683
359.9471, 3997.988
360.4292, 3998.619
360.9113, 3997.455
361.3935, 3994.224
361.8756, 3991.641
362.3577, 3991.262
362.8398, 3992.077
363.3219, 3992.931
363.8040, 3994.778
364.2862, 3995.524
364.7683, 3993.381
365.2504, 3988.635
365.7325, 3986.264
366.2146, 3989.016
366.6967, 3993.329
367.1789, 3996.992
367.6610, 3999.799
368.1431, 4001.924
368.6252, 4003.074
369.1073, 4003.517
369.5894, 4004.067
370.0716, 4003.546
370.5537, 4004.330
371.0358, 4007.578
371.5179, 4014.482
372.0000, 4020.102
372.4821, 4023.588
372.9643, 4026.266
373.4464, 4029.917
373.9285, 4034.864
374.4106, 4039.941
374.8927, 4045.031
375.3748, 4050.089
375.8570, 4054.033
376.3391, 4056.123
376.8212, 4058.584
377.3033, 4063.522
377.7854, 4071.203
378.2675, 4079.302
378.7497, 4087.996
379.2318, 4096.560
379.7139, 4103.346
380.1960, 4108.263
380.6781, 4112.180
381.1602, 4114.938
381.6424, 4116.893
382.1245, 4120.311
382.6066, 4125.573
383.0887, 4131.484
383.5708, 4136.289
384.0529, 4140.332
384.5351, 4145.443
385.0172, 4153.018
385.4993, 4161.727
385.9814, 4169.302
386.4635, 4175.734
386.9456, 4182.427
387.4278, 4190.420
387.9099, 4199.302
388.3920, 4208.536
388.8741, 4217.877
389.3562, 4227.539
389.8383, 4237.879
390.3205, 4248.805
390.8026, 4259.824
391.2847, 4271.197
391.7668, 4282.171
392.2489, 4292.327
392.7310, 4301.545
393.2132, 4309.960
393.6953, 4317.377
394.1774, 4324.021
394.6595, 4330.213
395.1416, 4334.656
395.6237, 4339.974
396.1059, 4348.480
396.5880, 4359.835
397.0701, 4368.120
397.5522, 4369.912
398.0343, 4369.735
398.5164, 4370.278
398.9986, 4374.708
399.4807, 4376.083
399.9628, 4372.761
400.4449, 4366.412
400.9270, 4360.801
401.4091, 4356.404
401.8913, 4352.246
402.3734, 4348.028
402.8555, 4343.706
403.3376, 4339.584
403.8197, 4335.743
404.3018, 4331.953
404.7840, 4328.146
405.2661, 4324.589
405.7482, 4319.678
406.2303, 4312.267
406.7124, 4303.360
407.1945, 4297.353
407.6767, 4294.650
408.1588, 4292.561
408.6409, 4289.136
409.1230, 4284.474
409.6051, 4280.479
410.0872, 4277.506
410.5694, 4274.518
411.0515, 4269.218
411.5336, 4262.132
412.0157, 4256.600
412.4978, 4255.616
412.9799, 4256.820
413.4621, 4255.272
413.9442, 4251.053
414.4263, 4246.267
414.9084, 4242.546
415.3905, 4239.455
415.8727, 4236.157
416.3548, 4232.258
416.8369, 4228.462
417.3190, 4225.289
417.8011, 4222.686
418.2832, 4220.449
418.7654, 4219.294
419.2475, 4217.862
419.7296, 4214.950
420.2117, 4210.099
420.6938, 4205.459
421.1759, 4201.856
421.6581, 4198.849
422.1402, 4195.935
422.6223, 4193.828
423.1044, 4190.903
423.5865, 4186.558
424.0686, 4180.936
424.5508, 4175.068
425.0329, 4167.886
425.5150, 4161.494
425.9971, 4157.052
426.4792, 4156.279
426.9613, 4153.953
427.4435, 4149.152
427.9256, 4143.402
428.4077, 4139.132
428.8898, 4136.770
429.3719, 4134.925
429.8540, 4133.352
430.3362, 4132.025
430.8183, 4130.521
431.3004, 4128.877
431.7825, 4126.968
432.2646, 4124.413
432.7467, 4121.210
433.2289, 4118.641
433.7110, 4116.829
434.1931, 4115.833
434.6752, 4116.299
435.1573, 4118.042
435.6394, 4119.293
436.1216, 4118.357
436.6037, 4116.382
437.0858, 4116.189
437.5679, 4117.854
438.0500, 4119.781
438.5321, 4121.046
439.0142, 4121.541
439.4963, 4120.839
439.9785, 4117.369
440.4606, 4114.745
440.9427, 4117.545
441.4248, 4123.937
441.9069, 4128.377
442.3890, 4126.415
442.8712, 4122.990
443.3533, 4121.351
443.8354, 4122.226
444.3175, 4123.199
444.7996, 4123.603
445.2817, 4123.622
445.7639, 4123.439
446.2460, 4121.279
446.7281, 4120.795
447.2102, 4123.062
447.6923, 4127.740
448.1744, 4132.625
448.6566, 4138.425
449.1387, 4143.542
449.6208, 4147.151
450.1029, 4148.764
450.5850, 4150.245
451.0671, 4151.558
451.5493, 4152.745
452.0314, 4153.836
452.5135, 4154.803
452.9956, 4155.990
453.4777, 4157.881
453.9598, 4160.034
454.4420, 4159.965
454.9241, 4157.439
455.4062, 4155.082
455.8883, 4154.944
456.3704, 4156.693
456.8525, 4159.068
457.3347, 4162.131
457.8168, 4164.955
458.2989, 4165.865
458.7810, 4165.483
459.2631, 4165.583
459.7452, 4167.584
460.2274, 4170.114
460.7095, 4171.447
461.1916, 4171.775
461.6737, 4172.379
462.1558, 4173.706
462.6379, 4175.853
463.1201, 4179.046
463.6022, 4183.830
464.0843, 4188.469
464.5664, 4192.803
465.0485, 4196.394
465.5306, 4198.559
466.0128, 4196.573
466.4949, 4195.630
466.9770, 4197.670
467.4591, 4202.839
467.9412, 4207.705
468.4233, 4212.850
468.9055, 4217.187
469.3876, 4219.996
469.8697, 4220.153
470.3518, 4221.380
470.8339, 4223.916
471.3160, 4227.584
471.7982, 4232.298
472.2803, 4238.427
472.7624, 4244.202
473.2445, 4248.588
473.7266, 4252.015
474.2087, 4257.318
474.6909, 4264.628
475.1730, 4272.132
475.6551, 4277.899
476.1372, 4282.342
476.6193, 4287.173
477.1014, 4292.365
477.5836, 4298.517
478.0657, 4307.354
478.5478, 4317.902
479.0299, 4327.245
479.5120, 4333.845
479.9941, 4338.868
480.4763, 4342.571
480.9584, 4345.230
481.4405, 4348.935
481.9226, 4356.636
482.4047, 4364.866
482.8868, 4370.361
483.3690, 4369.951
483.8511, 4372.017
484.3332, 4381.191
484.8153, 4393.870
485.2974, 4404.362
485.7795, 4409.431
486.2617, 4414.692
486.7438, 4421.482
487.2259, 4429.805
487.7080, 4437.795
488.1901, 4445.351
488.6722, 4452.824
489.1544, 4460.421
489.6365, 4467.905
490.1186, 4476.314
490.6007, 4486.013
491.0828, 4496.194
491.5649, 4505.951
492.0471, 4515.202
492.5292, 4523.739
493.0113, 4530.963
493.4934, 4537.514
493.9755, 4545.814
494.4576, 4555.644
494.9398, 4564.680
495.4219, 4570.608
495.9040, 4574.598
496.3861, 4578.463
496.8682, 4582.429
497.3503, 4586.477
497.8325, 4591.812
498.3146, 4597.026
498.7967, 4600.047
499.2788, 4598.377
499.7609, 4595.977
500.2430, 4595.017
500.7252, 4595.175
501.2073, 4594.726
501.6894, 4592.154
502.1715, 4589.832
502.6536, 4589.107
503.1357, 4591.021
503.6179, 4592.007
504.1000, 4590.867
504.5821, 4589.492
505.0642, 4589.905
505.5463, 4593.290
506.0284, 4595.467
506.5106, 4594.710
506.9927, 4592.589
507.4748, 4594.731
507.9569, 4601.710
508.4390, 4609.823
508.9211, 4617.246
509.4033, 4624.100
509.8854, 4631.712
510.3675, 4640.116
510.8496, 4648.851
511.3317, 4657.284
511.8138, 4665.735
512.2960, 4674.999
512.7781, 4685.804
513.2602, 4696.754
513.7423, 4705.888
514.2244, 4714.052
514.7065, 4723.274
515.1887, 4736.329
515.6708, 4749.439
516.1529, 4759.970
516.6350, 4767.931
517.1171, 4775.119
517.5992, 4780.986
518.0814, 4787.013
518.5635, 4794.367
519.0456, 4806.114
519.5277, 4814.360
520.0098, 4817.488
520.4919, 4817.475
520.9741, 4817.367
521.4562, 4818.603
521.9383, 4816.716
522.4204, 4810.047
522.9025, 4799.271
523.3846, 4788.472
523.8668, 4777.522
524.3489, 4767.177
524.8310, 4758.429
525.3131, 4750.893
525.7952, 4741.388
526.2773, 4729.440
526.7595, 4717.154
527.2416, 4707.330
527.7237, 4699.219
528.2058, 4690.620
528.6879, 4680.498
529.1700, 4670.468
529.6522, 4662.282
530.1343, 4655.635
530.6164, 4649.288
531.0985, 4641.831
531.5806, 4635.267
532.0627, 4631.409
532.5449, 4630.569
533.0270, 4629.342
533.5091, 4626.570
533.9912, 4623.207
534.4733, 4619.944
534.9554, 4616.690
535.4376, 4613.634
535.9197, 4611.696
536.4018, 4609.429
536.8839, 4603.805
537.3660, 4592.679
537.8481, 4583.847
538.3303, 4580.223
538.8124, 4580.497
539.2945, 4577.635
539.7766, 4571.469
540.2587, 4563.686
540.7408, 4554.477
541.2230, 4544.478
541.7051, 4536.598
542.1872, 4531.255
542.6693, 4526.607
543.1514, 4520.632
543.6335, 4514.101
544.1157, 4508.245
544.5978, 4503.719
545.0799, 4499.674
545.5620, 4495.401
546.0441, 4491.199
546.5262, 4487.788
547.0084, 4485.268
547.4905, 4483.732
547.9726, 4483.404
548.4547, 4484.354
548.9368, 4485.218
549.4189, 4486.311
549.9011, 4486.812
550.3832, 4486.031
550.8653, 4482.702
551.3474, 4481.002
551.8295, 4481.548
552.3116, 4482.984
552.7938, 4483.436
553.2759, 4482.846
553.7580, 4481.662
554.2401, 4479.920
554.7222, 4477.740
555.2043, 4475.293
555.6865, 4472.647
556.1686, 4470.060
556.6507, 4467.476
557.1328, 4465.220
557.6149, 4464.075
558.0970, 4464.138
558.5792, 4463.904
559.0613, 4462.023
559.5434, 4459.536
560.0255, 4457.313
560.5076, 4454.764
560.9897, 4454.094
561.4719, 4458.433
561.9540, 4464.649
562.4361, 4467.472
562.9182, 4461.900
563.4003, 4457.731
563.8824, 4456.896
564.3646, 4458.970
564.8467, 4461.388
565.3288, 4464.684
565.8109, 4467.021
566.2930, 4466.806
566.7751, 4463.830
567.2573, 4463.062
567.7394, 4464.768
568.2215, 4467.224
568.7036, 4468.865
569.1857, 4469.782
569.6678, 4470.453
570.1500, 4471.087
570.6321, 4471.266
571.1142, 4470.525
571.5963, 4468.993
572.0784, 4466.939
572.5605, 4463.279
573.0427, 4460.254
573.5248, 4459.695
574.0069, 4461.289
574.4890, 4462.589
574.9711, 4462.389
575.4532, 4462.144
575.9354, 4462.708
576.4175, 4464.536
576.8996, 4465.825
577.3817, 4466.866
577.8638, 4467.075
578.3459, 4465.216
578.8281, 4460.000
579.3102, 4458.308
579.7923, 4461.765
580.2744, 4467.656
580.7565, 4470.820
581.2386, 4471.360
581.7208, 4471.585
582.2029, 4472.271
582.6850, 4473.233
583.1671, 4474.506
583.6492, 4475.948
584.1313, 4476.696
584.6135, 4475.115
585.0956, 4473.317
585.5776, 4473.521
586.0598, 4476.151
586.5419, 4478.997
587.0240, 4482.527
587.5061, 4485.146
587.9882, 4485.467
