##NAMES=Neyite
##RRUFFID=R100116
##IDEAL CHEMISTRY=Ag^1+^_2_Cu^1+^_6_Pb^2+^_25_Bi^3+^_26_S^2-^_68_
##LOCALITY=Southwest end of pit, British Columbia Molybdenum mine, Kitsault, British Columbia, Canada
##OWNER=RRUFF
##SOURCE=Robert Woodside
##DESCRIPTION=Unconsolidated lead-gray elongated crystals with stepped surfaces
##STATUS=The identification of this mineral has been confirmed only by single crystal X-ray diffraction.
##URL=rruff.info/R100116
84.23633, 53.77371
84.71844, 55.83663
85.20056, 56.55350
85.68268, 54.98212
86.16479, 52.28202
86.64691, 50.38987
87.12903, 49.35880
87.61115, 48.93483
88.09327, 49.38365
88.57539, 50.49990
89.05750, 50.85802
89.53962, 49.04771
90.02174, 45.57622
90.50385, 43.55622
90.98597, 43.47089
91.46809, 44.29721
91.95020, 43.97931
92.43232, 42.36411
92.91444, 40.79919
93.39655, 40.04505
93.87867, 40.11444
94.36079, 40.94921
94.84290, 42.98258
95.32503, 45.68624
95.80714, 46.77828
96.28926, 45.81608
96.77138, 44.09687
97.25349, 42.45919
97.73561, 40.79885
98.21773, 39.52137
98.69984, 38.84701
99.18196, 38.77283
99.66408, 38.33636
100.1462, 37.16307
100.6283, 35.90139
101.1104, 35.13853
101.5925, 34.70527
102.0747, 34.99018
102.5568, 36.66561
103.0389, 40.62917
103.5210, 42.25886
104.0031, 39.43060
104.4853, 34.88187
104.9674, 31.92539
105.4495, 32.13910
105.9316, 32.85088
106.4137, 33.35600
106.8958, 33.64574
107.3780, 33.57300
107.8601, 32.91491
108.3422, 31.88626
108.8243, 30.89516
109.3064, 30.05395
109.7885, 29.28103
110.2707, 28.48868
110.7528, 27.41004
111.2349, 26.74610
111.7170, 27.13279
112.1991, 28.23129
112.6812, 29.04400
113.1634, 28.86860
113.6455, 28.28550
114.1276, 27.80688
114.6097, 27.61777
115.0918, 27.51773
115.5739, 27.26048
116.0561, 26.90320
116.5382, 26.80723
117.0203, 27.60638
117.5024, 28.74813
117.9845, 29.42039
118.4667, 29.27200
118.9488, 28.56381
119.4309, 27.47128
119.9130, 25.99645
120.3951, 24.46967
120.8772, 22.95435
121.3594, 21.58158
121.8415, 20.71641
122.3236, 20.64017
122.8057, 21.16220
123.2878, 22.02052
123.7699, 23.30268
124.2521, 24.44852
124.7342, 24.72424
125.2163, 24.20746
125.6984, 23.57829
126.1805, 23.08519
126.6626, 22.72474
127.1448, 22.50810
127.6269, 22.46032
128.1090, 22.49374
128.5911, 22.37024
129.0732, 22.05350
129.5553, 21.99621
130.0375, 22.58033
130.5196, 23.86178
131.0017, 24.82568
131.4838, 25.31465
131.9659, 25.56610
132.4480, 26.22225
132.9302, 27.41441
133.4123, 28.63478
133.8944, 29.52842
134.3765, 29.92135
134.8586, 30.67086
135.3408, 31.94270
135.8229, 33.61998
136.3050, 35.33344
136.7871, 37.56569
137.2692, 39.14256
137.7513, 38.99583
138.2335, 35.37777
138.7156, 33.60283
139.1977, 34.81549
139.6798, 38.78735
140.1619, 41.98467
140.6440, 44.15661
141.1262, 45.82600
141.6083, 47.37892
142.0904, 48.86417
142.5725, 50.18867
143.0546, 51.37431
143.5367, 52.42123
144.0189, 53.23079
144.5010, 52.96618
144.9831, 52.87041
145.4652, 53.95433
145.9473, 57.57748
146.4294, 61.04420
146.9116, 63.88373
147.3937, 66.06801
147.8758, 67.95837
148.3579, 69.51031
148.8400, 70.79800
149.3221, 71.90454
149.8043, 72.51595
150.2864, 73.22861
150.7685, 74.19070
151.2506, 75.40284
151.7327, 76.90077
152.2149, 79.49736
152.6970, 82.18078
153.1791, 83.66343
153.6612, 82.03270
154.1433, 80.34716
154.6254, 80.20919
155.1076, 82.24783
155.5897, 83.93590
156.0718, 83.75916
156.5539, 82.67033
157.0360, 82.27180
157.5181, 83.75628
158.0003, 85.74952
158.4824, 87.46999
158.9645, 88.81974
159.4466, 89.84988
159.9287, 90.25546
160.4108, 90.34494
160.8930, 90.78161
161.3751, 92.31740
161.8572, 94.09740
162.3393, 95.12749
162.8214, 94.59807
163.3035, 94.21322
163.7857, 97.09342
164.2678, 102.3049
164.7499, 106.3629
165.2320, 106.6024
165.7141, 105.0970
166.1963, 104.0382
166.6784, 103.9405
167.1605, 104.1090
167.6426, 104.2715
168.1247, 104.2842
168.6068, 103.5744
169.0890, 100.9235
169.5711, 97.55561
170.0532, 95.24320
170.5353, 94.43203
171.0174, 94.59709
171.4995, 95.48219
171.9817, 96.96264
172.4638, 98.34919
172.9459, 99.14601
173.4280, 99.48837
173.9101, 99.61475
174.3922, 99.58430
174.8744, 99.36366
175.3565, 98.73190
175.8386, 97.73043
176.3207, 96.90408
176.8028, 96.57669
177.2849, 96.73567
177.7671, 97.44047
178.2492, 99.03677
178.7313, 100.8522
179.2134, 101.3730
179.6955, 100.6165
180.1777, 99.70840
180.6598, 99.80721
181.1419, 100.6638
181.6240, 100.9243
182.1061, 99.99787
182.5882, 98.45444
183.0704, 97.74936
183.5525, 97.90250
184.0346, 98.47324
184.5167, 99.29302
184.9988, 100.3103
185.4809, 100.9740
185.9631, 101.1615
186.4452, 100.9104
186.9273, 100.1439
187.4094, 98.77444
187.8915, 97.48040
188.3736, 97.07619
188.8558, 97.55296
189.3379, 97.66060
189.8200, 96.79534
190.3021, 95.37096
190.7842, 95.43935
191.2663, 97.29774
191.7485, 99.41431
192.2306, 100.1652
192.7127, 99.45117
193.1948, 98.84889
193.6769, 98.76154
194.1591, 99.10070
194.6412, 99.36064
195.1233, 99.54968
195.6054, 99.63355
196.0875, 99.52345
196.5696, 99.17676
197.0518, 98.94488
197.5339, 99.02224
198.0160, 99.33157
198.4981, 99.06429
198.9802, 98.00999
199.4623, 96.86902
199.9445, 96.36692
200.4266, 96.60285
200.9087, 97.01621
201.3908, 97.53858
201.8729, 98.15182
202.3550, 98.78923
202.8372, 99.68068
203.3193, 100.1563
203.8014, 99.14942
204.2835, 95.93791
204.7656, 93.90329
205.2477, 94.17731
205.7299, 96.63194
206.2120, 98.13366
206.6941, 98.55417
207.1762, 98.27493
207.6583, 97.44988
208.1405, 95.66683
208.6226, 94.64491
209.1047, 95.02505
209.5868, 96.76014
210.0689, 97.60767
210.5510, 97.15193
211.0332, 96.43933
211.5153, 96.58438
211.9974, 98.04021
212.4795, 99.18116
212.9616, 99.73808
213.4437, 99.71416
213.9259, 98.94953
214.4080, 96.79041
214.8901, 94.75188
215.3722, 94.47970
215.8543, 96.94887
216.3364, 98.90091
216.8186, 99.77727
217.3007, 99.59196
217.7828, 98.86381
218.2649, 97.04800
218.7470, 95.34932
219.2291, 94.97389
219.7113, 96.72648
220.1934, 98.02029
220.6755, 98.31326
221.1576, 97.65305
221.6397, 97.26998
222.1218, 97.29852
222.6040, 97.44791
223.0861, 97.51277
223.5682, 97.56503
224.0503, 97.35007
224.5324, 96.61758
225.0146, 95.44809
225.4967, 95.06342
225.9788, 95.95216
226.4609, 97.04892
226.9430, 97.52174
227.4251, 97.03170
227.9073, 96.63004
228.3894, 96.51376
228.8715, 96.63761
229.3536, 96.51922
229.8357, 95.96143
230.3178, 95.39906
230.8000, 95.16267
231.2821, 95.49393
231.7642, 95.64311
232.2463, 95.47348
232.7284, 95.03200
233.2105, 94.61500
233.6927, 93.96387
234.1748, 93.65585
234.6569, 94.21782
235.1390, 96.52285
235.6211, 97.80280
236.1032, 97.47405
236.5854, 95.86677
237.0675, 94.72469
237.5496, 94.09078
238.0317, 93.86356
238.5138, 94.02627
238.9960, 94.75793
239.4781, 95.51463
239.9602, 96.39219
240.4423, 97.26831
240.9244, 97.58364
241.4065, 96.92883
241.8887, 96.31166
242.3708, 96.27950
242.8529, 97.08398
243.3350, 97.88793
243.8171, 98.72623
244.2992, 99.53936
244.7814, 100.2199
245.2635, 101.1267
245.7456, 101.3379
246.2277, 100.1371
246.7098, 96.30058
247.1919, 94.28006
247.6741, 94.82925
248.1562, 96.85461
248.6383, 97.73266
249.1204, 96.87666
249.6025, 95.93448
250.0846, 95.65058
250.5668, 96.33296
251.0489, 96.59747
251.5310, 96.30495
252.0131, 95.68777
252.4952, 95.18068
252.9774, 94.86049
253.4595, 94.48203
253.9416, 93.86790
254.4237, 92.90269
254.9058, 92.44715
255.3879, 92.83132
255.8701, 93.40562
256.3522, 93.03053
256.8343, 91.19747
257.3164, 89.72038
257.7985, 89.29900
258.2806, 90.06689
258.7628, 90.49551
259.2449, 90.50940
259.7270, 90.30137
260.2091, 90.12392
260.6912, 90.02021
261.1733, 89.80473
261.6555, 89.38737
262.1376, 88.77355
262.6197, 88.28725
263.1018, 87.99507
263.5839, 87.71400
264.0660, 87.13514
264.5482, 86.09233
265.0303, 85.49159
265.5124, 85.65250
265.9945, 86.48139
266.4766, 87.12576
266.9587, 87.63374
267.4409, 87.84068
267.9230, 87.44724
268.4051, 86.32610
268.8872, 85.47492
269.3693, 85.12301
269.8514, 85.16362
270.3336, 85.09218
270.8157, 84.87148
271.2978, 84.69067
271.7799, 84.75819
272.2620, 85.09946
272.7441, 85.30574
273.2263, 85.37284
273.7084, 85.23515
274.1905, 84.59866
274.6726, 83.39999
275.1548, 82.17565
275.6369, 81.11268
276.1190, 80.21947
276.6011, 80.04330
277.0832, 80.78740
277.5653, 82.01833
278.0475, 83.06361
278.5296, 83.94100
279.0117, 84.29337
279.4938, 83.63453
279.9759, 82.11411
280.4580, 81.09866
280.9402, 80.75227
281.4223, 80.64969
281.9044, 80.11539
282.3865, 79.17211
282.8686, 78.25687
283.3507, 77.43275
283.8329, 76.76904
284.3150, 76.70370
284.7971, 77.34253
285.2792, 78.05851
285.7613, 78.11877
286.2434, 77.59187
286.7256, 76.84901
287.2077, 75.66188
287.6898, 74.46228
288.1719, 74.54016
288.6540, 75.96071
289.1361, 77.50510
289.6183, 77.86340
290.1004, 77.36482
290.5825, 77.15042
291.0646, 77.95202
291.5467, 78.91465
292.0288, 78.38125
292.5110, 76.45870
292.9931, 74.41719
293.4752, 73.08777
293.9573, 72.38375
294.4394, 72.24981
294.9215, 72.89999
295.4037, 73.72500
295.8858, 73.81771
296.3679, 73.36300
296.8500, 73.20782
297.3321, 74.35407
297.8142, 75.99406
298.2964, 77.08028
298.7785, 77.53029
299.2606, 77.14253
299.7427, 74.63005
300.2248, 70.99930
300.7069, 68.77413
301.1891, 70.92834
301.6712, 74.30505
302.1533, 75.73472
302.6354, 74.63611
303.1176, 73.00663
303.5997, 71.78012
304.0818, 70.99976
304.5639, 70.72437
305.0460, 71.79873
305.5281, 72.79357
306.0103, 72.43028
306.4924, 70.63683
306.9745, 69.08061
307.4566, 68.65925
307.9387, 68.95594
308.4208, 69.51135
308.9030, 70.49172
309.3851, 71.41700
309.8672, 72.17883
310.3493, 72.74772
310.8314, 72.89986
311.3135, 72.23625
311.7957, 71.30935
312.2778, 70.49902
312.7599, 69.68993
313.2420, 69.27586
313.7241, 69.62304
314.2062, 70.50381
314.6884, 71.19797
315.1705, 71.49957
315.6526, 71.57236
316.1347, 71.42844
316.6168, 70.78513
317.0989, 70.51621
317.5811, 71.39099
318.0632, 72.64758
318.5453, 72.93316
319.0274, 70.72469
319.5095, 68.76141
319.9916, 67.95811
320.4738, 68.68302
320.9559, 69.33373
321.4380, 69.94591
321.9201, 70.42585
322.4022, 70.66325
322.8843, 70.35139
323.3665, 70.17522
323.8486, 70.45955
324.3307, 71.22728
324.8128, 71.17774
325.2949, 69.44828
325.7770, 67.68276
326.2592, 67.20125
326.7413, 68.92794
327.2234, 70.16975
327.7055, 70.64660
328.1876, 70.44206
328.6697, 69.82926
329.1519, 68.41084
329.6340, 67.26563
330.1161, 67.06174
330.5982, 68.13471
331.0803, 68.98896
331.5625, 69.56981
332.0446, 69.93778
332.5267, 70.20321
333.0088, 70.34726
333.4909, 70.47352
333.9731, 70.79299
334.4552, 71.31881
334.9373, 70.79041
335.4194, 68.86301
335.9015, 66.79914
336.3836, 66.39397
336.8658, 67.69212
337.3479, 68.95898
337.8300, 69.75904
338.3121, 70.12347
338.7942, 70.16000
339.2763, 69.85759
339.7585, 69.32028
340.2406, 68.35961
340.7227, 67.14159
341.2048, 66.54212
341.6869, 66.92369
342.1690, 67.73837
342.6512, 68.04804
343.1333, 67.89962
343.6154, 67.73702
344.0975, 67.95231
344.5796, 68.33666
345.0617, 68.39959
345.5439, 68.02219
346.0260, 67.62565
346.5081, 67.84327
346.9902, 68.42143
347.4723, 68.71352
347.9544, 68.02453
348.4366, 67.10464
348.9187, 66.86518
349.4008, 67.33715
349.8829, 67.81132
350.3650, 67.72340
350.8471, 67.35323
351.3293, 67.06561
351.8114, 67.10497
352.2935, 67.14588
352.7756, 66.81679
353.2577, 66.24558
353.7398, 66.03638
354.2220, 66.91402
354.7041, 68.00513
355.1862, 68.65182
355.6683, 68.63479
356.1504, 68.36667
356.6325, 67.73312
357.1147, 66.96195
357.5968, 66.49584
358.0789, 66.72189
358.5610, 67.04524
359.0431, 67.22685
359.5252, 67.21752
360.0074, 67.22092
360.4895, 67.43754
360.9716, 67.60627
361.4537, 67.46078
361.9359, 66.34398
362.4180, 65.61324
362.9001, 65.56487
363.3822, 66.16682
363.8643, 66.77083
364.3464, 67.44348
364.8286, 68.05466
365.3107, 68.55964
365.7928, 69.11214
366.2749, 69.21268
366.7570, 68.56763
367.2391, 67.55315
367.7213, 67.18385
368.2034, 67.74393
368.6855, 68.31445
369.1676, 68.51701
369.6497, 68.31498
370.1318, 67.99472
370.6140, 67.44451
371.0961, 66.98586
371.5782, 67.19537
372.0603, 68.15723
372.5424, 68.83219
373.0245, 68.81456
373.5067, 68.30624
373.9888, 68.23363
374.4709, 68.65540
374.9530, 68.94011
375.4351, 68.30790
375.9172, 67.00085
376.3994, 66.26836
376.8815, 66.45318
377.3636, 67.00798
377.8457, 67.09508
378.3278, 66.78393
378.8099, 66.44241
379.2921, 66.17368
379.7742, 66.03661
380.2563, 66.22776
380.7384, 66.78794
381.2205, 67.30447
381.7026, 67.26357
382.1848, 66.93757
382.6669, 66.80561
383.1490, 67.49703
383.6311, 68.09343
384.1132, 67.55392
384.5953, 66.10585
385.0775, 65.11420
385.5596, 66.04287
386.0417, 67.34129
386.5238, 67.57143
387.0059, 65.61033
387.4880, 64.21162
387.9702, 64.99897
388.4523, 67.03938
388.9344, 68.54881
389.4165, 68.79678
389.8987, 68.63541
390.3808, 68.22852
390.8629, 67.47631
391.3450, 67.15442
391.8271, 68.10190
392.3092, 69.15201
392.7914, 69.23009
393.2735, 66.83003
393.7556, 65.29228
394.2377, 65.36259
394.7198, 66.73956
395.2019, 67.49044
395.6841, 67.40218
396.1662, 66.98000
396.6483, 66.30393
397.1304, 64.87682
397.6125, 64.78284
398.0946, 66.67115
398.5768, 69.23115
399.0589, 70.12697
399.5410, 69.01485
400.0231, 67.74937
400.5052, 66.83347
400.9873, 66.26627
401.4695, 66.02234
401.9516, 66.13134
402.4337, 66.41389
402.9158, 66.79214
403.3979, 67.23521
403.8800, 67.52335
404.3622, 67.56587
404.8443, 67.52371
405.3264, 67.79825
405.8085, 68.31315
406.2906, 68.57044
406.7727, 68.01835
407.2549, 67.09061
407.7370, 66.55046
408.2191, 66.48088
408.7012, 66.45887
409.1833, 65.73201
409.6654, 64.86540
410.1476, 64.81290
410.6297, 67.13250
411.1118, 69.35042
411.5939, 69.30151
412.0760, 67.43781
412.5581, 65.94236
413.0403, 66.27648
413.5224, 67.08157
414.0045, 67.35944
414.4866, 66.65884
414.9687, 66.08995
415.4508, 66.18047
415.9330, 66.56020
416.4151, 66.66774
416.8972, 65.81601
417.3793, 65.26291
417.8614, 65.50444
418.3436, 66.63104
418.8257, 67.46729
419.3078, 67.94833
419.7899, 68.17304
420.2720, 68.21590
420.7542, 68.20852
421.2363, 67.69987
421.7184, 66.25835
422.2005, 64.44341
422.6826, 63.82303
423.1647, 64.83060
423.6469, 65.85567
424.1290, 66.24689
424.6111, 65.99960
425.0932, 65.57937
425.5753, 64.85822
426.0574, 64.34525
426.5396, 64.84693
427.0217, 66.29475
427.5038, 67.29214
427.9859, 67.43316
428.4680, 67.06965
428.9501, 66.76838
429.4323, 66.54027
429.9144, 66.51479
430.3965, 67.04620
430.8786, 67.76751
431.3607, 67.89053
431.8428, 67.26115
432.3250, 66.69322
432.8071, 67.04237
433.2892, 67.92918
433.7713, 68.71269
434.2534, 69.37896
434.7355, 69.65830
435.2177, 69.07511
435.6998, 67.83035
436.1819, 66.90685
436.6640, 66.86028
437.1461, 67.19427
437.6282, 67.65832
438.1104, 68.40543
438.5925, 68.81735
439.0746, 68.39406
439.5567, 67.64417
440.0388, 67.27457
440.5209, 67.88320
441.0031, 68.31534
441.4852, 68.28215
441.9673, 67.79421
442.4494, 67.40331
442.9315, 67.15242
443.4136, 66.95260
443.8958, 66.71627
444.3779, 66.34128
444.8600, 66.28693
445.3421, 66.71802
445.8242, 67.32673
446.3063, 67.44846
446.7885, 66.99155
447.2706, 66.67538
447.7527, 66.85314
448.2348, 67.39455
448.7169, 67.62498
449.1991, 67.52938
449.6812, 67.32362
450.1633, 67.12109
450.6454, 66.95277
451.1275, 66.96281
451.6096, 67.25155
452.0918, 67.52240
452.5739, 67.20924
453.0560, 66.55624
453.5381, 66.25186
454.0202, 66.98667
454.5023, 67.99834
454.9845, 68.58936
455.4666, 68.74284
455.9487, 68.82039
456.4308, 69.07887
456.9129, 69.32063
457.3951, 69.32993
457.8772, 68.60435
458.3593, 68.31873
458.8414, 69.52719
459.3235, 71.38778
459.8056, 72.06493
460.2878, 69.44058
460.7699, 67.37919
461.2520, 67.61771
461.7341, 70.69761
462.2162, 71.34231
462.6983, 67.56306
463.1805, 63.39811
463.6626, 62.21189
464.1447, 65.34443
464.6268, 67.61396
465.1089, 68.45651
465.5910, 68.30190
466.0732, 67.96510
466.5553, 67.36466
467.0374, 67.09328
467.5195, 67.62978
468.0016, 68.75612
468.4837, 69.17680
468.9659, 68.84453
469.4480, 68.32510
469.9301, 68.24841
470.4122, 68.41194
470.8943, 68.14708
471.3764, 67.12068
471.8586, 66.07850
472.3407, 65.79374
472.8228, 66.15544
473.3049, 66.87381
473.7870, 68.39191
474.2691, 69.79101
474.7513, 70.29745
475.2334, 69.90165
475.7155, 69.25224
476.1976, 68.16650
476.6797, 67.22088
477.1619, 66.90687
477.6440, 67.98042
478.1261, 68.71955
478.6082, 68.55681
479.0903, 67.88406
479.5724, 67.49600
480.0546, 67.47542
480.5367, 67.67729
481.0188, 68.18255
481.5009, 68.99910
481.9830, 69.48497
482.4651, 69.60537
482.9473, 69.44719
483.4294, 68.90767
483.9115, 67.83534
484.3936, 67.50511
484.8757, 68.24197
485.3578, 69.34151
485.8400, 69.49332
486.3221, 68.73315
486.8042, 67.98827
487.2863, 67.67000
487.7684, 67.57490
488.2505, 67.14655
488.7327, 66.41708
489.2148, 65.88978
489.6969, 66.10487
490.1790, 66.68766
490.6611, 67.14590
491.1432, 67.39900
491.6254, 67.50689
492.1075, 67.33225
492.5896, 67.08176
493.0717, 67.05801
493.5538, 67.64485
494.0359, 68.21564
494.5181, 68.54624
495.0002, 68.64369
495.4823, 68.57967
495.9644, 67.97021
496.4465, 67.52929
496.9286, 67.69846
497.4108, 68.98563
497.8929, 69.48079
498.3750, 68.71644
498.8571, 67.56052
499.3392, 67.09368
499.8214, 67.61474
500.3035, 67.84589
500.7856, 67.46416
501.2677, 66.68875
501.7498, 66.15733
502.2319, 65.85677
502.7141, 65.93156
503.1962, 66.82283
503.6783, 68.19610
504.1604, 68.61333
504.6425, 67.97343
505.1246, 67.20852
505.6068, 67.16618
506.0889, 67.64991
506.5710, 68.37040
507.0531, 69.55538
507.5352, 70.38589
508.0174, 69.84067
508.4995, 68.42464
508.9816, 67.27892
509.4637, 66.97873
509.9458, 67.00816
510.4279, 67.20870
510.9101, 67.57094
511.3922, 67.80331
511.8743, 67.74267
512.3564, 67.60024
512.8385, 67.51096
513.3206, 67.48004
513.8027, 67.50593
514.2849, 67.65679
514.7670, 67.82269
515.2491, 67.82228
515.7312, 67.61790
516.2133, 67.33164
516.6954, 66.87691
517.1776, 66.37667
517.6597, 66.55436
518.1418, 67.47999
518.6239, 68.39243
519.1060, 68.72971
519.5881, 68.62627
520.0703, 68.61427
520.5524, 68.74693
521.0345, 68.82656
521.5167, 68.45509
521.9988, 67.91148
522.4809, 67.76180
522.9630, 68.44847
523.4451, 69.21169
523.9272, 69.54581
524.4094, 69.50975
524.8915, 69.24691
525.3736, 68.65697
525.8557, 67.99174
526.3378, 67.30814
526.8199, 66.60284
527.3021, 66.06229
527.7842, 65.82433
528.2663, 65.68903
528.7484, 65.51788
529.2305, 65.11777
529.7126, 65.06841
530.1948, 65.53972
530.6769, 66.23584
531.1590, 66.67232
531.6411, 66.82290
532.1232, 66.83906
532.6053, 66.68233
533.0875, 66.45512
533.5696, 66.54597
534.0517, 66.95551
534.5338, 67.46728
535.0159, 68.06321
535.4980, 68.63258
535.9802, 68.93333
536.4623, 68.93793
536.9444, 68.76618
537.4265, 68.27104
537.9086, 67.73978
538.3907, 67.57484
538.8729, 68.00424
539.3550, 68.66201
539.8371, 69.80290
540.3192, 71.03411
540.8013, 71.46893
541.2834, 70.10715
541.7656, 68.65785
542.2477, 67.52629
542.7298, 66.72060
543.2119, 66.61029
543.6940, 67.74671
544.1761, 68.92019
544.6583, 69.42721
545.1404, 69.13577
545.6225, 68.57106
546.1046, 67.52049
546.5867, 66.62128
547.0688, 67.09647
547.5510, 68.87081
548.0331, 69.83849
548.5152, 69.20702
548.9973, 67.78972
549.4794, 66.95933
549.9615, 66.64079
550.4437, 66.50802
550.9258, 66.49458
551.4079, 66.50209
551.8900, 66.37153
552.3721, 66.10417
552.8542, 65.95875
553.3364, 66.17821
553.8185, 66.52172
554.3006, 66.77345
554.7827, 66.75489
555.2648, 66.92851
555.7469, 67.77675
556.2291, 68.73247
556.7112, 68.96532
557.1933, 67.74797
557.6754, 66.94762
558.1575, 66.97774
558.6396, 67.64252
559.1218, 68.12331
559.6039, 68.35582
560.0860, 68.63273
560.5681, 69.19591
561.0502, 69.97855
561.5323, 70.42985
562.0145, 70.55137
562.4966, 70.32630
562.9787, 69.54196
563.4608, 68.42074
563.9429, 67.40371
564.4250, 66.49783
564.9072, 65.93064
565.3893, 66.00713
565.8714, 66.52506
566.3535, 67.16743
566.8356, 68.48112
567.3177, 69.22588
567.7999, 68.37425
568.2820, 66.36912
568.7641, 65.11945
569.2462, 65.28065
569.7283, 65.98156
570.2104, 67.14501
570.6926, 68.90593
571.1747, 69.81432
571.6568, 69.52813
572.1389, 68.93906
572.6210, 68.76067
573.1031, 69.03447
573.5853, 69.21632
574.0674, 69.26237
574.5495, 69.20070
575.0316, 69.02083
575.5137, 68.75210
575.9958, 68.53188
576.4780, 68.44019
576.9601, 68.38027
577.4422, 68.29667
577.9243, 68.15730
578.4065, 67.85574
578.8886, 66.84740
579.3707, 66.04064
