##NAMES=Nickelskutterudite
##RRUFFID=R061007
##IDEAL CHEMISTRY=(Ni^4+^,Co^3+^,Fe^3+^)As_3_
##LOCALITY=Hasserode, Harz, Germany
##OWNER=RRUFF
##SOURCE=Michael Scott
##DESCRIPTION=Aggregate of silver-gray cubes, some tarnished to a brassy color
##STATUS=The identification of this mineral is confirmed by single-crystal X-ray diffraction and chemical analysis.
##URL=rruff.info/R061007
##MEASURED CHEMISTRY=(Ni_0.48_Co_0.36_Fe_0.13_)_Σ=0.97_(As_2.79_S_0.21_)_Σ=3.00_
170.6368, 82.14192
171.1189, 81.09653
171.6010, 80.38982
172.0831, 80.38254
172.5652, 80.90054
173.0474, 81.55606
173.5295, 82.61492
174.0116, 83.31058
174.4937, 82.62106
174.9758, 80.54934
175.4579, 79.16649
175.9401, 80.06558
176.4222, 81.80942
176.9043, 82.80627
177.3864, 82.60757
177.8685, 82.00748
178.3506, 82.04957
178.8328, 82.92104
179.3149, 83.77426
179.7970, 84.55132
180.2791, 85.08099
180.7612, 85.09655
181.2433, 84.44627
181.7255, 83.45353
182.2076, 82.76427
182.6897, 82.31670
183.1718, 82.35949
183.6539, 83.34293
184.1360, 84.58618
184.6181, 85.34348
185.1003, 85.23492
185.5824, 84.52730
186.0645, 84.15678
186.5466, 84.17348
187.0287, 84.53381
187.5108, 85.59415
187.9930, 86.88777
188.4751, 87.82362
188.9572, 88.05669
189.4393, 87.70881
189.9214, 87.44088
190.4035, 86.84229
190.8857, 86.77783
191.3678, 87.99976
191.8499, 89.82729
192.3320, 90.99852
192.8141, 90.65157
193.2962, 89.08289
193.7784, 88.63166
194.2605, 90.00153
194.7426, 91.43908
195.2247, 92.54794
195.7068, 93.27937
196.1889, 93.49551
196.6711, 92.95242
197.1532, 91.87910
197.6353, 91.44754
198.1174, 91.96410
198.5995, 92.75953
199.0816, 93.70187
199.5638, 94.72261
200.0459, 95.33979
200.5280, 95.10650
201.0101, 94.28301
201.4922, 93.74838
201.9743, 93.77351
202.4565, 93.84908
202.9386, 93.48177
203.4207, 92.65800
203.9028, 91.85493
204.3849, 91.12880
204.8670, 90.67566
205.3492, 90.85931
205.8313, 92.03503
206.3134, 93.49696
206.7955, 94.36381
207.2776, 94.54271
207.7597, 94.55479
208.2419, 94.98569
208.7240, 95.23997
209.2061, 94.53371
209.6882, 92.37840
210.1703, 89.64747
210.6524, 87.90505
211.1346, 87.54488
211.6167, 87.20390
212.0988, 86.34586
212.5809, 85.34121
213.0630, 84.56262
213.5451, 84.18354
214.0273, 84.01896
214.5094, 83.62241
214.9915, 82.74071
215.4736, 82.09647
215.9557, 81.97102
216.4378, 82.04597
216.9200, 82.02991
217.4021, 81.79665
217.8842, 81.37539
218.3663, 80.83279
218.8484, 79.99787
219.3305, 79.29350
219.8127, 79.00662
220.2948, 78.76928
220.7769, 78.03520
221.2590, 76.55436
221.7411, 74.76796
222.2232, 73.99119
222.7054, 75.35368
223.1875, 76.45902
223.6696, 77.06398
224.1517, 77.37949
224.6338, 77.67601
225.1159, 78.07703
225.5980, 78.47820
226.0802, 78.57039
226.5623, 77.77927
227.0444, 77.36205
227.5265, 77.78184
228.0086, 78.52110
228.4907, 78.81070
228.9729, 78.29928
229.4550, 77.42444
229.9371, 77.37536
230.4192, 78.96216
230.9013, 80.06150
231.3834, 79.94823
231.8656, 79.23943
232.3477, 78.83434
232.8298, 79.08170
233.3119, 79.75589
233.7940, 80.43560
234.2761, 81.19804
234.7583, 81.79201
235.2404, 82.19249
235.7225, 82.37672
236.2046, 82.22709
236.6867, 81.61634
237.1688, 80.87758
237.6510, 80.66296
238.1331, 81.04713
238.6152, 81.33398
239.0973, 80.97509
239.5794, 80.37210
240.0615, 80.58513
240.5437, 82.25099
241.0258, 84.06326
241.5079, 84.03118
241.9900, 82.19218
242.4721, 80.57837
242.9542, 80.36784
243.4364, 81.02882
243.9185, 81.16988
244.4006, 80.40324
244.8827, 79.27136
245.3648, 78.25272
245.8469, 77.34143
246.3290, 76.55973
246.8112, 76.01140
247.2933, 75.61271
247.7754, 75.08909
248.2575, 74.37737
248.7396, 73.58078
249.2217, 72.70542
249.7039, 71.79722
250.1860, 71.03456
250.6681, 70.76646
251.1502, 70.76653
251.6323, 70.07106
252.1144, 68.13255
252.5966, 66.33755
253.0787, 65.64633
253.5608, 65.69909
254.0429, 65.67848
254.5250, 65.00168
255.0071, 63.88774
255.4893, 63.22675
255.9714, 63.32536
256.4535, 63.40203
256.9356, 63.07618
257.4177, 62.50252
257.8998, 61.90249
258.3820, 61.32203
258.8641, 60.83899
259.3462, 60.78971
259.8283, 61.54307
260.3104, 62.12459
260.7925, 62.29925
261.2747, 62.12673
261.7568, 61.62219
262.2389, 60.71779
262.7210, 59.62150
263.2031, 58.95428
263.6852, 58.97330
264.1674, 59.00710
264.6495, 59.03126
265.1316, 58.93359
265.6137, 58.47138
266.0958, 57.50783
266.5779, 56.42370
267.0601, 56.19164
267.5422, 57.39503
268.0243, 58.43935
268.5064, 59.22816
268.9885, 59.71489
269.4706, 59.77116
269.9528, 59.36588
270.4349, 58.72594
270.9170, 58.27053
271.3991, 58.04200
271.8812, 57.94225
272.3633, 57.90205
272.8455, 57.99765
273.3276, 58.43003
273.8097, 59.18977
274.2918, 59.91631
274.7739, 59.97020
275.2560, 58.72351
275.7382, 58.16077
276.2202, 58.92301
276.7024, 59.74371
277.1845, 59.60486
277.6666, 58.49773
278.1487, 57.36786
278.6308, 57.51274
279.1129, 59.69709
279.5951, 60.45269
280.0772, 58.34457
280.5593, 56.30381
281.0414, 56.13184
281.5235, 57.64970
282.0056, 59.36773
282.4878, 59.80158
282.9699, 58.69144
283.4520, 58.19264
283.9341, 58.91107
284.4162, 59.55937
284.8983, 59.65139
285.3805, 59.22974
285.8626, 58.52473
286.3447, 57.67766
286.8268, 56.69702
287.3089, 55.90528
287.7910, 55.54437
288.2732, 55.09991
288.7553, 54.06156
289.2374, 52.85526
289.7195, 52.36798
290.2016, 53.19295
290.6837, 55.03872
291.1659, 56.30433
291.6480, 56.49166
292.1301, 56.67693
292.6122, 57.38364
293.0943, 58.10277
293.5764, 57.85316
294.0586, 56.13857
294.5407, 53.78172
295.0228, 53.01198
295.5049, 56.06960
295.9870, 58.02394
296.4691, 58.22255
296.9513, 57.44220
297.4334, 56.31000
297.9155, 55.06389
298.3976, 53.91691
298.8797, 53.23840
299.3618, 53.28903
299.8440, 53.38729
300.3261, 53.53207
300.8082, 53.72261
301.2903, 53.99016
301.7724, 54.32746
302.2545, 54.66685
302.7367, 54.95443
303.2188, 55.23771
303.7009, 55.19763
304.1830, 54.53700
304.6651, 53.82561
305.1472, 53.26776
305.6294, 52.95244
306.1115, 53.13752
306.5936, 54.21953
307.0757, 56.30619
307.5578, 56.85774
308.0399, 54.76780
308.5221, 52.53980
309.0042, 51.09107
309.4863, 50.38404
309.9684, 50.20736
310.4505, 50.50194
310.9326, 51.15527
311.4148, 51.35551
311.8969, 50.45880
312.3790, 49.92268
312.8611, 50.41513
313.3432, 51.43828
313.8253, 52.17506
314.3075, 52.24384
314.7896, 51.87629
315.2717, 51.66491
315.7538, 52.00183
316.2359, 51.92244
316.7180, 50.99303
317.2001, 49.76661
317.6823, 48.84545
318.1644, 48.40007
318.6465, 48.20469
319.1286, 47.89540
319.6107, 47.24076
320.0928, 47.10703
320.5750, 47.97841
321.0571, 49.01994
321.5392, 49.60746
322.0213, 49.66920
322.5034, 49.49572
322.9855, 49.36031
323.4677, 49.26892
323.9498, 49.16463
324.4319, 49.14270
324.9140, 49.02374
325.3961, 48.55249
325.8782, 47.87567
326.3604, 47.46705
326.8425, 47.72272
327.3246, 48.54260
327.8067, 48.77248
328.2888, 47.80627
328.7709, 47.02715
329.2531, 46.94990
329.7352, 47.26426
330.2173, 47.41044
330.6994, 47.11134
331.1815, 46.58850
331.6636, 46.44223
332.1458, 47.30186
332.6279, 47.76360
333.1100, 47.78953
333.5921, 47.39722
334.0742, 46.27162
334.5563, 44.42741
335.0385, 42.72732
335.5206, 42.54123
336.0027, 44.87457
336.4848, 46.14495
336.9669, 45.66353
337.4490, 44.79558
337.9312, 44.37764
338.4133, 44.46730
338.8954, 44.69250
339.3775, 44.71324
339.8596, 44.51200
340.3417, 44.32166
340.8239, 44.15135
341.3060, 43.98109
341.7881, 43.79036
342.2702, 43.59433
342.7523, 43.42941
343.2344, 43.32142
343.7166, 43.25506
344.1987, 43.15720
344.6808, 42.87754
345.1629, 42.74525
345.6450, 42.87849
346.1271, 43.13956
346.6093, 43.43817
347.0914, 43.72735
347.5735, 43.90460
348.0556, 43.74812
348.5377, 42.99447
349.0198, 42.37063
349.5020, 41.90550
349.9841, 41.52907
350.4662, 41.17482
350.9483, 40.85091
351.4304, 40.63526
351.9125, 40.61168
352.3947, 40.78595
352.8768, 41.11812
353.3589, 41.98513
353.8410, 42.63507
354.3231, 42.63534
354.8052, 42.21048
355.2874, 41.88401
355.7695, 42.04932
356.2516, 42.56485
356.7337, 42.59075
357.2158, 41.49498
357.6979, 40.76869
358.1800, 40.88809
358.6621, 41.39935
359.1443, 41.75950
359.6264, 41.76305
360.1085, 41.70128
360.5906, 42.29218
361.0727, 44.22646
361.5548, 44.96225
362.0370, 43.14427
362.5191, 40.96903
363.0012, 39.71400
363.4833, 39.50935
363.9654, 39.78976
364.4475, 40.04418
364.9297, 40.26731
365.4118, 40.57323
365.8939, 41.30713
366.3760, 41.72023
366.8581, 41.11361
367.3402, 39.99013
367.8224, 39.42107
368.3045, 40.22594
368.7866, 41.85670
369.2687, 42.72451
369.7508, 42.72464
370.2329, 42.13619
370.7151, 40.48524
371.1972, 38.61376
371.6793, 37.31612
372.1614, 36.84046
372.6435, 36.89677
373.1256, 37.37283
373.6078, 38.33339
374.0899, 38.73796
374.5720, 37.72650
375.0541, 36.66133
375.5362, 36.69574
376.0183, 37.74823
376.5005, 38.75103
376.9826, 38.90526
377.4647, 38.43378
377.9468, 38.20522
378.4289, 38.41646
378.9110, 38.54258
379.3932, 38.00375
379.8753, 37.14574
380.3574, 36.64347
380.8395, 36.78828
381.3216, 37.30568
381.8037, 38.04731
382.2859, 39.02779
382.7680, 39.60133
383.2501, 39.32415
383.7322, 38.55317
384.2143, 37.83021
384.6964, 37.09151
385.1786, 36.67691
385.6607, 37.01600
386.1428, 37.83783
386.6249, 38.45234
387.1070, 38.71753
387.5891, 38.68766
388.0713, 38.18285
388.5534, 37.25876
389.0355, 36.80656
389.5176, 37.49705
389.9997, 38.43595
390.4818, 38.80679
390.9640, 38.55928
391.4461, 37.78812
391.9282, 36.25362
392.4103, 34.28953
392.8924, 33.56124
393.3745, 35.10172
393.8567, 36.63071
394.3388, 37.18469
394.8209, 37.10678
395.3030, 37.06014
395.7851, 37.29947
396.2672, 37.61708
396.7494, 37.61074
397.2315, 36.99641
397.7136, 36.75167
398.1957, 37.48457
398.6778, 38.22142
399.1599, 37.89694
399.6420, 36.57063
400.1241, 35.37862
400.6063, 35.41526
401.0884, 36.73838
401.5705, 37.29791
402.0526, 36.61841
402.5347, 35.82321
403.0168, 34.99398
403.4990, 34.32767
403.9811, 34.12512
404.4632, 34.53376
404.9453, 35.38572
405.4274, 36.31974
405.9095, 37.66920
406.3917, 38.49212
406.8738, 38.57200
407.3559, 38.31546
407.8380, 37.94035
408.3201, 37.51422
408.8022, 37.04480
409.2844, 36.44497
409.7665, 35.67242
410.2486, 35.53693
410.7307, 36.96898
411.2128, 38.03568
411.6949, 37.96473
412.1771, 37.19627
412.6592, 36.47953
413.1413, 36.19961
413.6234, 36.11499
414.1055, 35.62946
414.5876, 34.50420
415.0698, 33.70333
415.5519, 33.78987
416.0340, 34.05950
416.5161, 33.91309
416.9982, 33.32168
417.4803, 32.95487
417.9625, 33.73090
418.4446, 35.39239
418.9267, 36.05462
419.4088, 35.06774
419.8909, 34.01178
420.3730, 33.92268
420.8552, 34.50008
421.3373, 35.20127
421.8194, 35.98471
422.3015, 36.66815
422.7836, 37.19692
423.2657, 37.56162
423.7479, 37.06269
424.2300, 34.74131
424.7121, 32.02152
425.1942, 31.17995
425.6763, 32.52528
426.1584, 34.06095
426.6406, 35.19590
427.1227, 35.89473
427.6048, 35.95233
428.0869, 35.29725
428.5690, 34.50976
429.0511, 34.08215
429.5333, 34.03725
430.0154, 34.10296
430.4975, 34.43241
430.9796, 34.72746
431.4617, 34.92604
431.9438, 34.96095
432.4260, 34.53435
432.9081, 33.41763
433.3902, 32.12022
433.8723, 31.90849
434.3544, 34.09139
434.8365, 35.18303
435.3187, 33.87692
435.8008, 32.23024
436.2829, 32.10042
436.7650, 33.56946
437.2471, 35.41398
437.7292, 36.55000
438.2114, 36.97583
438.6935, 36.89968
439.1756, 35.78704
439.6577, 34.75852
440.1398, 33.77843
440.6219, 33.12680
441.1040, 33.38758
441.5862, 34.79765
442.0683, 36.52461
442.5504, 36.89416
443.0325, 35.29301
443.5146, 34.22305
443.9967, 34.14087
444.4789, 34.44118
444.9610, 35.16394
445.4431, 36.07475
445.9252, 36.52087
446.4073, 35.77739
446.8894, 34.22994
447.3716, 33.40601
447.8537, 33.53075
448.3358, 33.82209
448.8179, 34.32177
449.3000, 34.63987
449.7821, 34.14508
450.2643, 32.52284
450.7464, 30.96802
451.2285, 30.66431
451.7106, 31.37719
452.1927, 31.91749
452.6748, 31.95887
453.1570, 31.96445
453.6391, 32.55837
454.1212, 33.58904
454.6033, 34.32311
455.0854, 34.43232
455.5675, 34.28904
456.0497, 34.20885
456.5318, 34.18279
457.0139, 34.06605
457.4960, 33.73627
457.9781, 33.32869
458.4602, 33.23680
458.9424, 33.59297
459.4245, 33.92497
459.9066, 34.26860
460.3887, 34.48254
460.8708, 34.38265
461.3529, 33.96238
461.8351, 33.37025
462.3172, 32.68440
462.7993, 31.89105
463.2814, 31.58735
463.7635, 32.11926
464.2456, 32.70572
464.7278, 33.26756
465.2099, 33.73189
465.6920, 33.97509
466.1741, 33.95816
466.6562, 33.84735
467.1383, 34.03456
467.6205, 34.86369
468.1026, 34.91031
468.5847, 33.24014
469.0668, 31.57074
469.5489, 30.43265
470.0310, 29.93396
470.5132, 30.23209
470.9953, 31.70885
471.4774, 33.77232
471.9595, 34.88435
472.4416, 34.88862
472.9237, 34.51416
473.4059, 33.57475
473.8880, 32.63302
474.3701, 32.23628
474.8522, 32.45750
475.3343, 32.87538
475.8164, 33.30431
476.2986, 33.72058
476.7807, 34.13144
477.2628, 34.58181
477.7449, 34.77195
478.2270, 34.36983
478.7091, 33.49226
479.1913, 32.69622
479.6734, 31.89961
480.1555, 31.31206
480.6376, 31.13731
481.1197, 31.24127
481.6018, 31.33240
482.0839, 31.31248
482.5660, 31.30669
483.0482, 31.52099
483.5303, 32.08429
484.0124, 32.37142
484.4945, 31.93405
484.9766, 31.65660
485.4587, 32.28416
485.9409, 33.45945
486.4230, 34.24733
486.9051, 34.10517
487.3872, 33.36140
487.8693, 32.98080
488.3514, 33.24214
488.8336, 33.34177
489.3157, 33.29065
489.7978, 33.03434
490.2799, 32.32420
490.7620, 31.30259
491.2441, 30.52768
491.7263, 30.45728
492.2084, 31.00517
492.6905, 31.86566
493.1726, 33.31664
493.6547, 34.40499
494.1368, 34.53892
494.6190, 34.20198
495.1011, 33.75272
495.5832, 33.21259
496.0653, 32.88517
496.5474, 33.24368
497.0295, 34.00834
497.5117, 34.18393
497.9938, 33.45591
498.4759, 32.87072
498.9580, 33.59190
499.4401, 35.27786
499.9222, 36.07005
500.4044, 35.15473
500.8865, 34.05023
501.3686, 33.67934
501.8507, 33.66626
502.3328, 32.97963
502.8149, 31.23091
503.2971, 29.56771
503.7792, 29.78543
504.2613, 32.83132
504.7434, 34.31320
505.2255, 32.95830
505.7076, 31.47589
506.1898, 31.19900
506.6719, 31.78505
507.1540, 32.37626
507.6361, 32.52937
508.1182, 32.36775
508.6003, 32.13944
509.0825, 31.76240
509.5646, 31.53940
510.0467, 31.74368
510.5288, 31.90077
511.0109, 31.56730
511.4930, 30.91130
511.9752, 30.58447
512.4573, 31.18559
512.9394, 32.26547
513.4215, 32.79036
513.9036, 32.70757
514.3857, 32.37737
514.8679, 31.57779
515.3500, 30.87385
515.8321, 31.13256
516.3142, 32.50782
516.7963, 33.57278
517.2784, 33.49828
517.7606, 32.85635
518.2427, 32.26525
518.7248, 31.81662
519.2069, 31.94094
519.6890, 33.22060
520.1711, 35.20210
520.6533, 35.52470
521.1354, 32.66970
521.6175, 30.45702
522.0996, 29.79366
522.5817, 29.90251
523.0638, 30.09091
523.5460, 30.21017
524.0281, 30.42602
524.5102, 30.92969
524.9923, 31.70592
525.4744, 32.28901
525.9565, 33.06425
526.4387, 33.07094
526.9208, 31.37943
527.4029, 29.25121
527.8850, 28.00670
528.3671, 27.97158
528.8492, 28.51076
529.3314, 29.06411
529.8135, 29.63357
530.2956, 30.30272
530.7777, 31.22784
531.2598, 31.93166
531.7419, 32.03045
532.2241, 31.72923
532.7062, 31.25146
533.1883, 30.40085
533.6704, 29.86359
534.1525, 30.43888
534.6346, 31.64437
535.1168, 32.30571
535.5989, 32.13315
536.0810, 31.66567
536.5631, 31.44044
537.0452, 31.47143
537.5273, 31.31116
538.0095, 30.47309
538.4916, 30.00132
538.9737, 30.56985
539.4558, 31.65056
539.9379, 32.53251
540.4200, 32.96232
540.9022, 32.98921
541.3843, 32.55030
541.8664, 31.44111
542.3485, 31.03540
542.8306, 32.24763
543.3127, 33.18827
543.7948, 33.24090
544.2769, 32.64894
544.7590, 31.65174
545.2411, 30.24860
545.7233, 29.07822
546.2054, 29.26429
546.6875, 30.67937
547.1696, 31.31643
547.6517, 30.51344
548.1339, 29.56559
548.6160, 29.69463
549.0981, 30.56285
549.5802, 31.26511
550.0623, 31.53148
550.5444, 31.69549
551.0266, 31.98890
551.5087, 32.34129
551.9908, 32.61551
552.4729, 32.77356
552.9550, 32.78053
553.4371, 32.59269
553.9193, 32.19988
554.4014, 31.64209
554.8835, 30.33694
555.3656, 29.53013
555.8477, 29.96886
556.3298, 31.09240
556.8120, 32.17215
557.2941, 32.92387
557.7762, 33.28604
558.2583, 33.13708
558.7404, 32.44426
559.2225, 31.44363
559.7047, 29.30271
560.1868, 28.01662
560.6689, 29.35802
561.1510, 31.86860
561.6331, 32.90707
562.1152, 31.22687
562.5974, 29.18225
563.0795, 29.19178
563.5616, 30.68404
564.0437, 31.58733
564.5258, 31.46633
565.0079, 30.82657
565.4901, 29.96964
565.9722, 28.93083
566.4543, 28.24216
566.9364, 27.69522
567.4185, 27.72753
567.9006, 29.17757
568.3828, 31.05242
568.8649, 31.72885
569.3470, 30.88744
569.8291, 29.86938
570.3112, 30.38954
570.7933, 32.61004
571.2755, 33.43440
571.7576, 31.40193
572.2397, 29.77678
572.7218, 29.63782
573.2039, 30.14852
573.6860, 30.28609
574.1682, 29.80729
574.6503, 29.39306
575.1324, 29.90055
575.6145, 31.06216
576.0966, 31.65364
576.5787, 31.51766
577.0609, 31.13615
577.5430, 30.78212
578.0251, 30.37820
578.5072, 29.64826
578.9893, 28.07940
579.4714, 27.33078
579.9536, 28.74728
580.4357, 30.95893
580.9178, 32.33303
581.3999, 32.67862
581.8820, 32.65195
582.3641, 32.77283
582.8463, 32.92397
583.3284, 32.40966
583.8105, 30.61608
584.2926, 29.02106
584.7747, 27.23943
585.2568, 26.04944
585.7390, 26.46630
586.2211, 28.19314
586.7032, 29.74640
587.1853, 30.06868
587.6674, 29.46299
588.1495, 28.56232
588.6317, 27.24375
589.1138, 26.39065
589.5959, 26.32628
590.0780, 26.83937
590.5601, 27.83093
591.0422, 29.29160
591.5244, 30.38106
592.0065, 30.68127
592.4886, 30.62581
592.9707, 30.49034
593.4528, 30.32313
593.9349, 30.19622
594.4171, 30.13623
594.8992, 30.18699
595.3813, 30.50286
595.8634, 31.48602
596.3455, 31.49848
596.8276, 29.35039
597.3098, 27.61819
597.7919, 27.70447
598.2740, 28.86325
598.7561, 29.71907
599.2382, 29.70191
599.7203, 29.44443
600.2025, 29.99903
600.6846, 31.32681
601.1667, 31.79580
601.6488, 30.89220
602.1309, 29.82192
602.6130, 29.32407
603.0952, 29.26081
603.5773, 29.43509
604.0594, 29.93979
604.5415, 30.45473
605.0236, 30.85677
605.5057, 31.15215
605.9879, 31.37872
606.4700, 31.53085
606.9521, 31.49937
607.4342, 31.18210
607.9163, 30.60574
608.3984, 29.96015
608.8806, 29.13874
609.3627, 28.39829
609.8448, 27.48182
610.3269, 26.85756
610.8090, 27.01526
611.2911, 27.86908
611.7733, 28.90262
612.2554, 29.93383
612.7375, 30.74508
613.2196, 30.55091
613.7017, 29.19168
614.1838, 28.62498
614.6660, 30.00195
615.1481, 31.72620
615.6302, 31.60353
616.1123, 29.79026
616.5944, 28.76630
617.0765, 29.60789
617.5587, 30.85127
618.0408, 31.85280
618.5229, 32.45621
619.0050, 32.27258
619.4871, 31.18383
619.9692, 29.81269
620.4514, 28.99155
620.9335, 28.77740
621.4156, 28.65583
621.8977, 28.57845
622.3798, 28.66371
622.8619, 29.00580
623.3441, 29.49166
623.8262, 30.14129
624.3083, 30.93493
624.7904, 31.34112
625.2725, 30.47398
625.7546, 28.91659
626.2367, 28.44427
626.7188, 29.23832
627.2009, 30.00122
627.6830, 30.05931
628.1652, 29.66436
628.6473, 29.32638
629.1294, 28.94856
629.6115, 28.90080
630.0936, 30.04972
630.5757, 30.85352
631.0579, 29.42269
631.5400, 26.70221
632.0221, 25.34807
632.5042, 26.73761
632.9863, 29.56568
633.4684, 31.66694
633.9506, 33.20877
634.4327, 33.07305
634.9148, 29.32990
635.3969, 26.29445
635.8790, 26.62088
636.3611, 28.87843
636.8433, 30.62068
637.3254, 31.17578
637.8075, 31.32884
638.2896, 31.73134
638.7717, 32.10027
639.2538, 31.62140
639.7360, 30.23226
640.2181, 29.22820
640.7002, 29.63279
641.1823, 31.04307
641.6644, 31.82228
642.1465, 31.68609
642.6287, 31.25505
643.1108, 30.18701
643.5929, 29.12884
644.0750, 28.34299
644.5571, 27.94525
645.0392, 28.18458
645.5214, 29.34124
646.0035, 30.72303
646.4856, 30.99894
646.9677, 30.17470
647.4498, 29.70466
647.9319, 29.96345
648.4141, 30.36978
648.8962, 30.46226
649.3783, 30.30870
649.8604, 30.15802
650.3425, 29.96872
650.8246, 29.86673
651.3068, 30.10866
651.7889, 30.35714
652.2710, 30.02375
652.7531, 29.15262
653.2352, 28.47834
653.7173, 28.61259
654.1995, 29.33864
654.6816, 29.79663
655.1637, 30.07505
655.6458, 29.86697
656.1279, 28.31990
656.6100, 26.94625
657.0922, 26.72004
657.5743, 27.43782
658.0564, 28.31018
658.5385, 29.28475
659.0206, 29.94609
659.5027, 29.52950
659.9849, 28.48501
660.4670, 28.16620
660.9491, 28.89820
661.4312, 29.98562
661.9133, 30.91457
662.3954, 31.65068
662.8776, 31.69316
663.3597, 29.76904
663.8418, 28.82965
664.3239, 30.02587
664.8060, 31.65901
665.2881, 32.51193
665.7703, 32.46638
