##NAMES=Nickelskutterudite
##RRUFFID=R100194
##IDEAL CHEMISTRY=(Ni^4+^,Co^3+^,Fe^3+^)As_3_
##LOCALITY=Schneeberg, Saxony, Germany
##OWNER=RRUFF
##SOURCE=University of Arizona Mineral Museum
##DESCRIPTION=Silver euhedral twinned crystals, roughly dodecahedral
##STATUS=The identification of this mineral is confirmed by single-crystal X-ray diffraction and chemical analysis.
##URL=rruff.info/R100194
##MEASURED CHEMISTRY=(Ni_0.69_Co_0.26_Fe_0.06_)_Σ=1.01_(As_2.95_S_0.04_Bi_0.01_)_Σ=3.00_ ; Dark Band ; (Ni_0.86_Co_0.14_Fe_0.01_)_Σ=1.01_(As_2.99_S_0.01_)_Σ=3.00_  Light Band
149.3713, 17.00209
149.8535, 19.78157
150.3356, 22.40384
150.8177, 23.80572
151.2998, 23.11872
151.7819, 23.08450
152.2640, 24.28291
152.7462, 26.07896
153.2283, 27.31474
153.7104, 27.61515
154.1925, 27.59752
154.6746, 27.38276
155.1567, 26.48714
155.6389, 26.27265
156.1210, 27.63009
156.6031, 29.83749
157.0852, 31.13238
157.5673, 30.51217
158.0495, 29.35328
158.5316, 28.32675
159.0137, 27.73536
159.4958, 27.02265
159.9779, 25.38010
160.4600, 23.33941
160.9422, 22.63677
161.4243, 25.06386
161.9064, 28.33143
162.3885, 30.87084
162.8706, 31.63304
163.3527, 32.43628
163.8349, 34.66408
164.3170, 37.86009
164.7991, 39.84314
165.2812, 38.18744
165.7633, 35.45996
166.2454, 34.00863
166.7276, 35.97216
167.2097, 38.11373
167.6918, 38.40749
168.1739, 37.03121
168.6560, 35.49591
169.1381, 34.08102
169.6203, 33.16449
170.1024, 32.99215
170.5845, 35.25081
171.0666, 37.57135
171.5487, 37.58055
172.0309, 35.45840
172.5130, 33.35765
172.9951, 32.74155
173.4772, 33.11279
173.9593, 33.70785
174.4414, 34.82359
174.9236, 35.70533
175.4057, 35.08165
175.8878, 32.93084
176.3699, 31.09380
176.8520, 31.62317
177.3341, 33.60939
177.8163, 35.08232
178.2984, 34.87349
178.7805, 33.77251
179.2626, 32.78532
179.7447, 31.92257
180.2268, 31.38715
180.7090, 31.44400
181.1911, 32.01094
181.6732, 32.85585
182.1553, 34.48412
182.6374, 36.23851
183.1195, 36.37986
183.6017, 34.65845
184.0838, 32.58156
184.5659, 31.97390
185.0480, 32.59227
185.5301, 33.18839
186.0123, 33.02465
186.4944, 32.35849
186.9765, 31.99628
187.4586, 31.97860
187.9407, 32.19488
188.4228, 32.53936
188.9050, 33.00202
189.3871, 33.50883
189.8692, 33.88509
190.3513, 34.21935
190.8334, 35.27659
191.3155, 37.42154
191.7977, 39.42787
192.2798, 38.68301
192.7619, 35.19592
193.2440, 32.39455
193.7261, 32.52155
194.2082, 35.28936
194.6904, 37.36592
195.1725, 38.54794
195.6546, 39.06903
196.1367, 39.32207
196.6188, 39.32568
197.1009, 38.90789
197.5831, 37.70910
198.0652, 35.72400
198.5473, 34.28631
199.0294, 33.42415
199.5115, 33.19337
199.9937, 34.13334
200.4758, 36.50570
200.9579, 38.32682
201.4400, 38.01141
201.9221, 35.32310
202.4042, 33.95117
202.8864, 34.45677
203.3685, 36.02510
203.8506, 36.70348
204.3327, 36.30214
204.8148, 35.76408
205.2969, 35.39481
205.7791, 35.08270
206.2612, 35.86829
206.7433, 38.20986
207.2254, 41.37683
207.7075, 43.52531
208.1896, 44.53364
208.6718, 44.90001
209.1539, 44.82782
209.6360, 44.26396
210.1181, 43.53890
210.6002, 42.64331
211.0823, 41.61425
211.5645, 40.40574
212.0466, 38.70414
212.5287, 37.55671
213.0108, 37.89941
213.4929, 40.49115
213.9750, 41.51527
214.4572, 40.28136
214.9393, 37.55112
215.4214, 35.53083
215.9035, 34.42986
216.3856, 33.59709
216.8678, 32.65539
217.3499, 31.41740
217.8320, 30.65650
218.3141, 30.52894
218.7962, 30.86734
219.2783, 31.12004
219.7605, 31.10606
220.2426, 31.32900
220.7247, 32.37358
221.2068, 35.21904
221.6889, 35.92736
222.1710, 33.40957
222.6532, 28.86173
223.1353, 26.17550
223.6174, 26.06222
224.0995, 26.57232
224.5816, 26.69082
225.0637, 26.05051
225.5459, 26.03814
226.0280, 27.15371
226.5101, 28.82552
226.9922, 29.10176
227.4743, 26.96280
227.9564, 25.03736
228.4386, 24.73734
228.9207, 27.03687
229.4028, 28.56412
229.8849, 28.89833
230.3670, 28.52081
230.8492, 28.96073
231.3313, 31.20496
231.8134, 32.77113
232.2955, 32.23532
232.7776, 27.93401
233.2597, 25.50421
233.7419, 25.73545
234.2240, 27.64540
234.7061, 28.61639
235.1882, 28.02447
235.6703, 27.44654
236.1524, 27.64996
236.6346, 29.30959
237.1167, 30.12758
237.5988, 29.55243
238.0809, 28.33769
238.5630, 28.32200
239.0451, 30.21479
239.5273, 32.24440
240.0094, 33.72221
240.4915, 34.54259
240.9736, 35.05242
241.4557, 35.04698
241.9378, 34.82387
242.4200, 35.01385
242.9021, 35.79680
243.3842, 36.72303
243.8663, 37.75020
244.3484, 39.21124
244.8306, 39.66077
245.3127, 38.33636
245.7948, 36.39945
246.2769, 36.16999
246.7590, 38.82197
247.2411, 41.17768
247.7233, 41.92898
248.2054, 40.35691
248.6875, 39.94482
249.1696, 41.29473
249.6517, 43.40120
250.1338, 44.72986
250.6160, 45.44286
251.0981, 45.05576
251.5802, 43.02407
252.0623, 38.72673
252.5444, 35.99358
253.0265, 35.38025
253.5087, 35.89356
253.9908, 36.24594
254.4729, 36.61867
254.9550, 36.44145
255.4371, 35.20502
255.9192, 32.60906
256.4014, 31.66113
256.8835, 33.36612
257.3656, 35.72321
257.8477, 36.10307
258.3298, 33.32155
258.8120, 31.26038
259.2941, 31.24610
259.7762, 33.48194
260.2583, 34.17290
260.7404, 32.72363
261.2225, 30.47580
261.7047, 28.73114
262.1868, 27.45236
262.6689, 26.83035
263.1510, 27.27072
263.6331, 28.70980
264.1152, 28.68494
264.5974, 26.54047
265.0795, 23.94181
265.5616, 22.57044
266.0437, 22.73289
266.5258, 23.07688
267.0079, 23.54460
267.4901, 24.05227
267.9722, 23.68858
268.4543, 22.10633
268.9364, 20.34070
269.4185, 19.12244
269.9006, 18.40824
270.3828, 18.50820
270.8649, 19.80588
271.3470, 21.92647
271.8291, 23.05538
272.3112, 22.97679
272.7933, 22.49953
273.2755, 22.15618
273.7576, 21.95243
274.2397, 21.83324
274.7218, 21.81044
275.2039, 21.85858
275.6860, 21.89568
276.1682, 21.91143
276.6503, 21.95629
277.1324, 22.10532
277.6145, 22.37606
278.0966, 22.51803
278.5787, 22.53168
279.0609, 22.38721
279.5430, 21.82254
280.0251, 20.70921
280.5072, 19.99480
280.9893, 20.57060
281.4715, 22.42131
281.9536, 23.12843
282.4357, 22.25132
282.9178, 20.86065
283.3999, 21.03277
283.8820, 22.86762
284.3642, 24.45588
284.8463, 24.74305
285.3284, 23.84796
285.8105, 23.09595
286.2926, 22.44721
286.7747, 22.08024
287.2569, 22.50047
287.7390, 23.66633
288.2211, 24.47634
288.7032, 24.31862
289.1853, 23.41329
289.6674, 22.72691
290.1496, 22.27107
290.6317, 21.93259
291.1138, 21.51186
291.5959, 21.05303
292.0780, 20.89104
292.5602, 21.32689
293.0423, 22.06112
293.5244, 22.35858
294.0065, 22.21169
294.4886, 21.74822
294.9707, 20.64698
295.4529, 19.21962
295.9350, 18.65472
296.4171, 19.50757
296.8992, 21.14624
297.3813, 22.84414
297.8634, 24.53125
298.3456, 25.44695
298.8277, 24.35661
299.3098, 22.08837
299.7919, 20.51210
300.2740, 20.21276
300.7561, 20.41935
301.2383, 20.00943
301.7204, 19.16130
302.2025, 18.71988
302.6846, 19.71330
303.1667, 21.30451
303.6488, 22.24739
304.1310, 22.28816
304.6131, 21.83905
305.0952, 20.79203
305.5773, 19.50004
306.0594, 18.91889
306.5415, 20.15717
307.0237, 22.05650
307.5058, 23.56287
307.9879, 24.61195
308.4700, 24.94398
308.9521, 23.84672
309.4343, 21.94777
309.9164, 20.33338
310.3985, 19.27768
310.8806, 18.80342
311.3627, 19.07843
311.8448, 20.11642
312.3270, 21.29571
312.8091, 22.47904
313.2912, 23.52127
313.7733, 24.25102
314.2554, 24.88910
314.7375, 24.95731
315.2197, 23.72562
315.7018, 21.39052
316.1839, 19.67161
316.6660, 19.57040
317.1481, 20.29343
317.6302, 21.24227
318.1124, 23.05665
318.5945, 24.10588
319.0766, 23.26068
319.5587, 21.07386
320.0408, 19.45485
320.5229, 19.37630
321.0051, 19.76687
321.4872, 20.05457
321.9693, 20.13443
322.4514, 20.13404
322.9335, 20.04423
323.4156, 19.89377
323.8978, 19.73804
324.3799, 18.97137
324.8620, 18.73497
325.3441, 19.88533
325.8262, 23.54938
326.3083, 25.18152
326.7905, 22.39142
327.2726, 18.04085
327.7547, 15.68663
328.2368, 17.60800
328.7189, 19.25788
329.2010, 19.48403
329.6832, 18.06027
330.1653, 17.74658
330.6474, 19.74217
331.1295, 21.98368
331.6116, 22.75199
332.0938, 20.88457
332.5759, 19.39144
333.0580, 18.75440
333.5401, 18.84927
334.0222, 18.78021
334.5043, 18.41473
334.9865, 18.06698
335.4686, 18.00805
335.9507, 18.55729
336.4328, 18.41868
336.9149, 17.05703
337.3970, 15.18568
337.8792, 14.91243
338.3613, 16.78000
338.8434, 18.69317
339.3255, 19.60447
339.8076, 19.32387
340.2898, 19.65314
340.7719, 20.88738
341.2540, 22.23064
341.7361, 22.41832
342.2182, 21.34503
342.7003, 20.07537
343.1825, 18.75919
343.6646, 17.50005
344.1467, 17.30685
344.6288, 18.36869
345.1109, 19.53176
345.5930, 19.50742
346.0752, 18.40891
346.5573, 17.34149
347.0394, 16.38622
347.5215, 15.77627
348.0036, 16.47850
348.4857, 18.44642
348.9679, 19.93220
349.4500, 19.07162
349.9321, 16.67118
350.4142, 15.09481
350.8963, 14.78653
351.3784, 15.17201
351.8606, 15.82977
352.3427, 16.64190
352.8248, 17.18263
353.3069, 16.95831
353.7890, 16.41055
354.2711, 16.16027
354.7533, 16.28027
355.2354, 16.46727
355.7175, 16.40742
356.1996, 16.24258
356.6817, 16.22017
357.1638, 16.60148
357.6460, 17.05006
358.1281, 17.42672
358.6102, 17.70662
359.0923, 17.64869
359.5744, 16.62987
360.0565, 15.42022
360.5387, 14.78504
361.0208, 15.30152
361.5029, 15.97334
361.9850, 16.54733
362.4671, 16.96247
362.9492, 17.01641
363.4314, 15.93739
363.9135, 14.98810
364.3956, 14.98712
364.8777, 16.58759
365.3598, 17.83608
365.8419, 18.07797
366.3241, 17.77668
366.8062, 17.62275
367.2883, 18.13142
367.7704, 18.39260
368.2526, 17.85717
368.7347, 16.18578
369.2168, 15.69736
369.6989, 18.04213
370.1810, 20.57595
370.6631, 21.04602
371.1453, 17.27509
371.6274, 14.69621
372.1095, 14.32737
372.5916, 15.80330
373.0737, 16.76832
373.5558, 17.39305
374.0380, 17.26958
374.5201, 15.69633
375.0022, 11.49905
375.4843, 10.07605
375.9664, 12.70971
376.4485, 17.22838
376.9307, 19.15910
377.4128, 17.89304
377.8949, 16.56170
378.3770, 16.58154
378.8591, 17.85427
379.3412, 18.41356
379.8234, 18.21455
380.3055, 17.44459
380.7876, 15.88739
381.2697, 13.61940
381.7518, 12.32150
382.2339, 12.79705
382.7161, 14.23821
383.1982, 14.68873
383.6803, 14.17696
384.1624, 13.63457
384.6445, 13.79977
385.1266, 14.46218
385.6088, 15.19739
386.0909, 16.04803
386.5730, 16.62125
387.0551, 16.04956
387.5372, 14.75012
388.0193, 13.91172
388.5015, 14.51520
388.9836, 15.71251
389.4657, 16.73367
389.9478, 17.54325
390.4299, 17.97599
390.9120, 17.50272
391.3942, 16.71705
391.8763, 16.36525
392.3584, 17.44095
392.8405, 18.30710
393.3226, 17.69220
393.8047, 15.98428
394.2869, 14.95920
394.7690, 16.14072
395.2511, 17.65226
395.7332, 18.29941
396.2154, 17.49747
396.6975, 16.66327
397.1796, 15.94241
397.6617, 15.39245
398.1438, 15.11237
398.6259, 15.66715
399.1081, 15.95169
399.5902, 15.39729
400.0723, 13.74822
400.5544, 13.06505
401.0365, 14.31672
401.5186, 15.81468
402.0008, 16.08903
402.4829, 14.21245
402.9650, 12.87294
403.4471, 12.42927
403.9292, 12.74339
404.4113, 13.30748
404.8935, 14.27445
405.3756, 15.14803
405.8577, 15.72349
406.3398, 16.01443
406.8219, 15.75580
407.3040, 14.71409
407.7862, 13.56272
408.2683, 13.32695
408.7504, 14.02887
409.2325, 14.93483
409.7146, 16.11654
410.1967, 17.23821
410.6789, 16.98614
411.1610, 15.31562
411.6431, 13.45051
412.1252, 12.23361
412.6073, 11.65221
413.0894, 11.83403
413.5716, 13.05752
414.0537, 14.47709
414.5358, 15.04624
415.0179, 14.92935
415.5000, 14.68206
415.9821, 14.52417
416.4643, 14.43390
416.9464, 14.45787
417.4285, 14.61458
417.9106, 14.61930
418.3927, 13.80891
418.8748, 12.90032
419.3570, 12.75739
419.8391, 15.17054
420.3212, 16.95328
420.8033, 16.06169
421.2854, 13.13675
421.7675, 11.18747
422.2497, 11.65264
422.7318, 12.94289
423.2139, 14.37271
423.6960, 16.33882
424.1781, 17.39172
424.6602, 16.66434
425.1424, 15.11535
425.6245, 14.13654
426.1066, 13.81501
426.5887, 13.98803
427.0709, 14.78077
427.5530, 16.19264
428.0351, 17.47242
428.5172, 19.03754
428.9993, 19.91409
429.4814, 19.03418
429.9636, 15.59132
430.4457, 13.61547
430.9278, 13.81962
431.4099, 15.28424
431.8920, 16.12103
432.3741, 16.31385
432.8563, 16.04409
433.3384, 15.06002
433.8205, 13.55876
434.3026, 13.05090
434.7847, 13.62519
435.2668, 14.44795
435.7490, 14.56053
436.2311, 14.18789
436.7132, 14.22538
437.1953, 15.28453
437.6774, 16.32702
438.1595, 15.48210
438.6417, 13.21905
439.1238, 11.48091
439.6059, 11.92281
440.0880, 13.23800
440.5701, 14.00803
441.0522, 14.00486
441.5344, 14.00008
442.0165, 14.73782
442.4986, 15.67262
442.9807, 16.13122
443.4628, 15.06453
443.9449, 14.28990
444.4271, 14.94297
444.9092, 16.69942
445.3913, 17.68533
445.8734, 17.06654
446.3555, 15.83051
446.8376, 14.28873
447.3198, 11.53364
447.8019, 10.37835
448.2840, 12.04204
448.7661, 14.83405
449.2482, 16.35980
449.7303, 15.69935
450.2125, 15.35137
450.6946, 16.17080
451.1767, 17.99563
451.6588, 18.12982
452.1409, 15.81462
452.6230, 13.57194
453.1052, 13.64749
453.5873, 16.31618
454.0694, 17.48088
454.5515, 16.51648
455.0337, 14.57465
455.5158, 13.45803
455.9979, 13.12564
456.4800, 13.11704
456.9621, 13.24123
457.4442, 13.54908
457.9264, 14.46822
458.4085, 15.95677
458.8906, 16.93709
459.3727, 15.76151
459.8548, 13.67823
460.3369, 12.86324
460.8191, 14.25759
461.3012, 15.85853
461.7833, 16.12463
462.2654, 15.40650
462.7475, 14.43606
463.2296, 12.65292
463.7118, 11.41537
464.1939, 11.95985
464.6760, 14.38815
465.1581, 16.02660
465.6402, 15.40112
466.1223, 14.05937
466.6045, 13.09096
467.0866, 12.59965
467.5687, 12.54443
468.0508, 13.22673
468.5329, 14.31097
469.0150, 15.05713
469.4972, 15.28252
469.9793, 15.43653
470.4614, 15.67902
470.9435, 16.02480
471.4256, 16.15627
471.9077, 16.04499
472.3899, 15.77711
472.8720, 15.23352
473.3541, 14.32602
473.8362, 14.30548
474.3183, 15.65324
474.8004, 17.47795
475.2826, 17.95728
475.7647, 17.16468
476.2468, 16.13944
476.7289, 15.28366
477.2110, 14.59084
477.6931, 14.13357
478.1753, 13.90791
478.6574, 13.64666
479.1395, 12.88864
479.6216, 12.02133
480.1037, 11.64065
480.5858, 12.03388
481.0680, 12.69536
481.5501, 13.48204
482.0322, 14.27623
482.5143, 14.82325
482.9964, 14.89647
483.4786, 14.81030
483.9607, 14.72360
484.4428, 14.65703
484.9249, 14.44147
485.4070, 13.70232
485.8892, 13.01835
486.3713, 12.83026
486.8534, 13.99414
487.3355, 14.35698
487.8176, 13.28121
488.2997, 11.57211
488.7819, 11.00422
489.2640, 12.06378
489.7461, 13.16763
490.2282, 13.77030
490.7103, 13.91653
491.1924, 14.40741
491.6746, 15.38403
492.1567, 16.13822
492.6388, 15.95977
493.1209, 14.93042
493.6030, 13.68964
494.0851, 12.14877
494.5673, 10.86649
495.0494, 10.88242
495.5315, 11.91502
496.0136, 12.94617
496.4957, 13.67084
496.9778, 14.04898
497.4600, 13.81497
497.9421, 13.05397
498.4242, 12.56836
498.9063, 13.21143
499.3884, 14.12551
499.8705, 14.50023
500.3527, 13.87271
500.8348, 13.45728
501.3169, 13.96581
501.7990, 14.87057
502.2811, 15.43146
502.7632, 15.47116
503.2454, 15.19702
503.7275, 14.42571
504.2096, 13.24204
504.6917, 12.53077
505.1738, 12.38745
505.6559, 12.59269
506.1381, 13.21478
506.6202, 14.59351
507.1023, 14.80867
507.5844, 13.37087
508.0665, 11.65028
508.5486, 11.85437
509.0308, 14.04444
509.5129, 15.47244
509.9950, 15.16621
510.4771, 13.93553
510.9592, 13.39384
511.4413, 13.51790
511.9235, 14.03794
512.4056, 15.33130
512.8877, 16.70645
513.3698, 17.00393
513.8519, 16.08307
514.3340, 14.94096
514.8162, 14.11656
515.2983, 13.55881
515.7804, 13.18806
516.2625, 12.66731
516.7446, 12.73129
517.2267, 14.61063
517.7089, 17.32619
518.1910, 18.44289
518.6731, 15.52772
519.1552, 12.72670
519.6373, 11.68164
520.1194, 12.58940
520.6016, 13.05554
521.0837, 12.73255
521.5658, 12.35001
522.0479, 12.54595
522.5300, 13.65085
523.0121, 14.04814
523.4943, 13.40514
523.9764, 12.31099
524.4585, 11.75198
524.9406, 11.74048
525.4227, 12.08484
525.9048, 12.88710
526.3870, 13.91517
526.8691, 14.68053
527.3513, 15.18086
527.8334, 15.35480
528.3155, 14.99667
528.7976, 14.34724
529.2797, 13.70061
529.7618, 13.06120
530.2440, 12.60531
530.7261, 12.44217
531.2082, 12.54466
531.6903, 12.88027
532.1724, 13.63531
532.6545, 14.41511
533.1367, 15.30357
533.6188, 16.15987
534.1009, 16.52022
534.5830, 15.62533
535.0651, 14.88817
535.5472, 14.91672
536.0294, 15.90468
536.5115, 16.25845
536.9936, 15.87356
537.4757, 15.00204
537.9578, 13.52678
538.4399, 11.12595
538.9221, 10.34702
539.4042, 11.98857
539.8863, 14.40420
540.3684, 14.17735
540.8505, 11.57867
541.3326, 9.889673
541.8148, 11.10962
542.2969, 13.65921
542.7790, 14.77221
543.2611, 14.56615
543.7432, 14.03905
544.2253, 13.88905
544.7075, 13.74948
545.1896, 13.04067
545.6717, 11.48882
546.1538, 10.49195
546.6359, 11.26168
547.1180, 12.72147
547.6002, 13.71869
548.0823, 13.54634
548.5644, 13.39814
549.0465, 13.40818
549.5286, 13.59302
550.0107, 14.03944
550.4929, 15.17624
550.9750, 15.91409
551.4571, 15.74053
551.9392, 14.64742
552.4213, 14.20582
552.9034, 14.63653
553.3856, 15.02050
553.8677, 14.25778
554.3498, 12.51618
554.8319, 12.07167
555.3140, 13.41936
555.7961, 15.09739
556.2783, 14.89169
556.7604, 13.43280
557.2425, 12.53520
557.7246, 13.37622
558.2067, 14.53562
558.6888, 14.52886
559.1710, 13.64796
559.6531, 12.87611
560.1352, 12.52736
560.6173, 12.56710
561.0994, 13.08029
561.5815, 14.12891
562.0637, 15.13177
562.5458, 16.31809
563.0279, 17.18637
563.5100, 17.39792
563.9921, 16.76690
564.4742, 15.68837
564.9564, 13.59723
565.4385, 11.51143
565.9206, 11.55397
566.4027, 14.29896
566.8848, 16.25180
567.3669, 16.20062
567.8491, 14.75244
568.3312, 13.65444
568.8133, 12.91070
569.2954, 12.57201
569.7775, 13.20237
570.2596, 14.11596
570.7418, 13.71806
571.2239, 11.86354
571.7060, 10.35688
572.1881, 10.84645
572.6702, 12.30140
573.1523, 13.65708
573.6345, 14.88393
574.1166, 15.52808
574.5987, 14.90583
575.0808, 13.68652
575.5629, 12.97187
576.0450, 13.77869
576.5272, 14.15595
577.0093, 13.36821
577.4914, 11.70981
577.9735, 11.23227
578.4556, 12.48266
578.9377, 13.79266
579.4199, 14.31190
579.9020, 14.01769
580.3841, 13.92580
580.8662, 14.10898
581.3483, 14.11381
581.8304, 13.15334
582.3126, 11.58969
582.7947, 10.69496
583.2768, 10.75049
583.7589, 11.39026
584.2410, 12.81029
584.7231, 14.48131
585.2053, 15.35556
585.6874, 14.33504
586.1696, 13.00721
586.6517, 12.02751
587.1338, 11.41050
587.6159, 11.17254
588.0980, 11.47666
588.5801, 12.02039
589.0623, 12.74598
589.5444, 13.69642
590.0265, 14.52623
590.5086, 15.38800
590.9907, 15.93455
591.4728, 15.88237
591.9550, 15.19429
592.4371, 13.95297
592.9192, 11.85511
593.4013, 9.966404
593.8834, 10.36228
594.3655, 12.63762
594.8477, 14.17080
595.3298, 13.69620
595.8119, 12.58729
596.2940, 12.77806
596.7761, 13.93292
597.2582, 14.93043
597.7404, 15.10923
598.2225, 14.97101
598.7046, 14.93743
599.1867, 15.02360
599.6688, 14.69519
600.1509, 12.99483
600.6331, 11.40314
601.1152, 10.94855
601.5973, 12.32806
602.0794, 13.20162
602.5615, 13.19886
603.0436, 13.03774
603.5258, 13.80624
604.0079, 15.91526
604.4900, 16.56826
604.9721, 14.87147
605.4542, 12.14995
605.9363, 11.07894
606.4185, 11.52488
606.9006, 12.23825
607.3827, 12.82996
607.8648, 13.24441
608.3469, 13.25750
608.8290, 12.94540
609.3112, 12.73568
609.7933, 12.88741
610.2754, 13.23310
610.7575, 13.71594
611.2396, 14.35399
611.7217, 14.84871
612.2039, 15.05478
612.6860, 15.11785
613.1681, 15.13707
613.6502, 14.94698
614.1323, 15.09016
614.6144, 16.10205
615.0966, 16.98228
615.5787, 15.78301
616.0608, 11.95438
616.5429, 9.745907
617.0250, 10.60214
617.5071, 13.12770
617.9893, 14.16483
618.4714, 13.87571
618.9535, 13.50209
619.4356, 14.08614
619.9177, 14.74095
620.3998, 14.08561
620.8820, 12.25490
621.3641, 10.57673
621.8462, 9.101768
622.3283, 8.520184
622.8104, 9.809205
623.2925, 13.90901
623.7747, 16.51861
624.2568, 15.67923
624.7389, 13.77102
625.2210, 12.69593
625.7031, 12.85049
626.1852, 12.97799
626.6674, 13.01434
627.1495, 12.99294
627.6316, 12.90648
628.1137, 12.74375
628.5958, 12.82326
629.0779, 13.36098
629.5601, 14.05103
630.0422, 14.22489
630.5243, 13.97838
631.0064, 13.77148
631.4885, 14.05828
631.9706, 14.36816
632.4528, 14.17809
632.9349, 13.52000
633.4170, 12.90930
633.8991, 12.64181
634.3812, 12.43888
634.8633, 12.11708
635.3455, 11.60092
635.8276, 11.14355
636.3097, 10.53543
636.7918, 10.18516
637.2739, 10.58232
637.7560, 12.05105
638.2382, 12.89441
638.7203, 12.83466
639.2024, 12.37097
639.6845, 12.08206
640.1666, 12.00232
640.6487, 12.51284
641.1309, 14.19082
641.6130, 15.86314
