##NAMES=Nickeline
##RRUFFID=R060906
##IDEAL CHEMISTRY=NiAs
##LOCALITY=Moose Horn mine, Timiskaming district, Ontario, Canada
##OWNER=RRUFF
##SOURCE=Royal Ontario Museum
##DESCRIPTION=Massive metallic lustered tarnished to dull copper color
##STATUS=The identification of this mineral has been confirmed by X-ray diffraction and chemical analysis
##URL=rruff.info/R060906
##MEASURED CHEMISTRY=Ni_1.00_(As_0.98_Sb_0.02_)_Î£=1_ ; trace amounts of Co and Fe
123.4559, 1599.829
123.9380, 1706.206
124.4201, 1831.240
124.9022, 1976.470
125.3843, 2143.295
125.8665, 2331.004
126.3486, 2540.225
126.8307, 2788.030
127.3128, 3044.821
127.7949, 3312.084
128.2770, 3583.008
128.7592, 3839.969
129.2413, 4069.481
129.7234, 4273.351
130.2055, 4439.875
130.6876, 4585.271
131.1698, 4686.250
131.6519, 4731.415
132.1340, 4719.297
132.6161, 4652.470
133.0982, 4530.476
133.5803, 4335.839
134.0625, 4126.565
134.5446, 3891.028
135.0267, 3651.753
135.5088, 3416.277
135.9909, 3188.846
136.4730, 2980.550
136.9552, 2805.022
137.4373, 2665.484
137.9194, 2561.945
138.4015, 2500.614
138.8836, 2468.438
139.3657, 2457.085
139.8479, 2463.642
140.3300, 2486.744
140.8121, 2525.227
141.2942, 2592.577
141.7763, 2655.464
142.2584, 2698.412
142.7406, 2742.567
143.2227, 2813.361
143.7048, 2920.354
144.1869, 3049.639
144.6690, 3175.300
145.1511, 3306.925
145.6333, 3418.706
146.1154, 3497.269
146.5975, 3556.466
147.0796, 3619.985
147.5617, 3698.914
148.0438, 3779.283
148.5260, 3823.175
149.0081, 3827.420
149.4902, 3812.148
149.9723, 3777.806
150.4544, 3727.810
150.9365, 3665.325
151.4187, 3588.373
151.9008, 3505.691
152.3829, 3443.017
152.8650, 3404.086
153.3471, 3373.165
153.8292, 3346.695
154.3114, 3323.892
154.7935, 3304.502
155.2756, 3292.108
155.7577, 3279.225
156.2398, 3246.651
156.7219, 3182.385
157.2041, 3118.739
157.6862, 3071.508
158.1683, 3038.845
158.6504, 3012.430
159.1325, 2987.163
159.6146, 2967.476
160.0968, 2961.605
160.5789, 2976.473
161.0610, 2995.002
161.5431, 3007.862
162.0252, 3015.256
162.5073, 3019.727
162.9895, 3025.730
163.4716, 3026.846
163.9537, 3012.783
164.4358, 2980.838
164.9179, 2936.728
165.4000, 2875.827
165.8822, 2799.305
166.3643, 2736.792
166.8464, 2711.147
167.3285, 2705.991
167.8106, 2689.762
168.2927, 2651.962
168.7749, 2612.514
169.2570, 2593.536
169.7391, 2595.953
170.2212, 2592.236
170.7033, 2565.026
171.1854, 2524.562
171.6676, 2486.199
172.1497, 2453.718
172.6318, 2422.283
173.1139, 2387.270
173.5960, 2348.396
174.0781, 2307.183
174.5603, 2256.063
175.0424, 2206.395
175.5245, 2174.409
176.0066, 2168.380
176.4887, 2174.299
176.9708, 2178.381
177.4530, 2181.062
177.9351, 2178.946
178.4172, 2168.056
178.8993, 2151.931
179.3814, 2133.505
179.8635, 2110.975
180.3457, 2089.889
180.8278, 2078.568
181.3099, 2078.829
181.7920, 2079.235
182.2741, 2075.048
182.7562, 2067.878
183.2384, 2058.039
183.7205, 2043.161
184.2026, 2029.453
184.6847, 2029.119
185.1668, 2046.841
185.6489, 2056.040
186.1311, 2033.505
186.6132, 2000.159
187.0953, 1976.583
187.5774, 1970.800
188.0595, 1972.551
188.5416, 1967.092
189.0238, 1952.336
189.5059, 1939.579
189.9880, 1939.785
190.4701, 1941.783
190.9522, 1933.338
191.4343, 1908.039
191.9165, 1877.716
192.3986, 1856.830
192.8807, 1845.082
193.3628, 1843.887
193.8449, 1866.730
194.3270, 1895.155
194.8092, 1911.924
195.2913, 1910.694
195.7734, 1901.297
196.2555, 1897.755
196.7376, 1902.067
197.2197, 1902.700
197.7019, 1893.523
198.1840, 1879.493
198.6661, 1862.665
199.1482, 1842.006
199.6303, 1823.936
200.1124, 1818.457
200.5946, 1827.841
201.0767, 1837.392
201.5588, 1842.332
202.0409, 1845.222
202.5230, 1848.873
203.0051, 1854.674
203.4873, 1857.632
203.9694, 1849.258
204.4515, 1827.209
204.9336, 1809.041
205.4157, 1803.593
205.8978, 1802.410
206.3800, 1799.490
206.8621, 1793.559
207.3442, 1786.542
207.8263, 1779.771
208.3084, 1772.991
208.7905, 1768.959
209.2727, 1771.816
209.7548, 1775.647
210.2369, 1776.120
210.7190, 1772.520
211.2011, 1766.419
211.6832, 1758.183
212.1654, 1747.650
212.6475, 1738.995
213.1296, 1730.752
213.6117, 1727.129
214.0938, 1734.682
214.5760, 1754.312
215.0581, 1771.558
215.5402, 1768.825
216.0223, 1746.652
216.5044, 1736.925
216.9865, 1758.646
217.4687, 1783.151
217.9508, 1787.406
218.4329, 1770.604
218.9150, 1749.602
219.3971, 1736.017
219.8792, 1729.335
220.3614, 1725.077
220.8435, 1725.185
221.3256, 1724.613
221.8077, 1717.861
222.2898, 1705.601
222.7719, 1695.785
223.2541, 1695.222
223.7362, 1702.126
224.2183, 1707.379
224.7004, 1708.783
225.1825, 1709.866
225.6646, 1715.537
226.1468, 1724.390
226.6289, 1728.513
227.1110, 1718.353
227.5931, 1699.691
228.0752, 1692.240
228.5573, 1703.286
229.0395, 1714.981
229.5216, 1712.286
230.0037, 1698.851
230.4858, 1685.626
230.9679, 1677.509
231.4500, 1672.805
231.9322, 1668.709
232.4143, 1665.983
232.8964, 1661.331
233.3785, 1647.510
233.8606, 1629.397
234.3427, 1619.295
234.8249, 1626.230
235.3070, 1641.357
235.7891, 1652.454
236.2712, 1659.272
236.7533, 1662.875
237.2354, 1662.733
237.7176, 1659.850
238.1997, 1656.111
238.6818, 1650.232
239.1639, 1644.745
239.6460, 1643.611
240.1281, 1647.029
240.6103, 1648.413
241.0924, 1642.061
241.5745, 1631.489
242.0566, 1625.311
242.5387, 1626.869
243.0208, 1630.044
243.5030, 1630.433
243.9851, 1628.299
244.4672, 1625.400
244.9493, 1621.824
245.4314, 1618.570
245.9135, 1617.479
246.3957, 1618.281
246.8778, 1621.559
247.3599, 1629.680
247.8420, 1640.993
248.3241, 1650.170
248.8062, 1655.618
249.2884, 1657.151
249.7705, 1653.966
250.2526, 1644.663
250.7347, 1635.151
251.2168, 1625.224
251.6989, 1616.758
252.1811, 1614.421
252.6632, 1620.562
253.1453, 1630.117
253.6274, 1634.569
254.1095, 1632.604
254.5916, 1631.228
255.0738, 1630.979
255.5559, 1632.287
256.0380, 1637.216
256.5201, 1646.314
257.0022, 1654.369
257.4843, 1654.009
257.9665, 1641.587
258.4486, 1634.753
258.9307, 1638.856
259.4128, 1645.576
259.8949, 1649.292
260.3770, 1649.024
260.8592, 1644.526
261.3413, 1634.204
261.8234, 1616.393
262.3055, 1607.744
262.7876, 1613.829
263.2697, 1622.962
263.7519, 1630.973
264.2340, 1636.770
264.7161, 1638.406
265.1982, 1633.330
265.6803, 1621.925
266.1624, 1619.806
266.6446, 1640.922
267.1267, 1655.057
267.6088, 1647.557
268.0909, 1626.995
268.5730, 1609.964
269.0551, 1606.172
269.5373, 1612.275
270.0194, 1613.435
270.5015, 1601.168
270.9836, 1593.425
271.4657, 1597.722
271.9478, 1605.186
272.4300, 1603.066
272.9121, 1586.321
273.3942, 1564.505
273.8763, 1559.450
274.3584, 1589.210
274.8405, 1604.527
275.3227, 1592.219
275.8048, 1573.159
276.2869, 1563.337
276.7690, 1566.347
277.2511, 1574.410
277.7332, 1576.494
278.2154, 1569.264
278.6975, 1567.132
279.1796, 1576.536
279.6617, 1585.920
280.1438, 1588.304
280.6259, 1584.405
281.1081, 1580.549
281.5902, 1583.453
282.0723, 1593.325
282.5544, 1599.131
283.0365, 1599.549
283.5186, 1596.866
284.0008, 1589.709
284.4829, 1580.320
284.9650, 1573.791
285.4471, 1575.965
285.9292, 1582.501
286.4113, 1577.011
286.8935, 1552.751
287.3756, 1530.587
287.8577, 1517.795
288.3398, 1512.754
288.8219, 1515.016
289.3040, 1527.524
289.7862, 1542.229
290.2683, 1546.659
290.7504, 1539.254
291.2325, 1533.042
291.7146, 1532.375
292.1967, 1536.011
292.6789, 1543.396
293.1610, 1555.653
293.6431, 1567.487
294.1252, 1575.316
294.6073, 1579.331
295.0894, 1579.903
295.5716, 1574.985
296.0537, 1569.513
296.5358, 1571.866
297.0179, 1582.969
297.5000, 1588.720
297.9821, 1575.370
298.4643, 1554.981
298.9464, 1550.521
299.4285, 1567.744
299.9106, 1589.745
300.3927, 1598.996
300.8748, 1595.292
301.3570, 1593.930
301.8391, 1596.741
302.3212, 1602.242
302.8033, 1611.974
303.2854, 1624.884
303.7675, 1632.972
304.2497, 1629.006
304.7318, 1614.319
305.2139, 1607.659
305.6960, 1614.339
306.1781, 1622.105
306.6602, 1630.654
307.1424, 1636.578
307.6245, 1631.548
308.1066, 1610.335
308.5887, 1579.935
309.0708, 1561.607
309.5529, 1564.406
310.0351, 1569.113
310.5172, 1577.483
310.9993, 1586.149
311.4814, 1591.612
311.9635, 1592.957
312.4456, 1592.106
312.9278, 1592.066
313.4099, 1594.337
313.8920, 1593.454
314.3741, 1587.499
314.8562, 1580.562
315.3383, 1574.369
315.8205, 1569.253
316.3026, 1565.057
316.7847, 1561.641
317.2668, 1559.016
317.7489, 1557.295
318.2310, 1558.142
318.7132, 1557.907
319.1953, 1557.134
319.6774, 1554.278
320.1595, 1545.518
320.6416, 1526.261
321.1237, 1503.918
321.6059, 1497.632
322.0880, 1512.954
322.5701, 1528.400
323.0522, 1535.580
323.5343, 1540.011
324.0164, 1546.973
324.4986, 1558.036
324.9807, 1569.190
325.4628, 1578.700
325.9449, 1586.123
326.4270, 1583.471
326.9091, 1560.828
327.3913, 1537.227
327.8734, 1535.287
328.3555, 1554.577
328.8376, 1570.480
329.3197, 1567.436
329.8018, 1555.394
330.2840, 1552.495
330.7661, 1561.926
331.2482, 1573.186
331.7303, 1576.742
332.2124, 1573.588
332.6945, 1574.418
333.1767, 1585.048
333.6588, 1595.614
334.1409, 1598.055
334.6230, 1594.050
335.1051, 1591.913
335.5872, 1597.367
336.0694, 1606.963
336.5515, 1606.361
337.0336, 1584.698
337.5157, 1567.946
337.9979, 1564.547
338.4800, 1566.849
338.9621, 1562.686
339.4442, 1548.695
339.9263, 1535.613
340.4084, 1541.824
340.8906, 1582.469
341.3727, 1606.081
341.8548, 1604.731
342.3369, 1595.712
342.8190, 1584.737
343.3011, 1574.725
343.7833, 1570.444
344.2654, 1578.098
344.7475, 1596.828
345.2296, 1602.521
345.7117, 1579.734
346.1938, 1562.680
346.6760, 1567.029
347.1581, 1581.030
347.6402, 1586.785
348.1223, 1574.955
348.6044, 1556.110
349.0865, 1550.592
349.5687, 1561.829
350.0508, 1571.421
350.5329, 1575.243
351.0150, 1574.674
351.4971, 1568.244
351.9792, 1555.623
352.4614, 1545.926
352.9435, 1547.070
353.4256, 1556.762
353.9077, 1568.477
354.3898, 1584.546
354.8719, 1594.875
355.3541, 1582.116
355.8362, 1552.823
356.3183, 1534.129
356.8004, 1541.013
357.2825, 1555.336
357.7646, 1561.109
358.2468, 1558.262
358.7289, 1551.120
359.2110, 1540.772
359.6931, 1528.712
360.1752, 1521.142
360.6573, 1518.491
361.1395, 1518.942
361.6216, 1526.646
362.1037, 1535.709
362.5858, 1536.382
363.0679, 1525.763
363.5500, 1511.217
364.0322, 1503.726
364.5143, 1505.363
364.9964, 1509.438
365.4785, 1515.086
365.9606, 1523.512
366.4427, 1541.418
366.9249, 1563.893
367.4070, 1575.691
367.8891, 1562.047
368.3712, 1527.203
368.8533, 1509.496
369.3354, 1521.751
369.8176, 1533.316
370.2997, 1534.111
370.7818, 1530.868
371.2639, 1532.380
371.7460, 1542.240
372.2281, 1553.580
372.7103, 1556.153
373.1924, 1549.050
373.6745, 1544.212
374.1566, 1544.533
374.6387, 1547.601
375.1208, 1552.019
375.6030, 1557.593
376.0851, 1562.152
376.5672, 1563.837
377.0493, 1564.041
377.5314, 1567.347
378.0135, 1575.042
378.4957, 1576.083
378.9778, 1555.974
379.4599, 1521.748
379.9420, 1509.071
380.4241, 1533.736
380.9063, 1564.534
381.3884, 1594.419
381.8705, 1618.438
382.3526, 1623.320
382.8347, 1602.549
383.3168, 1568.499
383.7990, 1544.198
384.2811, 1532.877
384.7632, 1526.649
385.2453, 1529.408
385.7274, 1534.241
386.2095, 1536.973
386.6917, 1536.984
387.1738, 1534.787
387.6559, 1529.980
388.1380, 1522.850
388.6201, 1522.297
389.1022, 1538.825
389.5844, 1548.740
390.0665, 1540.813
390.5486, 1525.437
391.0307, 1516.495
391.5128, 1519.638
391.9949, 1527.280
392.4771, 1527.564
392.9592, 1519.445
393.4413, 1514.914
393.9234, 1518.558
394.4055, 1524.494
394.8876, 1528.347
395.3698, 1530.095
395.8519, 1530.640
396.3340, 1529.631
396.8161, 1527.939
397.2982, 1527.748
397.7803, 1529.365
398.2625, 1528.948
398.7446, 1522.975
399.2267, 1512.886
399.7088, 1505.646
400.1909, 1501.159
400.6730, 1499.424
401.1552, 1500.765
401.6373, 1504.776
402.1194, 1511.941
402.6015, 1522.410
403.0836, 1532.802
403.5657, 1537.998
404.0479, 1536.677
404.5300, 1533.553
405.0121, 1526.397
405.4942, 1519.734
405.9763, 1516.399
406.4584, 1515.676
406.9406, 1515.265
407.4227, 1513.666
407.9048, 1511.116
408.3869, 1508.141
408.8690, 1503.055
409.3511, 1501.079
409.8333, 1508.612
410.3154, 1516.567
410.7975, 1516.078
411.2796, 1505.296
411.7617, 1491.437
412.2438, 1476.132
412.7260, 1461.672
413.2081, 1464.366
413.6902, 1494.167
414.1723, 1523.492
414.6544, 1520.093
415.1365, 1495.335
415.6187, 1486.804
416.1008, 1519.648
416.5829, 1556.045
417.0650, 1565.156
417.5471, 1552.659
418.0292, 1540.536
418.5114, 1538.652
418.9935, 1541.880
419.4756, 1539.030
419.9577, 1523.601
420.4398, 1513.898
420.9219, 1515.509
421.4041, 1519.490
421.8862, 1518.220
422.3683, 1511.921
422.8504, 1506.282
423.3325, 1506.359
423.8146, 1511.660
424.2968, 1515.772
424.7789, 1518.741
425.2610, 1520.299
425.7431, 1519.189
426.2252, 1517.326
426.7073, 1516.584
427.1895, 1517.495
427.6716, 1520.062
428.1537, 1526.383
428.6358, 1535.942
429.1179, 1539.064
429.6000, 1532.301
430.0822, 1522.084
430.5643, 1511.431
431.0464, 1501.183
431.5285, 1495.723
432.0106, 1497.829
432.4927, 1503.975
432.9749, 1514.620
433.4570, 1527.665
433.9391, 1532.560
434.4212, 1522.435
434.9033, 1505.393
435.3854, 1500.782
435.8676, 1520.034
436.3497, 1531.184
436.8318, 1526.537
437.3139, 1517.468
437.7960, 1511.725
438.2781, 1510.512
438.7603, 1511.998
439.2424, 1514.687
439.7245, 1518.666
440.2066, 1525.582
440.6887, 1541.949
441.1708, 1551.149
441.6530, 1545.560
442.1351, 1533.527
442.6172, 1522.542
443.0993, 1514.441
443.5814, 1510.462
444.0635, 1513.510
444.5457, 1522.556
445.0278, 1530.259
445.5099, 1535.213
445.9920, 1539.641
446.4741, 1547.808
446.9562, 1557.578
447.4384, 1560.146
447.9205, 1549.770
448.4026, 1535.659
448.8847, 1521.081
449.3668, 1507.689
449.8489, 1501.331
450.3311, 1505.031
450.8132, 1512.274
451.2953, 1511.229
451.7774, 1496.265
452.2595, 1485.470
452.7416, 1476.159
453.2238, 1473.050
453.7059, 1483.199
454.1880, 1502.343
454.6701, 1518.788
455.1522, 1524.506
455.6343, 1522.586
456.1165, 1523.254
456.5986, 1528.085
457.0807, 1531.404
457.5628, 1531.870
458.0449, 1530.087
458.5270, 1525.957
459.0092, 1519.511
459.4913, 1512.095
459.9734, 1501.765
460.4555, 1491.700
460.9376, 1489.701
461.4197, 1496.836
461.9019, 1505.048
462.3840, 1509.250
462.8661, 1510.226
463.3482, 1511.843
463.8303, 1517.709
464.3124, 1519.615
464.7946, 1509.804
465.2767, 1497.237
465.7588, 1495.290
466.2409, 1505.847
466.7230, 1517.068
467.2051, 1514.678
467.6873, 1496.937
468.1694, 1487.626
468.6515, 1494.938
469.1336, 1501.876
469.6157, 1501.288
470.0978, 1498.708
470.5800, 1503.571
471.0621, 1520.104
471.5442, 1537.136
472.0263, 1540.203
472.5084, 1530.194
472.9905, 1519.980
473.4727, 1510.828
473.9548, 1503.338
474.4369, 1497.532
474.9190, 1493.589
475.4011, 1493.663
475.8832, 1503.994
476.3654, 1513.116
476.8475, 1511.721
477.3296, 1502.858
477.8117, 1493.691
478.2938, 1486.755
478.7759, 1483.630
479.2581, 1488.149
479.7402, 1507.948
480.2223, 1515.239
480.7044, 1500.069
481.1865, 1483.704
481.6686, 1474.717
482.1508, 1473.093
482.6329, 1476.963
483.1150, 1486.117
483.5971, 1497.949
484.0792, 1507.638
484.5613, 1515.225
485.0435, 1520.009
485.5256, 1520.073
486.0077, 1518.820
486.4898, 1520.005
486.9719, 1523.347
487.4540, 1524.936
487.9362, 1521.543
488.4183, 1516.834
488.9004, 1514.791
489.3825, 1515.183
489.8646, 1515.654
490.3467, 1514.781
490.8289, 1513.806
491.3110, 1516.042
491.7931, 1529.145
492.2752, 1532.569
492.7573, 1515.759
493.2394, 1498.030
493.7216, 1496.239
494.2037, 1506.518
494.6858, 1510.891
495.1679, 1494.501
495.6500, 1466.893
496.1321, 1460.224
496.6143, 1481.369
497.0964, 1500.255
497.5785, 1508.472
498.0606, 1510.850
498.5427, 1510.804
499.0248, 1508.559
499.5070, 1505.529
499.9891, 1500.186
500.4712, 1495.594
500.9533, 1498.815
501.4355, 1508.787
501.9176, 1512.299
502.3997, 1500.225
502.8818, 1479.113
503.3639, 1468.277
503.8460, 1476.833
504.3282, 1482.896
504.8103, 1484.264
505.2924, 1484.286
505.7745, 1485.954
506.2566, 1488.845
506.7387, 1490.119
507.2209, 1487.465
507.7030, 1481.880
508.1851, 1476.417
508.6672, 1470.586
509.1493, 1466.497
509.6314, 1465.795
510.1136, 1466.441
510.5957, 1466.980
511.0778, 1467.338
511.5599, 1466.493
512.0420, 1461.540
512.5241, 1456.526
513.0062, 1456.589
513.4883, 1461.662
513.9705, 1469.816
514.4526, 1480.890
514.9347, 1492.504
515.4168, 1497.828
515.8989, 1490.915
516.3810, 1486.217
516.8632, 1485.843
517.3453, 1485.941
517.8274, 1482.555
518.3095, 1476.980
518.7916, 1474.364
519.2737, 1479.125
519.7559, 1487.940
520.2380, 1492.523
520.7201, 1492.574
521.2022, 1489.557
521.6843, 1480.898
522.1664, 1472.069
522.6486, 1469.375
523.1307, 1472.754
523.6128, 1475.860
524.0949, 1475.851
524.5770, 1475.302
525.0591, 1476.358
525.5413, 1478.988
526.0234, 1483.229
526.5055, 1489.484
526.9876, 1495.545
527.4697, 1496.540
527.9518, 1489.588
528.4340, 1483.671
528.9161, 1477.517
529.3982, 1473.439
529.8803, 1475.111
530.3624, 1479.689
530.8445, 1480.676
531.3267, 1474.406
531.8088, 1463.960
532.2909, 1451.040
532.7730, 1436.017
533.2551, 1432.928
533.7372, 1451.738
534.2194, 1470.863
534.7015, 1460.174
535.1836, 1422.287
535.6657, 1404.059
536.1478, 1426.129
536.6299, 1452.974
537.1121, 1466.138
537.5942, 1470.081
538.0763, 1475.212
538.5584, 1484.987
539.0405, 1492.877
539.5226, 1487.201
540.0048, 1463.720
540.4869, 1454.228
540.9690, 1471.472
541.4511, 1487.018
541.9332, 1489.787
542.4153, 1484.599
542.8975, 1477.132
543.3796, 1467.298
543.8617, 1462.589
544.3438, 1474.076
544.8259, 1494.940
545.3080, 1508.752
545.7902, 1513.133
546.2723, 1507.303
546.7544, 1486.694
547.2365, 1454.343
547.7186, 1440.152
548.2007, 1461.452
548.6829, 1476.406
549.1650, 1473.656
549.6471, 1464.823
550.1292, 1457.356
550.6113, 1454.369
551.0934, 1461.141
551.5756, 1488.407
552.0577, 1527.016
552.5398, 1537.148
553.0219, 1511.173
553.5040, 1486.234
553.9861, 1470.430
554.4683, 1466.469
554.9504, 1481.851
555.4325, 1520.164
555.9146, 1543.556
556.3967, 1528.852
556.8788, 1503.306
557.3610, 1489.487
557.8431, 1486.608
558.3252, 1486.247
558.8073, 1484.345
559.2894, 1481.423
559.7715, 1478.915
560.2537, 1478.356
560.7358, 1474.130
561.2179, 1459.998
561.7000, 1448.028
562.1821, 1442.789
562.6642, 1443.560
563.1464, 1449.495
563.6285, 1463.304
564.1106, 1474.933
564.5927, 1470.227
565.0748, 1454.269
565.5569, 1446.271
566.0391, 1450.971
566.5212, 1457.099
567.0033, 1453.341
567.4854, 1440.026
567.9675, 1434.847
568.4496, 1449.675
568.9318, 1456.669
569.4139, 1441.158
569.8960, 1420.157
570.3781, 1412.848
570.8602, 1421.166
571.3423, 1430.914
571.8245, 1427.296
572.3066, 1415.323
572.7887, 1416.723
573.2708, 1434.869
573.7529, 1449.235
574.2350, 1449.467
574.7172, 1444.004
575.1993, 1447.219
575.6814, 1461.371
576.1635, 1467.744
576.6456, 1453.336
577.1277, 1437.262
577.6099, 1436.686
578.0920, 1446.381
578.5741, 1448.860
579.0562, 1435.769
579.5383, 1418.650
580.0204, 1420.134
580.5026, 1445.850
580.9847, 1462.867
581.4668, 1466.462
581.9489, 1465.585
582.4310, 1462.264
582.9132, 1458.461
583.3953, 1457.962
583.8774, 1462.349
584.3596, 1468.333
584.8417, 1475.734
585.3238, 1482.650
585.8059, 1485.991
586.2880, 1485.249
586.7701, 1480.175
587.2523, 1469.320
587.7344, 1454.957
588.2165, 1449.944
588.6986, 1462.792
589.1807, 1471.560
589.6628, 1475.328
590.1450, 1473.935
590.6271, 1462.839
591.1092, 1445.462
591.5913, 1434.658
592.0734, 1441.835
592.5555, 1454.719
593.0377, 1453.595
593.5198, 1441.462
594.0019, 1438.861
594.4840, 1453.732
594.9661, 1470.948
595.4482, 1471.674
595.9304, 1453.193
596.4125, 1445.424
596.8946, 1456.167
597.3767, 1466.875
597.8588, 1472.285
598.3409, 1474.837
598.8231, 1478.036
599.3052, 1482.401
599.7873, 1484.877
600.2694, 1481.055
600.7515, 1473.090
601.2336, 1470.180
601.7158, 1473.477
602.1979, 1471.307
602.6800, 1455.604
603.1621, 1434.969
603.6442, 1423.607
604.1263, 1421.514
604.6085, 1426.849
605.0906, 1448.813
605.5727, 1469.118
606.0548, 1478.935
606.5369, 1478.638
607.0190, 1467.472
607.5012, 1445.328
607.9833, 1423.823
608.4654, 1421.799
608.9475, 1438.655
609.4296, 1449.253
609.9117, 1451.126
610.3939, 1449.635
610.8760, 1443.672
611.3581, 1437.745
611.8402, 1443.244
612.3223, 1469.741
612.8044, 1483.665
613.2866, 1460.068
613.7687, 1431.189
614.2508, 1429.978
614.7329, 1451.429
615.2150, 1469.833
615.6971, 1470.553
616.1793, 1460.985
616.6614, 1455.963
617.1435, 1456.061
617.6256, 1457.012
618.1077, 1457.942
618.5898, 1460.375
