##NAMES=Nickeltalmessite
##RRUFFID=R090023
##IDEAL CHEMISTRY=Ca_2_Ni^2+^(As^5+^O_4_)_2_&#183;2H_2_O
##LOCALITY=Ait Ahmane, Bou Azzer, Morocco
##OWNER=RRUFF
##SOURCE=Wiiliam W. Pinch
##DESCRIPTION=Small pale green to colorless acicular crystals
##STATUS=The identification of this mineral has been confirmed only by single crystal X-ray diffraction.
##URL=rruff.info/R090023
90.92609, 0.0000000E+00
91.40820, 24.72974
91.89032, 25.20228
92.37244, 25.33060
92.85455, 25.06613
93.33667, 24.12275
93.81879, 20.93130
94.30090, 16.69265
94.78302, 15.28575
95.26514, 18.72434
95.74725, 24.52112
96.22937, 26.98227
96.71149, 25.88519
97.19360, 23.73642
97.67572, 22.54860
98.15784, 22.33659
98.63995, 22.92052
99.12207, 24.66796
99.60419, 27.34017
100.0863, 28.86388
100.5684, 29.02211
101.0505, 28.46450
101.5327, 27.86981
102.0148, 27.11246
102.4969, 26.76893
102.9790, 27.18070
103.4611, 28.56577
103.9432, 29.45543
104.4253, 29.65222
104.9075, 29.45454
105.3896, 29.45426
105.8717, 29.77775
106.3538, 30.12634
106.8359, 30.33953
107.3180, 29.92631
107.8002, 30.23307
108.2823, 31.48235
108.7644, 33.48852
109.2465, 35.63076
109.7286, 37.75182
110.2107, 40.09412
110.6929, 42.80261
111.1750, 44.98259
111.6571, 48.49355
112.1392, 54.78098
112.6213, 63.25954
113.1034, 69.66644
113.5856, 70.20955
114.0677, 70.17860
114.5498, 73.32693
115.0319, 82.60020
115.5140, 93.08789
115.9961, 103.9491
116.4783, 115.1189
116.9604, 125.2275
117.4425, 132.3232
117.9246, 138.6570
118.4067, 146.6525
118.8888, 157.1214
119.3710, 169.5893
119.8531, 185.0803
120.3352, 204.0537
120.8173, 221.2325
121.2994, 233.8649
121.7815, 242.2860
122.2637, 247.0940
122.7458, 244.7930
123.2279, 240.7968
123.7100, 240.5124
124.1921, 244.9040
124.6742, 251.3543
125.1564, 257.1029
125.6385, 262.8080
126.1206, 270.5915
126.6027, 283.1251
127.0848, 298.2803
127.5669, 312.0876
128.0491, 323.5203
128.5312, 334.3369
129.0133, 347.3913
129.4954, 362.3465
129.9775, 377.1834
130.4596, 390.5016
130.9418, 402.4200
131.4239, 413.9019
131.9060, 425.1193
132.3881, 436.0360
132.8702, 446.1616
133.3523, 455.4841
133.8345, 464.8066
134.3166, 475.1387
134.7987, 486.5496
135.2808, 496.9818
135.7629, 505.7991
136.2450, 513.4572
136.7272, 522.0122
137.2093, 531.6699
137.6914, 541.7336
138.1735, 551.2269
138.6556, 559.7551
139.1377, 569.5712
139.6199, 581.8609
140.1020, 596.5011
140.5841, 609.1576
141.0662, 617.9709
141.5483, 627.0895
142.0304, 642.5048
142.5126, 667.0700
142.9947, 690.8688
143.4768, 708.3359
143.9589, 717.1200
144.4410, 726.4068
144.9231, 736.4767
145.4053, 746.9160
145.8874, 757.3447
146.3695, 767.8577
146.8516, 778.1998
147.3337, 788.0273
147.8158, 797.1827
148.2980, 806.7081
148.7801, 816.6490
149.2622, 826.9961
149.7443, 837.4684
150.2264, 848.7015
150.7085, 859.6937
151.1907, 869.8665
151.6728, 878.1942
152.1549, 887.7402
152.6370, 898.3991
153.1191, 910.3006
153.6012, 923.5511
154.0834, 937.0309
154.5655, 952.5558
155.0476, 971.1284
155.5297, 993.2357
156.0118, 1017.283
156.4939, 1041.438
156.9761, 1067.031
157.4582, 1097.891
157.9403, 1136.064
158.4224, 1178.857
158.9045, 1225.117
159.3866, 1280.105
159.8688, 1331.480
160.3509, 1379.867
160.8330, 1423.361
161.3151, 1452.524
161.7972, 1467.242
162.2793, 1465.065
162.7615, 1444.087
163.2436, 1395.995
163.7257, 1336.728
164.2078, 1264.750
164.6899, 1182.816
165.1720, 1110.833
165.6541, 1058.932
166.1363, 1021.324
166.6184, 992.3042
167.1005, 972.8055
167.5826, 958.9733
168.0647, 948.9118
168.5468, 942.5145
169.0290, 938.8791
169.5111, 937.9415
169.9932, 939.2863
170.4753, 942.3881
170.9574, 947.0139
171.4395, 953.2751
171.9217, 961.3353
172.4038, 971.1895
172.8859, 982.6764
173.3680, 996.1868
173.8501, 1011.161
174.3322, 1026.863
174.8144, 1043.484
175.2965, 1060.577
175.7786, 1077.407
176.2607, 1094.144
176.7428, 1110.125
177.2249, 1124.424
177.7071, 1137.394
178.1892, 1150.274
178.6713, 1167.675
179.1534, 1184.170
179.6355, 1189.616
180.1176, 1183.061
180.5998, 1172.031
181.0819, 1163.623
181.5640, 1157.220
182.0461, 1150.316
182.5282, 1139.731
183.0103, 1128.011
183.4925, 1122.011
183.9746, 1122.757
184.4567, 1125.400
184.9388, 1122.031
185.4209, 1114.092
185.9030, 1110.506
186.3852, 1117.510
186.8673, 1132.534
187.3494, 1147.047
187.8315, 1160.606
188.3136, 1173.863
188.7957, 1187.420
189.2779, 1201.289
189.7600, 1217.300
190.2421, 1235.264
190.7242, 1255.554
191.2063, 1281.459
191.6884, 1313.573
192.1706, 1349.858
192.6527, 1387.606
193.1348, 1426.595
193.6169, 1470.229
194.0990, 1522.474
194.5811, 1582.506
195.0633, 1642.482
195.5454, 1703.091
196.0275, 1761.590
196.5096, 1814.522
196.9917, 1863.256
197.4738, 1895.299
197.9560, 1906.624
198.4381, 1897.483
198.9202, 1859.553
199.4023, 1788.105
199.8844, 1694.045
200.3665, 1595.279
200.8487, 1489.180
201.3308, 1390.918
201.8129, 1307.964
202.2950, 1240.618
202.7771, 1184.778
203.2592, 1141.227
203.7414, 1107.238
204.2235, 1076.373
204.7056, 1048.357
205.1877, 1025.459
205.6698, 1009.602
206.1519, 1001.546
206.6341, 995.4696
207.1162, 991.3884
207.5983, 989.0306
208.0804, 987.6134
208.5625, 986.7018
209.0446, 988.0508
209.5268, 993.4129
210.0089, 1004.128
210.4910, 1012.344
210.9731, 1017.180
211.4552, 1019.922
211.9373, 1023.637
212.4195, 1028.802
212.9016, 1033.730
213.3837, 1037.551
213.8658, 1040.007
214.3479, 1042.708
214.8300, 1046.973
215.3121, 1050.804
215.7943, 1048.711
216.2764, 1038.512
216.7585, 1026.984
217.2406, 1017.199
217.7227, 1010.263
218.2048, 1001.586
218.6870, 990.2015
219.1691, 977.5270
219.6512, 966.5487
220.1333, 957.3370
220.6154, 949.6218
221.0975, 942.8450
221.5797, 936.2119
222.0618, 933.3410
222.5439, 936.0328
223.0260, 941.6583
223.5081, 943.9656
223.9902, 940.5092
224.4724, 938.0418
224.9545, 939.9224
225.4366, 948.6804
225.9187, 954.2966
226.4008, 954.6887
226.8829, 952.9835
227.3651, 956.2363
227.8472, 967.4688
228.3293, 978.6854
228.8114, 986.2384
229.2935, 987.7098
229.7757, 993.0132
230.2578, 1003.541
230.7399, 1017.130
231.2220, 1029.777
231.7041, 1040.930
232.1862, 1051.818
232.6684, 1062.583
233.1505, 1072.550
233.6326, 1084.595
234.1147, 1099.211
234.5968, 1115.651
235.0789, 1132.473
235.5611, 1150.437
236.0432, 1167.476
236.5253, 1182.900
237.0074, 1195.830
237.4895, 1209.545
237.9716, 1224.304
238.4538, 1239.701
238.9359, 1255.316
239.4180, 1272.852
239.9001, 1288.117
240.3822, 1299.632
240.8643, 1306.632
241.3465, 1312.943
241.8286, 1318.375
242.3107, 1323.247
242.7928, 1328.357
243.2749, 1335.588
243.7570, 1339.718
244.2392, 1338.480
244.7213, 1330.643
245.2034, 1324.697
245.6855, 1320.364
246.1676, 1318.094
246.6497, 1318.733
247.1319, 1323.778
247.6140, 1329.004
248.0961, 1332.961
248.5782, 1335.268
249.0603, 1340.365
249.5424, 1349.242
250.0246, 1360.028
250.5067, 1370.742
250.9888, 1380.790
251.4709, 1392.113
251.9530, 1406.391
252.4351, 1424.101
252.9173, 1436.145
253.3994, 1441.783
253.8815, 1442.840
254.3636, 1441.297
254.8457, 1438.412
255.3278, 1430.015
255.8100, 1414.536
256.2921, 1392.010
256.7742, 1367.702
257.2563, 1340.948
257.7384, 1313.358
258.2205, 1286.154
258.7026, 1257.770
259.1848, 1233.298
259.6669, 1214.250
260.1490, 1200.066
260.6311, 1187.295
261.1132, 1175.910
261.5953, 1166.043
262.0775, 1157.748
262.5596, 1150.504
263.0417, 1146.413
263.5238, 1146.841
264.0059, 1150.603
264.4880, 1151.612
264.9702, 1148.447
265.4523, 1145.231
265.9344, 1144.389
266.4165, 1146.007
266.8986, 1149.596
267.3807, 1155.109
267.8629, 1162.594
268.3450, 1172.684
268.8271, 1186.516
269.3092, 1200.463
269.7913, 1211.858
270.2734, 1219.151
270.7556, 1231.919
271.2377, 1252.749
271.7198, 1277.759
272.2019, 1297.519
272.6840, 1310.508
273.1661, 1323.602
273.6483, 1341.188
274.1304, 1364.306
274.6125, 1382.932
275.0946, 1396.458
275.5767, 1405.850
276.0588, 1413.554
276.5410, 1420.324
277.0231, 1421.283
277.5052, 1414.410
277.9873, 1399.650
278.4694, 1377.598
278.9515, 1346.994
279.4337, 1311.680
279.9158, 1276.023
280.3979, 1239.982
280.8800, 1205.229
281.3621, 1172.688
281.8442, 1142.296
282.3264, 1114.887
282.8085, 1090.630
283.2906, 1068.882
283.7727, 1048.569
284.2548, 1029.685
284.7369, 1014.200
285.2191, 1003.183
285.7012, 996.0090
286.1833, 989.6061
286.6654, 983.8516
287.1475, 979.6818
287.6296, 978.8268
288.1118, 980.9352
288.5939, 982.3699
289.0760, 981.7028
289.5581, 980.2610
290.0402, 981.7419
290.5223, 986.2278
291.0045, 991.2117
291.4866, 994.0507
291.9687, 995.4852
292.4508, 999.2798
292.9329, 1006.703
293.4150, 1015.880
293.8972, 1024.746
294.3793, 1033.179
294.8614, 1039.646
295.3435, 1040.193
295.8256, 1037.822
296.3077, 1041.604
296.7899, 1053.661
297.2720, 1068.991
297.7541, 1081.534
298.2362, 1091.527
298.7183, 1100.271
299.2004, 1105.601
299.6826, 1110.704
300.1647, 1122.773
300.6468, 1143.058
301.1289, 1165.244
301.6110, 1182.868
302.0931, 1197.249
302.5753, 1212.433
303.0574, 1230.690
303.5395, 1250.501
304.0216, 1269.600
304.5037, 1288.089
304.9858, 1306.464
305.4680, 1326.612
305.9501, 1346.815
306.4322, 1364.129
306.9143, 1379.952
307.3964, 1390.798
307.8785, 1392.871
308.3607, 1386.547
308.8428, 1375.705
309.3249, 1362.186
309.8070, 1345.843
310.2891, 1326.434
310.7712, 1302.533
311.2534, 1276.935
311.7355, 1250.090
312.2176, 1222.520
312.6997, 1197.083
313.1818, 1176.016
313.6639, 1157.592
314.1461, 1140.339
314.6282, 1124.104
315.1103, 1109.020
315.5924, 1095.262
316.0745, 1082.756
316.5566, 1071.128
317.0388, 1059.073
317.5209, 1048.878
318.0030, 1042.283
318.4851, 1040.365
318.9672, 1038.470
319.4493, 1034.533
319.9315, 1029.848
320.4136, 1026.077
320.8957, 1023.521
321.3778, 1022.159
321.8599, 1022.601
322.3420, 1025.100
322.8242, 1026.431
323.3063, 1024.060
323.7884, 1021.117
324.2705, 1020.333
324.7526, 1024.477
325.2347, 1028.341
325.7169, 1030.247
326.1990, 1030.453
326.6811, 1032.174
327.1632, 1036.217
327.6453, 1041.432
328.1274, 1047.191
328.6096, 1054.535
329.0917, 1061.136
329.5738, 1066.318
330.0559, 1070.606
330.5380, 1075.652
331.0201, 1079.626
331.5023, 1086.362
331.9844, 1097.980
332.4665, 1117.217
332.9486, 1134.228
333.4307, 1147.225
333.9128, 1158.847
334.3950, 1173.136
334.8771, 1190.298
335.3592, 1209.987
335.8413, 1232.140
336.3234, 1256.992
336.8055, 1283.060
337.2877, 1310.557
337.7698, 1338.589
338.2519, 1365.658
338.7340, 1390.072
339.2161, 1419.478
339.6982, 1456.445
340.1803, 1499.918
340.6624, 1540.805
341.1446, 1578.850
341.6267, 1616.714
342.1088, 1656.736
342.5909, 1698.513
343.0730, 1744.436
343.5551, 1794.850
344.0373, 1849.011
344.5194, 1903.403
345.0015, 1958.364
345.4836, 2016.243
345.9657, 2080.156
346.4478, 2148.871
346.9300, 2214.660
347.4121, 2276.802
347.8942, 2339.060
348.3763, 2407.275
348.8584, 2480.942
349.3405, 2558.579
349.8227, 2641.811
350.3048, 2728.147
350.7869, 2812.883
351.2690, 2895.734
351.7511, 2976.848
352.2332, 3055.825
352.7154, 3132.362
353.1975, 3205.889
353.6796, 3277.152
354.1617, 3344.359
354.6438, 3406.719
355.1259, 3463.721
355.6081, 3512.614
356.0902, 3553.414
356.5723, 3584.749
357.0544, 3605.285
357.5365, 3614.156
358.0186, 3612.809
358.5008, 3599.543
358.9829, 3576.655
359.4650, 3549.126
359.9471, 3525.530
360.4292, 3493.507
360.9113, 3443.239
361.3935, 3372.674
361.8756, 3296.120
362.3577, 3221.979
362.8398, 3144.264
363.3219, 3056.158
363.8040, 2950.993
364.2862, 2839.985
364.7683, 2724.506
365.2504, 2604.531
365.7325, 2486.840
366.2146, 2368.182
366.6967, 2254.151
367.1789, 2148.213
367.6610, 2049.238
368.1431, 1960.048
368.6252, 1881.750
369.1073, 1812.911
369.5894, 1749.898
370.0716, 1691.339
370.5537, 1639.473
371.0358, 1594.868
371.5179, 1558.272
372.0000, 1526.617
372.4821, 1500.961
372.9643, 1479.780
373.4464, 1461.282
373.9285, 1445.796
374.4106, 1432.592
374.8927, 1421.502
375.3748, 1412.469
375.8570, 1405.230
376.3391, 1399.766
376.8212, 1395.957
377.3033, 1393.716
377.7854, 1393.107
378.2675, 1393.790
378.7497, 1395.948
379.2318, 1399.165
379.7139, 1401.691
380.1960, 1403.224
380.6781, 1407.452
381.1602, 1416.885
381.6424, 1431.058
382.1245, 1446.841
382.6066, 1464.155
383.0887, 1483.438
383.5708, 1505.228
384.0529, 1529.491
384.5351, 1557.169
385.0172, 1589.446
385.4993, 1624.554
385.9814, 1660.508
386.4635, 1697.048
386.9456, 1735.396
387.4278, 1779.436
387.9099, 1824.728
388.3920, 1865.280
388.8741, 1900.879
389.3562, 1928.316
389.8383, 1947.017
390.3205, 1956.058
390.8026, 1952.262
391.2847, 1932.667
391.7668, 1900.611
392.2489, 1856.884
392.7310, 1800.678
393.2132, 1738.619
393.6953, 1669.831
394.1774, 1599.123
394.6595, 1531.755
395.1416, 1469.031
395.6237, 1410.997
396.1059, 1357.120
396.5880, 1307.540
397.0701, 1264.156
397.5522, 1228.815
398.0343, 1199.272
398.5164, 1174.367
398.9986, 1156.812
399.4807, 1140.293
399.9628, 1124.937
400.4449, 1110.451
400.9270, 1095.970
401.4091, 1080.057
401.8913, 1066.248
402.3734, 1056.139
402.8555, 1050.498
403.3376, 1044.086
403.8197, 1036.140
404.3018, 1028.297
404.7840, 1022.257
405.2661, 1018.121
405.7482, 1015.572
406.2303, 1015.319
406.7124, 1016.416
407.1945, 1014.365
407.6767, 1008.561
408.1588, 1002.540
408.6409, 998.8006
409.1230, 997.2093
409.6051, 995.4167
410.0872, 993.0470
410.5694, 990.9401
411.0515, 990.8890
411.5336, 992.5392
412.0157, 993.6527
412.4978, 992.4438
412.9799, 990.2819
413.4621, 990.3356
413.9442, 992.5622
414.4263, 994.6035
414.9084, 994.0029
415.3905, 992.0833
415.8727, 991.0256
416.3548, 991.7568
416.8369, 992.9252
417.3190, 992.9390
417.8011, 992.4204
418.2832, 993.0355
418.7654, 996.5259
419.2475, 1000.791
419.7296, 1004.481
420.2117, 1007.477
420.6938, 1009.861
421.1759, 1010.948
421.6581, 1011.710
422.1402, 1013.197
422.6223, 1015.738
423.1044, 1018.913
423.5865, 1023.182
424.0686, 1028.271
424.5508, 1032.295
425.0329, 1033.307
425.5150, 1034.629
425.9971, 1037.773
426.4792, 1043.457
426.9613, 1049.453
427.4435, 1055.435
427.9256, 1061.894
428.4077, 1069.542
428.8898, 1078.515
429.3719, 1088.728
429.8540, 1100.858
430.3362, 1114.603
430.8183, 1125.710
431.3004, 1133.072
431.7825, 1140.796
432.2646, 1151.595
432.7467, 1165.394
433.2289, 1184.371
433.7110, 1210.292
434.1931, 1238.295
434.6752, 1258.040
435.1573, 1270.292
435.6394, 1283.477
436.1216, 1301.787
436.6036, 1324.245
437.0858, 1349.156
437.5679, 1376.643
438.0500, 1404.226
438.5321, 1427.254
439.0142, 1449.343
439.4963, 1476.810
439.9785, 1513.162
440.4606, 1553.372
440.9427, 1593.158
441.4248, 1633.286
441.9069, 1675.535
442.3890, 1721.152
442.8712, 1768.948
443.3533, 1817.884
443.8354, 1867.504
444.3175, 1920.351
444.7996, 1979.403
445.2817, 2040.631
445.7639, 2100.316
446.2460, 2159.893
446.7281, 2215.758
447.2102, 2266.834
447.6923, 2313.339
448.1744, 2355.460
448.6566, 2394.835
449.1387, 2428.089
449.6208, 2453.297
450.1029, 2468.858
450.5850, 2481.748
451.0671, 2492.604
451.5493, 2499.981
452.0314, 2500.516
452.5135, 2492.376
452.9956, 2485.412
453.4777, 2482.302
453.9598, 2482.423
454.4420, 2482.546
454.9241, 2482.407
455.4062, 2484.743
455.8883, 2492.965
456.3704, 2505.767
456.8525, 2517.832
457.3347, 2528.924
457.8168, 2537.113
458.2989, 2541.065
458.7810, 2540.186
459.2631, 2532.604
459.7452, 2518.674
460.2274, 2496.757
460.7095, 2465.572
461.1916, 2424.874
461.6737, 2375.450
462.1558, 2312.150
462.6379, 2242.738
463.1201, 2174.244
463.6022, 2107.772
464.0843, 2041.174
464.5664, 1972.037
465.0485, 1902.389
465.5306, 1835.473
466.0128, 1772.481
466.4949, 1711.859
466.9770, 1652.896
467.4591, 1595.545
467.9412, 1543.664
468.4233, 1498.543
468.9055, 1457.279
469.3876, 1417.610
469.8697, 1378.463
470.3518, 1343.572
470.8339, 1313.531
471.3160, 1287.094
471.7982, 1261.543
472.2803, 1236.485
472.7624, 1213.850
473.2445, 1194.701
473.7266, 1178.648
474.2087, 1164.113
474.6909, 1151.166
475.1730, 1139.410
475.6551, 1129.765
476.1372, 1121.406
476.6193, 1110.317
477.1014, 1095.229
477.5836, 1079.719
478.0657, 1067.737
478.5478, 1058.887
479.0299, 1052.235
479.5120, 1050.005
479.9941, 1047.876
480.4763, 1040.915
480.9584, 1029.571
481.4405, 1018.939
481.9226, 1012.133
482.4047, 1007.029
482.8868, 1001.777
483.3690, 995.3335
483.8511, 990.2910
484.3332, 989.1259
484.8153, 989.4948
485.2974, 987.5446
485.7795, 980.0560
486.2617, 973.0632
486.7438, 967.7767
487.2259, 964.1713
487.7080, 961.4813
488.1901, 960.3239
488.6722, 959.2567
489.1544, 957.0861
489.6365, 953.0633
490.1186, 951.1952
490.6007, 952.3558
491.0828, 954.6028
491.5649, 955.1287
492.0471, 953.9128
492.5292, 951.1522
493.0113, 945.8496
493.4934, 939.6073
493.9755, 937.3066
494.4576, 938.7964
494.9398, 940.5199
495.4219, 939.6249
495.9040, 937.2072
496.3861, 935.3628
496.8682, 934.4205
497.3503, 933.4451
497.8325, 930.8747
498.3146, 927.9205
498.7967, 926.4106
499.2788, 928.6755
499.7609, 931.0929
500.2430, 932.4485
500.7252, 932.6351
501.2073, 931.1864
501.6894, 925.0276
502.1715, 919.6235
502.6536, 917.9484
503.1357, 922.1009
503.6179, 924.7570
504.1000, 924.8513
504.5821, 923.9468
505.0642, 923.6009
505.5463, 924.2090
506.0284, 924.4547
506.5106, 924.0399
506.9927, 923.1452
507.4748, 922.5999
507.9569, 922.6331
508.4390, 921.8199
508.9211, 918.0773
509.4033, 912.1750
509.8854, 911.4823
510.3675, 916.4998
510.8496, 922.4772
511.3317, 924.9533
511.8138, 924.6828
512.2960, 923.5265
512.7781, 921.5762
513.2602, 919.5862
513.7423, 918.1227
514.2244, 917.2274
514.7065, 916.9955
515.1887, 918.4846
515.6708, 919.8651
516.1529, 919.6226
516.6350, 917.7747
517.1171, 916.3107
517.5992, 916.2311
518.0814, 916.5812
518.5635, 916.7499
519.0456, 916.5707
519.5277, 916.3438
520.0098, 915.4126
520.4919, 914.7122
520.9741, 915.8870
521.4562, 920.4561
521.9383, 923.7777
522.4204, 924.4973
522.9025, 923.0462
523.3846, 922.1554
523.8668, 921.9039
524.3489, 921.8665
524.8310, 921.9854
525.3131, 922.1761
525.7952, 921.6624
526.2773, 920.3408
526.7595, 918.7121
527.2416, 917.1068
527.7237, 915.6573
528.2058, 914.6538
528.6879, 914.0901
529.1700, 914.1787
529.6522, 915.8966
530.1343, 918.5609
530.6164, 920.2238
531.0985, 918.8048
531.5806, 916.9541
532.0627, 916.4340
532.5449, 917.4603
533.0270, 918.2592
533.5091, 917.7526
533.9912, 917.2072
534.4733, 917.5248
534.9554, 919.3741
535.4376, 921.2823
535.9197, 923.5998
536.4018, 925.7762
536.8839, 926.6123
537.3660, 925.4440
537.8481, 924.7894
538.3303, 925.7591
538.8124, 927.7759
539.2945, 927.3075
539.7766, 924.0397
540.2587, 920.9642
540.7408, 920.3267
541.2230, 921.5953
541.7051, 922.9799
542.1872, 924.4105
542.6693, 925.5959
543.1514, 926.1120
543.6335, 926.2147
544.1157, 926.4427
544.5978, 927.4097
545.0799, 927.9257
545.5620, 926.6534
546.0441, 924.2631
546.5262, 922.4082
547.0084, 921.6180
547.4905, 921.5716
547.9726, 921.9290
548.4547, 922.6046
548.9368, 924.7496
549.4189, 930.7704
549.9011, 936.3706
550.3832, 939.0122
550.8653, 937.4722
551.3474, 935.6404
551.8295, 933.2078
552.3116, 930.9130
552.7938, 930.0970
553.2759, 930.9349
553.7580, 931.4841
554.2401, 931.0646
554.7222, 930.1725
555.2043, 929.8124
555.6865, 930.0213
556.1686, 931.1448
556.6507, 935.0275
557.1328, 939.3216
557.6149, 939.9943
558.0970, 936.8156
558.5792, 933.2645
559.0613, 931.5347
559.5434, 930.8370
560.0255, 930.3457
560.5076, 929.5344
560.9897, 929.5472
561.4719, 931.6157
561.9540, 934.5829
562.4361, 936.4933
562.9182, 936.1646
563.4003, 935.7873
563.8824, 935.4863
564.3646, 935.3566
564.8467, 936.4572
565.3288, 939.9227
565.8109, 942.2238
566.2930, 940.8065
566.7751, 935.4556
567.2573, 932.3242
567.7394, 931.5598
568.2215, 932.1768
568.7036, 933.8460
569.1857, 936.1442
569.6678, 937.4186
570.1500, 937.0199
570.6321, 936.2298
571.1142, 936.6042
571.5963, 937.7195
572.0784, 938.6134
572.5605, 939.1112
573.0427, 939.0637
573.5248, 938.1536
574.0069, 936.5254
574.4890, 934.9979
574.9711, 933.2405
575.4532, 932.1691
575.9354, 932.5408
576.4175, 935.0892
576.8996, 936.5420
577.3817, 936.2005
577.8638, 935.4343
578.3459, 935.4621
578.8281, 936.4376
579.3102, 937.6885
579.7923, 939.4175
580.2744, 940.9582
580.7565, 940.6305
581.2386, 938.5487
581.7208, 936.8446
582.2029, 936.4581
582.6850, 936.8439
583.1671, 937.0856
583.6492, 937.2089
584.1313, 937.3599
584.6134, 937.5597
585.0955, 937.8892
585.5776, 938.5601
586.0598, 939.6594
586.5419, 940.4520
587.0240, 940.1857
587.5061, 939.7501
587.9882, 939.8890
