##NAMES=Nickeline
##RRUFFID=R060906
##IDEAL CHEMISTRY=NiAs
##LOCALITY=Moose Horn mine, Timiskaming district, Ontario, Canada
##OWNER=RRUFF
##SOURCE=Royal Ontario Museum
##DESCRIPTION=Massive metallic lustered tarnished to dull copper color
##STATUS=The identification of this mineral has been confirmed by X-ray diffraction and chemical analysis
##URL=rruff.info/R060906
##MEASURED CHEMISTRY=Ni_1.00_(As_0.98_Sb_0.02_)_Î£=1_ ; trace amounts of Co and Fe
152.3785, 1314.821
152.8606, 1325.170
153.3427, 1325.156
153.8248, 1327.029
154.3069, 1336.210
154.7890, 1364.093
155.2712, 1383.723
155.7533, 1389.800
156.2354, 1384.466
156.7175, 1375.287
157.1996, 1357.756
157.6817, 1340.333
158.1639, 1327.985
158.6460, 1320.162
159.1281, 1318.992
159.6102, 1329.355
160.0923, 1349.625
160.5744, 1365.398
161.0566, 1367.369
161.5387, 1364.253
162.0208, 1363.896
162.5029, 1370.793
162.9850, 1379.157
163.4671, 1388.313
163.9493, 1398.309
164.4314, 1403.212
164.9135, 1395.424
165.3956, 1381.858
165.8777, 1371.655
166.3598, 1368.495
166.8420, 1370.023
167.3241, 1377.330
167.8062, 1392.500
168.2883, 1402.987
168.7704, 1396.568
169.2525, 1379.722
169.7346, 1365.346
170.2168, 1359.335
170.6989, 1359.311
171.1810, 1364.616
171.6631, 1377.683
172.1452, 1389.564
172.6273, 1392.854
173.1095, 1388.716
173.5916, 1381.133
174.0737, 1370.815
174.5558, 1358.874
175.0379, 1346.008
175.5201, 1329.082
176.0022, 1315.890
176.4843, 1318.586
176.9664, 1335.166
177.4485, 1352.846
177.9306, 1363.496
178.4128, 1368.373
178.8949, 1369.914
179.3770, 1366.454
179.8591, 1361.778
180.3412, 1363.158
180.8233, 1370.502
181.3055, 1377.040
181.7876, 1373.948
182.2697, 1364.512
182.7518, 1359.370
183.2339, 1364.568
183.7160, 1376.007
184.1982, 1384.233
184.6803, 1388.949
185.1624, 1393.027
185.6445, 1404.347
186.1266, 1420.204
186.6087, 1425.292
187.0908, 1403.554
187.5730, 1363.863
188.0551, 1341.384
188.5372, 1337.596
189.0193, 1345.837
189.5014, 1361.765
189.9835, 1384.927
190.4657, 1403.350
190.9478, 1409.524
191.4299, 1404.986
191.9120, 1400.501
192.3941, 1397.029
192.8762, 1392.728
193.3584, 1381.717
193.8405, 1363.533
194.3226, 1349.815
194.8047, 1349.057
195.2868, 1360.788
195.7689, 1373.754
196.2511, 1389.417
196.7332, 1403.352
197.2153, 1402.881
197.6974, 1386.235
198.1795, 1367.290
198.6616, 1354.436
199.1438, 1347.741
199.6259, 1343.744
200.1080, 1341.417
200.5901, 1341.812
201.0722, 1350.376
201.5543, 1369.401
202.0364, 1388.104
202.5186, 1396.792
203.0007, 1393.787
203.4828, 1393.610
203.9649, 1400.025
204.4470, 1411.131
204.9291, 1415.570
205.4113, 1411.198
205.8934, 1405.568
206.3755, 1406.000
206.8576, 1414.030
207.3397, 1420.909
207.8218, 1425.291
208.3040, 1427.156
208.7861, 1425.530
209.2682, 1419.058
209.7503, 1411.695
210.2324, 1408.035
210.7145, 1409.591
211.1967, 1409.910
211.6788, 1406.880
212.1609, 1400.448
212.6430, 1396.698
213.1251, 1397.038
213.6072, 1398.323
214.0894, 1396.206
214.5715, 1388.781
215.0536, 1383.086
215.5357, 1382.203
216.0178, 1387.047
216.4999, 1386.789
216.9820, 1378.694
217.4642, 1368.090
217.9463, 1363.101
218.4284, 1366.840
218.9105, 1369.064
219.3926, 1364.719
219.8747, 1350.814
220.3569, 1346.583
220.8390, 1356.166
221.3211, 1372.474
221.8032, 1384.448
222.2853, 1391.749
222.7674, 1395.217
223.2496, 1394.203
223.7317, 1386.600
224.2138, 1382.121
224.6959, 1382.144
225.1780, 1384.578
225.6601, 1385.844
226.1423, 1387.610
226.6244, 1385.298
227.1065, 1374.821
227.5886, 1347.276
228.0707, 1335.767
228.5528, 1347.646
229.0350, 1373.126
229.5171, 1387.683
229.9992, 1385.449
230.4813, 1381.701
230.9634, 1383.432
231.4455, 1395.043
231.9276, 1402.177
232.4098, 1403.360
232.8919, 1400.289
233.3740, 1397.994
233.8561, 1397.068
234.3382, 1396.058
234.8203, 1394.286
235.3025, 1391.626
235.7846, 1388.198
236.2667, 1381.847
236.7488, 1374.814
237.2309, 1376.238
237.7130, 1392.984
238.1952, 1408.807
238.6773, 1415.341
239.1594, 1409.932
239.6415, 1400.181
240.1236, 1381.326
240.6057, 1357.945
241.0879, 1350.539
241.5700, 1370.107
242.0521, 1391.150
242.5342, 1398.105
243.0163, 1378.717
243.4984, 1371.415
243.9806, 1384.639
244.4627, 1412.611
244.9448, 1427.446
245.4269, 1423.893
245.9090, 1413.728
246.3911, 1402.937
246.8732, 1389.078
247.3554, 1379.589
247.8375, 1374.996
248.3196, 1375.168
248.8017, 1380.586
249.2838, 1396.674
249.7659, 1410.704
250.2481, 1413.684
250.7302, 1397.890
251.2123, 1388.536
251.6944, 1389.948
252.1765, 1400.057
252.6586, 1407.979
253.1408, 1415.354
253.6229, 1418.474
254.1050, 1413.240
254.5871, 1392.856
255.0692, 1380.730
255.5513, 1380.684
256.0334, 1391.105
256.5156, 1404.409
256.9977, 1427.941
257.4798, 1443.668
257.9619, 1434.736
258.4440, 1383.383
258.9261, 1354.196
259.4083, 1361.564
259.8904, 1398.017
260.3725, 1417.535
260.8546, 1412.885
261.3367, 1403.001
261.8188, 1401.460
262.3010, 1411.664
262.7831, 1420.779
263.2652, 1429.632
263.7473, 1436.491
264.2294, 1429.296
264.7115, 1399.468
265.1937, 1371.327
265.6758, 1365.863
266.1579, 1392.099
266.6400, 1407.859
267.1221, 1404.402
267.6042, 1386.540
268.0864, 1378.339
268.5685, 1382.430
269.0506, 1390.448
269.5327, 1396.701
270.0148, 1400.767
270.4969, 1405.439
270.9791, 1412.348
271.4612, 1419.963
271.9433, 1420.368
272.4254, 1411.455
272.9075, 1401.231
273.3896, 1394.598
273.8718, 1391.459
274.3539, 1393.595
274.8360, 1403.571
275.3181, 1418.083
275.8002, 1424.840
276.2823, 1422.398
276.7645, 1417.268
277.2466, 1412.579
277.7287, 1407.976
278.2108, 1407.943
278.6929, 1414.235
279.1750, 1424.550
279.6572, 1432.095
280.1393, 1436.490
280.6214, 1439.959
281.1035, 1446.181
281.5856, 1455.307
282.0677, 1455.066
282.5499, 1441.862
283.0320, 1420.628
283.5141, 1401.914
283.9962, 1385.520
284.4783, 1373.566
284.9604, 1369.945
285.4425, 1374.018
285.9247, 1373.158
286.4068, 1363.397
286.8889, 1351.987
287.3710, 1356.477
287.8531, 1377.222
288.3352, 1397.309
288.8174, 1404.060
289.2995, 1399.778
289.7816, 1399.061
290.2637, 1403.871
290.7458, 1411.932
291.2279, 1422.086
291.7101, 1433.904
292.1922, 1440.455
292.6743, 1431.921
293.1564, 1413.768
293.6385, 1406.770
294.1206, 1415.386
294.6028, 1428.891
295.0849, 1432.708
295.5670, 1427.871
296.0491, 1420.775
296.5312, 1412.693
297.0133, 1405.234
297.4955, 1403.007
297.9776, 1407.274
298.4597, 1413.675
298.9418, 1416.133
299.4239, 1415.982
299.9060, 1418.063
300.3882, 1427.443
300.8703, 1440.049
301.3524, 1449.332
301.8345, 1454.816
302.3166, 1456.760
302.7987, 1453.311
303.2809, 1446.232
303.7630, 1439.969
304.2451, 1438.117
304.7272, 1437.578
305.2093, 1433.403
305.6914, 1424.726
306.1736, 1418.251
306.6557, 1421.748
307.1378, 1431.052
307.6199, 1438.415
308.1020, 1436.661
308.5841, 1434.015
309.0663, 1438.150
309.5484, 1449.561
310.0305, 1463.147
310.5126, 1482.521
310.9947, 1500.581
311.4768, 1507.373
311.9590, 1486.511
312.4411, 1462.928
312.9232, 1454.118
313.4053, 1459.835
313.8874, 1465.515
314.3695, 1462.014
314.8517, 1455.380
315.3337, 1451.867
315.8159, 1459.692
316.2980, 1465.395
316.7801, 1461.845
317.2622, 1449.922
317.7443, 1437.884
318.2264, 1426.378
318.7086, 1417.574
319.1907, 1413.169
319.6728, 1410.940
320.1549, 1415.909
320.6370, 1436.969
321.1191, 1469.486
321.6013, 1490.203
322.0834, 1485.242
322.5655, 1471.820
323.0476, 1459.519
323.5297, 1446.700
324.0118, 1438.904
324.4940, 1437.527
324.9761, 1441.865
325.4582, 1449.595
325.9403, 1470.051
326.4224, 1486.343
326.9045, 1490.694
327.3867, 1471.143
327.8688, 1457.733
328.3509, 1453.786
328.8330, 1456.236
329.3151, 1458.233
329.7972, 1457.553
330.2794, 1458.787
330.7615, 1464.352
331.2436, 1478.090
331.7257, 1485.881
332.2078, 1484.956
332.6899, 1479.489
333.1721, 1476.337
333.6542, 1477.412
334.1363, 1477.654
334.6184, 1474.539
335.1005, 1466.894
335.5826, 1465.262
336.0648, 1472.840
336.5469, 1482.950
337.0290, 1486.545
337.5111, 1480.423
337.9932, 1477.265
338.4753, 1481.687
338.9575, 1493.003
339.4396, 1499.222
339.9217, 1499.470
340.4038, 1496.503
340.8859, 1490.445
341.3680, 1480.103
341.8502, 1479.252
342.3323, 1495.922
342.8144, 1522.949
343.2965, 1527.887
343.7786, 1507.412
344.2607, 1486.614
344.7429, 1490.613
345.2250, 1516.721
345.7071, 1532.524
346.1892, 1530.935
346.6713, 1518.534
347.1534, 1505.377
347.6355, 1491.715
348.1176, 1482.460
348.5998, 1484.328
349.0819, 1493.404
349.5640, 1496.991
350.0461, 1491.936
350.5282, 1485.081
351.0103, 1486.292
351.4925, 1493.781
351.9746, 1500.609
352.4567, 1501.100
352.9388, 1499.008
353.4209, 1499.648
353.9030, 1503.478
354.3852, 1509.954
354.8673, 1523.609
355.3494, 1539.483
355.8315, 1547.631
356.3136, 1539.620
356.7957, 1524.645
357.2779, 1507.186
357.7600, 1487.292
358.2421, 1474.458
358.7242, 1477.500
359.2063, 1489.646
359.6884, 1502.950
360.1706, 1524.021
360.6527, 1537.297
361.1348, 1528.988
361.6169, 1501.789
362.0990, 1481.609
362.5811, 1483.051
363.0633, 1492.334
363.5454, 1499.485
364.0275, 1500.953
364.5096, 1501.700
364.9917, 1503.375
365.4738, 1505.350
365.9560, 1505.347
366.4381, 1505.070
366.9202, 1501.118
367.4023, 1490.770
367.8844, 1462.610
368.3665, 1447.255
368.8487, 1453.744
369.3308, 1472.887
369.8129, 1487.577
370.2950, 1497.266
370.7771, 1503.089
371.2592, 1504.089
371.7414, 1498.126
372.2235, 1496.852
372.7056, 1503.133
373.1877, 1511.780
373.6698, 1515.887
374.1519, 1512.922
374.6341, 1511.540
375.1162, 1515.298
375.5983, 1523.627
376.0804, 1524.403
376.5625, 1516.120
377.0446, 1503.545
377.5267, 1488.001
378.0089, 1467.830
378.4910, 1459.401
378.9731, 1468.642
379.4552, 1489.251
379.9373, 1503.432
380.4194, 1511.208
380.9016, 1514.089
381.3837, 1508.892
381.8658, 1498.022
382.3479, 1497.699
382.8300, 1512.127
383.3121, 1531.154
383.7943, 1539.480
384.2764, 1538.375
384.7585, 1534.947
385.2406, 1533.446
385.7227, 1531.983
386.2048, 1524.891
386.6870, 1510.993
387.1691, 1500.280
387.6512, 1504.265
388.1333, 1518.097
388.6154, 1532.614
389.0975, 1548.784
389.5797, 1560.607
390.0618, 1558.989
390.5439, 1545.257
391.0260, 1534.375
391.5081, 1539.736
391.9902, 1550.292
392.4724, 1555.251
392.9545, 1548.280
393.4366, 1539.481
393.9187, 1531.251
394.4008, 1524.410
394.8829, 1521.134
395.3651, 1525.728
395.8472, 1531.567
396.3293, 1535.327
396.8114, 1536.641
397.2935, 1535.708
397.7756, 1529.597
398.2578, 1521.720
398.7399, 1517.766
399.2220, 1521.826
399.7041, 1526.151
400.1862, 1530.316
400.6683, 1535.434
401.1505, 1532.395
401.6326, 1511.366
402.1147, 1490.210
402.5968, 1487.022
403.0789, 1511.333
403.5610, 1533.187
404.0432, 1548.555
404.5253, 1557.687
405.0074, 1561.275
405.4895, 1557.757
405.9716, 1552.482
406.4537, 1549.279
406.9359, 1548.432
407.4180, 1545.539
407.9001, 1539.339
408.3822, 1532.159
408.8643, 1528.120
409.3464, 1527.227
409.8285, 1528.712
410.3106, 1536.231
410.7928, 1546.351
411.2749, 1543.108
411.7570, 1524.070
412.2391, 1505.365
412.7212, 1509.358
413.2033, 1528.580
413.6855, 1540.085
414.1676, 1524.533
414.6497, 1504.621
415.1318, 1513.745
415.6139, 1548.599
416.0960, 1581.205
416.5782, 1592.047
417.0603, 1590.912
417.5424, 1588.758
418.0245, 1588.592
418.5066, 1587.067
418.9887, 1583.167
419.4709, 1576.512
419.9530, 1566.083
420.4351, 1543.414
420.9172, 1523.229
421.3993, 1514.699
421.8814, 1521.555
422.3636, 1528.373
422.8457, 1528.985
423.3278, 1528.889
423.8099, 1534.183
424.2920, 1560.545
424.7741, 1576.271
425.2563, 1568.375
425.7384, 1537.563
426.2205, 1524.798
426.7026, 1539.751
427.1847, 1562.448
427.6668, 1581.325
428.1490, 1597.984
428.6311, 1606.266
429.1132, 1602.999
429.5953, 1592.558
430.0774, 1586.584
430.5595, 1586.239
431.0417, 1585.770
431.5238, 1581.646
432.0059, 1573.908
432.4880, 1570.735
432.9701, 1573.250
433.4522, 1576.575
433.9344, 1572.539
434.4165, 1562.444
434.8986, 1557.586
435.3807, 1562.777
435.8628, 1574.507
436.3449, 1588.953
436.8271, 1605.537
437.3092, 1616.702
437.7913, 1610.733
438.2734, 1597.121
438.7555, 1591.878
439.2376, 1600.768
439.7197, 1611.138
440.2018, 1611.681
440.6840, 1605.638
441.1661, 1600.162
441.6482, 1599.688
442.1303, 1600.086
442.6124, 1597.731
443.0945, 1591.866
443.5767, 1589.270
444.0588, 1592.478
444.5409, 1600.059
445.0230, 1610.682
445.5051, 1638.411
445.9872, 1653.493
446.4694, 1640.964
446.9515, 1606.969
447.4336, 1588.254
447.9157, 1598.460
448.3978, 1611.874
448.8799, 1617.632
449.3621, 1613.374
449.8442, 1606.909
450.3263, 1596.638
450.8084, 1585.484
451.2905, 1578.205
451.7726, 1575.658
452.2548, 1574.063
452.7369, 1571.188
453.2190, 1567.891
453.7011, 1573.157
454.1832, 1588.739
454.6653, 1604.307
455.1475, 1610.068
455.6296, 1607.233
456.1117, 1604.223
456.5938, 1601.690
457.0759, 1601.147
457.5580, 1609.118
458.0402, 1622.980
458.5223, 1630.044
459.0044, 1615.555
459.4865, 1593.609
459.9686, 1582.478
460.4507, 1583.808
460.9329, 1590.789
461.4150, 1602.997
461.8971, 1616.373
462.3792, 1625.871
462.8613, 1627.056
463.3434, 1626.360
463.8256, 1627.331
464.3077, 1629.124
464.7898, 1627.933
465.2719, 1619.364
465.7540, 1609.891
466.2361, 1601.973
466.7183, 1592.179
467.2004, 1591.661
467.6825, 1608.656
468.1646, 1632.460
468.6467, 1649.308
469.1288, 1657.326
469.6110, 1660.671
470.0930, 1658.195
470.5752, 1650.457
471.0573, 1649.898
471.5394, 1661.415
472.0215, 1669.667
472.5036, 1657.893
472.9857, 1623.390
473.4679, 1606.348
473.9500, 1614.435
474.4321, 1635.617
474.9142, 1650.598
475.3963, 1659.584
475.8784, 1664.838
476.3606, 1666.464
476.8427, 1665.388
477.3248, 1664.173
477.8069, 1662.908
478.2890, 1659.030
478.7711, 1644.760
479.2533, 1627.916
479.7354, 1621.453
480.2175, 1636.575
480.6996, 1651.625
481.1817, 1647.934
481.6638, 1631.842
482.1460, 1619.996
482.6281, 1620.630
483.1102, 1626.352
483.5923, 1634.411
484.0744, 1645.285
484.5565, 1654.268
485.0387, 1660.762
485.5208, 1664.582
486.0029, 1665.372
486.4850, 1656.994
486.9671, 1654.170
487.4492, 1663.061
487.9314, 1679.479
488.4135, 1682.567
488.8956, 1665.363
489.3777, 1648.366
489.8598, 1643.166
490.3419, 1652.119
490.8241, 1653.908
491.3062, 1646.282
491.7883, 1636.979
492.2704, 1638.478
492.7525, 1649.777
493.2346, 1655.127
493.7168, 1646.249
494.1989, 1631.430
494.6810, 1627.879
495.1631, 1634.493
495.6452, 1641.671
496.1273, 1638.233
496.6095, 1632.925
497.0916, 1640.365
497.5737, 1665.390
498.0558, 1689.035
498.5379, 1699.568
499.0201, 1699.961
499.5022, 1694.373
499.9843, 1673.017
500.4664, 1656.678
500.9485, 1658.949
501.4306, 1677.446
501.9127, 1687.818
502.3948, 1681.558
502.8770, 1668.931
503.3591, 1654.018
503.8412, 1629.298
504.3233, 1618.287
504.8054, 1628.025
505.2875, 1647.205
505.7697, 1659.293
506.2518, 1662.536
506.7339, 1663.666
507.2160, 1664.072
507.6981, 1663.771
508.1802, 1662.410
508.6624, 1659.671
509.1445, 1657.978
509.6266, 1661.739
510.1087, 1668.880
510.5908, 1667.827
511.0729, 1655.463
511.5551, 1641.927
512.0372, 1641.815
512.5193, 1650.589
513.0014, 1656.207
513.4835, 1647.627
513.9656, 1637.927
514.4478, 1638.410
514.9299, 1648.356
515.4120, 1661.996
515.8941, 1680.173
516.3762, 1698.589
516.8583, 1715.290
517.3405, 1735.100
517.8226, 1742.012
518.3047, 1720.945
518.7868, 1687.943
519.2689, 1667.373
519.7510, 1665.419
520.2332, 1669.666
520.7153, 1681.238
521.1974, 1698.839
521.6795, 1706.968
522.1616, 1702.694
522.6437, 1694.882
523.1259, 1688.411
523.6080, 1683.247
524.0901, 1679.396
524.5722, 1676.577
525.0543, 1675.830
525.5364, 1679.763
526.0186, 1687.632
526.5007, 1694.613
526.9828, 1698.891
527.4649, 1701.290
527.9470, 1701.747
528.4291, 1700.787
528.9113, 1701.827
529.3934, 1713.038
529.8755, 1724.070
530.3576, 1722.440
530.8397, 1702.950
531.3218, 1686.224
531.8040, 1685.983
532.2861, 1692.758
532.7682, 1695.105
533.2503, 1683.994
533.7324, 1675.411
534.2145, 1672.677
534.6967, 1675.443
535.1788, 1681.318
535.6609, 1694.833
536.1430, 1705.666
536.6251, 1708.531
537.1072, 1701.759
537.5894, 1696.465
538.0715, 1692.905
538.5536, 1690.343
539.0357, 1687.224
539.5178, 1683.567
539.9999, 1684.271
540.4821, 1693.255
540.9642, 1703.310
541.4463, 1696.525
541.9284, 1676.080
542.4105, 1661.574
542.8926, 1666.847
543.3748, 1683.254
543.8569, 1703.367
544.3390, 1726.726
544.8211, 1743.716
545.3032, 1744.853
545.7853, 1738.321
546.2675, 1732.216
546.7495, 1727.456
547.2316, 1724.899
547.7137, 1726.641
548.1959, 1730.727
548.6780, 1732.620
549.1601, 1729.262
549.6422, 1726.753
550.1243, 1727.623
550.6064, 1732.060
551.0886, 1731.140
551.5707, 1721.214
552.0528, 1712.745
552.5349, 1714.054
553.0170, 1725.537
553.4991, 1741.372
553.9813, 1764.245
554.4634, 1783.454
554.9455, 1777.930
555.4276, 1751.854
555.9097, 1728.753
556.3918, 1717.846
556.8740, 1714.963
557.3561, 1718.287
557.8382, 1726.362
558.3203, 1730.947
558.8024, 1720.501
559.2845, 1708.593
559.7667, 1707.752
560.2488, 1722.828
560.7309, 1735.992
561.2130, 1741.109
561.6951, 1741.406
562.1772, 1740.467
562.6594, 1737.705
563.1415, 1734.740
563.6236, 1729.952
564.1057, 1725.084
564.5878, 1726.800
565.0699, 1738.144
565.5521, 1748.928
566.0342, 1755.644
566.5163, 1758.234
566.9984, 1755.514
567.4805, 1746.614
567.9626, 1737.097
568.4448, 1730.792
568.9269, 1727.965
569.4090, 1730.020
569.8911, 1738.272
570.3732, 1748.456
570.8553, 1759.120
571.3375, 1768.080
571.8196, 1770.095
572.3017, 1754.710
572.7838, 1738.901
573.2659, 1733.308
573.7480, 1737.188
574.2302, 1741.946
574.7123, 1747.851
575.1944, 1751.649
575.6765, 1750.589
576.1586, 1740.387
576.6407, 1736.597
577.1229, 1742.485
577.6050, 1752.033
578.0871, 1759.567
578.5692, 1766.057
579.0513, 1766.580
579.5334, 1758.002
580.0156, 1745.127
580.4977, 1743.074
580.9798, 1751.549
581.4619, 1754.246
581.9440, 1732.791
582.4261, 1702.031
582.9083, 1696.517
583.3904, 1715.997
583.8725, 1740.283
584.3546, 1759.933
584.8367, 1773.735
585.3188, 1779.556
585.8010, 1773.929
586.2831, 1767.565
586.7652, 1764.695
587.2473, 1763.959
587.7294, 1763.338
588.2115, 1760.632
588.6937, 1760.286
589.1758, 1765.741
589.6579, 1774.879
590.1400, 1775.667
590.6221, 1764.003
591.1042, 1752.129
591.5864, 1744.222
592.0685, 1740.188
592.5506, 1748.383
593.0327, 1771.523
593.5148, 1793.781
593.9969, 1796.790
594.4791, 1785.212
594.9612, 1775.543
595.4433, 1771.319
595.9254, 1768.762
596.4075, 1759.345
596.8896, 1748.770
597.3718, 1749.150
597.8539, 1787.191
598.3360, 1818.000
598.8181, 1807.318
599.3002, 1761.465
599.7823, 1733.149
600.2645, 1747.493
600.7466, 1770.667
601.2287, 1787.862
601.7108, 1798.218
602.1929, 1806.016
602.6750, 1812.107
603.1572, 1814.409
603.6393, 1808.008
604.1214, 1791.080
604.6035, 1784.291
605.0856, 1793.745
605.5677, 1809.091
606.0499, 1811.860
606.5320, 1803.650
607.0141, 1793.873
607.4962, 1781.869
607.9783, 1773.644
608.4604, 1781.704
608.9425, 1802.962
609.4246, 1818.505
609.9067, 1813.525
610.3889, 1802.210
610.8710, 1793.336
611.3531, 1787.314
611.8352, 1786.749
612.3173, 1797.913
612.7994, 1811.409
613.2816, 1818.995
613.7637, 1817.626
614.2458, 1816.013
614.7279, 1814.088
615.2100, 1812.816
615.6921, 1816.550
616.1743, 1826.721
616.6564, 1827.879
617.1385, 1806.496
617.6206, 1776.589
618.1027, 1781.611
618.5848, 1818.226
619.0670, 1850.779
619.5491, 1849.341
620.0312, 1833.659
620.5133, 1826.701
620.9954, 1831.365
621.4775, 1837.137
621.9597, 1839.043
622.4418, 1839.043
622.9239, 1839.113
623.4060, 1845.028
623.8881, 1843.230
624.3702, 1822.810
624.8524, 1797.228
625.3345, 1789.369
625.8166, 1807.678
626.2987, 1824.339
626.7808, 1833.602
627.2629, 1836.437
627.7451, 1834.738
628.2272, 1828.151
628.7093, 1823.685
629.1914, 1829.929
629.6735, 1840.720
630.1556, 1837.326
630.6378, 1819.508
631.1199, 1805.532
631.6020, 1815.358
632.0841, 1833.508
632.5662, 1842.495
633.0483, 1834.850
633.5305, 1827.950
634.0126, 1827.595
634.4947, 1831.936
634.9768, 1838.937
635.4589, 1859.503
635.9410, 1866.962
636.4232, 1851.095
636.9053, 1821.680
637.3874, 1809.593
637.8695, 1818.049
638.3516, 1831.851
638.8337, 1848.284
639.3159, 1864.982
639.7980, 1870.747
640.2801, 1865.606
640.7622, 1858.392
641.2443, 1854.680
641.7264, 1853.554
642.2086, 1855.183
642.6907, 1860.454
643.1728, 1861.530
643.6549, 1846.981
644.1370, 1829.032
644.6191, 1819.984
645.1013, 1830.661
645.5834, 1840.449
646.0655, 1848.286
646.5476, 1853.023
647.0297, 1850.802
647.5118, 1833.965
