##NAMES=Nickelskutterudite
##RRUFFID=R100196
##IDEAL CHEMISTRY=(Ni^4+^,Co^3+^,Fe^3+^)As_3_
##LOCALITY=Alhambra mine, Burro Mountains, Grant County, New Mexico, USA
##OWNER=RRUFF
##SOURCE=Ron Gibbs
##DESCRIPTION=Silver dodecahedral crystals, dissolved out of calcite
##STATUS=The identification of this mineral is confirmed by single-crystal X-ray diffraction and chemical analysis.
##URL=rruff.info/R100196
##MEASURED CHEMISTRY=(Ni_0.62_Co_0.28_Fe_0.12_)_Σ=1.02_(As_2.95_S_0.05_)_Σ=3.00_
93.49817, 73.40154
93.98029, 71.35164
94.46240, 69.46333
94.94452, 67.93065
95.42664, 66.44977
95.90874, 64.84443
96.39086, 63.13401
96.87298, 61.48462
97.35509, 60.07747
97.83721, 58.94649
98.31933, 57.68019
98.80145, 56.13120
99.28356, 54.53439
99.76568, 53.01927
100.2478, 51.62635
100.7299, 50.36036
101.2120, 49.25432
101.6941, 48.22178
102.1763, 47.45553
102.6584, 47.00671
103.1405, 46.80581
103.6226, 46.84202
104.1047, 47.16592
104.5868, 47.66099
105.0690, 47.53218
105.5511, 46.33348
106.0332, 45.08099
106.5153, 44.31293
106.9974, 43.98102
107.4795, 43.57534
107.9617, 42.55194
108.4438, 41.15159
108.9259, 40.22785
109.4080, 40.27235
109.8901, 40.70992
110.3722, 40.68939
110.8544, 40.02651
111.3365, 39.31591
111.8186, 38.92685
112.3007, 38.77594
112.7828, 38.72440
113.2649, 38.79487
113.7471, 38.96183
114.2292, 38.87412
114.7113, 38.28374
115.1934, 37.64490
115.6755, 37.01818
116.1576, 36.46959
116.6397, 36.13469
117.1219, 36.27110
117.6040, 37.25064
118.0861, 37.51894
118.5682, 36.52120
119.0503, 35.35699
119.5324, 34.68504
120.0146, 34.63847
120.4967, 34.89189
120.9788, 34.90813
121.4609, 34.46440
121.9430, 34.08886
122.4251, 33.77818
122.9073, 33.53507
123.3894, 33.37673
123.8715, 33.31396
124.3536, 33.31845
124.8357, 33.32123
125.3178, 33.30402
125.8000, 33.31739
126.2821, 33.52402
126.7642, 33.82372
127.2463, 33.80447
127.7284, 33.11342
128.2105, 32.08579
128.6927, 31.33541
129.1748, 30.90980
129.6569, 30.71789
130.1390, 30.79944
130.6211, 31.23707
131.1032, 31.45013
131.5854, 30.84018
132.0675, 29.99276
132.5496, 29.47843
133.0317, 29.57876
133.5138, 30.03211
133.9959, 30.20747
134.4781, 29.93414
134.9602, 29.63413
135.4423, 29.39013
135.9244, 29.20357
136.4065, 29.07040
136.8886, 28.98393
137.3708, 28.94705
137.8529, 29.00633
138.3350, 29.32393
138.8171, 29.58239
139.2992, 29.74071
139.7813, 29.78219
140.2635, 29.68250
140.7456, 29.40554
141.2277, 28.92039
141.7098, 28.52267
142.1919, 28.13141
142.6740, 27.86943
143.1561, 27.87191
143.6383, 28.11995
144.1204, 28.41917
144.6025, 28.59767
145.0846, 28.64104
145.5667, 28.51151
146.0488, 28.04266
146.5310, 27.47383
147.0131, 27.07100
147.4952, 26.89533
147.9773, 26.80539
148.4594, 26.56507
148.9415, 26.20931
149.4237, 26.07087
149.9058, 26.46995
150.3879, 27.19562
150.8700, 27.65089
151.3521, 27.68059
151.8342, 27.47577
152.3164, 27.22448
152.7985, 26.92575
153.2806, 26.56014
153.7627, 26.00521
154.2448, 25.24967
154.7269, 24.80658
155.2091, 25.14874
155.6912, 25.53099
156.1733, 25.55333
156.6554, 25.19509
157.1375, 24.71353
157.6196, 24.39730
158.1018, 24.26432
158.5839, 24.26187
159.0660, 24.58389
159.5481, 24.88558
160.0302, 24.88051
160.5123, 24.52498
160.9945, 24.05752
161.4766, 23.92596
161.9587, 24.63431
162.4408, 24.91046
162.9229, 24.34381
163.4050, 23.56838
163.8871, 23.22326
164.3693, 23.54126
164.8514, 24.21467
165.3335, 24.49539
165.8156, 24.06219
166.2977, 23.68520
166.7798, 23.38953
167.2620, 23.20573
167.7441, 23.23042
168.2262, 23.54613
168.7083, 24.00199
169.1904, 24.14903
169.6725, 23.85168
170.1547, 23.56899
170.6368, 23.45324
171.1189, 23.49060
171.6010, 23.66440
172.0831, 24.06807
172.5652, 24.51894
173.0474, 24.66353
173.5295, 24.37824
174.0116, 24.02479
174.4937, 23.92071
174.9758, 24.06502
175.4579, 24.10793
175.9401, 23.72359
176.4222, 23.24660
176.9043, 23.05950
177.3864, 23.28601
177.8685, 23.68330
178.3506, 23.95689
178.8328, 24.08381
179.3149, 24.16639
179.7970, 24.20447
180.2791, 24.23272
180.7612, 24.26410
181.2433, 24.29389
181.7255, 24.36566
182.2076, 24.61930
182.6897, 25.29856
183.1718, 25.69096
183.6539, 25.47598
184.1360, 25.02427
184.6181, 24.71814
185.1003, 24.74695
185.5824, 25.01282
186.0645, 25.17723
186.5466, 25.32612
187.0287, 25.23419
187.5108, 24.56167
187.9930, 23.71949
188.4751, 23.25510
188.9572, 23.49250
189.4393, 24.28944
189.9214, 24.85650
190.4035, 25.02260
190.8857, 25.14880
191.3678, 25.33529
191.8499, 25.52244
192.3320, 25.60036
192.8141, 25.49923
193.2962, 25.23484
193.7784, 24.91465
194.2605, 24.30440
194.7426, 23.89149
195.2247, 23.98300
195.7068, 24.43298
196.1889, 24.83090
196.6711, 24.93900
197.1532, 24.77851
197.6353, 24.54748
198.1174, 24.07271
198.5995, 23.68860
199.0816, 23.61657
199.5638, 23.82346
200.0459, 24.10163
200.5280, 24.40996
201.0101, 24.66784
201.4922, 24.69439
201.9743, 24.38007
202.4565, 23.93676
202.9386, 23.46890
203.4207, 22.97025
203.9028, 22.63354
204.3849, 22.75206
204.8670, 23.03702
205.3492, 23.05482
205.8313, 22.61754
206.3134, 22.02951
206.7955, 21.64963
207.2776, 21.49819
207.7597, 21.46320
208.2419, 21.52771
208.7240, 21.67081
209.2061, 21.90677
209.6882, 22.27385
210.1703, 22.66659
210.6524, 22.92751
211.1346, 23.08331
211.6167, 23.01601
212.0988, 22.54389
212.5809, 21.92043
213.0630, 21.34819
213.5451, 20.89623
214.0273, 20.59394
214.5094, 20.54580
214.9915, 20.94627
215.4736, 21.25486
215.9557, 21.28699
216.4378, 21.22494
216.9200, 21.28768
217.4021, 21.57892
217.8842, 21.95938
218.3663, 22.01489
218.8484, 21.38320
219.3305, 20.94119
219.8127, 20.89024
220.2948, 21.02260
220.7769, 21.13044
221.2590, 21.11926
221.7411, 21.01874
222.2232, 20.91410
222.7054, 20.71645
223.1875, 20.63125
223.6696, 20.75635
224.1517, 20.96879
224.6338, 21.12829
225.1159, 21.17282
225.5980, 21.13689
226.0802, 21.11945
226.5623, 21.12980
227.0444, 21.14872
227.5265, 21.12961
228.0086, 21.13128
228.4907, 21.24859
228.9729, 21.52596
229.4550, 21.89543
229.9371, 22.17463
230.4192, 22.26690
230.9013, 22.42484
231.3834, 22.82674
231.8656, 23.28614
232.3477, 23.52267
232.8298, 23.42280
233.3119, 23.08048
233.7940, 22.64093
234.2761, 22.00299
234.7583, 21.52551
235.2404, 21.33861
235.7225, 21.36496
236.2046, 21.49889
236.6867, 21.73641
237.1688, 21.99405
237.6510, 22.11369
238.1331, 22.08411
238.6152, 22.04584
239.0973, 22.09608
239.5794, 22.16776
240.0615, 22.09820
240.5437, 21.80691
241.0258, 21.43705
241.5079, 21.12826
241.9900, 20.86374
242.4721, 20.77366
242.9542, 21.09552
243.4364, 21.63798
243.9185, 21.86864
244.4006, 21.57041
244.8827, 21.14808
245.3648, 20.99573
245.8469, 21.08366
246.3290, 21.25796
246.8112, 21.63431
247.2933, 22.05778
247.7754, 21.95194
248.2575, 20.88795
248.7396, 19.89568
249.2217, 20.02110
249.7039, 20.93862
250.1860, 21.53285
250.6681, 20.82994
251.1502, 19.25990
251.6323, 18.50316
252.1144, 19.11407
252.5966, 19.76783
253.0787, 19.50972
253.5608, 18.68963
254.0429, 18.10006
254.5250, 18.34061
255.0071, 19.16972
255.4893, 19.63570
255.9714, 19.56117
256.4535, 19.38122
256.9356, 19.27167
257.4177, 19.21099
257.8998, 19.17621
258.3820, 19.19366
258.8641, 19.21045
259.3462, 18.99851
259.8283, 18.30914
260.3104, 17.81030
260.7925, 17.82263
261.2747, 18.08958
261.7568, 18.28848
262.2389, 18.26816
262.7210, 18.06618
263.2031, 17.75871
263.6852, 17.17759
264.1674, 16.79261
264.6495, 16.75898
265.1316, 16.92345
265.6137, 17.14822
266.0958, 17.37839
266.5779, 17.59653
267.0601, 17.74386
267.5422, 17.71540
268.0243, 17.81287
268.5064, 18.29132
268.9885, 18.78539
269.4706, 18.93352
269.9528, 18.61517
270.4349, 18.03998
270.9170, 17.59080
271.3991, 17.28336
271.8812, 17.09416
272.3633, 17.05779
272.8455, 17.09171
273.3276, 17.13581
273.8097, 17.17467
274.2918, 17.23024
274.7739, 17.35867
275.2560, 17.68696
275.7382, 17.80317
276.2202, 17.57051
276.7024, 17.27534
277.1845, 17.07441
277.6666, 17.00018
278.1487, 17.01651
278.6308, 17.09900
279.1129, 17.30694
279.5951, 17.36667
280.0772, 17.22314
280.5593, 17.00936
281.0414, 16.72074
281.5235, 16.40562
282.0056, 16.18987
282.4878, 16.21270
282.9699, 16.52174
283.4520, 16.72721
283.9341, 16.81384
284.4162, 16.83154
284.8983, 16.77066
285.3805, 16.65365
285.8626, 16.50992
286.3447, 16.34488
286.8268, 16.16260
287.3089, 16.19982
287.7910, 16.76095
288.2732, 17.19781
288.7553, 17.30842
289.2374, 17.15823
289.7195, 16.84123
290.2016, 16.38655
290.6837, 15.86894
291.1659, 15.71621
291.6480, 16.34856
292.1301, 16.85261
292.6122, 17.01274
293.0943, 16.97284
293.5764, 16.95758
294.0586, 17.07302
294.5407, 17.23164
295.0228, 17.19574
295.5049, 16.67094
295.9870, 16.30669
296.4691, 16.17982
296.9513, 16.20119
297.4334, 16.29893
297.9155, 16.44592
298.3976, 16.62121
298.8797, 16.80269
299.3618, 17.12395
299.8440, 17.16014
300.3261, 16.65788
300.8082, 16.03592
301.2903, 15.63656
301.7724, 15.52073
302.2545, 15.50936
302.7367, 15.38372
303.2188, 15.07969
303.7009, 14.92924
304.1830, 15.08076
304.6651, 15.24964
305.1472, 15.13807
305.6294, 14.81459
306.1115, 14.72122
306.5936, 15.33095
307.0757, 16.71668
307.5578, 17.24576
308.0399, 16.17137
308.5221, 15.14397
309.0042, 15.02236
309.4863, 15.55656
309.9684, 15.98567
310.4505, 15.80345
310.9326, 15.11822
311.4148, 14.69143
311.8969, 14.79219
312.3790, 14.79664
312.8611, 14.27818
313.3432, 13.61646
313.8253, 13.53098
314.3075, 14.38959
314.7896, 15.74180
315.2717, 16.42652
315.7538, 15.89991
316.2359, 15.48737
316.7180, 15.35973
317.2001, 15.36555
317.6823, 15.32385
318.1644, 15.18455
318.6465, 15.05917
319.1286, 15.13654
319.6107, 15.60978
320.0928, 15.79910
320.5750, 15.41385
321.0571, 14.95388
321.5392, 14.83694
322.0213, 15.08819
322.5034, 15.42255
322.9855, 15.56087
323.4677, 15.47667
323.9498, 15.35526
324.4319, 15.10231
324.9140, 14.90365
325.3961, 14.87520
325.8782, 14.98636
326.3604, 15.13134
326.8425, 15.24100
327.3246, 15.31697
327.8067, 15.37816
328.2888, 15.54338
328.7709, 15.56493
329.2531, 15.21777
329.7352, 14.71316
330.2173, 14.43373
330.6994, 14.57355
331.1815, 14.93889
331.6636, 15.00439
332.1458, 14.24237
332.6279, 13.83258
333.1100, 14.03578
333.5921, 14.49622
334.0742, 14.95816
334.5563, 15.32120
335.0385, 15.47374
335.5206, 15.20607
336.0027, 14.18548
336.4848, 13.61619
336.9669, 13.81823
337.4490, 14.16286
337.9312, 14.20803
338.4133, 13.96035
338.8954, 13.74555
339.3775, 13.89954
339.8596, 14.47967
340.3417, 14.70296
340.8239, 14.33778
341.3060, 13.91031
341.7881, 13.50748
342.2702, 13.18735
342.7523, 13.02255
343.2344, 13.05763
343.7166, 13.28301
344.1987, 13.65449
344.6808, 14.72156
345.1629, 15.28552
345.6450, 14.84992
346.1271, 14.00966
346.6093, 13.41220
347.0914, 13.29974
347.5735, 13.47485
348.0556, 13.56193
348.5377, 13.40924
349.0198, 13.45556
349.5020, 14.03587
349.9841, 14.54263
350.4662, 14.34210
350.9483, 13.50480
351.4304, 12.79199
351.9125, 13.15657
352.3947, 14.88917
352.8768, 15.74329
353.3589, 14.88128
353.8410, 13.98207
354.3231, 13.59572
354.8052, 13.63219
355.2874, 13.80564
355.7695, 13.94963
356.2516, 14.04622
356.7337, 13.98188
357.2158, 13.54245
357.6979, 13.23415
358.1800, 13.24648
358.6621, 13.38547
359.1443, 13.39569
359.6264, 13.18056
360.1085, 12.93692
360.5906, 13.08514
361.0727, 13.89598
361.5548, 14.38416
362.0370, 14.27817
362.5191, 13.97459
363.0012, 13.63438
363.4833, 13.31036
363.9654, 13.06688
364.4475, 12.98389
364.9297, 13.07002
365.4118, 13.17616
365.8939, 13.37680
366.3760, 13.51065
366.8581, 13.44974
367.3402, 13.27878
367.8224, 13.17588
368.3045, 13.26668
368.7866, 13.47937
369.2687, 13.58810
369.7508, 13.52237
370.2329, 13.50964
370.7151, 13.80072
371.1972, 14.09739
371.6793, 14.02999
372.1614, 13.45335
372.6435, 12.79900
373.1256, 12.61652
373.6078, 12.93501
374.0899, 13.31562
374.5720, 13.83574
375.0541, 14.23079
375.5362, 14.29192
376.0183, 14.03375
376.5005, 13.65021
376.9826, 13.16063
377.4647, 12.63163
377.9468, 12.32989
378.4289, 12.34411
378.9110, 12.42662
379.3932, 12.39796
379.8753, 12.31695
380.3574, 12.29649
380.8395, 12.36405
381.3216, 12.51479
381.8037, 12.81737
382.2859, 13.27888
382.7680, 13.56621
383.2501, 13.40032
383.7322, 13.06109
384.2143, 13.04647
384.6964, 13.48765
385.1786, 13.82016
385.6607, 13.57470
386.1428, 12.96949
386.6249, 12.58710
387.1070, 12.58157
387.5891, 12.77443
388.0713, 13.06344
388.5534, 13.43576
389.0355, 13.60824
389.5176, 13.33336
389.9997, 12.95096
390.4818, 12.85225
390.9640, 13.03819
391.4461, 13.16517
391.9282, 12.97908
392.4103, 12.53777
392.8924, 12.19245
393.3745, 11.78059
393.8567, 11.62872
394.3388, 12.11390
394.8209, 12.92302
395.3030, 13.42466
395.7851, 13.37365
396.2672, 13.00565
396.7494, 12.71199
397.2315, 12.45822
397.7136, 12.38530
398.1957, 12.63910
398.6778, 12.98213
399.1599, 13.31411
399.6420, 13.57446
400.1241, 13.57227
400.6063, 13.06984
401.0884, 12.03612
401.5705, 11.53043
402.0526, 11.85562
402.5347, 12.28938
403.0168, 12.67963
403.4990, 13.01992
403.9811, 13.34874
404.4632, 13.68562
404.9453, 13.96846
405.4274, 14.02819
405.9095, 13.65843
406.3917, 13.40951
406.8738, 13.35093
407.3559, 13.36753
407.8380, 13.42237
408.3201, 13.48331
408.8022, 13.47154
409.2844, 13.25733
409.7665, 12.81219
410.2486, 12.65154
410.7307, 13.14616
411.2128, 13.53042
411.6949, 13.51715
412.1771, 13.25780
412.6592, 13.01173
413.1413, 12.91063
413.6234, 12.87793
414.1055, 12.71585
414.5876, 12.32952
415.0698, 12.10337
415.5519, 12.25850
416.0340, 12.52014
416.5161, 12.76329
416.9982, 12.95757
417.4803, 13.01784
417.9625, 12.76069
418.4446, 12.25662
418.9267, 12.02073
419.4088, 12.23326
419.8909, 12.45508
420.3730, 12.33806
420.8552, 12.02882
421.3373, 11.82652
421.8194, 11.87362
422.3015, 12.02623
422.7836, 12.13211
423.2657, 12.19111
423.7479, 12.20030
424.2300, 12.09548
424.7121, 11.99950
425.1942, 12.14231
425.6763, 12.59424
426.1584, 12.91980
426.6406, 12.90706
427.1227, 12.65424
427.6048, 12.23786
428.0869, 11.64554
428.5690, 11.19238
429.0511, 11.22159
429.5333, 11.74178
430.0154, 12.11193
430.4975, 12.35554
430.9796, 12.42481
431.4617, 12.16055
431.9438, 11.69390
432.4260, 11.35885
432.9081, 11.32190
433.3902, 11.47430
433.8723, 11.55517
434.3544, 11.36683
434.8365, 11.44717
435.3187, 12.14055
435.8008, 12.89228
436.2829, 13.25749
436.7650, 13.18457
437.2471, 12.83099
437.7292, 12.28146
438.2114, 11.51745
438.6935, 11.22787
439.1756, 12.00172
439.6577, 12.60046
440.1398, 12.71239
440.6219, 12.49248
441.1040, 12.08054
441.5862, 11.53958
442.0683, 11.05888
442.5504, 11.07018
443.0325, 11.83865
443.5146, 12.28264
443.9967, 11.91509
444.4789, 11.53140
444.9610, 11.60077
445.4431, 12.05184
445.9252, 12.49013
446.4073, 12.60783
446.8894, 12.49110
447.3716, 12.49855
447.8537, 12.72424
448.3358, 12.83753
448.8179, 12.59879
449.3000, 12.21153
449.7821, 11.87403
450.2643, 11.62420
450.7464, 11.43775
451.2285, 11.25855
451.7106, 11.11229
452.1927, 11.16481
452.6748, 11.51473
453.1570, 11.93329
453.6391, 12.17649
454.1212, 12.28207
454.6033, 12.41063
455.0854, 12.75515
455.5675, 13.02211
456.0497, 12.80037
456.5318, 12.18661
457.0139, 11.81643
457.4960, 12.09937
457.9781, 12.72667
458.4602, 12.80205
458.9424, 11.93609
459.4245, 11.42418
459.9066, 11.81465
460.3887, 12.48742
460.8708, 12.81598
461.3529, 12.71021
461.8351, 12.43074
462.3172, 12.20403
462.7993, 12.03159
463.2814, 11.90989
463.7635, 11.91356
464.2456, 11.87886
464.7278, 11.71722
465.2099, 11.50751
465.6920, 11.33611
466.1741, 11.23909
466.6562, 11.24622
467.1383, 11.46407
467.6205, 12.05620
468.1026, 12.35114
468.5847, 12.07031
469.0668, 11.71565
469.5489, 11.39282
470.0310, 11.17628
470.5132, 11.21290
470.9953, 11.66734
471.4774, 12.36300
471.9595, 12.86779
472.4416, 13.17641
472.9237, 13.31269
473.4059, 13.21115
473.8880, 12.97379
474.3701, 12.62383
474.8522, 12.15651
475.3343, 11.81018
475.8164, 11.85734
476.2986, 12.13110
476.7807, 12.19800
477.2628, 11.98224
477.7449, 11.70544
478.2270, 11.47672
478.7091, 11.32436
479.1913, 11.33945
479.6734, 11.80533
480.1555, 12.12967
480.6376, 11.79033
481.1197, 11.11067
481.6018, 10.81630
482.0839, 11.15835
482.5660, 11.75305
483.0482, 12.07036
483.5303, 12.01074
484.0124, 12.00893
484.4945, 12.12976
484.9766, 12.24380
485.4587, 12.25296
485.9409, 12.19883
486.4230, 12.22050
486.9051, 12.40855
487.3872, 12.64670
487.8693, 12.56508
488.3514, 11.84086
488.8336, 11.40742
489.3157, 11.45862
489.7978, 11.67381
490.2799, 11.92119
490.7620, 12.14434
491.2441, 12.25411
491.7263, 12.11644
492.2084, 11.80929
492.6905, 11.74494
493.1726, 12.05159
493.6547, 12.29255
494.1368, 12.23189
494.6190, 12.04157
495.1011, 11.87219
495.5832, 11.74634
496.0653, 11.66976
496.5474, 11.75107
497.0295, 11.88996
497.5117, 11.67968
497.9938, 10.94947
498.4759, 10.34575
498.9580, 10.54058
499.4401, 11.36289
499.9222, 11.84612
500.4044, 11.81746
500.8865, 11.55897
501.3686, 10.98853
501.8507, 10.32206
502.3328, 10.04964
502.8149, 10.34954
503.2971, 10.87403
503.7792, 11.11411
504.2613, 10.92128
504.7434, 10.99644
505.2255, 11.78515
505.7076, 12.37442
506.1898, 12.13518
506.6719, 11.38275
507.1540, 10.79608
507.6361, 10.73395
508.1182, 11.00115
508.6003, 11.16043
509.0825, 11.19237
509.5646, 11.16802
510.0467, 11.02390
510.5288, 10.88522
511.0109, 10.83807
511.4930, 10.86217
511.9752, 10.86205
512.4573, 10.73106
512.9394, 10.56610
513.4215, 10.65573
513.9036, 11.06552
514.3857, 11.30033
514.8679, 10.99237
515.3500, 10.54631
515.8321, 10.53481
516.3142, 11.02534
516.7963, 11.42737
517.2784, 11.43682
517.7606, 11.23306
518.2427, 11.04875
518.7248, 10.90658
519.2069, 10.75577
519.6890, 10.54268
520.1711, 10.30021
520.6533, 10.20513
521.1354, 10.30065
521.6175, 10.45816
522.0996, 10.72989
522.5817, 11.01178
523.0638, 11.14647
523.5460, 11.13979
524.0281, 11.21350
524.5102, 11.64841
524.9923, 12.41919
525.4744, 12.57698
525.9565, 11.32312
526.4387, 10.49865
526.9208, 10.77336
527.4029, 11.47972
527.8850, 11.98521
528.3671, 12.11532
528.8492, 11.95326
529.3314, 11.38869
529.8135, 10.50134
530.2956, 10.12833
530.7777, 10.51102
531.2598, 11.00711
531.7419, 11.31837
532.2241, 11.45674
532.7062, 11.40314
533.1883, 11.09222
533.6704, 10.71292
534.1525, 10.24612
534.6346, 9.819972
535.1168, 9.820419
535.5989, 10.36752
536.0810, 10.99074
536.5631, 11.19443
537.0452, 10.95419
537.5273, 10.88022
538.0095, 11.19582
538.4916, 11.41298
538.9737, 11.28232
539.4558, 10.96313
539.9379, 10.68904
540.4200, 10.53883
540.9022, 10.44503
541.3843, 10.28409
541.8664, 9.994093
542.3485, 9.989882
542.8306, 10.47370
543.3127, 11.04106
543.7948, 11.72583
544.2769, 12.36528
544.7590, 12.73239
545.2411, 12.74402
545.7233, 12.48270
546.2054, 11.86497
546.6875, 10.93917
547.1696, 10.52387
547.6517, 10.95528
548.1339, 11.51229
548.6160, 11.52547
549.0981, 11.17260
549.5802, 10.94030
550.0623, 11.01302
550.5444, 11.12930
551.0266, 11.11799
551.5087, 11.02355
551.9908, 10.92780
552.4729, 10.85225
552.9550, 10.85485
553.4371, 11.05727
553.9193, 11.56033
554.4014, 11.62279
554.8835, 10.75507
555.3656, 10.05418
555.8477, 10.02153
556.3298, 10.37191
556.8120, 10.67912
557.2941, 10.78485
557.7762, 10.79109
558.2583, 10.81779
558.7404, 10.85535
559.2225, 11.00683
559.7047, 11.44637
560.1868, 11.76770
560.6689, 11.73040
561.1510, 11.47581
561.6331, 11.21033
562.1152, 10.94235
562.5974, 10.83182
563.0795, 11.26696
563.5616, 12.01693
564.0437, 12.15780
564.5258, 11.41739
565.0079, 10.45047
565.4901, 9.738576
565.9722, 9.319274
566.4543, 9.318663
566.9364, 10.22027
567.4185, 10.98463
567.9006, 11.10394
568.3828, 10.88818
568.8649, 10.81248
569.3470, 10.98755
569.8291, 11.14460
570.3112, 10.94730
570.7933, 10.36696
571.2755, 9.929629
571.7576, 9.519945
572.2397, 9.422064
572.7218, 9.965364
573.2039, 10.71199
573.6860, 11.12118
574.1682, 11.06883
574.6503, 10.98493
575.1324, 11.45282
575.6145, 12.27025
576.0966, 12.43314
576.5787, 11.71643
577.0609, 10.98756
577.5430, 10.74726
578.0251, 10.88127
578.5072, 11.09694
578.9893, 11.47367
579.4714, 11.74014
579.9536, 11.72559
580.4357, 11.57921
580.9178, 11.49587
581.3999, 11.48941
581.8820, 11.42377
582.3641, 11.17198
582.8463, 10.79297
583.3284, 10.63601
583.8105, 11.00279
584.2926, 11.15243
584.7747, 10.77983
585.2568, 10.37014
585.7390, 10.35086
586.2211, 10.68637
586.7032, 11.00117
587.1853, 11.00207
587.6674, 10.80963
