##NAMES=Nickeltalmessite
##RRUFFID=R090023
##IDEAL CHEMISTRY=Ca_2_Ni^2+^(As^5+^O_4_)_2_&#183;2H_2_O
##LOCALITY=Ait Ahmane, Bou Azzer, Morocco
##OWNER=RRUFF
##SOURCE=Wiiliam W. Pinch
##DESCRIPTION=Small pale green to colorless acicular crystals
##STATUS=The identification of this mineral has been confirmed only by single crystal X-ray diffraction.
##URL=rruff.info/R090023
92.37695, 618.7455
92.85907, 617.3465
93.34119, 617.8113
93.82330, 614.2957
94.30542, 609.4925
94.78754, 604.5843
95.26965, 600.9855
95.75177, 602.1761
96.23389, 613.6727
96.71600, 627.5413
97.19812, 637.0468
97.68024, 641.2284
98.16235, 642.6495
98.64447, 644.6588
99.12659, 648.1013
99.60870, 648.4197
100.0908, 646.6441
100.5729, 643.5263
101.0551, 639.3545
101.5372, 634.1563
102.0193, 627.9098
102.5014, 620.9216
102.9835, 609.5976
103.4656, 600.9562
103.9478, 596.7201
104.4299, 595.9391
104.9120, 596.7177
105.3941, 597.4874
105.8762, 598.0809
106.3583, 601.0605
106.8405, 607.3304
107.3226, 614.4977
107.8047, 623.4351
108.2868, 633.5526
108.7689, 640.1813
109.2510, 638.0179
109.7332, 626.7296
110.2153, 608.6232
110.6974, 579.1979
111.1795, 544.2610
111.6616, 511.5078
112.1437, 481.9499
112.6259, 456.9901
113.1080, 438.1506
113.5901, 425.0249
114.0722, 414.6152
114.5543, 405.2329
115.0364, 396.9003
115.5185, 391.0567
116.0007, 389.0297
116.4828, 389.1057
116.9649, 390.7730
117.4470, 393.8920
117.9291, 397.4802
118.4112, 400.3696
118.8934, 402.5865
119.3755, 403.8726
119.8576, 405.0519
120.3397, 405.0736
120.8218, 403.1599
121.3039, 398.9894
121.7861, 392.6960
122.2682, 384.5888
122.7503, 372.6019
123.2324, 360.8470
123.7145, 348.6917
124.1966, 337.0623
124.6788, 327.3090
125.1609, 320.1568
125.6430, 315.4726
126.1251, 312.1057
126.6072, 309.6088
127.0893, 308.4206
127.5715, 309.7730
128.0536, 313.0981
128.5357, 315.6192
129.0178, 314.9671
129.4999, 311.5915
129.9821, 309.2379
130.4642, 308.7615
130.9463, 308.9727
131.4284, 308.4161
131.9105, 306.7803
132.3926, 305.6202
132.8748, 307.2314
133.3569, 310.2040
133.8390, 311.8516
134.3211, 309.3625
134.8032, 304.4064
135.2853, 303.0383
135.7674, 307.7408
136.2496, 312.9276
136.7317, 316.0687
137.2138, 317.4331
137.6959, 317.8099
138.1780, 317.2198
138.6601, 315.3760
139.1423, 315.6396
139.6244, 320.3299
140.1065, 325.2886
140.5886, 328.9638
141.0707, 331.3097
141.5528, 333.2487
142.0350, 335.9301
142.5171, 339.9846
142.9992, 343.1057
143.4813, 345.4472
143.9634, 346.9620
144.4455, 347.0722
144.9277, 345.8108
145.4098, 344.4244
145.8919, 344.9640
146.3740, 348.3877
146.8561, 352.2258
147.3382, 357.2072
147.8204, 362.3152
148.3025, 366.0370
148.7846, 367.6565
149.2667, 368.3851
149.7488, 370.8538
150.2309, 375.3034
150.7131, 379.9883
151.1952, 384.4738
151.6773, 388.7354
152.1594, 392.4925
152.6415, 395.2008
153.1236, 397.8370
153.6058, 401.7551
154.0879, 407.0972
154.5700, 413.2271
155.0521, 419.4321
155.5342, 425.6339
156.0163, 432.9810
156.4985, 441.6390
156.9806, 451.8557
157.4627, 464.5687
157.9448, 480.4208
158.4269, 496.9845
158.9090, 510.8286
159.3912, 521.4504
159.8733, 530.2250
160.3554, 539.6491
160.8375, 546.7909
161.3196, 548.7653
161.8017, 544.1978
162.2839, 534.2637
162.7660, 522.3903
163.2481, 507.2574
163.7302, 491.6592
164.2123, 474.8265
164.6944, 458.0928
165.1766, 442.8756
165.6587, 429.8217
166.1408, 419.0847
166.6229, 411.5390
167.1050, 408.8243
167.5871, 407.4680
168.0693, 407.2076
168.5514, 407.8086
169.0335, 408.8539
169.5156, 409.9576
169.9977, 411.2732
170.4798, 414.6496
170.9620, 420.5707
171.4441, 427.5744
171.9262, 435.5961
172.4083, 444.3340
172.8904, 452.6588
173.3725, 459.2514
173.8547, 464.5576
174.3368, 472.2148
174.8189, 484.2947
175.3010, 497.3214
175.7831, 508.7506
176.2652, 518.5052
176.7474, 527.0441
177.2295, 535.2057
177.7116, 542.3184
178.1937, 546.2858
178.6758, 545.9847
179.1579, 542.5374
179.6401, 537.5294
180.1222, 531.0580
180.6043, 522.6730
181.0864, 510.3044
181.5685, 496.0927
182.0506, 483.6448
182.5328, 474.6089
183.0149, 468.5268
183.4970, 463.9149
183.9791, 460.6381
184.4612, 459.3998
184.9433, 460.7906
185.4255, 464.0181
185.9076, 467.8394
186.3897, 471.7599
186.8718, 475.6765
187.3539, 478.2628
187.8360, 476.5561
188.3182, 476.7206
188.8003, 480.9446
189.2824, 488.3985
189.7645, 497.3360
190.2466, 506.5302
190.7287, 516.0488
191.2109, 525.0364
191.6930, 531.5210
192.1751, 539.4161
192.6572, 549.9213
193.1393, 562.9196
193.6214, 578.0083
194.1036, 595.0141
194.5857, 614.4612
195.0678, 632.0248
195.5499, 649.6564
196.0320, 664.2844
196.5141, 675.4417
196.9963, 682.5612
197.4784, 684.4968
197.9605, 680.2947
198.4426, 669.3573
198.9247, 651.1204
199.4068, 619.4845
199.8890, 585.9520
200.3711, 557.5970
200.8532, 535.0268
201.3353, 515.4521
201.8174, 496.0883
202.2995, 477.0869
202.7817, 461.6335
203.2638, 450.8752
203.7459, 443.1275
204.2280, 437.1188
204.7101, 432.7181
205.1922, 429.5869
205.6744, 427.6065
206.1565, 426.7048
206.6386, 426.7650
207.1207, 428.3107
207.6028, 430.6092
208.0849, 432.7388
208.5671, 434.6641
209.0492, 436.3624
209.5313, 436.9620
210.0134, 437.2290
210.4955, 439.0977
210.9776, 445.0369
211.4598, 452.8627
211.9419, 457.5123
212.4240, 457.8544
212.9061, 457.1161
213.3882, 457.7686
213.8703, 458.8340
214.3525, 458.3666
214.8346, 454.7568
215.3167, 448.8476
215.7988, 444.0208
216.2809, 441.8577
216.7630, 438.1734
217.2451, 429.9646
217.7273, 419.3592
218.2094, 410.0177
218.6915, 404.3062
219.1736, 401.6983
219.6557, 399.2075
220.1378, 393.9451
220.6200, 396.0778
221.1021, 396.7126
221.5842, 395.9478
222.0663, 388.5758
222.5484, 390.5128
223.0305, 389.1941
223.5127, 388.0673
223.9948, 392.2841
224.4769, 387.6182
224.9590, 392.4339
225.4411, 393.9392
225.9232, 397.4540
226.4054, 394.7332
226.8875, 393.4683
227.3696, 393.8727
227.8517, 396.6637
228.3338, 400.4574
228.8159, 405.9572
229.2981, 412.2112
229.7802, 417.3628
230.2623, 420.0330
230.7444, 420.6554
231.2265, 424.1678
231.7086, 432.6942
232.1908, 441.5120
232.6729, 449.5828
233.1550, 457.1087
233.6371, 464.7128
234.1192, 472.8013
234.6013, 481.2657
235.0835, 489.2546
235.5656, 496.4646
236.0477, 503.6867
236.5298, 511.6785
237.0119, 519.8629
237.4940, 527.0305
237.9762, 532.4310
238.4583, 536.3385
238.9404, 540.0726
239.4225, 543.4112
239.9046, 546.8344
240.3867, 551.1660
240.8689, 555.7631
241.3510, 558.9081
241.8331, 559.5520
242.3152, 558.3566
242.7973, 557.3524
243.2794, 556.3514
243.7616, 555.7756
244.2437, 555.9158
244.7258, 556.6508
245.2079, 557.6241
245.6900, 558.7003
246.1721, 559.9398
246.6543, 561.2635
247.1364, 562.2482
247.6185, 564.3149
248.1006, 568.6494
248.5827, 574.7604
249.0648, 581.0480
249.5470, 587.2862
250.0291, 593.1113
250.5112, 598.1025
250.9933, 602.2693
251.4754, 605.8447
251.9576, 609.5072
252.4397, 612.8688
252.9218, 614.4376
253.4039, 614.1332
253.8860, 611.2003
254.3681, 605.0909
254.8503, 595.8407
255.3324, 585.2720
255.8145, 574.3182
256.2966, 562.9531
256.7787, 551.0476
257.2608, 538.6351
257.7430, 525.5326
258.2251, 511.1767
258.7072, 495.8551
259.1893, 481.4358
259.6714, 469.1520
260.1535, 458.8289
260.6357, 449.2470
261.1178, 439.7861
261.5999, 432.0330
262.0820, 427.3692
262.5641, 425.0440
263.0462, 422.7493
263.5284, 418.5596
264.0105, 412.9619
264.4926, 408.7184
264.9747, 405.9162
265.4568, 404.5916
265.9389, 405.0891
266.4211, 406.8326
266.9032, 408.6447
267.3853, 409.6657
267.8674, 410.2049
268.3495, 411.5327
268.8316, 413.2453
269.3138, 416.5869
269.7959, 423.2889
270.2780, 431.3940
270.7601, 437.8515
271.2422, 440.6781
271.7243, 441.1317
272.2065, 443.4732
272.6886, 449.0661
273.1707, 454.2781
273.6528, 458.8295
274.1349, 462.2970
274.6170, 464.0772
275.0992, 463.8734
275.5813, 462.0556
276.0634, 459.5922
276.5455, 456.8454
277.0276, 452.5934
277.5097, 446.6051
277.9919, 439.3488
278.4740, 430.9984
278.9561, 421.5931
279.4382, 411.7364
279.9203, 402.6170
280.4024, 395.1962
280.8846, 386.4734
281.3667, 373.8130
281.8488, 361.4333
282.3309, 352.6790
282.8130, 348.2936
283.2951, 346.4697
283.7773, 344.9633
284.2594, 344.6702
284.7415, 342.3301
285.2236, 335.4094
285.7057, 328.5740
286.1878, 324.3045
286.6700, 323.0421
287.1521, 323.9937
287.6342, 326.6430
288.1163, 331.7003
288.5984, 335.5766
289.0805, 337.7730
289.5627, 339.3383
290.0448, 340.4081
290.5269, 341.1965
291.0090, 342.1268
291.4911, 343.6812
291.9732, 345.9651
292.4554, 347.4709
292.9375, 346.6661
293.4196, 346.6194
293.9017, 348.2722
294.3838, 351.4903
294.8659, 356.0952
295.3481, 362.2655
295.8302, 369.7041
296.3123, 374.0253
296.7944, 370.5082
297.2765, 368.8322
297.7586, 371.6588
298.2408, 377.3602
298.7229, 383.4786
299.2050, 388.6564
299.6871, 393.1299
300.1692, 397.7538
300.6513, 401.8087
301.1335, 406.9680
301.6156, 414.9981
302.0977, 423.4890
302.5798, 429.3919
303.0619, 431.5445
303.5440, 431.9773
304.0262, 435.1187
304.5083, 443.8275
304.9904, 451.0233
305.4725, 456.4312
305.9546, 460.5353
306.4367, 463.7679
306.9189, 466.2080
307.4010, 467.6881
307.8831, 468.1942
308.3652, 468.8034
308.8473, 465.0881
309.3294, 454.3438
309.8116, 442.2023
310.2937, 432.1898
310.7758, 424.3736
311.2579, 416.5666
311.7400, 406.4571
312.2221, 393.3373
312.7043, 382.4864
313.1864, 374.4685
313.6685, 367.7258
314.1506, 361.9995
314.6327, 357.0454
315.1148, 352.4884
315.5970, 348.0566
316.0791, 343.7859
316.5612, 340.1940
317.0433, 336.8622
317.5254, 334.6578
318.0075, 335.2647
318.4897, 336.8275
318.9718, 336.1675
319.4539, 331.5395
319.9360, 324.6512
320.4181, 320.9872
320.9002, 324.2926
321.3824, 326.3621
321.8645, 325.4992
322.3466, 323.8391
322.8287, 323.6894
323.3108, 325.7569
323.7929, 328.7863
324.2751, 330.4870
324.7572, 329.2476
325.2393, 329.8678
325.7214, 333.6257
326.2035, 338.0274
326.6856, 341.2823
327.1678, 343.2531
327.6499, 345.1127
328.1320, 348.2272
328.6141, 352.9850
329.0962, 357.1099
329.5783, 359.5849
330.0605, 362.4783
330.5426, 366.4779
331.0247, 371.6433
331.5068, 377.8644
331.9889, 385.1469
332.4710, 393.4259
332.9532, 401.6451
333.4353, 409.3028
333.9174, 417.5386
334.3995, 427.0865
334.8816, 437.2042
335.3637, 446.3547
335.8459, 453.6148
336.3280, 460.4911
336.8101, 471.3879
337.2922, 489.6030
337.7743, 507.2576
338.2564, 523.6320
338.7386, 539.3634
339.2206, 554.5370
339.7028, 569.4030
340.1849, 584.7267
340.6670, 601.8551
341.1491, 621.5801
341.6312, 641.0708
342.1133, 658.8054
342.5955, 677.4657
343.0776, 699.3920
343.5597, 724.0336
344.0418, 748.5370
344.5239, 769.8837
345.0060, 787.7709
345.4882, 807.8470
345.9703, 832.4321
346.4524, 857.1292
346.9345, 881.0853
347.4166, 904.2880
347.8987, 926.7018
348.3809, 947.9370
348.8630, 968.7790
349.3451, 992.2151
349.8272, 1021.103
350.3093, 1048.540
350.7914, 1072.069
351.2736, 1094.258
351.7557, 1117.934
352.2378, 1144.122
352.7199, 1170.663
353.2020, 1193.889
353.6841, 1213.321
354.1663, 1230.742
354.6484, 1245.903
355.1305, 1259.544
355.6126, 1271.845
356.0947, 1282.880
356.5768, 1292.749
357.0590, 1302.583
357.5411, 1312.562
358.0232, 1316.914
358.5053, 1313.488
358.9874, 1306.147
359.4695, 1295.698
359.9517, 1282.847
360.4338, 1269.214
360.9159, 1256.990
361.3980, 1243.826
361.8801, 1221.925
362.3622, 1189.500
362.8444, 1152.100
363.3265, 1109.282
363.8086, 1063.997
364.2907, 1019.184
364.7728, 975.5907
365.2549, 932.1982
365.7371, 886.8679
366.2192, 838.9019
366.7013, 793.7062
367.1834, 752.6658
367.6655, 715.0093
368.1476, 679.5613
368.6298, 646.3152
369.1119, 617.4476
369.5940, 595.6997
370.0761, 580.0234
370.5582, 565.8616
371.0403, 553.2507
371.5225, 541.4857
372.0046, 529.2399
372.4867, 517.3563
372.9688, 507.9150
373.4509, 502.9166
373.9330, 500.1046
374.4152, 496.1947
374.8973, 491.0714
375.3794, 485.9186
375.8615, 481.0315
376.3436, 476.6629
376.8257, 473.0599
377.3079, 470.1439
377.7900, 468.2498
378.2721, 467.9048
378.7542, 468.8696
379.2363, 470.0279
379.7184, 470.8751
380.2006, 472.1717
380.6827, 474.8057
381.1648, 478.6579
381.6469, 483.6536
382.1290, 490.5033
382.6111, 498.2191
383.0933, 505.3457
383.5754, 511.7237
384.0575, 517.9653
384.5396, 524.2161
385.0217, 530.7525
385.5038, 539.1014
385.9860, 550.8811
386.4681, 563.0211
386.9502, 573.9618
387.4323, 583.7214
387.9144, 592.7761
388.3965, 601.4712
388.8787, 609.3254
389.3608, 615.1932
389.8429, 621.0309
390.3250, 621.7137
390.8071, 615.3082
391.2892, 603.5692
391.7714, 587.9533
392.2535, 568.9404
392.7356, 547.4849
393.2177, 524.5451
393.6998, 499.6293
394.1819, 475.4497
394.6641, 450.0666
395.1462, 426.9413
395.6283, 408.7469
396.1104, 394.7070
396.5925, 382.5053
397.0746, 370.5827
397.5568, 359.1923
398.0389, 349.3646
398.5210, 342.2848
399.0031, 335.4910
399.4852, 328.7201
399.9673, 322.0916
400.4495, 315.4064
400.9316, 308.7141
401.4137, 302.7757
401.8958, 299.0817
402.3779, 299.2813
402.8600, 297.1907
403.3422, 290.0063
403.8243, 283.3317
404.3064, 280.4290
404.7885, 280.6777
405.2706, 281.4183
405.7527, 280.6551
406.2349, 278.5838
406.7170, 276.7662
407.1991, 275.1284
407.6812, 273.9122
408.1633, 273.2647
408.6454, 272.9801
409.1276, 272.8592
409.6097, 272.8337
410.0918, 272.8957
410.5739, 273.0880
411.0560, 273.4683
411.5381, 273.6768
412.0203, 273.8457
412.5024, 273.6427
412.9845, 272.5694
413.4666, 270.8261
413.9487, 269.3344
414.4308, 268.9880
414.9130, 269.4400
415.3951, 269.3289
415.8772, 268.4518
416.3593, 267.5055
416.8414, 265.9398
417.3235, 264.7900
417.8057, 265.9565
418.2878, 270.9292
418.7699, 276.2358
419.2520, 278.1597
419.7341, 277.0491
420.2162, 276.3798
420.6984, 277.6158
421.1805, 279.1379
421.6626, 278.1516
422.1447, 274.5737
422.6268, 273.0090
423.1089, 276.2280
423.5911, 281.9143
424.0732, 287.4583
424.5553, 292.5706
425.0374, 296.4194
425.5195, 297.7697
426.0016, 297.1322
426.4838, 298.2448
426.9659, 302.6122
427.4480, 307.0784
427.9301, 309.7739
428.4122, 311.5607
428.8943, 314.0397
429.3765, 317.7599
429.8586, 322.9291
430.3407, 330.1734
430.8228, 341.6159
431.3049, 350.3765
431.7870, 353.8861
432.2692, 356.5538
432.7513, 361.1266
433.2334, 367.9252
433.7155, 376.5729
434.1976, 387.0388
434.6797, 399.0673
435.1619, 409.1440
435.6440, 415.0592
436.1261, 421.5468
436.6082, 429.0971
437.0903, 437.7163
437.5724, 447.6505
438.0546, 458.8956
438.5367, 470.7319
439.0188, 481.5674
439.5009, 490.0750
439.9830, 501.8854
440.4651, 520.2322
440.9473, 539.2750
441.4294, 556.3729
441.9115, 571.8707
442.3936, 587.2916
442.8757, 603.3608
443.3578, 620.2234
443.8400, 638.1221
444.3221, 657.8416
444.8042, 676.8271
445.2863, 693.4252
445.7684, 709.3297
446.2505, 726.3321
446.7327, 744.9275
447.2148, 762.5010
447.6969, 775.9879
448.1790, 786.0812
448.6611, 797.6097
449.1432, 813.4074
449.6254, 826.4495
450.1075, 828.8722
450.5896, 823.4171
451.0717, 817.7092
451.5538, 814.1106
452.0359, 810.8544
452.5181, 806.2071
453.0002, 800.3021
453.4823, 794.2462
453.9644, 788.6799
454.4465, 783.0879
454.9286, 775.6888
455.4108, 764.9005
455.8929, 757.2009
456.3750, 755.9871
456.8571, 757.5628
457.3392, 758.9855
457.8214, 759.4271
458.3035, 757.3846
458.7856, 751.4108
459.2677, 741.4575
459.7498, 729.8032
460.2319, 716.7845
460.7141, 701.9925
461.1962, 684.9743
461.6783, 666.1947
462.1604, 645.9741
462.6425, 624.4960
463.1246, 602.7633
463.6068, 582.6373
464.0889, 565.3258
464.5710, 546.7144
465.0531, 525.2587
465.5352, 504.0681
466.0173, 484.2657
466.4995, 465.9037
466.9816, 448.6468
467.4637, 432.1994
467.9458, 416.7642
468.4279, 403.1389
468.9100, 391.9799
469.3922, 380.8073
469.8743, 367.8424
470.3564, 355.1282
470.8385, 344.5741
471.3206, 336.4395
471.8027, 329.1451
472.2849, 321.1201
472.7670, 312.8582
473.2491, 306.7063
473.7312, 303.5105
474.2133, 300.5724
474.6954, 295.7923
475.1776, 289.8112
475.6597, 284.0849
476.1418, 278.6490
476.6239, 273.7952
477.1060, 269.8418
477.5881, 266.6670
478.0703, 263.8921
478.5524, 261.4745
479.0345, 259.1977
479.5166, 256.6765
479.9987, 253.7061
480.4808, 251.5101
480.9630, 251.2554
481.4451, 250.8869
481.9272, 248.6921
482.4093, 245.0800
482.8914, 241.5948
483.3735, 239.1281
483.8557, 237.5218
484.3378, 236.2250
484.8199, 236.1042
485.3020, 235.0077
485.7841, 231.6836
486.2662, 228.2143
486.7484, 226.2527
487.2305, 225.9192
487.7126, 226.2695
488.1947, 226.5021
488.6768, 226.6330
489.1589, 226.9595
489.6411, 227.7729
490.1232, 228.3071
490.6053, 228.1284
491.0874, 227.6744
491.5695, 227.6864
492.0516, 228.4517
492.5338, 228.6806
493.0159, 226.5529
493.4980, 222.3768
493.9801, 218.9769
494.4622, 216.8173
494.9443, 215.3857
495.4265, 214.5922
495.9086, 214.2204
496.3907, 213.6755
496.8728, 212.0534
497.3549, 210.8794
497.8370, 212.4312
498.3192, 215.7482
498.8013, 216.7855
499.2834, 213.4803
499.7655, 208.7244
500.2476, 207.4856
500.7297, 211.1871
501.2119, 213.2743
501.6940, 211.4619
502.1761, 209.4633
502.6582, 210.5114
503.1403, 213.8451
503.6224, 216.3846
504.1045, 216.1677
504.5866, 213.8872
505.0688, 211.9734
505.5509, 209.8755
506.0330, 209.1174
506.5151, 211.3687
506.9972, 213.6843
507.4793, 213.8706
507.9615, 211.8454
508.4436, 208.7943
508.9257, 205.0848
509.4078, 201.1695
509.8899, 200.3427
510.3720, 204.2986
510.8542, 207.6437
511.3363, 207.6086
511.8184, 206.3693
512.3005, 206.0844
512.7827, 207.2095
513.2648, 208.4767
513.7469, 208.8251
514.2290, 208.5708
514.7111, 208.9016
515.1932, 210.2216
515.6754, 210.8529
516.1575, 209.0863
516.6396, 205.4662
517.1217, 202.7640
517.6038, 201.2131
518.0859, 200.4354
518.5681, 200.6969
519.0502, 201.5092
519.5323, 201.9063
520.0144, 201.6309
520.4965, 201.5118
520.9786, 202.8078
521.4608, 206.1354
521.9429, 207.0193
522.4250, 203.4255
522.9071, 200.0164
523.3892, 198.6361
523.8713, 198.4701
524.3535, 198.0911
524.8356, 196.9210
525.3177, 195.5726
525.7998, 195.0136
526.2819, 195.2750
526.7640, 196.2215
527.2462, 199.1475
527.7283, 201.3516
528.2104, 200.6783
528.6925, 198.3474
529.1746, 197.3246
529.6567, 199.5278
530.1389, 202.5512
530.6210, 202.8219
531.1031, 200.5244
531.5852, 199.0389
532.0673, 199.7840
532.5494, 200.9992
533.0316, 200.1212
533.5137, 197.3133
533.9958, 195.4049
534.4779, 194.9798
534.9600, 195.6451
535.4421, 197.7940
535.9243, 200.8638
536.4064, 203.3194
536.8885, 204.4772
537.3706, 204.2980
537.8527, 202.5035
538.3348, 196.9149
538.8170, 194.1746
539.2991, 197.0469
539.7812, 200.0660
540.2633, 199.3472
540.7454, 196.0227
541.2275, 193.8068
541.7097, 195.0511
542.1918, 198.5439
542.6739, 201.3742
543.1560, 203.7944
543.6381, 204.7614
544.1202, 202.7331
544.6024, 200.2214
545.0845, 199.1525
545.5666, 199.2132
546.0487, 198.3864
546.5308, 193.9276
547.0129, 188.7957
547.4951, 188.3007
547.9772, 192.3188
548.4593, 196.3538
548.9414, 198.7722
549.4235, 199.9215
549.9056, 200.1254
550.3878, 199.2484
550.8699, 198.5187
551.3520, 198.4474
551.8341, 198.3940
552.3162, 197.5871
552.7983, 196.2579
553.2805, 195.3014
553.7626, 195.2245
554.2447, 195.9147
554.7268, 197.1508
555.2089, 200.0194
555.6910, 201.4358
556.1732, 200.0419
556.6553, 198.4695
557.1374, 198.6643
557.6195, 200.1852
558.1016, 201.1826
558.5837, 200.3806
559.0659, 198.4836
559.5480, 197.0404
560.0301, 196.0559
560.5122, 195.5533
560.9943, 195.8011
561.4764, 196.3125
561.9586, 196.6583
562.4407, 196.8350
562.9228, 196.8584
563.4049, 196.4210
563.8870, 196.0497
564.3691, 196.5842
564.8513, 197.8146
565.3334, 198.4798
565.8155, 197.8931
566.2976, 196.7932
566.7797, 196.6140
567.2618, 197.9648
567.7440, 198.8562
568.2261, 199.7056
568.7082, 199.7168
569.1903, 197.4593
569.6724, 194.0407
570.1545, 192.0088
570.6367, 192.7876
571.1188, 195.1805
571.6009, 196.8238
572.0830, 197.7815
572.5651, 197.7455
573.0472, 195.6892
573.5294, 193.5888
574.0115, 192.6038
574.4936, 192.4366
574.9757, 192.1660
575.4578, 191.2596
575.9399, 190.2982
576.4221, 189.9746
576.9042, 190.2100
577.3863, 190.5905
577.8684, 191.0425
578.3505, 191.4752
578.8326, 191.7312
579.3148, 191.7902
579.7969, 192.0893
580.2790, 193.1614
580.7611, 193.9325
581.2432, 193.8079
581.7253, 193.0571
582.2075, 191.9159
582.6896, 190.5306
583.1717, 189.4807
583.6538, 189.6492
584.1359, 191.2066
584.6180, 192.7755
585.1002, 194.7377
585.5823, 196.2463
586.0643, 196.9898
586.5464, 197.1638
587.0286, 196.9503
587.5107, 196.3774
587.9928, 195.7218
588.4749, 195.3109
588.9570, 195.0460
589.4391, 194.3841
