##NAMES=Nickelskutterudite
##RRUFFID=R100196
##IDEAL CHEMISTRY=(Ni^4+^,Co^3+^,Fe^3+^)As_3_
##LOCALITY=Alhambra mine, Burro Mountains, Grant County, New Mexico, USA
##OWNER=RRUFF
##SOURCE=Ron Gibbs
##DESCRIPTION=Silver dodecahedral crystals, dissolved out of calcite
##STATUS=The identification of this mineral is confirmed by single-crystal X-ray diffraction and chemical analysis.
##URL=rruff.info/R100196
##MEASURED CHEMISTRY=(Ni_0.62_Co_0.28_Fe_0.12_)_Σ=1.02_(As_2.95_S_0.05_)_Σ=3.00_
166.7276, 73.88287
167.2097, 74.72022
167.6918, 78.33740
168.1739, 84.28340
168.6560, 89.08492
169.1381, 89.24010
169.6203, 87.47644
170.1024, 86.51047
170.5845, 89.02010
171.0666, 92.54591
171.5487, 95.43446
172.0309, 97.66147
172.5130, 98.46712
172.9951, 95.97764
173.4772, 91.94604
173.9593, 89.09933
174.4414, 89.75659
174.9236, 91.43171
175.4057, 91.02264
175.8878, 88.49280
176.3699, 86.29366
176.8520, 86.75631
177.3341, 89.05413
177.8163, 91.41590
178.2984, 93.42521
178.7805, 94.92544
179.2626, 95.49802
179.7447, 95.08061
180.2268, 94.35616
180.7090, 93.50405
181.1911, 92.78239
181.6732, 93.04350
182.1553, 95.73550
182.6374, 99.53425
183.1195, 101.3440
183.6017, 100.9083
184.0838, 99.72624
184.5659, 99.48437
185.0480, 100.0274
185.5301, 100.5675
186.0123, 100.9287
186.4944, 101.0137
186.9765, 100.2216
187.4586, 98.28381
187.9407, 96.36526
188.4228, 96.05537
188.9050, 97.26582
189.3871, 99.21953
189.8692, 101.8248
190.3513, 104.9172
190.8334, 107.9263
191.3155, 110.9963
191.7977, 113.4990
192.2798, 114.1358
192.7619, 112.9172
193.2440, 111.4541
193.7261, 110.1663
194.2082, 109.1406
194.6904, 109.5800
195.1725, 111.8855
195.6546, 115.0062
196.1367, 116.8977
196.6188, 117.5047
197.1009, 117.8373
197.5831, 118.6617
198.0652, 119.9809
198.5473, 120.0605
199.0294, 118.3787
199.5115, 116.0194
199.9937, 115.4408
200.4758, 116.9200
200.9579, 118.4147
201.4400, 118.7837
201.9221, 117.9620
202.4042, 116.8266
202.8864, 115.1500
203.3685, 113.4580
203.8506, 113.2869
204.3327, 115.0440
204.8148, 116.6674
205.2969, 116.7125
205.7791, 114.8176
206.2612, 114.1034
206.7433, 115.1387
207.2254, 117.1551
207.7075, 118.0808
208.1896, 117.5658
208.6718, 116.9889
209.1539, 117.2250
209.6360, 118.5255
210.1181, 119.4326
210.6002, 120.0824
211.0823, 120.1881
211.5645, 118.6779
212.0466, 114.9191
212.5287, 111.0305
213.0108, 107.9733
213.4929, 105.6007
213.9750, 104.6692
214.4572, 105.7968
214.9393, 108.1571
215.4214, 109.2037
215.9035, 108.3356
216.3856, 107.3809
216.8678, 107.6585
217.3499, 110.1236
217.8320, 110.5270
218.3141, 107.7711
218.7962, 103.0884
219.2783, 100.4720
219.7605, 100.7229
220.2426, 101.6125
220.7247, 102.0292
221.2068, 101.8826
221.6889, 101.4718
222.1710, 100.5808
222.6532, 99.48790
223.1353, 99.19556
223.6174, 100.2249
224.0995, 101.1823
224.5816, 101.2794
225.0637, 100.0080
225.5459, 99.17583
226.0280, 98.89941
226.5101, 99.08193
226.9922, 99.47877
227.4743, 100.2585
227.9564, 100.9928
228.4386, 101.4205
228.9207, 101.2272
229.4028, 101.4875
229.8849, 102.3876
230.3670, 103.7066
230.8492, 104.9036
231.3313, 106.1168
231.8134, 106.9838
232.2955, 107.4118
232.7776, 107.6297
233.2597, 106.7288
233.7419, 103.8489
234.2240, 100.0838
234.7061, 98.50184
235.1882, 100.2570
235.6703, 102.4283
236.1524, 103.7143
236.6346, 103.3595
237.1167, 103.9219
237.5988, 105.9918
238.0809, 108.7653
238.5630, 110.3035
239.0451, 109.8196
239.5273, 109.2627
240.0094, 109.4756
240.4915, 110.9017
240.9736, 111.9030
241.4557, 112.1956
241.9378, 112.1920
242.4200, 112.8006
242.9021, 114.4575
243.3842, 116.0550
243.8663, 117.1365
244.3484, 117.4607
244.8306, 117.9700
245.3127, 118.5769
245.7948, 119.4076
246.2769, 120.9188
246.7590, 124.1799
247.2411, 126.2583
247.7233, 125.6337
248.2054, 120.9592
248.6875, 118.8367
249.1696, 120.8490
249.6517, 124.3691
250.1338, 124.8942
250.6160, 120.6064
251.0981, 116.6007
251.5802, 114.7198
252.0623, 115.5578
252.5444, 115.2537
253.0265, 112.9806
253.5087, 110.2470
253.9908, 109.4759
254.4729, 111.9961
254.9550, 113.7431
255.4371, 113.2129
255.9192, 109.9720
256.4014, 108.1179
256.8835, 108.2536
257.3656, 109.1796
257.8477, 109.4949
258.3298, 109.1379
258.8120, 108.2687
259.2941, 106.6683
259.7762, 104.2353
260.2583, 102.8012
260.7404, 102.7687
261.2225, 103.2154
261.7047, 103.1956
262.1868, 102.6634
262.6689, 101.7388
263.1510, 100.2348
263.6331, 98.19500
264.1152, 96.79902
264.5974, 96.12068
265.0795, 95.99063
265.5616, 96.32164
266.0437, 97.23079
266.5258, 98.27187
267.0079, 99.54796
267.4901, 100.9639
267.9722, 101.4727
268.4543, 100.8194
268.9364, 99.78594
269.4185, 99.05348
269.9006, 98.76686
270.3828, 98.08651
270.8649, 96.58867
271.3470, 94.62065
271.8291, 93.96939
272.3112, 95.03413
272.7933, 96.34729
273.2755, 96.74917
273.7576, 96.07087
274.2397, 95.66616
274.7218, 95.74741
275.2039, 96.17021
275.6860, 96.61039
276.1682, 97.17464
276.6503, 97.37101
277.1324, 96.63562
277.6145, 94.86073
278.0966, 93.72585
278.5787, 93.43900
279.0609, 93.76940
279.5430, 94.50237
280.0251, 95.80265
280.5072, 96.47558
280.9893, 95.15719
281.4715, 91.87765
281.9536, 90.90730
282.4357, 92.98139
282.9178, 96.33327
283.3999, 98.03494
283.8820, 98.02991
284.3642, 97.37400
284.8463, 96.22806
285.3284, 94.67128
285.8105, 93.68740
286.2926, 93.28649
286.7747, 93.40916
287.2569, 94.31314
287.7390, 95.95170
288.2211, 97.11550
288.7032, 97.20557
289.1853, 96.40075
289.6674, 95.35445
290.1496, 94.00022
290.6317, 92.80579
291.1138, 92.41352
291.5959, 92.72430
292.0780, 93.04389
292.5602, 93.08288
293.0423, 93.00138
293.5244, 93.22791
294.0065, 93.77072
294.4886, 94.43629
294.9707, 95.40585
295.4529, 96.44013
295.9350, 96.57365
296.4171, 95.13843
296.8992, 93.06932
297.3813, 91.87046
297.8634, 91.52644
298.3456, 91.86414
298.8277, 93.54078
299.3098, 95.76952
299.7919, 96.67142
300.2740, 95.47887
300.7561, 93.47318
301.2383, 92.14042
301.7204, 91.40494
302.2025, 91.02196
302.6846, 90.98719
303.1667, 91.15659
303.6488, 91.40220
304.1310, 91.81196
304.6131, 91.95131
305.0952, 90.55983
305.5773, 88.41903
306.0594, 87.64322
306.5415, 91.32908
307.0237, 95.95789
307.5058, 97.31180
307.9879, 94.54785
308.4700, 91.57288
308.9521, 91.94707
309.4343, 94.09234
309.9164, 95.23192
310.3985, 92.88554
310.8806, 89.95743
311.3627, 88.96656
311.8448, 90.03850
312.3270, 90.86165
312.8091, 88.99269
313.2912, 86.43068
313.7733, 85.53699
314.2554, 89.14192
314.7375, 92.90347
315.2197, 94.44369
315.7018, 93.97154
316.1839, 93.27270
316.6660, 92.89027
317.1481, 92.75992
317.6302, 92.84747
318.1124, 93.41602
318.5945, 93.86003
319.0766, 94.00308
319.5587, 93.86555
320.0408, 93.52603
320.5229, 92.35088
321.0051, 91.44104
321.4872, 91.56059
321.9693, 93.78394
322.4514, 95.22849
322.9335, 94.80112
323.4156, 93.24630
323.8978, 91.99846
324.3799, 91.45167
324.8620, 91.12322
325.3441, 90.83990
325.8262, 90.55427
326.3083, 90.43618
326.7905, 90.59701
327.2726, 90.90121
327.7547, 91.17919
328.2368, 91.80746
328.7189, 92.00912
329.2010, 91.32755
329.6832, 89.60676
330.1653, 88.83235
330.6474, 89.99104
331.1295, 91.38581
331.6116, 91.56361
332.0938, 89.22583
332.5759, 87.75920
333.0580, 87.92326
333.5401, 89.45399
334.0222, 90.40795
334.5043, 90.82625
334.9865, 90.62597
335.4686, 89.50323
335.9507, 86.61462
336.4328, 85.19967
336.9149, 85.95602
337.3970, 88.02962
337.8792, 89.08439
338.3613, 88.86079
338.8434, 88.40468
339.3255, 88.26488
339.8076, 88.55293
340.2898, 88.15430
340.7719, 86.77065
341.2540, 85.20983
341.7361, 84.71616
342.2182, 85.38612
342.7003, 86.28072
343.1825, 87.09981
343.6646, 87.87284
344.1467, 88.93855
344.6288, 90.44839
345.1109, 91.53251
345.5930, 90.92445
346.0752, 88.82327
346.5573, 87.17508
347.0394, 86.44201
347.5215, 86.43914
348.0036, 86.89230
348.4857, 87.79107
348.9679, 88.77127
349.4500, 89.97867
349.9321, 91.08784
350.4142, 90.82838
350.8963, 88.46445
351.3784, 86.07986
351.8606, 87.27247
352.3427, 91.06737
352.8248, 93.88436
353.3069, 92.52671
353.7890, 89.42087
354.2711, 87.93584
354.7533, 88.45106
355.2354, 89.47596
355.7175, 90.11245
356.1996, 90.34636
356.6817, 90.15254
357.1638, 88.82508
357.6460, 87.57105
358.1281, 87.55962
358.6102, 88.69195
359.0923, 89.62162
359.5744, 89.27072
360.0565, 88.48003
360.5387, 88.08819
361.0208, 88.76781
361.5029, 89.33678
361.9850, 89.22820
362.4671, 88.58559
362.9492, 87.84450
363.4314, 86.98293
363.9135, 86.19004
364.3956, 85.49574
364.8777, 84.68082
365.3598, 84.50719
365.8419, 85.96361
366.3241, 87.97482
366.8062, 88.91634
367.2883, 87.24757
367.7704, 85.75583
368.2526, 85.28438
368.7347, 86.06018
369.2168, 86.65266
369.6989, 86.69477
370.1810, 86.75574
370.6631, 87.37195
371.1453, 89.64151
371.6274, 90.79227
372.1095, 89.99516
372.5916, 87.63343
373.0737, 86.27269
373.5558, 86.09866
374.0380, 86.62827
374.5201, 87.86536
375.0022, 90.38892
375.4843, 91.56804
375.9664, 90.92363
376.4485, 89.23959
376.9307, 87.97427
377.4128, 87.16232
377.8949, 86.66798
378.3770, 86.48111
378.8591, 86.59290
379.3412, 86.89541
379.8234, 87.43230
380.3055, 87.99660
380.7876, 88.34616
381.2697, 88.49245
381.7518, 88.55882
382.2339, 88.48962
382.7161, 88.42942
383.1982, 88.78480
383.6803, 89.54124
384.1624, 90.36169
384.6445, 91.43581
385.1266, 92.36765
385.6088, 91.90274
386.0909, 89.49489
386.5730, 86.80277
387.0551, 85.66344
387.5372, 85.82161
388.0193, 86.54174
388.5015, 88.25209
388.9836, 89.89657
389.4657, 89.97938
389.9478, 88.36843
390.4299, 87.00790
390.9120, 87.87145
391.3942, 89.55349
391.8763, 90.30001
392.3584, 88.42915
392.8405, 86.50874
393.3226, 85.79603
393.8047, 86.14326
394.2869, 86.87479
394.7690, 88.47507
395.2511, 89.86917
395.7332, 90.30694
396.2154, 89.15237
396.6975, 88.13247
397.1796, 87.50738
397.6617, 87.25309
398.1438, 87.32430
398.6259, 87.91834
399.1081, 88.63461
399.5902, 89.67106
400.0723, 91.26498
400.5544, 91.45529
401.0365, 88.69939
401.5186, 85.68059
402.0008, 84.70692
402.4829, 87.01896
402.9650, 89.01430
403.4471, 90.27547
403.9292, 90.92709
404.4113, 91.46632
404.8935, 91.91595
405.3756, 92.21086
405.8577, 92.33132
406.3398, 92.28567
406.8219, 91.93217
407.3040, 91.13060
407.7862, 90.28818
408.2683, 90.08787
408.7504, 90.55290
409.2325, 90.91433
409.7146, 90.85215
410.1967, 90.50469
410.6789, 90.42593
411.1610, 90.63482
411.6431, 90.65136
412.1252, 89.54815
412.6073, 87.88535
413.0894, 87.52316
413.5716, 89.34245
414.0537, 91.43465
414.5358, 91.04641
415.0179, 88.85825
415.5000, 87.08043
415.9821, 87.25977
416.4643, 88.28822
416.9464, 89.23927
417.4285, 90.06221
417.9106, 90.34377
418.3927, 89.07021
418.8748, 87.34971
419.3570, 86.51955
419.8391, 88.23725
420.3212, 89.75390
420.8033, 89.53240
421.2854, 87.98145
421.7675, 87.02975
422.2497, 88.03849
422.7318, 89.22646
423.2139, 89.57664
423.6960, 88.44840
424.1781, 87.64446
424.6602, 87.31358
425.1424, 87.43336
425.6245, 88.00290
426.1066, 89.63606
426.5887, 90.93595
427.0709, 91.74303
427.5530, 92.05669
428.0351, 91.24081
428.5172, 88.34612
428.9993, 85.60688
429.4814, 84.78010
429.9636, 86.41169
430.4457, 87.95564
430.9278, 89.45644
431.4099, 90.50999
431.8920, 89.79053
432.3741, 86.99128
432.8563, 84.76140
433.3384, 84.60230
433.8205, 86.18111
434.3026, 87.15064
434.7847, 87.44084
435.2668, 87.72018
435.7490, 89.04054
436.2311, 91.00347
436.7132, 92.08649
437.1953, 91.63296
437.6774, 90.48454
438.1595, 89.47726
438.6417, 88.67393
439.1238, 88.33534
439.6059, 89.34653
440.0880, 90.53112
440.5701, 90.40060
441.0522, 88.59379
441.5344, 86.89780
442.0165, 86.20948
442.4986, 86.34766
442.9807, 87.10027
443.4628, 89.65096
443.9449, 91.57521
444.4271, 91.22889
444.9092, 89.11662
445.3913, 88.14529
445.8734, 90.36089
446.3555, 92.89042
446.8376, 94.29180
447.3198, 93.92786
447.8019, 93.48147
448.2840, 93.18182
448.7661, 92.75073
449.2482, 91.73008
449.7303, 89.54036
450.2125, 87.76635
450.6946, 86.79864
451.1767, 86.58688
451.6588, 86.38358
452.1409, 86.08253
452.6230, 86.03173
453.1052, 86.52647
453.5873, 87.60456
454.0694, 88.83464
454.5515, 90.25008
455.0337, 91.66109
455.5158, 93.02145
455.9979, 94.27946
456.4800, 94.45789
456.9621, 92.08868
457.4442, 88.66064
457.9264, 88.28895
458.4085, 90.85269
458.8906, 93.11420
459.3727, 91.30811
459.8548, 87.73169
460.3369, 86.33372
460.8191, 88.72224
461.3012, 91.60715
461.7833, 92.32180
462.2654, 91.57985
462.7475, 90.86562
463.2296, 91.06320
463.7118, 91.26234
464.1939, 90.92925
464.6760, 90.02318
465.1581, 89.01177
465.6402, 87.61204
466.1223, 86.42274
466.6045, 85.88596
467.0866, 86.10134
467.5687, 86.92372
468.0508, 88.99657
468.5329, 91.60757
469.0150, 93.19147
469.4972, 93.40164
469.9793, 93.06161
470.4614, 92.15693
470.9435, 90.61327
471.4256, 90.14082
471.9077, 91.11364
472.3899, 92.41376
472.8720, 92.98924
473.3541, 92.77107
473.8362, 92.81961
474.3183, 93.45591
474.8004, 94.15822
475.2826, 93.60255
475.7647, 91.89507
476.2468, 90.54819
476.7289, 90.80315
477.2110, 91.87077
477.6931, 91.89869
478.1753, 90.87593
478.6574, 89.67966
479.1395, 88.56683
479.6216, 87.87111
480.1037, 88.32473
480.5858, 91.06348
481.0680, 93.20773
481.5501, 91.93746
482.0322, 88.65821
482.5143, 86.30733
482.9964, 86.26176
483.4786, 87.20980
483.9607, 88.97921
484.4428, 91.63596
484.9249, 93.42899
485.4070, 93.31001
485.8892, 92.64087
486.3713, 92.37878
486.8534, 92.91857
487.3355, 93.33871
487.8176, 93.79018
488.2997, 94.05103
488.7819, 93.47046
489.2640, 91.36397
489.7461, 89.98594
490.2282, 90.26753
490.7103, 92.09747
491.1924, 93.67896
491.6746, 95.13107
492.1567, 95.88915
492.6388, 94.76175
493.1209, 92.08578
493.6030, 91.23206
494.0851, 93.08738
494.5673, 95.63210
495.0494, 95.74605
495.5315, 93.98934
496.0136, 92.38178
496.4957, 91.99051
496.9778, 92.16129
497.4600, 92.38136
497.9421, 92.59652
498.4242, 92.37053
498.9063, 90.39664
499.3884, 88.46034
499.8705, 88.35757
500.3527, 91.40691
500.8348, 93.88272
501.3169, 94.49507
501.7990, 93.71221
502.2811, 92.17590
502.7632, 87.87363
503.2454, 85.12621
503.7275, 85.73815
504.2096, 89.29655
504.6917, 91.22380
505.1738, 90.29796
505.6559, 89.37699
506.1381, 90.36536
506.6202, 94.35297
507.1023, 95.47486
507.5844, 92.79611
508.0665, 88.94186
508.5486, 87.70741
509.0308, 89.15928
509.5129, 90.17286
509.9950, 89.70246
510.4771, 88.53399
510.9592, 88.45482
511.4413, 89.36450
511.9235, 90.29514
512.4056, 90.53979
512.8877, 90.45228
513.3698, 90.53123
513.8519, 90.81289
514.3340, 91.26469
514.8162, 92.49886
515.2983, 93.65749
515.7804, 93.62717
516.2625, 90.49581
516.7446, 88.13799
517.2267, 89.08501
517.7089, 91.99874
518.1910, 93.58263
518.6731, 91.62512
519.1552, 89.64537
519.6373, 89.07471
520.1194, 90.11282
520.6016, 90.43270
521.0837, 89.61783
521.5658, 88.54640
522.0479, 87.73762
522.5300, 87.06409
523.0121, 87.22902
523.4943, 88.53268
523.9764, 90.35262
524.4585, 91.54237
524.9406, 92.06737
525.4227, 92.71366
525.9048, 94.19229
526.3870, 95.76897
526.8691, 95.07989
527.3513, 92.28714
527.8334, 89.88432
528.3155, 90.16059
528.7976, 91.74870
529.2797, 92.76830
529.7618, 93.00584
530.2440, 92.58736
530.7261, 90.78377
531.2082, 88.63107
531.6903, 87.48713
532.1724, 88.48022
532.6545, 89.80218
533.1367, 91.37343
533.6188, 92.90424
534.1009, 93.43832
534.5830, 91.91800
535.0651, 90.23134
535.5472, 88.77083
536.0294, 87.38156
536.5115, 87.46268
536.9936, 90.00215
537.4757, 92.63301
537.9578, 93.03832
538.4399, 90.68989
538.9221, 89.65317
539.4042, 90.71291
539.8863, 92.58780
540.3684, 92.94352
540.8505, 91.89070
541.3326, 90.75161
541.8148, 90.13525
542.2969, 89.72527
542.7790, 88.60619
543.2611, 86.94640
543.7432, 86.03112
544.2253, 86.90675
544.7075, 88.87449
545.1896, 91.65629
545.6717, 95.56262
546.1538, 98.26744
546.6359, 98.03251
547.1180, 96.25921
547.6002, 94.43404
548.0823, 91.99335
548.5644, 90.57182
549.0465, 91.04648
549.5286, 92.77576
550.0107, 93.92301
550.4929, 94.37777
550.9750, 94.40961
551.4571, 94.05753
551.9392, 93.31686
552.4213, 92.26620
552.9034, 90.69128
553.3856, 89.45132
553.8677, 89.56377
554.3498, 90.87533
554.8319, 91.44224
555.3140, 90.95882
555.7961, 90.12019
556.2783, 89.61703
556.7604, 89.47520
557.2425, 89.83105
557.7246, 91.29886
558.2067, 92.69866
558.6888, 92.56531
559.1710, 91.31804
559.6531, 90.37339
560.1352, 90.46459
560.6173, 91.03899
561.0994, 91.96104
561.5815, 93.30466
562.0637, 94.20741
562.5458, 94.16688
563.0279, 93.83708
563.5100, 93.70183
563.9921, 93.91698
564.4742, 94.09975
564.9564, 94.47050
565.4385, 94.62715
565.9206, 93.67294
566.4027, 91.32403
566.8848, 89.26768
567.3669, 87.80179
567.8491, 87.07719
568.3312, 88.20817
568.8133, 91.10259
569.2954, 93.44896
569.7775, 92.90861
570.2596, 91.03355
570.7418, 91.06983
571.2239, 93.27846
571.7060, 95.01591
572.1881, 93.64355
572.6702, 90.99325
573.1523, 89.00252
573.6345, 87.99707
574.1166, 88.03066
574.5987, 90.33638
575.0808, 93.45768
575.5629, 95.00501
576.0450, 92.44862
576.5272, 90.66894
577.0093, 90.97440
577.4914, 92.97131
577.9735, 94.05770
578.4556, 93.95124
578.9377, 93.49492
579.4199, 92.88944
579.9020, 92.12805
580.3841, 92.37227
580.8662, 93.81461
581.3483, 95.23256
581.8304, 95.11791
582.3126, 93.91252
582.7947, 93.22027
583.2768, 93.47457
583.7589, 93.89365
584.2410, 93.64672
584.7231, 92.95168
585.2053, 92.24018
585.6874, 91.95220
586.1696, 91.45371
586.6517, 89.75730
587.1338, 87.34947
587.6159, 86.38332
588.0980, 89.08798
588.5801, 91.86159
589.0623, 93.03260
589.5444, 92.30089
590.0265, 91.94833
590.5086, 92.23925
590.9907, 92.57299
591.4728, 92.31887
591.9550, 91.26646
592.4371, 91.12706
592.9192, 92.24849
593.4013, 93.78743
593.8834, 94.61951
594.3655, 94.79137
594.8477, 94.56206
595.3298, 93.92801
595.8119, 93.05196
596.2940, 91.75999
596.7761, 90.33318
597.2582, 89.67339
597.7404, 91.11181
598.2225, 92.83041
598.7046, 93.56571
599.1867, 93.24133
599.6688, 92.66771
600.1509, 91.98973
600.6331, 91.20308
601.1152, 90.17329
601.5973, 88.17480
602.0794, 87.72790
602.5615, 89.76618
603.0436, 92.46577
603.5258, 93.64666
604.0079, 92.99392
604.4900, 92.58457
604.9721, 92.92760
605.4542, 93.42527
605.9363, 92.65554
606.4185, 90.77135
606.9006, 89.04121
607.3827, 87.83459
607.8648, 87.27467
608.3469, 88.01274
608.8290, 89.80151
609.3112, 91.20837
609.7933, 90.98035
610.2754, 90.33964
610.7575, 90.18914
611.2396, 90.67263
611.7217, 91.31966
612.2039, 92.28530
612.6860, 93.17905
613.1681, 93.74397
613.6502, 94.47107
614.1323, 93.87649
614.6144, 90.99374
615.0966, 87.62675
615.5787, 86.46102
616.0608, 87.80312
616.5429, 89.53633
617.0250, 91.36077
617.5071, 93.06863
617.9893, 94.29597
618.4714, 95.00874
618.9535, 94.92251
619.4356, 93.07933
619.9177, 90.80350
620.3998, 90.01419
620.8820, 90.56516
621.3641, 90.95081
621.8462, 89.48677
622.3283, 88.11742
622.8104, 88.56193
623.2925, 91.67317
623.7747, 93.96780
624.2568, 94.66479
624.7389, 94.37069
625.2210, 93.46854
625.7031, 91.35136
626.1852, 89.94866
626.6674, 89.41109
627.1495, 89.58630
627.6316, 90.54826
628.1137, 92.35479
628.5958, 93.44920
629.0779, 93.06739
629.5601, 92.08045
630.0422, 92.42922
630.5243, 93.81430
631.0064, 94.83098
631.4885, 94.20399
631.9706, 93.18394
632.4528, 93.09145
632.9349, 93.86897
633.4170, 94.38477
633.8991, 93.53360
634.3812, 92.73048
634.8633, 93.03742
635.3455, 95.26082
635.8276, 96.26228
636.3097, 95.12081
636.7918, 93.51942
637.2739, 93.01980
637.7560, 94.11864
638.2382, 94.09615
638.7203, 92.22401
639.2024, 90.14977
639.6845, 91.04142
640.1666, 94.44212
640.6487, 96.48307
641.1309, 95.42882
641.6130, 93.28293
642.0951, 92.81219
642.5772, 93.54607
643.0594, 94.18470
643.5415, 94.11076
644.0236, 93.73606
644.5057, 92.92046
644.9879, 91.81206
645.4700, 91.65192
645.9521, 94.40018
646.4342, 96.61085
646.9163, 96.46739
647.3984, 93.39681
647.8806, 92.02668
648.3627, 93.09766
648.8448, 94.46313
649.3269, 94.15457
649.8090, 92.17454
650.2911, 91.04333
650.7733, 91.02132
651.2554, 91.47791
651.7375, 91.82686
652.2196, 92.06041
652.7017, 92.17237
653.1838, 92.18794
653.6660, 92.02445
654.1481, 91.24904
654.6302, 90.30799
655.1123, 89.98363
655.5944, 91.22164
656.0765, 92.39185
656.5587, 92.82681
657.0408, 92.72312
657.5229, 93.11547
658.0050, 94.51748
658.4871, 95.51862
658.9692, 95.55089
659.4514, 94.69637
659.9335, 93.74950
660.4156, 92.66605
660.8977, 91.87276
