##NAMES=Nifontovite
##RRUFFID=R060685
##IDEAL CHEMISTRY=Ca_3_[BO(OH)_2_]_6_&#183;2H_2_O
##LOCALITY=Fuka mine, Okayama Prefecture, Japan
##OWNER=RRUFF
##SOURCE=Michael Scott
##DESCRIPTION=Colorless prismatic crystal
##STATUS=The identification of this mineral has been confirmed by X-ray diffraction and chemical analysis
##URL=rruff.info/R060685
##MEASURED CHEMISTRY=Ca_3.00_[BO(OH)_2_]_6_Â·2H_2_O ; = darker phase. H_2_O assumed ideal from stoichiometry; B_2_O_3_ estimated by difference
90.59570, 1951.490
91.07782, 1960.055
91.55994, 1963.196
92.04205, 1957.546
92.52417, 1948.723
93.00629, 1937.507
93.48840, 1914.914
93.97052, 1871.821
94.45264, 1810.305
94.93475, 1763.612
95.41687, 1711.454
95.89898, 1648.434
96.38110, 1585.257
96.86321, 1532.365
97.34533, 1492.999
97.82745, 1459.873
98.30956, 1423.504
98.79168, 1377.940
99.27380, 1337.025
99.75591, 1304.688
100.2380, 1279.065
100.7201, 1256.180
101.2023, 1233.785
101.6844, 1212.318
102.1665, 1192.863
102.6486, 1177.372
103.1307, 1162.277
103.6128, 1143.073
104.0950, 1118.377
104.5771, 1095.906
105.0592, 1081.613
105.5413, 1072.388
106.0234, 1064.458
106.5055, 1056.229
106.9877, 1047.917
107.4698, 1040.484
107.9519, 1034.001
108.4340, 1028.318
108.9161, 1024.131
109.3982, 1020.704
109.8804, 1016.350
110.3625, 1008.556
110.8446, 995.6664
111.3267, 988.3005
111.8088, 988.7841
112.2909, 992.2363
112.7731, 996.1571
113.2552, 1000.360
113.7373, 1006.570
114.2194, 1017.014
114.7015, 1031.556
115.1836, 1052.395
115.6658, 1080.600
116.1479, 1114.220
116.6300, 1151.592
117.1121, 1192.256
117.5942, 1236.217
118.0763, 1283.837
118.5584, 1335.326
119.0406, 1388.817
119.5227, 1445.322
120.0048, 1503.590
120.4869, 1562.467
120.9690, 1626.913
121.4511, 1685.277
121.9333, 1722.214
122.4154, 1739.406
122.8975, 1732.695
123.3796, 1691.753
123.8617, 1613.189
124.3438, 1528.635
124.8260, 1446.012
125.3081, 1367.916
125.7902, 1297.547
126.2723, 1237.371
126.7544, 1184.846
127.2365, 1135.404
127.7187, 1089.730
128.2008, 1046.138
128.6829, 1002.295
129.1650, 959.9189
129.6471, 921.3834
130.1292, 888.0745
130.6114, 859.9222
131.0935, 836.0934
131.5756, 818.4598
132.0577, 803.5481
132.5398, 791.3643
133.0219, 781.4140
133.5041, 773.0642
133.9862, 765.8289
134.4683, 759.8698
134.9504, 753.9384
135.4325, 747.6713
135.9146, 741.6887
136.3968, 736.0019
136.8789, 730.7449
137.3610, 726.6151
137.8431, 724.6976
138.3252, 725.5193
138.8073, 726.1631
139.2895, 727.6381
139.7716, 728.4094
140.2537, 727.2585
140.7358, 724.3043
141.2179, 717.8643
141.7000, 704.2250
142.1821, 684.1875
142.6643, 663.4432
143.1464, 643.0607
143.6285, 623.5487
144.1106, 606.5433
144.5927, 592.3708
145.0748, 581.3668
145.5570, 573.1085
146.0391, 567.6121
146.5212, 564.4330
147.0033, 563.4719
147.4854, 564.8350
147.9675, 567.4082
148.4497, 573.4159
148.9318, 579.0849
149.4139, 582.9487
149.8960, 584.5437
150.3781, 583.2712
150.8602, 577.8275
151.3424, 566.2477
151.8245, 554.3835
152.3066, 541.6243
152.7887, 529.4792
153.2708, 518.8311
153.7529, 510.1040
154.2351, 503.3393
154.7172, 498.7227
155.1993, 497.7545
155.6814, 497.4984
156.1635, 497.9222
156.6456, 498.9245
157.1278, 500.3191
157.6099, 501.9876
158.0920, 504.1006
158.5741, 507.5078
159.0562, 511.5121
159.5383, 517.3011
160.0205, 526.2257
160.5026, 537.2501
160.9847, 548.3275
161.4668, 558.6635
161.9489, 567.7386
162.4310, 573.9153
162.9131, 577.9268
163.3953, 578.7755
163.8774, 574.3511
164.3595, 565.1465
164.8416, 555.9103
165.3237, 548.4528
165.8058, 543.5089
166.2880, 542.0875
166.7701, 544.4894
167.2522, 550.3265
167.7343, 559.2956
168.2164, 571.4540
168.6985, 586.4194
169.1807, 606.6306
169.6628, 628.8372
170.1449, 649.5803
170.6270, 668.9648
171.1091, 685.1805
171.5912, 694.3211
172.0734, 696.7141
172.5555, 690.1396
173.0376, 673.1042
173.5197, 648.5501
174.0018, 619.7377
174.4839, 587.2413
174.9661, 552.2930
175.4482, 522.8818
175.9303, 501.9899
176.4124, 484.0560
176.8945, 467.7443
177.3766, 453.2002
177.8588, 441.1100
178.3409, 432.0003
178.8230, 425.8728
179.3051, 421.1334
179.7872, 418.3124
180.2693, 416.3225
180.7515, 415.0555
181.2336, 414.3996
181.7157, 414.2015
182.1978, 414.3009
182.6799, 414.6505
183.1620, 415.9185
183.6441, 417.7392
184.1263, 420.5272
184.6084, 424.6870
185.0905, 430.1040
185.5726, 436.1984
186.0547, 442.3829
186.5368, 448.6401
187.0190, 455.7787
187.5011, 464.5079
187.9832, 473.5157
188.4653, 482.5502
188.9474, 491.4289
189.4296, 498.6680
189.9117, 502.8250
190.3938, 503.7643
190.8759, 502.1157
191.3580, 497.6377
191.8401, 490.7226
192.3223, 481.2418
192.8044, 468.8348
193.2865, 455.5670
193.7686, 443.0024
194.2507, 431.0396
194.7328, 419.7762
195.2150, 408.8807
195.6971, 398.7238
196.1792, 390.0136
196.6613, 382.9098
197.1434, 377.1424
197.6255, 372.5659
198.1077, 368.9916
198.5898, 366.2054
199.0719, 364.3243
199.5540, 363.1837
200.0361, 362.1214
200.5182, 361.1936
201.0004, 360.2391
201.4825, 359.0692
201.9646, 357.7971
202.4467, 356.7141
202.9288, 356.0703
203.4109, 355.8403
203.8930, 355.5782
204.3752, 354.8072
204.8573, 354.5593
205.3394, 355.5161
205.8215, 357.3341
206.3036, 359.1642
206.7857, 360.1685
207.2679, 360.2608
207.7500, 361.2348
208.2321, 363.5179
208.7142, 366.3617
209.1963, 369.4815
209.6784, 372.9617
210.1606, 377.1281
210.6427, 382.4036
211.1248, 388.9440
211.6069, 394.9095
212.0890, 400.5801
212.5711, 405.4842
213.0533, 409.4135
213.5354, 412.3891
214.0175, 414.5769
214.4996, 416.0812
214.9817, 416.8389
215.4638, 417.2624
215.9460, 416.8805
216.4281, 416.6556
216.9102, 416.7786
217.3923, 417.4113
217.8744, 418.8766
218.3565, 421.4274
218.8387, 425.1461
219.3208, 430.1928
219.8029, 438.4912
220.2850, 446.4293
220.7671, 451.9325
221.2492, 454.9139
221.7314, 456.3426
222.2135, 456.9995
222.6956, 456.7439
223.1777, 455.2579
223.6598, 452.3978
224.1419, 448.4496
224.6240, 443.5066
225.1062, 437.5967
225.5883, 430.9482
226.0704, 423.2769
226.5525, 414.8745
227.0346, 407.6476
227.5167, 402.0446
227.9989, 397.4762
228.4810, 393.5229
228.9631, 390.1688
229.4452, 387.4921
229.9273, 385.9673
230.4094, 385.2086
230.8916, 384.1233
231.3737, 382.9841
231.8558, 381.1949
232.3379, 377.8913
232.8200, 372.9284
233.3021, 367.4716
233.7843, 362.0098
234.2664, 356.5419
234.7485, 351.0174
235.2306, 345.1356
235.7127, 339.4368
236.1948, 334.6822
236.6770, 330.9768
237.1591, 327.6823
237.6412, 324.3122
238.1233, 321.2036
238.6054, 318.8109
239.0875, 317.3778
239.5697, 316.5705
240.0518, 315.9123
240.5339, 315.4141
241.0160, 315.0296
241.4981, 314.7272
241.9802, 314.5279
242.4624, 314.4552
242.9445, 314.5099
243.4266, 314.7178
243.9087, 315.1450
244.3908, 315.8462
244.8729, 316.6206
245.3550, 317.3192
245.8372, 318.1003
246.3193, 319.1386
246.8014, 320.5032
247.2835, 322.0347
247.7656, 323.4740
248.2477, 324.7502
248.7299, 326.0965
249.2120, 327.4245
249.6941, 328.8943
250.1762, 330.6825
250.6583, 332.8388
251.1404, 335.1763
251.6226, 337.2616
252.1047, 338.4727
252.5868, 340.9117
253.0689, 345.2744
253.5510, 350.3725
254.0331, 355.4161
254.5153, 360.1924
254.9974, 365.0157
255.4795, 370.3027
255.9616, 375.7100
256.4437, 382.4415
256.9258, 390.7544
257.4080, 399.9180
257.8901, 409.7154
258.3722, 419.9822
258.8543, 430.4839
259.3364, 441.0008
259.8185, 451.9345
260.3007, 461.7712
260.7828, 470.9134
261.2649, 479.0135
261.7470, 485.8857
262.2291, 491.5117
262.7112, 495.8531
263.1934, 498.8765
263.6755, 500.4644
264.1576, 500.9308
264.6397, 499.7902
265.1218, 498.1766
265.6039, 496.2270
266.0861, 494.2475
266.5682, 492.9366
267.0503, 492.9931
267.5324, 494.5409
268.0145, 496.8961
268.4966, 500.6908
268.9788, 504.5411
269.4609, 508.0879
269.9430, 511.1405
270.4251, 513.3646
270.9072, 514.4271
271.3893, 514.2841
271.8715, 513.9632
272.3536, 513.0888
272.8357, 512.4390
273.3178, 512.5359
273.7999, 513.1619
274.2820, 513.9872
274.7642, 515.1086
275.2463, 516.2401
275.7284, 513.5245
276.2105, 506.9486
276.6926, 497.6510
277.1747, 485.1193
277.6568, 470.0901
278.1389, 453.9201
278.6211, 437.1263
279.1032, 420.0645
279.5853, 404.1963
280.0674, 388.9077
280.5495, 375.1476
281.0316, 363.0446
281.5138, 352.6360
281.9959, 344.1962
282.4780, 337.9901
282.9601, 333.3640
283.4422, 328.8202
283.9243, 323.7941
284.4065, 319.7929
284.8886, 317.5052
285.3707, 316.3298
285.8528, 315.4862
286.3349, 314.7508
286.8170, 314.0812
287.2992, 313.4008
287.7813, 312.7022
288.2634, 312.0276
288.7455, 311.2950
289.2276, 310.6290
289.7097, 310.0962
290.1919, 309.6989
290.6740, 309.6708
291.1561, 310.3541
291.6382, 311.8081
292.1203, 313.5930
292.6024, 315.4979
293.0846, 317.8134
293.5667, 320.8285
294.0488, 324.5912
294.5309, 328.9241
295.0130, 333.6820
295.4951, 338.9244
295.9773, 344.7061
296.4594, 351.1652
296.9415, 358.0663
297.4236, 365.3153
297.9057, 372.8583
298.3878, 380.6269
298.8700, 388.7216
299.3521, 396.9887
299.8342, 404.6674
300.3163, 411.7959
300.7984, 418.2609
301.2805, 424.0580
301.7627, 429.1678
302.2448, 433.5712
302.7269, 437.1586
303.2090, 440.0954
303.6911, 443.0060
304.1732, 446.1182
304.6554, 448.8877
305.1375, 451.3275
305.6196, 453.2650
306.1017, 454.2183
306.5838, 453.9591
307.0659, 452.7115
307.5481, 451.0850
308.0302, 449.6017
308.5123, 446.3108
308.9944, 439.7944
309.4765, 431.2301
309.9586, 422.4446
310.4408, 413.8040
310.9229, 405.5555
311.4050, 398.0999
311.8871, 391.3443
312.3692, 385.4343
312.8513, 380.0282
313.3335, 375.6625
313.8156, 373.0380
314.2977, 372.2846
314.7798, 372.7809
315.2619, 374.1128
315.7440, 376.3183
316.2262, 379.2217
316.7083, 382.5588
317.1904, 386.7704
317.6725, 392.4727
318.1546, 399.6167
318.6367, 407.2277
319.1188, 414.8938
319.6010, 422.4620
320.0831, 429.5394
320.5652, 436.8057
321.0473, 442.9811
321.5294, 447.6940
322.0115, 450.8126
322.4937, 451.9126
322.9758, 450.7458
323.4579, 447.4088
323.9400, 442.2489
324.4221, 435.2731
324.9042, 426.9620
325.3864, 416.6674
325.8685, 405.2584
326.3506, 394.0726
326.8327, 383.3792
327.3148, 373.5326
327.7969, 365.2261
328.2791, 358.4936
328.7612, 352.5243
329.2433, 347.0975
329.7254, 342.4239
330.2075, 338.7448
330.6896, 336.1013
331.1718, 334.4246
331.6539, 333.7759
332.1360, 334.2633
332.6181, 335.0027
333.1002, 336.8061
333.5823, 338.2145
334.0645, 338.1656
334.5466, 336.6660
335.0287, 334.2510
335.5108, 331.2027
335.9929, 327.5205
336.4750, 323.5278
336.9572, 319.2364
337.4393, 314.6249
337.9214, 309.1588
338.4035, 303.3289
338.8856, 298.3060
339.3677, 294.6109
339.8499, 292.0906
340.3320, 290.5139
340.8141, 290.1692
341.2962, 290.0637
341.7783, 289.8652
342.2604, 289.8558
342.7426, 290.5054
343.2247, 291.9463
343.7068, 293.7453
344.1889, 295.3417
344.6710, 296.7284
345.1531, 297.8363
345.6353, 298.5340
346.1174, 299.0358
346.5995, 299.6211
347.0816, 300.2481
347.5637, 300.5251
348.0458, 300.0749
348.5280, 298.8571
349.0101, 297.4848
349.4922, 295.7996
349.9743, 294.1487
350.4564, 292.7477
350.9385, 291.5132
351.4207, 290.1962
351.9028, 288.6362
352.3849, 286.9385
352.8670, 285.5471
353.3491, 284.2419
353.8312, 283.5143
354.3134, 283.6302
354.7955, 284.2763
355.2776, 285.1629
355.7597, 286.1790
356.2418, 287.2509
356.7239, 288.2368
357.2061, 288.8836
357.6882, 290.0059
358.1703, 291.6964
358.6524, 293.7413
359.1345, 295.7816
359.6166, 297.9264
360.0987, 300.7473
360.5808, 304.8731
361.0630, 310.4228
361.5451, 316.1630
362.0272, 321.6600
362.5093, 327.7564
362.9914, 334.8792
363.4735, 342.8295
363.9557, 351.0211
364.4378, 359.0776
364.9199, 367.2263
365.4020, 376.4845
365.8841, 387.9075
366.3662, 399.0381
366.8484, 409.5961
367.3305, 419.7031
367.8126, 429.8365
368.2947, 440.0130
368.7768, 449.3206
369.2589, 456.3734
369.7411, 460.9238
370.2232, 463.6939
370.7053, 465.0743
371.1874, 464.5409
371.6695, 461.2093
372.1516, 455.4606
372.6338, 448.7186
373.1159, 442.2294
373.5980, 435.9785
374.0801, 428.9427
374.5622, 419.8477
375.0443, 411.5509
375.5265, 405.2355
376.0086, 400.2069
376.4907, 395.3520
376.9728, 389.9887
377.4549, 384.7472
377.9370, 381.0840
378.4192, 379.3643
378.9013, 378.2230
379.3834, 376.8755
379.8655, 376.1922
380.3476, 377.0308
380.8297, 379.5516
381.3119, 382.9692
381.7940, 386.4659
382.2761, 390.0599
382.7582, 394.4007
383.2403, 399.8720
383.7224, 405.8175
384.2046, 411.6664
384.6867, 417.5146
385.1688, 423.8907
385.6509, 431.5015
386.1330, 439.7021
386.6151, 447.2051
387.0973, 454.0536
387.5794, 459.9583
388.0615, 464.8935
388.5436, 468.7046
389.0257, 471.0303
389.5078, 471.7942
389.9900, 471.0593
390.4721, 468.7774
390.9542, 464.9817
391.4363, 459.8947
391.9184, 453.1857
392.4005, 445.6653
392.8827, 438.3220
393.3648, 431.1181
393.8469, 424.3560
394.3290, 418.2494
394.8111, 412.6453
395.2932, 407.3076
395.7754, 402.1347
396.2575, 397.4737
396.7396, 393.4996
397.2217, 390.3142
397.7038, 388.1488
398.1859, 387.3226
398.6681, 387.2284
399.1501, 387.5750
399.6323, 388.3325
400.1144, 389.4141
400.5965, 390.7343
401.0786, 392.4136
401.5607, 394.8595
402.0428, 398.2925
402.5250, 401.9550
403.0071, 405.5812
403.4892, 409.4330
403.9713, 413.7780
404.4534, 418.6635
404.9355, 424.0643
405.4177, 430.0404
405.8998, 436.7567
406.3819, 443.0195
406.8640, 447.9508
407.3461, 453.2896
407.8282, 459.8189
408.3104, 467.4865
408.7925, 475.9542
409.2746, 485.1059
409.7567, 494.9206
410.2388, 505.4447
410.7209, 516.7137
411.2031, 528.7282
411.6852, 541.1114
412.1673, 554.4184
412.6494, 569.2332
413.1315, 585.6863
413.6136, 603.4334
414.0958, 622.0202
414.5779, 641.5275
415.0600, 661.9246
415.5421, 683.2962
416.0242, 705.4324
416.5063, 728.4775
416.9885, 752.3332
417.4706, 776.4028
417.9527, 800.5114
418.4348, 824.5927
418.9169, 848.8262
419.3990, 873.1046
419.8812, 897.5156
420.3633, 921.9804
420.8454, 946.4914
421.3275, 971.3098
421.8096, 996.5153
422.2917, 1020.641
422.7739, 1042.612
423.2560, 1062.337
423.7381, 1079.271
424.2202, 1094.629
424.7023, 1104.920
425.1844, 1108.769
425.6666, 1106.290
426.1487, 1097.451
426.6308, 1081.271
427.1129, 1059.120
427.5950, 1032.115
428.0771, 999.9052
428.5593, 966.4287
429.0414, 933.2106
429.5235, 900.4506
430.0056, 868.4037
430.4877, 836.6487
430.9698, 806.5260
431.4520, 778.9359
431.9341, 753.5521
432.4162, 729.5778
432.8983, 706.9428
433.3804, 685.6696
433.8625, 666.0318
434.3447, 648.2909
434.8268, 630.6877
435.3089, 612.3401
435.7910, 594.8055
436.2731, 579.1517
436.7552, 565.2863
437.2374, 552.5058
437.7195, 540.2913
438.2016, 529.0856
438.6837, 520.8435
439.1658, 517.1046
439.6479, 514.4300
440.1301, 513.3990
440.6122, 512.8993
441.0943, 512.4531
441.5764, 511.6937
442.0585, 509.6807
442.5406, 505.4692
443.0227, 499.1196
443.5049, 490.0480
443.9870, 476.6933
444.4691, 462.2046
444.9512, 447.1290
445.4333, 431.7175
445.9154, 415.8501
446.3976, 399.5031
446.8797, 383.1683
447.3618, 367.8832
447.8439, 353.6605
448.3260, 340.4955
448.8081, 328.5087
449.2903, 317.4335
449.7724, 307.0897
450.2545, 297.4921
450.7366, 288.8430
451.2187, 281.5724
451.7008, 275.4312
452.1830, 269.5556
452.6651, 263.9202
453.1472, 258.6433
453.6293, 253.8154
454.1114, 249.3914
454.5935, 245.4351
455.0757, 242.2058
455.5578, 238.9997
456.0399, 234.9464
456.5220, 230.3338
457.0041, 226.3779
457.4862, 223.4927
457.9684, 221.2248
458.4505, 219.0760
458.9326, 217.0396
459.4147, 215.1082
459.8968, 213.3856
460.3789, 211.7021
460.8611, 209.8306
461.3432, 207.8227
461.8253, 206.0201
462.3074, 204.6669
462.7895, 203.6324
463.2716, 202.3334
463.7538, 200.3756
464.2359, 198.6877
464.7180, 197.4287
465.2001, 196.4442
465.6822, 195.6942
466.1643, 195.1098
466.6465, 194.4319
467.1286, 193.3259
467.6107, 191.6968
468.0928, 190.4705
468.5749, 190.0979
469.0570, 189.6483
469.5392, 188.8386
470.0213, 187.8044
470.5034, 186.7292
470.9855, 185.6851
471.4676, 184.7508
471.9497, 184.1173
472.4319, 183.8767
472.9140, 183.5314
473.3961, 182.7110
473.8782, 182.0388
474.3603, 182.1042
474.8424, 182.7103
475.3246, 183.0049
475.8067, 182.1438
476.2888, 180.7519
476.7709, 180.3681
477.2530, 181.1975
477.7351, 181.7317
478.2173, 180.9746
478.6994, 179.6582
479.1815, 179.0137
479.6636, 179.2946
480.1457, 179.4911
480.6278, 178.8742
481.1100, 177.8873
481.5920, 177.3745
482.0742, 177.4949
482.5563, 177.8080
483.0384, 177.9498
483.5205, 177.9169
484.0026, 177.8799
484.4847, 177.9345
484.9669, 177.8818
485.4490, 177.4778
485.9311, 176.9443
486.4132, 176.6158
486.8953, 176.6174
487.3774, 176.9873
487.8596, 177.8863
488.3417, 179.8913
488.8238, 180.8167
489.3059, 179.9069
489.7880, 178.8299
490.2701, 178.3006
490.7523, 178.2669
491.2344, 178.4486
491.7165, 178.7018
492.1986, 178.9913
492.6807, 179.2662
493.1628, 179.6431
493.6450, 179.6814
494.1271, 178.7124
494.6092, 177.7913
495.0913, 177.8279
495.5734, 178.7653
496.0555, 179.5687
496.5377, 179.2084
497.0198, 178.1938
497.5019, 178.0593
497.9840, 179.0404
498.4661, 179.9128
498.9482, 179.7851
499.4304, 179.2092
499.9125, 179.2825
500.3946, 180.3088
500.8767, 181.3741
501.3588, 182.1058
501.8409, 182.5557
502.3231, 182.7169
502.8052, 182.5811
503.2873, 182.5475
503.7694, 183.0735
504.2515, 184.1894
504.7336, 184.8112
505.2158, 184.2806
505.6979, 184.0476
506.1800, 184.9039
506.6621, 186.3068
507.1442, 187.3773
507.6263, 187.8085
508.1085, 188.0044
508.5906, 188.5785
509.0727, 189.6153
509.5548, 190.7257
510.0369, 192.1668
510.5190, 193.4187
511.0012, 194.0412
511.4833, 194.3637
511.9654, 195.0283
512.4475, 196.3885
512.9296, 198.1362
513.4117, 199.7101
513.8939, 201.0775
514.3760, 202.5745
514.8581, 204.3379
515.3402, 206.2078
515.8223, 208.0017
516.3044, 209.7472
516.7866, 211.6301
517.2687, 213.6862
517.7508, 215.9562
518.2329, 218.4959
518.7150, 221.3044
519.1971, 224.3777
519.6793, 227.7521
520.1614, 231.3496
520.6435, 234.9231
521.1256, 238.4048
521.6077, 242.0898
522.0898, 245.8872
522.5720, 249.9878
523.0541, 254.5329
523.5362, 259.5143
524.0183, 264.9261
524.5004, 270.7683
524.9825, 276.9567
525.4647, 283.2081
525.9468, 289.1658
526.4289, 295.6698
526.9110, 302.7285
527.3931, 310.3952
527.8752, 318.6994
528.3574, 327.6378
528.8395, 337.1590
529.3216, 347.1957
529.8037, 357.7519
530.2858, 369.0166
530.7679, 380.9777
531.2501, 393.6133
531.7322, 406.7807
532.2143, 420.6747
532.6964, 435.6802
533.1785, 451.8248
533.6606, 469.1982
534.1428, 488.5329
534.6249, 509.0520
535.1070, 529.2177
535.5891, 548.7912
536.0712, 568.6241
536.5533, 589.4792
537.0355, 611.1288
537.5176, 631.6991
537.9997, 652.1060
538.4818, 670.5179
538.9639, 686.6645
539.4460, 700.5076
539.9282, 712.3069
540.4103, 721.9838
540.8924, 728.8263
541.3745, 732.0475
541.8566, 731.6359
542.3387, 728.0226
542.8209, 719.9174
543.3029, 709.9001
543.7850, 698.3763
544.2672, 685.2875
544.7493, 670.2728
545.2314, 653.3129
545.7135, 635.5073
546.1956, 618.1240
546.6777, 601.0704
547.1599, 583.9321
547.6420, 566.3635
548.1241, 549.4658
548.6062, 533.1349
549.0883, 518.1422
549.5704, 506.0137
550.0526, 497.6324
550.5347, 490.9142
551.0168, 484.2186
551.4989, 478.2780
551.9810, 474.7372
552.4631, 473.9582
552.9453, 474.9033
553.4274, 476.8520
553.9095, 479.8170
554.3916, 482.4291
554.8737, 484.4629
555.3558, 486.4667
555.8380, 488.9371
556.3201, 491.3174
556.8022, 493.1934
557.2843, 494.3379
557.7664, 494.1879
558.2485, 492.0559
558.7307, 487.9331
559.2128, 482.5428
559.6949, 475.5290
560.1770, 467.7263
560.6591, 459.1891
561.1412, 450.2287
561.6234, 440.9411
562.1055, 431.3032
562.5876, 422.1703
563.0697, 414.1561
563.5518, 407.2399
564.0339, 401.2936
564.5161, 396.2184
564.9982, 392.4219
565.4803, 390.1893
565.9624, 389.5856
566.4445, 390.2667
566.9266, 392.4161
567.4088, 395.5611
567.8909, 399.5392
568.3730, 404.4227
568.8551, 410.4844
569.3372, 417.6576
569.8193, 425.5597
570.3015, 433.8242
570.7836, 442.4513
571.2657, 450.8731
571.7478, 460.0397
572.2299, 467.6585
572.7120, 474.6330
573.1942, 479.2440
573.6763, 479.9091
574.1584, 476.4165
574.6405, 469.6859
575.1226, 459.9608
575.6047, 447.5931
576.0869, 433.8934
576.5690, 418.7521
577.0511, 402.7460
577.5332, 385.6895
578.0153, 368.3279
578.4974, 351.8119
578.9796, 336.1493
579.4617, 321.3919
579.9438, 307.5986
580.4259, 294.7115
580.9080, 282.5926
581.3901, 271.2643
581.8723, 260.6512
582.3544, 250.6968
582.8365, 241.4490
583.3186, 233.0106
583.8007, 225.3123
584.2828, 218.5876
584.7650, 212.9449
