##NAMES=Nifontovite
##RRUFFID=R060685
##IDEAL CHEMISTRY=Ca_3_[BO(OH)_2_]_6_&#183;2H_2_O
##LOCALITY=Fuka mine, Okayama Prefecture, Japan
##OWNER=RRUFF
##SOURCE=Michael Scott
##DESCRIPTION=Colorless prismatic crystal
##STATUS=The identification of this mineral has been confirmed by X-ray diffraction and chemical analysis
##URL=rruff.info/R060685
##MEASURED CHEMISTRY=Ca_3.00_[BO(OH)_2_]_6_Â·2H_2_O ; = darker phase. H_2_O assumed ideal from stoichiometry; B_2_O_3_ estimated by difference
89.78320, 1135.060
90.26532, 1128.201
90.74744, 1127.211
91.22955, 1131.775
91.71167, 1144.374
92.19379, 1174.843
92.67590, 1220.266
93.15802, 1255.966
93.64014, 1258.608
94.12225, 1236.957
94.60437, 1214.233
95.08649, 1195.942
95.56860, 1180.246
96.05072, 1164.235
96.53284, 1149.210
97.01495, 1133.076
97.49707, 1110.507
97.97919, 1081.610
98.46130, 1058.942
98.94342, 1045.350
99.42554, 1040.443
99.90765, 1044.771
100.3898, 1060.335
100.8719, 1080.405
101.3540, 1095.255
101.8361, 1103.990
102.3182, 1111.827
102.8004, 1119.696
103.2825, 1125.825
103.7646, 1139.058
104.2467, 1161.377
104.7288, 1189.401
105.2109, 1214.772
105.6931, 1234.373
106.1752, 1256.260
106.6573, 1284.076
107.1394, 1317.371
107.6215, 1356.706
108.1036, 1408.232
108.5858, 1468.019
109.0679, 1513.818
109.5500, 1534.713
110.0321, 1550.392
110.5142, 1571.190
110.9963, 1592.442
111.4785, 1623.653
111.9606, 1664.302
112.4427, 1714.315
112.9248, 1777.539
113.4069, 1850.773
113.8890, 1938.280
114.3712, 2044.509
114.8533, 2160.637
115.3354, 2303.051
115.8175, 2478.022
116.2996, 2688.904
116.7817, 2920.089
117.2639, 3182.229
117.7460, 3459.451
118.2281, 3731.568
118.7102, 3988.491
119.1923, 4240.969
119.6744, 4492.491
120.1566, 4743.600
120.6387, 4995.746
121.1208, 5315.765
121.6029, 5638.958
122.0850, 5830.128
122.5671, 5794.237
123.0493, 5604.092
123.5314, 5311.024
124.0135, 4889.323
124.4956, 4448.317
124.9777, 4086.008
125.4598, 3793.009
125.9420, 3541.666
126.4241, 3333.250
126.9062, 3151.993
127.3883, 2968.271
127.8704, 2772.340
128.3525, 2576.038
128.8347, 2391.439
129.3168, 2218.417
129.7989, 2068.039
130.2810, 1949.260
130.7631, 1860.230
131.2452, 1789.236
131.7274, 1735.701
132.2095, 1697.345
132.6916, 1669.871
133.1737, 1653.790
133.6558, 1644.329
134.1379, 1637.695
134.6201, 1633.868
135.1022, 1630.580
135.5843, 1626.834
136.0664, 1622.938
136.5485, 1620.099
137.0306, 1616.768
137.5128, 1618.310
137.9949, 1632.564
138.4770, 1661.544
138.9591, 1694.294
139.4412, 1733.045
139.9233, 1779.672
140.4055, 1801.745
140.8876, 1797.550
141.3697, 1770.147
141.8518, 1720.780
142.3339, 1639.982
142.8160, 1559.012
143.2982, 1487.552
143.7803, 1425.521
144.2624, 1375.412
144.7445, 1338.459
145.2266, 1313.209
145.7087, 1297.552
146.1909, 1291.044
146.6730, 1294.262
147.1551, 1307.800
147.6372, 1334.617
148.1193, 1367.117
148.6014, 1415.666
149.0836, 1471.363
149.5657, 1505.115
150.0478, 1514.620
150.5299, 1503.509
151.0120, 1472.912
151.4941, 1396.195
151.9763, 1331.809
152.4584, 1281.559
152.9405, 1244.791
153.4226, 1216.653
153.9047, 1198.519
154.3868, 1187.796
154.8690, 1183.076
155.3511, 1184.681
155.8332, 1191.731
156.3153, 1206.243
156.7974, 1227.360
157.2795, 1248.224
157.7617, 1263.587
158.2438, 1280.176
158.7259, 1302.849
159.2080, 1332.976
159.6901, 1369.097
160.1722, 1413.479
160.6544, 1465.631
161.1365, 1516.327
161.6186, 1572.982
162.1007, 1621.996
162.5828, 1652.126
163.0649, 1650.128
163.5471, 1635.811
164.0292, 1612.631
164.5113, 1580.758
164.9934, 1555.770
165.4755, 1539.882
165.9576, 1536.721
166.4398, 1550.790
166.9219, 1585.495
167.4040, 1636.910
167.8861, 1703.115
168.3682, 1784.383
168.8503, 1877.209
169.3325, 1989.095
169.8146, 2110.480
170.2967, 2224.203
170.7788, 2347.906
171.2609, 2448.206
171.7430, 2494.503
172.2252, 2484.633
172.7073, 2428.850
173.1894, 2314.482
173.6715, 2157.740
174.1536, 1999.706
174.6357, 1846.070
175.1179, 1704.915
175.6000, 1586.458
176.0821, 1493.510
176.5642, 1418.402
177.0463, 1356.691
177.5284, 1307.490
178.0106, 1268.996
178.4927, 1243.044
178.9748, 1226.293
179.4569, 1213.948
179.9390, 1205.508
180.4211, 1201.158
180.9033, 1201.338
181.3854, 1205.867
181.8675, 1213.728
182.3496, 1223.536
182.8317, 1236.235
183.3138, 1254.785
183.7960, 1279.564
184.2781, 1309.589
184.7602, 1343.173
185.2423, 1380.615
185.7244, 1421.650
186.2065, 1467.181
186.6887, 1516.622
187.1708, 1570.105
187.6529, 1629.680
188.1350, 1688.707
188.6171, 1736.603
189.0992, 1773.721
189.5814, 1798.696
190.0635, 1811.574
190.5456, 1812.074
191.0277, 1797.174
191.5098, 1765.499
191.9919, 1720.071
192.4741, 1664.266
192.9562, 1597.898
193.4383, 1530.542
193.9204, 1467.037
194.4025, 1407.622
194.8846, 1356.667
195.3668, 1315.277
195.8489, 1281.959
196.3310, 1253.513
196.8131, 1229.970
197.2952, 1211.142
197.7773, 1197.510
198.2595, 1189.248
198.7416, 1182.778
199.2237, 1178.043
199.7058, 1174.643
200.1879, 1171.895
200.6700, 1170.017
201.1522, 1167.739
201.6343, 1164.145
202.1164, 1159.157
202.5985, 1153.587
203.0806, 1147.345
203.5627, 1140.735
204.0449, 1134.437
204.5270, 1128.028
205.0091, 1123.290
205.4912, 1121.408
205.9733, 1122.472
206.4554, 1125.857
206.9376, 1131.660
207.4197, 1139.670
207.9018, 1149.272
208.3839, 1160.365
208.8660, 1173.387
209.3481, 1188.605
209.8303, 1206.284
210.3124, 1225.485
210.7945, 1246.687
211.2766, 1269.197
211.7587, 1291.364
212.2408, 1314.016
212.7230, 1334.691
213.2051, 1351.941
213.6872, 1365.424
214.1693, 1376.392
214.6514, 1383.897
215.1335, 1388.940
215.6157, 1395.545
216.0978, 1403.168
216.5799, 1413.379
217.0620, 1427.077
217.5441, 1444.050
218.0262, 1465.453
218.5084, 1492.373
218.9905, 1524.208
219.4726, 1556.793
219.9547, 1592.137
220.4368, 1625.745
220.9189, 1655.005
221.4011, 1681.346
221.8832, 1700.376
222.3653, 1712.073
222.8474, 1716.313
223.3295, 1712.365
223.8116, 1698.750
224.2938, 1679.553
224.7759, 1656.487
225.2580, 1627.911
225.7401, 1599.766
226.2222, 1571.905
226.7043, 1544.752
227.1865, 1518.329
227.6686, 1491.127
228.1507, 1467.641
228.6328, 1451.328
229.1149, 1445.323
229.5970, 1439.370
230.0792, 1433.783
230.5613, 1427.829
231.0434, 1418.985
231.5255, 1407.951
232.0076, 1393.281
232.4897, 1374.025
232.9719, 1348.628
233.4540, 1322.131
233.9361, 1293.456
234.4182, 1263.784
234.9003, 1236.684
235.3824, 1212.037
235.8646, 1190.116
236.3467, 1171.075
236.8288, 1155.060
237.3109, 1141.611
237.7930, 1131.079
238.2751, 1122.979
238.7573, 1116.271
239.2394, 1111.328
239.7215, 1107.189
240.2036, 1103.327
240.6857, 1099.378
241.1678, 1096.497
241.6500, 1094.750
242.1321, 1094.042
242.6142, 1094.116
243.0963, 1094.876
243.5784, 1096.585
244.0605, 1099.408
244.5427, 1103.668
245.0248, 1108.287
245.5069, 1113.433
245.9890, 1118.906
246.4711, 1124.020
246.9532, 1128.029
247.4354, 1133.023
247.9175, 1139.918
248.3996, 1149.420
248.8817, 1158.555
249.3638, 1166.401
249.8459, 1174.430
250.3281, 1185.473
250.8102, 1200.575
251.2923, 1216.959
251.7744, 1233.812
252.2565, 1250.714
252.7386, 1269.141
253.2208, 1288.872
253.7029, 1310.287
254.1850, 1334.230
254.6671, 1360.433
255.1492, 1389.806
255.6313, 1422.469
256.1135, 1458.283
256.5956, 1497.223
257.0777, 1538.743
257.5598, 1583.362
258.0419, 1632.171
258.5240, 1686.036
259.0062, 1741.000
259.4883, 1797.270
259.9704, 1854.198
260.4525, 1907.948
260.9346, 1959.355
261.4167, 2005.783
261.8989, 2044.521
262.3810, 2075.884
262.8631, 2097.758
263.3452, 2108.435
263.8273, 2108.053
264.3094, 2102.861
264.7916, 2090.596
265.2737, 2077.124
265.7558, 2067.147
266.2379, 2060.007
266.7200, 2058.975
267.2021, 2065.273
267.6843, 2078.511
268.1664, 2095.791
268.6485, 2118.803
269.1306, 2142.226
269.6127, 2161.976
270.0948, 2178.268
270.5770, 2189.044
271.0591, 2191.830
271.5412, 2188.801
272.0233, 2190.377
272.5054, 2196.748
272.9875, 2207.101
273.4697, 2223.061
273.9518, 2246.613
274.4339, 2264.667
274.9160, 2278.763
275.3981, 2284.625
275.8802, 2268.466
276.3624, 2229.065
276.8445, 2173.166
277.3266, 2100.937
277.8087, 2011.187
278.2908, 1922.244
278.7729, 1834.372
279.2551, 1749.576
279.7372, 1674.003
280.2193, 1607.467
280.7014, 1550.051
281.1835, 1502.414
281.6656, 1464.478
282.1478, 1430.786
282.6299, 1401.035
283.1120, 1375.630
283.5941, 1355.835
284.0762, 1341.721
284.5583, 1330.657
285.0405, 1322.102
285.5226, 1315.821
286.0047, 1309.496
286.4868, 1302.920
286.9689, 1296.936
287.4510, 1292.847
287.9332, 1290.589
288.4153, 1288.896
288.8974, 1286.786
289.3795, 1284.822
289.8616, 1285.420
290.3438, 1288.714
290.8259, 1293.622
291.3080, 1298.610
291.7901, 1303.942
292.2722, 1311.495
292.7543, 1321.549
293.2365, 1334.281
293.7186, 1350.444
294.2007, 1369.921
294.6828, 1391.567
295.1649, 1413.946
295.6470, 1437.435
296.1292, 1464.303
296.6113, 1495.744
297.0934, 1529.743
297.5755, 1564.005
298.0576, 1598.634
298.5397, 1632.865
299.0219, 1666.774
299.5040, 1700.314
299.9861, 1733.206
300.4682, 1765.998
300.9503, 1796.888
301.4324, 1823.920
301.9146, 1847.241
302.3967, 1868.588
302.8788, 1888.119
303.3609, 1906.448
303.8430, 1924.200
304.3251, 1941.579
304.8073, 1957.916
305.2894, 1974.694
305.7715, 1990.166
306.2536, 2000.560
306.7357, 2005.815
307.2178, 2003.839
307.7000, 1991.814
308.1821, 1969.193
308.6642, 1939.412
309.1463, 1901.759
309.6284, 1859.253
310.1105, 1816.006
310.5927, 1771.141
311.0748, 1728.687
311.5569, 1690.296
312.0390, 1656.142
312.5211, 1627.734
313.0032, 1605.756
313.4854, 1589.619
313.9675, 1579.018
314.4496, 1574.234
314.9317, 1574.604
315.4138, 1580.008
315.8959, 1590.407
316.3781, 1605.497
316.8602, 1626.137
317.3423, 1650.715
317.8244, 1678.180
318.3065, 1709.557
318.7886, 1741.959
319.2708, 1775.846
319.7529, 1810.073
320.2350, 1841.549
320.7171, 1872.192
321.1992, 1897.330
321.6813, 1914.910
322.1635, 1925.347
322.6456, 1926.563
323.1277, 1916.660
323.6098, 1897.482
324.0919, 1872.025
324.5740, 1837.286
325.0562, 1799.790
325.5383, 1760.685
326.0204, 1719.106
326.5025, 1679.839
326.9846, 1641.507
327.4667, 1606.450
327.9489, 1576.662
328.4310, 1552.393
328.9131, 1533.081
329.3952, 1518.889
329.8773, 1509.866
330.3594, 1504.189
330.8416, 1501.167
331.3237, 1502.115
331.8058, 1508.474
332.2879, 1524.965
332.7700, 1538.979
333.2521, 1549.933
333.7343, 1557.759
334.2164, 1562.270
334.6985, 1563.917
335.1806, 1561.461
335.6627, 1553.487
336.1448, 1538.048
336.6270, 1523.083
337.1091, 1508.531
337.5912, 1494.917
338.0733, 1482.447
338.5554, 1470.215
339.0375, 1462.447
339.5197, 1461.219
340.0018, 1466.727
340.4839, 1475.493
340.9660, 1487.529
341.4481, 1502.421
341.9302, 1519.707
342.4124, 1539.630
342.8945, 1560.670
343.3766, 1583.257
343.8587, 1606.599
344.3408, 1628.545
344.8229, 1649.129
345.3051, 1667.211
345.7872, 1682.260
346.2693, 1694.077
346.7514, 1701.617
347.2335, 1704.452
347.7156, 1703.071
348.1978, 1697.625
348.6799, 1688.287
349.1620, 1677.031
349.6441, 1664.043
350.1262, 1650.204
350.6083, 1637.501
351.0905, 1625.993
351.5726, 1615.869
352.0547, 1606.852
352.5368, 1599.253
353.0189, 1594.022
353.5010, 1591.936
353.9832, 1592.329
354.4653, 1594.704
354.9474, 1599.088
355.4295, 1604.528
355.9116, 1609.029
356.3937, 1614.389
356.8759, 1623.210
357.3580, 1637.390
357.8401, 1654.612
358.3222, 1672.291
358.8043, 1691.174
359.2864, 1714.797
359.7686, 1746.299
360.2507, 1782.877
360.7328, 1821.523
361.2149, 1860.230
361.6970, 1903.661
362.1791, 1953.575
362.6613, 2009.552
363.1434, 2070.644
363.6255, 2136.895
364.1076, 2207.872
364.5897, 2284.572
365.0718, 2366.762
365.5540, 2450.486
366.0361, 2537.457
366.5182, 2624.677
367.0003, 2708.560
367.4824, 2794.928
367.9645, 2871.559
368.4467, 2937.729
368.9288, 2992.512
369.4109, 3032.377
369.8930, 3059.384
370.3751, 3070.024
370.8572, 3061.504
371.3394, 3029.618
371.8215, 2985.653
372.3036, 2927.077
372.7857, 2856.961
373.2678, 2785.191
373.7499, 2710.012
374.2321, 2635.030
374.7142, 2561.893
375.1963, 2489.206
375.6784, 2422.074
376.1605, 2360.896
376.6426, 2305.255
377.1248, 2256.803
377.6069, 2215.349
378.0890, 2178.785
378.5711, 2146.600
379.0532, 2118.746
379.5353, 2097.310
380.0175, 2082.432
380.4996, 2072.382
380.9817, 2065.269
381.4638, 2061.297
381.9459, 2062.305
382.4280, 2069.198
382.9102, 2080.566
383.3923, 2093.771
383.8744, 2108.947
384.3565, 2126.480
384.8386, 2147.288
385.3207, 2170.460
385.8029, 2194.228
386.2850, 2219.101
386.7671, 2242.069
387.2492, 2261.239
387.7313, 2276.354
388.2134, 2286.407
388.6956, 2292.204
389.1777, 2291.901
389.6598, 2283.379
390.1419, 2266.753
390.6240, 2244.261
391.1061, 2214.524
391.5883, 2180.616
392.0704, 2145.456
392.5525, 2108.320
393.0346, 2072.318
393.5167, 2036.786
393.9988, 2002.857
394.4810, 1973.224
394.9631, 1949.423
395.4452, 1929.676
395.9273, 1913.206
396.4094, 1900.027
396.8915, 1889.777
397.3737, 1882.433
397.8558, 1877.942
398.3379, 1876.242
398.8200, 1878.434
399.3021, 1882.213
399.7842, 1887.061
400.2664, 1892.954
400.7485, 1900.654
401.2306, 1910.355
401.7127, 1921.519
402.1948, 1933.845
402.6769, 1947.538
403.1591, 1961.992
403.6412, 1977.707
404.1233, 1993.872
404.6054, 2008.677
405.0875, 2021.373
405.5696, 2034.465
406.0518, 2048.391
406.5339, 2063.092
407.0160, 2081.480
407.4981, 2103.672
407.9802, 2128.786
408.4623, 2155.703
408.9445, 2184.588
409.4266, 2215.875
409.9087, 2248.991
410.3908, 2285.096
410.8729, 2326.272
411.3550, 2372.764
411.8372, 2424.516
412.3193, 2482.627
412.8014, 2546.397
413.2835, 2614.138
413.7656, 2685.672
414.2477, 2762.768
414.7299, 2847.211
415.2120, 2938.500
415.6941, 3033.018
416.1762, 3132.367
416.6583, 3233.226
417.1404, 3333.074
417.6226, 3432.583
418.1047, 3530.228
418.5868, 3625.691
419.0689, 3719.322
419.5510, 3812.936
420.0331, 3905.273
420.5153, 3998.916
420.9974, 4095.070
421.4795, 4192.728
421.9616, 4285.441
422.4437, 4374.156
422.9258, 4456.743
423.4080, 4535.508
423.8901, 4617.221
424.3722, 4674.017
424.8543, 4702.913
425.3364, 4706.331
425.8185, 4686.262
426.3007, 4638.603
426.7828, 4572.710
427.2649, 4486.768
427.7470, 4383.096
428.2291, 4271.662
428.7112, 4147.384
429.1934, 4025.467
429.6755, 3911.138
430.1576, 3804.817
430.6397, 3706.985
431.1218, 3617.961
431.6039, 3537.174
432.0861, 3464.541
432.5682, 3400.635
433.0503, 3337.387
433.5324, 3272.220
434.0145, 3205.058
434.4966, 3134.548
434.9788, 3060.594
435.4609, 2987.430
435.9430, 2915.056
436.4251, 2845.427
436.9072, 2783.864
437.3893, 2730.331
437.8715, 2686.331
438.3536, 2653.768
438.8357, 2632.156
439.3178, 2620.154
439.7999, 2622.039
440.2820, 2630.084
440.7642, 2641.579
441.2463, 2656.410
441.7284, 2660.385
442.2105, 2647.521
442.6926, 2619.281
443.1747, 2576.941
443.6569, 2517.359
444.1390, 2447.574
444.6211, 2365.106
445.1032, 2273.412
445.5853, 2185.145
446.0674, 2101.513
446.5496, 2021.965
447.0317, 1946.089
447.5138, 1872.934
447.9959, 1806.048
448.4780, 1745.525
448.9601, 1690.851
449.4423, 1640.636
449.9244, 1595.235
450.4065, 1554.818
450.8886, 1520.355
451.3707, 1490.991
451.8528, 1461.598
452.3350, 1431.348
452.8171, 1403.053
453.2992, 1377.548
453.7813, 1354.728
454.2634, 1335.039
454.7455, 1318.728
455.2277, 1304.131
455.7098, 1288.532
456.1919, 1272.360
456.6740, 1257.611
457.1561, 1245.650
457.6382, 1235.243
458.1204, 1224.852
458.6025, 1214.407
459.0846, 1204.070
459.5667, 1193.008
460.0488, 1182.377
460.5309, 1173.956
461.0131, 1168.426
461.4952, 1163.218
461.9773, 1156.554
462.4594, 1149.160
462.9415, 1141.997
463.4236, 1134.944
463.9058, 1128.753
464.3879, 1124.296
464.8700, 1121.365
465.3521, 1117.540
465.8342, 1110.891
466.3163, 1104.115
466.7985, 1098.707
467.2806, 1095.434
467.7627, 1092.358
468.2448, 1089.214
468.7269, 1086.366
469.2090, 1084.439
469.6912, 1084.415
470.1733, 1083.424
470.6554, 1080.441
471.1375, 1075.745
471.6196, 1072.131
472.1017, 1069.808
472.5839, 1067.956
473.0660, 1065.970
473.5481, 1063.859
474.0302, 1062.096
474.5123, 1060.814
474.9944, 1059.659
475.4766, 1057.896
475.9587, 1055.684
476.4408, 1054.001
476.9229, 1053.686
477.4050, 1053.904
477.8871, 1052.913
478.3693, 1050.906
478.8514, 1049.556
479.3335, 1050.430
479.8156, 1052.469
480.2977, 1054.561
480.7798, 1056.677
481.2620, 1058.210
481.7441, 1057.846
482.2262, 1056.862
482.7083, 1057.143
483.1904, 1060.777
483.6725, 1064.339
484.1547, 1066.434
484.6368, 1067.115
485.1189, 1067.821
485.6010, 1069.847
486.0831, 1071.042
486.5652, 1070.086
487.0474, 1064.869
487.5295, 1062.103
488.0116, 1062.971
488.4937, 1065.444
488.9758, 1066.617
489.4579, 1065.977
489.9401, 1065.630
490.4222, 1066.171
490.9043, 1067.386
491.3864, 1068.265
491.8685, 1068.752
492.3506, 1069.308
492.8328, 1070.273
493.3149, 1071.582
493.7970, 1073.001
494.2791, 1074.549
494.7612, 1076.071
495.2433, 1077.141
495.7255, 1078.060
496.2076, 1079.620
496.6897, 1082.537
497.1718, 1085.816
497.6539, 1088.646
498.1360, 1091.036
498.6182, 1093.061
499.1003, 1094.260
499.5824, 1095.437
500.0645, 1097.101
500.5466, 1099.370
501.0287, 1101.947
501.5109, 1105.595
501.9930, 1109.124
502.4751, 1111.295
502.9572, 1109.821
503.4393, 1109.506
503.9214, 1111.076
504.4036, 1114.171
504.8857, 1117.694
505.3678, 1122.077
505.8499, 1126.195
506.3320, 1129.431
506.8141, 1131.686
507.2963, 1134.491
507.7784, 1137.759
508.2605, 1141.941
508.7426, 1148.070
509.2247, 1155.983
509.7068, 1163.165
510.1890, 1168.998
510.6711, 1174.150
511.1532, 1179.466
511.6353, 1184.958
512.1174, 1190.562
512.5995, 1195.819
513.0817, 1201.445
513.5638, 1208.588
514.0459, 1217.200
514.5280, 1225.909
515.0101, 1233.191
515.4922, 1240.544
515.9744, 1249.348
516.4565, 1260.471
516.9386, 1272.058
517.4207, 1283.367
517.9028, 1294.797
518.3849, 1306.993
518.8671, 1320.015
519.3492, 1333.871
519.8313, 1348.212
520.3134, 1363.045
520.7955, 1380.704
521.2776, 1402.339
521.7598, 1425.163
522.2419, 1447.224
522.7240, 1468.177
523.2061, 1490.615
523.6882, 1514.611
524.1703, 1540.215
524.6525, 1567.348
525.1346, 1596.144
525.6167, 1627.202
526.0988, 1660.258
526.5809, 1695.700
527.0630, 1734.283
527.5452, 1775.782
528.0273, 1819.483
528.5094, 1864.783
528.9915, 1912.452
529.4736, 1963.673
529.9557, 2018.729
530.4379, 2077.831
530.9200, 2141.845
531.4021, 2210.325
531.8842, 2283.100
532.3663, 2360.316
532.8484, 2441.322
533.3306, 2525.149
533.8127, 2612.535
534.2948, 2702.898
534.7769, 2796.318
535.2590, 2894.155
535.7411, 2999.331
536.2233, 3111.027
536.7054, 3215.633
537.1875, 3311.254
537.6696, 3401.877
538.1517, 3493.982
538.6339, 3588.252
539.1160, 3665.202
539.5981, 3723.021
540.0802, 3764.414
540.5623, 3794.808
541.0444, 3813.325
541.5266, 3815.995
542.0087, 3800.828
542.4908, 3770.079
542.9729, 3724.258
543.4550, 3665.137
543.9371, 3598.540
544.4193, 3525.289
544.9014, 3446.848
545.3835, 3363.145
545.8656, 3273.971
546.3477, 3184.170
546.8298, 3091.086
547.3120, 2999.520
547.7941, 2914.059
548.2762, 2833.367
548.7583, 2760.677
549.2404, 2695.647
549.7225, 2638.740
550.2047, 2590.948
550.6868, 2552.623
551.1689, 2522.782
551.6510, 2502.194
552.1331, 2490.163
552.6152, 2483.361
553.0974, 2482.135
553.5795, 2484.557
554.0616, 2490.185
554.5437, 2498.677
555.0258, 2508.589
555.5079, 2520.257
555.9901, 2530.958
556.4722, 2539.751
556.9543, 2545.436
557.4364, 2545.647
557.9185, 2540.285
558.4006, 2528.207
558.8828, 2506.143
559.3649, 2476.622
559.8470, 2445.068
560.3291, 2412.793
560.8112, 2379.666
561.2933, 2343.638
561.7755, 2304.617
562.2576, 2270.439
562.7397, 2241.490
563.2218, 2218.730
563.7039, 2202.795
564.1860, 2194.883
564.6682, 2190.617
565.1503, 2189.465
565.6324, 2192.631
566.1145, 2201.542
566.5966, 2216.369
567.0787, 2236.651
567.5609, 2262.585
568.0430, 2293.608
568.5251, 2327.648
569.0072, 2365.146
569.4893, 2406.878
569.9714, 2456.999
570.4536, 2510.420
570.9357, 2561.925
571.4178, 2610.907
571.8999, 2654.177
572.3820, 2695.384
572.8641, 2726.137
573.3463, 2738.571
573.8284, 2730.726
574.3105, 2706.395
574.7926, 2663.620
575.2747, 2606.063
575.7568, 2538.306
576.2390, 2452.313
576.7211, 2366.064
577.2032, 2280.561
577.6853, 2195.977
578.1674, 2115.467
578.6495, 2038.959
579.1317, 1966.821
579.6138, 1899.407
580.0959, 1836.590
580.5780, 1777.441
581.0601, 1721.459
581.5422, 1669.218
582.0244, 1621.184
582.5065, 1576.917
582.9886, 1536.044
583.4707, 1497.715
583.9528, 1463.557
