##NAMES=Nifontovite
##RRUFFID=R080138
##IDEAL CHEMISTRY=Ca_3_[BO(OH)_2_]_6_&#183;2H_2_O
##LOCALITY=Charcas, San Luis Potosi, Mexico
##OWNER=RRUFF
##SOURCE=Marcus Origlieri
##DESCRIPTION=Colorless prismatic crystal
##STATUS=The identification of this mineral has been confirmed by single-crystal X-ray diffraction.
##URL=rruff.info/R080138
94.26532, 60.00821
94.74744, 60.28317
95.22955, 59.61512
95.71167, 58.46859
96.19379, 57.17921
96.67590, 55.77827
97.15803, 54.57600
97.64014, 53.66802
98.12226, 52.96380
98.60438, 52.34234
99.08649, 51.83886
99.56861, 51.32399
100.0507, 50.57162
100.5328, 49.43952
101.0150, 48.31710
101.4971, 47.48574
101.9792, 46.94189
102.4613, 46.54379
102.9434, 46.19347
103.4255, 45.97819
103.9077, 46.01023
104.3898, 46.34620
104.8719, 46.86755
105.3540, 47.35231
105.8361, 47.82572
106.3182, 48.20647
106.8004, 48.42370
107.2825, 48.56939
107.7646, 48.71881
108.2467, 48.89823
108.7288, 49.12307
109.2109, 49.64629
109.6931, 50.56822
110.1752, 51.67968
110.6573, 52.79556
111.1394, 54.02917
111.6215, 55.67867
112.1037, 58.00483
112.5858, 61.12429
113.0679, 64.49467
113.5500, 67.87731
114.0321, 71.61421
114.5142, 76.03832
114.9964, 81.20083
115.4785, 86.72850
115.9606, 92.21359
116.4427, 97.65132
116.9248, 103.2066
117.4069, 108.8949
117.8891, 114.7168
118.3712, 120.8455
118.8533, 127.5795
119.3354, 134.1415
119.8175, 140.4550
120.2996, 146.4650
120.7818, 150.7661
121.2639, 151.8730
121.7460, 149.6841
122.2281, 147.1104
122.7102, 143.6545
123.1923, 140.6211
123.6745, 139.2704
124.1566, 139.6703
124.6387, 140.2228
125.1208, 138.6420
125.6029, 134.3696
126.0850, 128.8495
126.5672, 121.5635
127.0493, 113.7130
127.5314, 106.0630
128.0135, 98.90905
128.4956, 92.45558
128.9778, 87.14714
129.4599, 83.48534
129.9420, 80.61732
130.4241, 78.49826
130.9062, 77.13244
131.3883, 76.66061
131.8705, 77.26054
132.3526, 78.69516
132.8347, 79.60448
133.3168, 79.60509
133.7989, 79.59737
134.2810, 79.98441
134.7632, 80.71387
135.2453, 81.48716
135.7274, 82.14179
136.2095, 82.68424
136.6916, 83.18610
137.1737, 83.90266
137.6559, 84.42928
138.1380, 84.52750
138.6201, 84.29911
139.1022, 83.12424
139.5843, 80.24496
140.0664, 76.21268
140.5486, 71.61172
141.0307, 66.29478
141.5128, 60.61684
141.9949, 55.67712
142.4770, 51.49790
142.9591, 48.13924
143.4413, 45.48094
143.9234, 43.52853
144.4055, 42.29272
144.8876, 41.84814
145.3697, 42.19582
145.8518, 42.92739
146.3340, 44.29070
146.8161, 45.85353
147.2982, 48.00085
147.7803, 50.36055
148.2624, 52.05785
148.7445, 52.18274
149.2267, 50.41143
149.7088, 48.24895
150.1909, 45.34797
150.6730, 42.42318
151.1551, 39.78036
151.6372, 37.49638
152.1194, 35.57940
152.6015, 34.02412
153.0836, 32.91286
153.5657, 32.13369
154.0478, 31.80942
154.5300, 31.75509
155.0121, 31.78748
155.4942, 31.85715
155.9763, 32.03719
156.4584, 32.42489
156.9405, 32.96878
157.4227, 33.84551
157.9048, 35.34762
158.3869, 37.20807
158.8690, 38.83686
159.3511, 40.01036
159.8332, 41.02363
160.3154, 42.43552
160.7975, 44.28999
161.2796, 45.67233
161.7617, 45.80639
162.2438, 44.78136
162.7259, 43.75620
163.2081, 42.90022
163.6902, 42.22125
164.1723, 41.62943
164.6544, 41.11813
165.1365, 40.95041
165.6186, 41.44420
166.1008, 42.68249
166.5829, 44.22005
167.0650, 46.35741
167.5471, 48.52256
168.0292, 50.42019
168.5113, 51.95952
168.9935, 53.12106
169.4756, 53.93784
169.9577, 54.73756
170.4398, 54.41773
170.9219, 52.53966
171.4040, 49.92719
171.8862, 47.12192
172.3683, 44.34999
172.8504, 41.67332
173.3325, 39.21321
173.8146, 37.06296
174.2967, 35.08953
174.7789, 33.14571
175.2610, 31.41601
175.7431, 30.19129
176.2252, 29.60681
176.7073, 29.47523
177.1894, 29.18735
177.6716, 28.31317
178.1537, 27.81281
178.6358, 28.06793
179.1179, 28.81354
179.6000, 29.57058
180.0822, 30.12912
180.5643, 30.50551
181.0464, 30.73861
181.5285, 30.58908
182.0106, 30.65838
182.4927, 31.33105
182.9749, 32.50626
183.4570, 33.71923
183.9391, 34.69660
184.4212, 35.62172
184.9033, 36.86301
185.3854, 38.59608
185.8676, 40.36480
186.3497, 41.84893
186.8318, 43.04755
187.3139, 44.00523
187.7960, 44.82415
188.2781, 45.33969
188.7603, 45.31910
189.2424, 44.64129
189.7245, 43.58562
190.2066, 42.46379
190.6887, 41.25270
191.1708, 40.05101
191.6530, 38.79006
192.1351, 37.59832
192.6172, 36.60204
193.0993, 35.85573
193.5814, 35.30260
194.0635, 34.81428
194.5457, 34.27798
195.0278, 34.06919
195.5099, 34.46564
195.9920, 35.07561
196.4741, 35.47549
196.9562, 35.46373
197.4384, 35.24459
197.9205, 35.41904
198.4026, 36.27169
198.8847, 37.17290
199.3668, 38.24880
199.8489, 39.25574
200.3311, 39.87684
200.8132, 39.94286
201.2953, 39.61047
201.7774, 39.49911
202.2595, 39.80667
202.7417, 40.13435
203.2238, 40.29163
203.7059, 40.47861
204.1880, 40.94612
204.6701, 41.81817
205.1522, 43.09816
205.6344, 44.84065
206.1165, 47.29778
206.5986, 49.89188
207.0807, 52.54939
207.5628, 55.26030
208.0449, 57.98707
208.5271, 60.67935
209.0092, 63.41576
209.4913, 66.49731
209.9734, 70.39675
210.4555, 74.00939
210.9376, 77.24467
211.4198, 79.93690
211.9019, 81.64074
212.3840, 82.09935
212.8661, 81.32883
213.3482, 79.60958
213.8303, 76.57838
214.3125, 73.30041
214.7946, 70.12660
215.2767, 67.11322
215.7588, 64.66795
216.2409, 63.07610
216.7230, 62.14373
217.2052, 61.29295
217.6873, 60.43049
218.1694, 59.85542
218.6515, 59.78349
219.1336, 60.21024
219.6157, 61.04760
220.0979, 62.54921
220.5800, 64.29398
221.0621, 65.92393
221.5442, 67.47118
222.0263, 68.61258
222.5084, 69.05925
222.9906, 68.80489
223.4727, 67.93528
223.9548, 66.26265
224.4369, 64.05751
224.9190, 61.37197
225.4011, 58.17752
225.8833, 54.84452
226.3654, 51.70905
226.8475, 48.75811
227.3296, 46.13653
227.8117, 44.21204
228.2939, 42.42034
228.7760, 40.35248
229.2581, 37.93488
229.7402, 35.57645
230.2223, 33.85151
230.7044, 32.92601
231.1866, 32.10862
231.6687, 31.40573
232.1508, 30.72773
232.6329, 30.04279
233.1150, 29.33335
233.5971, 28.57825
234.0793, 27.72506
234.5614, 26.69217
235.0435, 25.76803
235.5256, 24.90647
236.0077, 24.17015
236.4898, 23.59864
236.9720, 23.20278
237.4541, 22.97399
237.9362, 22.94191
238.4183, 23.29915
238.9004, 23.36803
239.3825, 22.89263
239.8647, 22.37413
240.3468, 22.13536
240.8289, 22.21596
241.3110, 22.44635
241.7931, 22.62555
242.2752, 22.74191
242.7574, 22.82632
243.2395, 22.84133
243.7216, 22.85684
244.2037, 22.92803
244.6858, 23.05548
245.1679, 23.18699
245.6501, 23.25474
246.1322, 23.21889
246.6143, 23.29986
247.0964, 23.46011
247.5785, 23.74970
248.0606, 24.37811
248.5428, 25.27757
249.0249, 25.95549
249.5070, 25.82315
249.9891, 24.68428
250.4712, 24.32467
250.9533, 25.34922
251.4355, 26.62944
251.9176, 27.37359
252.3997, 27.57108
252.8818, 27.74792
253.3639, 28.34301
253.8461, 29.38188
254.3282, 30.37296
254.8103, 31.36304
255.2924, 32.27206
255.7745, 32.92137
256.2566, 33.35127
256.7387, 33.93995
257.2209, 35.01328
257.7030, 36.50338
258.1851, 37.82509
258.6672, 38.81727
259.1493, 39.76628
259.6314, 40.98248
260.1136, 42.41588
260.5957, 43.59330
261.0778, 44.18703
261.5599, 44.30215
262.0420, 44.42070
262.5241, 44.50655
263.0063, 44.64246
263.4884, 44.89297
263.9705, 45.25155
264.4526, 45.66488
264.9348, 46.11639
265.4169, 46.60735
265.8990, 47.08834
266.3811, 47.47826
266.8632, 48.04344
267.3453, 49.09947
267.8275, 50.57598
268.3096, 51.95945
268.7917, 53.15177
269.2738, 54.05152
269.7559, 54.54482
270.2380, 54.57310
270.7202, 54.50684
271.2023, 54.61386
271.6844, 54.86166
272.1665, 55.04020
272.6486, 55.15002
273.1307, 55.09306
273.6129, 54.89288
274.0950, 54.54482
274.5771, 53.83648
275.0592, 52.57078
275.5413, 50.79521
276.0234, 48.75668
276.5056, 46.23798
276.9877, 43.79340
277.4698, 41.76603
277.9519, 40.13954
278.4340, 38.80711
278.9161, 37.72399
279.3983, 36.88615
279.8804, 36.26076
280.3625, 35.87373
280.8446, 35.68624
281.3267, 35.70221
281.8088, 35.87059
282.2910, 36.07417
282.7731, 36.22618
283.2552, 36.36578
283.7373, 36.66862
284.2194, 37.30931
284.7015, 37.77329
285.1837, 37.64691
285.6658, 37.24773
286.1479, 37.06361
286.6300, 37.37682
287.1121, 37.97838
287.5942, 38.36414
288.0764, 38.38724
288.5585, 38.54613
289.0406, 38.98756
289.5227, 39.65590
290.0048, 40.54017
290.4869, 41.67468
290.9691, 42.91962
291.4512, 43.97161
291.9333, 44.66192
292.4154, 45.70337
292.8975, 47.57133
293.3796, 49.68189
293.8618, 51.55393
294.3439, 53.06663
294.8260, 54.54989
295.3081, 56.42297
295.7902, 58.72520
296.2723, 61.21638
296.7545, 64.21465
297.2366, 67.13985
297.7187, 69.55607
298.2008, 71.46595
298.6829, 73.29508
299.1650, 75.62777
299.6472, 78.59818
300.1293, 80.84034
300.6114, 81.45659
301.0935, 82.01264
301.5756, 83.33233
302.0577, 85.24026
302.5399, 87.02072
303.0220, 88.07285
303.5041, 88.42306
303.9862, 88.70755
304.4683, 89.17506
304.9504, 89.24442
305.4326, 88.85220
305.9147, 87.93153
306.3968, 86.35584
306.8789, 83.98792
307.3610, 80.94209
307.8431, 77.73291
308.3253, 74.30728
308.8074, 70.78498
309.2895, 67.10062
309.7716, 63.37843
310.2537, 59.76066
310.7358, 56.26849
311.2180, 53.00787
311.7001, 50.25776
312.1822, 48.09888
312.6643, 46.25963
313.1465, 44.70338
313.6286, 43.37594
314.1107, 42.25111
314.5928, 41.31907
315.0749, 40.54066
315.5570, 39.82906
316.0392, 39.11332
316.5213, 38.73473
317.0034, 39.06949
317.4855, 39.48597
317.9676, 39.62926
318.4497, 39.48375
318.9319, 39.27441
319.4140, 39.27700
319.8961, 39.53801
320.3782, 39.55249
320.8603, 39.10586
321.3424, 38.59435
321.8246, 38.14049
322.3067, 37.74386
322.7888, 37.37975
323.2709, 37.08294
323.7530, 36.81285
324.2351, 36.23474
324.7173, 34.91973
325.1994, 33.90761
325.6815, 33.61440
326.1636, 33.75574
326.6457, 33.94445
327.1278, 34.00291
327.6100, 33.97335
328.0921, 33.92538
328.5742, 33.75401
329.0563, 33.80713
329.5384, 34.35143
330.0205, 35.02358
330.5027, 35.50459
330.9848, 35.70513
331.4669, 35.78090
331.9490, 35.98948
332.4311, 36.41248
332.9132, 36.60828
333.3954, 36.17157
333.8775, 35.73800
334.3596, 35.73433
334.8417, 36.14110
335.3238, 36.55768
335.8059, 36.49728
336.2881, 35.94749
336.7702, 35.80477
337.2523, 36.34885
337.7344, 37.04014
338.2165, 37.62927
338.6986, 38.16218
339.1808, 38.77595
339.6629, 39.56656
340.1450, 40.49886
340.6271, 41.45996
341.1092, 42.48785
341.5913, 43.46399
342.0735, 44.27191
342.5556, 45.03369
343.0377, 45.92140
343.5198, 47.02606
344.0019, 48.19999
344.4840, 49.26274
344.9662, 50.27473
345.4483, 50.94371
345.9304, 50.99541
346.4125, 50.75837
346.8946, 50.37176
347.3767, 49.86030
347.8589, 49.35426
348.3410, 48.99072
348.8231, 48.76475
349.3052, 48.53905
349.7873, 48.30977
350.2694, 48.05596
350.7516, 47.69275
351.2337, 47.26947
351.7158, 46.99506
352.1979, 47.06490
352.6800, 47.38383
353.1621, 47.63428
353.6443, 47.78102
354.1264, 47.92898
354.6085, 48.07627
355.0906, 48.27491
355.5727, 48.61640
356.0548, 49.11855
356.5370, 49.79109
357.0191, 50.61361
357.5012, 51.56682
357.9833, 52.83200
358.4654, 54.67730
358.9475, 56.77533
359.4297, 58.67014
359.9118, 60.25843
360.3939, 61.97594
360.8760, 64.10202
361.3581, 66.61547
361.8402, 69.51201
362.3224, 72.92876
362.8045, 76.49339
363.2866, 79.81124
363.7687, 82.90117
364.2509, 85.98360
364.7330, 89.18265
365.2151, 92.42863
365.6972, 95.71495
366.1793, 99.11764
366.6614, 102.1806
367.1436, 104.5866
367.6257, 106.3583
368.1078, 107.5702
368.5899, 108.5225
369.0720, 108.6781
369.5541, 107.3616
370.0363, 104.7243
370.5184, 101.7628
371.0005, 98.92314
371.4826, 96.04140
371.9647, 92.69333
372.4468, 88.64501
372.9290, 84.80564
373.4111, 81.65101
373.8932, 78.92193
374.3753, 76.19423
374.8574, 73.34853
375.3395, 70.54456
375.8217, 67.96550
376.3038, 65.60091
376.7859, 63.62048
377.2680, 62.08163
377.7501, 60.90745
378.2322, 60.05867
378.7144, 59.52084
379.1965, 59.26287
379.6786, 59.30190
380.1607, 59.61603
380.6428, 59.90372
381.1249, 60.01193
381.6071, 60.26030
382.0892, 60.83679
382.5713, 61.62659
383.0534, 62.37361
383.5355, 62.95939
384.0176, 63.53974
384.4998, 64.46994
384.9819, 66.09489
385.4640, 67.52283
385.9461, 68.85714
386.4282, 69.90870
386.9103, 70.46582
387.3925, 70.52212
387.8746, 70.25358
388.3567, 69.81792
388.8388, 69.18635
389.3209, 68.59514
389.8030, 68.38259
390.2852, 67.86082
390.7673, 66.56350
391.2494, 64.76796
391.7315, 63.01488
392.2136, 61.61789
392.6957, 60.51942
393.1779, 59.51891
393.6600, 58.53764
394.1421, 57.79311
394.6242, 57.41652
395.1063, 57.19799
395.5884, 56.92349
396.0706, 56.55162
396.5527, 56.24700
397.0348, 56.25682
397.5169, 56.67249
397.9990, 57.03691
398.4811, 57.11835
398.9633, 57.35925
399.4454, 58.09917
399.9275, 59.16196
400.4096, 60.09062
400.8917, 60.52512
401.3738, 60.60164
401.8560, 60.91555
402.3381, 61.57867
402.8202, 62.27408
403.3023, 62.78533
403.7844, 63.33390
404.2665, 64.18554
404.7487, 65.43060
405.2308, 66.83961
405.7129, 68.10117
406.1950, 69.20738
406.6771, 70.44898
407.1592, 71.80138
407.6414, 73.39817
408.1235, 75.23393
408.6056, 77.33914
409.0877, 79.86216
409.5698, 82.90453
410.0519, 86.40839
410.5341, 90.24145
411.0162, 94.34721
411.4983, 98.93490
411.9804, 104.3214
412.4626, 110.2374
412.9447, 116.2345
413.4268, 122.3083
413.9089, 128.3344
414.3910, 134.3006
414.8731, 140.1463
415.3553, 145.7400
415.8374, 151.3718
416.3195, 156.1595
416.8016, 158.6243
417.2837, 158.8588
417.7658, 158.0945
418.2480, 156.4733
418.7301, 154.1192
419.2122, 150.9708
419.6943, 147.0632
420.1764, 142.9323
420.6585, 138.8702
421.1407, 134.9432
421.6228, 131.7715
422.1049, 130.1262
422.5870, 128.2795
423.0691, 125.4549
423.5512, 121.9771
424.0334, 118.4079
424.5155, 114.9856
424.9976, 111.6093
425.4797, 108.1235
425.9618, 104.4880
426.4439, 100.8179
426.9261, 96.88279
427.4082, 93.07636
427.8903, 89.67566
428.3724, 86.67420
428.8545, 83.91726
429.3366, 81.26869
429.8188, 78.71849
430.3009, 76.37398
430.7830, 74.31570
431.2651, 72.38074
431.7472, 70.66638
432.2293, 69.01720
432.7115, 67.27386
433.1936, 65.37874
433.6757, 63.39341
434.1578, 61.38682
434.6399, 59.28501
435.1220, 57.44046
435.6042, 55.86058
436.0863, 54.58467
436.5684, 53.83005
437.0505, 53.44500
437.5326, 52.95621
438.0147, 51.93385
438.4969, 50.59406
438.9790, 49.73159
439.4611, 49.48568
439.9432, 49.37104
440.4253, 49.59597
440.9074, 49.66129
441.3896, 48.90828
441.8717, 47.10133
442.3538, 45.04535
442.8359, 43.45597
443.3180, 42.24867
443.8001, 41.01582
444.2823, 39.70499
444.7644, 38.28977
445.2465, 36.64991
445.7286, 34.83902
446.2107, 33.18029
446.6928, 31.72158
447.1750, 30.47790
447.6571, 29.54389
448.1392, 28.89267
448.6213, 28.27748
449.1034, 27.56926
449.5855, 26.81656
450.0677, 26.16677
450.5498, 25.69525
451.0319, 25.15192
451.5140, 24.29386
451.9961, 23.41280
452.4782, 22.97142
452.9604, 23.02226
453.4425, 23.08004
453.9246, 22.59384
454.4067, 21.46681
454.8888, 20.84545
455.3709, 21.20244
455.8531, 21.46107
456.3352, 21.06752
456.8173, 20.34467
457.2994, 19.89382
457.7815, 19.99672
458.2636, 20.37555
458.7458, 20.44974
459.2279, 20.11843
459.7100, 19.67371
460.1921, 18.83021
460.6742, 18.13618
461.1564, 17.98402
461.6385, 18.30369
462.1206, 18.75116
462.6027, 19.12563
463.0848, 19.39584
463.5670, 19.35753
464.0491, 18.82971
464.5312, 18.36013
465.0133, 18.15613
465.4954, 18.08710
465.9775, 18.02280
466.4597, 17.93054
466.9418, 17.88170
467.4239, 18.00629
467.9060, 18.26242
468.3881, 18.35707
468.8702, 18.20571
469.3524, 17.96889
469.8345, 17.73726
470.3166, 17.52281
470.7987, 17.37697
471.2808, 17.28543
471.7629, 17.28870
472.2451, 17.54269
472.7272, 17.97135
473.2093, 18.14115
473.6914, 17.79565
474.1735, 17.23497
474.6556, 17.07541
475.1378, 17.44622
475.6199, 17.70817
476.1020, 17.79273
476.5841, 17.71290
477.0662, 17.36318
477.5483, 16.80909
478.0305, 16.36255
478.5126, 16.27116
478.9947, 16.49850
479.4768, 16.72777
479.9589, 17.04196
480.4410, 17.25727
480.9232, 17.26668
481.4053, 17.20901
481.8874, 17.22197
482.3695, 17.34026
482.8516, 17.51493
483.3337, 17.71900
483.8159, 17.97683
484.2980, 18.05045
484.7801, 17.76357
485.2622, 17.48451
485.7443, 17.29604
486.2264, 17.21001
486.7086, 17.28230
487.1907, 17.58593
487.6728, 17.87492
488.1549, 17.67743
488.6370, 16.94674
489.1191, 16.52081
489.6013, 16.73477
490.0834, 17.15073
490.5655, 17.36241
491.0476, 17.40130
491.5297, 17.48158
492.0118, 17.82781
492.4940, 18.18481
492.9761, 18.12709
493.4582, 17.67469
493.9403, 17.35925
494.4224, 17.49290
494.9045, 17.89946
495.3867, 18.12962
495.8688, 18.13932
496.3509, 18.12648
496.8330, 18.12067
497.3151, 18.12374
497.7972, 18.10014
498.2794, 18.06521
498.7615, 18.14770
499.2436, 18.49561
499.7257, 19.07926
500.2078, 19.37387
500.6899, 19.04470
501.1721, 18.83052
501.6542, 18.96213
502.1363, 19.21061
502.6184, 19.28455
503.1005, 19.12569
503.5826, 18.96087
504.0648, 19.12224
504.5469, 19.66343
505.0290, 19.98220
505.5111, 19.88063
505.9932, 19.79800
506.4753, 19.93978
506.9575, 20.20316
507.4396, 20.42995
507.9217, 20.56949
508.4038, 20.63082
508.8859, 20.56093
509.3680, 20.37434
509.8502, 20.33922
510.3323, 20.53990
510.8144, 20.86728
511.2965, 21.29788
511.7787, 21.79464
512.2607, 22.13213
512.7429, 22.07724
513.2250, 21.98074
513.7071, 22.18254
514.1892, 22.62299
514.6713, 23.00747
515.1534, 23.18752
515.6356, 23.30180
516.1177, 23.63376
516.5998, 24.32805
517.0819, 24.92981
517.5640, 25.28279
518.0461, 25.65867
518.5283, 26.31749
519.0104, 27.18234
519.4925, 27.95075
519.9746, 28.41246
520.4567, 28.66218
520.9388, 29.05316
521.4210, 29.64841
521.9031, 30.27285
522.3852, 30.85510
522.8673, 31.49408
523.3494, 32.25243
523.8315, 33.13439
524.3137, 34.11828
524.7958, 35.19923
525.2779, 36.36193
525.7600, 37.51895
526.2421, 38.63677
526.7242, 39.86497
527.2064, 41.29506
527.6885, 42.86373
528.1706, 44.49317
528.6527, 46.16742
529.1348, 47.94133
529.6169, 49.85745
530.0991, 51.89369
530.5812, 54.01469
531.0633, 56.21669
531.5454, 58.52344
532.0275, 60.93356
532.5096, 63.46817
532.9918, 66.22456
533.4739, 69.44340
533.9560, 72.51992
534.4381, 75.11868
534.9202, 77.62562
535.4024, 80.57773
535.8845, 83.99658
536.3666, 87.38933
536.8488, 90.23614
537.3309, 92.54424
537.8130, 94.72585
538.2951, 96.92045
538.7772, 98.77979
539.2593, 100.3188
539.7415, 101.4589
540.2236, 102.0852
540.7057, 102.1707
541.1878, 101.8703
541.6699, 101.3028
542.1520, 100.4758
542.6342, 99.43651
543.1163, 98.21135
543.5984, 96.71553
544.0805, 94.72628
544.5626, 92.46436
545.0447, 90.33776
545.5269, 88.47673
546.0090, 86.61790
546.4911, 84.42292
546.9732, 82.15173
547.4553, 80.31169
547.9374, 78.99723
548.4196, 78.08005
548.9017, 77.45023
549.3838, 77.10744
549.8659, 77.00115
550.3480, 76.99557
550.8301, 77.33780
551.3123, 78.12888
551.7944, 79.29072
552.2765, 80.82955
552.7586, 82.69827
553.2407, 84.64083
553.7228, 86.35222
554.2050, 87.82563
554.6871, 89.22762
555.1692, 90.91611
555.6513, 91.98052
556.1334, 91.95969
556.6155, 91.25744
557.0977, 90.42894
557.5798, 89.65015
558.0619, 88.52079
558.5440, 86.50435
559.0261, 83.81776
559.5082, 81.20511
559.9904, 78.76601
560.4725, 76.45974
560.9546, 74.33862
561.4367, 72.34194
561.9188, 70.12449
562.4009, 67.08543
562.8831, 64.59081
563.3652, 63.43610
563.8473, 63.00220
564.3294, 62.40289
564.8115, 61.46716
565.2936, 60.62582
565.7758, 60.29949
566.2579, 60.48820
566.7400, 60.95930
567.2221, 61.86695
567.7042, 62.89568
568.1863, 64.07569
568.6685, 65.30199
569.1506, 66.49158
569.6327, 67.61229
570.1148, 68.64037
570.5969, 69.65147
571.0790, 70.58289
571.5612, 71.03484
572.0433, 71.00741
572.5254, 70.47945
573.0075, 69.39376
573.4896, 67.79575
573.9717, 65.69877
574.4539, 63.02551
574.9360, 60.15648
575.4181, 57.17475
575.9002, 54.14899
576.3823, 51.10054
576.8644, 48.04993
577.3466, 45.24457
577.8287, 42.87826
578.3108, 40.88046
578.7929, 38.90611
579.2750, 36.83022
579.7571, 34.94417
580.2393, 33.38100
580.7214, 31.93735
581.2035, 30.36969
581.6856, 28.73901
582.1677, 27.33571
582.6498, 26.40967
583.1320, 25.85592
583.6141, 25.34493
584.0962, 24.88234
584.5783, 24.43688
585.0604, 24.00430
585.5425, 23.58054
586.0247, 23.10935
586.5068, 22.60674
586.9889, 21.99949
587.4710, 22.19415
587.9531, 22.25377
588.4352, 22.18624
588.9174, 21.57529
589.3995, 21.69310
589.8816, 21.53541
590.3637, 21.37774
590.8458, 21.63188
591.3279, 21.16077
591.8101, 21.43217
592.2922, 21.42370
