##NAMES=Nioboaeschynite-(Ce)
##RRUFFID=R110056
##IDEAL CHEMISTRY=(Ce^3+^,Ca)(Nb^5+^,Ti^4+^)_2_(O,OH)_6_
##LOCALITY=Upper Fir carbonatite, Kamloops mining division, British Columbia, Canada
##OWNER=RRUFF
##SOURCE=Don Doell
##DESCRIPTION=Black platy crystals and cleavages, massive
##STATUS=The identification of this mineral is confirmed by single-crystal X-ray diffraction and chemical analysis.
##URL=rruff.info/R110056
##MEASURED CHEMISTRY=(Ce_0.35_Ca_0.25_Nd_0.14_La_0.12_Th_0.06_Pr_0.04_Fe_0.03_Sm_0.02_Y_0.02_Gd_0.01_Sr_0.01_)_Σ=1.05_(Nb_1.13_Ti_0.86_)_Σ=1.99_O_6_
206.8294, 878.6895
207.3115, 880.8935
207.7936, 882.6162
208.2758, 884.3033
208.7579, 886.6631
209.2400, 890.4068
209.7221, 893.1986
210.2042, 894.3783
210.6863, 895.2336
211.1685, 896.6525
211.6506, 898.8017
212.1327, 901.2295
212.6148, 903.2646
213.0969, 904.3939
213.5790, 906.2350
214.0612, 909.2802
214.5433, 912.6638
215.0254, 915.8920
215.5075, 918.7841
215.9896, 921.2426
216.4717, 923.0217
216.9539, 923.5966
217.4360, 924.7907
217.9181, 926.7726
218.4002, 929.3171
218.8823, 932.2823
219.3644, 935.6290
219.8466, 939.2849
220.3287, 943.3740
220.8108, 948.1760
221.2929, 951.9215
221.7750, 953.4657
222.2571, 954.1745
222.7393, 955.8500
223.2214, 958.9557
223.7035, 962.4714
224.1856, 964.8962
224.6677, 966.3093
225.1498, 968.3792
225.6320, 971.9910
226.1141, 976.4133
226.5962, 980.5042
227.0783, 984.1023
227.5604, 987.3146
228.0425, 990.0900
228.5247, 992.5211
229.0068, 995.0746
229.4889, 997.7939
229.9710, 1000.748
230.4531, 1004.290
230.9352, 1008.831
231.4174, 1013.114
231.8995, 1015.772
232.3816, 1017.353
232.8637, 1019.356
233.3458, 1022.927
233.8279, 1027.518
234.3101, 1031.272
234.7922, 1033.417
235.2743, 1035.926
235.7564, 1040.429
236.2385, 1046.054
236.7206, 1051.024
237.2028, 1053.819
237.6849, 1055.100
238.1670, 1057.868
238.6491, 1063.048
239.1312, 1068.419
239.6133, 1073.497
240.0955, 1078.085
240.5776, 1081.813
241.0597, 1084.060
241.5418, 1085.360
242.0239, 1088.395
242.5060, 1095.002
242.9882, 1100.872
243.4703, 1103.983
243.9524, 1105.789
244.4345, 1108.533
244.9166, 1113.656
245.3987, 1120.527
245.8809, 1126.048
246.3630, 1129.121
246.8451, 1132.138
247.3272, 1135.366
247.8093, 1138.891
248.2914, 1142.781
248.7736, 1147.087
249.2557, 1151.759
249.7378, 1156.568
250.2199, 1162.102
250.7020, 1167.026
251.1841, 1171.050
251.6663, 1174.412
252.1484, 1177.074
252.6305, 1179.010
253.1126, 1180.771
253.5947, 1184.203
254.0768, 1192.006
254.5590, 1198.231
255.0411, 1201.380
255.5232, 1203.238
256.0053, 1205.709
256.4874, 1209.594
256.9695, 1214.546
257.4517, 1219.719
257.9338, 1226.141
258.4159, 1231.509
258.8980, 1234.832
259.3801, 1237.523
259.8622, 1241.077
260.3444, 1246.005
260.8265, 1251.827
261.3086, 1257.687
261.7907, 1264.425
262.2728, 1269.761
262.7549, 1272.092
263.2371, 1273.788
263.7192, 1277.408
264.2013, 1283.606
264.6834, 1290.825
265.1655, 1296.788
265.6476, 1300.880
266.1298, 1305.012
266.6119, 1309.689
267.0940, 1314.195
267.5761, 1317.670
268.0582, 1320.002
268.5403, 1321.957
269.0225, 1324.330
269.5046, 1327.137
269.9867, 1330.678
270.4688, 1335.534
270.9509, 1340.770
271.4330, 1345.772
271.9152, 1350.422
272.3973, 1354.570
272.8794, 1357.941
273.3615, 1360.464
273.8436, 1363.049
274.3257, 1365.241
274.8079, 1367.836
275.2900, 1371.847
275.7721, 1377.209
276.2542, 1382.275
276.7363, 1385.652
277.2184, 1387.510
277.7006, 1390.150
278.1827, 1394.351
278.6648, 1398.693
279.1469, 1402.152
279.6290, 1404.782
280.1111, 1407.198
280.5933, 1409.694
281.0754, 1412.264
281.5575, 1414.889
282.0396, 1417.748
282.5217, 1420.448
283.0038, 1422.568
283.4860, 1424.241
283.9681, 1426.277
284.4502, 1429.335
284.9323, 1432.716
285.4144, 1434.891
285.8965, 1435.321
286.3787, 1435.919
286.8608, 1437.842
287.3429, 1440.819
287.8250, 1444.052
288.3071, 1447.659
288.7892, 1450.850
289.2714, 1452.414
289.7535, 1452.216
290.2356, 1451.822
290.7177, 1451.370
291.1998, 1451.246
291.6819, 1452.743
292.1641, 1456.707
292.6462, 1461.266
293.1283, 1464.574
293.6104, 1466.748
294.0925, 1468.054
294.5746, 1467.816
295.0568, 1466.900
295.5389, 1467.214
296.0210, 1469.307
296.5031, 1471.639
296.9852, 1472.494
297.4673, 1472.449
297.9495, 1473.172
298.4316, 1475.922
298.9137, 1479.466
299.3958, 1482.021
299.8779, 1483.490
300.3600, 1484.238
300.8422, 1483.623
301.3243, 1482.561
301.8064, 1482.787
302.2885, 1485.604
302.7706, 1488.969
303.2527, 1490.250
303.7349, 1489.283
304.2170, 1488.628
304.6991, 1489.619
305.1812, 1491.595
305.6633, 1493.680
306.1454, 1495.788
306.6276, 1497.955
307.1097, 1500.180
307.5918, 1502.465
308.0739, 1504.902
308.5560, 1507.375
309.0381, 1510.155
309.5203, 1513.683
310.0024, 1518.085
310.4845, 1522.174
310.9666, 1524.651
311.4487, 1525.945
311.9308, 1528.331
312.4130, 1532.896
312.8951, 1537.680
313.3772, 1540.201
313.8593, 1540.911
314.3414, 1542.860
314.8235, 1548.662
315.3057, 1556.781
315.7878, 1563.198
316.2699, 1567.087
316.7520, 1570.401
317.2341, 1574.315
317.7162, 1578.720
318.1984, 1583.518
318.6805, 1589.034
319.1626, 1594.749
319.6447, 1599.776
320.1268, 1604.003
320.6089, 1608.112
321.0911, 1611.783
321.5732, 1615.833
322.0553, 1621.723
322.5374, 1630.708
323.0195, 1640.080
323.5016, 1646.787
323.9838, 1650.853
324.4659, 1654.707
324.9480, 1658.731
325.4301, 1663.421
325.9122, 1669.315
326.3943, 1676.622
326.8765, 1684.439
327.3586, 1692.263
327.8407, 1700.115
328.3228, 1707.993
328.8049, 1716.038
329.2870, 1723.882
329.7692, 1730.822
330.2513, 1736.949
330.7334, 1743.697
331.2155, 1752.047
331.6976, 1761.460
332.1797, 1770.819
332.6619, 1780.148
333.1440, 1789.018
333.6261, 1796.661
334.1082, 1803.527
334.5903, 1810.758
335.0724, 1818.600
335.5546, 1826.969
336.0367, 1835.952
336.5188, 1845.582
337.0009, 1855.121
337.4830, 1864.542
337.9651, 1873.426
338.4473, 1880.794
338.9294, 1885.502
339.4115, 1890.326
339.8936, 1897.765
340.3757, 1907.520
340.8578, 1917.098
341.3400, 1925.663
341.8221, 1933.571
342.3042, 1941.471
342.7863, 1949.435
343.2684, 1957.180
343.7505, 1964.253
344.2327, 1971.018
344.7148, 1978.581
345.1969, 1987.505
345.6790, 1996.363
346.1611, 2003.169
346.6432, 2008.258
347.1254, 2013.480
347.6075, 2019.257
348.0896, 2025.442
348.5717, 2032.260
349.0538, 2039.825
349.5359, 2046.216
350.0181, 2049.300
350.5002, 2049.923
350.9823, 2052.166
351.4644, 2057.755
351.9465, 2063.716
352.4286, 2067.962
352.9108, 2070.778
353.3929, 2073.652
353.8750, 2077.361
354.3571, 2081.480
354.8392, 2085.009
355.3214, 2087.997
355.8035, 2090.431
356.2856, 2091.990
356.7677, 2093.036
357.2498, 2094.217
357.7319, 2095.728
358.2141, 2097.356
358.6962, 2098.847
359.1783, 2100.194
359.6604, 2101.464
360.1425, 2103.490
360.6246, 2104.948
361.1068, 2104.327
361.5889, 2101.585
362.0710, 2098.125
362.5531, 2095.018
363.0352, 2092.263
363.5173, 2089.530
363.9995, 2086.751
364.4816, 2084.047
364.9637, 2081.476
365.4458, 2079.028
365.9279, 2076.665
366.4100, 2074.362
366.8922, 2072.136
367.3743, 2070.084
367.8564, 2067.979
368.3385, 2066.325
368.8206, 2065.853
369.3027, 2065.571
369.7849, 2064.569
370.2670, 2062.552
370.7491, 2059.244
371.2312, 2054.029
371.7133, 2045.765
372.1954, 2039.219
372.6776, 2035.292
373.1597, 2032.204
373.6418, 2029.277
374.1239, 2026.243
374.6060, 2022.560
375.0881, 2017.495
375.5703, 2011.187
376.0524, 2007.566
376.5345, 2010.319
377.0166, 2011.482
377.4987, 2008.677
377.9808, 2003.318
378.4630, 1997.179
378.9451, 1991.062
379.4272, 1985.438
379.9093, 1981.503
380.3914, 1980.401
380.8735, 1979.154
381.3557, 1977.713
381.8378, 1976.055
382.3199, 1974.204
382.8020, 1972.127
383.2841, 1969.695
383.7662, 1966.625
384.2484, 1962.702
384.7305, 1959.526
385.2126, 1958.176
385.6947, 1956.515
386.1768, 1952.906
386.6589, 1948.514
387.1411, 1945.797
387.6232, 1946.482
388.1053, 1949.502
388.5874, 1951.000
389.0695, 1950.239
389.5516, 1949.282
390.0338, 1948.249
390.5159, 1947.459
390.9980, 1947.571
391.4801, 1948.741
391.9622, 1949.650
392.4443, 1947.958
392.9265, 1943.168
393.4086, 1940.704
393.8907, 1942.938
394.3728, 1946.193
394.8549, 1948.611
395.3370, 1950.217
395.8192, 1951.532
396.3013, 1952.693
396.7834, 1953.828
397.2655, 1955.551
397.7476, 1958.340
398.2297, 1960.458
398.7119, 1959.949
399.1940, 1958.532
399.6761, 1958.468
400.1582, 1960.557
400.6403, 1963.604
401.1224, 1966.525
401.6046, 1969.347
402.0867, 1972.239
402.5688, 1975.201
403.0509, 1978.315
403.5330, 1981.964
404.0151, 1986.189
404.4973, 1989.533
404.9794, 1990.321
405.4615, 1990.105
405.9436, 1991.784
406.4257, 1995.838
406.9078, 2000.508
407.3900, 2004.496
407.8721, 2007.890
408.3542, 2011.290
408.8363, 2014.970
409.3184, 2018.462
409.8005, 2020.840
410.2827, 2022.632
410.7648, 2025.734
411.2469, 2031.163
411.7290, 2037.997
412.2111, 2044.265
412.6932, 2050.146
413.1754, 2055.146
413.6575, 2058.070
414.1396, 2060.643
414.6217, 2065.218
415.1038, 2071.982
415.5859, 2078.490
416.0681, 2082.060
416.5502, 2082.239
417.0323, 2084.486
417.5144, 2089.738
417.9965, 2095.687
418.4786, 2101.422
418.9608, 2107.158
419.4429, 2113.898
419.9250, 2122.262
420.4071, 2131.021
420.8892, 2136.634
421.3713, 2135.806
421.8535, 2136.719
422.3356, 2140.060
422.8177, 2144.794
423.2998, 2150.694
423.7819, 2157.401
424.2640, 2163.799
424.7462, 2168.484
425.2283, 2171.265
425.7104, 2175.457
426.1925, 2182.911
426.6746, 2189.805
427.1567, 2194.729
427.6389, 2198.460
428.1210, 2202.229
428.6031, 2206.644
429.0852, 2211.334
429.5673, 2215.454
430.0494, 2218.798
430.5316, 2222.354
431.0137, 2225.185
431.4958, 2229.155
431.9779, 2236.598
432.4600, 2247.252
432.9421, 2257.053
433.4243, 2261.997
433.9064, 2263.327
434.3885, 2266.571
434.8706, 2272.496
435.3527, 2279.187
435.8348, 2285.725
436.3170, 2292.155
436.7991, 2298.615
437.2812, 2305.123
437.7633, 2311.640
438.2454, 2318.543
438.7275, 2325.647
439.2097, 2331.163
439.6918, 2333.551
440.1739, 2335.417
440.6560, 2341.336
441.1381, 2351.660
441.6202, 2360.653
442.1024, 2365.516
442.5845, 2368.878
443.0666, 2373.712
443.5487, 2380.266
444.0308, 2387.150
444.5129, 2393.540
444.9951, 2399.339
445.4772, 2404.031
445.9593, 2405.629
446.4414, 2408.563
446.9235, 2415.529
447.4056, 2424.290
447.8878, 2431.284
448.3699, 2435.325
448.8520, 2438.227
449.3341, 2442.854
449.8162, 2450.122
450.2983, 2456.516
450.7805, 2462.514
451.2626, 2467.348
451.7447, 2469.591
452.2268, 2470.280
452.7089, 2472.005
453.1910, 2476.559
453.6732, 2483.316
454.1553, 2489.696
454.6374, 2495.912
455.1195, 2501.309
455.6016, 2505.246
456.0837, 2508.772
456.5659, 2512.914
457.0480, 2517.814
457.5301, 2522.478
458.0122, 2525.661
458.4943, 2527.407
458.9764, 2529.688
459.4586, 2533.191
459.9407, 2536.251
460.4228, 2537.393
460.9049, 2537.644
461.3870, 2538.969
461.8691, 2542.556
462.3513, 2546.657
462.8334, 2549.504
463.3155, 2551.084
463.7976, 2550.784
464.2797, 2547.270
464.7618, 2543.145
465.2440, 2541.903
465.7261, 2543.556
466.2082, 2545.185
466.6903, 2546.357
467.1724, 2546.698
467.6545, 2545.461
468.1367, 2542.678
468.6188, 2539.514
469.1009, 2536.644
469.5830, 2534.072
470.0651, 2531.738
470.5472, 2530.321
471.0294, 2528.277
471.5115, 2525.107
471.9936, 2521.140
472.4757, 2516.722
472.9578, 2511.961
473.4399, 2506.776
473.9221, 2500.938
474.4042, 2494.151
474.8863, 2488.458
475.3684, 2484.896
475.8505, 2481.135
476.3326, 2476.678
476.8148, 2471.372
477.2969, 2464.845
477.7790, 2456.919
478.2611, 2448.404
478.7432, 2441.387
479.2253, 2436.968
479.7075, 2431.001
480.1896, 2421.035
480.6717, 2411.106
481.1538, 2403.718
481.6359, 2398.559
482.1180, 2393.477
482.6002, 2386.884
483.0823, 2379.387
483.5644, 2372.826
484.0465, 2367.703
484.5286, 2361.781
485.0107, 2353.636
485.4929, 2344.356
485.9750, 2334.876
486.4571, 2325.142
486.9392, 2316.291
487.4213, 2309.289
487.9034, 2303.621
488.3856, 2298.471
488.8677, 2293.784
489.3498, 2288.681
489.8319, 2282.292
490.3140, 2274.659
490.7961, 2267.352
491.2783, 2259.907
491.7604, 2253.209
492.2425, 2248.403
492.7246, 2244.462
493.2067, 2239.281
493.6888, 2232.144
494.1710, 2224.253
494.6531, 2217.531
495.1352, 2212.230
495.6173, 2207.433
496.0994, 2203.574
496.5815, 2199.725
497.0637, 2195.116
497.5458, 2190.200
498.0279, 2186.205
498.5100, 2183.944
498.9921, 2182.353
499.4742, 2178.375
499.9564, 2170.583
500.4385, 2164.020
500.9206, 2160.071
501.4027, 2156.958
501.8848, 2153.648
502.3669, 2150.155
502.8491, 2147.189
503.3312, 2145.434
503.8133, 2144.516
504.2954, 2143.817
504.7775, 2143.704
505.2596, 2142.021
505.7418, 2136.243
506.2239, 2129.171
506.7060, 2124.879
507.1881, 2124.071
507.6702, 2124.002
508.1523, 2123.617
508.6345, 2122.984
509.1166, 2122.233
509.5987, 2121.377
510.0808, 2120.304
510.5629, 2118.828
511.0450, 2117.012
511.5272, 2115.551
512.0093, 2114.434
512.4914, 2113.608
512.9735, 2113.048
513.4556, 2112.761
513.9377, 2112.911
514.4199, 2113.483
514.9020, 2114.045
515.3841, 2114.121
515.8662, 2113.779
516.3483, 2112.529
516.8304, 2108.930
517.3126, 2105.960
517.7947, 2104.517
518.2768, 2104.226
518.7589, 2104.518
519.2410, 2105.177
519.7231, 2106.220
520.2053, 2108.260
520.6874, 2111.502
521.1695, 2112.292
521.6516, 2108.001
522.1337, 2103.905
522.6158, 2104.170
523.0980, 2107.479
523.5801, 2110.031
524.0622, 2109.657
524.5443, 2108.780
525.0264, 2110.233
525.5085, 2113.634
525.9907, 2116.714
526.4728, 2118.827
526.9549, 2120.024
527.4370, 2120.136
527.9191, 2118.969
528.4012, 2118.134
528.8834, 2117.911
529.3655, 2117.979
529.8476, 2118.519
530.3297, 2119.183
530.8118, 2118.893
531.2939, 2116.977
531.7761, 2114.315
532.2582, 2113.171
532.7403, 2114.095
533.2224, 2115.566
533.7045, 2119.319
534.1866, 2121.969
534.6688, 2120.241
535.1509, 2115.458
535.6330, 2111.952
536.1151, 2112.878
536.5972, 2116.555
537.0793, 2118.686
537.5615, 2119.213
538.0436, 2118.370
538.5257, 2114.689
539.0078, 2110.873
539.4899, 2109.783
539.9720, 2111.334
540.4542, 2112.219
540.9363, 2110.676
541.4184, 2107.623
541.9005, 2103.901
542.3826, 2099.634
542.8647, 2096.144
543.3469, 2094.430
543.8290, 2093.579
544.3111, 2091.004
544.7932, 2085.490
545.2753, 2081.341
545.7574, 2080.520
546.2396, 2080.286
546.7217, 2077.715
547.2038, 2073.213
547.6859, 2069.809
548.1680, 2069.849
548.6501, 2072.227
549.1323, 2071.944
549.6144, 2067.225
550.0965, 2062.848
550.5786, 2058.987
551.0607, 2055.862
551.5428, 2053.888
552.0250, 2052.924
552.5071, 2052.271
552.9892, 2051.951
553.4713, 2051.392
553.9534, 2048.547
554.4355, 2042.936
554.9177, 2037.445
555.3998, 2033.187
555.8819, 2029.656
556.3640, 2026.051
556.8461, 2022.313
557.3282, 2018.927
557.8104, 2015.984
558.2925, 2013.523
558.7746, 2012.169
559.2567, 2011.653
559.7388, 2010.038
560.2209, 2005.973
560.7031, 2000.244
561.1852, 1995.354
561.6673, 1991.589
562.1494, 1988.260
562.6315, 1985.641
563.1136, 1983.240
563.5958, 1980.919
564.0779, 1978.499
564.5600, 1975.617
565.0421, 1971.905
565.5242, 1967.714
566.0063, 1964.269
566.4885, 1961.839
566.9706, 1959.406
567.4527, 1956.812
567.9348, 1954.081
568.4169, 1951.356
568.8990, 1948.585
569.3812, 1945.301
569.8633, 1941.130
570.3454, 1936.412
570.8275, 1931.136
571.3096, 1925.446
571.7917, 1921.297
572.2739, 1919.966
572.7560, 1919.829
573.2381, 1917.911
573.7202, 1913.784
574.2023, 1909.718
574.6844, 1906.021
575.1666, 1902.353
575.6487, 1897.993
576.1308, 1893.462
576.6129, 1890.094
577.0950, 1888.582
577.5771, 1888.416
578.0593, 1888.829
578.5414, 1890.941
579.0235, 1890.529
579.5056, 1884.245
579.9877, 1878.287
580.4698, 1876.017
580.9520, 1876.235
581.4341, 1875.841
581.9162, 1873.397
582.3983, 1869.855
582.8804, 1865.868
583.3625, 1861.597
583.8447, 1859.134
584.3268, 1859.388
584.8089, 1860.642
585.2910, 1861.786
585.7731, 1862.677
586.2552, 1861.627
586.7374, 1856.350
587.2195, 1851.353
587.7016, 1849.721
588.1837, 1849.785
588.6658, 1848.351
589.1479, 1844.523
589.6301, 1840.169
590.1122, 1837.567
590.5943, 1836.878
591.0764, 1836.423
591.5585, 1837.033
592.0406, 1836.855
592.5228, 1834.322
593.0049, 1831.295
593.4870, 1830.309
593.9691, 1831.948
594.4512, 1833.808
594.9333, 1833.439
595.4155, 1831.328
595.8976, 1829.735
596.3797, 1828.977
596.8618, 1827.803
597.3439, 1824.825
597.8260, 1821.225
598.3082, 1819.931
598.7903, 1821.971
599.2724, 1823.724
599.7545, 1823.840
600.2366, 1823.219
600.7188, 1822.796
601.2009, 1822.625
601.6830, 1822.219
602.1651, 1821.178
602.6472, 1819.810
603.1293, 1819.265
603.6115, 1819.781
604.0936, 1820.718
604.5757, 1823.071
605.0578, 1824.873
605.5399, 1824.173
606.0220, 1821.759
606.5042, 1820.333
606.9863, 1821.751
607.4684, 1824.419
607.9505, 1825.629
608.4326, 1825.430
608.9147, 1825.920
609.3969, 1828.230
609.8790, 1830.314
610.3611, 1829.087
610.8432, 1824.942
611.3253, 1823.079
611.8074, 1825.577
612.2896, 1828.883
612.7717, 1831.507
613.2538, 1833.564
613.7359, 1835.234
614.2180, 1836.605
614.7001, 1837.941
615.1823, 1839.570
615.6644, 1841.500
616.1465, 1843.466
616.6286, 1846.017
617.1107, 1847.779
617.5928, 1847.843
618.0750, 1847.319
618.5571, 1847.153
619.0392, 1847.564
619.5213, 1848.723
620.0034, 1851.027
620.4855, 1854.111
620.9677, 1857.348
621.4498, 1860.726
621.9319, 1863.659
622.4140, 1865.638
622.8961, 1867.245
623.3782, 1869.978
623.8604, 1874.657
624.3425, 1877.769
624.8246, 1877.082
625.3067, 1876.316
625.7888, 1878.340
626.2709, 1882.351
626.7531, 1885.847
627.2352, 1887.559
627.7173, 1888.772
628.1994, 1892.238
628.6815, 1898.737
629.1636, 1903.057
629.6458, 1903.261
630.1279, 1903.328
630.6100, 1905.273
631.0921, 1908.434
631.5742, 1911.651
632.0563, 1914.604
632.5385, 1917.676
633.0206, 1921.141
633.5027, 1924.919
633.9848, 1929.157
634.4669, 1933.843
634.9490, 1937.871
635.4312, 1940.336
635.9133, 1941.588
636.3954, 1943.290
636.8775, 1945.945
637.3596, 1948.387
637.8417, 1950.025
638.3239, 1951.883
638.8060, 1955.100
639.2881, 1959.251
639.7702, 1962.784
640.2523, 1964.614
640.7344, 1965.698
641.2166, 1968.172
641.6987, 1972.152
642.1808, 1974.736
642.6629, 1974.537
643.1450, 1974.147
643.6271, 1976.134
644.1093, 1979.920
644.5914, 1983.503
645.0735, 1986.735
645.5556, 1989.556
646.0377, 1991.990
646.5198, 1993.978
647.0020, 1995.002
647.4841, 1995.183
647.9662, 1995.975
648.4483, 1998.860
648.9304, 2003.399
649.4125, 2006.462
649.8947, 2006.916
650.3768, 2007.984
650.8589, 2010.994
651.3410, 2014.146
651.8231, 2016.437
652.3052, 2017.732
652.7874, 2018.014
653.2695, 2016.627
653.7516, 2014.835
654.2337, 2014.002
654.7158, 2014.093
655.1979, 2015.219
655.6801, 2017.583
656.1622, 2019.974
656.6443, 2021.049
657.1264, 2020.740
657.6085, 2020.377
658.0906, 2019.921
658.5728, 2019.479
659.0549, 2019.833
659.5370, 2019.767
660.0191, 2017.531
660.5012, 2013.221
660.9833, 2008.977
661.4655, 2006.389
661.9476, 2005.279
662.4297, 2005.581
662.9118, 2007.575
663.3939, 2008.877
663.8760, 2009.035
664.3582, 2007.856
664.8403, 2004.008
665.3224, 1997.794
665.8045, 1994.104
666.2866, 1995.718
666.7687, 1997.938
667.2509, 1998.948
667.7330, 1998.556
668.2151, 1996.268
668.6972, 1992.103
669.1793, 1987.209
669.6614, 1982.550
670.1436, 1978.187
670.6257, 1975.133
671.1078, 1974.497
671.5899, 1972.862
672.0720, 1968.113
672.5541, 1962.778
673.0363, 1958.756
673.5184, 1956.097
674.0005, 1953.816
674.4826, 1952.199
674.9647, 1950.161
675.4468, 1946.255
675.9290, 1940.998
676.4111, 1935.956
676.8932, 1931.623
677.3753, 1927.518
677.8574, 1923.017
678.3395, 1918.071
678.8217, 1914.122
679.3038, 1913.119
679.7859, 1910.602
680.2680, 1904.921
680.7501, 1898.084
681.2322, 1891.556
681.7144, 1885.696
682.1965, 1880.563
682.6786, 1876.539
683.1607, 1873.101
683.6428, 1869.782
684.1249, 1866.451
684.6071, 1861.547
685.0892, 1853.920
685.5713, 1847.150
686.0534, 1846.327
686.5355, 1852.095
687.0176, 1851.681
687.4998, 1840.064
687.9819, 1829.181
688.4640, 1822.408
688.9461, 1817.560
689.4282, 1812.606
689.9103, 1807.121
690.3925, 1801.331
690.8746, 1795.244
691.3567, 1789.183
691.8388, 1784.308
692.3209, 1780.713
692.8030, 1776.069
693.2852, 1769.520
693.7673, 1762.194
694.2494, 1754.863
694.7315, 1747.591
695.2136, 1741.331
695.6957, 1736.618
696.1779, 1732.284
696.6600, 1728.482
697.1421, 1724.525
697.6242, 1719.477
698.1063, 1713.382
698.5884, 1707.171
699.0706, 1701.603
