##NAMES=Niobophyllite
##RRUFFID=R110048
##IDEAL CHEMISTRY=K_2_NaFe^2+^_7_(Nb^5+^,Ti^4+^)_2_(Si_4_O_12_)_2_O_2_(OH)_4_(O,F)
##LOCALITY=Mount Malosa, Zomba District, Malawi
##OWNER=RRUFF
##SOURCE=Donald M Doell
##DESCRIPTION=Brown tabular platy crystals associated with quartz
##STATUS=The identification of this mineral has been confirmed only by single crystal X-ray diffraction.
##URL=rruff.info/R110048
192.8480, 1195.440
193.3301, 1196.396
193.8123, 1198.230
194.2944, 1198.623
194.7765, 1195.964
195.2586, 1192.923
195.7407, 1192.495
196.2228, 1194.724
196.7050, 1197.141
197.1871, 1197.924
197.6692, 1197.143
198.1513, 1196.335
198.6334, 1195.660
199.1155, 1195.182
199.5977, 1194.912
200.0798, 1194.861
200.5619, 1195.065
201.0440, 1195.657
201.5261, 1196.728
202.0082, 1197.650
202.4904, 1198.205
202.9725, 1198.701
203.4546, 1199.308
203.9367, 1200.039
204.4188, 1200.777
204.9009, 1201.289
205.3831, 1201.331
205.8652, 1201.916
206.3473, 1203.767
206.8294, 1205.602
207.3115, 1206.541
207.7936, 1206.513
208.2758, 1206.172
208.7579, 1206.473
209.2400, 1207.903
209.7221, 1208.901
210.2042, 1209.026
210.6863, 1209.095
211.1685, 1209.608
211.6506, 1210.686
212.1327, 1212.199
212.6148, 1214.016
213.0969, 1216.434
213.5790, 1218.481
214.0612, 1220.031
214.5433, 1221.315
215.0254, 1222.523
215.5075, 1223.692
215.9896, 1224.607
216.4718, 1225.619
216.9539, 1226.166
217.4360, 1226.725
217.9181, 1227.227
218.4002, 1227.781
218.8823, 1228.505
219.3645, 1229.423
219.8466, 1230.483
220.3287, 1231.631
220.8108, 1232.892
221.2929, 1234.156
221.7750, 1235.569
222.2572, 1236.920
222.7393, 1237.969
223.2214, 1238.668
223.7035, 1239.051
224.1856, 1238.974
224.6677, 1238.479
225.1499, 1238.156
225.6320, 1238.325
226.1141, 1238.721
226.5962, 1238.797
227.0783, 1238.303
227.5604, 1237.974
228.0426, 1238.760
228.5247, 1240.407
229.0068, 1241.994
229.4889, 1243.268
229.9710, 1244.220
230.4531, 1244.758
230.9353, 1244.713
231.4174, 1244.572
231.8995, 1244.682
232.3816, 1244.986
232.8637, 1245.355
233.3458, 1245.617
233.8280, 1245.883
234.3101, 1246.657
234.7922, 1248.443
235.2743, 1249.859
235.7564, 1249.762
236.2385, 1248.776
236.7207, 1248.158
237.2028, 1248.617
237.6849, 1250.010
238.1670, 1251.865
238.6491, 1254.904
239.1312, 1257.268
239.6134, 1257.829
240.0955, 1257.360
240.5776, 1257.215
241.0597, 1258.353
241.5418, 1260.406
242.0239, 1261.497
242.5061, 1260.601
242.9882, 1260.140
243.4703, 1261.001
243.9524, 1262.665
244.4345, 1264.369
244.9166, 1265.664
245.3988, 1266.672
245.8809, 1267.981
246.3630, 1270.257
246.8451, 1271.930
247.3272, 1272.232
247.8093, 1271.907
248.2915, 1271.892
248.7736, 1272.700
249.2557, 1274.169
249.7378, 1275.649
250.2199, 1277.366
250.7020, 1278.797
251.1842, 1279.785
251.6663, 1280.485
252.1484, 1281.012
252.6305, 1281.419
253.1126, 1281.799
253.5947, 1282.462
254.0769, 1284.051
254.5590, 1285.135
255.0411, 1285.400
255.5232, 1285.218
256.0053, 1285.063
256.4874, 1285.134
256.9695, 1285.178
257.4517, 1284.590
257.9338, 1282.731
258.4159, 1280.934
258.8980, 1279.399
259.3801, 1277.838
259.8622, 1275.891
260.3444, 1273.438
260.8265, 1270.698
261.3086, 1268.104
261.7907, 1266.059
262.2728, 1263.428
262.7549, 1259.930
263.2371, 1255.950
263.7192, 1251.771
264.2013, 1247.473
264.6834, 1243.213
265.1655, 1239.197
265.6476, 1235.398
266.1298, 1232.049
266.6119, 1229.695
267.0940, 1227.484
267.5761, 1224.495
268.0582, 1220.566
268.5403, 1216.497
269.0225, 1213.321
269.5046, 1211.394
269.9867, 1208.682
270.4688, 1204.132
270.9509, 1199.426
271.4330, 1196.054
271.9152, 1194.180
272.3973, 1192.952
272.8794, 1191.686
273.3615, 1190.370
273.8436, 1189.016
274.3257, 1187.703
274.8079, 1186.282
275.2900, 1184.492
275.7721, 1182.357
276.2542, 1180.426
276.7363, 1179.113
277.2184, 1178.419
277.7006, 1177.809
278.1827, 1177.549
278.6648, 1177.159
279.1469, 1176.190
279.6290, 1174.709
280.1111, 1173.229
280.5933, 1171.969
281.0754, 1170.999
281.5575, 1170.413
282.0396, 1170.743
282.5217, 1170.823
283.0038, 1169.634
283.4860, 1167.434
283.9681, 1165.585
284.4502, 1164.803
284.9323, 1164.685
285.4144, 1164.289
285.8965, 1163.458
286.3787, 1162.738
286.8608, 1162.694
287.3429, 1163.073
287.8250, 1162.757
288.3071, 1160.880
288.7892, 1158.869
289.2714, 1159.099
289.7535, 1161.874
290.2356, 1164.105
290.7177, 1163.851
291.1998, 1161.943
291.6819, 1160.628
292.1641, 1160.545
292.6462, 1160.863
293.1283, 1160.708
293.6104, 1160.135
294.0925, 1159.420
294.5746, 1158.551
295.0568, 1157.635
295.5389, 1156.948
296.0210, 1156.618
296.5031, 1156.232
296.9852, 1155.218
297.4673, 1153.821
297.9495, 1152.732
298.4316, 1152.329
298.9137, 1152.305
299.3958, 1152.250
299.8779, 1152.164
300.3600, 1152.010
300.8422, 1152.004
301.3243, 1151.869
301.8064, 1151.005
302.2885, 1148.645
302.7706, 1146.104
303.2527, 1145.131
303.7349, 1145.848
304.2170, 1146.322
304.6991, 1145.333
305.1812, 1143.721
305.6633, 1142.652
306.1454, 1142.411
306.6276, 1142.374
307.1097, 1142.011
307.5918, 1141.343
308.0739, 1140.652
308.5560, 1139.889
309.0381, 1139.295
309.5203, 1139.194
310.0024, 1139.643
310.4845, 1140.053
310.9666, 1140.011
311.4487, 1139.580
311.9308, 1139.094
312.4130, 1138.660
312.8951, 1138.100
313.3772, 1137.101
313.8593, 1135.748
314.3414, 1134.691
314.8235, 1134.473
315.3057, 1134.775
315.7878, 1134.746
316.2699, 1134.204
316.7520, 1133.601
317.2341, 1133.364
317.7162, 1133.329
318.1984, 1133.123
318.6805, 1132.533
319.1626, 1131.741
319.6447, 1130.962
320.1268, 1130.158
320.6089, 1129.591
321.0911, 1129.789
321.5732, 1130.214
322.0553, 1130.021
322.5374, 1128.714
323.0195, 1127.291
323.5016, 1126.945
323.9838, 1127.683
324.4659, 1128.241
324.9480, 1128.146
325.4301, 1127.592
325.9122, 1126.625
326.3943, 1125.051
326.8765, 1124.063
327.3586, 1125.120
327.8407, 1127.760
328.3228, 1129.268
328.8049, 1128.474
329.2870, 1127.111
329.7692, 1127.227
330.2513, 1128.664
330.7334, 1129.561
331.2155, 1128.401
331.6976, 1126.114
332.1797, 1124.984
332.6619, 1125.534
333.1440, 1126.437
333.6261, 1126.355
334.1082, 1125.753
334.5903, 1125.818
335.0724, 1127.451
335.5546, 1129.667
336.0367, 1131.258
336.5188, 1132.196
337.0009, 1132.718
337.4830, 1132.730
337.9651, 1132.468
338.4473, 1132.428
338.9294, 1132.961
339.4115, 1133.261
339.8936, 1132.350
340.3758, 1130.427
340.8579, 1129.088
341.3400, 1129.148
341.8221, 1129.858
342.3042, 1130.020
342.7863, 1129.548
343.2685, 1129.057
343.7506, 1128.870
344.2327, 1128.883
344.7148, 1128.854
345.1969, 1128.726
345.6790, 1128.553
346.1612, 1128.388
346.6433, 1128.227
347.1254, 1128.051
347.6075, 1127.959
348.0896, 1127.801
348.5717, 1127.316
349.0539, 1126.467
349.5360, 1125.652
350.0181, 1125.260
350.5002, 1125.151
350.9823, 1124.689
351.4644, 1123.569
351.9466, 1122.327
352.4287, 1121.221
352.9108, 1120.272
353.3929, 1119.570
353.8750, 1119.232
354.3571, 1119.108
354.8393, 1118.830
355.3214, 1118.383
355.8035, 1117.854
356.2856, 1117.171
356.7677, 1116.448
357.2498, 1115.949
357.7320, 1115.785
358.2141, 1115.666
358.6962, 1115.189
359.1783, 1114.327
359.6604, 1113.312
360.1425, 1111.833
360.6247, 1110.418
361.1068, 1109.628
361.5889, 1109.485
362.0710, 1109.639
362.5531, 1109.970
363.0352, 1110.422
363.5174, 1109.828
363.9995, 1106.924
364.4816, 1104.322
364.9637, 1103.674
365.4458, 1104.353
365.9279, 1104.597
366.4101, 1103.413
366.8922, 1101.354
367.3743, 1100.252
367.8564, 1100.752
368.3385, 1101.208
368.8206, 1101.564
369.3028, 1101.698
369.7849, 1101.492
370.2670, 1100.909
370.7491, 1099.903
371.2312, 1098.312
371.7133, 1095.678
372.1955, 1093.953
372.6776, 1093.964
373.1597, 1094.122
373.6418, 1093.419
374.1239, 1091.908
374.6060, 1090.241
375.0882, 1088.921
375.5703, 1087.942
376.0524, 1086.803
376.5345, 1084.883
377.0166, 1083.514
377.4987, 1083.173
377.9809, 1083.528
378.4630, 1084.249
378.9451, 1085.192
379.4272, 1086.054
379.9093, 1086.075
380.3914, 1084.589
380.8736, 1083.333
381.3557, 1082.686
381.8378, 1082.049
382.3199, 1080.780
382.8020, 1078.900
383.2841, 1077.116
383.7663, 1076.274
384.2484, 1076.510
384.7305, 1076.669
385.2126, 1076.741
385.6947, 1076.728
386.1768, 1076.926
386.6590, 1077.010
387.1411, 1076.213
387.6232, 1073.847
388.1053, 1070.606
388.5874, 1069.141
389.0695, 1070.527
389.5517, 1071.704
390.0338, 1072.084
390.5159, 1071.912
390.9980, 1071.223
391.4801, 1070.042
391.9622, 1068.880
392.4444, 1068.472
392.9265, 1068.922
393.4086, 1069.172
393.8907, 1069.207
394.3728, 1068.875
394.8549, 1067.869
395.3371, 1066.374
395.8192, 1065.056
396.3013, 1064.491
396.7834, 1064.426
397.2655, 1063.962
397.7477, 1062.912
398.2298, 1061.948
398.7119, 1061.581
399.1940, 1061.455
399.6761, 1061.078
400.1582, 1060.201
400.6404, 1059.308
401.1225, 1059.095
401.6046, 1059.492
402.0867, 1059.304
402.5688, 1057.693
403.0509, 1055.892
403.5331, 1055.484
404.0152, 1056.489
404.4973, 1057.451
404.9794, 1057.764
405.4615, 1057.615
405.9436, 1057.209
406.4258, 1056.520
406.9079, 1056.001
407.3900, 1056.211
407.8721, 1056.964
408.3542, 1057.265
408.8363, 1056.840
409.3185, 1056.139
409.8006, 1055.497
410.2827, 1054.834
410.7648, 1053.776
411.2469, 1052.041
411.7290, 1050.061
412.2112, 1048.858
412.6933, 1048.560
413.1754, 1048.549
413.6575, 1049.225
414.1396, 1049.865
414.6217, 1049.574
415.1039, 1048.252
415.5860, 1046.621
416.0681, 1045.384
416.5502, 1044.583
417.0323, 1043.703
417.5144, 1042.461
417.9966, 1041.441
418.4787, 1040.784
418.9608, 1040.532
419.4429, 1040.929
419.9250, 1042.150
420.4071, 1043.646
420.8893, 1043.823
421.3714, 1041.139
421.8535, 1039.469
422.3356, 1039.957
422.8177, 1040.715
423.2998, 1040.082
423.7820, 1037.989
424.2641, 1035.745
424.7462, 1034.841
425.2283, 1035.423
425.7104, 1035.094
426.1925, 1032.846
426.6747, 1030.731
427.1568, 1029.451
427.6389, 1028.659
428.1210, 1027.764
428.6031, 1026.462
429.0852, 1025.014
429.5674, 1024.107
430.0495, 1024.057
430.5316, 1023.407
431.0137, 1021.153
431.4958, 1018.634
431.9779, 1016.753
432.4601, 1015.542
432.9422, 1014.358
433.4243, 1012.593
433.9064, 1010.425
434.3885, 1008.626
434.8706, 1007.281
435.3528, 1006.181
435.8349, 1005.272
436.3170, 1004.494
436.7991, 1003.753
437.2812, 1003.064
437.7633, 1002.352
438.2455, 1001.634
438.7276, 1000.868
439.2097, 999.7372
439.6918, 997.9841
440.1739, 996.0431
440.6560, 994.5217
441.1382, 993.3807
441.6203, 992.5895
442.1024, 992.5178
442.5845, 992.5886
443.0666, 992.2357
443.5487, 991.3880
444.0309, 989.9874
444.5130, 987.7815
444.9951, 984.9470
445.4772, 983.0502
445.9593, 982.4974
446.4414, 982.2648
446.9236, 982.4958
447.4057, 982.7264
447.8878, 982.0837
448.3699, 980.2944
448.8520, 978.2018
449.3341, 977.1537
449.8163, 977.7835
450.2984, 977.6673
450.7805, 976.1257
451.2626, 974.5836
451.7447, 973.8245
452.2268, 973.7042
452.7090, 973.7084
453.1911, 973.5398
453.6732, 973.1414
454.1553, 972.1902
454.6374, 969.9943
455.1195, 968.4432
455.6017, 968.0486
456.0838, 968.1876
456.5659, 968.5053
457.0480, 968.8722
457.5301, 969.0590
458.0122, 968.7997
458.4944, 968.0988
458.9765, 967.2655
459.4586, 966.1942
459.9407, 965.1621
460.4228, 964.3461
460.9049, 963.6600
461.3871, 962.9074
461.8692, 961.8710
462.3513, 960.9883
462.8334, 961.0954
463.3155, 962.1345
463.7976, 962.5525
464.2798, 961.7385
464.7619, 960.2362
465.2440, 958.5493
465.7261, 956.6497
466.2082, 955.2537
466.6903, 954.9034
467.1725, 955.0178
467.6546, 954.9548
468.1367, 954.6600
468.6188, 954.2066
469.1009, 953.5782
469.5830, 952.8517
470.0652, 952.3958
470.5473, 952.2535
471.0294, 952.2821
471.5115, 952.6942
471.9936, 953.1520
472.4757, 953.2047
472.9579, 952.7443
473.4400, 952.0081
473.9221, 951.2653
474.4042, 950.5163
474.8863, 949.7465
475.3684, 948.8475
475.8506, 948.0336
476.3327, 947.6639
476.8148, 947.3777
477.2969, 946.5053
477.7790, 944.7131
478.2611, 942.4377
478.7433, 940.5754
479.2254, 939.1417
479.7075, 938.1163
480.1896, 937.8391
480.6717, 937.7004
481.1538, 937.4579
481.6360, 937.0713
482.1181, 936.5219
482.6002, 935.6544
483.0823, 934.6640
483.5644, 934.1940
484.0465, 934.4385
484.5287, 934.5071
485.0108, 934.0355
485.4929, 933.1453
485.9750, 931.8465
486.4571, 930.0334
486.9392, 928.4000
487.4214, 927.4869
487.9035, 927.0367
488.3856, 926.4735
488.8677, 925.6843
489.3498, 924.8977
489.8319, 924.2339
490.3141, 923.7390
490.7962, 923.6437
491.2783, 924.7183
491.7604, 925.3763
492.2425, 924.5610
492.7246, 922.8863
493.2068, 921.5388
493.6889, 920.9415
494.1710, 920.5826
494.6531, 919.6175
495.1352, 917.5816
495.6173, 916.4571
496.0995, 917.0942
496.5816, 917.6809
497.0637, 917.2989
497.5458, 916.1763
498.0279, 914.9017
498.5100, 913.7784
498.9922, 912.8368
499.4743, 912.2255
499.9564, 912.2502
500.4385, 911.8077
500.9206, 910.1348
501.4027, 908.4203
501.8849, 907.2398
502.3670, 906.6794
502.8491, 906.7700
503.3312, 908.1841
503.8133, 910.1191
504.2954, 910.1498
504.7776, 907.9050
505.2597, 905.5063
505.7418, 903.7151
506.2239, 902.4781
506.7060, 901.7552
507.1881, 901.6720
507.6703, 901.5904
508.1524, 901.1412
508.6345, 900.5043
509.1166, 899.9507
509.5987, 899.5179
510.0808, 899.2486
510.5630, 899.3174
511.0451, 899.6266
511.5272, 899.1268
512.0093, 896.7238
512.4914, 894.9113
512.9735, 894.7369
513.4556, 895.4301
513.9377, 896.2053
514.4199, 896.7630
514.9020, 896.8027
515.3841, 895.8463
515.8662, 893.7075
516.3483, 891.8834
516.8304, 890.1356
517.3126, 888.9948
517.7947, 889.1406
518.2768, 889.8431
518.7589, 889.9537
519.2410, 888.9863
519.7231, 887.7746
520.2053, 887.8054
520.6874, 889.2327
521.1695, 889.4832
521.6516, 887.1897
522.1337, 884.9681
522.6158, 884.9711
523.0980, 886.4708
523.5801, 887.3774
524.0622, 886.7607
524.5443, 885.4338
525.0264, 883.9017
525.5085, 882.2805
525.9907, 881.4762
526.4728, 882.0652
526.9549, 883.0193
527.4370, 882.6613
527.9191, 880.7123
528.4012, 879.3434
528.8834, 879.0092
529.3655, 879.1179
529.8476, 879.2771
530.3297, 879.5256
530.8118, 880.2523
531.2939, 881.7375
531.7761, 883.3527
532.2582, 883.3971
532.7403, 880.4931
533.2224, 878.5190
533.7045, 877.7359
534.1866, 877.5800
534.6688, 878.1334
535.1509, 879.0440
535.6330, 879.5059
536.1151, 878.9334
536.5972, 877.6362
537.0793, 876.1977
537.5615, 874.3356
538.0436, 873.5782
538.5257, 875.4855
539.0078, 877.8502
539.4899, 878.7308
539.9720, 878.1214
540.4542, 877.2156
540.9363, 876.2960
541.4184, 875.5774
541.9005, 875.5773
542.3826, 876.2601
542.8647, 876.6006
543.3469, 875.8407
543.8290, 874.6263
544.3111, 874.7724
544.7932, 877.0533
545.2753, 878.6484
545.7574, 878.8094
546.2396, 878.3795
546.7217, 877.7541
547.2038, 877.1671
547.6859, 877.1553
548.1680, 878.1740
548.6501, 879.9107
549.1323, 880.9791
549.6144, 881.0764
550.0965, 880.9862
550.5786, 880.2828
551.0607, 879.8407
551.5428, 880.5834
552.0250, 882.3510
552.5071, 883.9519
552.9892, 884.2617
553.4713, 883.8529
553.9534, 884.7327
554.4355, 887.3415
554.9177, 888.9311
555.3998, 887.6973
555.8819, 885.3713
556.3640, 884.4184
556.8461, 885.0511
557.3282, 885.5485
557.8104, 884.9638
558.2925, 884.0531
558.7746, 883.8031
559.2567, 884.1920
559.7388, 884.5250
560.2209, 884.4049
560.7031, 883.9010
561.1852, 883.2371
561.6673, 882.4350
562.1494, 881.4106
562.6315, 879.5862
563.1136, 877.9916
563.5958, 877.7123
564.0779, 878.4425
564.5600, 878.9377
565.0421, 878.3246
565.5242, 876.8195
566.0063, 875.0069
566.4885, 872.6130
566.9706, 870.7310
567.4527, 869.9569
567.9348, 869.5552
568.4169, 869.2738
568.8990, 869.0027
569.3812, 868.2593
569.8633, 866.3508
570.3454, 864.0645
570.8275, 862.6141
571.3096, 861.9590
571.7917, 861.3517
572.2739, 860.5333
572.7560, 859.4952
573.2381, 858.1293
573.7202, 856.2595
574.2023, 854.7661
574.6844, 853.9030
575.1666, 853.2894
575.6487, 852.7286
576.1308, 852.1948
576.6129, 851.7274
577.0950, 851.3516
577.5771, 850.9597
578.0593, 850.2802
578.5414, 849.1613
579.0235, 848.1606
579.5056, 847.2807
579.9877, 846.5412
580.4698, 846.1901
580.9520, 845.9738
581.4341, 845.3019
581.9162, 843.7945
582.3983, 841.9578
582.8804, 840.2787
583.3625, 838.7910
583.8447, 838.0355
584.3268, 838.3660
584.8089, 838.9500
585.2910, 839.0810
585.7732, 838.7560
586.2553, 837.8685
586.7374, 835.4111
587.2195, 833.4391
587.7017, 833.5615
588.1838, 834.7633
588.6659, 835.1849
589.1480, 834.2913
589.6301, 833.0259
590.1122, 832.5884
590.5944, 833.1088
591.0765, 833.1971
591.5586, 832.1678
592.0407, 831.5019
592.5228, 831.9589
593.0049, 832.7649
593.4871, 832.9846
593.9692, 832.3826
594.4513, 831.4771
594.9334, 830.6781
595.4155, 829.9734
595.8976, 829.2224
596.3798, 828.3044
596.8619, 827.9011
597.3440, 828.8837
597.8261, 830.4772
598.3082, 830.7357
598.7903, 829.0530
599.2725, 827.5860
599.7546, 827.2925
600.2367, 827.3967
600.7188, 827.0955
601.2009, 826.3399
601.6830, 825.4620
602.1652, 824.6693
602.6473, 823.9540
603.1294, 823.2945
603.6115, 822.7307
604.0936, 822.1429
604.5757, 821.2479
605.0579, 820.5628
605.5400, 820.6948
606.0221, 821.3510
606.5042, 821.5575
606.9863, 820.5901
607.4684, 819.1624
607.9506, 818.3512
608.4327, 818.1513
608.9148, 818.4443
609.3969, 819.4680
609.8790, 820.4807
610.3611, 820.4408
610.8433, 819.4688
611.3254, 819.1049
611.8075, 820.5945
612.2896, 821.5999
612.7717, 820.3021
613.2538, 817.8516
613.7360, 816.1081
614.2181, 815.6489
614.7002, 816.1567
615.1823, 817.4954
615.6644, 819.7707
616.1465, 820.5559
616.6287, 818.3792
617.1108, 816.7143
617.5929, 816.9201
618.0750, 817.7654
618.5571, 817.9297
619.0392, 817.1804
619.5214, 816.3582
620.0035, 816.0398
620.4856, 816.1195
620.9677, 816.5008
621.4498, 817.1985
621.9319, 817.6141
622.4141, 817.3677
622.8962, 816.7576
623.3783, 816.3914
623.8604, 816.2926
624.3425, 816.3347
624.8246, 816.5562
625.3068, 816.8677
625.7889, 817.1550
626.2710, 817.4833
626.7531, 818.0674
627.2352, 819.0148
627.7173, 820.0932
628.1995, 820.8987
628.6816, 821.4212
629.1637, 821.7114
629.6458, 821.7438
630.1279, 821.5506
630.6100, 820.7680
631.0922, 819.8821
631.5743, 819.8221
632.0564, 820.9951
632.5385, 822.4840
633.0206, 823.6708
633.5027, 824.6963
633.9849, 826.0013
634.4670, 827.6306
634.9491, 828.8119
635.4312, 828.8651
635.9133, 828.0995
636.3954, 827.9750
636.8776, 828.9023
637.3597, 829.9619
637.8418, 831.2063
638.3239, 832.5067
638.8060, 833.6606
639.2881, 834.7776
639.7703, 836.2421
640.2524, 838.3693
640.7345, 840.7438
641.2166, 842.5289
641.6987, 843.7081
642.1808, 844.7811
642.6630, 845.8589
643.1451, 846.8340
643.6272, 847.2276
644.1093, 847.3525
644.5914, 847.1604
645.0735, 849.8243
645.5557, 851.6924
646.0378, 852.8049
646.5199, 851.0245
647.0020, 852.8838
647.4841, 853.2258
647.9662, 853.4655
648.4484, 855.7175
648.9305, 854.1426
649.4126, 856.2781
649.8947, 856.8740
650.3768, 858.1135
650.8589, 857.8268
651.3411, 857.9568
651.8232, 859.5297
652.3053, 860.2386
652.7874, 859.6136
653.2695, 860.6456
653.7516, 858.6005
654.2338, 859.1771
654.7159, 860.8610
655.1980, 860.1014
655.6801, 860.9513
656.1622, 861.1304
656.6443, 858.4095
657.1265, 860.6175
657.6086, 860.6339
658.0907, 858.4012
658.5728, 860.3134
659.0549, 858.3013
659.5370, 857.6331
660.0192, 857.9659
660.5013, 857.1698
660.9834, 858.0458
661.4655, 857.2288
661.9476, 856.2224
662.4297, 855.8180
662.9119, 853.5471
663.3940, 854.6193
663.8761, 853.3375
664.3582, 853.1631
664.8403, 853.2075
665.3224, 851.2154
665.8046, 851.2928
666.2867, 848.0540
666.7688, 847.5133
667.2509, 846.6357
667.7330, 846.2817
668.2151, 844.5025
668.6973, 842.1848
669.1794, 840.1493
669.6615, 839.2982
670.1436, 839.5466
670.6257, 839.6362
671.1078, 839.4764
671.5900, 838.9012
672.0721, 841.7462
672.5542, 843.1797
673.0363, 843.2778
673.5184, 838.0407
674.0005, 839.6929
674.4827, 838.5841
674.9648, 837.3622
675.4469, 839.9841
675.9290, 835.5229
676.4111, 838.0839
676.8932, 837.8417
677.3754, 838.8824
677.8575, 837.1452
678.3396, 836.2659
678.8217, 835.2256
679.3038, 836.5408
679.7859, 837.3749
680.2681, 837.5126
680.7502, 837.2103
681.2323, 836.4664
681.7144, 835.4267
682.1965, 834.7089
682.6786, 835.0842
683.1608, 835.7787
683.6429, 835.1687
684.1250, 833.4759
684.6071, 832.8265
685.0892, 834.0958
685.5714, 835.7083
686.0535, 835.7551
686.5356, 834.0953
687.0177, 833.2907
687.4998, 834.4662
687.9819, 834.9971
688.4641, 833.4877
688.9462, 831.4791
689.4283, 830.5789
