##NAMES=Niobophyllite
##RRUFFID=R110048
##IDEAL CHEMISTRY=K_2_NaFe^2+^_7_(Nb^5+^,Ti^4+^)_2_(Si_4_O_12_)_2_O_2_(OH)_4_(O,F)
##LOCALITY=Mount Malosa, Zomba District, Malawi
##OWNER=RRUFF
##SOURCE=Donald M Doell
##DESCRIPTION=Brown tabular platy crystals associated with quartz
##STATUS=The identification of this mineral has been confirmed only by single crystal X-ray diffraction.
##URL=rruff.info/R110048
196.0757, 148.5252
196.5579, 145.9390
197.0400, 147.0534
197.5221, 152.2599
198.0042, 156.9290
198.4863, 157.7829
198.9684, 154.7575
199.4506, 153.6369
199.9327, 155.2658
200.4148, 158.4022
200.8969, 160.1801
201.3790, 160.3282
201.8611, 160.6783
202.3433, 162.4916
202.8254, 165.9181
203.3075, 169.1018
203.7896, 172.0891
204.2717, 174.5769
204.7538, 175.3489
205.2360, 173.8853
205.7181, 172.6202
206.2002, 173.3546
206.6823, 176.5504
207.1644, 178.4767
207.6465, 178.0999
208.1287, 176.6628
208.6108, 178.2817
209.0929, 183.9106
209.5750, 189.9577
210.0571, 194.2576
210.5392, 196.6472
211.0214, 198.1321
211.5035, 198.4394
211.9856, 198.0182
212.4677, 198.6218
212.9498, 200.7951
213.4319, 202.7909
213.9140, 203.1515
214.3962, 200.9068
214.8783, 200.6064
215.3604, 203.1127
215.8425, 207.7813
216.3246, 212.1217
216.8067, 216.4851
217.2889, 219.9324
217.7710, 221.5932
218.2531, 220.5173
218.7352, 220.5447
219.2173, 222.3948
219.6994, 225.6094
220.1816, 227.8410
220.6637, 228.5887
221.1458, 229.2717
221.6279, 230.7289
222.1100, 233.0694
222.5921, 236.0391
223.0743, 240.2940
223.5564, 245.2042
224.0385, 247.7888
224.5206, 247.0096
225.0027, 245.4902
225.4848, 244.9028
225.9670, 245.9405
226.4491, 246.1718
226.9312, 244.8466
227.4133, 242.5219
227.8954, 241.9127
228.3775, 243.6220
228.8597, 246.1744
229.3418, 249.0112
229.8239, 253.2766
230.3060, 254.9820
230.7881, 252.5132
231.2702, 247.0837
231.7524, 244.8259
232.2345, 247.6360
232.7166, 250.9382
233.1987, 251.8699
233.6808, 248.8586
234.1629, 246.9956
234.6451, 247.0628
235.1272, 248.5418
235.6093, 249.1575
236.0914, 248.6084
236.5735, 247.6148
237.0556, 246.5149
237.5378, 245.1321
238.0199, 244.0637
238.5020, 243.5313
238.9841, 243.3458
239.4662, 242.7478
239.9483, 241.6088
240.4305, 240.2489
240.9126, 238.7743
241.3947, 236.9792
241.8768, 235.5627
242.3589, 234.7739
242.8410, 234.3792
243.3232, 233.4948
243.8053, 231.8598
244.2874, 230.0927
244.7695, 228.3883
245.2516, 226.2117
245.7337, 225.3289
246.2159, 226.4150
246.6980, 228.7455
247.1801, 230.0119
247.6622, 230.0252
248.1443, 229.2743
248.6264, 227.8202
249.1086, 224.9765
249.5907, 223.0620
250.0728, 222.2842
250.5549, 222.4084
251.0370, 222.9454
251.5191, 224.4449
252.0013, 225.4954
252.4834, 225.3460
252.9655, 223.3240
253.4476, 221.9151
253.9297, 221.4079
254.4118, 221.3906
254.8940, 220.9283
255.3761, 219.8972
255.8582, 218.6298
256.3403, 217.1162
256.8224, 215.0060
257.3046, 213.8545
257.7867, 213.9742
258.2688, 214.8528
258.7509, 215.5993
259.2330, 216.3682
259.7151, 216.6642
260.1973, 216.1634
260.6794, 214.6288
261.1615, 213.4664
261.6436, 212.9904
262.1257, 212.6327
262.6078, 211.3056
263.0900, 208.5604
263.5721, 205.9725
264.0542, 204.3021
264.5363, 203.8065
265.0184, 202.2827
265.5005, 199.2975
265.9827, 195.7764
266.4648, 192.9243
266.9469, 190.7861
267.4290, 189.2711
267.9111, 188.5582
268.3932, 188.7337
268.8754, 188.3004
269.3575, 187.1933
269.8396, 185.5749
270.3217, 183.4488
270.8038, 180.5325
271.2859, 178.2500
271.7681, 177.3062
272.2502, 177.6305
272.7323, 176.7676
273.2144, 174.2032
273.6965, 171.5237
274.1786, 170.6932
274.6608, 172.1158
275.1429, 173.1284
275.6250, 172.8931
276.1071, 171.6395
276.5892, 171.2612
277.0714, 172.0614
277.5535, 172.8898
278.0356, 172.4911
278.5177, 170.7178
278.9998, 169.2149
279.4819, 168.2606
279.9641, 167.8357
280.4462, 168.1802
280.9283, 169.5432
281.4104, 170.6037
281.8925, 169.8750
282.3746, 167.3210
282.8568, 165.6938
283.3389, 165.6224
283.8210, 166.6227
284.3031, 167.3838
284.7852, 167.8819
285.2673, 168.4068
285.7495, 169.5454
286.2316, 171.1779
286.7137, 171.5105
287.1958, 170.0033
287.6779, 167.5633
288.1600, 166.0349
288.6422, 165.4282
289.1243, 164.9961
289.6064, 164.2162
290.0885, 163.1841
290.5706, 162.4018
291.0527, 161.8704
291.5349, 161.6999
292.0170, 162.3149
292.4991, 163.6300
292.9812, 164.7768
293.4633, 165.0396
293.9454, 164.7325
294.4276, 165.0459
294.9097, 166.2093
295.3918, 167.2403
295.8739, 166.4042
296.3560, 164.1369
296.8381, 162.4595
297.3203, 162.9105
297.8024, 164.5169
298.2845, 165.2230
298.7666, 164.9308
299.2487, 164.3614
299.7308, 164.2335
300.2130, 164.4148
300.6951, 164.5236
301.1772, 164.2466
301.6593, 163.8875
302.1414, 164.0511
302.6235, 164.7187
303.1057, 165.1807
303.5878, 164.5694
304.0699, 163.3574
304.5520, 162.4588
305.0341, 162.5670
305.5162, 162.7533
305.9984, 161.8383
306.4805, 159.9807
306.9626, 158.2048
307.4447, 157.3364
307.9268, 156.9387
308.4089, 156.4401
308.8911, 155.5495
309.3732, 154.7409
309.8553, 154.5078
310.3374, 154.7065
310.8195, 154.8475
311.3016, 154.4488
311.7838, 153.9731
312.2659, 153.8421
312.7480, 154.2043
313.2301, 154.7613
313.7122, 155.9462
314.1943, 157.2111
314.6765, 157.3716
315.1586, 154.7580
315.6407, 151.6815
316.1228, 149.3929
316.6049, 147.9963
317.0870, 147.7098
317.5692, 149.7457
318.0513, 152.7057
318.5334, 154.6216
319.0155, 153.7086
319.4976, 152.6070
319.9797, 152.6305
320.4619, 153.9861
320.9440, 154.9501
321.4261, 155.2019
321.9082, 154.7358
322.3903, 153.5399
322.8724, 149.6698
323.3546, 147.0232
323.8367, 147.2947
324.3188, 150.3688
324.8009, 152.6225
325.2830, 152.5900
325.7651, 152.0878
326.2473, 152.2903
326.7294, 154.8120
327.2115, 156.3114
327.6936, 155.9195
328.1757, 154.0564
328.6578, 152.7991
329.1400, 152.5046
329.6221, 152.5465
330.1042, 152.6772
330.5863, 153.0099
331.0684, 153.2540
331.5505, 153.4874
332.0327, 153.6144
332.5148, 153.3367
332.9969, 151.8495
333.4790, 151.0516
333.9611, 151.9415
334.4432, 155.4028
334.9254, 156.7990
335.4075, 154.9046
335.8896, 151.9568
336.3717, 151.2477
336.8538, 153.8561
337.3359, 156.0690
337.8180, 156.5616
338.3001, 155.3779
338.7823, 155.7672
339.2644, 158.3159
339.7465, 161.2760
340.2286, 162.8367
340.7107, 162.7297
341.1928, 162.8136
341.6750, 163.6046
342.1571, 164.7982
342.6392, 164.9757
343.1213, 163.9489
343.6034, 162.9265
344.0855, 162.9094
344.5677, 163.8505
345.0498, 164.5350
345.5319, 164.7467
346.0140, 164.7517
346.4961, 165.2566
346.9782, 166.2250
347.4604, 166.7415
347.9425, 165.5266
348.4246, 163.3164
348.9067, 163.2110
349.3888, 165.6985
349.8709, 168.6689
350.3531, 169.4036
350.8352, 168.3933
351.3173, 167.4644
351.7994, 167.3889
352.2815, 167.8841
352.7636, 168.7128
353.2458, 169.8711
353.7279, 170.6836
354.2100, 170.5397
354.6921, 169.6641
355.1742, 168.4033
355.6563, 166.4607
356.1385, 164.5896
356.6206, 163.5008
357.1027, 163.1155
357.5848, 163.0619
358.0669, 163.3740
358.5490, 163.7783
359.0312, 164.0206
359.5133, 164.0458
359.9954, 163.9252
360.4775, 163.6961
360.9596, 163.3531
361.4417, 162.8894
361.9239, 161.7620
362.4060, 160.9255
362.8881, 161.0492
363.3702, 162.3885
363.8523, 163.6784
364.3344, 164.7480
364.8166, 165.4696
365.2987, 165.6986
365.7808, 164.9709
366.2629, 164.1712
366.7450, 163.3385
367.2271, 162.4863
367.7093, 162.2360
368.1914, 163.3483
368.6735, 164.6492
369.1556, 165.3858
369.6377, 165.8691
370.1198, 165.2977
370.6020, 162.5498
371.0841, 158.5658
371.5662, 156.8855
372.0483, 159.4242
372.5304, 161.9513
373.0125, 162.5726
373.4947, 160.2860
373.9768, 158.9578
374.4589, 158.7935
374.9410, 159.4076
375.4231, 160.5115
375.9052, 162.8147
376.3874, 163.5738
376.8695, 161.2976
377.3516, 156.0787
377.8337, 153.2451
378.3158, 153.2319
378.7979, 154.2686
379.2801, 154.9459
379.7622, 155.2970
380.2443, 154.5356
380.7264, 151.9647
381.2085, 148.6268
381.6906, 147.4320
382.1728, 148.4068
382.6549, 150.0187
383.1370, 151.7573
383.6191, 153.3776
384.1012, 153.6071
384.5833, 152.0361
385.0655, 150.0150
385.5476, 149.4117
386.0297, 149.9135
386.5118, 150.4267
386.9939, 150.6926
387.4760, 150.5498
387.9582, 149.4167
388.4403, 147.2662
388.9224, 145.4807
389.4045, 145.7916
389.8866, 147.0267
390.3687, 147.4797
390.8509, 145.7322
391.3330, 143.9601
391.8151, 144.0885
392.2972, 145.6401
392.7793, 146.6648
393.2614, 145.5498
393.7436, 143.9574
394.2257, 143.1266
394.7078, 143.6453
395.1899, 144.0307
395.6720, 143.4519
396.1541, 142.4584
396.6363, 141.9344
397.1184, 142.8653
397.6005, 143.5799
398.0826, 143.2310
398.5647, 141.5627
399.0468, 140.7241
399.5290, 141.7715
400.0111, 143.2526
400.4932, 143.9944
400.9753, 143.2340
401.4574, 142.7565
401.9395, 142.8390
402.4217, 143.3514
402.9038, 143.6691
403.3859, 143.6662
403.8680, 143.6553
404.3501, 143.8792
404.8322, 144.5855
405.3144, 144.5714
405.7965, 143.5543
406.2786, 142.1538
406.7607, 141.3858
407.2428, 141.3456
407.7249, 141.4262
408.2071, 141.4945
408.6892, 141.5268
409.1713, 141.3076
409.6534, 140.7928
410.1355, 140.2735
410.6176, 140.0658
411.0998, 140.1105
411.5819, 139.9935
412.0640, 139.4554
412.5461, 139.0232
413.0282, 139.8974
413.5103, 141.8365
413.9925, 143.4346
414.4746, 143.8283
414.9567, 143.3864
415.4388, 142.4419
415.9209, 140.9249
416.4030, 139.7288
416.8852, 140.1023
417.3673, 141.2047
417.8494, 141.6673
418.3315, 140.4070
418.8136, 138.8035
419.2957, 137.6291
419.7779, 136.8681
420.2600, 136.3005
420.7421, 135.8023
421.2242, 135.4840
421.7063, 135.4935
422.1884, 136.1874
422.6706, 136.5803
423.1527, 135.9560
423.6348, 134.9259
424.1169, 134.6337
424.5990, 136.2455
425.0811, 137.6557
425.5633, 138.1438
426.0454, 137.5589
426.5275, 137.0788
427.0096, 136.6515
427.4917, 136.3610
427.9738, 136.3008
428.4560, 136.6286
428.9381, 136.8574
429.4202, 136.9535
429.9023, 136.9067
430.3844, 136.7342
430.8665, 136.5313
431.3487, 135.9285
431.8308, 134.4838
432.3129, 132.1268
432.7950, 130.6603
433.2771, 130.3554
433.7592, 130.2789
434.2414, 128.8977
434.7235, 126.3651
435.2056, 124.5498
435.6877, 124.2320
436.1698, 124.8685
436.6519, 125.5946
437.1341, 126.3774
437.6162, 126.6804
438.0983, 125.8043
438.5804, 124.2587
439.0625, 122.8927
439.5446, 121.8397
440.0268, 121.0029
440.5089, 120.3600
440.9910, 119.8652
441.4731, 119.4345
441.9552, 118.6647
442.4373, 118.2266
442.9195, 118.9543
443.4016, 120.8096
443.8837, 121.9427
444.3658, 120.6781
444.8479, 118.8886
445.3300, 118.0788
445.8122, 119.7141
446.2943, 120.7991
446.7764, 120.3695
447.2585, 119.0142
447.7406, 118.2433
448.2227, 119.0129
448.7049, 119.5249
449.1870, 119.1809
449.6691, 117.8114
450.1512, 116.5955
450.6333, 115.4065
451.1154, 114.5245
451.5976, 114.3152
452.0797, 115.0263
452.5618, 115.6049
453.0439, 115.9155
453.5260, 115.9790
454.0081, 115.7112
454.4903, 115.0078
454.9724, 114.6587
455.4545, 115.2332
455.9366, 116.6080
456.4187, 118.0347
456.9008, 119.5184
457.3830, 120.8331
457.8651, 121.8622
458.3472, 122.5147
458.8293, 122.3937
459.3114, 121.0093
459.7935, 119.1629
460.2757, 117.4399
460.7578, 115.9820
461.2399, 115.4504
461.7220, 117.4561
462.2041, 119.9225
462.6862, 120.6732
463.1684, 119.0577
463.6505, 117.2769
464.1326, 115.9675
464.6147, 115.3139
465.0968, 115.5481
465.5789, 118.0078
466.0611, 120.0800
466.5432, 120.9363
467.0253, 120.6315
467.5074, 120.0643
467.9895, 118.8375
468.4716, 117.7747
468.9538, 117.3135
469.4359, 117.8551
469.9180, 118.0917
470.4001, 117.7126
470.8822, 117.2429
471.3643, 117.6733
471.8465, 119.5985
472.3286, 120.5947
472.8107, 119.5161
473.2928, 116.9493
473.7749, 116.5861
474.2570, 118.8054
474.7392, 121.2560
475.2213, 122.1793
475.7034, 121.7529
476.1855, 121.0641
476.6676, 120.1121
477.1497, 119.3088
477.6319, 119.4422
478.1140, 120.2403
478.5961, 120.8126
479.0782, 120.4538
479.5603, 119.8644
480.0424, 120.0262
480.5246, 120.8290
481.0067, 121.3750
481.4888, 120.7775
481.9709, 119.8518
482.4530, 119.3315
482.9352, 119.4695
483.4173, 119.7360
483.8994, 120.0844
484.3815, 120.3939
484.8636, 120.4784
485.3457, 120.0508
485.8279, 119.6455
486.3100, 119.4337
486.7921, 119.4185
487.2742, 119.3025
487.7563, 118.7548
488.2384, 118.4445
488.7206, 118.8697
489.2027, 120.6077
489.6848, 121.4977
490.1669, 121.3313
490.6490, 120.5102
491.1311, 119.4644
491.6133, 118.0921
492.0954, 117.2689
492.5775, 117.3434
493.0596, 118.1550
493.5417, 119.4087
494.0238, 121.1157
494.5060, 122.2853
494.9881, 121.7238
495.4702, 120.0766
495.9523, 118.9938
496.4344, 118.7760
496.9165, 118.7445
497.3987, 117.7576
497.8808, 116.5104
498.3629, 116.3365
498.8450, 119.3711
499.3271, 122.3234
499.8092, 122.7908
500.2914, 121.1415
500.7735, 119.4314
501.2556, 117.9999
501.7377, 117.0711
502.2198, 116.8780
502.7019, 117.8045
503.1841, 118.5195
503.6662, 118.5464
504.1483, 118.4121
504.6304, 118.7618
505.1125, 120.1685
505.5946, 121.1037
506.0768, 121.1458
506.5589, 120.5166
507.0410, 120.4649
507.5231, 121.3151
508.0052, 121.8290
508.4873, 120.9647
508.9695, 118.7122
509.4516, 117.8673
509.9337, 118.6518
510.4158, 119.9822
510.8979, 120.9046
511.3800, 121.3810
511.8622, 121.0245
512.3443, 119.1029
512.8264, 117.2359
513.3085, 118.0607
513.7906, 120.9238
514.2728, 123.4806
514.7549, 124.5525
515.2370, 124.6586
515.7191, 124.0319
516.2012, 122.6587
516.6833, 121.2813
517.1655, 120.1061
517.6476, 119.1425
518.1297, 118.4093
518.6118, 118.6009
519.0939, 118.1629
519.5760, 116.2376
520.0582, 113.5547
520.5403, 111.7740
521.0224, 110.9604
521.5045, 111.0167
521.9866, 112.2659
522.4688, 114.7085
522.9509, 116.0528
523.4330, 115.9110
523.9151, 115.5902
524.3972, 116.3219
524.8793, 118.1390
525.3615, 118.9977
525.8436, 118.5027
526.3257, 117.6108
526.8078, 117.9236
527.2899, 119.1749
527.7720, 120.1136
528.2542, 120.3344
528.7363, 119.8997
529.2184, 118.2121
529.7005, 115.6407
530.1826, 114.1117
530.6647, 115.8388
531.1469, 118.5039
531.6290, 120.0847
532.1111, 120.0981
532.5932, 119.9918
533.0753, 120.2702
533.5574, 120.7480
534.0396, 121.2282
534.5217, 122.1536
535.0038, 122.5203
535.4859, 121.6179
535.9680, 120.0253
536.4501, 119.6324
536.9323, 121.0682
537.4144, 122.6445
537.8965, 123.8190
538.3786, 124.5876
538.8607, 124.9214
539.3428, 124.6692
539.8250, 124.4357
540.3071, 124.6659
540.7892, 125.3638
541.2713, 126.8369
541.7534, 129.3844
542.2355, 131.9965
542.7177, 133.0293
543.1998, 132.9075
543.6819, 132.9537
544.1640, 134.2069
544.6461, 135.6017
545.1282, 135.8200
545.6104, 135.1044
546.0925, 134.9680
546.5746, 136.6072
547.0567, 138.8001
547.5388, 140.7731
548.0209, 142.3611
548.5031, 143.9002
548.9852, 145.3613
549.4673, 146.8652
549.9494, 148.5474
550.4315, 150.5524
550.9136, 152.5155
551.3958, 154.4610
551.8779, 156.3304
552.3600, 157.8847
552.8421, 159.0589
553.3242, 160.1893
553.8063, 161.6158
554.2885, 163.1967
554.7706, 163.4614
555.2527, 162.2680
555.7348, 161.2626
556.2169, 162.0166
556.6990, 164.0659
557.1812, 166.4324
557.6633, 169.1606
558.1454, 171.4049
558.6275, 171.9627
559.1096, 171.5190
559.5917, 171.2915
560.0739, 172.0183
560.5560, 172.8465
561.0381, 173.5213
561.5202, 173.9833
562.0023, 174.0256
562.4844, 173.3548
562.9666, 172.4544
563.4487, 171.4839
563.9308, 170.4098
564.4129, 169.4657
564.8950, 168.5895
565.3771, 167.9086
565.8593, 167.7154
566.3414, 168.3479
566.8235, 167.8345
567.3056, 165.5659
567.7877, 162.7014
568.2698, 161.7085
568.7520, 162.4376
569.2341, 162.4609
569.7162, 160.3893
570.1983, 157.3572
570.6804, 155.3873
571.1625, 154.3812
571.6447, 153.5728
572.1268, 152.6355
572.6089, 151.5541
573.0910, 150.2406
573.5731, 148.6210
574.0552, 147.2051
574.5374, 146.1150
575.0195, 145.3765
575.5016, 145.0064
575.9837, 145.5812
576.4658, 145.8163
576.9479, 145.8125
577.4301, 145.3463
577.9122, 143.8431
578.3943, 140.5527
578.8764, 137.6487
579.3585, 135.5840
579.8406, 134.3763
580.3228, 134.4006
580.8049, 135.8246
581.2870, 137.3887
581.7691, 138.4264
582.2512, 138.9328
582.7333, 138.8224
583.2155, 138.0552
583.6975, 137.0326
584.1796, 135.7727
584.6617, 134.5852
585.1439, 134.0380
585.6260, 134.6322
586.1081, 135.2747
586.5902, 135.1253
587.0723, 134.5698
587.5544, 134.3537
588.0366, 135.1332
588.5187, 135.8296
589.0008, 135.9818
589.4829, 135.6212
589.9650, 135.5603
590.4471, 135.8986
590.9293, 136.4060
591.4114, 137.0470
591.8935, 137.8926
592.3756, 138.3942
592.8577, 138.5631
593.3398, 138.3533
593.8220, 137.2030
594.3041, 135.3681
594.7862, 135.1743
595.2683, 137.5951
595.7504, 140.3264
596.2325, 139.8259
596.7147, 137.2114
597.1968, 135.3993
597.6789, 136.5778
598.1610, 138.2570
598.6431, 138.5783
599.1252, 137.7994
599.6074, 137.1833
600.0895, 137.4184
600.5716, 137.7183
601.0537, 137.7126
601.5358, 137.3259
602.0179, 136.8174
602.5001, 135.8813
602.9822, 135.1312
603.4643, 135.0691
603.9464, 135.8741
604.4285, 136.7299
604.9106, 137.7201
605.3928, 138.5211
605.8749, 138.3293
606.3570, 137.2607
606.8391, 136.8838
607.3212, 137.9342
607.8033, 139.5877
608.2855, 140.8211
608.7676, 141.6224
609.2497, 141.9959
609.7318, 141.5545
610.2139, 140.9599
610.6960, 140.7235
611.1782, 140.8630
611.6603, 141.0954
612.1424, 141.5641
612.6245, 141.9201
613.1066, 141.8973
613.5887, 141.1600
614.0709, 140.7906
614.5530, 140.8960
615.0351, 141.2752
615.5172, 141.7761
615.9993, 142.4721
616.4814, 143.0015
616.9636, 143.3488
617.4457, 143.4537
617.9278, 142.8618
618.4099, 141.6992
618.8920, 141.2573
619.3741, 142.4958
619.8563, 144.4405
620.3384, 145.8130
620.8205, 146.6391
621.3026, 147.0519
621.7847, 146.6651
622.2668, 146.2280
622.7490, 146.2853
623.2311, 146.9048
623.7132, 147.7962
624.1953, 149.2071
624.6774, 150.6463
625.1595, 151.7758
625.6417, 152.5052
626.1238, 153.0662
626.6059, 153.2641
627.0880, 153.5048
627.5701, 154.4325
628.0522, 156.1367
628.5344, 157.6926
629.0165, 158.9370
629.4986, 159.8848
629.9807, 160.4874
630.4628, 160.7870
630.9449, 161.0046
631.4271, 160.9426
631.9092, 161.0521
632.3913, 161.9333
632.8734, 163.4980
633.3555, 165.1500
633.8376, 166.3996
634.3198, 167.8040
634.8019, 169.7829
635.2840, 172.5068
635.7661, 175.1512
636.2482, 177.8823
636.7303, 180.3268
637.2125, 182.1159
637.6946, 182.8076
638.1767, 184.2205
638.6588, 186.6109
639.1409, 189.4064
639.6230, 191.6166
640.1052, 193.3165
640.5873, 195.5476
641.0694, 198.6633
641.5515, 202.2445
642.0336, 205.6629
642.5157, 208.9723
642.9979, 212.3975
643.4800, 216.1472
643.9621, 219.9300
644.4442, 223.3326
644.9263, 226.4784
645.4084, 230.0366
645.8906, 235.1671
646.3727, 239.8997
646.8548, 242.7773
647.3369, 243.2627
647.8190, 246.1226
648.3011, 252.6297
648.7833, 259.5714
649.2654, 264.2428
649.7475, 266.4474
650.2296, 269.6538
650.7117, 274.2427
651.1938, 279.1525
651.6760, 282.7442
652.1581, 285.5127
652.6402, 288.9747
653.1223, 293.8627
653.6044, 298.8540
654.0865, 303.4496
654.5687, 307.2884
655.0508, 309.7191
655.5329, 309.2249
656.0150, 308.6227
656.4971, 309.3742
656.9792, 311.0578
657.4614, 311.3660
657.9435, 309.3639
658.4256, 307.2110
658.9077, 305.7979
659.3898, 305.0483
659.8719, 303.0321
660.3541, 299.6418
660.8362, 295.5047
661.3183, 290.6770
661.8004, 285.4204
662.2825, 280.3985
662.7646, 275.6299
663.2468, 271.4434
663.7289, 268.8343
664.2110, 266.7085
664.6931, 263.5209
665.1752, 258.4861
665.6573, 253.5473
666.1395, 248.9995
666.6216, 245.1947
667.1037, 242.5661
667.5858, 242.6264
668.0679, 241.9869
668.5500, 240.0052
669.0322, 237.3542
669.5143, 235.5486
669.9964, 234.6856
670.4785, 234.1422
670.9606, 233.7724
671.4427, 233.5603
671.9249, 233.5612
672.4070, 233.7374
672.8891, 233.7885
673.3712, 233.5659
673.8533, 233.1043
674.3354, 232.2370
674.8176, 231.0352
675.2997, 230.2262
675.7818, 230.3094
676.2639, 230.8074
676.7460, 231.4770
677.2281, 232.3195
677.7103, 233.1768
678.1924, 233.8720
678.6745, 234.7494
679.1566, 236.2562
679.6387, 238.7265
680.1208, 240.1385
680.6030, 240.2094
681.0851, 239.7156
681.5672, 239.5062
682.0493, 239.5588
682.5314, 239.7872
683.0135, 240.1936
683.4957, 240.7057
683.9778, 241.5980
684.4599, 242.4960
684.9420, 242.6711
685.4241, 240.5450
685.9063, 239.0419
686.3884, 239.8144
686.8705, 242.1612
687.3526, 243.5885
687.8347, 243.2666
688.3168, 243.0726
688.7990, 243.6032
689.2811, 244.7096
689.7632, 245.3382
690.2453, 245.4478
690.7274, 245.3706
691.2095, 245.3085
691.6917, 245.2059
692.1738, 244.9111
692.6559, 244.4221
