##NAMES=Nissonite
##RRUFFID=R100068
##IDEAL CHEMISTRY=Cu^2+^_2_Mg_2_(P^5+^O_4_)_2_(OH)_2_&#183;5H_2_O
##LOCALITY=Boss mine, Goodsprings district, Clark County, Nevada, USA
##OWNER=RRUFF
##SOURCE=Bob Jenkins
##DESCRIPTION=Pale blue bladed crystals associated with green malachite
##STATUS=The identification of this mineral has been confirmed by single-crystal X-ray diffraction.
##URL=rruff.info/R100068
90.01007, 0.0000000E+00
90.49219, 39.37918
90.97430, 40.29527
91.45642, 40.62236
91.93854, 39.63818
92.42065, 38.27687
92.90277, 38.06217
93.38489, 39.25277
93.86700, 40.82774
94.34912, 41.67562
94.83124, 41.85357
95.31335, 41.65337
95.79547, 41.05749
96.27759, 40.17758
96.75970, 39.46015
97.24182, 39.00322
97.72394, 38.70074
98.20605, 38.24457
98.68817, 37.59401
99.17029, 37.11492
99.65240, 37.12319
100.1345, 37.64394
100.6166, 38.34932
101.0988, 39.35519
101.5809, 40.55238
102.0630, 40.98396
102.5451, 40.44134
103.0272, 39.51183
103.5093, 38.81934
103.9915, 38.43798
104.4736, 38.11214
104.9557, 37.72372
105.4378, 37.19433
105.9199, 37.08198
106.4020, 37.67180
106.8842, 38.53835
107.3663, 38.94682
107.8484, 38.66902
108.3305, 38.18992
108.8126, 37.61948
109.2947, 36.52501
109.7769, 36.06116
110.2590, 36.63732
110.7411, 37.91777
111.2232, 38.84326
111.7053, 39.16705
112.1874, 39.29509
112.6696, 39.40559
113.1517, 39.31546
113.6338, 39.42380
114.1159, 40.12851
114.5980, 41.27053
115.0801, 41.72432
115.5623, 40.35910
116.0444, 38.61587
116.5265, 37.61253
117.0086, 38.22054
117.4907, 39.09780
117.9728, 39.85485
118.4550, 40.47752
118.9371, 40.83987
119.4192, 40.71818
119.9013, 40.34135
120.3834, 40.00262
120.8655, 39.74502
121.3477, 39.61595
121.8298, 39.48700
122.3119, 39.23437
122.7940, 39.61833
123.2761, 41.68694
123.7582, 44.84194
124.2404, 47.75103
124.7225, 49.24150
125.2046, 50.25873
125.6867, 51.98997
126.1688, 54.75171
126.6509, 57.92826
127.1331, 60.52125
127.6152, 62.76982
128.0973, 65.86208
128.5794, 70.54436
129.0615, 76.67244
129.5436, 83.87278
130.0258, 92.00139
130.5079, 101.2444
130.9900, 111.5633
131.4721, 122.8702
131.9542, 136.8495
132.4363, 154.6839
132.9185, 176.3528
133.4006, 201.8210
133.8827, 231.9381
134.3648, 265.5127
134.8469, 300.6677
135.3290, 337.5159
135.8112, 375.6161
136.2933, 413.8122
136.7754, 452.2007
137.2575, 491.8623
137.7396, 533.9102
138.2217, 577.5599
138.7039, 620.8588
139.1860, 664.1201
139.6681, 706.6389
140.1502, 748.5775
140.6323, 789.9817
141.1144, 829.2907
141.5966, 865.9067
142.0787, 899.4185
142.5608, 931.0510
143.0429, 960.3637
143.5250, 987.9860
144.0071, 1014.331
144.4893, 1036.036
144.9714, 1061.574
145.4535, 1093.573
145.9356, 1129.293
146.4177, 1177.459
146.8998, 1236.673
147.3820, 1308.172
147.8641, 1400.254
148.3462, 1514.834
148.8283, 1646.972
149.3104, 1796.146
149.7925, 1972.830
150.2747, 2152.350
150.7568, 2345.117
151.2389, 2547.188
151.7210, 2706.608
152.2031, 2849.036
152.6852, 2932.511
153.1674, 2932.093
153.6495, 2786.490
154.1316, 2618.926
154.6137, 2429.988
155.0958, 2219.262
155.5779, 2041.032
156.0601, 1902.846
156.5422, 1798.775
157.0243, 1725.599
157.5064, 1693.452
157.9885, 1682.098
158.4706, 1688.657
158.9528, 1713.818
159.4349, 1748.280
159.9170, 1795.055
160.3991, 1848.286
160.8812, 1901.201
161.3633, 1963.512
161.8455, 2015.762
162.3276, 2052.395
162.8097, 2074.163
163.2918, 2071.417
163.7739, 2026.406
164.2560, 1953.755
164.7382, 1868.468
165.2203, 1782.858
165.7024, 1708.869
166.1845, 1651.114
166.6666, 1610.468
167.1487, 1582.735
167.6309, 1567.980
168.1130, 1563.740
168.5951, 1565.183
169.0772, 1571.374
169.5593, 1581.216
170.0414, 1594.222
170.5236, 1611.272
171.0057, 1629.150
171.4878, 1647.576
171.9699, 1665.615
172.4520, 1679.986
172.9341, 1689.463
173.4163, 1694.323
173.8984, 1694.822
174.3805, 1690.875
174.8626, 1682.905
175.3447, 1671.442
175.8268, 1656.381
176.3090, 1637.010
176.7911, 1612.054
177.2732, 1582.821
177.7553, 1551.238
178.2374, 1516.385
178.7195, 1480.796
179.2017, 1446.549
179.6838, 1413.505
180.1659, 1383.845
180.6480, 1358.689
181.1301, 1337.933
181.6122, 1320.811
182.0944, 1307.208
182.5765, 1297.022
183.0586, 1290.332
183.5407, 1287.210
184.0228, 1285.988
184.5049, 1285.359
184.9871, 1285.458
185.4692, 1286.775
185.9513, 1289.230
186.4334, 1293.055
186.9155, 1298.693
187.3976, 1306.069
187.8798, 1315.744
188.3619, 1328.779
188.8440, 1344.959
189.3261, 1362.113
189.8082, 1379.752
190.2903, 1397.902
190.7725, 1417.417
191.2546, 1438.922
191.7367, 1459.852
192.2188, 1479.902
192.7009, 1498.919
193.1830, 1509.934
193.6652, 1509.035
194.1473, 1497.530
194.6294, 1482.927
195.1115, 1464.947
195.5936, 1444.859
196.0757, 1422.511
196.5579, 1397.665
197.0400, 1376.924
197.5221, 1362.896
198.0042, 1355.424
198.4863, 1352.486
198.9684, 1354.677
199.4506, 1360.155
199.9327, 1366.039
200.4148, 1372.164
200.8969, 1380.270
201.3790, 1391.730
201.8611, 1406.615
202.3433, 1421.143
202.8254, 1435.270
203.3075, 1449.133
203.7896, 1462.316
204.2717, 1474.469
204.7538, 1487.882
205.2360, 1503.578
205.7181, 1521.664
206.2002, 1540.728
206.6823, 1560.524
207.1644, 1581.550
207.6465, 1604.664
208.1287, 1629.494
208.6108, 1656.861
209.0929, 1687.198
209.5750, 1720.832
210.0571, 1756.327
210.5392, 1793.683
211.0214, 1833.206
211.5035, 1875.309
211.9856, 1918.958
212.4677, 1966.897
212.9498, 2020.990
213.4319, 2081.719
213.9140, 2144.818
214.3962, 2211.518
214.8783, 2280.031
215.3604, 2346.068
215.8425, 2412.288
216.3246, 2471.348
216.8067, 2522.782
217.2889, 2570.269
217.7710, 2595.835
218.2531, 2597.885
218.7352, 2578.530
219.2173, 2541.240
219.6994, 2481.208
220.1816, 2411.919
220.6637, 2336.191
221.1458, 2248.407
221.6279, 2169.451
222.1100, 2097.943
222.5921, 2035.741
223.0743, 1986.047
223.5564, 1950.842
224.0385, 1925.335
224.5206, 1908.942
225.0027, 1904.453
225.4848, 1901.199
225.9670, 1900.107
226.4491, 1899.870
226.9312, 1897.721
227.4133, 1896.315
227.8954, 1888.661
228.3775, 1870.703
228.8597, 1837.055
229.3418, 1805.075
229.8239, 1773.320
230.3060, 1743.563
230.7881, 1721.858
231.2702, 1709.616
231.7524, 1702.807
232.2345, 1699.546
232.7166, 1698.892
233.1987, 1704.021
233.6808, 1716.884
234.1629, 1734.939
234.6451, 1752.050
235.1272, 1768.829
235.6093, 1783.639
236.0914, 1795.923
236.5735, 1806.134
237.0556, 1812.934
237.5378, 1815.988
238.0199, 1815.835
238.5020, 1813.623
238.9841, 1808.694
239.4662, 1802.716
239.9483, 1796.114
240.4305, 1788.074
240.9126, 1781.406
241.3947, 1775.963
241.8768, 1771.892
242.3589, 1769.525
242.8410, 1768.579
243.3232, 1769.660
243.8053, 1772.825
244.2874, 1777.379
244.7695, 1785.780
245.2516, 1798.754
245.7337, 1815.299
246.2159, 1833.086
246.6980, 1851.364
247.1801, 1872.151
247.6622, 1896.743
248.1443, 1926.700
248.6264, 1956.646
249.1086, 1988.113
249.5907, 2019.067
250.0728, 2045.818
250.5549, 2070.068
251.0370, 2087.313
251.5191, 2096.372
252.0013, 2098.082
252.4834, 2088.333
252.9655, 2065.977
253.4476, 2032.975
253.9297, 1992.000
254.4118, 1940.684
254.8940, 1886.564
255.3761, 1831.216
255.8582, 1772.714
256.3403, 1719.936
256.8224, 1673.765
257.3046, 1632.589
257.7867, 1594.646
258.2688, 1559.249
258.7509, 1527.952
259.2330, 1502.224
259.7151, 1482.850
260.1973, 1463.445
260.6794, 1443.851
261.1615, 1424.812
261.6436, 1407.959
262.1257, 1393.543
262.6078, 1380.361
263.0900, 1368.149
263.5721, 1356.746
264.0542, 1346.738
264.5363, 1337.951
265.0184, 1330.604
265.5005, 1324.806
265.9827, 1320.821
266.4648, 1317.672
266.9469, 1314.926
267.4290, 1312.545
267.9111, 1312.180
268.3932, 1314.432
268.8754, 1317.763
269.3575, 1320.328
269.8396, 1321.785
270.3217, 1323.796
270.8038, 1326.533
271.2859, 1330.075
271.7681, 1335.607
272.2502, 1343.647
272.7323, 1352.619
273.2144, 1360.587
273.6965, 1367.292
274.1786, 1374.640
274.6608, 1383.403
275.1429, 1393.268
275.6250, 1402.079
276.1071, 1409.524
276.5892, 1416.791
277.0714, 1424.975
277.5535, 1434.291
278.0356, 1442.820
278.5177, 1449.701
278.9998, 1455.666
279.4819, 1464.201
279.9641, 1476.029
280.4462, 1487.828
280.9283, 1497.432
281.4104, 1504.783
281.8925, 1509.647
282.3746, 1511.535
282.8568, 1511.256
283.3389, 1511.111
283.8210, 1511.188
284.3031, 1510.630
284.7852, 1509.047
285.2673, 1506.406
285.7495, 1501.816
286.2316, 1494.520
286.7137, 1486.085
287.1958, 1479.794
287.6779, 1475.672
288.1600, 1472.339
288.6422, 1469.433
289.1243, 1466.742
289.6064, 1463.001
290.0885, 1457.927
290.5706, 1452.131
291.0527, 1447.186
291.5349, 1442.940
292.0170, 1436.956
292.4991, 1426.906
292.9812, 1413.892
293.4633, 1402.460
293.9454, 1393.076
294.4276, 1384.043
294.9097, 1373.549
295.3918, 1361.628
295.8739, 1348.577
296.3560, 1333.363
296.8381, 1317.255
297.3203, 1304.017
297.8024, 1293.990
298.2845, 1284.718
298.7666, 1273.467
299.2487, 1260.902
299.7308, 1248.743
300.2130, 1237.304
300.6951, 1226.854
301.1772, 1218.035
301.6593, 1210.884
302.1414, 1204.261
302.6235, 1196.742
303.1057, 1189.112
303.5878, 1183.190
304.0699, 1180.448
304.5520, 1178.948
305.0341, 1176.390
305.5162, 1172.915
305.9984, 1169.585
306.4805, 1166.854
306.9626, 1164.838
307.4447, 1163.848
307.9268, 1164.513
308.4089, 1165.440
308.8911, 1165.295
309.3732, 1164.296
309.8553, 1163.370
310.3374, 1162.867
310.8195, 1162.782
311.3016, 1163.047
311.7838, 1163.427
312.2659, 1164.623
312.7480, 1167.835
313.2301, 1172.288
313.7122, 1176.108
314.1943, 1177.216
314.6765, 1178.209
315.1586, 1181.145
315.6407, 1186.807
316.1228, 1192.663
316.6049, 1197.477
317.0870, 1201.685
317.5692, 1205.930
318.0513, 1210.677
318.5334, 1215.348
319.0155, 1219.249
319.4976, 1222.080
319.9797, 1226.121
320.4619, 1232.738
320.9440, 1240.742
321.4261, 1248.712
321.9082, 1255.937
322.3903, 1263.480
322.8724, 1272.192
323.3546, 1282.128
323.8367, 1290.713
324.3188, 1295.061
324.8009, 1299.241
325.2830, 1306.301
325.7651, 1321.309
326.2473, 1334.120
326.7294, 1342.638
327.2115, 1347.342
327.6936, 1352.010
328.1757, 1356.662
328.6578, 1361.440
329.1400, 1366.464
329.6221, 1373.192
330.1042, 1378.111
330.5863, 1380.876
331.0684, 1381.790
331.5505, 1381.659
332.0327, 1379.510
332.5148, 1377.402
332.9969, 1375.892
333.4790, 1374.426
333.9611, 1375.134
334.4432, 1378.579
334.9254, 1383.877
335.4075, 1389.580
335.8896, 1395.944
336.3717, 1402.295
336.8538, 1408.272
337.3359, 1413.859
337.8180, 1419.861
338.3001, 1425.982
338.7823, 1432.980
339.2644, 1441.898
339.7465, 1453.269
340.2286, 1464.550
340.7107, 1475.305
341.1928, 1485.541
341.6750, 1494.225
342.1571, 1501.374
342.6392, 1507.335
343.1213, 1512.210
343.6034, 1515.928
344.0855, 1519.998
344.5677, 1525.531
345.0498, 1530.586
345.5319, 1529.884
346.0140, 1523.310
346.4961, 1514.341
346.9782, 1505.158
347.4604, 1495.467
347.9425, 1484.139
348.4246, 1470.839
348.9067, 1456.297
349.3888, 1441.324
349.8709, 1425.931
350.3531, 1410.096
350.8352, 1393.433
351.3173, 1376.488
351.7994, 1359.744
352.2815, 1343.230
352.7636, 1327.803
353.2458, 1314.551
353.7279, 1302.991
354.2100, 1292.101
354.6921, 1281.800
355.1742, 1271.790
355.6563, 1261.269
356.1385, 1250.397
356.6206, 1240.423
357.1027, 1231.758
357.5848, 1224.646
358.0669, 1219.451
358.5490, 1217.480
359.0312, 1215.650
359.5133, 1211.257
359.9954, 1205.238
360.4775, 1200.447
360.9596, 1198.916
361.4417, 1198.644
361.9239, 1198.196
362.4060, 1197.085
362.8881, 1196.559
363.3702, 1197.598
363.8523, 1199.415
364.3344, 1200.799
364.8166, 1200.850
365.2987, 1200.924
365.7808, 1201.465
366.2629, 1202.509
366.7450, 1204.010
367.2271, 1206.762
367.7093, 1209.600
368.1914, 1211.504
368.6735, 1210.752
369.1556, 1210.912
369.6377, 1212.737
370.1198, 1216.057
370.6020, 1219.350
371.0841, 1222.565
371.5662, 1225.814
372.0483, 1229.134
372.5304, 1232.641
373.0125, 1236.101
373.4947, 1239.875
373.9768, 1243.434
374.4589, 1245.292
374.9410, 1244.327
375.4231, 1243.984
375.9052, 1245.971
376.3874, 1250.784
376.8695, 1254.074
377.3516, 1255.751
377.8337, 1256.117
378.3158, 1255.237
378.7979, 1252.900
379.2801, 1251.071
379.7622, 1251.078
380.2443, 1251.930
380.7264, 1248.203
381.2085, 1239.291
381.6906, 1230.151
382.1728, 1225.307
382.6549, 1224.117
383.1370, 1222.870
383.6191, 1220.955
384.1012, 1218.628
384.5833, 1216.250
385.0655, 1213.803
385.5476, 1211.222
386.0297, 1208.259
386.5118, 1205.156
386.9939, 1202.002
387.4760, 1198.688
387.9582, 1196.326
388.4403, 1196.697
388.9224, 1198.768
389.4045, 1200.377
389.8866, 1200.675
390.3687, 1200.115
390.8509, 1198.703
391.3330, 1196.540
391.8151, 1194.629
392.2972, 1193.256
392.7793, 1192.574
393.2614, 1192.877
393.7436, 1195.573
394.2257, 1197.348
394.7078, 1195.985
395.1899, 1192.547
395.6720, 1189.824
396.1541, 1189.389
396.6363, 1189.335
397.1184, 1188.632
397.6005, 1186.735
398.0826, 1185.606
398.5647, 1186.102
399.0468, 1187.339
399.5290, 1188.241
400.0111, 1187.376
400.4932, 1187.663
400.9753, 1189.871
401.4574, 1194.006
401.9395, 1198.176
402.4217, 1202.718
402.9038, 1206.961
403.3859, 1210.181
403.8680, 1211.096
404.3501, 1214.184
404.8322, 1220.507
405.3144, 1228.806
405.7965, 1235.572
406.2786, 1240.573
406.7607, 1244.925
407.2428, 1248.513
407.7249, 1251.266
408.2071, 1256.650
408.6892, 1265.160
409.1713, 1274.893
409.6534, 1283.467
410.1355, 1290.920
410.6176, 1298.723
411.0998, 1307.366
411.5819, 1316.670
412.0640, 1326.473
412.5461, 1336.670
413.0282, 1346.704
413.5103, 1355.513
413.9925, 1363.787
414.4746, 1373.160
414.9567, 1384.114
415.4388, 1395.641
415.9209, 1406.712
416.4030, 1417.584
416.8852, 1429.221
417.3673, 1442.206
417.8494, 1455.905
418.3315, 1470.452
418.8136, 1485.740
419.2957, 1500.085
419.7779, 1511.914
420.2600, 1522.483
420.7421, 1532.854
421.2242, 1543.220
421.7063, 1553.705
422.1884, 1564.928
422.6706, 1576.503
423.1527, 1587.394
423.6348, 1597.555
424.1169, 1606.709
424.5990, 1615.126
425.0811, 1623.990
425.5633, 1629.250
426.0454, 1629.205
426.5275, 1626.227
427.0096, 1623.186
427.4917, 1619.912
427.9738, 1616.933
428.4560, 1614.885
428.9381, 1613.609
429.4202, 1609.773
429.9023, 1602.347
430.3844, 1594.325
430.8665, 1588.176
431.3487, 1584.340
431.8308, 1579.470
432.3129, 1572.957
432.7950, 1565.666
433.2771, 1559.134
433.7592, 1553.374
434.2414, 1549.095
434.7235, 1547.021
435.2056, 1546.742
435.6877, 1546.610
436.1698, 1546.585
436.6519, 1547.043
437.1341, 1548.329
437.6162, 1550.386
438.0983, 1553.160
438.5804, 1556.862
439.0625, 1560.964
439.5446, 1564.274
440.0268, 1567.300
440.5089, 1571.869
440.9910, 1580.070
441.4731, 1589.701
441.9552, 1598.952
442.4373, 1607.438
442.9195, 1616.060
443.4016, 1625.691
443.8837, 1635.574
444.3658, 1644.788
444.8479, 1651.510
445.3300, 1659.093
445.8122, 1668.739
446.2943, 1680.271
446.7764, 1692.643
447.2585, 1707.635
447.7406, 1721.928
448.2227, 1733.590
448.7049, 1739.344
449.1870, 1748.681
449.6691, 1763.703
450.1512, 1781.231
450.6333, 1795.783
451.1154, 1805.944
451.5976, 1816.488
452.0797, 1829.089
452.5618, 1843.498
453.0439, 1855.202
453.5260, 1863.600
454.0081, 1870.490
454.4903, 1877.266
454.9724, 1883.861
455.4545, 1889.197
455.9366, 1892.912
456.4187, 1895.703
456.9008, 1898.724
457.3830, 1901.918
457.8651, 1904.528
458.3472, 1905.316
458.8293, 1905.607
459.3114, 1907.931
459.7935, 1912.285
460.2757, 1917.554
460.7578, 1922.015
461.2399, 1927.045
461.7220, 1934.685
462.2041, 1946.462
462.6862, 1959.395
463.1684, 1970.472
463.6505, 1981.243
464.1326, 1995.058
464.6147, 2014.298
465.0968, 2036.142
465.5789, 2058.785
466.0611, 2081.945
466.5432, 2107.051
467.0253, 2134.089
467.5074, 2163.134
467.9895, 2194.122
468.4716, 2228.456
468.9538, 2263.540
469.4359, 2298.479
469.9180, 2333.766
470.4001, 2371.277
470.8822, 2410.817
471.3643, 2452.608
471.8465, 2497.165
472.3286, 2544.791
472.8107, 2592.516
473.2928, 2639.665
473.7749, 2687.257
474.2570, 2736.118
474.7392, 2786.253
475.2213, 2835.083
475.7034, 2882.405
476.1855, 2927.712
476.6676, 2970.448
477.1497, 3010.637
477.6319, 3046.754
478.1140, 3079.535
478.5961, 3107.511
479.0782, 3128.732
479.5603, 3143.133
480.0424, 3149.430
480.5246, 3145.292
481.0067, 3132.647
481.4888, 3114.313
481.9709, 3090.641
482.4530, 3062.013
482.9352, 3027.243
483.4173, 2987.419
483.8994, 2945.990
484.3815, 2904.658
484.8636, 2861.384
485.3457, 2814.410
485.8279, 2761.702
486.3100, 2711.731
486.7921, 2663.687
487.2742, 2619.653
487.7563, 2581.107
488.2384, 2548.633
488.7206, 2520.593
489.2027, 2497.443
489.6848, 2478.475
490.1669, 2461.238
490.6490, 2445.251
491.1311, 2432.948
491.6133, 2426.135
492.0954, 2424.722
492.5775, 2424.962
493.0596, 2426.758
493.5417, 2430.724
494.0238, 2437.419
494.5060, 2446.827
494.9881, 2458.962
495.4702, 2474.032
495.9523, 2491.331
496.4344, 2509.655
496.9165, 2529.126
497.3987, 2550.121
497.8808, 2574.093
498.3629, 2599.169
498.8450, 2623.677
499.3271, 2647.683
499.8092, 2671.172
500.2914, 2695.489
500.7735, 2718.742
501.2556, 2739.784
501.7377, 2756.236
502.2198, 2772.547
502.7019, 2791.525
503.1841, 2811.227
503.6662, 2826.519
504.1483, 2834.953
504.6304, 2841.427
505.1125, 2848.272
505.5946, 2856.158
506.0768, 2856.419
506.5589, 2847.158
507.0410, 2833.129
507.5231, 2818.814
508.0052, 2805.228
508.4873, 2785.194
508.9695, 2757.974
509.4516, 2724.540
509.9337, 2687.115
510.4158, 2645.597
510.8979, 2598.210
511.3800, 2542.293
511.8622, 2480.111
512.3443, 2415.379
512.8264, 2348.657
513.3085, 2280.443
513.7906, 2208.754
514.2728, 2136.876
514.7549, 2069.105
515.2370, 2006.518
515.7191, 1947.320
516.2012, 1889.637
516.6833, 1834.981
517.1655, 1784.678
517.6476, 1740.125
518.1297, 1699.144
518.6118, 1660.927
519.0939, 1625.533
519.5760, 1593.681
520.0582, 1567.989
520.5403, 1544.014
521.0224, 1520.018
521.5045, 1494.712
521.9866, 1472.893
522.4688, 1455.629
522.9509, 1440.643
523.4330, 1424.496
523.9151, 1406.513
524.3972, 1391.169
524.8793, 1380.119
525.3615, 1371.891
525.8436, 1362.557
526.3257, 1352.094
526.8078, 1341.759
527.2899, 1332.005
527.7720, 1322.831
528.2542, 1314.475
528.7363, 1306.997
529.2184, 1299.859
529.7005, 1292.334
530.1826, 1285.061
530.6647, 1279.049
531.1469, 1275.387
531.6290, 1271.787
532.1111, 1266.821
532.5932, 1261.049
533.0753, 1255.629
533.5574, 1251.354
534.0396, 1246.986
534.5217, 1241.446
535.0038, 1234.598
535.4859, 1229.982
535.9680, 1229.476
536.4501, 1229.450
536.9323, 1227.872
537.4144, 1224.342
537.8965, 1220.099
538.3786, 1214.594
538.8607, 1209.160
539.3428, 1206.396
539.8250, 1206.540
540.3071, 1205.739
540.7892, 1202.255
541.2713, 1197.667
541.7534, 1196.421
542.2355, 1198.232
542.7177, 1200.018
543.1998, 1200.106
543.6819, 1198.827
544.1640, 1196.209
544.6461, 1192.173
545.1282, 1188.672
545.6104, 1187.312
546.0925, 1187.179
546.5746, 1187.262
547.0567, 1187.326
547.5388, 1187.495
548.0209, 1188.126
548.5031, 1188.871
548.9852, 1188.982
549.4673, 1186.505
549.9494, 1185.357
550.4315, 1187.022
550.9136, 1191.484
551.3958, 1194.839
551.8779, 1196.851
552.3600, 1198.169
552.8421, 1198.980
553.3242, 1199.160
553.8063, 1200.031
554.2885, 1201.670
554.7706, 1203.953
555.2527, 1207.111
555.7348, 1210.945
556.2169, 1214.134
556.6990, 1215.858
557.1812, 1217.241
557.6633, 1220.029
558.1454, 1223.905
558.6275, 1227.688
559.1096, 1230.340
559.5917, 1232.849
560.0739, 1235.996
560.5560, 1239.858
561.0381, 1243.924
561.5202, 1247.552
562.0023, 1251.531
562.4844, 1256.495
562.9666, 1263.986
563.4487, 1270.247
563.9308, 1273.952
564.4129, 1276.803
564.8950, 1281.575
565.3771, 1289.406
565.8593, 1296.338
566.3414, 1300.878
566.8235, 1303.876
567.3056, 1310.136
567.7877, 1320.177
568.2698, 1329.395
568.7520, 1334.577
569.2341, 1336.640
569.7162, 1339.091
570.1983, 1342.009
570.6804, 1345.459
571.1625, 1350.068
571.6447, 1355.084
572.1268, 1359.291
572.6089, 1362.416
573.0910, 1364.758
573.5731, 1366.463
574.0552, 1367.564
574.5374, 1368.148
575.0195, 1367.980
575.5016, 1367.581
575.9837, 1367.355
576.4658, 1367.226
576.9479, 1366.146
577.4301, 1364.166
577.9122, 1361.194
578.3943, 1356.784
578.8764, 1350.429
579.3585, 1345.932
579.8406, 1344.047
580.3228, 1342.332
580.8049, 1338.018
581.2870, 1331.260
581.7691, 1324.526
582.2512, 1318.271
582.7333, 1312.174
583.2155, 1306.082
583.6975, 1299.846
584.1796, 1292.714
584.6617, 1283.443
585.1439, 1273.827
585.6260, 1265.415
586.1081, 1258.082
586.5902, 1251.204
