##NAMES=Niter
##RRUFFID=R090001
##IDEAL CHEMISTRY=KN^5+^O_3_
##LOCALITY=Searcy County, Arkansas, USA
##OWNER=RRUFF
##SOURCE=James Shigley
##DESCRIPTION=Unconsolidated, granular fragments exhibiting a sandy color
##STATUS=The identification of this mineral has been confirmed by single-crystal X-ray diffraction.
##URL=rruff.info/R090001
93.78320, 3694.655
94.26532, 3737.256
94.74744, 3754.670
95.22955, 3737.215
95.71167, 3701.115
96.19379, 3648.909
96.67590, 3585.787
97.15802, 3520.833
97.64014, 3451.739
98.12225, 3381.888
98.60437, 3316.940
99.08649, 3259.344
99.56860, 3209.498
100.0507, 3165.519
100.5328, 3121.426
101.0150, 3081.887
101.4971, 3050.877
101.9792, 3028.206
102.4613, 3012.409
102.9434, 3008.585
103.4255, 3008.000
103.9077, 3005.773
104.3898, 3001.267
104.8719, 2992.172
105.3540, 2973.811
105.8361, 2944.592
106.3182, 2906.720
106.8004, 2857.315
107.2825, 2801.867
107.7646, 2745.615
108.2467, 2691.191
108.7288, 2638.736
109.2109, 2592.293
109.6931, 2552.123
110.1752, 2516.884
110.6573, 2486.671
111.1394, 2461.153
111.6215, 2439.810
112.1036, 2422.528
112.5858, 2409.733
113.0679, 2398.913
113.5500, 2389.405
114.0321, 2382.024
114.5142, 2377.684
114.9964, 2376.512
115.4785, 2377.255
115.9606, 2378.013
116.4427, 2378.724
116.9248, 2383.231
117.4069, 2393.234
117.8891, 2407.579
118.3712, 2423.987
118.8533, 2441.702
119.3354, 2462.207
119.8175, 2486.265
120.2996, 2513.771
120.7818, 2543.722
121.2639, 2576.582
121.7460, 2612.505
122.2281, 2646.902
122.7102, 2683.227
123.1923, 2714.468
123.6745, 2738.140
124.1566, 2753.339
124.6387, 2757.790
125.1208, 2747.466
125.6029, 2717.851
126.0850, 2681.117
126.5672, 2636.786
127.0493, 2588.302
127.5314, 2537.620
128.0135, 2485.395
128.4956, 2433.126
128.9777, 2383.830
129.4599, 2336.969
129.9420, 2294.733
130.4241, 2258.374
130.9062, 2226.507
131.3883, 2197.031
131.8705, 2168.610
132.3526, 2141.725
132.8347, 2118.680
133.3168, 2101.411
133.7989, 2085.005
134.2810, 2066.719
134.7632, 2047.086
135.2453, 2029.161
135.7274, 2015.562
136.2095, 2005.209
136.6916, 1993.585
137.1737, 1979.069
137.6559, 1963.991
138.1380, 1950.287
138.6201, 1937.845
139.1022, 1927.259
139.5843, 1920.610
140.0664, 1915.755
140.5486, 1909.729
141.0307, 1900.841
141.5128, 1889.970
141.9949, 1879.697
142.4770, 1869.684
142.9591, 1860.905
143.4413, 1854.257
143.9234, 1848.971
144.4055, 1843.578
144.8876, 1836.914
145.3697, 1828.980
145.8518, 1821.836
146.3340, 1815.793
146.8161, 1810.369
147.2982, 1806.107
147.7803, 1802.517
148.2624, 1798.387
148.7445, 1792.260
149.2267, 1783.281
149.7088, 1776.116
150.1909, 1771.899
150.6730, 1768.145
151.1551, 1763.603
151.6372, 1758.037
152.1194, 1751.823
152.6015, 1745.208
153.0836, 1737.594
153.5657, 1731.659
154.0478, 1728.733
154.5299, 1726.836
155.0121, 1723.998
155.4942, 1719.699
155.9763, 1714.764
156.4584, 1710.587
156.9405, 1707.346
157.4227, 1703.311
157.9048, 1697.121
158.3869, 1689.838
158.8690, 1683.762
159.3511, 1679.652
159.8332, 1676.708
160.3154, 1673.870
160.7975, 1671.126
161.2796, 1668.576
161.7617, 1666.698
162.2438, 1665.364
162.7259, 1662.959
163.2081, 1657.828
163.6902, 1652.514
164.1723, 1649.234
164.6544, 1648.155
165.1365, 1647.428
165.6186, 1644.998
166.1008, 1640.547
166.5829, 1635.870
167.0650, 1631.027
167.5471, 1626.230
168.0292, 1621.516
168.5113, 1616.927
168.9935, 1612.740
169.4756, 1609.469
169.9577, 1607.516
170.4398, 1605.789
170.9219, 1604.933
171.4040, 1603.852
171.8862, 1601.458
172.3683, 1597.382
172.8504, 1592.309
173.3325, 1587.799
173.8146, 1583.097
174.2967, 1580.141
174.7789, 1580.784
175.2610, 1582.600
175.7431, 1582.609
176.2252, 1579.406
176.7073, 1574.020
177.1894, 1569.848
177.6716, 1567.450
178.1537, 1565.381
178.6358, 1563.474
179.1179, 1561.701
179.6000, 1559.921
180.0821, 1557.999
180.5643, 1556.147
181.0464, 1555.003
181.5285, 1554.811
182.0106, 1554.805
182.4927, 1554.994
182.9749, 1555.209
183.4570, 1554.582
183.9391, 1552.287
184.4212, 1549.096
184.9033, 1546.809
185.3854, 1545.881
185.8676, 1545.145
186.3497, 1543.489
186.8318, 1540.878
187.3139, 1538.577
187.7960, 1537.454
188.2781, 1536.824
188.7603, 1536.061
189.2424, 1535.150
189.7245, 1533.831
190.2066, 1531.267
190.6887, 1526.708
191.1708, 1523.680
191.6530, 1524.871
192.1351, 1527.427
192.6172, 1529.032
193.0993, 1528.848
193.5814, 1527.420
194.0635, 1525.767
194.5457, 1523.818
195.0278, 1521.759
195.5099, 1519.369
195.9920, 1517.022
196.4741, 1515.101
196.9562, 1513.786
197.4384, 1512.936
197.9205, 1512.188
198.4026, 1511.987
198.8847, 1511.228
199.3668, 1509.254
199.8489, 1506.868
200.3311, 1504.945
200.8132, 1503.932
201.2953, 1503.669
201.7774, 1503.535
202.2595, 1504.323
202.7416, 1504.328
203.2238, 1502.851
203.7059, 1500.595
204.1880, 1498.506
204.6701, 1497.097
205.1522, 1496.225
205.6344, 1495.282
206.1165, 1494.172
206.5986, 1493.092
207.0807, 1491.746
207.5628, 1490.473
208.0449, 1490.142
208.5271, 1491.439
209.0092, 1493.669
209.4913, 1493.881
209.9734, 1490.752
210.4555, 1487.678
210.9376, 1485.925
211.4198, 1485.174
211.9019, 1484.592
212.3840, 1483.908
212.8661, 1482.996
213.3482, 1481.542
213.8303, 1479.132
214.3125, 1476.896
214.7946, 1475.664
215.2767, 1475.259
215.7588, 1474.704
216.2409, 1473.400
216.7230, 1471.824
217.2052, 1470.888
217.6873, 1470.925
218.1694, 1470.931
218.6515, 1470.182
219.1336, 1468.692
219.6157, 1466.760
220.0979, 1463.620
220.5800, 1460.696
221.0621, 1459.778
221.5442, 1461.441
222.0263, 1463.544
222.5084, 1463.938
222.9906, 1462.476
223.4727, 1460.895
223.9548, 1459.392
224.4369, 1458.185
224.9190, 1457.576
225.4011, 1457.639
225.8833, 1457.884
226.3654, 1457.650
226.8475, 1456.776
227.3296, 1456.186
227.8117, 1456.403
228.2938, 1456.745
228.7760, 1456.747
229.2581, 1456.322
229.7402, 1455.807
230.2223, 1455.862
230.7044, 1457.012
231.1866, 1457.004
231.6687, 1454.773
232.1508, 1452.001
232.6329, 1449.551
233.1150, 1447.639
233.5971, 1446.153
234.0793, 1444.980
234.5614, 1444.271
235.0435, 1443.536
235.5256, 1442.514
236.0077, 1441.646
236.4898, 1441.531
236.9720, 1442.111
237.4541, 1442.514
237.9362, 1441.179
238.4183, 1435.973
238.9004, 1434.507
239.3825, 1440.500
239.8647, 1446.765
240.3468, 1448.314
240.8289, 1444.709
241.3110, 1439.246
241.7931, 1436.032
242.2752, 1436.383
242.7574, 1435.236
243.2395, 1430.639
243.7216, 1426.215
244.2037, 1424.669
244.6858, 1426.101
245.1679, 1428.371
245.6501, 1429.096
246.1322, 1427.765
246.6143, 1426.802
247.0964, 1426.234
247.5785, 1425.967
248.0606, 1426.054
248.5428, 1426.448
249.0249, 1426.947
249.5070, 1427.497
249.9891, 1428.185
250.4712, 1427.648
250.9533, 1424.664
251.4355, 1421.490
251.9176, 1419.574
252.3997, 1418.989
252.8818, 1419.127
253.3639, 1419.785
253.8460, 1420.902
254.3282, 1420.733
254.8103, 1417.697
255.2924, 1414.654
255.7745, 1414.143
256.2566, 1415.952
256.7387, 1417.274
257.2209, 1415.854
257.7030, 1412.095
258.1851, 1409.440
258.6672, 1408.712
259.1493, 1408.418
259.6314, 1407.436
260.1136, 1405.847
260.5957, 1404.453
261.0778, 1403.366
261.5599, 1403.049
262.0420, 1404.453
262.5241, 1409.549
263.0063, 1414.042
263.4884, 1414.384
263.9705, 1410.992
264.4526, 1407.501
264.9347, 1405.537
265.4168, 1404.573
265.8990, 1403.611
266.3811, 1402.966
266.8632, 1401.604
267.3453, 1397.742
267.8275, 1391.888
268.3096, 1388.219
268.7917, 1389.576
269.2738, 1392.745
269.7559, 1392.973
270.2380, 1389.585
270.7202, 1386.612
271.2023, 1388.170
271.6844, 1393.324
272.1665, 1395.389
272.6486, 1391.128
273.1307, 1384.718
273.6129, 1380.187
274.0950, 1377.521
274.5771, 1375.901
275.0592, 1374.797
275.5413, 1374.260
276.0234, 1374.790
276.5056, 1377.361
276.9877, 1379.806
277.4698, 1380.226
277.9519, 1378.970
278.4340, 1377.820
278.9161, 1378.187
279.3983, 1379.639
279.8804, 1380.316
280.3625, 1380.272
280.8446, 1379.058
281.3267, 1375.336
281.8088, 1370.327
282.2910, 1366.939
282.7731, 1367.423
283.2552, 1370.707
283.7373, 1373.552
284.2194, 1376.632
284.7015, 1377.825
285.1837, 1374.497
285.6658, 1369.217
286.1479, 1366.016
286.6300, 1367.452
287.1121, 1371.359
287.5942, 1372.729
288.0764, 1370.594
288.5585, 1368.123
289.0406, 1365.925
289.5227, 1364.245
290.0048, 1363.545
290.4869, 1364.114
290.9691, 1365.258
291.4512, 1365.762
291.9333, 1365.417
292.4154, 1365.119
292.8975, 1365.765
293.3796, 1366.188
293.8618, 1365.183
294.3439, 1362.452
294.8260, 1359.319
295.3081, 1357.677
295.7902, 1357.958
296.2723, 1357.691
296.7545, 1355.218
297.2366, 1352.972
297.7187, 1352.748
298.2008, 1354.517
298.6829, 1356.487
299.1650, 1356.654
299.6472, 1354.787
300.1293, 1353.230
300.6114, 1352.555
301.0935, 1351.797
301.5756, 1350.554
302.0577, 1348.850
302.5399, 1346.846
303.0220, 1344.328
303.5041, 1341.381
303.9862, 1339.971
304.4683, 1341.695
304.9504, 1343.198
305.4326, 1343.309
305.9147, 1342.352
306.3968, 1340.937
306.8789, 1339.282
307.3610, 1337.552
307.8431, 1336.502
308.3253, 1336.493
308.8074, 1336.667
309.2895, 1337.179
309.7716, 1337.577
310.2537, 1337.247
310.7358, 1335.871
311.2180, 1333.855
311.7001, 1331.907
312.1822, 1329.416
312.6643, 1328.401
313.1464, 1330.888
313.6285, 1333.828
314.1107, 1334.454
314.5928, 1332.070
315.0749, 1328.638
315.5570, 1327.028
316.0392, 1327.776
316.5213, 1328.388
317.0034, 1328.453
317.4855, 1328.438
317.9676, 1329.070
318.4497, 1330.141
318.9319, 1330.354
319.4140, 1327.751
319.8961, 1321.870
320.3782, 1317.873
320.8603, 1317.103
321.3424, 1317.174
321.8246, 1317.465
322.3067, 1317.875
322.7888, 1318.424
323.2709, 1319.299
323.7530, 1320.352
324.2351, 1320.402
324.7173, 1318.915
325.1994, 1317.081
325.6815, 1314.842
326.1636, 1312.629
326.6457, 1311.037
327.1278, 1310.417
327.6100, 1310.443
328.0921, 1310.415
328.5742, 1310.503
329.0563, 1310.120
329.5384, 1308.843
330.0205, 1307.253
330.5027, 1305.602
330.9848, 1303.965
331.4669, 1302.907
331.9490, 1303.729
332.4311, 1307.236
332.9132, 1309.080
333.3954, 1307.153
333.8775, 1304.434
334.3596, 1302.265
334.8417, 1300.828
335.3238, 1299.822
335.8059, 1299.053
336.2881, 1298.522
336.7702, 1298.048
337.2523, 1297.178
337.7344, 1296.941
338.2165, 1298.497
338.6986, 1301.035
339.1808, 1302.665
339.6629, 1301.901
340.1450, 1299.423
340.6271, 1297.756
341.1092, 1296.992
341.5913, 1296.916
342.0735, 1298.057
342.5556, 1299.531
343.0377, 1300.253
343.5198, 1299.772
344.0019, 1298.530
344.4840, 1297.218
344.9662, 1295.866
345.4483, 1294.273
345.9304, 1291.628
346.4125, 1289.167
346.8946, 1288.195
347.3767, 1288.889
347.8589, 1289.435
348.3410, 1287.373
348.8231, 1282.805
349.3052, 1280.398
349.7873, 1282.058
350.2694, 1284.692
350.7516, 1286.454
351.2337, 1287.357
351.7158, 1287.627
352.1979, 1287.637
352.6800, 1287.135
353.1621, 1284.928
353.6443, 1280.037
354.1264, 1275.651
354.6085, 1273.756
355.0906, 1273.531
355.5727, 1273.999
356.0548, 1275.379
356.5370, 1276.677
357.0191, 1276.162
357.5012, 1273.627
357.9833, 1271.712
358.4654, 1272.058
358.9475, 1273.300
359.4297, 1273.821
359.9118, 1273.407
360.3939, 1272.649
360.8760, 1271.657
361.3581, 1270.580
361.8402, 1270.312
362.3224, 1271.490
362.8045, 1272.848
363.2866, 1272.917
363.7687, 1271.834
364.2508, 1270.870
364.7329, 1270.654
365.2151, 1270.820
365.6972, 1270.865
366.1793, 1270.788
366.6614, 1270.289
367.1436, 1268.746
367.6257, 1266.579
368.1078, 1265.097
368.5899, 1264.506
369.0720, 1264.625
369.5541, 1265.698
370.0363, 1267.555
370.5184, 1268.999
371.0005, 1269.331
371.4826, 1269.030
371.9647, 1269.320
372.4468, 1270.722
372.9290, 1271.383
373.4111, 1269.976
373.8932, 1267.448
374.3753, 1265.635
374.8574, 1265.080
375.3395, 1264.871
375.8217, 1263.755
376.3038, 1261.575
376.7859, 1259.916
377.2680, 1259.458
377.7501, 1259.209
378.2322, 1258.247
378.7144, 1256.571
379.1965, 1254.912
379.6786, 1253.943
380.1607, 1253.504
380.6428, 1251.876
381.1249, 1247.021
381.6071, 1243.399
382.0892, 1243.375
382.5713, 1245.601
383.0534, 1247.615
383.5355, 1248.401
384.0176, 1248.215
384.4998, 1247.586
384.9819, 1246.268
385.4640, 1244.873
385.9461, 1242.687
386.4282, 1240.888
386.9103, 1240.938
387.3925, 1242.805
387.8746, 1244.876
388.3567, 1245.362
388.8388, 1243.976
389.3209, 1243.059
389.8030, 1243.164
390.2852, 1243.090
390.7673, 1242.207
391.2494, 1240.806
391.7315, 1239.530
392.2136, 1238.765
392.6957, 1238.361
393.1779, 1237.744
393.6600, 1236.450
394.1421, 1235.615
394.6242, 1236.065
395.1063, 1236.565
395.5884, 1235.772
396.0706, 1233.451
396.5527, 1230.717
397.0348, 1229.029
397.5169, 1228.612
397.9990, 1228.357
398.4811, 1228.217
398.9633, 1228.284
399.4454, 1228.873
399.9275, 1229.721
400.4096, 1230.188
400.8917, 1229.734
401.3738, 1228.610
401.8560, 1227.902
402.3381, 1227.754
402.8202, 1227.783
403.3023, 1228.499
403.7844, 1229.031
404.2665, 1228.269
404.7487, 1225.823
405.2308, 1222.886
405.7129, 1220.823
406.1950, 1219.645
406.6771, 1218.939
407.1592, 1218.715
407.6414, 1218.923
408.1235, 1219.789
408.6056, 1221.140
409.0877, 1222.103
409.5698, 1222.417
410.0519, 1221.951
410.5341, 1219.934
411.0162, 1215.793
411.4983, 1212.264
411.9804, 1211.594
412.4625, 1212.523
412.9446, 1213.071
413.4268, 1212.926
413.9089, 1212.333
414.3910, 1211.304
414.8731, 1209.930
415.3553, 1208.590
415.8374, 1207.252
416.3195, 1206.262
416.8016, 1206.354
417.2837, 1207.573
417.7658, 1208.572
418.2480, 1208.947
418.7301, 1208.945
419.2122, 1208.837
419.6943, 1208.652
420.1764, 1208.263
420.6585, 1207.382
421.1407, 1206.151
421.6228, 1205.984
422.1049, 1208.389
422.5870, 1210.098
423.0691, 1208.959
423.5512, 1206.370
424.0334, 1205.301
424.5155, 1207.034
424.9976, 1209.498
425.4797, 1208.666
425.9618, 1201.535
426.4439, 1197.133
426.9261, 1197.419
427.4082, 1198.805
427.8903, 1198.887
428.3724, 1197.563
428.8545, 1195.990
429.3366, 1195.100
429.8188, 1194.870
430.3009, 1194.672
430.7830, 1194.434
431.2651, 1194.339
431.7472, 1194.464
432.2293, 1194.734
432.7115, 1195.096
433.1936, 1195.523
433.6757, 1195.923
434.1578, 1196.248
434.6399, 1196.671
435.1220, 1196.354
435.6042, 1194.359
436.0863, 1192.309
436.5684, 1191.023
437.0505, 1190.376
437.5326, 1189.696
438.0147, 1188.182
438.4969, 1186.380
438.9790, 1186.678
439.4611, 1190.355
439.9432, 1192.881
440.4253, 1191.579
440.9074, 1188.536
441.3896, 1185.643
441.8717, 1183.225
442.3538, 1181.336
442.8359, 1180.075
443.3180, 1179.412
443.8001, 1179.382
444.2823, 1180.483
444.7644, 1181.323
445.2465, 1179.893
445.7286, 1176.781
446.2107, 1174.767
446.6928, 1175.735
447.1750, 1177.382
447.6571, 1177.086
448.1392, 1175.024
448.6213, 1173.402
449.1034, 1173.628
449.5855, 1174.851
450.0677, 1174.518
450.5498, 1171.571
451.0319, 1169.572
451.5140, 1169.972
451.9961, 1171.554
452.4782, 1173.172
452.9604, 1174.514
453.4425, 1175.106
453.9246, 1174.292
454.4067, 1171.849
454.8888, 1170.408
455.3709, 1170.592
455.8531, 1170.920
456.3352, 1171.536
456.8173, 1171.794
457.2994, 1170.339
457.7815, 1166.529
458.2636, 1161.818
458.7458, 1159.371
459.2279, 1160.541
459.7100, 1161.207
460.1921, 1160.467
460.6742, 1159.910
461.1563, 1160.754
461.6385, 1162.734
462.1206, 1164.588
462.6027, 1165.315
463.0848, 1165.113
463.5669, 1165.040
464.0491, 1165.226
464.5312, 1165.249
465.0133, 1165.102
465.4954, 1164.653
465.9775, 1163.776
466.4597, 1162.433
466.9418, 1160.608
467.4239, 1157.840
467.9060, 1154.373
468.3881, 1151.866
468.8702, 1150.708
469.3524, 1150.251
469.8345, 1150.397
470.3166, 1150.876
470.7987, 1150.834
471.2808, 1149.752
471.7629, 1148.322
472.2451, 1146.838
472.7272, 1145.445
473.2093, 1145.045
473.6914, 1146.335
474.1735, 1148.243
474.6556, 1148.466
475.1378, 1146.357
475.6199, 1145.039
476.1020, 1146.083
476.5841, 1147.349
477.0662, 1146.606
477.5483, 1143.955
478.0305, 1141.289
478.5126, 1140.066
478.9947, 1140.105
479.4768, 1139.899
479.9589, 1138.055
480.4410, 1137.675
480.9232, 1141.031
481.4053, 1145.063
481.8874, 1146.342
482.3695, 1144.190
482.8516, 1140.782
483.3337, 1138.766
483.8159, 1138.359
484.2980, 1137.471
484.7801, 1135.275
485.2622, 1133.549
485.7443, 1133.219
486.2264, 1133.679
486.7086, 1134.011
487.1907, 1133.883
487.6728, 1133.297
488.1549, 1132.004
488.6370, 1129.929
489.1191, 1128.440
489.6013, 1128.204
490.0834, 1128.250
490.5655, 1127.699
491.0476, 1126.626
491.5297, 1125.536
492.0118, 1124.728
492.4940, 1123.962
492.9761, 1122.769
493.4582, 1121.181
493.9403, 1120.014
494.4224, 1119.818
494.9045, 1120.188
495.3867, 1120.069
495.8688, 1119.250
496.3509, 1118.559
496.8330, 1118.693
497.3151, 1118.749
497.7972, 1117.288
498.2794, 1114.410
498.7615, 1112.009
499.2436, 1111.853
499.7257, 1113.772
500.2078, 1114.729
500.6899, 1114.655
501.1721, 1113.673
501.6542, 1110.755
502.1363, 1107.448
502.6184, 1105.409
503.1005, 1105.053
503.5826, 1105.576
504.0648, 1106.068
504.5469, 1106.523
505.0290, 1107.115
505.5111, 1108.531
505.9932, 1109.196
506.4753, 1108.222
506.9575, 1106.232
507.4396, 1104.088
507.9217, 1101.960
508.4038, 1100.259
508.8859, 1099.738
509.3680, 1100.322
509.8502, 1100.643
510.3323, 1100.280
510.8144, 1099.763
511.2965, 1099.876
511.7786, 1100.428
512.2607, 1100.221
512.7429, 1097.991
513.2250, 1095.651
513.7071, 1095.253
514.1892, 1096.321
514.6713, 1096.579
515.1534, 1094.861
515.6356, 1092.273
516.1177, 1091.048
516.5998, 1092.076
517.0819, 1092.497
517.5640, 1091.791
518.0461, 1090.835
518.5283, 1090.527
519.0104, 1090.566
519.4925, 1089.720
519.9746, 1087.039
520.4567, 1083.247
520.9388, 1081.130
521.4210, 1081.729
521.9031, 1082.082
522.3852, 1081.121
522.8673, 1080.349
523.3494, 1081.501
523.8315, 1084.202
524.3137, 1085.965
524.7958, 1084.294
525.2779, 1080.243
525.7600, 1077.606
526.2421, 1076.694
526.7242, 1076.005
527.2064, 1074.514
527.6885, 1073.126
528.1706, 1073.304
528.6527, 1075.549
529.1348, 1077.134
529.6169, 1075.899
530.0991, 1073.391
530.5812, 1072.250
531.0633, 1072.787
531.5454, 1073.639
532.0275, 1073.875
532.5096, 1073.567
532.9918, 1073.198
533.4739, 1073.240
533.9560, 1072.645
534.4381, 1070.830
534.9202, 1068.466
535.4023, 1065.914
535.8845, 1063.443
536.3666, 1061.809
536.8487, 1062.020
537.3308, 1064.065
537.8129, 1064.781
538.2951, 1063.108
538.7772, 1061.426
539.2593, 1060.014
539.7415, 1059.005
540.2236, 1058.761
540.7057, 1059.337
541.1878, 1059.800
541.6699, 1058.986
542.1520, 1057.115
542.6342, 1055.807
543.1163, 1055.451
543.5984, 1054.980
544.0805, 1053.313
544.5626, 1051.137
545.0447, 1049.783
545.5269, 1049.736
546.0090, 1049.946
546.4911, 1049.842
546.9732, 1049.561
547.4553, 1049.306
547.9374, 1049.117
548.4196, 1049.219
548.9017, 1050.053
549.3838, 1051.672
549.8659, 1051.584
550.3480, 1048.595
550.8301, 1045.652
551.3123, 1043.238
551.7944, 1041.466
552.2765, 1040.504
552.7586, 1040.356
553.2407, 1040.742
553.7228, 1041.494
554.2050, 1042.669
554.6871, 1043.115
555.1692, 1042.270
555.6513, 1041.472
556.1334, 1041.511
556.6155, 1041.752
557.0977, 1041.311
557.5798, 1039.903
558.0619, 1038.212
558.5440, 1036.470
559.0261, 1034.908
559.5082, 1034.551
559.9904, 1035.747
560.4725, 1037.221
560.9546, 1038.090
561.4367, 1038.405
561.9188, 1038.636
562.4009, 1039.279
562.8831, 1039.216
563.3652, 1037.833
563.8473, 1035.577
564.3294, 1032.676
564.8115, 1029.336
565.2936, 1026.547
565.7758, 1025.401
566.2579, 1025.902
566.7400, 1026.046
567.2221, 1025.785
567.7042, 1025.186
568.1863, 1023.715
568.6685, 1022.214
569.1506, 1021.763
569.6327, 1022.492
570.1148, 1023.256
570.5969, 1022.755
571.0790, 1021.231
571.5612, 1020.340
572.0433, 1020.398
572.5254, 1020.198
573.0075, 1018.583
573.4896, 1016.578
573.9717, 1015.794
574.4539, 1016.652
574.9360, 1017.669
575.4181, 1018.526
575.9002, 1018.954
576.3823, 1018.381
576.8644, 1016.827
577.3466, 1014.985
577.8287, 1013.167
578.3108, 1011.606
578.7929, 1011.454
579.2750, 1014.911
579.7571, 1016.893
580.2393, 1016.225
580.7214, 1014.660
581.2035, 1012.983
581.6856, 1011.654
582.1677, 1011.629
582.6498, 1014.207
583.1320, 1018.032
583.6141, 1017.790
584.0962, 1011.889
584.5783, 1007.377
585.0604, 1007.093
585.5425, 1008.274
586.0247, 1008.755
586.5068, 1008.495
586.9889, 1008.104
587.4710, 1007.986
587.9531, 1007.798
588.4352, 1007.060
588.9174, 1005.851
589.3995, 1004.676
589.8816, 1003.809
590.3637, 1002.905
590.8458, 1001.200
591.3279, 997.8752
591.8101, 996.2108
