##NAMES=Nitratine
##RRUFFID=R050394
##IDEAL CHEMISTRY=NaN^5+^O_3_
##LOCALITY=Tarapaca, Chile
##OWNER=RRUFF
##SOURCE=Mark Candee
##DESCRIPTION=Colorless coarse powder
##STATUS=The identification of this mineral has been confirmed by X-ray diffraction and chemical analysis
##URL=rruff.info/R050394
##MEASURED CHEMISTRY=Na_1.00_NO_3_ ; = darker grains. The lighter grains are NaCl ; N not analyzed but estimated by difference and stiochiometry
92.35352, 28.10015
92.83563, 27.70704
93.31775, 27.54034
93.79987, 27.67648
94.28198, 28.04926
94.76410, 28.38216
95.24622, 28.38464
95.72833, 28.55921
96.21045, 30.31217
96.69257, 33.74452
97.17468, 37.26678
97.65680, 39.06892
98.13892, 39.20510
98.62103, 40.05987
99.10315, 42.38191
99.58527, 45.96690
100.0674, 49.29668
100.5495, 52.20774
101.0316, 55.16056
101.5137, 58.80700
101.9958, 63.45383
102.4780, 67.75214
102.9601, 70.73463
103.4422, 71.80667
103.9243, 75.69188
104.4064, 83.60085
104.8885, 93.56850
105.3707, 102.2788
105.8528, 109.3085
106.3349, 115.5659
106.8170, 121.3709
107.2991, 127.1037
107.7813, 131.6273
108.2634, 134.1486
108.7455, 135.3626
109.2276, 137.5054
109.7097, 142.6055
110.1918, 147.1783
110.6740, 149.7847
111.1561, 147.6333
111.6382, 146.6087
112.1203, 147.5540
112.6024, 150.1981
113.0845, 152.8430
113.5667, 154.3116
114.0488, 156.1804
114.5309, 159.5375
115.0130, 166.5205
115.4951, 173.2006
115.9772, 178.0422
116.4594, 181.1302
116.9415, 184.7922
117.4236, 190.2207
117.9057, 196.5676
118.3878, 202.8974
118.8699, 208.7765
119.3521, 214.6918
119.8342, 221.3651
120.3163, 228.9796
120.7984, 235.7628
121.2805, 240.0488
121.7626, 242.8081
122.2448, 245.6999
122.7269, 250.2337
123.2090, 254.9217
123.6911, 257.9608
124.1732, 258.7737
124.6553, 259.5609
125.1375, 262.3691
125.6196, 266.8446
126.1017, 271.8676
126.5838, 277.1107
127.0659, 282.4124
127.5480, 287.5261
128.0302, 292.4697
128.5123, 297.1801
128.9944, 301.1669
129.4765, 304.5576
129.9586, 308.5415
130.4407, 314.2270
130.9229, 321.2994
131.4050, 328.5285
131.8871, 335.4882
132.3692, 342.4512
132.8513, 349.8519
133.3334, 357.1273
133.8156, 363.2056
134.2977, 368.6080
134.7798, 374.5734
135.2619, 380.2112
135.7440, 384.9688
136.2261, 389.2251
136.7083, 395.7730
137.1904, 405.3482
137.6725, 414.9769
138.1546, 421.0760
138.6367, 422.8182
139.1188, 425.9219
139.6010, 432.0497
140.0831, 441.1655
140.5652, 450.7580
141.0473, 461.3505
141.5294, 471.8651
142.0115, 480.6140
142.4937, 487.0175
142.9758, 493.2079
143.4579, 499.6318
143.9400, 505.9902
144.4221, 513.8082
144.9042, 523.3485
145.3864, 534.1523
145.8685, 545.1709
146.3506, 555.9347
146.8327, 567.6332
147.3148, 580.9583
147.7969, 596.8391
148.2791, 612.0613
148.7612, 626.5730
149.2433, 640.3969
149.7254, 653.7714
150.2075, 663.7103
150.6896, 675.7078
151.1718, 691.8643
151.6539, 716.9362
152.1360, 739.2308
152.6181, 756.3957
153.1002, 770.3287
153.5823, 786.6120
154.0645, 806.9899
154.5466, 828.9666
155.0287, 851.3347
155.5108, 874.3107
155.9929, 897.6678
156.4750, 919.5516
156.9572, 941.1195
157.4393, 966.7449
157.9214, 999.5228
158.4035, 1035.542
158.8856, 1072.435
159.3677, 1109.176
159.8499, 1147.399
160.3320, 1186.654
160.8141, 1227.122
161.2962, 1270.445
161.7783, 1318.555
162.2604, 1368.780
162.7426, 1418.915
163.2247, 1464.961
163.7068, 1513.714
164.1889, 1569.882
164.6710, 1632.529
165.1531, 1695.115
165.6353, 1751.041
166.1174, 1806.254
166.5995, 1867.154
167.0816, 1940.463
167.5637, 2016.856
168.0458, 2090.718
168.5280, 2161.308
169.0101, 2232.287
169.4922, 2304.257
169.9743, 2377.618
170.4564, 2452.523
170.9385, 2530.446
171.4207, 2609.080
171.9028, 2685.886
172.3849, 2760.268
172.8670, 2835.910
173.3491, 2915.567
173.8312, 2999.002
174.3134, 3086.155
174.7955, 3177.688
175.2776, 3271.749
175.7597, 3365.183
176.2418, 3458.368
176.7239, 3552.686
177.2061, 3655.278
177.6882, 3763.079
178.1703, 3865.676
178.6524, 3954.883
179.1345, 4037.819
179.6166, 4126.786
180.0988, 4224.778
180.5809, 4321.250
181.0630, 4404.392
181.5451, 4476.450
182.0272, 4542.831
182.5093, 4611.409
182.9915, 4677.026
183.4736, 4725.861
183.9557, 4756.830
184.4378, 4773.376
184.9199, 4782.095
185.4020, 4781.917
185.8842, 4766.111
186.3663, 4730.266
186.8484, 4675.537
187.3305, 4607.215
187.8126, 4524.831
188.2947, 4429.495
188.7769, 4319.609
189.2590, 4195.642
189.7411, 4067.179
190.2232, 3937.808
190.7053, 3807.769
191.1874, 3674.741
191.6696, 3536.075
192.1517, 3396.219
192.6338, 3261.393
193.1159, 3131.565
193.5980, 3007.000
194.0801, 2889.051
194.5623, 2777.827
195.0444, 2666.641
195.5265, 2554.201
196.0086, 2443.785
196.4907, 2342.917
196.9728, 2252.131
197.4550, 2166.137
197.9371, 2081.403
198.4192, 1997.854
198.9013, 1919.709
199.3834, 1847.811
199.8655, 1781.276
200.3477, 1717.042
200.8298, 1655.247
201.3119, 1595.785
201.7940, 1537.657
202.2761, 1480.681
202.7582, 1427.124
203.2404, 1377.271
203.7225, 1330.892
204.2046, 1287.759
204.6867, 1248.330
205.1688, 1210.413
205.6509, 1172.709
206.1331, 1134.599
206.6152, 1099.625
207.0973, 1068.707
207.5794, 1040.780
208.0615, 1012.669
208.5436, 984.2923
209.0258, 955.8118
209.5079, 927.0640
209.9900, 897.5786
210.4721, 870.6526
210.9542, 847.1390
211.4363, 826.1532
211.9185, 804.9109
212.4006, 783.5677
212.8827, 761.4166
213.3648, 738.0455
213.8469, 712.3038
214.3290, 688.6354
214.8112, 667.5581
215.2933, 648.8160
215.7754, 630.9374
216.2575, 614.2142
216.7396, 597.7267
217.2217, 580.7879
217.7038, 562.7274
218.1860, 546.4969
218.6681, 532.9363
219.1502, 521.3428
219.6323, 509.2408
220.1144, 496.2237
220.5965, 483.5849
221.0787, 472.2191
221.5608, 462.4891
222.0429, 453.2158
222.5250, 444.8262
223.0071, 436.8167
223.4892, 427.4551
223.9714, 415.6016
224.4535, 404.0746
224.9356, 394.3052
225.4177, 386.9033
225.8998, 379.9536
226.3819, 373.4158
226.8641, 367.2318
227.3462, 361.4102
227.8283, 355.9145
228.3104, 350.8365
228.7925, 346.5058
229.2746, 343.8592
229.7568, 339.5358
230.2389, 332.4187
230.7210, 323.6609
231.2031, 317.4211
231.6852, 315.5616
232.1673, 313.4686
232.6495, 308.5208
233.1316, 298.1634
233.6137, 290.8458
234.0958, 288.2436
234.5779, 288.5699
235.0600, 286.7438
235.5422, 281.4337
236.0243, 275.8687
236.5064, 271.4479
236.9885, 268.5163
237.4706, 266.0356
237.9527, 264.4357
238.4349, 263.1974
238.9170, 260.9497
239.3991, 256.9999
239.8812, 253.0725
240.3633, 249.8117
240.8454, 247.1366
241.3276, 245.4457
241.8097, 245.5101
242.2918, 246.2943
242.7739, 245.4453
243.2560, 242.1213
243.7381, 238.4662
244.2203, 235.3100
244.7024, 232.9445
245.1845, 230.2135
245.6666, 226.7751
246.1487, 223.1419
246.6308, 220.3271
247.1130, 218.9775
247.5951, 217.3742
248.0772, 214.8579
248.5593, 211.1091
249.0414, 207.4625
249.5235, 203.3820
250.0057, 199.7459
250.4878, 198.2153
250.9699, 200.2903
251.4520, 201.7859
251.9341, 201.1747
252.4162, 197.9198
252.8984, 195.2038
253.3805, 193.1075
253.8626, 191.4752
254.3447, 190.1747
254.8268, 189.3492
255.3089, 188.5294
255.7911, 187.6338
256.2732, 186.6803
256.7553, 185.4943
257.2374, 184.1329
257.7195, 182.4747
258.2017, 180.1644
258.6838, 176.4682
259.1659, 173.7871
259.6480, 173.0245
260.1301, 174.2882
260.6122, 174.7149
261.0944, 174.1157
261.5765, 172.9087
262.0586, 171.4880
262.5407, 169.8077
263.0228, 168.0141
263.5049, 165.9188
263.9871, 163.5599
264.4692, 162.5716
264.9513, 163.6844
265.4334, 164.9863
265.9155, 164.6064
266.3976, 162.0795
266.8798, 159.4389
267.3619, 156.9398
267.8440, 154.5960
268.3261, 152.6407
268.8082, 150.9601
269.2903, 149.9057
269.7725, 150.2241
270.2546, 152.5279
270.7367, 153.2489
271.2188, 151.3499
271.7009, 147.5883
272.1830, 145.0782
272.6652, 143.9859
273.1473, 143.7444
273.6294, 144.4054
274.1115, 146.3283
274.5936, 146.7038
275.0757, 144.7205
275.5579, 141.3913
276.0400, 139.9458
276.5221, 140.8660
277.0042, 141.7184
277.4863, 140.7930
277.9684, 137.9097
278.4506, 135.7498
278.9327, 134.5728
279.4148, 134.1070
279.8969, 134.0478
280.3790, 134.5257
280.8611, 134.5016
281.3433, 132.8215
281.8254, 129.5074
282.3075, 128.3629
282.7896, 130.0558
283.2717, 132.6849
283.7538, 133.1042
284.2360, 131.2408
284.7181, 129.0943
285.2002, 127.3037
285.6823, 125.8982
286.1644, 125.2287
286.6465, 125.3801
287.1287, 125.9745
287.6108, 126.7661
288.0929, 127.7223
288.5750, 128.2516
289.0571, 128.1152
289.5392, 127.3729
290.0214, 126.1454
290.5035, 124.3917
290.9856, 122.5431
291.4677, 120.6616
291.9498, 118.9030
292.4319, 118.3698
292.9141, 120.0437
293.3962, 122.7930
293.8783, 124.0306
294.3604, 123.7377
294.8425, 122.5990
295.3246, 120.3531
295.8068, 117.5760
296.2889, 116.4186
296.7710, 118.0948
297.2531, 120.7774
297.7352, 121.2573
298.2173, 119.7393
298.6995, 117.9621
299.1816, 117.4900
299.6637, 117.6453
300.1458, 116.8999
300.6279, 114.7009
301.1100, 112.1147
301.5922, 110.2996
302.0743, 109.2070
302.5564, 108.6461
303.0385, 108.6827
303.5206, 109.1149
304.0027, 109.8312
304.4849, 110.9677
304.9670, 111.7331
305.4491, 110.8232
305.9312, 108.9008
306.4133, 107.5560
306.8954, 108.1336
307.3776, 109.3807
307.8597, 110.1030
308.3418, 110.2176
308.8239, 109.9405
309.3060, 109.4186
309.7881, 108.6130
310.2703, 107.4816
310.7524, 105.0790
311.2345, 103.0117
311.7166, 102.9129
312.1987, 104.7177
312.6808, 106.1659
313.1630, 105.7029
313.6451, 104.3266
314.1272, 103.0993
314.6093, 102.0482
315.0914, 101.5373
315.5735, 102.1089
316.0557, 103.5471
316.5378, 104.7099
317.0199, 105.1148
317.5020, 105.0556
317.9841, 104.7419
318.4662, 104.2229
318.9484, 103.4549
319.4305, 102.0812
319.9126, 100.4121
320.3947, 99.26305
320.8768, 98.85388
321.3589, 99.03609
321.8411, 99.91893
322.3232, 102.0530
322.8053, 103.5333
323.2874, 103.7371
323.7695, 103.1149
324.2516, 102.3801
324.7338, 101.7469
325.2159, 100.9200
325.6980, 99.49127
326.1801, 97.01380
326.6622, 95.89153
327.1443, 97.67434
327.6265, 100.2762
328.1086, 101.6003
328.5907, 100.5260
329.0728, 99.37708
329.5549, 98.48837
330.0370, 97.85993
330.5192, 97.12681
331.0013, 95.65323
331.4834, 94.60532
331.9655, 94.91434
332.4476, 98.06610
332.9297, 99.99725
333.4119, 99.95200
333.8940, 98.37763
334.3761, 97.17081
334.8582, 96.33537
335.3403, 95.89385
335.8224, 95.98159
336.3046, 96.94182
336.7867, 97.35925
337.2688, 97.00117
337.7509, 96.24519
338.2330, 95.80205
338.7151, 95.66188
339.1973, 95.89154
339.6794, 96.75923
340.1615, 98.32601
340.6436, 98.99437
341.1257, 98.60941
341.6078, 97.66026
342.0899, 96.53760
342.5721, 95.20921
343.0542, 94.42714
343.5363, 94.57025
344.0184, 95.43137
344.5005, 96.19667
344.9826, 96.87564
345.4648, 97.34952
345.9469, 97.63548
346.4290, 97.68114
346.9111, 96.91973
347.3932, 94.85814
347.8753, 92.45480
348.3575, 91.72707
348.8396, 92.56572
349.3217, 93.73985
349.8038, 94.88186
350.2859, 95.71672
350.7680, 95.26497
351.2502, 93.09323
351.7323, 90.85979
352.2144, 90.82904
352.6965, 92.38297
353.1786, 93.65477
353.6607, 93.36262
354.1429, 92.43278
354.6250, 92.15800
355.1071, 92.62052
355.5892, 92.84492
356.0713, 91.61256
356.5534, 89.75771
357.0356, 88.51688
357.5177, 88.75139
357.9998, 89.41100
358.4819, 89.86339
358.9640, 90.12233
359.4461, 90.24684
359.9283, 90.33485
360.4104, 90.26504
360.8925, 89.86364
361.3746, 88.68813
361.8567, 87.87544
362.3388, 88.39847
362.8210, 89.63445
363.3031, 90.18304
363.7852, 88.88892
364.2673, 87.38149
364.7494, 86.37076
365.2315, 85.96293
365.7137, 85.93811
366.1958, 86.92935
366.6779, 88.04757
367.1600, 88.25580
367.6421, 86.35904
368.1242, 84.66071
368.6064, 83.46116
369.0885, 82.76176
369.5706, 82.94429
370.0527, 84.96536
370.5348, 87.12955
371.0169, 88.35045
371.4991, 88.19050
371.9812, 87.80361
372.4633, 87.19846
372.9454, 86.41845
373.4275, 85.50783
373.9096, 83.96053
374.3918, 83.15606
374.8739, 84.05690
375.3560, 87.33064
375.8381, 89.30128
376.3202, 89.71443
376.8023, 89.13166
377.2845, 88.25631
377.7666, 87.03011
378.2487, 85.82639
378.7308, 84.56909
379.2129, 83.38996
379.6950, 83.73766
380.1772, 85.95490
380.6593, 87.94481
381.1414, 87.02074
381.6235, 83.61685
382.1056, 81.85261
382.5877, 82.97984
383.0699, 85.63581
383.5520, 87.63195
384.0341, 88.97047
384.5162, 89.49156
384.9983, 88.62413
385.4804, 86.93546
385.9626, 85.48962
386.4447, 84.31179
386.9268, 83.80791
387.4089, 85.17818
387.8910, 87.56711
388.3731, 89.01782
388.8553, 87.83753
389.3374, 85.83950
389.8195, 84.58453
390.3016, 84.10164
390.7837, 84.16116
391.2658, 85.39006
391.7480, 86.77350
392.2301, 87.17218
392.7122, 85.34164
393.1943, 83.76254
393.6764, 83.83601
394.1585, 85.12356
394.6407, 86.36987
395.1228, 87.73601
395.6049, 88.49638
396.0870, 88.02747
396.5691, 85.66499
397.0512, 84.03271
397.5334, 83.94587
398.0155, 84.75529
398.4976, 85.64516
398.9797, 87.52017
399.4618, 88.41237
399.9439, 87.41183
400.4261, 84.53242
400.9082, 82.79129
401.3903, 82.68413
401.8724, 83.24193
402.3545, 83.89771
402.8366, 84.71043
403.3188, 85.51759
403.8009, 86.51402
404.2830, 87.41099
404.7651, 87.35707
405.2472, 86.05029
405.7293, 84.65202
406.2115, 83.52113
406.6936, 82.65857
407.1757, 82.46723
407.6578, 83.12697
408.1399, 83.97244
408.6220, 84.17510
409.1042, 83.75086
409.5863, 83.42027
410.0684, 83.40937
410.5505, 83.58466
411.0326, 83.72088
411.5147, 83.81056
411.9969, 83.64275
412.4790, 82.69930
412.9611, 81.40602
413.4432, 80.87379
413.9253, 81.35484
414.4074, 82.17329
414.8896, 82.84100
415.3717, 83.29647
415.8538, 83.38240
416.3359, 82.65490
416.8180, 81.75902
417.3001, 81.30928
417.7823, 81.30284
418.2644, 81.37025
418.7465, 81.39525
419.2286, 81.34099
419.7107, 81.14565
420.1928, 80.46086
420.6750, 80.07875
421.1571, 80.56721
421.6392, 81.60780
422.1213, 82.36333
422.6034, 82.63142
423.0855, 82.55293
423.5677, 81.99744
424.0498, 80.62157
424.5319, 80.00105
425.0140, 81.02188
425.4961, 82.48954
425.9782, 83.17856
426.4604, 82.33585
426.9425, 81.83582
427.4246, 82.14759
427.9067, 83.09964
428.3888, 83.43815
428.8709, 82.94081
429.3531, 82.22609
429.8352, 81.43548
430.3173, 80.36781
430.7994, 80.49187
431.2815, 82.24574
431.7636, 84.55272
432.2458, 85.59235
432.7279, 85.30034
433.2100, 84.80009
433.6921, 84.45917
434.1742, 84.21539
434.6563, 83.89274
435.1385, 83.49057
435.6206, 82.92236
436.1027, 81.84273
436.5848, 80.52944
437.0669, 79.86655
437.5490, 80.26103
438.0312, 80.74413
438.5133, 79.96535
438.9954, 78.34221
439.4775, 77.03263
439.9596, 76.63281
440.4417, 76.81267
440.9239, 77.46413
441.4060, 78.58099
441.8881, 79.56026
442.3702, 80.18134
442.8523, 80.43170
443.3344, 80.27839
443.8166, 78.82049
444.2987, 78.00502
444.7808, 79.17798
445.2629, 81.54631
445.7450, 82.79607
446.2271, 81.29344
446.7093, 79.57539
447.1914, 78.55510
447.6735, 78.38210
448.1556, 78.57684
448.6377, 79.69518
449.1198, 80.80586
449.6020, 80.79227
450.0841, 78.58324
450.5662, 77.57552
451.0483, 78.79113
451.5304, 81.58001
452.0125, 82.99175
452.4947, 82.82723
452.9768, 81.93819
453.4589, 80.51139
453.9410, 78.51060
454.4231, 77.15118
454.9052, 76.46532
455.3874, 76.33363
455.8695, 76.83075
456.3516, 77.85974
456.8337, 78.69033
457.3158, 79.06068
457.7979, 79.12750
458.2801, 79.12719
458.7622, 79.06585
459.2443, 78.98283
459.7264, 78.93510
460.2085, 78.87215
460.6906, 78.66598
461.1728, 78.23595
461.6549, 77.96491
462.1370, 78.35451
462.6191, 79.03453
463.1012, 79.45338
463.5833, 79.36691
464.0655, 79.01362
464.5476, 78.11870
465.0297, 76.83693
465.5118, 76.38464
465.9939, 78.36147
466.4760, 80.33717
466.9582, 80.88744
467.4403, 78.64577
467.9224, 77.24546
468.4045, 77.21935
468.8866, 77.87608
469.3687, 78.23804
469.8509, 78.12821
470.3330, 78.04003
470.8151, 78.12694
471.2972, 78.35594
471.7793, 78.30445
472.2614, 77.82817
472.7436, 77.46590
473.2257, 77.83765
473.7078, 78.96819
474.1899, 79.11845
474.6720, 77.91182
475.1541, 76.37981
475.6363, 76.23143
476.1184, 77.24969
476.6005, 78.03930
477.0826, 77.86406
477.5647, 77.23039
478.0468, 76.85941
478.5290, 76.75818
479.0111, 76.99233
479.4932, 77.97524
479.9753, 79.16186
480.4574, 79.89598
480.9395, 79.99771
481.4217, 79.85081
481.9038, 79.35666
482.3859, 78.83726
482.8680, 78.77647
483.3501, 79.95045
483.8322, 81.00919
484.3144, 81.52969
484.7965, 81.49973
485.2786, 81.06989
485.7607, 79.93484
486.2428, 78.65907
486.7249, 77.41719
487.2071, 75.65486
487.6892, 75.22047
488.1713, 76.88403
488.6534, 79.33733
489.1355, 80.70322
489.6176, 80.73695
490.0998, 80.38718
490.5819, 79.79006
491.0640, 78.99880
491.5461, 78.21245
492.0282, 77.38824
492.5103, 76.85168
492.9925, 77.09925
493.4746, 77.91792
493.9567, 78.10072
494.4388, 77.48026
494.9209, 76.67180
495.4030, 76.43464
495.8852, 76.56011
496.3673, 76.50266
496.8494, 75.81847
497.3315, 75.09400
497.8136, 74.83556
498.2957, 75.00584
498.7779, 75.46510
499.2600, 76.45628
499.7421, 77.49455
500.2242, 78.35318
500.7063, 79.11646
501.1884, 79.21535
501.6706, 77.51186
502.1527, 75.49077
502.6348, 74.68247
503.1169, 76.55779
503.5990, 78.13612
504.0811, 78.99062
504.5633, 79.29750
505.0454, 79.71790
505.5275, 80.29394
506.0096, 80.91777
506.4917, 81.79303
506.9738, 83.06369
507.4560, 82.49740
507.9381, 79.41669
508.4202, 76.32243
508.9023, 76.48280
509.3844, 79.64062
509.8665, 81.03150
510.3487, 79.13985
510.8308, 76.25963
511.3129, 76.80417
511.7950, 80.02897
512.2772, 82.45683
512.7593, 80.98257
513.2414, 78.37823
513.7235, 78.34779
514.2056, 80.84883
514.6877, 83.18490
515.1699, 83.44498
515.6520, 82.84676
516.1341, 82.59087
516.6162, 83.45418
517.0983, 83.65747
517.5804, 81.64877
518.0626, 78.79923
518.5447, 77.35825
519.0268, 79.26695
519.5089, 80.93373
519.9910, 81.60020
520.4731, 81.30794
520.9553, 80.47398
521.4374, 78.35793
521.9195, 76.81571
522.4016, 77.27666
522.8837, 80.40536
523.3658, 81.84682
523.8480, 81.15470
524.3301, 79.64766
524.8122, 79.00993
525.2943, 79.20403
525.7764, 79.67889
526.2585, 80.50109
526.7407, 81.27423
527.2228, 81.03709
527.7049, 79.96911
528.1870, 79.12612
528.6691, 79.44373
529.1512, 80.17438
529.6334, 80.36494
530.1155, 79.93071
530.5976, 79.58334
531.0797, 79.78745
531.5618, 80.26699
532.0439, 80.76294
532.5261, 81.40839
533.0082, 81.78648
533.4903, 81.72210
533.9724, 81.33031
534.4545, 80.85066
534.9366, 80.00297
535.4188, 79.42494
535.9009, 79.37823
536.3830, 79.84579
536.8651, 79.94121
537.3472, 79.29352
537.8293, 79.00294
538.3115, 80.30643
538.7936, 83.44729
539.2757, 84.46219
539.7578, 82.74512
540.2399, 80.05089
540.7220, 78.34561
541.2042, 77.64076
541.6863, 77.95448
542.1684, 79.79771
542.6505, 82.06310
543.1326, 83.26685
543.6147, 83.53596
544.0969, 83.36964
544.5790, 82.72075
545.0611, 81.97832
545.5432, 81.45768
546.0253, 81.19189
546.5074, 81.02798
546.9896, 81.09817
547.4717, 81.13539
547.9538, 80.90405
548.4359, 79.54420
548.9180, 79.05594
549.4001, 80.49846
549.8823, 82.62245
550.3644, 83.20407
550.8465, 81.26155
551.3286, 79.61954
551.8107, 78.93494
552.2928, 79.13943
552.7750, 79.86904
553.2571, 81.24561
553.7392, 82.56625
554.2213, 83.45700
554.7034, 83.91412
555.1855, 83.87126
555.6677, 83.28099
556.1498, 82.51712
556.6319, 82.00134
557.1140, 81.60646
557.5961, 81.03189
558.0782, 79.98888
558.5604, 79.08086
559.0425, 78.79914
559.5246, 79.02654
560.0067, 79.51281
560.4888, 80.84906
560.9709, 81.78868
561.4531, 81.32958
561.9352, 79.46098
562.4173, 78.54571
562.8994, 79.78526
563.3815, 81.34574
563.8636, 82.38322
564.3458, 82.90586
564.8279, 82.81343
565.3100, 81.90749
565.7921, 80.63728
566.2742, 79.46683
566.7563, 78.34978
567.2385, 77.71104
567.7206, 77.64641
568.2027, 78.11443
568.6848, 79.41939
569.1669, 81.40644
569.6490, 82.77383
570.1312, 82.16817
570.6133, 80.83740
571.0954, 80.77900
571.5775, 81.94650
572.0596, 82.97124
572.5417, 82.70890
573.0239, 82.07559
573.5060, 81.94020
573.9881, 82.73851
574.4702, 83.25111
574.9523, 82.82329
575.4344, 82.02030
575.9166, 81.56586
576.3987, 81.97816
576.8808, 82.09819
577.3629, 81.60765
577.8450, 80.75768
578.3271, 80.36487
578.8093, 80.48418
579.2914, 80.92447
579.7735, 81.93507
580.2556, 83.30116
580.7377, 83.02689
581.2198, 80.94384
581.7020, 79.05205
582.1841, 79.28698
582.6662, 80.94180
583.1483, 82.52234
583.6304, 83.90768
584.1125, 84.65145
584.5947, 83.91685
585.0768, 82.39890
585.5589, 81.11171
586.0410, 80.42427
586.5231, 80.01250
587.0052, 79.50452
587.4873, 79.16225
587.9694, 79.68736
