##NAMES=Nitrocalcite
##RRUFFID=R120047
##IDEAL CHEMISTRY=Ca(N^5+^O_3_)_2_&#183;4H_2_O
##LOCALITY=Christmas mine, Gila County, Arizona, USA
##OWNER=RRUFF
##SOURCE=Bob Jenkins
##DESCRIPTION=White to colorless needles
##STATUS=The identification of this mineral has been confirmed by single-crystal X-ray diffraction.
##URL=rruff.info/R120047
91.19958, 2407.531
91.68170, 2471.783
92.16382, 2537.163
92.64594, 2580.426
93.12805, 2605.803
93.61017, 2624.816
94.09229, 2640.989
94.57440, 2655.364
95.05651, 2664.494
95.53863, 2669.457
96.02074, 2672.233
96.50286, 2673.923
96.98498, 2673.214
97.46709, 2666.220
97.94921, 2663.574
98.43133, 2668.365
98.91344, 2673.592
99.39556, 2676.550
99.87768, 2677.754
100.3598, 2679.133
100.8419, 2681.079
101.3240, 2684.349
101.8061, 2690.366
102.2883, 2699.938
102.7704, 2711.300
103.2525, 2723.262
103.7346, 2736.015
104.2167, 2747.974
104.6988, 2756.198
105.1810, 2762.344
105.6631, 2768.967
106.1452, 2777.271
106.6273, 2786.863
107.1094, 2796.433
107.5915, 2806.145
108.0737, 2815.381
108.5558, 2823.743
109.0379, 2831.423
109.5200, 2838.801
110.0021, 2846.081
110.4842, 2853.046
110.9664, 2860.906
111.4485, 2870.718
111.9306, 2880.528
112.4127, 2889.753
112.8948, 2898.111
113.3769, 2905.449
113.8591, 2911.407
114.3412, 2915.068
114.8233, 2918.875
115.3054, 2923.219
115.7875, 2927.507
116.2696, 2931.366
116.7517, 2934.698
117.2339, 2937.155
117.7160, 2937.539
118.1981, 2935.049
118.6802, 2932.581
119.1623, 2931.904
119.6444, 2932.011
120.1266, 2929.953
120.6087, 2923.729
121.0908, 2914.843
121.5729, 2907.049
122.0550, 2901.114
122.5371, 2894.925
123.0193, 2886.791
123.5014, 2876.603
123.9835, 2865.238
124.4656, 2851.810
124.9477, 2837.920
125.4298, 2825.056
125.9120, 2814.131
126.3941, 2804.215
126.8762, 2793.422
127.3583, 2781.600
127.8404, 2768.981
128.3225, 2755.277
128.8047, 2741.017
129.2868, 2727.013
129.7689, 2713.848
130.2510, 2701.426
130.7331, 2688.285
131.2152, 2673.324
131.6974, 2658.575
132.1795, 2644.261
132.6616, 2630.547
133.1437, 2617.733
133.6258, 2606.035
134.1079, 2595.500
134.5901, 2585.838
135.0722, 2578.123
135.5543, 2570.251
136.0364, 2560.625
136.5185, 2549.270
137.0006, 2537.823
137.4828, 2528.342
137.9649, 2521.238
138.4470, 2514.177
138.9291, 2506.978
139.4112, 2499.772
139.8933, 2492.610
140.3755, 2485.473
140.8576, 2478.637
141.3397, 2472.374
141.8218, 2466.598
142.3039, 2461.712
142.7860, 2458.434
143.2681, 2456.310
143.7503, 2453.584
144.2324, 2449.260
144.7145, 2444.941
145.1966, 2442.019
145.6787, 2440.507
146.1608, 2439.502
146.6430, 2438.326
147.1251, 2436.956
147.6072, 2435.542
148.0893, 2433.664
148.5714, 2432.021
149.0535, 2431.022
149.5357, 2430.755
150.0178, 2431.031
150.4999, 2431.524
150.9820, 2432.015
151.4641, 2433.323
151.9462, 2436.063
152.4284, 2439.180
152.9105, 2441.916
153.3926, 2443.964
153.8747, 2445.493
154.3568, 2446.905
154.8389, 2447.883
155.3211, 2449.117
155.8032, 2450.062
156.2853, 2451.431
156.7674, 2454.433
157.2495, 2459.785
157.7316, 2466.633
158.2138, 2471.250
158.6959, 2471.641
159.1780, 2472.384
159.6601, 2474.368
160.1422, 2477.497
160.6243, 2481.631
161.1065, 2486.878
161.5886, 2492.972
162.0707, 2498.512
162.5528, 2503.545
163.0349, 2508.048
163.5170, 2511.899
163.9991, 2515.135
164.4813, 2517.975
164.9634, 2520.295
165.4455, 2522.363
165.9276, 2524.833
166.4097, 2528.351
166.8918, 2531.856
167.3740, 2534.176
167.8561, 2535.230
168.3382, 2535.453
168.8203, 2533.968
169.3024, 2532.044
169.7845, 2531.378
170.2667, 2533.016
170.7488, 2536.058
171.2309, 2538.574
171.7130, 2540.759
172.1951, 2541.935
172.6772, 2541.740
173.1594, 2540.622
173.6415, 2539.146
174.1236, 2537.541
174.6057, 2535.876
175.0878, 2534.618
175.5699, 2534.775
176.0521, 2534.186
176.5342, 2531.480
177.0163, 2527.685
177.4984, 2524.633
177.9805, 2523.726
178.4626, 2524.984
178.9448, 2526.003
179.4269, 2526.889
179.9090, 2527.434
180.3911, 2526.781
180.8732, 2525.591
181.3553, 2525.499
181.8375, 2528.081
182.3196, 2533.742
182.8017, 2537.967
183.2838, 2539.523
183.7659, 2541.040
184.2480, 2543.953
184.7301, 2548.159
185.2123, 2552.520
185.6944, 2555.932
186.1765, 2558.216
186.6586, 2560.935
187.1407, 2564.867
187.6228, 2568.655
188.1050, 2571.238
188.5871, 2572.510
189.0692, 2573.195
189.5513, 2574.094
190.0334, 2575.143
190.5155, 2575.102
190.9977, 2573.456
191.4798, 2570.839
191.9619, 2568.257
192.4440, 2566.039
192.9261, 2562.698
193.4082, 2556.079
193.8904, 2547.014
194.3725, 2537.496
194.8546, 2528.341
195.3367, 2519.079
195.8188, 2508.880
196.3009, 2497.877
196.7831, 2485.383
197.2652, 2470.326
197.7473, 2453.387
198.2294, 2436.507
198.7115, 2421.030
199.1936, 2406.438
199.6758, 2390.534
200.1579, 2372.113
200.6400, 2353.879
201.1221, 2337.883
201.6042, 2323.319
202.0863, 2308.336
202.5685, 2291.118
203.0506, 2271.849
203.5327, 2254.372
204.0148, 2240.060
204.4969, 2226.379
204.9790, 2212.638
205.4612, 2198.823
205.9433, 2184.994
206.4254, 2171.386
206.9075, 2158.047
207.3896, 2143.979
207.8717, 2126.885
208.3539, 2111.139
208.8360, 2098.788
209.3181, 2089.193
209.8002, 2080.429
210.2823, 2070.837
210.7644, 2060.403
211.2466, 2049.819
211.7287, 2038.518
212.2108, 2027.644
212.6929, 2017.494
213.1750, 2008.161
213.6571, 1999.610
214.1393, 1991.884
214.6214, 1985.093
215.1035, 1978.395
215.5856, 1972.242
216.0677, 1965.771
216.5498, 1958.134
217.0320, 1949.603
217.5141, 1941.235
217.9962, 1934.017
218.4783, 1928.088
218.9604, 1922.654
219.4425, 1917.780
219.9247, 1913.245
220.4068, 1908.984
220.8889, 1904.960
221.3710, 1901.056
221.8531, 1897.197
222.3352, 1893.383
222.8174, 1889.513
223.2995, 1885.217
223.7816, 1881.118
224.2637, 1878.057
224.7458, 1875.987
225.2279, 1873.535
225.7100, 1869.297
226.1922, 1863.532
226.6743, 1858.514
227.1564, 1854.593
227.6385, 1851.355
228.1206, 1848.840
228.6027, 1847.092
229.0849, 1844.894
229.5670, 1840.641
230.0491, 1835.276
230.5312, 1831.404
231.0133, 1830.649
231.4954, 1830.932
231.9776, 1829.967
232.4597, 1827.652
232.9418, 1824.818
233.4239, 1821.523
233.9060, 1818.112
234.3881, 1815.088
234.8703, 1812.289
235.3524, 1810.171
235.8345, 1809.819
236.3166, 1811.811
236.7987, 1813.132
237.2808, 1811.953
237.7630, 1809.312
238.2451, 1806.024
238.7272, 1802.027
239.2093, 1797.937
239.6914, 1794.714
240.1735, 1792.403
240.6557, 1790.823
241.1378, 1790.795
241.6199, 1791.064
242.1020, 1790.343
242.5841, 1788.088
243.0662, 1785.032
243.5484, 1782.292
244.0305, 1779.760
244.5126, 1777.906
244.9947, 1777.307
245.4768, 1777.156
245.9589, 1776.812
246.4410, 1776.060
246.9232, 1775.044
247.4053, 1774.085
247.8874, 1773.495
248.3695, 1772.152
248.8516, 1768.724
249.3337, 1765.218
249.8159, 1763.564
250.2980, 1764.284
250.7801, 1765.756
251.2622, 1765.117
251.7443, 1761.199
252.2264, 1757.762
252.7086, 1755.350
253.1907, 1753.323
253.6728, 1751.122
254.1549, 1748.652
254.6370, 1746.339
255.1191, 1744.832
255.6013, 1744.369
256.0834, 1744.309
256.5655, 1744.961
257.0476, 1745.704
257.5297, 1746.146
258.0118, 1746.211
258.4940, 1746.079
258.9761, 1746.045
259.4582, 1746.433
259.9403, 1746.037
260.4224, 1744.591
260.9045, 1742.747
261.3867, 1740.719
261.8688, 1738.631
262.3509, 1736.709
262.8330, 1735.230
263.3151, 1734.337
263.7972, 1733.389
264.2794, 1732.410
264.7615, 1731.379
265.2436, 1730.105
265.7257, 1728.702
266.2078, 1727.585
266.6899, 1727.189
267.1721, 1727.630
267.6542, 1728.133
268.1363, 1729.353
268.6184, 1730.051
269.1005, 1729.230
269.5826, 1727.208
270.0648, 1725.205
270.5469, 1724.238
271.0290, 1724.359
271.5111, 1724.171
271.9932, 1723.732
272.4753, 1723.003
272.9575, 1721.530
273.4396, 1719.686
273.9217, 1718.578
274.4038, 1719.142
274.8859, 1721.131
275.3680, 1721.389
275.8501, 1718.449
276.3322, 1715.809
276.8144, 1714.799
277.2965, 1714.975
277.7786, 1715.316
278.2607, 1715.306
278.7428, 1714.987
279.2249, 1714.515
279.7071, 1713.895
280.1892, 1713.158
280.6713, 1712.164
281.1534, 1711.081
281.6355, 1710.239
282.1176, 1709.811
282.5998, 1709.619
283.0819, 1709.250
283.5640, 1708.955
284.0461, 1708.096
284.5282, 1706.032
285.0103, 1703.464
285.4925, 1701.342
285.9746, 1699.952
286.4567, 1699.238
286.9388, 1699.276
287.4209, 1700.384
287.9030, 1701.109
288.3852, 1700.843
288.8673, 1700.227
289.3494, 1700.124
289.8315, 1700.746
290.3136, 1701.497
290.7957, 1701.665
291.2779, 1701.187
291.7600, 1700.480
292.2421, 1699.691
292.7242, 1698.619
293.2063, 1696.775
293.6884, 1694.117
294.1706, 1691.717
294.6527, 1690.741
295.1348, 1691.215
295.6169, 1691.083
296.0990, 1689.458
296.5811, 1687.798
297.0633, 1687.469
297.5454, 1688.412
298.0275, 1689.343
298.5096, 1689.434
298.9917, 1688.699
299.4738, 1687.717
299.9560, 1685.821
300.4381, 1684.290
300.9202, 1684.176
301.4023, 1685.194
301.8844, 1685.988
302.3665, 1685.764
302.8487, 1684.885
303.3308, 1684.500
303.8129, 1684.880
304.2950, 1685.241
304.7771, 1685.312
305.2592, 1685.101
305.7414, 1684.608
306.2235, 1683.797
306.7056, 1682.766
307.1877, 1681.570
307.6698, 1679.980
308.1519, 1679.018
308.6341, 1679.761
309.1162, 1681.203
309.5983, 1681.440
310.0804, 1679.834
310.5625, 1677.630
311.0446, 1676.550
311.5268, 1676.612
312.0089, 1676.488
312.4910, 1675.795
312.9731, 1674.836
313.4552, 1673.830
313.9373, 1672.790
314.4195, 1672.086
314.9016, 1672.318
315.3837, 1673.381
315.8658, 1673.723
316.3479, 1672.612
316.8300, 1671.160
317.3121, 1670.225
317.7943, 1669.825
318.2764, 1669.694
318.7585, 1669.767
319.2406, 1669.963
319.7227, 1669.917
320.2048, 1669.800
320.6870, 1669.300
321.1691, 1667.866
321.6512, 1665.817
322.1333, 1664.287
322.6154, 1663.902
323.0975, 1664.274
323.5797, 1664.453
324.0618, 1664.527
324.5439, 1664.302
325.0260, 1663.351
325.5081, 1662.107
325.9902, 1661.481
326.4724, 1661.855
326.9545, 1662.567
327.4366, 1662.536
327.9187, 1661.661
328.4008, 1660.825
328.8829, 1660.344
329.3651, 1659.906
329.8472, 1659.153
330.3293, 1658.021
330.8114, 1656.613
331.2935, 1654.897
331.7756, 1652.842
332.2578, 1651.229
332.7399, 1649.900
333.2220, 1649.159
333.7041, 1649.348
334.1862, 1650.409
334.6683, 1651.948
335.1505, 1653.830
335.6326, 1655.957
336.1147, 1657.591
336.5968, 1659.331
337.0789, 1660.072
337.5610, 1658.873
338.0432, 1656.315
338.5253, 1653.651
339.0074, 1651.371
339.4895, 1649.558
339.9716, 1648.569
340.4537, 1648.875
340.9359, 1649.025
341.4180, 1648.940
341.9001, 1648.483
342.3822, 1647.174
342.8643, 1644.879
343.3464, 1642.574
343.8286, 1641.686
344.3107, 1642.901
344.7928, 1643.664
345.2749, 1644.103
345.7570, 1643.979
346.2391, 1642.811
346.7213, 1640.725
347.2034, 1638.531
347.6855, 1636.892
348.1676, 1635.819
348.6497, 1635.587
349.1318, 1636.799
349.6140, 1638.105
350.0961, 1639.268
350.5782, 1640.082
351.0603, 1640.022
351.5424, 1638.658
352.0245, 1636.459
352.5067, 1635.452
352.9888, 1636.538
353.4709, 1637.693
353.9530, 1638.821
354.4351, 1639.830
354.9172, 1640.701
355.3994, 1641.411
355.8815, 1641.780
356.3636, 1641.477
356.8457, 1640.052
357.3278, 1638.804
357.8099, 1637.637
358.2920, 1636.681
358.7741, 1636.068
359.2563, 1635.778
359.7384, 1635.678
360.2205, 1635.652
360.7026, 1635.708
361.1847, 1635.757
361.6668, 1636.049
362.1490, 1636.082
362.6311, 1635.584
363.1132, 1634.709
363.5953, 1633.722
364.0774, 1632.760
364.5595, 1631.872
365.0417, 1631.266
365.5238, 1631.014
366.0059, 1630.984
366.4880, 1631.153
366.9701, 1631.520
367.4522, 1632.276
367.9344, 1633.426
368.4165, 1634.465
368.8986, 1634.602
369.3807, 1633.652
369.8628, 1632.255
370.3449, 1630.154
370.8271, 1627.885
371.3092, 1625.761
371.7913, 1623.758
372.2734, 1621.518
372.7555, 1618.402
373.2376, 1614.495
373.7198, 1612.435
374.2019, 1613.674
374.6840, 1615.109
375.1661, 1615.955
375.6482, 1616.263
376.1303, 1616.140
376.6125, 1615.599
377.0946, 1614.737
377.5767, 1613.666
378.0588, 1612.189
378.5409, 1611.062
379.0230, 1610.579
379.5052, 1610.455
379.9873, 1610.651
380.4694, 1611.142
380.9515, 1611.468
381.4336, 1610.949
381.9157, 1609.605
382.3979, 1608.756
382.8800, 1608.695
383.3621, 1609.050
383.8442, 1609.563
384.3263, 1610.223
384.8084, 1611.025
385.2906, 1612.242
385.7727, 1613.543
386.2548, 1614.138
386.7369, 1613.917
387.2190, 1613.370
387.7011, 1612.621
388.1833, 1611.754
388.6654, 1610.877
389.1475, 1610.027
389.6296, 1609.149
390.1117, 1608.045
390.5938, 1606.789
391.0760, 1605.983
391.5581, 1605.958
392.0402, 1606.340
392.5223, 1606.757
393.0044, 1607.283
393.4865, 1607.274
393.9687, 1605.831
394.4508, 1603.910
394.9329, 1603.416
395.4150, 1604.772
395.8971, 1605.815
396.3792, 1604.189
396.8614, 1600.193
397.3435, 1597.720
397.8256, 1597.683
398.3077, 1598.519
398.7898, 1599.611
399.2719, 1600.780
399.7540, 1601.594
400.2361, 1601.878
400.7183, 1601.587
401.2004, 1600.459
401.6825, 1597.727
402.1646, 1595.624
402.6467, 1594.696
403.1288, 1594.527
403.6110, 1594.865
404.0931, 1595.596
404.5752, 1596.319
405.0573, 1596.590
405.5394, 1596.395
406.0215, 1595.731
406.5037, 1594.301
406.9858, 1592.768
407.4679, 1591.120
407.9500, 1589.627
408.4321, 1588.954
408.9142, 1589.608
409.3964, 1591.163
409.8785, 1591.643
410.3606, 1589.631
410.8427, 1588.338
411.3248, 1588.025
411.8069, 1588.514
412.2891, 1590.202
412.7712, 1592.946
413.2533, 1595.253
413.7354, 1594.789
414.2175, 1590.537
414.6996, 1587.568
415.1818, 1587.412
415.6639, 1587.161
416.1460, 1585.003
416.6281, 1581.807
417.1102, 1579.891
417.5923, 1581.052
418.0745, 1584.265
418.5566, 1585.974
419.0387, 1585.620
419.5208, 1584.962
420.0029, 1584.479
420.4850, 1583.999
420.9672, 1583.288
421.4493, 1582.279
421.9314, 1581.355
422.4135, 1581.048
422.8956, 1581.318
423.3777, 1581.237
423.8599, 1580.384
424.3420, 1579.563
424.8241, 1579.440
425.3062, 1579.870
425.7883, 1580.332
426.2704, 1580.681
426.7526, 1580.911
427.2347, 1581.055
427.7168, 1581.127
428.1989, 1580.906
428.6810, 1580.026
429.1631, 1578.906
429.6453, 1578.475
430.1274, 1579.007
430.6095, 1579.602
431.0916, 1580.018
431.5737, 1580.145
432.0558, 1579.531
432.5380, 1577.955
433.0201, 1576.407
433.5022, 1576.164
433.9843, 1577.445
434.4664, 1578.257
434.9485, 1578.227
435.4307, 1577.957
435.9128, 1577.631
436.3949, 1577.374
436.8770, 1577.644
437.3591, 1578.851
437.8412, 1580.500
438.3234, 1580.668
438.8055, 1577.328
439.2876, 1575.106
439.7697, 1575.041
440.2518, 1575.830
440.7339, 1576.451
441.2160, 1576.608
441.6982, 1576.323
442.1803, 1575.541
442.6624, 1574.156
443.1445, 1573.092
443.6266, 1572.644
444.1087, 1572.229
444.5909, 1571.552
445.0730, 1570.817
445.5551, 1570.428
446.0372, 1570.639
446.5193, 1571.097
447.0014, 1570.982
447.4836, 1570.097
447.9657, 1569.232
448.4478, 1567.901
448.9299, 1567.101
449.4120, 1567.939
449.8941, 1570.246
450.3763, 1572.334
450.8584, 1572.823
451.3405, 1572.001
451.8226, 1570.967
452.3047, 1569.546
452.7868, 1568.396
453.2690, 1568.431
453.7511, 1568.850
454.2332, 1568.370
454.7153, 1566.232
455.1974, 1564.095
455.6795, 1563.461
456.1617, 1564.044
456.6438, 1564.616
457.1259, 1564.861
457.6080, 1564.923
458.0901, 1565.129
458.5722, 1565.520
459.0544, 1565.199
459.5365, 1563.061
460.0186, 1560.841
460.5007, 1560.295
460.9828, 1561.245
461.4649, 1562.241
461.9471, 1562.457
462.4292, 1561.986
462.9113, 1561.169
463.3934, 1559.485
463.8755, 1558.165
464.3576, 1557.336
464.8398, 1556.923
465.3219, 1557.056
465.8040, 1557.651
466.2861, 1558.189
466.7682, 1558.115
467.2503, 1557.388
467.7325, 1556.312
468.2146, 1554.264
468.6967, 1552.514
469.1788, 1551.189
469.6609, 1550.437
470.1430, 1550.682
470.6252, 1552.155
471.1073, 1553.965
471.5894, 1554.520
472.0715, 1553.625
472.5536, 1552.348
473.0357, 1550.057
473.5179, 1548.120
474.0000, 1547.657
474.4821, 1548.366
474.9642, 1548.857
475.4463, 1548.089
475.9284, 1546.633
476.4106, 1545.721
476.8927, 1545.410
477.3748, 1545.299
477.8569, 1545.172
478.3390, 1545.167
478.8211, 1545.575
479.3033, 1546.575
479.7854, 1547.339
480.2675, 1547.493
480.7496, 1547.111
481.2317, 1546.066
481.7138, 1544.287
482.1959, 1542.862
482.6780, 1543.065
483.1602, 1544.822
483.6423, 1545.013
484.1244, 1542.328
484.6065, 1539.605
485.0886, 1537.665
485.5707, 1536.533
486.0529, 1536.386
486.5350, 1537.275
487.0171, 1538.545
487.4992, 1539.144
487.9813, 1539.002
488.4634, 1538.342
488.9456, 1536.762
489.4277, 1535.148
489.9098, 1533.709
490.3919, 1532.603
490.8740, 1532.201
491.3561, 1532.874
491.8383, 1534.000
492.3204, 1533.596
492.8025, 1530.690
493.2846, 1528.957
493.7667, 1530.595
494.2488, 1532.647
494.7310, 1533.192
495.2131, 1532.137
495.6952, 1530.526
496.1773, 1528.870
496.6594, 1527.225
497.1415, 1525.874
497.6237, 1524.946
498.1058, 1523.647
498.5879, 1520.756
499.0700, 1517.520
499.5521, 1516.419
500.0342, 1518.350
500.5164, 1520.496
500.9985, 1521.381
501.4806, 1521.566
501.9627, 1522.334
502.4448, 1523.964
502.9269, 1525.008
503.4091, 1523.907
503.8912, 1520.555
504.3733, 1517.981
504.8554, 1516.299
505.3375, 1515.170
505.8196, 1514.558
506.3018, 1514.396
506.7839, 1514.844
507.2660, 1515.908
507.7481, 1516.915
508.2302, 1516.748
508.7123, 1515.026
509.1945, 1513.502
509.6766, 1511.937
510.1587, 1510.814
510.6408, 1510.423
511.1229, 1510.598
511.6050, 1511.146
512.0872, 1512.115
512.5693, 1512.947
513.0514, 1512.351
513.5335, 1510.053
514.0156, 1508.474
514.4977, 1508.687
514.9799, 1509.237
515.4620, 1508.941
515.9441, 1507.872
516.4262, 1506.631
516.9083, 1505.277
517.3904, 1503.988
517.8726, 1503.004
518.3547, 1502.316
518.8368, 1501.775
519.3189, 1501.335
519.8010, 1500.974
520.2831, 1500.747
520.7653, 1500.916
521.2474, 1500.458
521.7295, 1498.496
522.2116, 1496.327
522.6937, 1495.207
523.1758, 1495.088
523.6580, 1495.014
524.1401, 1494.237
524.6222, 1493.029
525.1043, 1492.849
525.5864, 1495.113
526.0685, 1496.379
526.5507, 1496.028
527.0328, 1494.857
527.5149, 1493.221
527.9970, 1491.343
528.4791, 1489.678
528.9612, 1488.571
529.4434, 1488.015
529.9255, 1488.115
530.4076, 1489.302
530.8897, 1490.147
531.3718, 1489.836
531.8539, 1488.964
532.3361, 1488.024
532.8182, 1487.063
533.3003, 1486.248
533.7824, 1485.495
534.2645, 1485.005
534.7466, 1485.531
535.2288, 1487.275
535.7109, 1488.588
536.1930, 1488.027
536.6751, 1485.929
537.1572, 1484.557
537.6393, 1484.160
538.1215, 1484.098
538.6036, 1484.814
539.0857, 1485.475
539.5678, 1484.840
540.0499, 1482.756
540.5320, 1480.240
541.0142, 1478.278
541.4963, 1476.862
541.9784, 1476.174
542.4604, 1477.141
542.9426, 1477.740
543.4247, 1477.438
543.9068, 1476.617
544.3889, 1475.385
544.8710, 1473.851
545.3531, 1472.973
545.8353, 1474.613
546.3174, 1478.411
546.7995, 1479.750
547.2816, 1477.388
547.7637, 1474.692
548.2458, 1473.755
548.7280, 1473.873
549.2101, 1474.081
549.6922, 1474.510
550.1743, 1474.403
550.6564, 1472.635
551.1385, 1470.110
551.6207, 1468.822
552.1028, 1469.210
552.5849, 1470.171
553.0670, 1470.775
553.5491, 1471.024
554.0313, 1470.970
554.5134, 1470.169
554.9955, 1469.655
555.4776, 1470.004
555.9597, 1470.665
556.4418, 1471.047
556.9240, 1470.960
557.4061, 1470.398
557.8882, 1469.132
558.3703, 1467.102
558.8524, 1466.152
559.3345, 1466.971
559.8167, 1467.912
560.2988, 1469.131
560.7809, 1469.818
561.2630, 1468.502
561.7451, 1464.600
562.2272, 1460.998
562.7094, 1460.856
563.1915, 1463.080
563.6736, 1463.833
564.1557, 1462.424
564.6378, 1460.851
565.1199, 1460.713
565.6021, 1461.590
566.0842, 1461.535
566.5663, 1459.581
567.0484, 1458.098
567.5305, 1458.272
568.0126, 1459.197
568.4948, 1460.108
568.9769, 1460.698
569.4590, 1460.205
569.9411, 1457.640
570.4232, 1453.201
570.9053, 1450.797
571.3875, 1451.564
571.8696, 1452.970
572.3517, 1455.486
572.8338, 1457.901
573.3159, 1459.087
573.7980, 1458.898
574.2802, 1458.018
574.7623, 1456.729
575.2444, 1455.202
575.7265, 1454.290
576.2086, 1454.193
576.6907, 1453.881
577.1729, 1452.893
577.6550, 1451.369
578.1371, 1449.297
578.6192, 1446.285
579.1013, 1444.503
579.5834, 1445.740
580.0656, 1448.064
580.5477, 1449.308
581.0298, 1449.371
581.5119, 1449.176
581.9940, 1449.307
582.4761, 1449.597
582.9583, 1449.480
583.4404, 1448.477
583.9225, 1447.767
584.4046, 1447.557
584.8867, 1447.452
585.3688, 1447.253
585.8510, 1446.916
586.3331, 1446.430
586.8152, 1445.780
587.2973, 1444.984
587.7794, 1443.979
588.2615, 1442.666
588.7437, 1441.819
589.2258, 1441.861
