##NAMES=Nitratine
##RRUFFID=R050658
##IDEAL CHEMISTRY=NaN^5+^O_3_
##LOCALITY=Peru
##OWNER=RRUFF
##SOURCE=University of Arizona Mineral Museum
##DESCRIPTION=Group of colorless crystals
##STATUS=The identification of this mineral has been confirmed by X-ray diffraction and chemical analysis
##URL=rruff.info/R050658
##MEASURED CHEMISTRY=Na_0.92_N_1.00_O_2.96_ ; N not measured but estimated by difference and stoichiometry
87.21747, 483.0809
87.69958, 518.1973
88.18170, 556.2283
88.66382, 598.6535
89.14594, 648.8822
89.62805, 700.8549
90.11017, 748.8163
90.59229, 795.4655
91.07440, 848.5034
91.55652, 917.6470
92.03864, 1009.560
92.52075, 1104.640
93.00287, 1194.663
93.48499, 1291.386
93.96710, 1401.710
94.44922, 1527.953
94.93134, 1671.831
95.41345, 1839.713
95.89557, 2041.524
96.37769, 2252.303
96.85980, 2474.399
97.34192, 2703.683
97.82404, 2935.943
98.30615, 3177.099
98.78827, 3413.244
99.27039, 3605.426
99.75250, 3757.752
100.2346, 3867.448
100.7167, 3934.211
101.1989, 3952.614
101.6810, 3901.244
102.1631, 3715.106
102.6452, 3497.626
103.1273, 3284.097
103.6094, 3081.060
104.0916, 2888.215
104.5737, 2704.375
105.0558, 2520.707
105.5379, 2357.114
106.0200, 2227.626
106.5021, 2126.076
106.9843, 2031.563
107.4664, 1922.434
107.9485, 1792.525
108.4306, 1679.814
108.9127, 1587.363
109.3948, 1509.706
109.8770, 1447.370
110.3591, 1399.374
110.8412, 1361.008
111.3233, 1322.772
111.8054, 1280.211
112.2875, 1244.644
112.7697, 1221.003
113.2518, 1202.314
113.7339, 1180.890
114.2160, 1152.233
114.6981, 1117.975
115.1802, 1088.736
115.6624, 1061.617
116.1445, 1041.206
116.6266, 1032.245
117.1087, 1032.263
117.5908, 1033.883
118.0729, 1032.630
118.5551, 1027.736
119.0372, 1016.162
119.5193, 987.8937
120.0014, 958.8717
120.4835, 945.1757
120.9656, 950.0618
121.4478, 959.7830
121.9299, 959.0648
122.4120, 949.8740
122.8941, 940.4257
123.3762, 932.5520
123.8583, 926.4334
124.3405, 922.8940
124.8226, 923.1152
125.3047, 924.9684
125.7868, 926.8069
126.2689, 928.6122
126.7510, 929.4501
127.2332, 928.0376
127.7153, 924.0210
128.1974, 920.5162
128.6795, 917.2017
129.1616, 915.2542
129.6437, 915.7321
130.1259, 918.9825
130.6080, 924.2358
131.0901, 930.8793
131.5722, 942.9590
132.0543, 948.6860
132.5364, 940.8590
133.0186, 928.3942
133.5007, 921.0282
133.9828, 924.4386
134.4649, 937.0170
134.9470, 947.4090
135.4291, 954.6473
135.9113, 960.5286
136.3934, 963.5671
136.8755, 965.3028
137.3576, 968.9260
137.8397, 977.4174
138.3219, 991.6606
138.8040, 1001.981
139.2861, 1005.071
139.7682, 1007.591
140.2503, 1013.628
140.7324, 1023.426
141.2146, 1033.996
141.6967, 1041.995
142.1788, 1046.643
142.6609, 1051.753
143.1430, 1053.678
143.6251, 1057.588
144.1073, 1071.593
144.5894, 1099.583
145.0715, 1131.642
145.5536, 1151.488
146.0357, 1158.425
146.5178, 1166.494
147.0000, 1184.372
147.4821, 1208.576
147.9642, 1226.629
148.4463, 1231.128
148.9284, 1230.768
149.4105, 1236.650
149.8927, 1249.397
150.3748, 1266.750
150.8569, 1287.600
151.3390, 1312.049
151.8211, 1338.043
152.3032, 1366.939
152.7854, 1396.117
153.2675, 1422.380
153.7496, 1443.861
154.2317, 1464.241
154.7138, 1489.303
155.1959, 1518.538
155.6781, 1554.197
156.1602, 1601.662
156.6423, 1653.202
157.1244, 1699.674
157.6065, 1735.480
158.0886, 1762.696
158.5708, 1792.508
159.0529, 1824.576
159.5350, 1860.074
160.0171, 1898.597
160.4992, 1940.592
160.9813, 1986.844
161.4635, 2038.117
161.9456, 2094.574
162.4277, 2153.975
162.9098, 2215.085
163.3919, 2279.611
163.8740, 2352.040
164.3562, 2429.623
164.8383, 2503.730
165.3204, 2562.661
165.8025, 2595.858
166.2846, 2654.862
166.7667, 2753.447
167.2489, 2864.123
167.7310, 2966.940
168.2131, 3058.521
168.6952, 3149.746
169.1773, 3256.960
169.6594, 3388.430
170.1416, 3516.441
170.6237, 3633.184
171.1058, 3747.846
171.5879, 3871.366
172.0700, 4007.372
172.5521, 4151.586
173.0343, 4296.259
173.5164, 4438.989
173.9985, 4588.359
174.4806, 4753.918
174.9627, 4928.401
175.4448, 5092.447
175.9270, 5232.259
176.4091, 5365.281
176.8912, 5523.930
177.3733, 5716.897
177.8554, 5911.913
178.3375, 6090.116
178.8197, 6252.223
179.3018, 6413.096
179.7839, 6579.499
180.2660, 6746.713
180.7481, 6908.702
181.2302, 7069.172
181.7124, 7218.233
182.1945, 7346.261
182.6766, 7452.523
183.1587, 7541.199
183.6408, 7615.241
184.1229, 7671.312
184.6051, 7703.046
185.0872, 7708.696
185.5693, 7688.628
186.0514, 7643.932
186.5335, 7575.852
187.0156, 7476.558
187.4978, 7337.256
187.9799, 7172.429
188.4620, 6997.177
188.9441, 6820.803
189.4262, 6640.287
189.9083, 6446.384
190.3905, 6229.079
190.8726, 6010.109
191.3547, 5788.839
191.8368, 5570.184
192.3189, 5360.134
192.8010, 5163.546
193.2832, 4979.268
193.7653, 4800.202
194.2474, 4629.254
194.7295, 4460.458
195.2116, 4289.333
195.6937, 4118.872
196.1759, 3955.505
196.6580, 3804.864
197.1401, 3666.838
197.6222, 3537.650
198.1043, 3422.223
198.5864, 3310.132
199.0686, 3194.197
199.5507, 3076.038
200.0328, 2964.446
200.5149, 2869.862
200.9970, 2797.422
201.4791, 2719.974
201.9613, 2630.592
202.4434, 2542.398
202.9255, 2463.572
203.4076, 2394.872
203.8897, 2330.274
204.3718, 2263.102
204.8540, 2191.697
205.3361, 2123.184
205.8182, 2058.039
206.3003, 1995.212
206.7824, 1931.423
207.2645, 1866.540
207.7467, 1807.366
208.2288, 1764.885
208.7109, 1750.810
209.1930, 1723.658
209.6751, 1666.400
210.1572, 1601.777
210.6394, 1556.460
211.1215, 1538.324
211.6036, 1531.429
212.0857, 1510.710
212.5678, 1473.514
213.0499, 1434.453
213.5321, 1394.207
214.0142, 1353.954
214.4963, 1314.785
214.9784, 1277.094
215.4605, 1241.064
215.9426, 1206.115
216.4248, 1170.394
216.9069, 1141.653
217.3890, 1129.006
217.8711, 1125.346
218.3532, 1113.515
218.8353, 1085.273
219.3175, 1051.042
219.7996, 1028.204
220.2817, 1018.989
220.7638, 1008.994
221.2459, 989.8589
221.7280, 963.6835
222.2102, 938.0890
222.6923, 913.0535
223.1744, 892.7021
223.6565, 882.6288
224.1386, 884.9951
224.6207, 888.1272
225.1029, 885.9545
225.5850, 878.4617
226.0671, 864.7393
226.5492, 838.2762
227.0313, 810.4415
227.5134, 794.4967
227.9956, 792.9376
228.4777, 795.7751
228.9598, 797.8939
229.4419, 799.2729
229.9240, 792.5554
230.4061, 766.2419
230.8883, 736.6838
231.3704, 719.9491
231.8525, 719.4645
232.3346, 724.5823
232.8167, 725.3243
233.2988, 721.3462
233.7810, 716.4198
234.2631, 714.2941
234.7452, 709.9716
235.2273, 697.6117
235.7094, 675.0604
236.1915, 651.0144
236.6737, 635.2741
237.1558, 628.4841
237.6379, 627.0942
238.1200, 639.3531
238.6021, 651.7208
239.0842, 652.8083
239.5664, 638.9919
240.0485, 619.8092
240.5306, 609.0498
241.0127, 609.5492
241.4948, 608.3369
241.9769, 599.7321
242.4591, 589.6843
242.9412, 582.5254
243.4233, 579.4752
243.9054, 579.0503
244.3875, 579.8180
244.8696, 583.5259
245.3518, 583.3152
245.8339, 574.3599
246.3160, 563.2314
246.7981, 554.7473
247.2802, 550.4883
247.7623, 548.9618
248.2445, 548.1555
248.7266, 548.9850
249.2087, 548.2271
249.6908, 544.5300
250.1729, 539.7094
250.6550, 535.0502
251.1372, 530.9579
251.6193, 527.2998
252.1014, 523.3432
252.5835, 517.3630
253.0656, 515.1841
253.5477, 521.5601
254.0299, 529.1450
254.5120, 532.1334
254.9941, 528.5996
255.4762, 520.7596
255.9583, 511.7389
256.4405, 497.9912
256.9226, 490.8178
257.4047, 496.8345
257.8868, 505.4398
258.3689, 507.3974
258.8510, 499.9110
259.3332, 488.1608
259.8153, 481.7104
260.2974, 483.7859
260.7795, 485.1294
261.2616, 485.9919
261.7437, 485.4022
262.2259, 481.5320
262.7080, 474.1093
263.1901, 466.0130
263.6722, 462.7407
264.1543, 468.0518
264.6364, 471.0561
265.1186, 470.7548
265.6007, 468.6135
266.0828, 465.9186
266.5649, 462.9771
267.0470, 458.9282
267.5291, 451.2554
268.0113, 433.1479
268.4934, 425.3716
268.9755, 436.8336
269.4576, 451.7196
269.9397, 457.9487
270.4218, 452.8501
270.9040, 442.6615
271.3861, 437.1811
271.8682, 439.2655
272.3503, 440.4431
272.8324, 440.4067
273.3145, 439.7688
273.7967, 439.6852
274.2788, 440.0539
274.7609, 438.9706
275.2430, 433.0814
275.7251, 418.4658
276.2072, 408.1391
276.6894, 401.3304
277.1715, 398.4135
277.6536, 402.3422
278.1357, 412.1327
278.6178, 421.6375
279.0999, 422.5970
279.5821, 411.3975
280.0642, 401.3705
280.5463, 390.1235
281.0284, 381.6111
281.5105, 379.1524
281.9926, 382.4400
282.4748, 388.0887
282.9569, 392.9579
283.4390, 398.4269
283.9211, 397.5139
284.4032, 383.1568
284.8853, 369.3376
285.3675, 363.4923
285.8496, 365.4121
286.3317, 370.1197
286.8138, 372.7763
287.2959, 372.9787
287.7780, 373.4677
288.2602, 375.9461
288.7423, 377.1552
289.2244, 375.0352
289.7065, 370.2169
290.1886, 364.7921
290.6707, 360.3899
291.1529, 356.9280
291.6350, 355.6261
292.1171, 359.8036
292.5992, 362.8854
293.0813, 361.9103
293.5634, 357.9226
294.0456, 353.6365
294.5277, 350.9614
295.0098, 349.8956
295.4919, 350.4790
295.9740, 355.7218
296.4561, 359.6239
296.9383, 361.7704
297.4204, 361.4218
297.9025, 356.7502
298.3846, 345.6361
298.8667, 329.5744
299.3488, 321.0698
299.8310, 328.7719
300.3131, 334.9793
300.7952, 336.4727
301.2773, 334.5016
301.7594, 330.6690
302.2415, 325.5748
302.7237, 320.1327
303.2058, 318.1331
303.6879, 322.9786
304.1700, 326.9003
304.6521, 328.2635
305.1342, 328.2558
305.6164, 328.5090
306.0985, 329.8091
306.5806, 331.1749
307.0627, 329.7892
307.5448, 322.9803
308.0269, 317.9713
308.5091, 317.8193
308.9912, 318.5602
309.4733, 315.7280
309.9554, 307.8508
310.4375, 298.7032
310.9196, 295.2020
311.4018, 299.7829
311.8839, 304.6327
312.3660, 310.0909
312.8481, 314.7469
313.3302, 317.2021
313.8123, 317.2750
314.2945, 316.4986
314.7766, 317.0982
315.2587, 319.7458
315.7408, 321.3671
316.2229, 319.2354
316.7050, 317.9384
317.1872, 321.7159
317.6693, 330.0455
318.1514, 337.2572
318.6335, 335.4958
319.1156, 322.9828
319.5977, 316.8200
320.0799, 326.0016
320.5620, 334.4632
321.0441, 334.2732
321.5262, 326.6565
322.0083, 317.9507
322.4904, 313.9553
322.9726, 314.2831
323.4547, 310.4691
323.9368, 297.1393
324.4189, 286.3470
324.9010, 284.9940
325.3831, 289.9892
325.8653, 294.0874
326.3474, 291.9427
326.8295, 285.7295
327.3116, 284.1791
327.7937, 290.5583
328.2758, 295.6135
328.7580, 292.4755
329.2401, 286.1955
329.7222, 284.8358
330.2043, 294.0077
330.6864, 307.4543
331.1685, 312.9986
331.6507, 308.8152
332.1328, 302.8713
332.6149, 295.3014
333.0970, 288.9869
333.5791, 288.2199
334.0612, 296.0645
334.5434, 304.9248
335.0255, 304.3624
335.5076, 293.5562
335.9897, 285.8552
336.4718, 288.4985
336.9539, 294.7560
337.4361, 297.1512
337.9182, 294.3832
338.4003, 291.2697
338.8824, 291.1852
339.3645, 293.9289
339.8466, 298.6978
340.3288, 307.4330
340.8109, 315.3723
341.2930, 317.1510
341.7751, 312.7148
342.2572, 306.8275
342.7393, 300.3766
343.2215, 294.2262
343.7036, 291.0740
344.1857, 292.3573
344.6678, 293.9989
345.1499, 290.5374
345.6320, 282.9633
346.1142, 277.1517
346.5963, 274.6383
347.0784, 274.6718
347.5605, 277.6743
348.0426, 283.8923
348.5247, 288.2424
349.0069, 284.6683
349.4890, 274.6335
349.9711, 270.8474
350.4532, 281.0338
350.9353, 292.1214
351.4174, 293.6791
351.8996, 286.8474
352.3817, 279.4515
352.8638, 275.6447
353.3459, 275.2813
353.8280, 276.9375
354.3102, 285.6716
354.7923, 290.7360
355.2744, 284.0984
355.7565, 271.0942
356.2386, 263.4210
356.7207, 266.7531
357.2029, 276.1816
357.6850, 279.3959
358.1671, 270.3636
358.6492, 265.0393
359.1313, 268.6953
359.6134, 275.4608
360.0956, 278.7860
360.5777, 276.8812
361.0598, 272.2132
361.5419, 268.1034
362.0240, 263.8338
362.5061, 262.3393
362.9883, 265.4684
363.4704, 269.7292
363.9525, 273.9276
364.4346, 277.3190
364.9167, 278.0802
365.3988, 273.6209
365.8810, 262.6554
366.3631, 258.1768
366.8452, 265.3488
367.3273, 273.2284
367.8094, 279.4698
368.2915, 283.4152
368.7737, 284.4403
369.2558, 281.7795
369.7379, 276.2115
370.2200, 272.3942
370.7021, 271.2350
371.1842, 270.7767
371.6664, 271.1627
372.1485, 271.8192
372.6306, 272.3309
373.1127, 272.5633
373.5948, 272.0747
374.0769, 269.6185
374.5591, 263.9240
375.0412, 259.6575
375.5233, 257.3484
376.0054, 256.7722
376.4875, 259.5766
376.9696, 265.5054
377.4518, 269.5423
377.9339, 263.8388
378.4160, 247.9431
378.8981, 239.2584
379.3802, 243.3569
379.8623, 251.4050
380.3445, 260.2838
380.8266, 268.8447
381.3087, 273.5032
381.7908, 269.5904
382.2729, 260.1133
382.7550, 254.2103
383.2372, 253.3692
383.7193, 252.6489
384.2014, 246.2527
384.6835, 238.0097
385.1656, 235.3291
385.6477, 243.6693
386.1299, 255.1577
386.6120, 261.1413
387.0941, 261.7901
387.5762, 262.3872
388.0583, 266.2324
388.5404, 270.8740
389.0226, 270.9470
389.5047, 263.7525
389.9868, 257.9001
390.4689, 260.0116
390.9510, 266.4585
391.4331, 268.2571
391.9153, 261.9819
392.3974, 252.9534
392.8795, 248.7746
393.3616, 249.6880
393.8437, 253.7074
394.3258, 266.3423
394.8080, 278.5785
395.2901, 279.8365
395.7722, 269.7429
396.2543, 258.0046
396.7364, 253.5623
397.2185, 257.1676
397.7007, 258.2697
398.1828, 251.8274
398.6649, 248.2855
399.1470, 256.9661
399.6291, 271.8907
400.1112, 278.6857
400.5934, 268.1593
401.0755, 245.9606
401.5576, 235.2566
402.0397, 246.3549
402.5218, 256.7010
403.0039, 265.5294
403.4861, 272.2770
403.9682, 276.9236
404.4503, 279.3348
404.9324, 278.6778
405.4145, 272.3252
405.8966, 256.5484
406.3788, 246.6675
406.8609, 247.1249
407.3430, 250.2321
407.8251, 253.3500
408.3072, 255.8990
408.7893, 257.6290
409.2715, 258.0014
409.7536, 257.2458
410.2357, 257.3423
410.7178, 259.5665
411.1999, 260.4403
411.6820, 257.0258
412.1642, 251.6810
412.6463, 248.2260
413.1284, 248.6633
413.6105, 250.7318
414.0926, 251.1682
414.5747, 249.8366
415.0569, 248.7997
415.5390, 248.3736
416.0211, 249.0290
416.5032, 251.5767
416.9853, 256.6041
417.4674, 261.1559
417.9496, 263.3558
418.4317, 263.9034
418.9138, 264.5888
419.3959, 265.9512
419.8780, 266.8752
420.3601, 265.6978
420.8423, 262.3357
421.3244, 259.8539
421.8065, 257.6107
422.2886, 257.0901
422.7707, 261.5065
423.2528, 269.7287
423.7350, 275.4713
424.2171, 274.2939
424.6992, 266.9441
425.1813, 259.6010
425.6634, 249.8578
426.1455, 242.9159
426.6277, 240.4153
427.1098, 241.2712
427.5919, 244.7605
428.0740, 250.5302
428.5561, 256.7719
429.0382, 260.1431
429.5204, 259.6039
430.0025, 258.1154
430.4846, 253.0597
430.9667, 249.3157
431.4488, 251.6366
431.9309, 258.8421
432.4131, 264.8841
432.8952, 263.9829
433.3773, 256.5754
433.8594, 250.7796
434.3415, 245.9689
434.8236, 243.9493
435.3058, 245.9228
435.7879, 250.5782
436.2700, 256.7913
436.7521, 265.2219
437.2342, 272.2483
437.7163, 270.8677
438.1985, 260.0293
438.6806, 251.7938
439.1627, 251.2476
439.6448, 253.7499
440.1269, 253.9185
440.6090, 251.3106
441.0912, 250.0099
441.5733, 254.1614
442.0554, 260.8515
442.5375, 263.7980
443.0196, 261.8608
443.5017, 257.7411
443.9839, 252.5711
444.4660, 246.7380
444.9481, 244.3009
445.4302, 248.7687
445.9124, 253.7614
446.3945, 254.9845
446.8766, 253.3454
447.3587, 251.9019
447.8408, 252.1860
448.3229, 253.7114
448.8051, 255.0801
449.2872, 257.8237
449.7693, 258.3142
450.2514, 254.8586
450.7335, 250.0028
451.2156, 245.8260
451.6978, 242.7931
452.1799, 240.3324
452.6620, 237.6578
453.1441, 234.5033
453.6262, 233.1187
454.1083, 235.1840
454.5905, 237.4709
455.0726, 238.8807
455.5547, 239.8428
456.0368, 241.0974
456.5189, 242.8588
457.0010, 245.5140
457.4832, 251.2182
457.9653, 262.1873
458.4474, 268.0123
458.9295, 260.5628
459.4116, 249.7164
459.8937, 243.1857
460.3759, 241.9615
460.8580, 242.2603
461.3401, 239.6308
461.8222, 236.3873
462.3043, 241.6967
462.7864, 259.5210
463.2686, 276.1341
463.7507, 277.9670
464.2328, 267.6255
464.7149, 259.3731
465.1970, 255.9932
465.6791, 254.1997
466.1613, 252.0108
466.6434, 249.5385
467.1255, 247.0227
467.6076, 244.3436
468.0897, 242.3541
468.5718, 243.3733
469.0540, 251.7889
469.5361, 256.2781
470.0182, 254.2182
470.5003, 249.4614
470.9824, 243.9765
471.4645, 238.7593
471.9467, 235.5443
472.4288, 236.3501
472.9109, 241.3190
473.3930, 245.8934
473.8751, 251.3285
474.3572, 254.8017
474.8394, 254.6348
475.3215, 252.3894
475.8036, 250.7829
476.2857, 251.2966
476.7678, 250.9200
477.2499, 241.8190
477.7321, 221.7106
478.2142, 212.4801
478.6963, 227.0036
479.1784, 246.4319
479.6605, 256.2138
480.1426, 256.3463
480.6248, 252.8441
481.1069, 246.7079
481.5890, 239.4566
482.0711, 232.9565
482.5532, 227.2276
483.0353, 224.2463
483.5175, 226.7074
483.9996, 232.7849
484.4817, 234.4394
484.9638, 225.1127
485.4459, 219.6250
485.9280, 227.8965
486.4102, 241.8336
486.8923, 248.7396
487.3744, 244.9572
487.8565, 236.2709
488.3386, 230.3912
488.8207, 227.7211
489.3029, 226.5545
489.7850, 228.3503
490.2671, 229.9564
490.7492, 228.8748
491.2313, 226.5101
491.7134, 226.3128
492.1956, 230.6485
492.6777, 237.6397
493.1598, 242.0273
493.6419, 243.0693
494.1240, 243.3973
494.6061, 242.9242
495.0883, 242.4198
495.5704, 243.0139
496.0525, 244.7202
496.5346, 245.1394
497.0167, 240.6986
497.4988, 233.6624
497.9810, 231.0873
498.4631, 234.2897
498.9452, 238.8226
499.4273, 242.3567
499.9094, 244.7114
500.3915, 245.5298
500.8737, 242.1392
501.3558, 240.0214
501.8379, 243.5772
502.3200, 250.2539
502.8021, 254.8998
503.2842, 255.7865
503.7664, 254.2844
504.2485, 252.4363
504.7306, 250.4780
505.2127, 247.3413
505.6948, 240.5996
506.1769, 235.0277
506.6591, 234.3966
507.1412, 237.0958
507.6233, 238.4666
508.1054, 235.1787
508.5875, 229.6051
509.0696, 229.9325
509.5518, 240.2292
510.0339, 246.6946
510.5160, 242.9212
510.9981, 236.5782
511.4802, 233.1825
511.9623, 233.3478
512.4445, 233.8539
512.9266, 231.0663
513.4087, 226.9275
513.8908, 228.4772
514.3729, 237.8159
514.8550, 244.3045
515.3372, 237.7921
515.8193, 222.9543
516.3014, 216.6205
516.7835, 226.5541
517.2656, 235.8200
517.7477, 235.2220
518.2299, 229.2483
518.7120, 225.3979
519.1941, 225.8263
519.6762, 228.4710
520.1583, 231.0075
520.6404, 233.9712
521.1226, 234.2486
521.6047, 228.1148
522.0868, 223.5056
522.5689, 225.8876
523.0510, 231.8057
523.5331, 234.0045
524.0153, 228.4361
524.4974, 219.9453
524.9795, 219.2501
525.4616, 228.6975
525.9437, 235.6241
526.4258, 236.5947
526.9080, 235.1848
527.3901, 233.8074
527.8722, 232.4251
528.3543, 229.9845
528.8364, 223.2935
529.3185, 216.4404
529.8007, 217.5213
530.2828, 226.5288
530.7649, 233.1982
531.2470, 231.1299
531.7291, 223.8886
532.2112, 221.8428
532.6934, 228.8186
533.1755, 232.6602
533.6576, 227.7282
534.1397, 220.4768
534.6218, 217.6873
535.1039, 219.8831
535.5861, 222.5865
536.0682, 221.4345
536.5503, 216.7728
537.0324, 216.1791
537.5145, 223.4368
537.9966, 229.9169
538.4788, 235.0403
538.9609, 237.9541
539.4430, 236.9670
539.9251, 231.7185
540.4072, 225.8000
540.8893, 223.4849
541.3715, 224.1910
541.8536, 223.1767
542.3357, 219.5864
542.8178, 215.1910
543.2999, 208.7681
543.7820, 202.4584
544.2642, 202.7484
544.7463, 217.1162
545.2284, 231.1526
545.7105, 235.5546
546.1926, 233.3025
546.6747, 230.1056
547.1569, 227.6824
547.6390, 226.6965
548.1211, 228.3424
548.6032, 233.7114
549.0853, 237.4185
549.5674, 241.4796
550.0496, 242.1243
550.5317, 234.5012
551.0138, 222.9289
551.4959, 215.4717
551.9780, 216.2456
552.4601, 220.8961
552.9423, 220.9357
553.4244, 215.1633
553.9065, 212.7141
554.3886, 216.8620
554.8707, 222.9141
555.3528, 228.8102
555.8350, 233.9473
556.3171, 235.4418
556.7992, 229.0932
557.2813, 220.7401
557.7634, 216.6013
558.2455, 216.1645
558.7277, 216.3306
559.2098, 215.8591
559.6919, 215.0993
560.1740, 214.7010
560.6561, 214.8075
561.1382, 215.0030
561.6204, 214.2586
562.1025, 214.4705
562.5846, 218.6512
563.0667, 225.0290
563.5488, 228.3852
564.0309, 225.0888
564.5131, 217.4999
564.9952, 212.2006
565.4773, 209.1911
565.9594, 208.4909
566.4415, 213.8675
566.9236, 218.7958
567.4058, 217.7779
567.8879, 211.2452
568.3700, 205.5811
568.8521, 204.8071
569.3342, 206.5757
569.8163, 207.7007
570.2985, 208.0998
570.7806, 207.7540
571.2627, 206.1366
571.7448, 204.3784
572.2269, 205.4633
572.7090, 210.9481
573.1912, 215.7734
573.6733, 220.8589
574.1554, 224.1224
574.6375, 221.8154
575.1196, 215.6646
575.6017, 212.4459
576.0839, 217.6198
576.5660, 228.1608
577.0481, 231.6680
577.5302, 224.2511
578.0123, 219.1127
578.4944, 222.1017
578.9766, 226.3210
579.4587, 227.2734
579.9408, 224.6136
580.4229, 219.8838
580.9050, 210.7453
581.3871, 201.4754
581.8693, 200.4170
582.3514, 207.4435
582.8335, 213.7440
583.3156, 214.6125
