##NAMES=Nitratine
##RRUFFID=R050658
##IDEAL CHEMISTRY=NaN^5+^O_3_
##LOCALITY=Peru
##OWNER=RRUFF
##SOURCE=University of Arizona Mineral Museum
##DESCRIPTION=Group of colorless crystals
##STATUS=The identification of this mineral has been confirmed by X-ray diffraction and chemical analysis
##URL=rruff.info/R050658
##MEASURED CHEMISTRY=Na_0.92_N_1.00_O_2.96_ ; N not measured but estimated by difference and stoichiometry
90.612, 15.688
91.094, 15.102
91.576, 15.300
92.058, 16.118
92.540, 17.046
93.023, 18.123
93.505, 19.189
93.987, 19.508
94.469, 18.470
94.951, 17.273
95.433, 16.783
95.915, 16.957
96.397, 17.316
96.880, 17.290
97.362, 16.809
97.844, 17.083
98.326, 19.711
98.808, 22.162
99.290, 22.583
99.772, 20.801
100.254, 18.792
100.737, 19.196
101.219, 22.889
101.701, 26.612
102.183, 30.083
102.665, 33.354
103.147, 36.628
103.629, 39.932
104.111, 42.952
104.593, 44.921
105.076, 45.063
105.558, 45.281
106.040, 46.328
106.522, 47.351
107.004, 47.257
107.486, 45.469
107.968, 42.576
108.450, 40.927
108.932, 41.022
109.415, 41.993
109.897, 44.738
110.379, 48.183
110.861, 50.689
111.343, 51.165
111.825, 49.794
112.307, 48.965
112.789, 47.489
113.271, 47.618
113.754, 52.237
114.236, 59.473
114.718, 63.969
115.200, 60.740
115.682, 49.502
116.164, 46.120
116.646, 57.025
117.128, 69.078
117.610, 74.254
118.093, 72.771
118.575, 70.398
119.057, 71.836
119.539, 77.769
120.021, 85.278
120.503, 95.676
120.985, 106.851
121.467, 117.230
121.950, 126.587
122.432, 135.029
122.914, 142.247
123.396, 148.264
123.878, 154.520
124.360, 160.149
124.842, 166.503
125.324, 176.857
125.807, 193.180
126.289, 208.608
126.771, 213.665
127.253, 209.674
127.735, 205.832
128.217, 205.539
128.699, 207.756
129.181, 210.136
129.663, 212.355
130.146, 214.450
130.628, 216.905
131.110, 219.719
131.592, 221.372
132.074, 220.052
132.556, 216.453
133.038, 214.142
133.520, 213.839
134.003, 215.278
134.485, 217.378
134.967, 220.084
135.449, 225.178
135.931, 235.323
136.413, 250.555
136.895, 264.245
137.377, 272.642
137.859, 280.832
138.342, 292.040
138.824, 306.767
139.306, 324.330
139.788, 345.323
140.270, 370.444
140.752, 393.818
141.234, 412.355
141.716, 429.566
142.199, 447.029
142.681, 465.123
143.163, 483.845
143.645, 504.449
144.127, 528.960
144.609, 548.252
145.091, 555.022
145.573, 559.338
146.055, 569.179
146.538, 587.121
147.020, 608.215
147.502, 623.431
147.984, 628.665
148.466, 636.824
148.948, 652.547
149.430, 670.305
149.912, 685.962
150.395, 697.803
150.877, 706.445
151.359, 712.377
151.841, 711.147
152.323, 715.144
152.805, 728.468
153.287, 745.965
153.769, 762.404
154.251, 775.338
154.734, 786.770
155.216, 802.420
155.698, 823.692
156.180, 848.085
156.662, 875.278
157.144, 905.134
157.626, 937.284
158.108, 971.424
158.590, 1008.210
159.073, 1049.604
159.555, 1102.522
160.037, 1152.211
160.519, 1194.624
161.001, 1233.651
161.483, 1272.585
161.965, 1313.044
162.447, 1356.421
162.930, 1408.577
163.412, 1476.874
163.894, 1547.320
164.376, 1620.621
164.858, 1694.583
165.340, 1766.653
165.822, 1834.614
166.304, 1900.004
166.786, 1968.604
167.269, 2040.183
167.751, 2115.092
168.233, 2191.172
168.715, 2271.227
169.197, 2359.200
169.679, 2457.473
170.161, 2565.615
170.643, 2681.483
171.126, 2811.719
171.608, 2941.862
172.090, 3062.844
172.572, 3181.697
173.054, 3310.370
173.536, 3456.575
174.018, 3618.504
174.500, 3786.965
174.982, 3952.026
175.465, 4132.067
175.947, 4337.379
176.429, 4560.988
176.911, 4788.416
177.393, 5011.448
177.875, 5230.645
178.357, 5458.006
178.839, 5701.061
179.322, 5941.127
179.804, 6176.043
180.286, 6404.952
180.768, 6631.893
181.250, 6862.370
181.732, 7091.032
182.214, 7275.242
182.696, 7405.416
183.178, 7514.242
183.661, 7614.973
184.143, 7702.555
184.625, 7767.048
185.107, 7804.944
185.589, 7813.401
186.071, 7769.931
186.553, 7667.158
187.035, 7534.283
187.518, 7371.042
188.000, 7184.702
188.482, 6992.502
188.964, 6805.140
189.446, 6618.724
189.928, 6405.725
190.410, 6143.651
190.892, 5886.594
191.374, 5656.929
191.857, 5447.605
192.339, 5242.375
192.821, 5031.955
193.303, 4819.036
193.785, 4610.615
194.267, 4396.328
194.749, 4197.285
195.231, 4026.009
195.714, 3875.183
196.196, 3728.491
196.678, 3576.445
197.160, 3422.991
197.642, 3284.474
198.124, 3171.105
198.606, 3056.420
199.088, 2924.516
199.570, 2785.706
200.053, 2662.244
200.535, 2566.370
201.017, 2490.361
201.499, 2411.928
201.981, 2325.078
202.463, 2243.182
202.945, 2173.211
203.427, 2110.305
203.909, 2045.176
204.392, 1973.203
204.874, 1898.382
205.356, 1832.407
205.838, 1777.114
206.320, 1725.441
206.802, 1679.354
207.284, 1635.151
207.766, 1585.122
208.249, 1524.947
208.731, 1461.690
209.213, 1413.406
209.695, 1387.254
210.177, 1358.742
210.659, 1321.062
211.141, 1278.517
211.623, 1236.937
212.105, 1198.297
212.587, 1161.543
213.070, 1124.429
213.552, 1085.316
214.034, 1049.751
214.516, 1020.527
214.998, 994.718
215.480, 969.476
215.962, 944.005
216.445, 918.108
216.927, 891.157
217.409, 862.729
217.891, 834.635
218.373, 805.652
218.855, 777.819
219.337, 753.129
219.819, 732.070
220.301, 714.539
220.783, 701.063
221.266, 694.352
221.748, 683.735
222.230, 665.080
222.712, 644.593
223.194, 627.961
223.676, 616.237
224.158, 606.272
224.641, 594.784
225.123, 581.665
225.605, 566.740
226.087, 545.937
226.569, 526.190
227.051, 513.499
227.533, 508.025
228.015, 504.647
228.497, 498.379
228.980, 488.471
229.462, 480.162
229.944, 473.814
230.426, 468.578
230.908, 465.064
231.390, 462.624
231.872, 458.715
232.354, 450.833
232.836, 438.612
233.319, 429.241
233.801, 424.389
234.283, 420.205
234.765, 415.090
235.247, 409.204
235.729, 403.519
236.211, 398.859
236.693, 395.109
237.176, 390.045
237.658, 381.326
238.140, 373.972
238.622, 370.294
239.104, 369.021
239.586, 367.868
240.068, 365.641
240.550, 362.194
241.032, 356.666
241.514, 345.775
241.997, 336.560
242.479, 330.578
242.961, 326.769
243.443, 323.738
243.925, 320.849
244.407, 318.103
244.889, 315.564
245.372, 315.617
245.854, 312.644
246.336, 302.712
246.818, 291.359
247.300, 284.776
247.782, 285.040
248.264, 288.654
248.746, 288.738
249.228, 281.757
249.710, 277.231
250.193, 277.159
250.675, 278.122
251.157, 277.684
251.639, 275.256
252.121, 271.689
252.603, 267.991
253.085, 263.989
253.568, 260.359
254.050, 257.683
254.532, 254.870
255.014, 250.903
255.496, 245.986
255.978, 241.384
256.460, 238.320
256.942, 236.899
257.424, 236.381
257.906, 238.083
258.389, 239.541
258.871, 239.912
259.353, 239.270
259.835, 238.070
260.317, 236.704
260.799, 235.133
261.281, 232.790
261.763, 229.538
262.246, 225.568
262.728, 219.478
263.210, 212.954
263.692, 208.954
264.174, 209.810
264.656, 213.780
265.138, 215.112
265.620, 212.439
266.103, 209.738
266.585, 208.324
267.067, 207.600
267.549, 207.162
268.031, 207.157
268.513, 206.543
268.995, 202.793
269.477, 194.613
269.959, 188.562
270.442, 188.847
270.924, 191.200
271.406, 192.793
271.888, 193.175
272.370, 192.096
272.852, 188.067
273.334, 181.105
273.816, 177.030
274.298, 179.121
274.781, 182.945
275.263, 184.289
275.745, 182.996
276.227, 181.314
276.709, 180.917
277.191, 181.326
277.673, 180.511
278.155, 177.368
278.638, 174.423
279.120, 174.557
279.602, 177.231
280.084, 179.520
280.566, 181.038
281.048, 181.307
281.530, 178.708
282.012, 172.638
282.495, 167.229
282.977, 166.810
283.459, 170.159
283.941, 171.206
284.423, 166.807
284.905, 161.665
285.387, 159.674
285.869, 160.665
286.351, 162.687
286.833, 165.563
287.316, 168.196
287.798, 166.457
288.280, 154.992
288.762, 145.411
289.244, 143.653
289.726, 147.225
290.208, 150.673
290.690, 151.728
291.173, 151.321
291.655, 151.742
292.137, 154.442
292.619, 155.455
293.101, 152.444
293.583, 148.273
294.065, 146.574
294.547, 148.214
295.030, 150.941
295.512, 151.616
295.994, 149.340
296.476, 147.214
296.958, 145.393
297.440, 143.596
297.922, 140.772
298.404, 137.439
298.886, 136.100
299.369, 139.737
299.851, 149.141
300.333, 152.930
300.815, 144.388
301.297, 137.337
301.779, 137.532
302.261, 142.230
302.743, 145.489
303.225, 143.434
303.708, 137.568
304.190, 134.625
304.672, 137.878
305.154, 139.241
305.636, 135.189
306.118, 129.652
306.600, 126.799
307.082, 128.196
307.565, 131.812
308.047, 134.781
308.529, 137.312
309.011, 138.357
309.493, 136.567
309.975, 133.991
310.457, 131.525
310.939, 129.350
311.422, 127.712
311.904, 127.400
312.386, 128.200
312.868, 127.326
313.350, 123.050
313.832, 119.182
314.314, 118.388
314.796, 120.045
315.278, 122.206
315.760, 124.821
316.243, 127.123
316.725, 127.118
317.207, 124.246
317.689, 122.047
318.171, 123.739
318.653, 127.507
319.135, 129.365
319.617, 127.844
320.100, 125.409
320.582, 123.651
321.064, 122.514
321.546, 121.719
322.028, 121.238
322.510, 120.942
322.992, 120.548
323.474, 119.983
323.957, 119.508
324.439, 119.803
324.921, 120.022
325.403, 118.520
325.885, 114.870
326.367, 111.049
326.849, 109.516
327.331, 110.963
327.813, 112.549
328.296, 115.102
328.778, 117.126
329.260, 117.273
329.742, 115.859
330.224, 114.396
330.706, 114.065
331.188, 114.792
331.670, 115.065
332.152, 114.863
332.635, 114.226
333.117, 112.901
333.599, 111.214
334.081, 109.556
334.563, 108.102
335.045, 106.874
335.527, 105.853
336.009, 104.653
336.491, 104.557
336.974, 106.371
337.456, 108.716
337.938, 111.130
338.420, 113.325
338.902, 114.469
339.384, 113.185
339.866, 109.412
340.349, 106.377
340.831, 103.706
341.313, 102.566
341.795, 104.605
342.277, 108.579
342.759, 111.217
343.241, 110.005
343.723, 106.844
344.205, 105.380
344.688, 105.818
345.170, 106.802
345.652, 107.808
346.134, 108.907
346.616, 110.337
347.098, 112.568
347.580, 114.271
348.062, 114.346
348.544, 113.120
349.027, 111.745
349.509, 110.665
349.991, 109.348
350.473, 106.593
350.955, 101.969
351.437, 98.460
351.919, 95.770
352.401, 94.885
352.884, 98.283
353.366, 105.591
353.848, 111.884
354.330, 112.598
354.812, 107.480
355.294, 103.990
355.776, 102.719
356.258, 102.084
356.740, 101.472
357.223, 101.114
357.705, 101.729
358.187, 103.738
358.669, 106.318
359.151, 107.242
359.633, 105.381
360.115, 103.766
360.597, 103.376
361.079, 102.772
361.562, 100.007
362.044, 95.252
362.526, 91.394
363.008, 92.248
363.490, 98.154
363.972, 102.072
364.454, 103.520
364.936, 103.340
365.418, 101.054
365.901, 97.633
366.383, 95.103
366.865, 94.545
367.347, 95.273
367.829, 96.366
368.311, 97.905
368.793, 99.139
369.276, 99.667
369.758, 99.725
370.240, 99.867
370.722, 100.411
371.204, 100.086
371.686, 96.737
372.168, 92.164
372.650, 90.870
373.132, 94.241
373.615, 98.743
374.097, 100.253
374.579, 98.242
375.061, 97.225
375.543, 97.733
376.025, 98.977
376.507, 101.328
376.989, 104.128
377.471, 105.429
377.954, 103.895
378.436, 100.050
378.918, 96.345
379.400, 90.320
379.882, 87.582
380.364, 92.422
380.846, 98.772
381.328, 99.817
381.810, 94.073
382.293, 86.420
382.775, 83.590
383.257, 86.838
383.739, 89.041
384.221, 88.760
384.703, 88.752
385.185, 90.779
385.667, 94.031
386.150, 96.449
386.632, 97.140
387.114, 96.066
387.596, 92.095
388.078, 83.987
388.560, 78.542
389.042, 80.021
389.524, 85.080
390.007, 90.095
390.489, 95.325
390.971, 98.432
391.453, 96.222
391.935, 90.881
392.417, 87.933
392.899, 88.809
393.381, 90.982
393.863, 91.895
394.346, 91.418
394.828, 90.839
395.310, 89.507
395.792, 88.691
396.274, 89.720
396.756, 92.024
397.238, 93.809
397.720, 93.999
398.203, 93.084
398.685, 92.785
399.167, 94.119
399.649, 94.693
400.131, 93.657
400.613, 92.303
401.095, 91.774
401.577, 92.224
402.059, 92.954
402.542, 93.311
403.024, 93.291
403.506, 92.903
403.988, 92.218
404.470, 91.024
404.952, 88.695
405.434, 85.953
405.916, 83.933
406.398, 82.954
406.881, 83.153
407.363, 85.341
407.845, 89.533
408.327, 92.913
408.809, 95.025
409.291, 95.403
409.773, 92.955
410.255, 87.325
410.737, 82.708
411.220, 80.162
411.702, 79.594
412.184, 81.957
412.666, 87.019
413.148, 91.277
413.630, 91.783
414.112, 88.861
414.595, 87.092
415.077, 86.565
415.559, 86.854
416.041, 88.871
416.523, 91.271
417.005, 92.304
417.487, 91.390
417.969, 89.307
418.451, 87.077
418.934, 84.555
419.416, 82.407
419.898, 80.338
420.380, 78.950
420.862, 78.111
421.344, 78.160
421.826, 80.053
422.308, 85.217
422.790, 91.609
423.273, 94.748
423.755, 94.260
424.237, 92.474
424.719, 88.635
425.201, 84.987
425.683, 84.640
426.165, 88.299
426.647, 91.575
427.129, 91.936
427.612, 90.652
428.094, 89.798
428.576, 89.678
429.058, 89.623
429.540, 89.068
430.022, 88.026
430.504, 87.145
430.986, 85.724
431.469, 85.218
431.951, 87.447
432.433, 90.518
432.915, 91.158
433.397, 88.254
433.879, 84.206
434.361, 83.085
434.843, 86.255
435.326, 88.338
435.808, 88.790
436.290, 88.660
436.772, 88.259
437.254, 87.633
437.736, 86.784
438.218, 85.709
438.700, 84.410
439.182, 82.281
439.664, 78.824
440.147, 77.922
440.629, 83.337
441.111, 90.132
441.593, 91.942
442.075, 88.036
442.557, 83.699
443.039, 80.817
443.522, 79.037
444.004, 77.823
444.486, 77.124
444.968, 77.365
445.450, 79.070
445.932, 82.062
446.414, 84.380
446.896, 86.925
447.378, 87.857
447.861, 85.747
448.343, 82.257
448.825, 79.271
449.307, 77.330
449.789, 75.724
450.271, 73.111
450.753, 68.907
451.235, 67.974
451.717, 73.710
452.200, 78.943
452.682, 80.704
453.164, 80.151
453.646, 79.359
454.128, 78.957
454.610, 79.084
455.092, 80.221
455.574, 82.285
456.056, 83.934
456.539, 84.722
457.021, 85.106
457.503, 85.904
457.985, 87.146
458.467, 87.227
458.949, 85.074
459.431, 82.233
459.913, 79.222
460.396, 76.497
460.878, 75.551
461.360, 77.469
461.842, 80.965
462.324, 82.136
462.806, 78.673
463.288, 76.309
463.770, 75.879
464.253, 75.992
464.735, 75.272
465.217, 73.964
465.699, 73.776
466.181, 76.704
466.663, 81.716
467.145, 84.090
467.627, 83.049
468.109, 81.535
468.592, 80.776
469.074, 80.121
469.556, 78.519
470.038, 75.486
470.520, 73.483
471.002, 75.243
471.484, 78.602
471.966, 79.120
472.448, 76.161
472.931, 73.168
473.413, 72.942
473.895, 75.303
474.377, 77.158
474.859, 78.302
475.341, 79.277
475.823, 80.525
476.305, 81.530
476.788, 81.345
477.270, 79.872
477.752, 78.401
478.234, 78.952
478.716, 81.882
479.198, 82.229
479.680, 77.990
480.162, 73.802
480.645, 71.438
481.127, 70.339
481.609, 69.469
482.091, 68.193
482.573, 68.006
483.055, 71.668
483.537, 77.903
484.019, 81.164
484.501, 79.623
484.983, 77.066
485.466, 77.679
485.948, 81.717
486.430, 83.488
486.912, 80.405
487.394, 77.606
487.876, 78.657
488.358, 81.491
488.841, 81.779
489.323, 77.876
489.805, 72.766
490.287, 72.005
490.769, 78.030
491.251, 79.905
491.733, 72.241
492.215, 65.524
492.697, 63.892
493.180, 66.331
493.662, 70.911
494.144, 78.218
494.626, 84.548
495.108, 83.648
495.590, 76.372
496.072, 71.248
496.554, 70.888
497.036, 72.546
497.519, 73.096
498.001, 72.484
498.483, 72.324
498.965, 72.418
499.447, 73.329
499.929, 76.161
500.411, 80.015
500.893, 83.287
501.375, 85.286
501.858, 85.580
502.340, 82.689
502.822, 74.198
503.304, 69.202
503.786, 70.678
504.268, 73.091
504.750, 74.114
505.232, 74.225
505.715, 75.043
506.197, 77.842
506.679, 80.797
507.161, 80.906
507.643, 78.441
508.125, 76.792
508.607, 77.200
509.089, 78.122
509.572, 77.525
510.054, 75.291
510.536, 73.643
511.018, 72.702
511.500, 72.467
511.982, 73.490
512.464, 75.158
512.946, 76.096
513.428, 75.691
513.911, 74.824
514.393, 75.306
514.875, 77.988
515.357, 79.188
515.839, 76.906
516.321, 74.999
516.803, 75.401
517.285, 77.393
517.768, 79.465
518.250, 81.545
518.732, 82.491
519.214, 79.700
519.696, 74.145
520.178, 71.460
520.660, 73.622
521.142, 77.311
521.624, 79.071
522.107, 78.652
522.589, 77.912
523.071, 76.579
523.553, 75.213
524.035, 73.663
524.517, 72.365
524.999, 72.095
525.481, 73.108
525.963, 74.699
526.446, 76.027
526.928, 77.143
527.410, 77.582
527.892, 76.993
528.374, 76.186
528.856, 75.001
529.338, 74.002
529.820, 74.353
530.302, 76.948
530.785, 79.436
531.267, 79.638
531.749, 78.426
532.231, 77.909
532.713, 78.516
533.195, 79.291
533.677, 79.504
534.159, 79.146
534.641, 77.784
535.124, 72.662
535.606, 70.010
536.088, 72.868
536.570, 77.840
537.052, 82.006
537.534, 84.489
538.016, 84.987
538.498, 82.176
538.981, 76.799
539.463, 73.949
539.945, 74.201
540.427, 75.236
540.909, 76.624
541.391, 77.852
541.873, 77.881
542.355, 76.103
542.838, 75.286
543.320, 78.603
543.802, 82.100
544.284, 79.922
544.766, 72.881
545.248, 67.591
545.730, 68.513
546.212, 73.906
546.695, 77.585
547.177, 78.700
547.659, 79.684
548.141, 81.454
548.623, 82.571
549.105, 81.530
549.587, 78.885
550.069, 76.864
550.551, 76.920
551.034, 77.979
551.516, 78.699
551.998, 79.054
552.480, 78.586
552.962, 76.788
553.444, 75.051
553.926, 75.623
554.408, 79.400
554.890, 80.602
555.373, 75.967
555.855, 72.146
556.337, 73.322
556.819, 77.138
557.301, 79.675
557.783, 79.479
558.265, 77.689
558.747, 75.416
559.229, 72.621
559.712, 70.692
560.194, 69.688
560.676, 69.530
561.158, 70.944
561.640, 72.990
562.122, 74.083
562.604, 73.661
563.086, 73.135
563.568, 73.043
564.051, 73.340
564.533, 74.388
565.015, 76.010
565.497, 76.767
565.979, 75.386
566.461, 72.397
566.943, 70.727
567.425, 71.424
567.908, 71.640
568.390, 70.315
568.872, 69.031
569.354, 69.159
569.836, 70.497
570.318, 71.596
570.800, 71.375
571.282, 70.664
571.765, 70.479
572.247, 70.841
572.729, 72.092
573.211, 74.589
573.693, 77.270
574.175, 78.711
574.657, 78.604
575.139, 78.667
575.622, 78.943
576.104, 79.331
576.586, 79.746
577.068, 80.268
577.550, 81.329
578.032, 82.997
578.514, 84.105
578.996, 82.831
579.478, 79.499
579.961, 77.349
580.443, 76.980
580.925, 76.121
581.407, 72.273
581.889, 67.602
582.371, 67.149
582.853, 72.852
583.335, 77.822
583.817, 80.054
584.300, 80.749
584.782, 80.886
585.264, 80.548
585.746, 79.263
586.228, 76.590
586.710, 73.456
587.192, 72.543
587.674, 74.672
588.156, 75.824
588.639, 75.045
589.121, 73.642
589.603, 72.207
590.085, 70.844
590.567, 69.775
591.049, 68.283
591.531, 68.128
592.013, 72.087
592.495, 77.938
592.978, 81.223
593.460, 81.030
593.942, 79.145
594.424, 76.997
594.906, 74.677
595.388, 73.783
595.870, 75.846
596.352, 76.966
596.835, 75.849
597.317, 74.066
597.799, 72.837
598.281, 72.269
598.763, 71.840
599.245, 70.707
599.727, 69.857
600.209, 71.330
600.692, 74.624
601.174, 76.693
601.656, 76.316
602.138, 74.863
602.620, 74.329
603.102, 75.122
603.584, 74.781
604.066, 71.686
604.549, 69.425
605.031, 69.573
605.513, 70.995
605.995, 72.323
606.477, 73.178
606.959, 73.791
607.441, 74.638
607.923, 75.373
608.405, 74.274
608.888, 71.109
609.370, 69.994
609.852, 73.699
610.334, 79.803
610.816, 83.269
611.298, 83.333
611.780, 82.369
612.262, 79.149
612.744, 76.140
613.227, 74.993
613.709, 75.035
614.191, 74.803
614.673, 73.683
615.155, 72.256
615.637, 70.858
616.119, 69.662
616.601, 70.416
617.083, 73.929
617.566, 76.536
618.048, 75.046
618.530, 71.188
619.012, 70.806
619.494, 76.799
619.976, 80.434
620.458, 78.724
620.940, 75.458
621.422, 72.946
621.905, 71.516
622.387, 71.221
622.869, 72.249
623.351, 73.595
623.833, 72.972
624.315, 70.378
624.797, 69.782
625.279, 72.317
625.762, 75.578
626.244, 78.013
626.726, 79.710
627.208, 81.290
627.690, 84.260
628.172, 84.946
628.654, 80.042
629.136, 74.044
629.619, 71.363
630.101, 71.926
630.583, 72.883
631.065, 72.298
631.547, 71.078
632.029, 71.534
632.511, 73.881
632.993, 75.500
633.476, 75.912
633.958, 75.531
634.440, 74.333
634.922, 72.537
635.404, 71.203
635.886, 70.375
636.368, 70.051
636.850, 70.733
637.332, 71.620
637.815, 71.591
638.297, 70.747
638.779, 70.320
639.261, 71.328
639.743, 73.139
640.225, 74.135
640.707, 74.267
641.189, 73.862
641.671, 72.721
642.154, 71.467
642.636, 70.633
643.118, 70.166
643.600, 69.794
644.082, 69.696
644.564, 69.447
645.046, 68.027
645.528, 66.883
646.010, 67.998
646.493, 71.299
646.975, 75.121
647.457, 78.585
647.939, 81.120
648.421, 80.261
648.903, 75.462
649.385, 72.865
649.867, 74.643
650.349, 77.602
650.832, 78.846
651.314, 78.584
651.796, 78.528
652.278, 79.074
652.760, 79.459
653.242, 79.910
653.724, 79.782
654.206, 77.736
654.689, 74.157
655.171, 71.338
655.653, 71.167
656.135, 72.573
656.617, 72.925
657.099, 72.169
657.581, 71.889
658.063, 72.469
658.545, 73.560
659.028, 75.315
659.510, 77.529
659.992, 77.927
660.474, 74.671
660.956, 72.001
661.438, 70.815
