##NAMES=Nitrocalcite
##RRUFFID=R120047
##IDEAL CHEMISTRY=Ca(N^5+^O_3_)_2_&#183;4H_2_O
##LOCALITY=Christmas mine, Gila County, Arizona, USA
##OWNER=RRUFF
##SOURCE=Bob Jenkins
##DESCRIPTION=White to colorless needles
##STATUS=The identification of this mineral has been confirmed by single-crystal X-ray diffraction.
##URL=rruff.info/R120047
228.2112, 1651.570
228.6934, 1656.156
229.1755, 1658.886
229.6576, 1660.775
230.1397, 1663.117
230.6218, 1666.319
231.1039, 1669.307
231.5861, 1671.673
232.0682, 1673.312
232.5503, 1675.645
233.0324, 1679.449
233.5145, 1683.371
233.9966, 1685.557
234.4788, 1684.797
234.9609, 1684.519
235.4430, 1685.666
235.9251, 1688.420
236.4072, 1691.420
236.8893, 1694.981
237.3715, 1698.508
237.8536, 1701.127
238.3357, 1702.055
238.8178, 1703.435
239.2999, 1705.941
239.7820, 1709.720
240.2642, 1713.073
240.7463, 1715.682
241.2284, 1718.064
241.7105, 1720.828
242.1926, 1723.977
242.6747, 1727.415
243.1569, 1731.115
243.6390, 1735.097
244.1211, 1739.285
244.6032, 1744.354
245.0853, 1749.067
245.5674, 1751.867
246.0496, 1751.848
246.5317, 1751.643
247.0138, 1751.876
247.4959, 1752.626
247.9780, 1753.152
248.4601, 1753.292
248.9423, 1753.441
249.4244, 1754.020
249.9065, 1755.097
250.3886, 1756.583
250.8707, 1758.607
251.3528, 1761.199
251.8350, 1763.621
252.3171, 1765.974
252.7992, 1768.015
253.2813, 1769.393
253.7634, 1769.691
254.2455, 1770.145
254.7277, 1771.063
255.2098, 1772.439
255.6919, 1773.344
256.1740, 1773.266
256.6561, 1773.285
257.1382, 1774.521
257.6204, 1777.498
258.1025, 1780.455
258.5846, 1783.373
259.0667, 1786.196
259.5488, 1787.156
260.0309, 1785.470
260.5131, 1783.071
260.9952, 1781.632
261.4773, 1781.353
261.9594, 1781.551
262.4415, 1782.296
262.9236, 1783.532
263.4058, 1784.330
263.8879, 1784.279
264.3700, 1784.540
264.8521, 1786.246
265.3342, 1789.936
265.8163, 1793.239
266.2985, 1795.821
266.7806, 1797.715
267.2627, 1799.201
267.7448, 1800.314
268.2269, 1800.883
268.7090, 1800.521
269.1912, 1798.810
269.6733, 1797.898
270.1554, 1798.243
270.6375, 1799.499
271.1196, 1800.210
271.6017, 1800.111
272.0839, 1800.152
272.5660, 1801.135
273.0481, 1803.276
273.5302, 1804.970
274.0123, 1806.049
274.4944, 1806.635
274.9766, 1806.812
275.4587, 1806.311
275.9408, 1806.504
276.4229, 1808.743
276.9050, 1813.316
277.3871, 1816.530
277.8693, 1817.945
278.3514, 1818.107
278.8335, 1818.035
279.3156, 1817.669
279.7977, 1817.438
280.2798, 1817.578
280.7620, 1818.085
281.2441, 1818.783
281.7262, 1819.708
282.2083, 1820.698
282.6904, 1821.324
283.1725, 1821.524
283.6547, 1822.049
284.1368, 1823.515
284.6189, 1825.794
285.1010, 1827.418
285.5831, 1828.151
286.0652, 1828.786
286.5474, 1830.843
287.0295, 1834.282
287.5116, 1837.140
287.9937, 1838.179
288.4758, 1837.773
288.9579, 1838.116
289.4401, 1839.326
289.9222, 1840.729
290.4043, 1841.493
290.8864, 1841.687
291.3685, 1841.805
291.8506, 1841.772
292.3328, 1841.833
292.8149, 1843.031
293.2970, 1845.469
293.7791, 1847.783
294.2612, 1848.230
294.7433, 1847.244
295.2255, 1846.530
295.7076, 1846.699
296.1897, 1847.463
296.6718, 1848.186
297.1539, 1848.873
297.6360, 1849.943
298.1182, 1852.726
298.6003, 1856.197
299.0824, 1857.624
299.5645, 1855.062
300.0466, 1851.428
300.5287, 1851.055
301.0109, 1853.613
301.4930, 1856.783
301.9751, 1859.347
302.4572, 1861.318
302.9393, 1862.506
303.4214, 1862.503
303.9036, 1862.454
304.3857, 1864.102
304.8678, 1866.937
305.3499, 1869.096
305.8320, 1868.415
306.3141, 1866.812
306.7963, 1866.735
307.2784, 1868.940
307.7605, 1871.649
308.2426, 1873.534
308.7247, 1874.777
309.2068, 1875.830
309.6890, 1876.679
310.1711, 1877.527
310.6532, 1878.542
311.1353, 1879.733
311.6174, 1880.942
312.0995, 1881.973
312.5817, 1882.923
313.0638, 1883.978
313.5459, 1885.471
314.0280, 1886.906
314.5101, 1888.035
314.9922, 1888.857
315.4744, 1889.383
315.9565, 1889.304
316.4386, 1889.087
316.9207, 1889.262
317.4028, 1891.038
317.8849, 1892.357
318.3671, 1891.918
318.8492, 1889.840
319.3313, 1888.506
319.8134, 1888.577
320.2955, 1889.783
320.7776, 1891.894
321.2598, 1896.659
321.7419, 1900.378
322.2240, 1901.455
322.7061, 1900.422
323.1882, 1900.155
323.6703, 1902.010
324.1525, 1904.186
324.6346, 1905.655
325.1167, 1905.329
325.5988, 1905.643
326.0809, 1907.282
326.5630, 1909.772
327.0452, 1911.801
327.5273, 1912.361
328.0094, 1913.270
328.4915, 1915.431
328.9736, 1920.288
329.4557, 1923.134
329.9379, 1922.567
330.4200, 1920.427
330.9021, 1919.643
331.3842, 1920.721
331.8663, 1922.448
332.3484, 1924.816
332.8306, 1928.041
333.3127, 1929.989
333.7948, 1929.881
334.2769, 1929.169
334.7590, 1929.603
335.2411, 1932.027
335.7233, 1933.710
336.2054, 1933.860
336.6875, 1932.619
337.1696, 1931.956
337.6517, 1931.810
338.1339, 1932.428
338.6160, 1934.214
339.0981, 1937.460
339.5802, 1940.470
340.0623, 1942.780
340.5444, 1944.776
341.0266, 1948.104
341.5087, 1953.279
341.9908, 1957.403
342.4729, 1957.985
342.9550, 1955.018
343.4371, 1953.138
343.9193, 1952.780
344.4014, 1953.484
344.8835, 1954.770
345.3656, 1956.632
345.8477, 1958.234
346.3298, 1959.098
346.8120, 1959.373
347.2941, 1959.430
347.7762, 1959.198
348.2583, 1959.355
348.7404, 1961.310
349.2225, 1964.577
349.7047, 1967.000
350.1868, 1967.035
350.6689, 1966.035
351.1510, 1966.574
351.6331, 1968.613
352.1152, 1970.733
352.5974, 1970.620
353.0795, 1969.868
353.5616, 1971.832
354.0437, 1979.614
354.5258, 1987.635
355.0079, 1989.861
355.4901, 1987.178
355.9722, 1983.637
356.4543, 1980.977
356.9364, 1979.105
357.4185, 1977.948
357.9006, 1977.615
358.3828, 1977.711
358.8649, 1978.274
359.3470, 1979.088
359.8291, 1979.712
360.3112, 1979.588
360.7933, 1979.487
361.2755, 1979.947
361.7576, 1981.098
362.2397, 1982.128
362.7218, 1982.455
363.2039, 1982.576
363.6860, 1983.051
364.1682, 1984.065
364.6503, 1985.409
365.1324, 1987.145
365.6145, 1989.260
366.0966, 1991.198
366.5787, 1993.256
367.0609, 1994.878
367.5430, 1995.710
368.0251, 1994.422
368.5072, 1993.906
368.9893, 1994.614
369.4714, 1996.281
369.9536, 1998.067
370.4357, 2000.371
370.9178, 2002.395
371.3999, 2003.844
371.8820, 2004.785
372.3641, 2004.935
372.8463, 2003.730
373.3284, 2002.092
373.8105, 2001.498
374.2926, 2002.344
374.7747, 2003.288
375.2568, 2003.696
375.7390, 2003.543
376.2211, 2005.011
376.7032, 2008.631
377.1853, 2012.745
377.6674, 2016.009
378.1495, 2018.431
378.6317, 2019.862
379.1138, 2020.133
379.5959, 2019.503
380.0780, 2018.531
380.5601, 2017.170
381.0422, 2016.186
381.5244, 2016.458
382.0065, 2017.726
382.4886, 2018.340
382.9707, 2018.016
383.4528, 2017.467
383.9349, 2017.748
384.4171, 2018.757
384.8992, 2019.861
385.3813, 2020.799
385.8634, 2021.630
386.3455, 2022.280
386.8276, 2022.708
387.3098, 2023.570
387.7919, 2025.691
388.2740, 2028.595
388.7561, 2031.450
389.2382, 2034.223
389.7203, 2036.573
390.2025, 2037.883
390.6846, 2038.336
391.1667, 2038.904
391.6488, 2040.626
392.1309, 2042.391
392.6130, 2043.186
393.0952, 2042.417
393.5773, 2041.536
394.0594, 2040.783
394.5415, 2040.393
395.0236, 2040.791
395.5057, 2043.763
395.9879, 2046.147
396.4700, 2046.249
396.9521, 2043.493
397.4342, 2041.638
397.9163, 2041.807
398.3984, 2042.891
398.8806, 2043.876
399.3627, 2044.939
399.8448, 2045.603
400.3269, 2045.323
400.8090, 2044.354
401.2911, 2044.739
401.7733, 2047.627
402.2554, 2050.498
402.7375, 2051.969
403.2196, 2051.355
403.7017, 2051.014
404.1838, 2050.859
404.6660, 2051.093
405.1481, 2052.392
405.6302, 2055.244
406.1123, 2057.380
406.5944, 2057.647
407.0765, 2056.170
407.5587, 2055.738
408.0408, 2056.468
408.5229, 2057.717
409.0050, 2058.827
409.4871, 2059.805
409.9692, 2061.034
410.4514, 2062.715
410.9335, 2064.521
411.4156, 2065.617
411.8977, 2066.059
412.3798, 2066.724
412.8619, 2068.986
413.3441, 2071.735
413.8262, 2072.531
414.3083, 2070.806
414.7904, 2068.676
415.2725, 2067.872
415.7546, 2068.210
416.2368, 2069.280
416.7189, 2072.278
417.2010, 2074.964
417.6831, 2074.936
418.1652, 2072.359
418.6473, 2070.399
419.1295, 2071.470
419.6116, 2073.585
420.0937, 2074.944
420.5758, 2074.564
421.0579, 2074.186
421.5400, 2074.008
422.0222, 2074.240
422.5043, 2075.391
422.9864, 2079.186
423.4685, 2082.549
423.9506, 2084.083
424.4327, 2082.917
424.9149, 2082.654
425.3970, 2084.688
425.8791, 2086.995
426.3612, 2087.405
426.8433, 2083.593
427.3254, 2081.610
427.8076, 2082.980
428.2897, 2087.124
428.7718, 2089.912
429.2539, 2090.938
429.7360, 2091.289
430.2181, 2091.615
430.7003, 2091.991
431.1824, 2091.524
431.6645, 2089.773
432.1466, 2087.852
432.6287, 2088.026
433.1108, 2090.355
433.5930, 2092.396
434.0751, 2092.911
434.5572, 2092.511
435.0393, 2093.431
435.5214, 2095.727
436.0035, 2097.944
436.4857, 2098.411
436.9678, 2097.804
437.4499, 2097.800
437.9320, 2098.930
438.4141, 2100.433
438.8962, 2101.418
439.3784, 2102.058
439.8605, 2102.880
440.3426, 2103.974
440.8247, 2105.460
441.3068, 2107.885
441.7889, 2111.406
442.2711, 2113.946
442.7532, 2113.341
443.2353, 2111.651
443.7174, 2111.017
444.1995, 2113.276
444.6816, 2115.352
445.1638, 2116.339
445.6459, 2116.402
446.1280, 2116.393
446.6101, 2116.455
447.0922, 2116.456
447.5743, 2116.239
448.0565, 2115.393
448.5386, 2115.422
449.0207, 2117.158
449.5028, 2119.252
449.9849, 2119.791
450.4670, 2117.872
450.9492, 2116.511
451.4313, 2116.606
451.9134, 2117.911
452.3955, 2118.402
452.8776, 2117.829
453.3597, 2117.381
453.8419, 2118.202
454.3240, 2120.247
454.8061, 2121.299
455.2882, 2120.943
455.7703, 2120.125
456.2524, 2120.146
456.7346, 2120.955
457.2167, 2122.254
457.6988, 2124.563
458.1809, 2126.978
458.6630, 2127.595
459.1451, 2126.502
459.6273, 2125.505
460.1094, 2126.187
460.5915, 2127.689
461.0736, 2128.993
461.5557, 2130.054
462.0378, 2130.515
462.5200, 2129.278
463.0021, 2127.351
463.4842, 2126.715
463.9663, 2129.912
464.4484, 2133.080
464.9305, 2134.110
465.4127, 2132.783
465.8948, 2131.799
466.3769, 2132.359
466.8590, 2133.090
467.3411, 2132.990
467.8232, 2130.025
468.3054, 2128.865
468.7875, 2130.331
469.2696, 2133.554
469.7517, 2136.508
470.2338, 2139.227
470.7159, 2141.523
471.1981, 2143.224
471.6802, 2144.295
472.1623, 2145.472
472.6444, 2146.732
473.1265, 2148.090
473.6086, 2149.639
474.0908, 2151.363
474.5729, 2152.685
475.0550, 2153.228
475.5371, 2153.706
476.0192, 2156.121
476.5013, 2160.119
476.9835, 2163.004
477.4656, 2162.432
477.9477, 2160.095
478.4298, 2158.420
478.9119, 2157.495
479.3940, 2157.656
479.8762, 2160.758
480.3583, 2164.603
480.8404, 2166.170
481.3225, 2162.956
481.8046, 2159.590
482.2867, 2158.707
482.7689, 2159.576
483.2510, 2160.273
483.7331, 2160.047
484.2152, 2159.698
484.6973, 2159.614
485.1794, 2159.906
485.6616, 2160.146
486.1437, 2160.299
486.6258, 2160.389
487.1079, 2160.352
487.5900, 2159.449
488.0721, 2159.772
488.5543, 2162.128
489.0364, 2165.580
489.5185, 2167.234
490.0006, 2166.429
490.4827, 2165.739
490.9648, 2166.487
491.4470, 2168.555
491.9291, 2169.691
492.4112, 2169.753
492.8933, 2169.542
493.3754, 2169.938
493.8575, 2170.814
494.3397, 2171.545
494.8218, 2172.038
495.3039, 2172.323
495.7860, 2171.965
496.2681, 2171.328
496.7502, 2171.597
497.2324, 2175.116
497.7145, 2178.775
498.1966, 2178.685
498.6787, 2174.634
499.1608, 2172.100
499.6429, 2175.672
500.1251, 2181.110
500.6072, 2184.699
501.0893, 2184.130
501.5714, 2183.549
502.0535, 2184.143
502.5356, 2185.310
503.0178, 2185.692
503.4999, 2184.340
503.9820, 2183.141
504.4641, 2182.664
504.9462, 2182.964
505.4283, 2183.083
505.9105, 2182.940
506.3926, 2182.826
506.8747, 2182.885
507.3568, 2183.082
507.8389, 2184.001
508.3210, 2185.970
508.8032, 2188.202
509.2853, 2189.101
509.7674, 2188.739
510.2495, 2188.544
510.7316, 2189.278
511.2137, 2190.446
511.6959, 2190.899
512.1780, 2190.660
512.6601, 2190.423
513.1422, 2190.925
513.6243, 2191.611
514.1064, 2191.673
514.5886, 2190.777
515.0707, 2189.996
515.5528, 2190.055
516.0349, 2190.675
516.5170, 2191.448
516.9991, 2192.867
517.4813, 2193.861
517.9634, 2192.903
518.4455, 2190.577
518.9276, 2191.445
519.4097, 2200.687
519.8918, 2209.150
520.3740, 2212.742
520.8561, 2209.513
521.3382, 2207.970
521.8203, 2209.147
522.3024, 2210.729
522.7845, 2209.397
523.2667, 2204.208
523.7488, 2201.390
524.2309, 2202.876
524.7130, 2206.806
525.1951, 2208.609
525.6772, 2208.323
526.1594, 2207.500
526.6415, 2206.781
527.1236, 2206.228
527.6057, 2206.115
528.0878, 2206.480
528.5699, 2206.774
529.0521, 2206.172
529.5342, 2205.382
530.0163, 2205.410
530.4984, 2206.965
530.9805, 2208.590
531.4626, 2209.022
531.9448, 2208.981
532.4269, 2209.860
532.9090, 2213.095
533.3911, 2216.265
533.8732, 2218.406
534.3553, 2219.399
534.8375, 2220.749
535.3196, 2222.873
535.8017, 2224.882
536.2838, 2226.402
536.7659, 2227.785
537.2480, 2227.222
537.7302, 2223.539
538.2123, 2219.464
538.6944, 2219.929
539.1765, 2225.383
539.6586, 2229.019
540.1407, 2228.340
540.6229, 2225.291
541.1050, 2224.590
541.5871, 2226.052
542.0692, 2227.526
542.5513, 2227.948
543.0334, 2227.496
543.5156, 2226.008
543.9977, 2223.442
544.4798, 2221.503
544.9619, 2221.761
545.4440, 2223.155
545.9261, 2224.543
546.4083, 2225.740
546.8904, 2226.638
547.3725, 2226.516
547.8546, 2226.033
548.3367, 2226.634
548.8188, 2229.610
549.3010, 2232.470
549.7831, 2234.591
550.2652, 2235.968
550.7473, 2237.250
551.2294, 2238.665
551.7115, 2239.614
552.1937, 2239.615
552.6758, 2238.578
553.1579, 2237.740
553.6400, 2237.216
554.1221, 2236.864
554.6042, 2236.469
555.0864, 2236.071
555.5685, 2235.798
556.0506, 2235.515
556.5327, 2235.587
557.0148, 2236.907
557.4969, 2239.118
557.9791, 2240.933
558.4612, 2241.297
558.9433, 2241.117
559.4254, 2241.102
559.9075, 2241.292
560.3896, 2241.339
560.8718, 2240.667
561.3539, 2240.059
561.8360, 2240.121
562.3181, 2241.469
562.8002, 2242.755
563.2823, 2243.874
563.7645, 2244.962
564.2466, 2246.384
564.7287, 2248.900
565.2108, 2250.013
565.6929, 2248.605
566.1750, 2245.442
566.6572, 2244.009
567.1393, 2244.485
567.6214, 2245.388
568.1035, 2245.785
568.5856, 2245.843
569.0677, 2246.352
569.5499, 2247.336
570.0320, 2248.363
570.5141, 2248.958
570.9962, 2249.315
571.4783, 2249.809
571.9604, 2250.745
572.4426, 2251.390
572.9247, 2250.868
573.4068, 2249.805
573.8889, 2249.309
574.3710, 2249.896
574.8531, 2251.010
575.3353, 2252.918
575.8174, 2255.504
576.2995, 2257.194
576.7816, 2257.932
577.2637, 2257.797
577.7458, 2256.347
578.2280, 2252.898
578.7101, 2252.126
579.1922, 2254.778
579.6743, 2258.446
580.1564, 2260.721
580.6385, 2261.644
581.1207, 2261.993
581.6028, 2261.616
582.0849, 2261.343
582.5670, 2262.988
583.0491, 2265.890
583.5313, 2268.000
584.0134, 2267.436
584.4955, 2266.266
584.9776, 2266.077
585.4597, 2266.875
585.9418, 2268.608
586.4240, 2273.360
586.9061, 2277.397
587.3882, 2277.918
587.8703, 2273.180
588.3524, 2270.561
588.8345, 2272.867
589.3167, 2276.353
589.7988, 2278.014
590.2809, 2276.545
590.7630, 2276.351
591.2451, 2278.223
591.7272, 2281.043
592.2094, 2282.685
592.6915, 2283.082
593.1736, 2283.287
593.6557, 2283.729
594.1378, 2284.177
594.6199, 2283.848
595.1021, 2282.860
595.5842, 2282.114
596.0663, 2282.199
596.5484, 2282.848
597.0305, 2283.863
597.5126, 2285.237
597.9948, 2286.591
598.4769, 2288.350
598.9590, 2289.624
599.4411, 2289.495
599.9232, 2285.871
600.4053, 2284.007
600.8875, 2286.109
601.3696, 2289.927
601.8517, 2292.361
602.3338, 2292.803
602.8159, 2293.040
603.2980, 2293.410
603.7802, 2293.808
604.2623, 2293.592
604.7444, 2292.596
605.2265, 2292.309
605.7086, 2293.460
606.1907, 2295.910
606.6729, 2299.906
607.1550, 2305.364
607.6371, 2309.901
608.1192, 2311.405
608.6013, 2310.861
609.0834, 2309.282
609.5656, 2306.586
610.0477, 2303.943
610.5298, 2301.687
611.0119, 2300.000
611.4940, 2299.075
611.9761, 2299.475
612.4583, 2300.149
612.9404, 2301.414
613.4225, 2302.863
613.9046, 2303.500
614.3867, 2302.923
614.8688, 2302.354
615.3510, 2301.718
615.8331, 2301.317
616.3152, 2303.698
616.7973, 2309.124
617.2794, 2314.221
617.7615, 2316.311
618.2437, 2316.210
618.7258, 2316.148
619.2079, 2316.177
619.6900, 2316.507
620.1721, 2317.599
620.6542, 2318.952
621.1364, 2319.984
621.6185, 2320.653
622.1006, 2320.823
622.5827, 2320.169
623.0648, 2319.128
623.5469, 2318.302
624.0291, 2318.219
624.5112, 2317.974
624.9933, 2317.307
625.4754, 2316.481
625.9575, 2316.418
626.4396, 2317.521
626.9218, 2318.307
627.4039, 2317.837
627.8860, 2316.518
628.3681, 2317.087
628.8502, 2319.598
629.3323, 2322.320
629.8145, 2324.101
630.2966, 2325.114
630.7787, 2325.569
631.2608, 2325.421
631.7429, 2325.309
632.2250, 2325.774
632.7072, 2326.464
633.1893, 2326.961
633.6714, 2326.745
634.1535, 2326.978
634.6356, 2328.230
635.1177, 2330.023
635.5999, 2331.633
636.0820, 2333.025
636.5641, 2334.292
637.0462, 2335.653
637.5283, 2336.848
638.0104, 2336.737
638.4926, 2335.062
638.9747, 2333.842
639.4568, 2334.533
639.9389, 2336.322
640.4210, 2336.188
640.9031, 2334.251
641.3853, 2332.165
641.8674, 2330.548
642.3495, 2329.772
642.8316, 2330.863
643.3137, 2334.198
643.7958, 2336.582
644.2780, 2335.388
644.7601, 2333.091
645.2422, 2331.866
645.7243, 2332.854
646.2064, 2333.678
646.6885, 2333.906
647.1707, 2334.035
647.6528, 2334.952
648.1349, 2337.284
648.6170, 2338.060
649.0991, 2335.941
649.5812, 2332.739
650.0634, 2333.042
650.5455, 2336.640
651.0276, 2340.395
651.5097, 2342.761
651.9918, 2344.528
652.4739, 2347.361
652.9561, 2350.905
653.4382, 2353.460
653.9203, 2352.586
654.4024, 2351.420
654.8845, 2352.639
655.3666, 2356.797
655.8488, 2359.497
656.3309, 2358.864
656.8130, 2357.136
657.2951, 2355.571
657.7772, 2353.936
658.2593, 2353.217
658.7415, 2353.774
659.2236, 2354.675
659.7057, 2354.707
660.1878, 2353.896
660.6699, 2353.544
661.1520, 2353.976
661.6342, 2354.728
662.1163, 2355.207
662.5984, 2355.476
663.0805, 2355.695
663.5626, 2355.676
664.0447, 2355.867
664.5269, 2356.781
665.0090, 2358.167
665.4911, 2359.330
665.9732, 2359.971
666.4553, 2360.449
666.9374, 2360.974
667.4196, 2361.547
667.9017, 2361.644
668.3838, 2360.864
668.8659, 2360.455
669.3480, 2361.438
669.8301, 2363.788
670.3123, 2364.457
670.7944, 2363.278
671.2765, 2361.733
671.7586, 2360.596
672.2407, 2360.123
672.7228, 2361.238
673.2050, 2364.313
673.6871, 2367.205
674.1692, 2367.684
674.6513, 2367.311
675.1334, 2368.009
675.6155, 2372.048
676.0977, 2374.427
676.5798, 2371.902
677.0619, 2367.724
677.5440, 2366.980
678.0261, 2372.010
678.5082, 2375.514
678.9904, 2375.871
679.4725, 2374.277
679.9546, 2373.741
680.4367, 2374.304
680.9188, 2375.154
681.4009, 2376.251
681.8831, 2377.262
682.3652, 2376.866
682.8473, 2375.527
683.3294, 2375.511
683.8115, 2380.532
684.2936, 2385.536
684.7758, 2386.105
685.2579, 2382.001
685.7400, 2379.174
686.2221, 2380.169
686.7042, 2381.996
687.1863, 2382.892
687.6685, 2382.207
688.1506, 2383.590
688.6327, 2387.780
689.1148, 2392.519
689.5969, 2395.979
690.0790, 2398.181
690.5612, 2398.996
691.0433, 2398.079
691.5254, 2397.269
692.0075, 2399.664
692.4896, 2403.490
692.9717, 2405.271
693.4539, 2402.936
693.9360, 2400.574
694.4181, 2401.006
694.9002, 2402.832
695.3823, 2403.884
695.8644, 2402.518
696.3466, 2401.902
696.8287, 2403.025
697.3108, 2405.133
697.7929, 2406.120
698.2750, 2405.792
698.7571, 2405.320
699.2393, 2405.062
699.7214, 2404.996
700.2035, 2404.819
700.6856, 2404.609
701.1677, 2405.003
701.6498, 2407.194
702.1320, 2409.654
702.6141, 2410.088
703.0962, 2408.740
703.5783, 2408.304
704.0604, 2410.586
704.5425, 2413.592
705.0247, 2416.113
705.5068, 2417.861
705.9889, 2420.082
706.4710, 2422.852
706.9531, 2425.950
707.4352, 2429.669
707.9174, 2434.250
708.3995, 2436.277
708.8816, 2435.336
709.3637, 2433.672
709.8458, 2433.509
710.3279, 2434.484
710.8101, 2435.683
711.2922, 2436.973
711.7743, 2438.502
712.2564, 2440.629
712.7385, 2443.022
713.2206, 2445.287
713.7028, 2447.277
714.1849, 2449.217
714.6670, 2451.015
715.1491, 2452.835
715.6312, 2454.986
716.1133, 2457.719
716.5955, 2459.966
717.0776, 2461.369
717.5597, 2462.331
718.0418, 2463.678
718.5239, 2465.364
719.0060, 2467.021
719.4882, 2468.359
719.9703, 2469.668
720.4524, 2471.546
720.9345, 2473.701
721.4166, 2475.387
721.8987, 2475.606
722.3809, 2475.843
722.8630, 2477.245
723.3451, 2479.556
723.8272, 2480.439
724.3093, 2479.220
724.7914, 2477.514
725.2736, 2475.896
725.7557, 2474.362
726.2378, 2472.315
