##NAMES=Nitrobarite
##RRUFFID=R060622
##IDEAL CHEMISTRY=Ba(N^5+^O_3_)_2_
##LOCALITY=Hüttenberg, Kärnten, Austria
##OWNER=RRUFF
##SOURCE=Michael Scott
##DESCRIPTION=Colorless distorted octahedra
##STATUS=The identification of this mineral has been confirmed by single-crystal X-ray diffraction.
##URL=rruff.info/R060622
91.632, 115.220
92.114, 122.489
92.596, 125.407
93.078, 123.820
93.560, 120.486
94.042, 117.373
94.525, 114.628
95.007, 113.193
95.489, 113.918
95.971, 116.425
96.453, 119.487
96.935, 123.597
97.417, 127.283
97.899, 127.263
98.381, 123.082
98.864, 118.290
99.346, 115.267
99.828, 114.195
100.310, 112.713
100.792, 109.537
101.274, 105.396
101.756, 105.787
102.238, 111.464
102.720, 120.491
103.203, 131.121
103.685, 143.371
104.167, 156.985
104.649, 171.587
105.131, 186.975
105.613, 204.332
106.095, 221.208
106.577, 240.913
107.060, 270.407
107.542, 315.433
108.024, 364.970
108.506, 415.160
108.988, 460.856
109.470, 512.903
109.952, 570.330
110.434, 633.419
110.916, 704.701
111.399, 782.226
111.881, 868.647
112.363, 966.743
112.845, 1078.339
113.327, 1199.450
113.809, 1326.667
114.291, 1459.862
114.773, 1609.798
115.256, 1771.079
115.738, 1950.747
116.220, 2159.833
116.702, 2407.482
117.184, 2680.101
117.666, 2968.971
118.148, 3266.343
118.630, 3594.546
119.113, 3967.033
119.595, 4376.618
120.077, 4798.828
120.559, 5212.926
121.041, 5636.574
121.523, 6087.783
122.005, 6583.017
122.487, 7098.871
122.969, 7619.116
123.451, 8142.387
123.934, 8656.500
124.416, 9152.686
124.898, 9628.409
125.380, 10080.790
125.862, 10520.960
126.344, 10929.690
126.826, 11268.770
127.308, 11527.930
127.791, 11751.310
128.273, 11954.190
128.755, 12148.640
129.237, 12393.300
129.719, 12741.050
130.201, 13168.880
130.683, 13609.300
131.165, 14061.120
131.648, 14504.980
132.130, 14935.910
132.612, 15356.770
133.094, 15692.140
133.576, 15840.350
134.058, 15809.260
134.540, 15797.550
135.022, 15842.400
135.504, 15941.790
135.986, 16069.390
136.469, 16214.850
136.951, 16422.539
137.433, 16756.869
137.915, 17237.141
138.397, 17747.760
138.879, 18284.600
139.361, 18870.100
139.844, 19305.029
140.326, 19627.301
140.808, 19765.381
141.290, 19568.580
141.772, 18988.820
142.254, 18175.660
142.736, 17177.891
143.218, 15908.850
143.700, 14633.360
144.182, 13299.660
144.665, 11954.240
145.147, 10740.750
145.629, 9684.095
146.111, 8743.838
146.593, 7910.680
147.075, 7200.090
147.557, 6561.049
148.040, 5990.478
148.522, 5488.692
149.004, 5051.786
149.486, 4696.320
149.968, 4394.375
150.450, 4119.533
150.932, 3871.981
151.414, 3647.784
151.896, 3452.281
152.378, 3288.024
152.861, 3132.096
153.343, 2985.194
153.825, 2845.276
154.307, 2711.831
154.789, 2582.940
155.271, 2462.497
155.753, 2349.791
156.235, 2244.848
156.718, 2151.441
157.200, 2072.333
157.682, 2005.052
158.164, 1945.304
158.646, 1896.311
159.128, 1851.581
159.610, 1807.161
160.092, 1765.288
160.574, 1720.689
161.057, 1666.597
161.539, 1604.976
162.021, 1553.212
162.503, 1528.146
162.985, 1512.077
163.467, 1488.557
163.949, 1443.057
164.431, 1396.076
164.913, 1358.336
165.396, 1330.532
165.878, 1303.354
166.360, 1266.938
166.842, 1228.935
167.324, 1200.300
167.806, 1194.213
168.288, 1194.206
168.770, 1187.585
169.253, 1172.189
169.735, 1155.047
170.217, 1143.921
170.699, 1135.138
171.181, 1120.132
171.663, 1081.515
172.145, 1039.614
172.627, 1017.554
173.109, 1025.240
173.592, 1040.948
174.074, 1049.087
174.556, 1049.338
175.038, 1040.690
175.520, 1013.750
176.002, 978.485
176.484, 952.825
176.966, 944.078
177.449, 942.912
177.931, 939.089
178.413, 932.646
178.895, 924.150
179.377, 912.974
179.859, 899.990
180.341, 887.578
180.823, 874.865
181.305, 863.817
181.788, 859.816
182.270, 863.230
182.752, 867.722
183.234, 866.644
183.716, 860.834
184.198, 854.105
184.680, 847.514
185.162, 841.222
185.645, 835.554
186.127, 830.758
186.609, 825.770
187.091, 820.201
187.573, 813.869
188.055, 804.462
188.537, 786.683
189.019, 763.424
189.501, 750.626
189.984, 752.067
190.466, 759.043
190.948, 755.330
191.430, 740.638
191.912, 724.825
192.394, 714.441
192.876, 709.107
193.358, 703.103
193.840, 695.144
194.323, 686.742
194.805, 683.205
195.287, 685.608
195.769, 685.872
196.251, 674.421
196.733, 650.995
197.215, 634.773
197.697, 630.674
198.180, 636.183
198.662, 642.258
199.144, 649.810
199.626, 654.672
200.108, 651.444
200.590, 638.985
201.072, 627.547
201.554, 619.326
202.036, 614.209
202.519, 611.938
203.001, 613.842
203.483, 615.658
203.965, 610.445
204.447, 595.869
204.929, 585.572
205.411, 585.664
205.893, 596.609
206.376, 602.881
206.858, 603.218
207.340, 600.610
207.822, 599.822
208.304, 601.657
208.786, 602.726
209.268, 602.218
209.750, 600.462
210.232, 594.261
210.715, 580.523
211.197, 565.087
211.679, 560.749
212.161, 571.465
212.643, 583.774
213.125, 591.848
213.607, 595.077
214.089, 596.718
214.572, 597.003
215.054, 595.677
215.536, 591.337
216.018, 581.873
216.500, 573.378
216.982, 569.687
217.464, 573.100
217.946, 574.363
218.428, 572.135
218.911, 567.302
219.393, 564.084
219.875, 563.824
220.357, 562.965
220.839, 558.341
221.321, 546.687
221.803, 539.967
222.285, 541.401
222.768, 549.561
223.250, 553.025
223.732, 550.342
224.214, 544.982
224.696, 539.993
225.178, 537.928
225.660, 530.131
226.142, 511.311
226.624, 482.230
227.107, 468.589
227.589, 477.803
228.071, 494.058
228.553, 503.453
229.035, 504.655
229.517, 501.487
229.999, 493.443
230.481, 480.184
230.964, 468.729
231.446, 459.210
231.928, 451.361
232.410, 444.975
232.892, 439.804
233.374, 436.591
233.856, 435.945
234.338, 438.177
234.820, 440.482
235.303, 444.257
235.785, 447.034
236.267, 445.451
236.749, 437.137
237.231, 428.546
237.713, 421.374
238.195, 415.967
238.677, 410.080
239.160, 403.225
239.642, 396.220
240.124, 390.669
240.606, 388.968
241.088, 384.637
241.570, 373.881
242.052, 352.609
242.534, 341.574
243.016, 345.287
243.499, 356.776
243.981, 364.697
244.463, 369.998
244.945, 370.075
245.427, 362.061
245.909, 340.724
246.391, 328.748
246.873, 330.354
247.355, 339.441
247.838, 343.153
248.320, 337.045
248.802, 332.827
249.284, 336.506
249.766, 354.437
250.248, 361.752
250.730, 352.939
251.212, 335.692
251.695, 328.291
252.177, 336.034
252.659, 344.725
253.141, 348.185
253.623, 343.515
254.105, 341.098
254.587, 342.164
255.069, 345.052
255.551, 345.794
256.034, 345.100
256.516, 341.098
256.998, 331.203
257.480, 309.869
257.962, 298.155
258.444, 299.117
258.926, 309.040
259.408, 318.659
259.891, 330.736
260.373, 337.241
260.855, 332.138
261.337, 309.618
261.819, 292.784
262.301, 283.254
262.783, 279.797
263.265, 279.972
263.747, 286.423
264.229, 291.149
264.712, 288.267
265.194, 273.939
265.676, 266.312
266.158, 269.400
266.640, 278.819
267.122, 279.797
267.604, 268.677
268.086, 257.919
268.569, 256.124
269.051, 266.356
269.533, 272.377
270.015, 272.766
270.497, 268.293
270.979, 259.613
271.461, 244.297
271.943, 231.812
272.426, 230.570
272.908, 243.577
273.390, 248.564
273.872, 240.391
274.354, 224.760
274.836, 219.359
275.318, 226.885
275.800, 234.712
276.282, 233.674
276.765, 222.634
277.247, 213.784
277.729, 208.342
278.211, 205.747
278.693, 204.959
279.175, 206.302
279.657, 207.852
280.139, 207.617
280.621, 205.460
281.104, 206.969
281.586, 215.152
282.068, 224.940
282.550, 221.735
283.032, 203.958
283.514, 186.452
283.996, 180.645
284.478, 185.860
284.961, 187.398
285.443, 182.084
285.925, 174.163
286.407, 175.097
286.889, 185.339
287.371, 193.472
287.853, 188.430
288.335, 172.604
288.818, 164.989
289.300, 170.239
289.782, 180.967
290.264, 182.825
290.746, 176.089
291.228, 168.134
291.710, 164.644
292.192, 164.197
292.674, 159.830
293.156, 148.876
293.639, 137.340
294.121, 137.460
294.603, 147.906
295.085, 157.024
295.567, 154.117
296.049, 144.195
296.531, 141.208
297.013, 148.312
297.496, 159.111
297.978, 167.244
298.460, 172.329
298.942, 172.525
299.424, 160.916
299.906, 144.639
300.388, 137.881
300.870, 144.214
301.353, 154.673
301.835, 161.918
302.317, 165.458
302.799, 164.128
303.281, 151.869
303.763, 136.061
304.245, 127.911
304.727, 130.001
305.209, 134.304
305.691, 132.036
306.174, 125.958
306.656, 122.947
307.138, 130.485
307.620, 140.838
308.102, 145.731
308.584, 143.648
309.066, 139.883
309.548, 138.728
310.031, 138.669
310.513, 136.756
310.995, 125.637
311.477, 115.977
311.959, 118.884
312.441, 137.598
312.923, 152.823
313.405, 151.403
313.888, 139.604
314.370, 127.116
314.852, 113.134
315.334, 102.796
315.816, 100.267
316.298, 106.548
316.780, 113.276
317.262, 119.995
317.744, 124.361
318.227, 123.400
318.709, 110.466
319.191, 97.214
319.673, 87.473
320.155, 81.466
320.637, 79.031
321.119, 82.406
321.601, 88.377
322.083, 93.883
322.566, 101.642
323.048, 105.459
323.530, 100.923
324.012, 87.693
324.494, 79.844
324.976, 82.053
325.458, 88.937
325.940, 96.337
326.422, 109.145
326.905, 116.611
327.387, 115.184
327.869, 105.155
328.351, 96.961
328.833, 90.689
329.315, 86.205
329.797, 83.480
330.280, 83.597
330.762, 83.993
331.244, 84.665
331.726, 85.535
332.208, 86.086
332.690, 86.052
333.172, 86.003
333.654, 86.225
334.136, 86.658
334.618, 87.620
335.101, 89.741
335.583, 92.308
336.065, 92.813
336.547, 90.662
337.029, 87.651
337.511, 84.013
337.993, 78.676
338.475, 77.903
338.958, 84.150
339.440, 93.026
339.922, 93.445
340.404, 83.052
340.886, 74.266
341.368, 75.267
341.850, 86.608
342.332, 89.547
342.815, 81.201
343.297, 69.676
343.779, 69.975
344.261, 82.423
344.743, 91.498
345.225, 86.245
345.707, 70.402
346.189, 67.225
346.671, 78.768
347.154, 93.450
347.636, 97.343
348.118, 91.986
348.600, 86.461
349.082, 85.273
349.564, 85.935
350.046, 81.615
350.528, 72.109
351.010, 63.800
351.493, 64.898
351.975, 71.646
352.457, 75.388
352.939, 71.198
353.421, 64.267
353.903, 60.678
354.385, 60.173
354.867, 60.475
355.349, 59.400
355.832, 58.365
356.314, 59.391
356.796, 64.330
357.278, 69.671
357.760, 73.932
358.242, 76.732
358.724, 76.904
359.207, 69.485
359.689, 61.626
360.171, 59.622
360.653, 67.521
361.135, 75.626
361.617, 81.984
362.099, 85.518
362.581, 83.746
363.063, 68.667
363.546, 53.680
364.028, 46.372
364.510, 50.943
364.992, 53.089
365.474, 45.027
365.956, 33.748
366.438, 29.644
366.920, 41.561
367.402, 53.660
367.885, 62.731
368.367, 69.245
368.849, 69.739
369.331, 59.028
369.813, 45.035
370.295, 35.360
370.777, 30.504
371.259, 29.547
371.741, 33.989
372.224, 43.683
372.706, 49.578
373.188, 49.722
373.670, 48.403
374.152, 49.407
374.634, 54.556
375.116, 56.286
375.598, 52.448
376.081, 44.768
376.563, 39.553
377.045, 36.834
377.527, 36.501
378.009, 40.305
378.491, 48.636
378.973, 50.852
379.455, 44.104
379.938, 34.049
380.420, 33.098
380.902, 41.375
381.384, 48.267
381.866, 46.883
382.348, 39.241
382.830, 33.100
383.312, 28.196
383.794, 27.492
384.276, 39.979
384.759, 61.440
385.241, 75.417
385.723, 68.443
386.205, 52.178
386.687, 45.049
387.169, 46.994
387.651, 50.512
388.134, 49.277
388.616, 45.673
389.098, 43.381
389.580, 44.504
390.062, 46.503
390.544, 47.836
391.026, 48.476
391.508, 48.170
391.990, 44.721
392.473, 41.427
392.955, 41.254
393.437, 47.018
393.919, 52.182
394.401, 53.865
394.883, 53.045
395.365, 51.886
395.847, 47.254
396.329, 45.449
396.812, 51.479
397.294, 71.870
397.776, 82.354
398.258, 70.253
398.740, 49.273
399.222, 37.783
399.704, 46.085
400.186, 53.039
400.668, 53.926
401.151, 48.168
401.633, 43.859
402.115, 40.930
402.597, 39.523
403.079, 40.253
403.561, 44.977
404.043, 46.837
404.525, 42.909
405.008, 35.512
405.490, 36.637
405.972, 49.467
406.454, 61.459
406.936, 63.033
407.418, 53.500
407.900, 48.869
408.382, 51.651
408.865, 57.353
409.347, 57.610
409.829, 52.563
410.311, 47.193
410.793, 43.399
411.275, 41.201
411.757, 41.873
412.239, 45.898
412.721, 48.923
413.203, 44.076
413.686, 34.381
414.168, 27.812
414.650, 29.876
415.132, 34.640
415.614, 35.464
416.096, 32.701
416.578, 29.447
417.060, 27.016
417.543, 25.480
418.025, 25.203
418.507, 27.483
418.989, 28.972
419.471, 26.183
419.953, 21.128
420.435, 18.947
420.917, 23.846
421.400, 30.344
421.882, 36.453
422.364, 43.175
422.846, 45.457
423.328, 38.980
423.810, 28.631
424.292, 20.845
424.774, 12.959
425.256, 11.102
425.738, 19.135
426.221, 37.538
426.703, 49.910
427.185, 54.075
427.667, 54.541
428.149, 54.577
428.631, 54.694
429.113, 52.516
429.595, 45.654
430.078, 37.120
430.560, 38.368
431.042, 52.053
431.524, 64.444
432.006, 66.785
432.488, 59.288
432.970, 52.959
433.452, 47.733
433.935, 45.006
434.417, 48.834
434.899, 58.067
435.381, 65.051
435.863, 66.558
436.345, 63.740
436.827, 56.737
437.309, 45.705
437.791, 37.328
438.274, 39.554
438.756, 47.574
439.238, 54.135
439.720, 58.331
440.202, 58.970
440.684, 52.110
441.166, 40.304
441.648, 31.419
442.130, 30.211
442.613, 32.768
443.095, 37.757
443.577, 46.664
444.059, 51.841
444.541, 45.588
445.023, 35.820
445.505, 32.682
445.987, 47.749
446.470, 59.859
446.952, 62.289
447.434, 54.519
447.916, 50.545
448.398, 53.930
448.880, 57.884
449.362, 57.644
449.844, 49.872
450.327, 45.728
450.809, 48.919
451.291, 54.752
451.773, 48.504
452.255, 25.101
452.737, 6.619
453.219, 6.228
453.701, 23.988
454.183, 32.197
454.665, 29.600
455.148, 22.574
455.630, 16.229
456.112, 11.149
456.594, 12.175
457.076, 24.885
457.558, 41.436
458.040, 46.855
458.522, 42.070
459.005, 35.124
459.487, 30.829
459.969, 28.240
460.451, 25.837
460.933, 22.908
461.415, 21.437
461.897, 23.731
462.379, 28.443
462.862, 33.166
463.344, 38.254
463.826, 41.950
464.308, 42.743
464.790, 40.370
465.272, 38.323
465.754, 37.506
466.236, 37.409
466.718, 37.633
467.201, 40.672
467.683, 40.864
468.165, 34.860
468.647, 25.407
469.129, 22.703
469.611, 31.250
470.093, 40.090
470.575, 44.756
471.057, 44.674
471.540, 42.955
472.022, 38.635
472.504, 34.310
472.986, 34.862
473.468, 40.870
473.950, 42.961
474.432, 35.694
474.914, 24.119
475.397, 25.733
475.879, 40.403
476.361, 53.744
476.843, 49.883
477.325, 37.150
477.807, 36.679
478.289, 55.575
478.771, 73.836
479.254, 67.614
479.736, 45.971
480.218, 28.585
480.700, 27.001
481.182, 31.071
481.664, 34.516
482.146, 37.089
482.628, 39.976
483.110, 47.103
483.592, 52.794
484.075, 52.542
484.557, 34.457
485.039, 23.708
485.521, 28.209
486.003, 42.828
486.485, 52.983
486.967, 57.965
487.449, 59.359
487.931, 56.264
488.414, 47.310
488.896, 44.217
489.378, 49.917
489.860, 57.070
490.342, 57.208
490.824, 49.124
491.306, 44.131
491.789, 46.200
492.271, 51.062
492.753, 45.537
493.235, 29.649
493.717, 16.110
494.199, 13.858
494.681, 19.345
495.163, 25.297
495.645, 31.470
496.128, 35.548
496.610, 33.097
497.092, 27.219
497.574, 23.509
498.056, 24.413
498.538, 27.777
499.020, 34.090
499.502, 42.420
499.984, 47.949
500.467, 47.464
500.949, 44.580
501.431, 41.501
501.913, 38.844
502.395, 35.104
502.877, 26.303
503.359, 17.587
503.841, 16.422
504.323, 29.964
504.806, 40.177
505.288, 41.988
505.770, 36.514
506.252, 35.702
506.734, 41.429
507.216, 47.232
507.698, 48.844
508.181, 46.196
508.663, 40.173
509.145, 28.993
509.627, 19.099
510.109, 23.075
510.591, 38.465
511.073, 49.860
511.555, 48.075
512.037, 39.976
512.519, 35.419
513.002, 34.327
513.484, 35.460
513.966, 41.640
514.448, 47.904
514.930, 48.017
515.412, 37.411
515.894, 28.680
516.376, 29.687
516.859, 36.170
517.341, 40.933
517.823, 41.433
518.305, 40.708
518.787, 38.803
519.269, 35.611
519.751, 34.852
520.233, 38.607
520.716, 42.723
521.198, 44.240
521.680, 41.177
522.162, 41.809
522.644, 48.483
523.126, 56.732
523.608, 57.340
524.090, 49.429
524.572, 42.606
525.055, 40.556
525.537, 42.116
526.019, 44.329
526.501, 47.165
526.983, 48.326
527.465, 42.867
527.947, 35.085
528.429, 33.845
528.911, 42.830
529.394, 52.011
529.876, 52.618
530.358, 47.901
530.840, 43.747
531.322, 43.897
531.804, 43.943
532.286, 41.505
532.768, 36.688
533.250, 32.278
533.733, 29.191
534.215, 26.463
534.697, 23.292
535.179, 16.543
535.661, 15.422
536.143, 22.928
536.625, 34.054
537.107, 40.626
537.589, 41.783
538.072, 41.706
538.554, 41.248
539.036, 40.476
539.518, 39.131
540.000, 37.047
540.482, 36.632
540.964, 43.494
541.446, 53.447
541.929, 52.771
542.411, 38.173
542.893, 21.946
543.375, 15.314
543.857, 15.936
544.339, 19.644
544.821, 27.694
545.303, 35.666
545.786, 41.187
546.268, 44.475
546.750, 46.355
547.232, 48.095
547.714, 47.734
548.196, 42.837
548.678, 28.519
549.160, 23.231
549.643, 34.372
550.125, 49.733
550.607, 55.688
551.089, 46.629
551.571, 43.042
552.053, 51.588
552.535, 66.101
553.017, 64.181
553.499, 43.590
553.982, 25.999
554.464, 27.637
554.946, 42.226
555.428, 44.007
555.910, 31.590
556.392, 19.093
556.874, 21.151
557.356, 31.524
557.838, 39.618
558.321, 42.043
558.803, 42.431
559.285, 41.130
559.767, 39.689
560.249, 41.549
560.731, 53.391
561.213, 63.762
561.695, 67.156
562.177, 62.695
562.660, 59.558
563.142, 62.259
563.624, 63.048
564.106, 55.513
564.588, 32.313
565.070, 21.641
565.552, 28.257
566.034, 43.299
566.516, 52.033
566.999, 53.957
567.481, 57.043
567.963, 65.537
568.445, 75.978
568.927, 80.282
569.409, 78.619
569.891, 73.409
570.373, 61.989
570.856, 49.787
571.338, 45.521
571.820, 51.326
572.302, 57.477
572.784, 57.908
573.266, 55.363
573.748, 53.058
574.230, 52.893
574.713, 51.998
575.195, 49.922
575.677, 46.595
576.159, 41.541
576.641, 30.063
577.123, 23.084
577.605, 25.849
578.087, 39.364
578.570, 47.105
579.052, 47.935
579.534, 45.949
580.016, 42.923
580.498, 39.223
580.980, 42.679
581.462, 57.113
581.944, 71.487
582.426, 66.702
582.909, 48.115
583.391, 33.018
583.873, 32.399
584.355, 36.634
584.837, 37.951
585.319, 36.647
585.801, 34.647
586.283, 30.764
586.765, 27.974
587.248, 28.630
587.730, 34.512
588.212, 39.151
588.694, 42.260
589.176, 43.519
589.658, 42.110
590.140, 35.453
590.622, 31.765
591.104, 32.346
591.587, 36.347
592.069, 43.398
592.551, 54.375
593.033, 59.894
593.515, 51.147
593.997, 34.107
594.479, 28.566
594.961, 34.397
595.443, 42.617
595.926, 48.128
596.408, 51.030
596.890, 51.413
597.372, 49.314
597.854, 44.726
598.336, 31.327
598.818, 17.197
599.300, 13.749
599.783, 35.467
600.265, 55.058
600.747, 65.948
601.229, 69.697
601.711, 72.245
602.193, 74.785
602.675, 73.965
603.157, 65.844
603.640, 50.145
604.122, 48.123
604.604, 63.579
605.086, 77.907
605.568, 67.549
606.050, 39.545
606.532, 28.414
607.014, 43.401
607.497, 64.149
607.979, 69.724
608.461, 64.009
608.943, 55.360
609.425, 41.450
609.907, 30.830
610.389, 28.083
610.871, 32.739
611.353, 42.087
611.836, 67.658
612.318, 86.935
612.800, 85.945
613.282, 59.011
613.764, 45.759
614.246, 52.635
614.728, 65.022
615.210, 71.120
615.692, 70.489
616.175, 66.385
616.657, 57.681
617.139, 48.703
617.621, 46.650
618.103, 50.664
618.585, 56.651
619.067, 66.705
619.549, 74.662
620.031, 70.146
620.514, 56.077
620.996, 44.335
621.478, 41.995
621.960, 43.618
622.442, 46.867
622.924, 52.030
623.406, 54.676
623.888, 53.298
624.370, 49.528
624.853, 44.155
625.335, 35.131
625.817, 29.250
626.299, 27.766
626.781, 28.389
627.263, 27.484
627.745, 24.997
628.227, 21.969
628.710, 17.613
629.192, 13.941
629.674, 15.461
630.156, 21.715
630.638, 29.865
631.120, 42.683
631.602, 53.881
632.084, 55.171
632.567, 45.939
633.049, 38.630
633.531, 41.861
634.013, 47.188
634.495, 48.131
634.977, 39.413
635.459, 34.202
635.941, 33.749
636.424, 36.318
636.906, 40.519
637.388, 47.724
637.870, 51.271
638.352, 48.634
638.834, 42.762
639.316, 40.633
639.798, 42.129
640.280, 45.068
640.763, 49.145
641.245, 53.653
641.727, 57.847
642.209, 61.619
642.691, 63.901
643.173, 63.419
643.655, 61.595
644.137, 59.524
644.619, 57.358
645.102, 54.919
645.584, 49.060
646.066, 44.681
646.548, 47.082
647.030, 64.207
647.512, 71.321
647.994, 61.785
648.476, 45.212
648.958, 41.471
649.441, 51.417
649.923, 62.434
650.405, 71.000
650.887, 76.915
651.369, 79.313
651.851, 78.395
652.333, 75.706
652.815, 70.351
653.297, 64.799
653.780, 61.193
654.262, 59.679
654.744, 60.240
655.226, 64.179
655.708, 69.362
656.190, 74.498
656.672, 81.980
657.154, 84.860
657.636, 82.335
658.119, 75.893
658.601, 65.803
659.083, 50.660
659.565, 40.733
660.047, 38.933
660.529, 42.189
661.011, 45.836
661.494, 49.508
661.976, 50.890
662.458, 46.164
662.940, 40.352
663.422, 39.491
663.904, 42.909
664.386, 46.579
664.868, 49.040
