##NAMES=Nitrobarite
##RRUFFID=R060622
##IDEAL CHEMISTRY=Ba(N^5+^O_3_)_2_
##LOCALITY=Hüttenberg, Kärnten, Austria
##OWNER=RRUFF
##SOURCE=Michael Scott
##DESCRIPTION=Colorless distorted octahedra
##STATUS=The identification of this mineral has been confirmed by single-crystal X-ray diffraction.
##URL=rruff.info/R060622
99.27039, 8672.539
99.75250, 8955.696
100.2346, 9224.674
100.7167, 9534.872
101.1989, 9876.572
101.6810, 10149.29
102.1631, 10185.59
102.6452, 10203.43
103.1273, 10226.97
103.6094, 10270.23
104.0916, 10325.89
104.5737, 10369.35
105.0558, 10382.56
105.5379, 10408.27
106.0200, 10484.27
106.5021, 10596.66
106.9843, 10693.55
107.4664, 10713.55
107.9485, 10633.78
108.4306, 10600.69
108.9127, 10653.15
109.3948, 10728.22
109.8770, 10787.94
110.3591, 10824.07
110.8412, 10860.61
111.3233, 10947.34
111.8054, 11141.45
112.2875, 11304.70
112.7697, 11401.14
113.2518, 11474.06
113.7339, 11573.65
114.2160, 11729.10
114.6981, 11927.90
115.1802, 12089.87
115.6624, 12180.71
116.1445, 12275.23
116.6266, 12391.13
117.1087, 12528.59
117.5908, 12685.72
118.0729, 12868.34
118.5551, 13075.99
119.0372, 13257.34
119.5193, 13371.17
120.0014, 13482.17
120.4835, 13652.40
120.9656, 13893.51
121.4478, 14160.07
121.9299, 14416.61
122.4120, 14664.07
122.8941, 14889.96
123.3762, 15059.83
123.8583, 15200.85
124.3405, 15393.10
124.8226, 15677.55
125.3047, 15991.90
125.7868, 16291.38
126.2689, 16574.39
126.7510, 16824.99
127.2332, 17021.55
127.7153, 17161.09
128.1974, 17282.97
128.6795, 17400.26
129.1616, 17500.61
129.6437, 17570.90
130.1259, 17607.30
130.6080, 17621.84
131.0901, 17638.48
131.5722, 17665.71
132.0543, 17678.57
132.5364, 17678.44
133.0186, 17662.71
133.5007, 17625.98
133.9828, 17563.87
134.4649, 17480.39
134.9470, 17404.25
135.4291, 17312.87
135.9113, 17252.22
136.3934, 17239.85
136.8755, 17267.31
137.3576, 17316.16
137.8397, 17371.05
138.3218, 17430.71
138.8040, 17515.59
139.2861, 17673.25
139.7682, 17813.74
140.2503, 17895.79
140.7324, 17912.64
141.2145, 17870.34
141.6967, 17779.61
142.1788, 17644.07
142.6609, 17402.43
143.1430, 16997.90
143.6251, 16505.44
144.1072, 16002.32
144.5894, 15497.55
145.0715, 15004.79
145.5536, 14541.99
146.0357, 14105.65
146.5178, 13692.74
146.9999, 13292.79
147.4821, 12913.39
147.9642, 12571.75
148.4463, 12274.82
148.9284, 12023.79
149.4105, 11807.27
149.8927, 11626.58
150.3748, 11475.23
150.8569, 11357.31
151.3390, 11276.67
151.8211, 11192.76
152.3032, 11081.91
152.7854, 10964.45
153.2675, 10856.52
153.7496, 10761.97
154.2317, 10680.30
154.7138, 10613.93
155.1959, 10570.60
155.6781, 10526.78
156.1602, 10465.71
156.6423, 10402.82
157.1244, 10356.75
157.6065, 10339.11
158.0886, 10345.12
158.5708, 10350.70
159.0529, 10367.09
159.5350, 10368.97
160.0171, 10339.42
160.4992, 10291.37
160.9813, 10248.33
161.4635, 10230.17
161.9456, 10239.50
162.4277, 10235.69
162.9098, 10214.87
163.3919, 10185.86
163.8740, 10142.95
164.3562, 10091.85
164.8383, 10048.50
165.3204, 10031.79
165.8025, 10053.29
166.2846, 10060.11
166.7667, 10043.88
167.2489, 10021.06
167.7310, 9999.372
168.2131, 9981.320
168.6952, 9970.212
169.1773, 9971.650
169.6594, 9992.352
170.1416, 10010.56
170.6237, 10030.57
171.1058, 10045.71
171.5879, 10045.53
172.0700, 10025.43
172.5521, 9996.058
173.0343, 9978.832
173.5164, 9978.799
173.9985, 9971.681
174.4806, 9938.832
174.9627, 9892.882
175.4448, 9865.297
175.9270, 9871.935
176.4091, 9898.349
176.8912, 9915.508
177.3733, 9918.772
177.8554, 9924.647
178.3375, 9953.751
178.8197, 10001.96
179.3018, 10027.42
179.7839, 9997.968
180.2660, 9942.794
180.7481, 9902.546
181.2302, 9883.323
181.7124, 9876.006
182.1945, 9870.459
182.6766, 9865.525
183.1587, 9869.299
183.6408, 9899.345
184.1229, 9935.446
184.6051, 9957.130
185.0872, 9955.222
185.5693, 9938.944
186.0514, 9924.262
186.5335, 9910.972
187.0156, 9899.801
187.4978, 9890.432
187.9799, 9883.103
188.4620, 9878.955
188.9441, 9880.287
189.4262, 9884.428
189.9083, 9879.482
190.3905, 9851.580
190.8726, 9833.901
191.3547, 9847.160
191.8368, 9875.631
192.3189, 9891.817
192.8010, 9872.740
193.2832, 9821.220
193.7653, 9794.164
194.2474, 9825.816
194.7295, 9852.286
195.2116, 9850.150
195.6937, 9828.744
196.1759, 9813.136
196.6580, 9827.883
197.1401, 9879.428
197.6222, 9901.367
198.1043, 9863.130
198.5864, 9825.332
199.0686, 9810.109
199.5507, 9817.675
200.0328, 9837.812
200.5149, 9861.469
200.9970, 9891.515
201.4791, 9912.295
201.9613, 9917.708
202.4434, 9920.651
202.9255, 9929.828
203.4076, 9945.443
203.8897, 9960.744
204.3718, 9967.521
204.8540, 9962.483
205.3361, 9956.973
205.8182, 9949.700
206.3003, 9942.807
206.7824, 9936.361
207.2645, 9930.754
207.7467, 9929.851
208.2288, 9941.690
208.7109, 9979.959
209.1930, 9993.526
209.6751, 9954.811
210.1572, 9901.220
210.6394, 9876.551
211.1215, 9893.716
211.6036, 9898.778
212.0857, 9928.543
212.5678, 9943.115
213.0499, 9943.312
213.5321, 9886.072
214.0142, 9902.999
214.4963, 9890.203
214.9784, 9876.189
215.4605, 9903.554
215.9426, 9854.670
216.4248, 9881.377
216.9069, 9877.910
217.3890, 9888.254
217.8711, 9868.692
218.3532, 9858.367
218.8353, 9877.957
219.3175, 9880.981
219.7996, 9857.978
220.2817, 9827.763
220.7638, 9818.155
221.2459, 9820.309
221.7280, 9831.245
222.2102, 9838.842
222.6923, 9838.066
223.1744, 9833.589
223.6565, 9832.652
224.1386, 9836.222
224.6207, 9839.493
225.1029, 9843.049
225.5850, 9845.736
226.0671, 9835.393
226.5492, 9794.379
227.0313, 9749.914
227.5134, 9735.072
227.9956, 9757.016
228.4777, 9785.397
228.9598, 9794.289
229.4419, 9783.684
229.9240, 9775.340
230.4061, 9779.403
230.8883, 9786.380
231.3704, 9787.625
231.8525, 9781.689
232.3346, 9771.778
232.8167, 9757.418
233.2988, 9737.101
233.7810, 9727.048
234.2631, 9744.076
234.7452, 9767.133
235.2273, 9780.901
235.7094, 9781.906
236.1915, 9775.281
236.6737, 9765.999
237.1558, 9753.751
237.6379, 9740.854
238.1200, 9727.930
238.6021, 9714.635
239.0842, 9700.189
239.5664, 9684.356
240.0485, 9668.576
240.5306, 9651.556
241.0127, 9628.089
241.4948, 9622.350
241.9769, 9659.556
242.4591, 9705.414
242.9412, 9735.651
243.4233, 9743.449
243.9054, 9735.422
244.3875, 9716.604
244.8696, 9676.060
245.3518, 9656.314
245.8339, 9690.594
246.3160, 9733.328
246.7981, 9744.139
247.2802, 9709.609
247.7623, 9659.181
248.2445, 9645.975
248.7266, 9691.482
249.2087, 9722.580
249.6908, 9720.024
250.1729, 9704.150
250.6550, 9688.492
251.1372, 9677.518
251.6193, 9671.267
252.1014, 9671.146
252.5835, 9656.130
253.0656, 9685.996
253.5477, 9700.670
254.0299, 9700.967
254.5120, 9643.831
254.9941, 9660.859
255.4762, 9648.166
255.9583, 9634.254
256.4405, 9661.719
256.9226, 9612.937
257.4047, 9639.746
257.8868, 9636.381
258.3689, 9646.826
258.8510, 9627.366
259.3332, 9617.143
259.8153, 9636.834
260.2974, 9639.962
260.7795, 9617.060
261.2616, 9588.518
261.7437, 9572.249
262.2259, 9570.287
262.7080, 9587.308
263.1901, 9609.314
263.6722, 9608.111
264.1543, 9557.266
264.6364, 9535.412
265.1186, 9572.014
265.6007, 9618.574
266.0828, 9635.335
266.5649, 9612.121
267.0470, 9571.301
267.5291, 9550.611
268.0113, 9564.587
268.4934, 9570.923
268.9755, 9562.835
269.4576, 9551.480
269.9397, 9546.055
270.4218, 9548.368
270.9040, 9552.486
271.3861, 9548.622
271.8682, 9531.052
272.3503, 9516.907
272.8324, 9500.198
273.3145, 9490.262
273.7967, 9497.805
274.2788, 9523.045
274.7609, 9552.950
275.2430, 9568.754
275.7251, 9562.182
276.2072, 9559.613
276.6894, 9567.959
277.1715, 9574.463
277.6536, 9570.481
278.1357, 9555.073
278.6178, 9533.340
279.0999, 9510.926
279.5821, 9486.312
280.0642, 9465.734
280.5463, 9447.772
281.0284, 9434.079
281.5105, 9424.231
281.9926, 9419.062
282.4748, 9421.627
282.9569, 9437.559
283.4390, 9473.832
283.9211, 9496.946
284.4032, 9506.299
284.8853, 9505.547
285.3675, 9490.011
285.8496, 9463.774
286.3317, 9439.290
286.8138, 9429.480
287.2959, 9436.662
287.7780, 9445.519
288.2602, 9465.396
288.7423, 9478.341
289.2244, 9470.552
289.7065, 9447.390
290.1886, 9426.779
290.6707, 9426.537
291.1529, 9449.313
291.6350, 9457.986
292.1171, 9433.032
292.5992, 9413.114
293.0813, 9417.045
293.5634, 9437.362
294.0456, 9453.985
294.5277, 9450.397
295.0098, 9427.053
295.4919, 9411.362
295.9740, 9416.347
296.4561, 9416.273
296.9383, 9399.470
297.4204, 9373.262
297.9025, 9351.804
298.3846, 9344.566
298.8667, 9349.792
299.3488, 9352.742
299.8310, 9352.639
300.3131, 9350.762
300.7952, 9348.912
301.2773, 9345.125
301.7594, 9334.588
302.2415, 9313.479
302.7237, 9287.055
303.2058, 9248.933
303.6879, 9279.640
304.1700, 9295.153
304.6521, 9296.292
305.1342, 9239.996
305.6164, 9257.864
306.0985, 9246.011
306.5806, 9232.938
307.0627, 9261.245
307.5448, 9213.303
308.0269, 9240.953
308.5091, 9238.428
308.9912, 9249.713
309.4733, 9231.094
309.9554, 9221.711
310.4375, 9242.243
310.9196, 9246.211
311.4018, 9224.148
311.8839, 9236.312
312.3660, 9187.325
312.8481, 9191.998
313.3302, 9219.824
313.8123, 9199.266
314.2945, 9211.976
314.7766, 9212.015
315.2587, 9154.473
315.7408, 9197.071
316.2229, 9196.362
316.7050, 9151.186
317.1872, 9190.353
317.6693, 9151.306
318.1514, 9140.178
318.6335, 9150.059
319.1156, 9138.037
319.5977, 9160.548
320.0799, 9149.791
320.5620, 9136.062
321.0441, 9135.305
321.5262, 9097.792
322.0083, 9128.468
322.4904, 9112.565
322.9726, 9119.814
323.4547, 9132.312
323.9368, 9104.628
324.4189, 9119.483
324.9010, 9068.368
325.3831, 9109.769
325.8653, 9115.572
326.3474, 9099.729
326.8295, 9070.979
327.3116, 9064.619
327.7937, 9094.828
328.2758, 9121.687
328.7580, 9129.288
329.2401, 9122.810
329.7222, 9108.650
330.2043, 9087.574
330.6864, 9062.305
331.1685, 9035.962
331.6507, 9006.099
332.1328, 8983.625
332.6149, 8975.798
333.0970, 8976.875
333.5791, 8984.053
334.0612, 8999.908
334.5434, 9013.656
335.0255, 9010.487
335.5076, 8989.246
335.9897, 8968.445
336.4718, 8951.138
336.9539, 8939.725
337.4361, 8940.150
337.9182, 8956.309
338.4003, 8966.738
338.8824, 8944.119
339.3645, 8895.342
339.8466, 8872.072
340.3288, 8902.805
340.8109, 8944.224
341.2930, 8942.606
341.7751, 8896.708
342.2572, 8857.487
342.7393, 8852.416
343.2215, 8871.741
343.7036, 8897.789
344.1857, 8934.018
344.6678, 8959.841
345.1499, 8942.511
345.6320, 8889.964
346.1142, 8845.082
346.5963, 8820.152
347.0784, 8808.116
347.5605, 8800.851
348.0426, 8797.687
348.5247, 8798.745
349.0069, 8805.121
349.4890, 8816.548
349.9711, 8828.318
350.4532, 8841.468
350.9353, 8853.860
351.4174, 8866.016
351.8996, 8876.916
352.3817, 8880.317
352.8638, 8869.623
353.3459, 8849.164
353.8280, 8840.213
354.3102, 8865.780
354.7923, 8876.570
355.2744, 8838.442
355.7565, 8773.113
356.2386, 8727.015
356.7207, 8722.021
357.2029, 8741.530
357.6850, 8744.281
358.1671, 8713.224
358.6492, 8693.557
359.1313, 8700.468
359.6134, 8717.034
360.0956, 8723.373
360.5777, 8714.235
361.0598, 8699.763
361.5419, 8695.236
362.0240, 8708.072
362.5061, 8712.577
362.9883, 8709.434
363.4704, 8698.295
363.9525, 8672.424
364.4346, 8635.318
364.9167, 8603.105
365.3988, 8592.531
365.8810, 8606.882
366.3631, 8613.990
366.8452, 8603.916
367.3273, 8597.104
367.8094, 8605.369
368.2915, 8622.423
368.7737, 8634.994
369.2558, 8634.608
369.7379, 8622.265
370.2200, 8603.131
370.7021, 8561.716
371.1842, 8534.329
371.6664, 8536.368
372.1485, 8551.709
372.6306, 8563.306
373.1127, 8564.377
373.5948, 8556.474
374.0769, 8538.943
374.5591, 8501.822
375.0412, 8482.071
375.5233, 8499.272
376.0054, 8525.691
376.4875, 8547.264
376.9696, 8560.303
377.4518, 8561.106
377.9339, 8538.717
378.4160, 8492.160
378.8981, 8460.813
379.3802, 8462.748
379.8623, 8465.994
380.3445, 8448.490
380.8266, 8414.486
381.3087, 8382.302
381.7908, 8361.696
382.2729, 8351.376
382.7550, 8350.597
383.2372, 8364.460
383.7193, 8374.411
384.2014, 8364.188
384.6835, 8342.276
385.1656, 8322.298
385.6477, 8303.745
386.1299, 8292.277
386.6120, 8300.663
387.0941, 8328.024
387.5762, 8345.480
388.0583, 8335.982
388.5404, 8309.702
389.0226, 8289.857
389.5047, 8277.497
389.9868, 8268.733
390.4689, 8263.379
390.9510, 8260.136
391.4331, 8255.976
391.9153, 8249.878
392.3974, 8243.194
392.8795, 8239.604
393.3616, 8242.350
393.8437, 8234.352
394.3258, 8197.176
394.8080, 8158.047
395.2901, 8145.891
395.7722, 8162.662
396.2543, 8188.855
396.7364, 8209.151
397.2185, 8223.752
397.7007, 8223.438
398.1828, 8196.096
398.6649, 8168.493
399.1470, 8150.268
399.6291, 8140.527
400.1112, 8136.871
400.5934, 8138.723
401.0755, 8143.080
401.5576, 8137.271
402.0397, 8100.377
402.5218, 8080.363
403.0039, 8098.077
403.4861, 8125.401
403.9682, 8133.107
404.4503, 8112.842
404.9324, 8079.983
405.4145, 8057.180
405.8966, 8047.809
406.3788, 8037.657
406.8609, 8022.829
407.3430, 8009.875
407.8251, 8004.817
408.3072, 8005.584
408.7893, 8003.343
409.2715, 7988.206
409.7536, 7962.752
410.2357, 7946.701
410.7178, 7943.707
411.1999, 7944.657
411.6820, 7947.974
412.1642, 7951.573
412.6463, 7951.564
413.1284, 7944.558
413.6105, 7936.233
414.0926, 7938.191
414.5747, 7951.862
415.0569, 7954.806
415.5390, 7932.238
416.0211, 7898.925
416.5032, 7873.167
416.9853, 7854.657
417.4674, 7847.374
417.9496, 7864.884
418.4317, 7894.582
418.9138, 7904.257
419.3959, 7884.251
419.8780, 7853.835
420.3601, 7833.554
420.8423, 7823.730
421.3244, 7813.117
421.8065, 7809.615
422.2886, 7798.153
422.7707, 7752.481
423.2528, 7680.525
423.7350, 7629.250
424.2171, 7633.466
424.6992, 7685.734
425.1813, 7723.398
425.6634, 7754.784
426.1455, 7764.641
426.6277, 7728.092
427.1098, 7674.720
427.5919, 7647.389
428.0740, 7661.801
428.5561, 7696.026
429.0382, 7710.624
429.5204, 7698.597
430.0025, 7679.649
430.4846, 7644.104
430.9667, 7610.663
431.4488, 7591.386
431.9309, 7585.777
432.4131, 7585.776
432.8952, 7583.414
433.3773, 7579.333
433.8594, 7587.168
434.3415, 7621.403
434.8236, 7646.745
435.3058, 7648.830
435.7879, 7635.801
436.2700, 7619.081
436.7521, 7602.789
437.2342, 7585.691
437.7163, 7564.650
438.1985, 7539.064
438.6806, 7516.372
439.1627, 7499.606
439.6448, 7486.290
440.1269, 7471.651
440.6090, 7454.875
441.0912, 7445.938
441.5733, 7458.425
442.0554, 7481.224
442.5375, 7489.497
443.0196, 7478.180
443.5017, 7462.430
443.9839, 7457.551
444.4660, 7462.000
444.9481, 7454.484
445.4302, 7419.858
445.9123, 7385.507
446.3944, 7369.425
446.8766, 7368.078
447.3587, 7370.042
447.8408, 7370.032
448.3229, 7368.265
448.8050, 7365.342
449.2871, 7361.814
449.7693, 7356.234
450.2514, 7348.180
450.7335, 7338.190
451.2156, 7325.409
451.6977, 7310.343
452.1798, 7296.167
452.6620, 7286.510
453.1441, 7281.656
453.6262, 7278.646
454.1083, 7285.593
454.5904, 7286.103
455.0725, 7269.327
455.5547, 7243.236
456.0368, 7222.313
456.5189, 7214.788
457.0010, 7215.762
457.4832, 7214.309
457.9653, 7209.062
458.4474, 7206.642
458.9295, 7216.646
459.4116, 7225.500
459.8937, 7220.087
460.3759, 7198.603
460.8580, 7175.634
461.3401, 7164.070
461.8222, 7159.180
462.3043, 7144.802
462.7864, 7116.207
463.2686, 7087.174
463.7507, 7066.136
464.2328, 7053.919
464.7149, 7055.155
465.1970, 7087.877
465.6791, 7118.956
466.1613, 7124.960
466.6434, 7110.070
467.1255, 7087.322
467.6076, 7060.712
468.0897, 7035.828
468.5718, 7027.636
469.0540, 7056.311
469.5361, 7069.839
470.0182, 7060.407
470.5003, 7038.683
470.9824, 7003.701
471.4645, 6961.431
471.9467, 6934.831
472.4288, 6952.788
472.9109, 7017.949
473.3930, 7044.193
473.8751, 6979.832
474.3572, 6933.680
474.8394, 6951.633
475.3215, 6998.785
475.8036, 7023.467
476.2857, 7002.358
476.7678, 6960.955
477.2499, 6939.347
477.7321, 6940.667
478.2142, 6937.219
478.6963, 6917.942
479.1784, 6897.158
479.6605, 6886.981
480.1426, 6887.045
480.6248, 6887.895
481.1069, 6889.283
481.5890, 6886.978
482.0711, 6868.829
482.5532, 6833.074
483.0353, 6805.522
483.5175, 6807.864
483.9996, 6831.136
484.4817, 6835.300
484.9638, 6808.667
485.4459, 6778.616
485.9280, 6750.479
486.4102, 6726.190
486.8923, 6709.371
487.3744, 6701.005
487.8565, 6697.419
488.3386, 6694.174
488.8207, 6692.263
489.3029, 6687.058
489.7850, 6670.510
490.2671, 6659.083
490.7492, 6667.765
491.2313, 6687.281
491.7134, 6695.243
492.1956, 6676.305
492.6777, 6642.809
493.1598, 6632.987
493.6419, 6661.872
494.1240, 6674.969
494.6061, 6641.595
495.0883, 6599.561
495.5704, 6577.714
496.0525, 6579.022
496.5346, 6581.039
497.0167, 6561.251
497.4988, 6529.807
497.9810, 6519.544
498.4631, 6537.671
498.9452, 6557.414
499.4273, 6560.088
499.9094, 6548.904
500.3915, 6537.460
500.8737, 6523.524
501.3558, 6512.546
501.8379, 6508.617
502.3200, 6509.467
502.8021, 6512.119
503.2842, 6515.880
503.7664, 6516.167
504.2485, 6504.668
504.7306, 6473.236
505.2127, 6454.583
505.6948, 6459.070
506.1769, 6465.179
506.6591, 6460.920
507.1412, 6448.702
507.6233, 6438.164
508.1054, 6436.455
508.5875, 6437.792
509.0696, 6421.499
509.5518, 6376.142
510.0339, 6340.583
510.5160, 6323.755
510.9981, 6319.444
511.4802, 6330.145
511.9623, 6354.445
512.4445, 6372.753
512.9266, 6368.625
513.4087, 6347.948
513.8908, 6323.143
514.3729, 6292.379
514.8550, 6271.864
515.3372, 6279.103
515.8193, 6305.244
516.3014, 6317.830
516.7835, 6310.191
517.2656, 6296.216
517.7477, 6282.558
518.2299, 6266.629
518.7120, 6238.448
519.1941, 6195.271
519.6762, 6157.965
520.1583, 6156.758
520.6404, 6205.180
521.1226, 6229.108
521.6047, 6210.168
522.0868, 6189.495
522.5689, 6184.773
523.0510, 6190.367
523.5331, 6193.830
524.0153, 6188.897
524.4974, 6179.034
524.9795, 6170.552
525.4616, 6163.224
525.9437, 6158.878
526.4258, 6167.454
526.9080, 6170.430
527.3901, 6151.900
527.8722, 6113.967
528.3543, 6075.217
528.8364, 6036.516
529.3185, 6006.333
529.8007, 6005.242
530.2828, 6033.000
530.7649, 6053.950
531.2470, 6046.923
531.7291, 6022.500
532.2112, 6010.821
532.6934, 6020.327
533.1755, 6023.945
533.6576, 6014.048
534.1397, 5997.184
534.6218, 5975.642
535.1039, 5952.131
535.5861, 5934.907
536.0682, 5932.233
536.5503, 5943.390
537.0324, 5953.544
537.5145, 5966.282
537.9966, 5972.871
538.4788, 5971.248
538.9609, 5963.083
539.4430, 5949.526
539.9251, 5930.923
540.4072, 5908.967
540.8893, 5880.702
541.3715, 5848.385
541.8536, 5831.532
542.3357, 5836.114
542.8178, 5846.890
543.2999, 5856.989
543.7820, 5864.838
544.2642, 5865.157
544.7463, 5849.720
545.2284, 5834.793
545.7105, 5833.004
546.1926, 5838.684
546.6747, 5840.037
547.1569, 5833.402
547.6390, 5820.858
548.1211, 5804.542
548.6032, 5782.798
549.0853, 5763.830
549.5674, 5744.577
550.0496, 5730.788
550.5317, 5728.398
551.0138, 5732.436
551.4959, 5732.790
551.9780, 5724.041
552.4601, 5713.689
552.9423, 5719.078
553.4244, 5744.729
553.9065, 5755.555
554.3886, 5733.696
554.8707, 5708.247
555.3528, 5704.614
555.8350, 5717.759
556.3171, 5723.393
556.7992, 5706.257
557.2813, 5681.375
557.7634, 5662.195
558.2455, 5648.912
558.7277, 5642.749
559.2098, 5645.804
559.6919, 5652.536
560.1740, 5652.195
560.6561, 5639.832
561.1382, 5631.139
561.6204, 5633.321
562.1025, 5633.313
562.5846, 5619.602
563.0667, 5595.862
563.5488, 5574.425
564.0309, 5563.291
564.5131, 5559.055
564.9952, 5550.105
565.4773, 5530.909
565.9594, 5523.074
566.4415, 5549.255
566.9236, 5574.859
567.4058, 5574.021
567.8879, 5547.694
568.3700, 5518.811
568.8521, 5495.839
569.3342, 5479.144
569.8163, 5470.666
570.2985, 5470.105
570.7806, 5473.990
571.2627, 5484.274
571.7448, 5493.536
572.2269, 5480.677
572.7090, 5424.672
573.1912, 5392.253
573.6733, 5408.922
574.1554, 5436.433
574.6375, 5445.948
575.1196, 5437.194
575.6017, 5424.066
576.0839, 5416.348
576.5660, 5411.688
577.0481, 5398.250
577.5302, 5364.591
578.0123, 5349.882
578.4944, 5386.040
578.9766, 5427.958
579.4587, 5444.161
579.9408, 5433.006
580.4229, 5410.987
580.9050, 5374.609
581.3871, 5338.727
581.8693, 5333.176
582.3514, 5357.410
582.8335, 5378.097
583.3156, 5378.978
583.7977, 5364.862
584.2798, 5346.390
584.7620, 5320.254
585.2441, 5296.617
585.7262, 5268.011
586.2083, 5248.644
586.6904, 5258.400
587.1725, 5289.416
587.6547, 5312.182
588.1368, 5305.414
588.6189, 5277.347
589.1010, 5254.265
589.5831, 5233.930
590.0652, 5224.395
590.5474, 5239.209
591.0295, 5256.933
591.5116, 5262.884
591.9937, 5256.764
592.4758, 5245.835
592.9579, 5230.311
593.4401, 5213.885
593.9222, 5199.998
594.4043, 5189.211
594.8864, 5185.568
595.3685, 5192.972
595.8506, 5204.559
596.3328, 5205.467
596.8149, 5184.932
597.2970, 5175.354
597.7791, 5192.034
