##NAMES=Nobleite
##RRUFFID=R060847
##IDEAL CHEMISTRY=CaB_6_O_9_(OH)_2_&#183;3H_2_O
##LOCALITY=Hard Scramble claim, Death Valley USA
##OWNER=RRUFF
##SOURCE=Michael Scott
##DESCRIPTION=Colorless platy crystals
##STATUS=The identification of this mineral is confirmed by single-crystal X-ray diffraction and chemical analysis.
##URL=rruff.info/R060847
##MEASURED CHEMISTRY=Ca_1.00_B_6_O_9_((OH)_1.60_F_0.40_)_Σ=2_·3H_2_O ; trace amounts of Fe; B not measured but assumed by stoichiometry; OH estimated as 2-F
121.5227, 2859.890
122.0049, 3041.033
122.4870, 3223.480
122.9691, 3417.298
123.4512, 3608.179
123.9333, 3777.989
124.4154, 3921.744
124.8976, 4042.257
125.3797, 4144.815
125.8618, 4229.232
126.3439, 4287.906
126.8260, 4309.238
127.3081, 4298.766
127.7903, 4269.963
128.2724, 4219.369
128.7545, 4155.523
129.2366, 4094.247
129.7187, 4034.804
130.2008, 3982.177
130.6830, 3946.194
131.1651, 3925.784
131.6472, 3906.441
132.1293, 3874.036
132.6114, 3832.914
133.0935, 3810.440
133.5757, 3810.183
134.0578, 3828.426
134.5399, 3858.333
135.0220, 3900.665
135.5041, 3950.736
135.9862, 4002.983
136.4683, 4056.029
136.9505, 4127.080
137.4326, 4224.846
137.9147, 4343.607
138.3968, 4450.568
138.8789, 4540.839
139.3610, 4630.437
139.8432, 4742.503
140.3253, 4887.903
140.8074, 5021.464
141.2895, 5126.164
141.7716, 5195.059
142.2537, 5294.700
142.7359, 5441.365
143.2180, 5605.195
143.7001, 5736.624
144.1822, 5811.254
144.6643, 5890.752
145.1464, 6000.134
145.6286, 6170.169
146.1107, 6305.014
146.5928, 6393.398
147.0749, 6446.242
147.5570, 6495.865
148.0391, 6540.194
148.5213, 6583.621
149.0034, 6629.156
149.4855, 6690.185
149.9676, 6736.133
150.4497, 6761.327
150.9318, 6767.055
151.4140, 6772.696
151.8961, 6784.763
152.3782, 6794.136
152.8603, 6794.598
153.3424, 6768.756
153.8245, 6752.137
154.3067, 6756.816
154.7888, 6786.488
155.2709, 6806.835
155.7530, 6807.524
156.2351, 6798.271
156.7172, 6789.502
157.1993, 6786.165
157.6815, 6780.790
158.1636, 6775.357
158.6457, 6777.672
159.1278, 6753.104
159.6099, 6680.271
160.0920, 6574.164
160.5742, 6463.035
161.0563, 6351.577
161.5384, 6240.086
162.0205, 6129.487
162.5026, 6023.420
162.9847, 5911.153
163.4669, 5778.880
163.9490, 5634.906
164.4311, 5506.775
164.9132, 5410.989
165.3953, 5334.775
165.8774, 5268.354
166.3596, 5219.942
166.8417, 5169.858
167.3238, 5102.774
167.8059, 5021.597
168.2880, 4943.287
168.7701, 4885.207
169.2523, 4834.246
169.7344, 4773.768
170.2165, 4681.887
170.6986, 4588.762
171.1807, 4522.801
171.6628, 4485.526
172.1450, 4452.054
172.6271, 4402.728
173.1092, 4344.245
173.5913, 4288.292
174.0734, 4239.107
174.5555, 4195.556
175.0377, 4156.703
175.5198, 4121.922
176.0019, 4092.573
176.4840, 4071.277
176.9661, 4056.631
177.4482, 4043.708
177.9303, 4028.747
178.4125, 4013.990
178.8946, 4002.761
179.3767, 3995.252
179.8588, 3991.864
180.3409, 3991.803
180.8230, 3995.529
181.3052, 4005.688
181.7873, 4028.774
182.2694, 4059.889
182.7515, 4086.481
183.2336, 4104.252
183.7157, 4118.316
184.1979, 4133.518
184.6800, 4150.078
185.1621, 4175.793
185.6442, 4226.823
186.1263, 4295.579
186.6084, 4349.490
187.0906, 4369.927
187.5727, 4374.543
188.0548, 4411.055
188.5369, 4481.547
189.0190, 4562.470
189.5011, 4633.794
189.9833, 4696.328
190.4654, 4751.371
190.9475, 4796.414
191.4296, 4834.318
191.9117, 4875.945
192.3938, 4921.089
192.8760, 4968.692
193.3581, 5016.579
193.8402, 5064.576
194.3223, 5114.225
194.8044, 5167.393
195.2865, 5223.609
195.7687, 5275.782
196.2508, 5324.934
196.7329, 5369.529
197.2150, 5406.666
197.6971, 5435.640
198.1792, 5464.625
198.6613, 5500.688
199.1435, 5544.788
199.6256, 5576.854
200.1077, 5596.397
200.5898, 5603.510
201.0719, 5594.833
201.5540, 5566.891
202.0362, 5539.001
202.5183, 5524.594
203.0004, 5525.962
203.4825, 5518.813
203.9646, 5501.750
204.4467, 5474.211
204.9289, 5435.680
205.4110, 5386.026
205.8931, 5324.739
206.3752, 5248.149
206.8573, 5152.647
207.3394, 5060.977
207.8216, 4976.773
208.3037, 4898.152
208.7858, 4816.101
209.2679, 4725.968
209.7500, 4642.077
210.2321, 4579.682
210.7143, 4548.042
211.1964, 4505.064
211.6785, 4439.247
212.1606, 4353.776
212.6427, 4285.240
213.1248, 4238.344
213.6070, 4199.690
214.0891, 4155.206
214.5712, 4099.797
215.0533, 4053.092
215.5354, 4022.115
216.0175, 4006.610
216.4997, 3983.931
216.9818, 3950.242
217.4639, 3914.583
217.9460, 3886.844
218.4281, 3868.437
218.9102, 3855.092
219.3923, 3847.714
219.8745, 3847.409
220.3566, 3840.808
220.8387, 3825.598
221.3208, 3806.558
221.8029, 3788.255
222.2850, 3767.244
222.7672, 3754.988
223.2493, 3758.124
223.7314, 3781.666
224.2135, 3793.125
224.6956, 3785.455
225.1777, 3771.079
225.6599, 3769.911
226.1420, 3788.816
226.6241, 3808.562
227.1062, 3822.635
227.5883, 3829.606
228.0704, 3835.512
228.5526, 3837.814
229.0347, 3840.263
229.5168, 3850.681
229.9989, 3873.891
230.4810, 3897.399
230.9632, 3917.246
231.4453, 3934.778
231.9274, 3945.264
232.4095, 3947.036
232.8916, 3942.382
233.3737, 3935.851
233.8559, 3925.016
234.3380, 3916.075
234.8201, 3913.674
235.3022, 3929.225
235.7843, 3925.798
236.2664, 3896.916
236.7486, 3849.907
237.2307, 3806.762
237.7128, 3765.391
238.1949, 3730.407
238.6770, 3704.319
239.1591, 3689.406
239.6412, 3678.823
240.1234, 3673.542
240.6055, 3672.436
241.0876, 3671.465
241.5697, 3670.565
242.0518, 3669.865
242.5339, 3669.498
243.0161, 3669.844
243.4982, 3669.138
243.9803, 3664.502
244.4624, 3658.343
244.9445, 3662.470
245.4266, 3683.850
245.9088, 3705.825
246.3909, 3718.261
246.8730, 3715.604
247.3551, 3714.753
247.8372, 3717.170
248.3193, 3722.305
248.8015, 3727.723
249.2836, 3734.872
249.7657, 3740.318
250.2478, 3741.573
250.7299, 3736.659
251.2120, 3732.641
251.6942, 3732.141
252.1763, 3733.845
252.6584, 3727.869
253.1405, 3709.752
253.6226, 3690.684
254.1047, 3677.694
254.5869, 3671.167
255.0690, 3670.490
255.5511, 3676.900
256.0332, 3689.509
256.5153, 3703.670
256.9974, 3723.379
257.4796, 3738.905
257.9617, 3741.280
258.4438, 3721.392
258.9259, 3711.820
259.4080, 3722.301
259.8901, 3748.431
260.3723, 3754.736
260.8544, 3733.238
261.3365, 3703.875
261.8186, 3682.161
262.3007, 3673.500
262.7828, 3656.271
263.2650, 3623.390
263.7471, 3578.165
264.2292, 3543.895
264.7113, 3524.221
265.1934, 3509.755
265.6755, 3492.873
266.1577, 3471.453
266.6398, 3455.482
267.1219, 3448.828
267.6040, 3449.612
268.0861, 3443.666
268.5682, 3428.144
269.0503, 3411.547
269.5324, 3401.397
270.0146, 3399.133
270.4967, 3396.799
270.9788, 3393.301
271.4609, 3388.779
271.9430, 3384.107
272.4251, 3379.432
272.9073, 3374.381
273.3894, 3368.157
273.8715, 3360.169
274.3536, 3354.357
274.8357, 3351.211
275.3178, 3350.703
275.8000, 3353.719
276.2821, 3361.589
276.7642, 3368.663
277.2463, 3370.926
277.7284, 3368.288
278.2105, 3359.591
278.6927, 3340.828
279.1748, 3316.812
279.6569, 3308.302
280.1390, 3317.582
280.6211, 3332.391
281.1032, 3343.824
281.5854, 3351.698
282.0675, 3358.028
282.5496, 3363.610
283.0317, 3367.586
283.5138, 3367.260
283.9959, 3362.601
284.4781, 3354.070
284.9602, 3338.930
285.4423, 3317.578
285.9244, 3303.543
286.4065, 3300.808
286.8886, 3305.113
287.3708, 3306.676
287.8529, 3305.540
288.3350, 3301.388
288.8171, 3289.886
289.2992, 3272.930
289.7813, 3266.327
290.2635, 3276.213
290.7456, 3293.728
291.2277, 3300.059
291.7098, 3295.273
292.1919, 3288.792
292.6740, 3285.557
293.1562, 3285.989
293.6383, 3293.344
294.1204, 3311.386
294.6025, 3331.702
295.0846, 3336.745
295.5667, 3328.183
296.0489, 3323.524
296.5310, 3343.276
297.0131, 3376.665
297.4952, 3392.597
297.9773, 3378.804
298.4594, 3359.313
298.9416, 3370.287
299.4237, 3407.252
299.9058, 3445.556
300.3879, 3466.098
300.8700, 3477.104
301.3521, 3491.805
301.8343, 3511.015
302.3164, 3537.598
302.7985, 3580.069
303.2806, 3634.139
303.7627, 3686.191
304.2448, 3723.558
304.7270, 3755.063
305.2091, 3791.625
305.6912, 3835.071
306.1733, 3882.398
306.6554, 3934.042
307.1375, 3988.185
307.6197, 4040.420
308.1018, 4089.365
308.5839, 4135.525
309.0660, 4179.532
309.5481, 4221.489
310.0302, 4261.733
310.5123, 4308.124
310.9944, 4353.031
311.4766, 4380.718
311.9587, 4378.326
312.4408, 4359.866
312.9229, 4333.559
313.4050, 4299.309
313.8871, 4262.164
314.3693, 4221.044
314.8514, 4178.828
315.3335, 4139.644
315.8156, 4104.699
316.2977, 4073.640
316.7798, 4044.067
317.2620, 4014.871
317.7441, 3996.169
318.2262, 3999.107
318.7083, 4012.206
319.1904, 4021.852
319.6725, 4009.339
320.1547, 4006.162
320.6368, 4027.205
321.1189, 4074.918
321.6010, 4123.006
322.0831, 4166.552
322.5652, 4207.258
323.0474, 4246.684
323.5295, 4273.235
324.0116, 4310.418
324.4937, 4370.175
324.9758, 4452.876
325.4579, 4524.667
325.9401, 4568.087
326.4222, 4606.363
326.9043, 4655.826
327.3864, 4743.929
327.8685, 4813.361
328.3506, 4849.104
328.8328, 4854.463
329.3149, 4872.471
329.7970, 4929.028
330.2791, 4976.773
330.7612, 4987.085
331.2433, 4936.901
331.7255, 4884.821
332.2076, 4832.380
332.6897, 4780.151
333.1718, 4731.142
333.6539, 4689.581
334.1360, 4646.446
334.6182, 4594.411
335.1003, 4525.234
335.5824, 4470.062
336.0645, 4431.934
336.5466, 4407.862
337.0287, 4390.140
337.5109, 4380.535
337.9930, 4372.803
338.4751, 4365.483
338.9572, 4360.058
339.4393, 4345.292
339.9214, 4318.277
340.4036, 4285.148
340.8857, 4258.663
341.3678, 4241.504
341.8499, 4215.912
342.3320, 4168.678
342.8141, 4100.695
343.2963, 4049.025
343.7784, 4015.204
344.2605, 3992.324
344.7426, 3970.454
345.2247, 3949.969
345.7068, 3936.750
346.1890, 3936.784
346.6711, 3945.728
347.1532, 3945.334
347.6353, 3933.999
348.1174, 3926.676
348.5995, 3944.683
349.0817, 3981.505
349.5638, 4010.713
350.0459, 4018.331
350.5280, 4016.838
351.0101, 4027.310
351.4922, 4049.185
351.9743, 4076.091
352.4565, 4105.457
352.9386, 4135.717
353.4207, 4164.783
353.9028, 4195.534
354.3849, 4220.385
354.8670, 4225.429
355.3492, 4215.330
355.8313, 4210.390
356.3134, 4224.094
356.7955, 4249.188
357.2776, 4278.330
357.7597, 4310.354
358.2419, 4344.999
358.7240, 4378.716
359.2061, 4414.636
359.6882, 4460.170
360.1703, 4527.527
360.6524, 4599.482
361.1346, 4664.796
361.6167, 4719.466
362.0988, 4773.929
362.5809, 4832.632
363.0630, 4893.202
363.5451, 4952.187
364.0273, 5004.294
364.5094, 5058.402
364.9915, 5120.081
365.4736, 5191.980
365.9557, 5257.235
366.4378, 5311.170
366.9200, 5358.479
367.4021, 5404.467
367.8842, 5436.886
368.3663, 5481.707
368.8484, 5544.373
369.3305, 5625.622
369.8127, 5715.296
370.2948, 5818.318
370.7769, 5927.051
371.2590, 6036.912
371.7411, 6146.347
372.2232, 6257.008
372.7054, 6365.763
373.1875, 6475.804
373.6696, 6601.294
374.1517, 6750.163
374.6338, 6899.419
375.1159, 7031.183
375.5981, 7137.840
376.0802, 7261.524
376.5623, 7404.656
377.0444, 7563.648
377.5265, 7733.026
378.0086, 7915.681
378.4908, 8089.861
378.9729, 8247.236
379.4550, 8389.016
379.9371, 8508.967
380.4192, 8610.561
380.9013, 8683.680
381.3835, 8724.491
381.8656, 8731.087
382.3477, 8681.571
382.8298, 8549.646
383.3119, 8360.769
383.7940, 8187.573
384.2762, 8031.316
384.7583, 7858.581
385.2404, 7629.052
385.7225, 7360.867
386.2046, 7097.404
386.6867, 6849.289
387.1689, 6612.512
387.6510, 6384.077
388.1331, 6165.973
388.6152, 5962.393
389.0973, 5775.157
389.5794, 5607.340
390.0616, 5462.198
390.5437, 5343.530
391.0258, 5236.539
391.5079, 5132.468
391.9900, 5033.305
392.4721, 4941.382
392.9542, 4854.263
393.4363, 4778.390
393.9185, 4721.652
394.4006, 4688.063
394.8827, 4654.531
395.3648, 4611.124
395.8469, 4564.906
396.3290, 4524.191
396.8112, 4500.730
397.2933, 4472.804
397.7754, 4429.919
398.2575, 4370.746
398.7396, 4324.236
399.2217, 4300.234
399.7039, 4284.326
400.1860, 4267.476
400.6681, 4250.350
401.1502, 4230.679
401.6323, 4201.454
402.1144, 4168.988
402.5966, 4162.016
403.0787, 4202.403
403.5608, 4233.531
404.0429, 4222.584
404.5250, 4152.693
405.0071, 4102.930
405.4893, 4078.090
405.9714, 4069.398
406.4535, 4060.823
406.9356, 4051.446
407.4177, 4048.072
407.8998, 4057.537
408.3820, 4077.116
408.8641, 4081.802
409.3462, 4068.773
409.8283, 4054.472
410.3104, 4062.184
410.7925, 4086.918
411.2747, 4098.154
411.7568, 4077.359
412.2389, 4046.906
412.7210, 4051.556
413.2031, 4088.759
413.6852, 4127.362
414.1674, 4141.426
414.6495, 4143.833
415.1316, 4155.439
415.6137, 4181.800
416.0958, 4213.581
416.5779, 4249.020
417.0601, 4284.495
417.5422, 4310.197
418.0243, 4314.825
418.5064, 4313.309
418.9885, 4314.227
419.4706, 4317.922
419.9528, 4328.083
420.4349, 4358.683
420.9170, 4392.172
421.3991, 4408.869
421.8812, 4393.828
422.3633, 4371.600
422.8455, 4345.059
423.3276, 4314.925
423.8097, 4291.202
424.2918, 4276.526
424.7739, 4267.455
425.2560, 4262.129
425.7382, 4265.264
426.2203, 4264.917
426.7024, 4257.354
427.1845, 4246.838
427.6666, 4244.834
428.1487, 4255.552
428.6309, 4266.991
429.1130, 4274.322
429.5951, 4276.512
430.0772, 4281.977
430.5593, 4291.725
431.0414, 4302.739
431.5236, 4308.835
432.0057, 4308.932
432.4878, 4318.324
432.9699, 4346.700
433.4520, 4385.223
433.9341, 4401.898
434.4162, 4396.045
434.8983, 4385.675
435.3805, 4387.456
435.8626, 4396.417
436.3447, 4395.724
436.8268, 4380.060
437.3089, 4360.398
437.7910, 4349.039
438.2732, 4344.465
438.7553, 4341.890
439.2374, 4340.151
439.7195, 4338.310
440.2016, 4333.241
440.6837, 4324.105
441.1659, 4320.808
441.6480, 4334.634
442.1301, 4355.925
442.6122, 4373.520
443.0943, 4382.667
443.5764, 4388.500
444.0586, 4386.812
444.5407, 4380.692
445.0228, 4388.636
445.5049, 4422.271
445.9870, 4466.165
446.4691, 4512.290
446.9513, 4563.341
447.4334, 4611.671
447.9155, 4654.729
448.3976, 4695.856
448.8797, 4739.823
449.3618, 4783.150
449.8440, 4835.107
450.3261, 4901.106
450.8082, 4982.500
451.2903, 5050.255
451.7724, 5094.936
452.2545, 5142.122
452.7367, 5219.686
453.2188, 5330.726
453.7009, 5438.551
454.1830, 5536.176
454.6651, 5628.487
455.1472, 5733.921
455.6294, 5851.544
456.1115, 5963.422
456.5936, 6054.275
457.0757, 6130.624
457.5578, 6209.686
458.0399, 6296.010
458.5221, 6371.649
459.0042, 6431.329
459.4863, 6466.991
459.9684, 6462.363
460.4505, 6396.917
460.9326, 6297.238
461.4148, 6183.284
461.8969, 6055.669
462.3790, 5916.048
462.8611, 5748.894
463.3432, 5580.398
463.8253, 5433.861
464.3075, 5320.457
464.7896, 5217.535
465.2717, 5121.607
465.7538, 5032.764
466.2359, 4952.414
466.7180, 4877.225
467.2002, 4812.972
467.6823, 4762.804
468.1644, 4728.218
468.6465, 4697.090
469.1286, 4671.400
469.6107, 4647.502
470.0929, 4620.688
470.5750, 4586.250
471.0571, 4562.182
471.5392, 4553.516
472.0213, 4555.730
472.5034, 4554.848
472.9856, 4550.585
473.4677, 4544.492
473.9498, 4535.818
474.4319, 4525.275
474.9140, 4520.445
475.3961, 4522.916
475.8782, 4525.090
476.3604, 4516.025
476.8425, 4498.706
477.3246, 4483.824
477.8067, 4476.101
478.2888, 4471.853
478.7709, 4467.912
479.2531, 4463.947
479.7352, 4457.708
480.2173, 4444.036
480.6994, 4429.224
481.1815, 4419.728
481.6636, 4417.623
482.1458, 4417.199
482.6279, 4416.905
483.1100, 4416.112
483.5921, 4413.944
484.0742, 4411.236
484.5563, 4405.628
485.0385, 4394.151
485.5206, 4376.359
486.0027, 4363.683
486.4848, 4353.851
486.9669, 4351.293
487.4490, 4361.218
487.9312, 4400.430
488.4133, 4415.406
488.8954, 4393.497
489.3775, 4353.441
489.8596, 4336.052
490.3417, 4347.885
490.8239, 4355.512
491.3060, 4341.461
491.7881, 4310.151
492.2702, 4297.098
492.7523, 4303.890
493.2344, 4318.685
493.7166, 4334.466
494.1987, 4349.649
494.6808, 4357.852
495.1629, 4355.675
495.6450, 4349.498
496.1271, 4343.940
496.6093, 4340.344
497.0914, 4343.095
497.5735, 4358.938
498.0556, 4379.297
498.5377, 4400.861
499.0198, 4424.392
499.5020, 4434.659
499.9841, 4407.542
500.4662, 4371.635
500.9483, 4354.753
501.4304, 4379.851
501.9125, 4405.122
502.3947, 4427.129
502.8768, 4444.197
503.3589, 4448.877
503.8410, 4422.780
504.3231, 4404.978
504.8052, 4411.271
505.2874, 4446.522
505.7695, 4478.534
506.2516, 4506.937
506.7337, 4532.909
507.2158, 4558.678
507.6979, 4584.857
508.1801, 4605.712
508.6622, 4619.854
509.1443, 4628.385
509.6264, 4627.544
510.1085, 4618.226
510.5906, 4622.403
511.0728, 4665.060
511.5549, 4728.601
512.0370, 4772.536
512.5191, 4792.250
513.0012, 4813.597
513.4833, 4866.323
513.9655, 4933.142
514.4476, 4987.955
514.9297, 5009.101
515.4118, 5029.974
515.8939, 5068.333
516.3760, 5121.033
516.8582, 5178.715
517.3403, 5236.647
517.8224, 5300.093
518.3045, 5370.869
518.7866, 5448.235
519.2687, 5536.404
519.7509, 5648.716
520.2330, 5764.363
520.7151, 5858.447
521.1972, 5915.471
521.6793, 5988.497
522.1614, 6092.087
522.6436, 6215.151
523.1257, 6319.264
523.6078, 6405.490
524.0899, 6471.186
524.5720, 6520.174
525.0541, 6549.418
525.5363, 6534.152
526.0184, 6472.116
526.5005, 6378.252
526.9826, 6262.293
527.4647, 6127.455
527.9468, 5980.777
528.4290, 5822.894
528.9111, 5660.691
529.3932, 5494.056
529.8753, 5329.087
530.3574, 5185.335
530.8395, 5082.938
531.3217, 4998.491
531.8038, 4919.328
532.2859, 4843.933
532.7680, 4776.850
533.2501, 4723.667
533.7322, 4676.596
534.2144, 4628.148
534.6965, 4568.782
535.1786, 4520.853
535.6607, 4489.123
536.1428, 4469.292
536.6249, 4450.419
537.1070, 4432.661
537.5891, 4414.992
538.0712, 4395.620
538.5533, 4374.749
539.0355, 4362.113
539.5176, 4358.484
539.9997, 4359.059
540.4818, 4362.296
540.9639, 4366.540
541.4460, 4363.861
541.9282, 4350.753
542.4103, 4334.933
542.8924, 4323.935
543.3745, 4317.600
543.8566, 4316.006
544.3387, 4322.404
544.8209, 4330.922
545.3030, 4339.330
545.7851, 4347.146
546.2672, 4349.203
546.7493, 4338.934
547.2314, 4325.066
547.7136, 4312.695
548.1957, 4295.951
548.6778, 4292.622
549.1599, 4318.996
549.6420, 4354.306
550.1241, 4367.220
550.6063, 4345.102
551.0884, 4324.643
551.5705, 4314.167
552.0526, 4312.332
552.5347, 4310.084
553.0168, 4307.443
553.4990, 4304.266
553.9811, 4297.325
554.4632, 4288.497
554.9453, 4293.479
555.4274, 4316.308
555.9095, 4337.696
556.3917, 4326.229
556.8738, 4297.832
557.3559, 4289.413
557.8380, 4327.249
558.3201, 4374.242
558.8022, 4400.830
559.2844, 4411.285
559.7665, 4420.478
560.2486, 4434.570
560.7307, 4449.341
561.2128, 4463.333
561.6949, 4476.771
562.1771, 4486.485
562.6592, 4485.070
563.1413, 4484.080
563.6234, 4492.137
564.1055, 4510.714
564.5876, 4536.368
565.0698, 4573.541
565.5519, 4614.110
566.0340, 4634.634
566.5161, 4629.802
566.9982, 4638.016
567.4803, 4682.344
567.9625, 4750.596
568.4446, 4794.581
568.9267, 4813.939
569.4088, 4832.983
569.8909, 4872.295
570.3730, 4923.987
570.8552, 4973.970
571.3373, 5019.670
571.8194, 5064.776
572.3015, 5122.688
572.7836, 5179.235
573.2657, 5214.798
573.7479, 5207.063
574.2300, 5192.568
574.7121, 5189.085
575.1942, 5192.039
575.6763, 5173.458
576.1584, 5118.355
576.6406, 5054.541
577.1227, 4988.116
577.6048, 4916.603
578.0869, 4861.180
578.5690, 4827.024
579.0511, 4798.889
579.5333, 4757.923
580.0154, 4702.930
580.4975, 4667.546
580.9796, 4662.206
581.4617, 4668.575
581.9438, 4656.333
582.4260, 4628.291
582.9081, 4598.738
583.3902, 4572.610
583.8723, 4549.257
584.3544, 4526.835
584.8365, 4505.847
585.3187, 4490.096
585.8008, 4486.148
586.2829, 4485.503
586.7650, 4481.164
587.2471, 4469.015
587.7292, 4461.687
588.2114, 4462.489
588.6935, 4469.025
589.1756, 4478.546
589.6577, 4492.808
590.1398, 4507.557
590.6219, 4524.946
591.1041, 4541.557
591.5862, 4544.642
592.0683, 4531.479
592.5504, 4519.618
593.0325, 4514.277
593.5146, 4516.627
593.9968, 4535.928
594.4789, 4572.643
594.9610, 4611.116
595.4431, 4639.702
595.9252, 4661.190
596.4073, 4678.500
596.8895, 4689.842
597.3716, 4704.974
597.8537, 4734.810
598.3358, 4771.825
598.8179, 4804.500
599.3000, 4827.717
599.7822, 4848.215
600.2643, 4861.027
600.7464, 4870.410
601.2285, 4899.766
601.7106, 4967.852
602.1927, 5031.708
602.6749, 5070.700
603.1570, 5082.697
603.6391, 5107.856
604.1212, 5148.355
604.6033, 5194.743
605.0854, 5245.478
605.5676, 5297.353
606.0497, 5326.109
606.5318, 5324.179
607.0139, 5309.338
607.4960, 5304.619
607.9781, 5304.420
608.4603, 5295.604
608.9424, 5259.931
609.4245, 5224.439
609.9066, 5212.865
610.3887, 5219.045
610.8708, 5215.506
611.3530, 5188.700
611.8351, 5153.688
612.3172, 5111.768
612.7993, 5057.129
613.2814, 5028.309
613.7635, 5038.853
614.2457, 5061.245
614.7278, 5071.597
615.2099, 5063.784
615.6920, 5075.552
