##NAMES=Nobleite
##RRUFFID=R060847
##IDEAL CHEMISTRY=CaB_6_O_9_(OH)_2_&#183;3H_2_O
##LOCALITY=Hard Scramble claim, Death Valley USA
##OWNER=RRUFF
##SOURCE=Michael Scott
##DESCRIPTION=Colorless platy crystals
##STATUS=The identification of this mineral is confirmed by single-crystal X-ray diffraction and chemical analysis.
##URL=rruff.info/R060847
##MEASURED CHEMISTRY=Ca_1.00_B_6_O_9_((OH)_1.60_F_0.40_)_Σ=2_·3H_2_O ; trace amounts of Fe; B not measured but assumed by stoichiometry; OH estimated as 2-F
137.4373, 3984.253
137.9194, 4001.267
138.4015, 4071.411
138.8836, 4174.916
139.3657, 4286.590
139.8479, 4394.269
140.3300, 4507.633
140.8121, 4666.508
141.2942, 4887.753
141.7763, 5141.042
142.2584, 5438.088
142.7406, 5763.481
143.2227, 6096.918
143.7048, 6428.725
144.1869, 6759.844
144.6690, 7106.218
145.1511, 7479.087
145.6333, 7852.096
146.1154, 8237.691
146.5975, 8619.869
147.0796, 8974.630
147.5617, 9286.499
148.0438, 9556.738
148.5260, 9782.994
149.0081, 9990.048
149.4902, 10141.74
149.9723, 10216.54
150.4544, 10224.90
150.9365, 10191.76
151.4187, 10133.56
151.9008, 10048.18
152.3829, 9922.211
152.8650, 9722.486
153.3471, 9521.278
153.8292, 9351.658
154.3114, 9209.745
154.7935, 9075.264
155.2756, 8933.892
155.7577, 8786.688
156.2398, 8649.947
156.7219, 8513.606
157.2041, 8394.851
157.6862, 8308.956
158.1683, 8253.435
158.6504, 8211.538
159.1325, 8175.399
159.6146, 8143.437
160.0968, 8094.762
160.5789, 8019.550
161.0610, 7935.430
161.5431, 7850.478
162.0252, 7765.927
162.5073, 7687.877
162.9895, 7623.505
163.4716, 7572.307
163.9537, 7516.506
164.4358, 7454.223
164.9179, 7387.759
165.4000, 7317.158
165.8822, 7242.654
166.3643, 7169.658
166.8464, 7106.153
167.3285, 7049.899
167.8106, 6979.737
168.2927, 6890.896
168.7749, 6789.399
169.2570, 6678.032
169.7391, 6556.956
170.2212, 6433.183
170.7033, 6313.674
171.1854, 6196.821
171.6676, 6071.597
172.1497, 5923.550
172.6318, 5773.211
173.1139, 5645.203
173.5960, 5542.163
174.0781, 5449.992
174.5603, 5357.083
175.0424, 5265.229
175.5245, 5184.865
176.0066, 5121.851
176.4887, 5069.814
176.9708, 5020.206
177.4530, 4971.366
177.9351, 4929.481
178.4172, 4901.020
178.8993, 4883.608
179.3814, 4874.100
179.8635, 4873.324
180.3457, 4879.323
180.8278, 4889.923
181.3099, 4905.206
181.7920, 4923.846
182.2741, 4947.765
182.7562, 4974.638
183.2384, 4998.090
183.7205, 5004.839
184.2026, 5010.843
184.6847, 5044.284
185.1668, 5111.846
185.6489, 5186.025
186.1311, 5246.110
186.6132, 5296.553
187.0953, 5346.186
187.5774, 5394.643
188.0595, 5444.941
188.5416, 5502.262
189.0238, 5568.160
189.5059, 5637.020
189.9880, 5716.557
190.4701, 5797.593
190.9522, 5855.641
191.4343, 5854.579
191.9165, 5835.186
192.3986, 5868.441
192.8807, 5966.938
193.3628, 6079.680
193.8449, 6179.415
194.3270, 6267.950
194.8092, 6344.115
195.2913, 6404.219
195.7734, 6453.372
196.2555, 6498.425
196.7376, 6538.807
197.2197, 6577.931
197.7019, 6619.682
198.1840, 6661.983
198.6661, 6700.019
199.1482, 6735.717
199.6303, 6765.093
200.1124, 6778.729
200.5946, 6772.965
201.0767, 6766.757
201.5588, 6792.608
202.0409, 6824.314
202.5230, 6815.441
203.0051, 6735.629
203.4873, 6618.871
203.9694, 6508.571
204.4515, 6405.583
204.9336, 6306.020
205.4157, 6213.682
205.8978, 6122.011
206.3800, 6020.865
206.8621, 5901.098
207.3442, 5775.204
207.8263, 5659.025
208.3084, 5553.207
208.7905, 5451.604
209.2727, 5351.249
209.7548, 5253.617
210.2369, 5161.704
210.7190, 5079.723
211.2011, 5000.428
211.6832, 4914.535
212.1654, 4821.482
212.6475, 4732.578
213.1296, 4649.629
213.6117, 4576.951
214.0938, 4522.929
214.5760, 4497.778
215.0581, 4478.929
215.5402, 4440.600
216.0223, 4382.515
216.5044, 4333.264
216.9865, 4310.965
217.4687, 4302.625
217.9508, 4288.343
218.4329, 4265.747
218.9150, 4238.365
219.3971, 4205.062
219.8792, 4166.541
220.3614, 4136.214
220.8435, 4122.612
221.3256, 4118.532
221.8077, 4110.527
222.2898, 4094.854
222.7719, 4083.883
223.2541, 4091.515
223.7362, 4114.133
224.2183, 4128.634
224.7004, 4123.157
225.1825, 4109.220
225.6646, 4105.310
226.1468, 4113.731
226.6289, 4122.819
227.1110, 4124.685
227.5931, 4121.516
228.0752, 4120.292
228.5573, 4121.168
229.0395, 4127.778
229.5216, 4146.841
230.0037, 4180.020
230.4858, 4211.414
230.9679, 4235.854
231.4500, 4253.282
231.9322, 4262.773
232.4143, 4262.912
232.8964, 4257.625
233.3785, 4253.024
233.8606, 4249.934
234.3427, 4239.504
234.8249, 4213.721
235.3070, 4180.065
235.7891, 4153.678
236.2712, 4139.467
236.7533, 4122.211
237.2354, 4077.579
237.7176, 4005.951
238.1997, 3948.644
238.6818, 3917.905
239.1639, 3903.248
239.6460, 3893.752
240.1281, 3888.032
240.6103, 3885.054
241.0924, 3884.871
241.5745, 3887.507
242.0566, 3888.165
242.5387, 3879.405
243.0208, 3873.261
243.5030, 3884.672
243.9851, 3913.103
244.4672, 3938.381
244.9493, 3940.384
245.4314, 3920.397
245.9135, 3923.423
246.3957, 3974.930
246.8778, 4027.227
247.3599, 4048.568
247.8420, 4042.548
248.3241, 4030.637
248.8062, 4024.949
249.2884, 4025.706
249.7705, 4032.911
250.2526, 4051.854
250.7347, 4070.646
251.2168, 4083.750
251.6989, 4092.948
252.1811, 4101.502
252.6632, 4110.072
253.1453, 4120.681
253.6274, 4142.982
254.1095, 4188.613
254.5916, 4230.298
255.0738, 4264.960
255.5559, 4291.643
256.0380, 4308.342
256.5201, 4314.042
257.0022, 4311.095
257.4843, 4304.912
257.9665, 4303.908
258.4486, 4287.828
258.9307, 4251.689
259.4128, 4202.391
259.8949, 4143.425
260.3770, 4076.500
260.8592, 4008.083
261.3413, 3948.461
261.8234, 3906.340
262.3055, 3855.646
262.7876, 3785.599
263.2697, 3715.256
263.7519, 3659.481
264.2340, 3619.589
264.7161, 3585.973
265.1982, 3548.313
265.6803, 3505.591
266.1624, 3462.060
266.6446, 3415.890
267.1267, 3370.606
267.6088, 3322.604
268.0909, 3275.727
268.5730, 3241.714
269.0551, 3234.041
269.5373, 3253.593
270.0194, 3255.345
270.5015, 3213.290
270.9836, 3177.872
271.4657, 3165.637
271.9478, 3169.065
272.4300, 3173.264
272.9121, 3169.209
273.3942, 3158.502
273.8763, 3147.797
274.3584, 3134.660
274.8405, 3125.661
275.3227, 3125.706
275.8048, 3129.016
276.2869, 3128.603
276.7690, 3121.171
277.2511, 3109.964
277.7332, 3100.874
278.2154, 3093.752
278.6975, 3089.263
279.1796, 3085.548
279.6617, 3085.534
280.1438, 3094.031
280.6259, 3112.466
281.1081, 3131.508
281.5902, 3141.098
282.0723, 3140.898
282.5544, 3135.986
283.0365, 3122.330
283.5186, 3108.375
284.0008, 3099.323
284.4829, 3095.507
284.9650, 3096.182
285.4471, 3112.644
285.9292, 3136.836
286.4113, 3125.925
286.8935, 3059.789
287.3756, 2983.452
287.8577, 2927.148
288.3398, 2889.419
288.8219, 2867.839
289.3040, 2871.134
289.7862, 2886.757
290.2683, 2894.135
290.7504, 2891.125
291.2325, 2886.354
291.7146, 2884.668
292.1967, 2885.989
292.6789, 2890.039
293.1610, 2903.899
293.6431, 2915.086
294.1252, 2907.991
294.6073, 2885.519
295.0894, 2870.694
295.5716, 2877.438
296.0537, 2899.638
296.5358, 2916.179
297.0179, 2920.816
297.5000, 2929.204
297.9821, 2950.078
298.4643, 2978.780
298.9464, 3006.335
299.4285, 3029.339
299.9106, 3049.462
300.3927, 3068.511
300.8748, 3076.588
301.3570, 3105.102
301.8391, 3171.271
302.3212, 3251.766
302.8033, 3326.397
303.2854, 3390.650
303.7675, 3446.440
304.2497, 3494.430
304.7318, 3528.518
305.2139, 3581.334
305.6960, 3669.865
306.1781, 3759.689
306.6602, 3832.387
307.1424, 3889.141
307.6245, 3941.231
308.1066, 3997.196
308.5887, 4056.767
309.0708, 4113.059
309.5529, 4166.561
310.0351, 4215.730
310.5172, 4270.716
310.9993, 4318.356
311.4814, 4338.416
311.9635, 4319.747
312.4456, 4273.615
312.9278, 4228.787
313.4099, 4191.025
313.8920, 4142.996
314.3741, 4068.382
314.8562, 3992.325
315.3383, 3934.114
315.8205, 3898.590
316.3026, 3879.440
316.7847, 3871.032
317.2668, 3874.087
317.7489, 3882.033
318.2310, 3892.646
318.7132, 3910.223
319.1953, 3938.839
319.6774, 3977.226
320.1595, 4019.046
320.6416, 4053.108
321.1237, 4086.475
321.6059, 4144.057
322.0880, 4231.073
322.5701, 4333.628
323.0522, 4450.092
323.5343, 4575.275
324.0164, 4699.797
324.4986, 4816.919
324.9807, 4936.091
325.4628, 5074.602
325.9449, 5231.352
326.4270, 5372.766
326.9091, 5478.819
327.3913, 5560.182
327.8734, 5647.108
328.3555, 5753.829
328.8376, 5839.439
329.3197, 5892.218
329.8018, 5910.203
330.2840, 5884.525
330.7661, 5809.028
331.2482, 5705.426
331.7303, 5604.308
332.2124, 5509.640
332.6945, 5403.992
333.1767, 5271.110
333.6588, 5137.041
334.1409, 5022.179
334.6230, 4928.491
335.1051, 4846.645
335.5873, 4767.982
336.0694, 4692.753
336.5515, 4623.179
337.0336, 4565.244
337.5157, 4506.010
337.9979, 4438.668
338.4800, 4367.030
338.9621, 4296.966
339.4442, 4231.366
339.9263, 4170.806
340.4084, 4119.196
340.8906, 4089.188
341.3727, 4045.692
341.8548, 3971.000
342.3369, 3891.160
342.8190, 3827.086
343.3011, 3783.803
343.7833, 3753.641
344.2654, 3728.039
344.7475, 3706.827
345.2296, 3691.222
345.7117, 3682.359
346.1938, 3678.557
346.6760, 3678.363
347.1581, 3682.107
347.6402, 3691.121
348.1223, 3709.156
348.6044, 3732.652
349.0865, 3751.348
349.5687, 3763.274
350.0508, 3777.561
350.5329, 3803.385
351.0150, 3834.074
351.4971, 3858.794
351.9792, 3875.134
352.4614, 3885.803
352.9435, 3890.474
353.4256, 3890.478
353.9077, 3890.536
354.3898, 3890.012
354.8719, 3893.980
355.3541, 3913.697
355.8362, 3950.315
356.3183, 3990.721
356.8004, 4033.765
357.2825, 4078.055
357.7646, 4118.781
358.2468, 4156.295
358.7289, 4200.650
359.2110, 4263.634
359.6931, 4347.607
360.1752, 4422.357
360.6573, 4466.355
361.1395, 4524.111
361.6216, 4627.139
362.1037, 4756.495
362.5858, 4872.797
363.0679, 4953.751
363.5500, 5011.557
364.0322, 5085.376
364.5143, 5195.617
364.9964, 5289.249
365.4785, 5341.746
365.9606, 5390.293
366.4427, 5468.017
366.9249, 5579.989
367.4070, 5702.911
367.8891, 5808.930
368.3712, 5896.913
368.8533, 5991.568
369.3354, 6083.455
369.8176, 6196.852
370.2997, 6343.172
370.7818, 6518.598
371.2639, 6712.036
371.7460, 6924.237
372.2281, 7146.656
372.7103, 7366.259
373.1924, 7580.788
373.6745, 7803.365
374.1566, 8038.744
374.6387, 8287.196
375.1208, 8549.279
375.6030, 8829.321
376.0851, 9111.671
376.5672, 9392.352
377.0493, 9669.993
377.5314, 9943.917
378.0135, 10214.93
378.4957, 10476.65
378.9778, 10729.63
379.4599, 10981.77
379.9420, 11160.05
380.4241, 11249.31
380.9063, 11276.53
381.3884, 11264.17
381.8705, 11206.64
382.3526, 11078.68
382.8347, 10862.08
383.3168, 10564.56
383.7990, 10233.38
384.2811, 9842.740
384.7632, 9445.308
385.2453, 9045.455
385.7274, 8641.553
386.2095, 8225.846
386.6917, 7798.625
387.1738, 7382.495
387.6559, 7010.432
388.1380, 6683.524
388.6201, 6377.458
389.1022, 6080.952
389.5844, 5819.041
390.0665, 5613.386
390.5486, 5450.423
391.0307, 5296.704
391.5128, 5131.149
391.9949, 4964.629
392.4771, 4814.331
392.9592, 4680.485
393.4413, 4566.131
393.9234, 4480.538
394.4055, 4412.613
394.8876, 4342.226
395.3698, 4267.886
395.8519, 4193.754
396.3340, 4119.557
396.8161, 4048.024
397.2982, 3985.252
397.7803, 3932.906
398.2625, 3886.229
398.7446, 3840.200
399.2267, 3794.876
399.7088, 3750.539
400.1909, 3702.967
400.6730, 3660.174
401.1552, 3629.591
401.6373, 3607.270
402.1194, 3582.005
402.6015, 3547.121
403.0836, 3507.276
403.5657, 3478.969
404.0479, 3476.798
404.5300, 3461.914
405.0121, 3416.462
405.4942, 3368.683
405.9763, 3342.279
406.4584, 3339.202
406.9406, 3343.211
407.4227, 3336.679
407.9048, 3320.461
408.3869, 3315.907
408.8690, 3331.203
409.3511, 3344.928
409.8333, 3339.508
410.3154, 3326.065
410.7975, 3324.890
411.2796, 3346.957
411.7617, 3376.421
412.2438, 3395.188
412.7260, 3405.379
413.2081, 3423.193
413.6902, 3455.481
414.1723, 3495.147
414.6544, 3529.874
415.1365, 3557.510
415.6187, 3593.264
416.1008, 3649.694
416.5829, 3709.082
417.0650, 3753.228
417.5471, 3782.855
418.0292, 3813.771
418.5114, 3859.800
418.9935, 3917.366
419.4756, 3953.313
419.9577, 3948.899
420.4398, 3944.745
420.9219, 3957.203
421.4041, 3967.266
421.8862, 3951.102
422.3683, 3903.173
422.8504, 3842.736
423.3325, 3792.194
423.8146, 3751.906
424.2968, 3720.558
424.7789, 3702.909
425.2610, 3689.276
425.7431, 3674.418
426.2252, 3659.545
426.7073, 3647.411
427.1895, 3636.601
427.6716, 3631.766
428.1537, 3641.431
428.6358, 3665.371
429.1179, 3692.626
429.6000, 3721.192
430.0822, 3748.716
430.5643, 3772.409
431.0464, 3793.587
431.5285, 3807.112
432.0106, 3806.464
432.4927, 3800.506
432.9749, 3796.409
433.4570, 3795.822
433.9391, 3802.114
434.4212, 3820.025
434.9033, 3847.782
435.3854, 3860.728
435.8676, 3849.778
436.3497, 3834.661
436.8318, 3817.522
437.3139, 3798.300
437.7960, 3775.425
438.2781, 3748.919
438.7603, 3721.922
439.2424, 3697.182
439.7245, 3674.140
440.2066, 3659.582
440.6887, 3657.744
441.1708, 3660.053
441.6530, 3660.480
442.1351, 3661.328
442.6172, 3667.622
443.0993, 3680.332
443.5814, 3700.458
444.0635, 3730.341
444.5457, 3769.469
445.0278, 3811.641
445.5099, 3851.261
445.9920, 3897.661
446.4741, 3968.116
446.9562, 4064.350
447.4384, 4166.902
447.9205, 4270.274
448.4026, 4380.976
448.8847, 4502.773
449.3668, 4636.457
449.8489, 4780.140
450.3311, 4933.140
450.8132, 5095.784
451.2953, 5272.651
451.7774, 5461.732
452.2595, 5670.792
452.7416, 5912.107
453.2238, 6164.058
453.7059, 6413.044
454.1880, 6654.823
454.6701, 6892.938
455.1522, 7130.490
455.6343, 7367.376
456.1165, 7607.000
456.5986, 7865.811
457.0807, 8095.136
457.5628, 8277.315
458.0449, 8411.237
458.5270, 8488.469
459.0092, 8509.673
459.4913, 8469.276
459.9734, 8362.907
460.4555, 8192.053
460.9376, 7948.325
461.4197, 7627.463
461.9019, 7267.159
462.3840, 6908.111
462.8661, 6548.781
463.3482, 6211.788
463.8303, 5891.912
464.3124, 5599.296
464.7946, 5341.041
465.2767, 5114.003
465.7588, 4914.151
466.2409, 4738.905
466.7230, 4585.376
467.2051, 4449.143
467.6873, 4333.255
468.1694, 4223.839
468.6515, 4113.875
469.1336, 4016.576
469.6157, 3939.498
470.0978, 3881.199
470.5800, 3833.977
471.0621, 3794.487
471.5442, 3763.671
472.0263, 3748.554
472.5084, 3748.388
472.9905, 3736.887
473.4727, 3699.732
473.9548, 3650.526
474.4369, 3614.025
474.9190, 3591.043
475.4011, 3572.044
475.8832, 3560.203
476.3654, 3548.058
476.8475, 3528.463
477.3296, 3502.061
477.8117, 3474.135
478.2938, 3448.271
478.7759, 3423.748
479.2581, 3397.030
479.7402, 3363.889
480.2223, 3335.552
480.7044, 3313.827
481.1865, 3296.545
481.6686, 3284.119
482.1508, 3275.511
482.6329, 3265.692
483.1150, 3247.141
483.5971, 3224.186
484.0792, 3212.654
484.5613, 3214.862
485.0435, 3218.174
485.5256, 3217.489
486.0077, 3213.009
486.4898, 3205.929
486.9719, 3195.976
487.4540, 3183.962
487.9362, 3165.155
488.4183, 3146.836
488.9004, 3142.336
489.3825, 3151.613
489.8646, 3157.137
490.3467, 3142.063
490.8289, 3108.335
491.3110, 3089.349
491.7931, 3099.552
492.2752, 3107.682
492.7573, 3107.690
493.2394, 3104.656
493.7216, 3105.292
494.2037, 3110.507
494.6858, 3113.070
495.1679, 3100.668
495.6500, 3077.135
496.1321, 3070.636
496.6143, 3087.223
497.0964, 3107.080
497.5785, 3122.511
498.0606, 3132.203
498.5427, 3132.197
499.0248, 3115.444
499.5070, 3101.573
499.9891, 3105.197
500.4712, 3115.987
500.9533, 3116.601
501.4355, 3104.098
501.9176, 3088.475
502.3997, 3078.032
502.8818, 3072.684
503.3639, 3079.167
503.8460, 3108.834
504.3282, 3137.500
504.8103, 3162.649
505.2924, 3183.651
505.7745, 3198.891
506.2566, 3208.313
506.7387, 3216.139
507.2209, 3226.311
507.7030, 3238.689
508.1851, 3251.811
508.6672, 3264.293
509.1493, 3281.230
509.6314, 3308.957
510.1136, 3342.932
510.5957, 3372.098
511.0778, 3390.194
511.5599, 3413.056
512.0420, 3448.339
512.5241, 3492.857
513.0062, 3540.793
513.4883, 3591.360
513.9705, 3650.478
514.4526, 3723.506
514.9347, 3810.443
515.4168, 3903.554
515.8989, 4010.154
516.3810, 4113.355
516.8632, 4200.563
517.3453, 4287.800
517.8274, 4392.962
518.3095, 4518.963
518.7916, 4655.456
519.2737, 4794.049
519.7559, 4934.046
520.2380, 5073.569
520.7201, 5211.225
521.2022, 5352.236
521.6843, 5504.838
522.1664, 5660.571
522.6486, 5800.225
523.1307, 5935.995
523.6128, 6034.108
524.0949, 6085.822
524.5770, 6093.123
525.0591, 6054.915
525.5413, 5973.071
526.0234, 5856.739
526.5055, 5713.026
526.9876, 5541.189
527.4697, 5323.385
527.9518, 5011.356
528.4340, 4738.672
528.9161, 4550.642
529.3982, 4391.167
529.8803, 4209.834
530.3624, 4002.333
530.8445, 3808.937
531.3267, 3658.442
531.8088, 3538.156
532.2909, 3419.447
532.7730, 3301.400
533.2551, 3202.548
533.7372, 3136.154
534.2194, 3090.357
534.7015, 3037.031
535.1836, 2964.323
535.6657, 2911.631
536.1478, 2893.208
536.6299, 2887.749
537.1121, 2884.040
537.5942, 2879.389
538.0763, 2873.314
538.5584, 2866.113
539.0405, 2855.148
539.5226, 2828.416
540.0048, 2775.863
540.4869, 2747.900
540.9690, 2776.974
541.4511, 2810.730
541.9332, 2808.379
542.4153, 2775.371
542.8975, 2744.214
543.3796, 2726.689
543.8617, 2716.017
544.3438, 2709.197
544.8259, 2704.384
545.3080, 2692.795
545.7902, 2670.207
546.2723, 2650.220
546.7544, 2655.287
547.2365, 2697.426
547.7186, 2714.536
548.2007, 2685.789
548.6829, 2657.296
549.1650, 2645.840
549.6471, 2644.807
550.1292, 2641.616
550.6113, 2631.433
551.0934, 2624.399
551.5756, 2638.282
552.0577, 2668.475
552.5398, 2680.797
553.0219, 2666.188
553.5040, 2651.240
553.9861, 2656.798
554.4683, 2677.346
554.9504, 2687.557
555.4325, 2671.460
555.9146, 2667.002
556.3967, 2695.801
556.8788, 2736.672
557.3610, 2768.137
557.8431, 2786.269
558.3252, 2796.163
558.8073, 2801.159
559.2894, 2802.144
559.7715, 2804.084
560.2537, 2806.064
560.7358, 2811.020
561.2179, 2813.017
561.7000, 2823.095
562.1821, 2855.464
562.6642, 2909.249
563.1464, 2959.177
563.6285, 2993.673
564.1106, 3017.593
564.5927, 3031.617
565.0748, 3038.605
565.5569, 3051.046
566.0391, 3074.765
566.5212, 3104.853
567.0033, 3131.274
567.4854, 3145.415
567.9675, 3181.545
568.4496, 3255.386
568.9318, 3332.037
569.4139, 3392.712
569.8960, 3447.129
570.3781, 3514.852
570.8602, 3604.662
571.3423, 3699.077
571.8245, 3783.742
572.3066, 3856.441
572.7887, 3906.492
573.2708, 3931.386
573.7529, 3937.443
574.2350, 3929.183
574.7172, 3905.384
575.1993, 3862.984
575.6814, 3789.515
576.1635, 3714.709
576.6456, 3650.202
577.1277, 3584.410
577.6099, 3500.950
578.0920, 3401.847
578.5741, 3304.495
579.0562, 3221.570
579.5383, 3151.873
580.0204, 3093.259
580.5026, 3048.654
580.9847, 3002.023
581.4668, 2942.971
581.9489, 2886.648
582.4310, 2851.773
582.9132, 2836.355
583.3953, 2812.865
583.8774, 2758.647
584.3596, 2706.983
584.8417, 2687.145
585.3238, 2688.728
585.8059, 2687.811
586.2880, 2675.877
586.7701, 2656.626
587.2523, 2633.005
587.7344, 2603.018
588.2165, 2586.809
588.6986, 2593.694
589.1807, 2602.370
589.6628, 2603.023
590.1450, 2602.822
590.6271, 2612.384
591.1092, 2634.817
591.5913, 2655.724
592.0734, 2663.480
592.5555, 2664.655
593.0377, 2665.046
593.5198, 2666.826
594.0019, 2686.284
594.4840, 2736.334
594.9661, 2801.532
595.4482, 2840.332
595.9304, 2830.230
596.4125, 2836.083
596.8946, 2861.688
597.3767, 2897.648
597.8588, 2940.184
598.3409, 2989.232
598.8231, 3046.628
599.3052, 3115.633
599.7873, 3184.822
600.2694, 3236.514
600.7515, 3276.100
601.2336, 3331.308
601.7158, 3409.121
602.1979, 3485.326
602.6800, 3538.335
603.1621, 3572.142
603.6442, 3620.413
604.1263, 3707.537
604.6085, 3775.169
605.0906, 3805.366
605.5727, 3820.046
606.0548, 3839.774
606.5369, 3863.057
607.0190, 3873.356
607.5012, 3858.424
607.9833, 3824.882
608.4654, 3786.492
608.9475, 3743.442
609.4296, 3685.887
609.9117, 3603.818
610.3939, 3521.721
610.8760, 3465.396
611.3581, 3435.601
611.8402, 3409.619
612.3223, 3391.005
612.8044, 3371.483
613.2866, 3341.934
613.7687, 3312.724
614.2508, 3296.215
614.7329, 3294.945
615.2150, 3304.147
615.6971, 3320.932
616.1793, 3344.258
616.6614, 3367.041
617.1435, 3386.208
617.6256, 3421.213
618.1077, 3485.175
618.5898, 3561.483
619.0720, 3626.631
619.5541, 3680.339
620.0362, 3738.947
620.5183, 3799.906
621.0004, 3871.647
621.4825, 3958.993
621.9647, 4060.100
622.4468, 4170.981
622.9289, 4290.519
623.4110, 4421.376
623.8931, 4568.264
624.3752, 4730.555
624.8574, 4899.194
625.3395, 5068.934
625.8216, 5259.040
626.3037, 5471.261
626.7858, 5713.834
627.2679, 6002.131
627.7501, 6342.751
628.2322, 6677.659
628.7143, 6963.813
629.1964, 7264.943
629.6785, 7639.389
630.1606, 8069.104
630.6428, 8514.846
631.1249, 8961.213
631.6070, 9397.366
