##NAMES=Norbergite
##RRUFFID=R050280
##IDEAL CHEMISTRY=Mg_3_SiO_4_F_2_
##LOCALITY=Sterling mine, Ogdensburg, New Jersey, USA
##OWNER=RRUFF
##SOURCE=Marcus Origlieri
##DESCRIPTION=Brownish-orange granular
##STATUS=The identification of this mineral has been confirmed by X-ray diffraction and chemical analysis
##URL=rruff.info/R050280
##MEASURED CHEMISTRY=(Mg_0.993_Fe_0.006_Ca_0.001_)_3_(SiO_4_)(F_0.704_OH_0.296_)_2_
92.54132, 0.0000000E+00
93.02344, 10.67718
93.50555, 2.955831
93.98767, 0.1404678
94.46979, 4.575968
94.95190, 13.78042
95.43402, 23.00777
95.91614, 32.62146
96.39825, 40.07474
96.88037, 39.73587
97.36249, 32.07580
97.84460, 26.05006
98.32672, 27.71099
98.80884, 36.44770
99.29095, 42.51395
99.77307, 44.84235
100.2552, 44.77283
100.7373, 44.95746
101.2194, 45.39436
101.7015, 46.08332
102.1837, 46.93254
102.6658, 47.80986
103.1479, 49.50342
103.6300, 52.47484
104.1121, 56.37856
104.5942, 58.97073
105.0763, 59.17471
105.5585, 59.52747
106.0406, 62.45401
106.5227, 71.01101
107.0048, 76.56324
107.4869, 75.37939
107.9690, 66.32863
108.4512, 65.92458
108.9333, 85.48499
109.4154, 108.0132
109.8975, 116.3271
110.3796, 89.30666
110.8617, 68.32209
111.3439, 62.24371
111.8260, 75.16231
112.3081, 89.07003
112.7902, 106.6440
113.2723, 123.8200
113.7544, 134.6265
114.2366, 129.6845
114.7187, 124.9158
115.2008, 127.6986
115.6829, 144.1725
116.1650, 156.4412
116.6471, 155.0436
117.1293, 145.8325
117.6114, 142.2264
118.0935, 156.7324
118.5756, 173.8663
119.0577, 183.2109
119.5398, 177.8002
120.0220, 170.7766
120.5041, 167.5697
120.9862, 168.0252
121.4683, 171.5148
121.9504, 179.5482
122.4325, 189.7521
122.9147, 199.7697
123.3968, 209.4051
123.8789, 218.0338
124.3610, 226.0257
124.8431, 233.1869
125.3252, 236.7600
125.8074, 228.9976
126.2895, 216.2957
126.7716, 210.9033
127.2537, 223.3904
127.7358, 244.0233
128.2179, 258.3110
128.7001, 266.1314
129.1822, 268.9735
129.6643, 264.8467
130.1464, 255.7112
130.6285, 249.7067
131.1106, 251.4870
131.5928, 259.3830
132.0749, 268.5476
132.5570, 278.9970
133.0391, 289.6106
133.5212, 298.3574
134.0033, 304.7961
134.4855, 310.0196
134.9676, 317.1714
135.4497, 326.7549
135.9318, 329.4770
136.4139, 323.1346
136.8960, 312.6581
137.3782, 307.1407
137.8603, 306.7835
138.3424, 309.6158
138.8245, 316.0941
139.3066, 327.3253
139.7887, 333.6327
140.2709, 332.6914
140.7530, 326.9542
141.2351, 324.9951
141.7172, 328.1408
142.1993, 332.0029
142.6814, 332.7775
143.1636, 327.6126
143.6457, 327.7241
144.1278, 336.8355
144.6099, 353.3918
145.0920, 362.9242
145.5741, 362.7941
146.0563, 358.8403
146.5384, 355.6616
147.0205, 355.3261
147.5026, 352.1564
147.9847, 342.2650
148.4668, 324.8890
148.9490, 318.5458
149.4311, 330.9647
149.9132, 349.5859
150.3953, 362.7635
150.8774, 368.9705
151.3595, 371.5704
151.8417, 370.1041
152.3238, 363.7202
152.8059, 358.3701
153.2880, 353.0194
153.7701, 349.1620
154.2522, 348.3579
154.7344, 355.5755
155.2165, 361.3827
155.6986, 362.6589
156.1807, 357.8583
156.6628, 353.9972
157.1449, 352.7859
157.6271, 353.0067
158.1092, 353.0249
158.5913, 351.0567
159.0734, 349.9753
159.5555, 351.0527
160.0376, 354.8835
160.5198, 359.5125
161.0019, 366.4361
161.4840, 373.6410
161.9661, 377.3974
162.4482, 373.5683
162.9303, 367.9540
163.4125, 363.1434
163.8946, 358.1800
164.3767, 357.2102
164.8588, 366.4923
165.3409, 381.5294
165.8230, 391.8156
166.3052, 389.4161
166.7873, 382.2163
167.2694, 375.8107
167.7515, 370.4574
168.2336, 367.6898
168.7157, 370.0071
169.1978, 376.0864
169.6800, 381.7313
170.1621, 383.8320
170.6442, 384.6305
171.1263, 386.7228
171.6084, 392.1373
172.0905, 397.0195
172.5727, 397.3195
173.0548, 393.8453
173.5369, 390.5533
174.0190, 391.8740
174.5011, 394.4453
174.9832, 393.0717
175.4654, 383.0210
175.9475, 372.1883
176.4296, 369.5863
176.9117, 374.5530
177.3938, 381.4694
177.8759, 387.9644
178.3581, 393.2780
178.8402, 395.6133
179.3223, 392.3524
179.8044, 387.4867
180.2865, 386.6819
180.7686, 389.8695
181.2508, 394.9667
181.7329, 401.9409
182.2150, 409.6496
182.6971, 414.8804
183.1792, 416.1595
183.6613, 414.5291
184.1435, 410.6674
184.6256, 404.4134
185.1077, 399.5755
185.5898, 401.5277
186.0719, 408.6270
186.5540, 413.7039
187.0362, 412.2624
187.5183, 407.5780
188.0004, 410.6542
188.4825, 422.5283
188.9646, 433.2754
189.4467, 428.6922
189.9289, 410.9588
190.4110, 398.2718
190.8931, 399.0190
191.3752, 409.7450
191.8573, 416.9461
192.3394, 420.5731
192.8216, 421.3059
193.3037, 416.7961
193.7858, 407.3446
194.2679, 404.9499
194.7500, 419.8959
195.2321, 447.5132
195.7143, 455.6452
196.1964, 440.6953
196.6785, 417.4228
197.1606, 402.4276
197.6427, 395.6166
198.1248, 396.5009
198.6070, 409.0349
199.0891, 431.8771
199.5712, 443.0273
200.0533, 440.1210
200.5354, 431.3298
201.0175, 428.0146
201.4997, 431.0154
201.9818, 433.5784
202.4639, 432.8993
202.9460, 428.9699
203.4281, 426.3302
203.9102, 425.0159
204.3924, 424.9235
204.8745, 425.3986
205.3566, 425.9060
205.8387, 429.6938
206.3208, 440.6525
206.8029, 459.7607
207.2851, 466.9705
207.7672, 458.6365
208.2493, 443.6691
208.7314, 435.6115
209.2135, 435.9489
209.6956, 438.1232
210.1778, 440.0896
210.6599, 441.8318
211.1420, 443.4080
211.6241, 444.3113
212.1062, 445.6131
212.5883, 449.9513
213.0705, 459.5452
213.5526, 465.9995
214.0347, 465.0162
214.5168, 454.9597
214.9989, 448.7292
215.4810, 446.0274
215.9632, 447.4470
216.4453, 455.6678
216.9274, 475.5133
217.4095, 490.7247
217.8916, 494.3065
218.3737, 483.8020
218.8559, 476.2580
219.3380, 472.2957
219.8201, 470.8097
220.3022, 470.4660
220.7843, 472.1311
221.2664, 473.0295
221.7486, 471.1809
222.2307, 465.0262
222.7128, 465.1685
223.1949, 474.2591
223.6770, 487.5195
224.1591, 497.7945
224.6413, 505.4632
225.1234, 509.5645
225.6055, 509.0265
226.0876, 502.5772
226.5697, 497.9310
227.0518, 495.9487
227.5340, 495.0978
228.0161, 492.4098
228.4982, 484.2447
228.9803, 481.0235
229.4624, 488.3995
229.9445, 510.7590
230.4267, 520.6365
230.9088, 512.3379
231.3909, 496.0574
231.8730, 486.2521
232.3551, 485.9037
232.8372, 486.6102
233.3194, 485.6027
233.8015, 481.9337
234.2836, 482.3047
234.7657, 489.4861
235.2478, 498.4854
235.7299, 502.3900
236.2121, 497.4340
236.6942, 493.8624
237.1763, 494.5221
237.6584, 500.0020
238.1405, 505.7207
238.6226, 512.7615
239.1048, 519.0510
239.5869, 522.0114
240.0690, 520.8136
240.5511, 517.6984
241.0332, 512.3873
241.5153, 504.3919
241.9975, 498.6896
242.4796, 495.4476
242.9617, 494.3996
243.4438, 495.6116
243.9259, 500.7548
244.4080, 505.0446
244.8902, 506.7575
245.3723, 505.5457
245.8544, 507.8072
246.3365, 517.3649
246.8186, 526.7233
247.3007, 527.4001
247.7829, 512.1284
248.2650, 502.3178
248.7471, 504.4254
249.2292, 518.8784
249.7113, 525.5107
250.1934, 520.5473
250.6756, 511.9594
251.1577, 506.5832
251.6398, 504.6537
252.1219, 505.5896
252.6040, 510.3596
253.0861, 518.6769
253.5683, 525.1481
254.0504, 530.2402
254.5325, 532.9079
255.0146, 531.5791
255.4967, 523.2838
255.9788, 518.0102
256.4609, 518.0544
256.9431, 522.6896
257.4252, 525.8670
257.9073, 527.4028
258.3894, 527.7441
258.8715, 526.7134
259.3536, 522.7793
259.8358, 521.6072
260.3179, 524.7735
260.8000, 531.3305
261.2821, 535.9962
261.7642, 538.4527
262.2463, 539.6475
262.7285, 540.1683
263.2106, 540.0826
263.6927, 539.0377
264.1748, 536.5363
264.6569, 533.1621
265.1390, 531.1967
265.6212, 531.5712
266.1033, 531.4648
266.5854, 528.4865
267.0675, 521.0204
267.5496, 517.4366
268.0317, 519.2405
268.5139, 524.6010
268.9960, 528.7811
269.4781, 531.4936
269.9602, 533.7798
270.4423, 536.8466
270.9244, 541.6558
271.4066, 541.2006
271.8887, 532.4114
272.3708, 521.2477
272.8529, 521.8029
273.3350, 537.9141
273.8171, 551.9211
274.2993, 554.8109
274.7814, 544.9785
275.2635, 538.4788
275.7456, 534.9827
276.2277, 535.3122
276.7098, 542.8497
277.1920, 559.4360
277.6741, 573.0562
278.1562, 578.0232
278.6383, 574.4426
279.1204, 573.6646
279.6025, 576.4354
280.0847, 580.2023
280.5668, 581.4594
281.0489, 579.9847
281.5310, 578.4607
282.0131, 577.3848
282.4952, 576.8944
282.9774, 578.0341
283.4595, 580.8494
283.9416, 585.1029
284.4237, 591.3105
284.9058, 599.4601
285.3879, 606.5067
285.8701, 611.8184
286.3522, 615.3982
286.8343, 615.7670
287.3164, 612.2642
287.7985, 610.7269
288.2806, 617.8539
288.7628, 632.7732
289.2449, 647.0275
289.7270, 659.7015
290.2091, 669.8687
290.6912, 674.7160
291.1733, 674.1313
291.6555, 670.9927
292.1376, 666.6454
292.6197, 661.3173
293.1018, 656.2700
293.5839, 652.2112
294.0660, 647.7578
294.5482, 639.4803
295.0303, 627.8001
295.5124, 617.0668
295.9945, 609.2281
296.4766, 604.3328
296.9587, 603.7147
297.4409, 608.6898
297.9230, 614.0762
298.4051, 612.1987
298.8872, 604.3594
299.3693, 596.0660
299.8514, 587.2784
300.3336, 580.7402
300.8157, 583.4651
301.2978, 596.9988
301.7799, 612.2114
302.2620, 620.1120
302.7441, 622.0690
303.2263, 621.6708
303.7084, 619.0638
304.1905, 615.6588
304.6726, 613.2209
305.1547, 611.8146
305.6368, 610.7541
306.1190, 608.9615
306.6011, 607.1887
307.0832, 606.8132
307.5653, 608.9140
308.0474, 612.1900
308.5295, 616.5213
309.0117, 621.6361
309.4938, 624.7047
309.9759, 621.0245
310.4580, 615.2316
310.9401, 613.3214
311.4222, 620.4084
311.9044, 627.2823
312.3865, 624.0873
312.8686, 614.2589
313.3507, 610.2851
313.8328, 627.0956
314.3149, 648.1831
314.7971, 659.0070
315.2792, 653.5498
315.7613, 644.8922
316.2434, 635.6625
316.7255, 627.9361
317.2076, 626.2357
317.6898, 639.6303
318.1719, 654.2588
318.6540, 661.4694
319.1361, 658.2588
319.6182, 654.7985
320.1003, 655.2009
320.5825, 657.2378
321.0646, 657.8457
321.5467, 651.1126
322.0288, 647.3730
322.5109, 651.8849
322.9930, 665.9182
323.4752, 678.5299
323.9573, 687.7304
324.4394, 694.4623
324.9215, 699.5745
325.4036, 704.5215
325.8857, 706.4547
326.3679, 702.0565
326.8500, 691.8480
327.3321, 687.3943
327.8142, 693.7195
328.2963, 703.1968
328.7784, 711.3289
329.2606, 717.8180
329.7427, 723.2377
330.2248, 727.6949
330.7069, 731.1537
331.1890, 733.2738
331.6711, 732.0729
332.1533, 731.7015
332.6354, 734.6033
333.1175, 745.2427
333.5996, 749.1222
334.0817, 744.0996
334.5638, 733.2068
335.0460, 721.4974
335.5281, 706.4896
336.0102, 695.1346
336.4923, 690.8343
336.9744, 695.0091
337.4565, 694.3874
337.9387, 685.8431
338.4208, 676.6122
338.9029, 677.3558
339.3850, 692.1323
339.8671, 701.0248
340.3492, 697.6490
340.8313, 683.8687
341.3134, 674.3895
341.7956, 669.3304
342.2777, 667.9421
342.7598, 670.6931
343.2419, 677.7360
343.7240, 684.0091
344.2061, 688.6815
344.6883, 692.1385
345.1704, 694.6970
345.6525, 696.2878
346.1346, 698.6078
346.6167, 704.1210
347.0988, 711.9279
347.5810, 715.2336
348.0631, 712.4533
348.5452, 708.4682
349.0273, 712.1243
349.5094, 721.9858
349.9915, 728.9449
350.4737, 726.5121
350.9558, 718.3420
351.4379, 711.6754
351.9200, 706.4783
352.4021, 704.3616
352.8842, 709.0096
353.3664, 717.9202
353.8485, 725.4042
354.3306, 729.5518
354.8127, 731.2891
355.2948, 731.0303
355.7769, 728.9728
356.2591, 726.3525
356.7412, 720.9310
357.2233, 716.6097
357.7054, 718.9487
358.1875, 733.2512
358.6696, 746.9686
359.1518, 750.7987
359.6339, 747.0863
360.1160, 741.4517
360.5981, 733.1488
361.0802, 726.1405
361.5623, 723.4661
362.0445, 726.1391
362.5266, 730.1363
363.0087, 735.6886
363.4908, 741.0129
363.9729, 743.8052
364.4550, 736.8219
364.9372, 733.3620
365.4193, 741.8714
365.9014, 762.8152
366.3835, 775.6396
366.8656, 768.3553
367.3477, 755.9456
367.8299, 749.2008
368.3120, 753.4572
368.7941, 758.5436
369.2762, 765.9701
369.7583, 774.2104
370.2404, 776.3765
370.7226, 764.0649
371.2047, 753.8203
371.6868, 752.5154
372.1689, 763.9819
372.6510, 775.8593
373.1331, 789.1492
373.6153, 802.3896
374.0974, 813.0330
374.5795, 819.9050
375.0616, 826.4510
375.5437, 834.0847
376.0258, 842.8616
376.5080, 848.4553
376.9901, 850.0969
377.4722, 849.9908
377.9543, 850.3392
378.4364, 851.3400
378.9185, 851.0616
379.4007, 848.2606
379.8828, 844.4995
380.3649, 845.7534
380.8470, 852.6351
381.3291, 858.8550
381.8112, 860.3663
382.2934, 857.4854
382.7755, 852.3956
383.2576, 845.2523
383.7397, 836.0507
384.2218, 821.1573
384.7039, 802.4409
385.1861, 790.9244
385.6682, 798.3942
386.1503, 814.6411
386.6324, 819.3113
387.1145, 812.0487
387.5966, 802.0219
388.0788, 794.9114
388.5609, 790.6828
389.0430, 789.4858
389.5251, 793.3116
390.0072, 797.7636
390.4893, 798.0365
390.9715, 795.2339
391.4536, 793.4792
391.9357, 798.1797
392.4178, 803.1141
392.8999, 801.8226
393.3820, 790.5156
393.8642, 782.0426
394.3463, 786.0661
394.8284, 796.2488
395.3105, 802.7353
395.7926, 796.2197
396.2747, 791.2341
396.7569, 796.4901
397.2390, 812.9323
397.7211, 821.8267
398.2032, 809.5940
398.6853, 794.0833
399.1674, 788.5194
399.6496, 804.5463
400.1317, 817.9784
400.6138, 826.3795
401.0959, 830.8456
401.5780, 835.3823
402.0602, 843.0692
402.5423, 847.0770
403.0244, 842.7639
403.5065, 824.5400
403.9886, 818.4072
404.4707, 830.1473
404.9529, 848.4047
405.4350, 856.7713
405.9171, 851.4877
406.3992, 848.6708
406.8813, 853.2080
407.3634, 863.8416
407.8456, 872.9787
408.3277, 881.1619
408.8098, 885.6404
409.2919, 881.8533
409.7740, 870.4598
410.2561, 862.9228
410.7383, 861.1846
411.2204, 863.0475
411.7025, 864.5473
412.1846, 865.9512
412.6667, 869.5227
413.1488, 877.0380
413.6310, 887.4125
414.1131, 900.4224
414.5952, 916.3828
415.0773, 928.1895
415.5594, 926.3933
416.0415, 916.4866
416.5237, 907.9429
417.0058, 901.6811
417.4879, 900.4415
417.9700, 911.1853
418.4521, 930.5466
418.9342, 945.0609
419.4164, 942.7848
419.8985, 935.8640
420.3806, 933.3887
420.8627, 937.5005
421.3448, 943.6133
421.8269, 952.8218
422.3091, 962.2496
422.7912, 967.9414
423.2733, 962.2409
423.7554, 959.2933
424.2375, 965.1130
424.7196, 979.9604
425.2018, 991.5316
425.6839, 998.1186
426.1660, 1001.485
426.6481, 1002.374
427.1302, 996.4771
427.6123, 995.2508
428.0945, 1001.348
428.5766, 1011.566
429.0587, 1018.436
429.5408, 1020.725
430.0229, 1022.265
430.5050, 1024.342
430.9872, 1026.961
431.4693, 1028.716
431.9514, 1028.687
432.4335, 1030.024
432.9156, 1038.514
433.3977, 1054.447
433.8799, 1062.918
434.3620, 1058.751
434.8441, 1047.808
435.3262, 1042.901
435.8083, 1043.846
436.2904, 1047.093
436.7726, 1052.958
437.2547, 1059.237
437.7368, 1059.245
438.2189, 1051.675
438.7010, 1044.366
439.1831, 1048.257
439.6652, 1057.603
440.1473, 1061.207
440.6295, 1050.153
441.1116, 1035.693
441.5937, 1025.721
442.0758, 1019.989
442.5579, 1017.401
443.0400, 1018.968
443.5222, 1022.390
444.0043, 1026.958
444.4864, 1034.942
444.9685, 1037.640
445.4506, 1028.298
445.9327, 1012.997
446.4149, 1000.427
446.8970, 991.8058
447.3791, 986.6880
447.8612, 985.8344
448.3433, 989.3249
448.8254, 992.8386
449.3076, 996.7708
449.7897, 1000.308
450.2718, 1003.063
450.7539, 1005.344
451.2360, 1005.931
451.7181, 1003.992
452.2003, 1000.924
452.6824, 999.6843
453.1645, 1000.703
453.6466, 1001.781
454.1287, 1001.786
454.6108, 1001.006
455.0930, 1003.141
455.5751, 1008.958
456.0572, 1012.984
456.5393, 1006.469
457.0214, 992.3082
457.5035, 987.4880
457.9857, 997.8943
458.4678, 1012.380
458.9499, 1012.499
459.4320, 1002.124
459.9141, 995.3669
460.3962, 1003.701
460.8784, 1017.676
461.3605, 1028.853
461.8426, 1036.941
462.3247, 1036.660
462.8068, 1012.697
463.2889, 983.7816
463.7711, 970.6218
464.2532, 989.7685
464.7353, 1010.238
465.2174, 1020.379
465.6995, 1022.725
466.1816, 1023.411
466.6638, 1021.203
467.1459, 1020.025
467.6280, 1022.542
468.1101, 1030.650
468.5922, 1033.432
469.0743, 1025.283
469.5565, 1015.666
470.0386, 1012.795
470.5207, 1020.990
471.0028, 1027.206
471.4849, 1030.409
471.9670, 1030.793
472.4492, 1027.521
472.9313, 1018.547
473.4134, 1013.129
473.8955, 1016.854
474.3776, 1029.233
474.8597, 1038.630
475.3419, 1044.672
475.8240, 1050.006
476.3061, 1060.386
476.7882, 1073.397
477.2703, 1076.633
477.7524, 1063.608
478.2346, 1045.771
478.7167, 1038.389
479.1988, 1039.731
479.6809, 1043.362
480.1630, 1045.627
480.6451, 1048.420
481.1273, 1054.902
481.6094, 1065.485
482.0915, 1073.870
482.5736, 1074.090
483.0557, 1071.490
483.5378, 1071.263
484.0200, 1074.728
484.5021, 1080.747
484.9842, 1093.427
485.4663, 1108.776
485.9484, 1115.911
486.4305, 1101.256
486.9127, 1089.784
487.3948, 1091.474
487.8769, 1109.391
488.3590, 1118.438
488.8411, 1114.061
489.3232, 1105.757
489.8054, 1102.207
490.2875, 1106.083
490.7696, 1104.580
491.2517, 1094.298
491.7338, 1079.955
492.2159, 1072.729
492.6981, 1072.951
493.1802, 1075.065
493.6623, 1076.308
494.1444, 1077.412
494.6265, 1081.674
495.1086, 1089.201
495.5908, 1097.120
496.0729, 1103.603
496.5550, 1108.653
497.0371, 1111.855
497.5192, 1112.357
498.0013, 1112.863
498.4835, 1116.733
498.9656, 1122.346
499.4477, 1126.286
499.9298, 1126.132
500.4119, 1124.689
500.8940, 1123.669
501.3762, 1123.067
501.8583, 1121.357
502.3404, 1115.331
502.8225, 1109.948
503.3046, 1108.470
503.7867, 1114.560
504.2689, 1119.155
504.7510, 1122.450
505.2331, 1123.969
505.7152, 1122.227
506.1973, 1113.408
506.6794, 1109.543
507.1616, 1115.969
507.6437, 1130.355
508.1258, 1133.558
508.6079, 1122.394
509.0900, 1112.563
509.5721, 1117.290
510.0543, 1134.737
510.5364, 1144.648
511.0185, 1144.900
511.5006, 1141.585
511.9827, 1141.996
512.4648, 1144.961
512.9470, 1146.895
513.4291, 1147.133
513.9112, 1145.187
514.3933, 1135.094
514.8754, 1120.836
515.3575, 1117.012
515.8397, 1144.850
516.3218, 1176.849
516.8039, 1191.650
517.2860, 1184.766
517.7681, 1176.626
518.2502, 1171.276
518.7324, 1169.225
519.2145, 1170.926
519.6966, 1180.268
520.1787, 1188.750
520.6608, 1197.130
521.1429, 1204.012
521.6251, 1205.611
522.1072, 1199.026
522.5893, 1192.441
523.0714, 1187.919
523.5535, 1185.483
524.0356, 1187.316
524.5178, 1194.669
524.9999, 1202.101
525.4820, 1205.174
525.9641, 1204.093
526.4462, 1200.362
526.9283, 1193.139
527.4105, 1186.543
527.8926, 1187.688
528.3747, 1194.398
528.8568, 1199.388
529.3389, 1195.845
529.8210, 1191.839
530.3032, 1197.137
530.7853, 1210.099
531.2674, 1222.612
531.7495, 1229.954
532.2316, 1235.249
532.7137, 1242.500
533.1959, 1255.305
533.6780, 1257.706
534.1601, 1231.938
534.6422, 1200.142
535.1243, 1184.950
535.6064, 1202.576
536.0886, 1218.269
536.5707, 1228.596
537.0528, 1235.149
537.5349, 1242.680
538.0170, 1252.704
538.4991, 1259.889
538.9813, 1259.994
539.4634, 1253.778
539.9455, 1258.300
540.4276, 1275.709
540.9097, 1291.767
541.3918, 1288.513
541.8740, 1271.839
542.3561, 1266.899
542.8382, 1280.166
543.3203, 1297.146
543.8024, 1300.169
544.2845, 1293.944
544.7667, 1289.025
545.2488, 1287.904
545.7309, 1291.510
546.2130, 1304.069
546.6951, 1323.298
547.1772, 1338.151
547.6594, 1339.682
548.1415, 1339.177
548.6236, 1342.909
549.1057, 1352.729
549.5878, 1362.155
550.0699, 1372.885
550.5521, 1381.701
551.0342, 1385.475
551.5163, 1381.086
551.9984, 1377.957
552.4805, 1375.118
552.9626, 1375.375
553.4448, 1388.912
553.9269, 1418.625
554.4090, 1439.913
554.8911, 1439.914
555.3732, 1424.697
555.8553, 1415.682
556.3375, 1412.859
556.8196, 1411.630
557.3017, 1408.365
557.7838, 1404.416
558.2659, 1402.982
558.7480, 1405.233
559.2302, 1405.266
559.7123, 1396.232
560.1944, 1383.067
560.6765, 1372.190
561.1586, 1361.782
561.6407, 1357.974
562.1229, 1368.714
562.6050, 1388.127
563.0871, 1399.359
563.5692, 1393.272
564.0513, 1385.644
564.5334, 1379.805
565.0156, 1375.734
565.4977, 1374.964
565.9798, 1376.440
566.4619, 1383.132
566.9440, 1401.595
567.4261, 1433.476
567.9083, 1448.543
568.3904, 1441.631
568.8725, 1426.895
569.3546, 1422.201
569.8367, 1426.007
570.3188, 1431.590
570.8010, 1438.343
571.2831, 1443.857
571.7652, 1442.122
572.2473, 1435.822
572.7294, 1434.124
573.2115, 1444.311
573.6937, 1458.722
574.1758, 1474.889
574.6579, 1492.585
575.1400, 1503.400
575.6221, 1501.233
576.1042, 1493.851
576.5864, 1486.023
577.0685, 1475.396
577.5506, 1469.556
578.0327, 1471.084
578.5148, 1475.478
578.9969, 1476.321
579.4791, 1472.050
579.9612, 1469.699
580.4433, 1470.473
580.9254, 1474.135
581.4075, 1483.848
581.8896, 1499.378
582.3718, 1506.533
582.8539, 1490.167
583.3360, 1462.026
583.8181, 1446.757
584.3002, 1444.427
584.7823, 1448.275
585.2645, 1460.645
585.7466, 1472.982
586.2286, 1474.855
586.7108, 1460.738
587.1929, 1448.669
587.6750, 1446.991
588.1571, 1451.393
588.6392, 1456.828
