##NAMES=Norbergite
##RRUFFID=R050280
##IDEAL CHEMISTRY=Mg_3_SiO_4_F_2_
##LOCALITY=Sterling mine, Ogdensburg, New Jersey, USA
##OWNER=RRUFF
##SOURCE=Marcus Origlieri
##DESCRIPTION=Brownish-orange granular
##STATUS=The identification of this mineral has been confirmed by X-ray diffraction and chemical analysis
##URL=rruff.info/R050280
##MEASURED CHEMISTRY=(Mg_0.993_Fe_0.006_Ca_0.001_)_3_(SiO_4_)(F_0.704_OH_0.296_)_2_
92.67285, 70.84225
93.15497, 70.10338
93.63708, 70.69633
94.11920, 74.30086
94.60132, 77.40201
95.08344, 79.40999
95.56555, 80.05099
96.04767, 80.27372
96.52979, 80.86636
97.01190, 81.47749
97.49402, 81.55246
97.97614, 80.98269
98.45825, 80.55322
98.94037, 80.57355
99.42249, 80.69051
99.90460, 80.35927
100.3867, 79.50628
100.8688, 78.57179
101.3510, 78.17842
101.8331, 78.45692
102.3152, 78.79482
102.7973, 78.68194
103.2794, 78.08616
103.7615, 77.59526
104.2437, 77.47679
104.7258, 77.56913
105.2079, 77.80938
105.6900, 78.22275
106.1721, 78.69405
106.6542, 78.95305
107.1364, 78.86504
107.6185, 78.71935
108.1006, 78.56555
108.5827, 78.41608
109.0648, 78.26916
109.5469, 78.10521
110.0291, 77.92619
110.5112, 77.96609
110.9933, 78.41997
111.4754, 78.89217
111.9575, 79.30355
112.4396, 79.63380
112.9218, 79.87512
113.4039, 80.00186
113.8860, 79.96847
114.3681, 80.07088
114.8502, 80.57491
115.3323, 81.03507
115.8144, 80.97620
116.2966, 80.30492
116.7787, 79.55748
117.2608, 79.53889
117.7429, 80.26731
118.2250, 80.91496
118.7071, 81.32929
119.1893, 81.52640
119.6714, 81.47335
120.1535, 80.96366
120.6356, 80.49802
121.1177, 80.61568
121.5998, 81.31349
122.0820, 82.19053
122.5641, 83.12496
123.0462, 84.14485
123.5283, 84.67477
124.0104, 84.09731
124.4925, 83.23343
124.9747, 82.44170
125.4568, 81.81102
125.9389, 81.39268
126.4210, 81.35226
126.9031, 82.06360
127.3852, 82.37351
127.8674, 81.83895
128.3495, 81.06365
128.8316, 80.59579
129.3137, 80.68794
129.7958, 81.17622
130.2780, 81.47140
130.7601, 81.44209
131.2422, 81.34429
131.7243, 81.06400
132.2064, 80.74635
132.6885, 80.63161
133.1707, 80.89130
133.6528, 81.48207
134.1349, 81.92586
134.6170, 82.14205
135.0991, 82.32462
135.5812, 82.62282
136.0633, 83.00123
136.5455, 83.22980
137.0276, 83.02237
137.5097, 82.49278
137.9918, 82.29942
138.4739, 82.72581
138.9560, 83.38029
139.4382, 83.94660
139.9203, 84.46273
140.4024, 84.65364
140.8845, 83.90730
141.3666, 82.68340
141.8487, 81.83262
142.3309, 81.94995
142.8130, 82.75533
143.2951, 83.30055
143.7772, 83.41195
144.2593, 83.48033
144.7414, 83.75955
145.2236, 84.16659
145.7057, 84.49471
146.1878, 84.54778
146.6699, 84.30442
147.1520, 84.14600
147.6341, 84.00442
148.1163, 84.01590
148.5984, 84.36560
149.0805, 84.97098
149.5626, 85.55034
150.0447, 85.77115
150.5268, 85.47249
151.0090, 85.28996
151.4911, 85.21352
151.9732, 85.22987
152.4553, 85.31936
152.9374, 85.48228
153.4195, 85.75369
153.9017, 86.19817
154.3838, 86.98142
154.8659, 87.60970
155.3480, 88.14373
155.8301, 88.50129
156.3122, 88.54555
156.7944, 88.21711
157.2765, 87.69218
157.7586, 87.28522
158.2407, 87.02634
158.7228, 86.73242
159.2049, 86.27186
159.6871, 85.73937
160.1692, 85.38156
160.6513, 85.36228
161.1334, 85.43552
161.6155, 85.16263
162.0976, 84.45154
162.5798, 83.88572
163.0619, 83.91652
163.5440, 84.50525
164.0261, 85.14410
164.5082, 85.81675
164.9903, 86.36026
165.4725, 86.62583
165.9546, 86.57840
166.4367, 86.35772
166.9188, 86.07710
167.4009, 85.69779
167.8830, 85.41755
168.3652, 85.30750
168.8473, 85.29446
169.3294, 85.36720
169.8115, 85.52377
170.2936, 85.69199
170.7757, 85.69960
171.2579, 85.32961
171.7400, 85.21175
172.2221, 85.64094
172.7042, 86.21723
173.1863, 86.53487
173.6684, 86.41444
174.1506, 86.02646
174.6327, 85.89354
175.1148, 86.34235
175.5969, 86.69750
176.0790, 86.92005
176.5611, 87.01940
177.0433, 86.97504
177.5254, 86.76254
178.0075, 86.44889
178.4896, 86.37448
178.9717, 86.68353
179.4538, 87.03568
179.9360, 87.39639
180.4181, 87.74509
180.9002, 88.05094
181.3823, 88.30214
181.8644, 88.48656
182.3465, 88.56306
182.8287, 88.43790
183.3108, 88.31441
183.7929, 88.20097
184.2750, 88.13226
184.7571, 88.31767
185.2392, 89.02544
185.7214, 90.03532
186.2035, 90.68534
186.6856, 90.90038
187.1677, 90.80775
187.6498, 90.36281
188.1319, 89.54238
188.6141, 88.87560
189.0962, 88.77520
189.5783, 88.98208
190.0604, 89.15955
190.5425, 89.25140
191.0246, 89.26971
191.5068, 89.17606
191.9889, 88.89164
192.4710, 88.76768
192.9531, 89.21548
193.4352, 89.81657
193.9173, 90.09701
194.3995, 89.80888
194.8816, 89.18632
195.3637, 88.74711
195.8458, 88.51774
196.3279, 88.45447
196.8100, 88.54161
197.2922, 88.74957
197.7743, 89.10658
198.2564, 89.67563
198.7385, 90.31032
199.2206, 90.41148
199.7027, 89.30458
200.1849, 88.52352
200.6670, 88.47751
201.1491, 88.88413
201.6312, 89.42509
202.1133, 89.93538
202.5954, 90.37798
203.0776, 90.52085
203.5597, 89.89791
204.0418, 89.45164
204.5239, 89.39565
205.0060, 89.60667
205.4881, 89.88001
205.9703, 90.08940
206.4524, 90.25159
206.9345, 90.50605
207.4166, 91.15939
207.8987, 91.56977
208.3808, 91.40850
208.8630, 90.86672
209.3451, 90.33414
209.8272, 90.03342
210.3093, 89.95930
210.7914, 90.05795
211.2735, 90.59106
211.7557, 90.99524
212.2378, 90.86653
212.7199, 90.37879
213.2020, 90.11166
213.6841, 90.46825
214.1662, 91.31011
214.6484, 91.91914
215.1305, 92.26508
215.6126, 92.43797
216.0947, 92.39368
216.5768, 92.16984
217.0589, 92.02187
217.5410, 92.15449
218.0232, 92.43423
218.5053, 92.48936
218.9874, 92.12160
219.4695, 91.76611
219.9516, 91.85961
220.4337, 92.39160
220.9159, 92.81001
221.3980, 92.76018
221.8801, 92.47421
222.3622, 92.27274
222.8443, 92.17948
223.3264, 92.20933
223.8086, 92.42716
224.2907, 92.85503
224.7728, 93.25285
225.2549, 93.50732
225.7370, 93.68543
226.2191, 93.84441
226.7013, 94.00056
227.1834, 94.12125
227.6655, 94.16642
228.1476, 94.13281
228.6297, 94.03310
229.1118, 93.76597
229.5940, 93.49209
230.0761, 93.33456
230.5582, 93.33134
231.0403, 93.41771
231.5224, 93.48164
232.0045, 93.47256
232.4867, 93.59914
232.9688, 94.05778
233.4509, 94.56152
233.9330, 94.92921
234.4151, 95.10613
234.8972, 95.11498
235.3794, 94.92481
235.8615, 94.29453
236.3436, 94.04279
236.8257, 94.61533
237.3078, 95.29039
237.7899, 95.47957
238.2721, 95.06199
238.7542, 94.43241
239.2363, 94.24840
239.7184, 94.75698
240.2005, 95.25119
240.6826, 95.78942
241.1648, 96.26043
241.6469, 96.58850
242.1290, 96.75328
242.6111, 96.76852
243.0932, 96.62212
243.5753, 96.08028
244.0575, 95.87730
244.5396, 96.21264
245.0217, 96.70394
245.5038, 97.09859
245.9859, 97.34190
246.4680, 97.51968
246.9502, 97.76907
247.4323, 98.23387
247.9144, 98.35682
248.3965, 98.01574
248.8786, 97.45273
249.3607, 96.71137
249.8429, 95.85208
250.3250, 95.12336
250.8071, 94.86234
251.2892, 95.29355
251.7713, 95.37991
252.2534, 94.81586
252.7356, 94.13779
253.2177, 93.75235
253.6998, 93.69820
254.1819, 93.72594
254.6640, 93.57092
255.1461, 93.18697
255.6283, 92.98313
256.1104, 93.19060
256.5925, 93.40997
257.0746, 93.24622
257.5567, 92.70632
258.0388, 92.25664
258.5210, 92.35827
259.0031, 93.02530
259.4852, 93.37536
259.9673, 93.16599
260.4494, 92.82335
260.9315, 92.61660
261.4137, 92.56203
261.8958, 92.64671
262.3779, 92.94882
262.8600, 93.39339
263.3421, 93.56606
263.8242, 93.15068
264.3064, 92.70121
264.7885, 92.66088
265.2706, 92.99915
265.7527, 93.37279
266.2348, 93.61687
266.7169, 93.72659
267.1991, 93.73717
267.6812, 93.56844
268.1633, 93.39733
268.6454, 93.34365
269.1275, 93.40257
269.6096, 93.53420
270.0918, 93.78393
270.5739, 94.05302
271.0560, 94.19218
271.5381, 94.20717
272.0202, 94.07262
272.5023, 93.62656
272.9845, 92.93140
273.4666, 92.49906
273.9487, 92.61922
274.4308, 92.99941
274.9129, 93.24394
275.3951, 93.33449
275.8772, 93.36809
276.3593, 93.32701
276.8414, 93.24689
277.3235, 93.38724
277.8056, 93.96301
278.2878, 94.60522
278.7699, 94.96305
279.2520, 95.04529
279.7341, 95.00451
280.2162, 94.88058
280.6983, 94.69632
281.1805, 94.55450
281.6626, 94.41696
282.1447, 94.41272
282.6268, 94.68147
283.1089, 95.16621
283.5910, 95.63086
284.0732, 95.79300
284.5553, 95.80154
285.0374, 96.31466
285.5195, 97.76099
286.0016, 99.00979
286.4837, 99.19794
286.9659, 98.71751
287.4480, 98.38860
287.9301, 98.74663
288.4122, 99.51248
288.8943, 99.89754
289.3764, 99.75029
289.8586, 99.54484
290.3407, 99.50854
290.8228, 99.55578
291.3049, 99.58428
291.7870, 99.57741
292.2691, 99.49796
292.7513, 99.26796
293.2334, 98.86804
293.7155, 98.36758
294.1976, 97.54526
294.6797, 96.75278
295.1618, 96.40075
295.6440, 96.68094
296.1261, 97.14272
296.6082, 97.07512
297.0903, 96.32209
297.5724, 95.69467
298.0545, 95.54963
298.5367, 95.50950
299.0188, 95.27739
299.5009, 94.80177
299.9830, 94.35271
300.4651, 94.30824
300.9472, 94.74770
301.4294, 94.97121
301.9115, 94.63612
302.3936, 94.24154
302.8757, 94.01891
303.3578, 93.98655
303.8399, 94.07536
304.3221, 94.32689
304.8042, 94.74753
305.2863, 94.84301
305.7684, 94.06346
306.2505, 93.53761
306.7326, 94.01304
307.2148, 95.18313
307.6969, 96.21987
308.1790, 96.53054
308.6611, 96.21616
309.1432, 95.88854
309.6253, 95.43643
310.1075, 95.15026
310.5896, 95.10524
311.0717, 95.27534
311.5538, 95.67099
312.0359, 96.37807
312.5180, 97.20030
313.0002, 97.54004
313.4823, 97.02418
313.9644, 96.80005
314.4465, 97.49287
314.9286, 98.45347
315.4107, 99.00827
315.8929, 98.91017
316.3750, 98.52201
316.8571, 98.41725
317.3392, 98.66016
317.8213, 98.97743
318.3034, 99.40810
318.7856, 99.83320
319.2677, 100.1242
319.7498, 100.2776
320.2319, 100.4717
320.7140, 100.9658
321.1961, 101.8179
321.6783, 102.4970
322.1604, 102.7951
322.6425, 103.0418
323.1246, 103.3811
323.6067, 103.8086
324.0888, 104.2542
324.5710, 104.6052
325.0531, 104.8803
325.5352, 105.4337
326.0173, 106.5138
326.4994, 107.5686
326.9815, 108.3796
327.4637, 109.0095
327.9458, 109.5674
328.4279, 110.0952
328.9100, 110.6091
329.3921, 111.2105
329.8742, 112.0879
330.3564, 112.6461
330.8385, 112.6786
331.3206, 112.3456
331.8027, 111.7614
332.2848, 110.9437
332.7669, 110.0086
333.2491, 109.1417
333.7312, 108.3667
334.2133, 107.5511
334.6954, 106.5853
335.1775, 105.6210
335.6596, 104.7011
336.1418, 103.8409
336.6239, 103.1796
337.1060, 103.0205
337.5881, 103.3924
338.0702, 103.3115
338.5523, 102.2616
339.0345, 101.1391
339.5165, 100.3958
339.9987, 100.0132
340.4808, 99.84905
340.9629, 99.97402
341.4450, 100.2793
341.9271, 100.1353
342.4092, 99.18491
342.8914, 98.41609
343.3735, 98.50767
343.8556, 99.03587
344.3377, 99.33371
344.8198, 99.06850
345.3019, 98.49693
345.7841, 98.02019
346.2662, 97.60931
346.7483, 97.40774
347.2304, 97.64399
347.7125, 98.04546
348.1946, 98.41235
348.6768, 98.71185
349.1589, 98.92796
349.6410, 98.96983
350.1231, 98.84034
350.6052, 98.89825
351.0873, 99.40121
351.5695, 99.94111
352.0516, 100.2014
352.5337, 100.1821
353.0158, 100.0061
353.4979, 99.62282
353.9800, 99.12779
354.4622, 98.84219
354.9443, 98.79490
355.4264, 98.96253
355.9085, 99.50960
356.3906, 100.2556
356.8727, 100.7794
357.3549, 100.8523
357.8370, 100.6697
358.3191, 100.4204
358.8012, 100.0725
359.2833, 99.94455
359.7654, 100.3998
360.2476, 101.0994
360.7297, 101.5085
361.2118, 101.5138
361.6939, 101.3455
362.1760, 101.0976
362.6581, 100.7965
363.1403, 100.5838
363.6224, 100.4843
364.1045, 100.5261
364.5866, 100.7845
365.0687, 101.2697
365.5508, 101.7044
366.0330, 101.9743
366.5151, 102.1191
366.9972, 102.1553
367.4793, 102.0513
367.9614, 102.0275
368.4435, 102.3632
368.9257, 102.9926
369.4078, 103.5184
369.8899, 103.7621
370.3720, 103.9704
370.8541, 104.3580
371.3362, 104.9178
371.8184, 105.5199
372.3005, 106.1260
372.7826, 106.7043
373.2647, 107.1428
373.7468, 107.2775
374.2289, 107.5435
374.7111, 108.1181
375.1932, 108.9432
375.6753, 109.9514
376.1574, 111.1360
376.6395, 112.3972
377.1216, 113.6395
377.6038, 114.9839
378.0859, 115.8265
378.5680, 115.9933
379.0501, 115.7015
379.5322, 115.0239
380.0143, 114.0168
380.4965, 112.9392
380.9786, 112.0403
381.4607, 111.3230
381.9428, 110.3398
382.4249, 108.7881
382.9070, 107.3204
383.3892, 106.1935
383.8713, 105.3572
384.3534, 104.7353
384.8355, 104.3094
385.3176, 103.9875
385.7997, 103.4980
386.2819, 102.5756
386.7640, 101.8196
387.2461, 101.1586
387.7282, 100.7265
388.2103, 100.7721
388.6924, 101.2961
389.1746, 101.9188
389.6567, 102.1784
390.1388, 102.0156
390.6209, 101.6952
391.1030, 100.9504
391.5851, 100.3270
392.0673, 100.0902
392.5494, 100.1790
393.0315, 100.4050
393.5136, 100.6517
393.9957, 100.9122
394.4778, 101.1499
394.9600, 101.4761
395.4421, 101.6145
395.9242, 101.3144
396.4063, 100.9196
396.8884, 100.8288
397.3705, 101.1590
397.8527, 101.6300
398.3348, 101.7759
398.8169, 101.4580
399.2990, 101.3113
399.7811, 101.6052
400.2632, 101.8857
400.7454, 101.8634
401.2275, 101.6073
401.7096, 101.4201
402.1917, 101.5822
402.6738, 102.0167
403.1559, 102.2310
403.6381, 102.0021
404.1202, 101.9502
404.6023, 102.5162
405.0844, 103.2998
405.5665, 103.7975
406.0486, 103.8055
406.5308, 103.5868
407.0129, 103.3916
407.4950, 103.2011
407.9771, 103.3306
408.4592, 104.2015
408.9413, 105.1158
409.4235, 105.3876
409.9056, 105.0404
410.3877, 104.7396
410.8698, 104.8467
411.3519, 105.2851
411.8340, 105.9286
412.3162, 106.8520
412.7983, 107.6919
413.2804, 108.1451
413.7625, 108.3207
414.2446, 108.4249
414.7267, 108.3355
415.2089, 108.3534
415.6910, 108.7681
416.1731, 109.5278
416.6552, 110.3872
417.1373, 111.3073
417.6194, 112.1956
418.1016, 112.8387
418.5837, 113.1813
419.0658, 113.5977
419.5479, 114.1197
420.0300, 114.8026
420.5121, 115.7877
420.9943, 117.0838
421.4764, 118.4186
421.9585, 119.5818
422.4406, 120.5557
422.9227, 121.2955
423.4048, 121.4553
423.8870, 121.7542
424.3691, 122.6293
424.8512, 123.8677
425.3333, 125.0362
425.8154, 125.9372
426.2975, 126.6227
426.7797, 127.2208
427.2618, 127.7180
427.7439, 128.1265
428.2260, 128.3990
428.7081, 128.6194
429.1902, 128.9680
429.6724, 129.3859
430.1545, 129.5318
430.6366, 129.0196
431.1187, 127.8306
431.6008, 126.9478
432.0829, 126.6991
432.5651, 126.4214
433.0472, 125.8759
433.5293, 125.2480
434.0114, 124.8249
434.4935, 124.7371
434.9756, 124.7957
435.4578, 124.6361
435.9399, 124.1763
436.4220, 123.7666
436.9041, 123.5511
437.3862, 123.3159
437.8683, 122.9403
438.3505, 122.4280
438.8326, 121.8581
439.3147, 121.3386
439.7968, 120.8161
440.2789, 119.9945
440.7610, 118.7020
441.2432, 117.5118
441.7253, 116.7208
442.2074, 116.1954
442.6895, 115.8693
443.1716, 115.8489
443.6537, 115.6804
444.1359, 114.7184
444.6180, 113.1276
445.1001, 112.0139
445.5822, 111.8432
446.0643, 111.9110
446.5464, 111.3767
447.0286, 110.3118
447.5107, 109.2699
447.9928, 108.2555
448.4749, 107.4259
448.9570, 107.0067
449.4391, 106.9794
449.9213, 107.0971
450.4034, 107.2889
450.8855, 107.4711
451.3676, 107.3106
451.8497, 106.5986
452.3318, 105.9272
452.8140, 105.4158
453.2961, 105.0388
453.7782, 104.7852
454.2603, 104.6473
454.7424, 104.5840
455.2245, 104.5443
455.7067, 104.5163
456.1888, 104.5901
456.6709, 104.9997
457.1530, 105.2523
457.6351, 105.0364
458.1172, 104.5322
458.5994, 104.0371
459.0815, 103.6957
459.5636, 103.5606
460.0457, 103.8430
460.5278, 105.0364
461.0099, 105.6183
461.4921, 105.0167
461.9742, 104.2257
462.4563, 103.8848
462.9384, 104.0117
463.4205, 104.2410
463.9026, 104.2489
464.3848, 104.0888
464.8669, 104.1637
465.3490, 104.6840
465.8311, 105.0338
466.3132, 104.7175
466.7953, 104.2165
467.2775, 104.1434
467.7596, 104.7174
468.2417, 105.3981
468.7238, 105.6274
469.2059, 105.4674
469.6880, 105.3900
470.1702, 105.5547
470.6523, 105.6882
471.1344, 105.3937
471.6165, 104.7982
472.0986, 104.4648
472.5807, 104.6609
473.0629, 105.0857
473.5450, 105.5759
474.0271, 106.0857
474.5092, 106.3686
474.9913, 106.2495
475.4734, 105.9198
475.9556, 105.8444
476.4377, 106.1536
476.9198, 106.3519
477.4019, 106.2764
477.8840, 106.1130
478.3661, 106.0276
478.8483, 106.0386
479.3304, 106.0846
479.8125, 106.1136
480.2946, 106.1287
480.7767, 106.1897
481.2589, 106.3551
481.7410, 106.4952
482.2231, 106.4116
482.7052, 106.3750
483.1873, 106.8413
483.6694, 107.8813
484.1516, 108.9083
484.6337, 109.0278
485.1158, 108.0116
485.5979, 107.4566
486.0800, 107.8762
486.5621, 108.2181
487.0443, 107.9461
487.5264, 107.3323
488.0085, 106.9147
488.4906, 106.9871
488.9727, 107.2440
489.4548, 107.2281
489.9370, 106.9305
490.4191, 106.5110
490.9012, 105.9506
491.3833, 105.3416
491.8654, 104.6999
492.3475, 104.0461
492.8297, 103.6067
493.3118, 103.6820
493.7939, 103.9205
494.2760, 103.7957
494.7581, 103.3054
495.2402, 102.9087
495.7224, 102.8913
496.2045, 103.1235
496.6866, 103.2000
497.1687, 103.0046
497.6508, 102.9129
498.1329, 103.1084
498.6151, 103.3983
499.0972, 103.6029
499.5793, 103.6819
500.0614, 103.6252
500.5435, 103.3988
501.0256, 103.0052
501.5078, 102.7644
501.9899, 102.9162
502.4720, 102.9362
502.9541, 102.5747
503.4362, 102.0973
503.9183, 101.8170
504.4004, 101.8233
504.8825, 101.9789
505.3647, 102.1324
505.8468, 102.2923
506.3289, 102.3877
506.8110, 102.3881
507.2931, 102.3557
507.7752, 102.2830
508.2574, 102.2049
508.7395, 102.2091
509.2216, 102.3835
509.7037, 102.5171
510.1858, 102.2228
510.6679, 101.5368
511.1501, 101.1532
511.6322, 101.3476
512.1143, 101.7481
512.5964, 101.9318
513.0786, 101.9359
513.5607, 102.0585
514.0428, 102.6137
514.5249, 103.1359
515.0070, 103.1804
515.4891, 102.8028
515.9713, 102.2379
516.4534, 101.5276
516.9355, 100.8706
517.4176, 100.7381
517.8997, 101.5529
518.3818, 102.0381
518.8640, 101.8909
519.3461, 101.6235
519.8282, 101.5604
520.3103, 101.7187
520.7924, 102.0268
521.2745, 102.4661
521.7567, 102.9494
522.2388, 103.0771
522.7209, 102.6270
523.2030, 102.2221
523.6851, 101.9540
524.1672, 101.7498
524.6494, 101.5004
525.1315, 101.2311
525.6136, 101.1391
526.0957, 101.5462
526.5778, 102.2492
527.0599, 102.4280
527.5421, 101.9146
528.0242, 101.4638
528.5063, 101.5183
528.9884, 101.7842
529.4705, 101.8167
529.9526, 101.4961
530.4348, 101.3537
530.9169, 101.8457
531.3990, 102.6376
531.8811, 103.1507
532.3632, 103.3103
532.8453, 103.4125
533.3275, 103.7068
533.8096, 104.1446
534.2917, 104.3300
534.7738, 103.8727
535.2559, 103.6963
535.7380, 104.2036
536.2202, 104.9937
536.7023, 105.6661
537.1844, 106.1173
537.6665, 106.4317
538.1486, 106.7048
538.6307, 106.9386
539.1129, 106.9117
539.5950, 106.2423
540.0771, 105.8154
540.5592, 105.9260
541.0413, 106.3347
541.5234, 106.8127
542.0056, 107.2938
542.4877, 107.7518
542.9698, 108.1680
543.4519, 108.5390
543.9340, 108.8128
544.4161, 108.9201
544.8983, 109.0882
545.3804, 109.5062
545.8625, 110.0851
546.3446, 110.6702
546.8267, 111.2404
547.3088, 111.8088
547.7910, 112.3531
548.2731, 112.9078
548.7552, 113.5681
549.2373, 114.3523
549.7194, 115.1706
550.2015, 115.9549
550.6837, 116.7048
551.1658, 117.3024
551.6479, 117.8261
552.1300, 118.1308
552.6121, 118.2325
553.0942, 118.0704
553.5764, 117.4929
554.0585, 116.4943
554.5406, 115.3429
555.0227, 114.3103
555.5048, 113.3815
555.9869, 112.7716
556.4691, 112.7977
556.9512, 112.7000
557.4333, 112.0229
557.9154, 111.1545
558.3975, 110.6287
558.8796, 110.6209
559.3618, 110.7228
559.8439, 110.4486
560.3260, 109.9614
560.8081, 109.9522
561.2902, 110.6130
561.7723, 111.3263
562.2545, 111.6101
562.7366, 111.5510
563.2187, 111.6223
563.7008, 111.8604
564.1829, 112.1893
564.6650, 112.7569
565.1472, 113.3241
565.6293, 113.4744
566.1114, 113.1581
566.5935, 112.7901
567.0756, 112.7775
567.5577, 113.1189
568.0399, 113.5222
568.5220, 114.1771
569.0041, 114.6573
569.4862, 114.7637
569.9683, 114.7376
570.4504, 114.8440
570.9326, 115.1259
571.4147, 115.3955
571.8968, 115.5151
572.3789, 115.4778
572.8610, 115.1918
573.3431, 114.5583
573.8253, 113.9745
574.3074, 113.7861
574.7895, 113.6940
575.2716, 113.1867
575.7537, 112.0762
576.2358, 111.2052
576.7180, 111.2268
577.2001, 111.6211
577.6822, 111.6624
578.1643, 111.2849
578.6464, 110.7561
579.1285, 110.2224
579.6107, 109.7160
580.0928, 109.3781
580.5749, 109.4831
581.0570, 109.3903
581.5391, 108.8577
582.0212, 108.2812
582.5034, 108.0245
582.9855, 108.0447
583.4676, 108.0227
583.9497, 107.7118
584.4318, 107.2085
584.9139, 106.8239
585.3961, 106.5586
585.8782, 106.4050
586.3602, 106.4156
586.8423, 106.4969
587.3245, 106.6719
587.8066, 106.8989
588.2887, 106.8791
588.7708, 106.1149
