##NAMES=Nordenskioldine
##RRUFFID=R061079
##IDEAL CHEMISTRY=CaSn^4+^(BO_3_)_2_
##LOCALITY=MW Claim, Cassiar Mountains, Yukon, Canada
##OWNER=RRUFF
##SOURCE=Lloyd Twaites
##DESCRIPTION=Colorless aggregates of tabular crystals
##STATUS=The identification of this mineral has been confirmed by single-crystal X-ray diffraction.
##URL=rruff.info/R061079
157.2048, 888.0749
157.6869, 893.5609
158.1690, 899.6625
158.6511, 900.2896
159.1332, 888.5818
159.6153, 873.8681
160.0975, 874.6539
160.5796, 898.6237
161.0617, 922.2634
161.5438, 930.8813
162.0259, 926.0142
162.5080, 917.0112
162.9902, 907.2107
163.4723, 895.7197
163.9544, 880.5007
164.4365, 857.8832
164.9186, 838.6068
165.4007, 832.7244
165.8829, 839.4409
166.3650, 847.1298
166.8471, 852.5158
167.3292, 855.2886
167.8113, 855.0745
168.2934, 850.9006
168.7756, 845.5986
169.2577, 842.4436
169.7398, 841.5176
170.2219, 838.0556
170.7040, 827.0458
171.1861, 813.8270
171.6683, 805.2576
172.1504, 803.5958
172.6325, 804.2608
173.1146, 802.0309
173.5967, 796.4501
174.0788, 792.8719
174.5610, 795.6948
175.0431, 800.7432
175.5252, 803.2780
176.0073, 801.7784
176.4894, 798.7653
176.9715, 796.8715
177.4537, 796.1590
177.9358, 795.9024
178.4179, 795.6326
178.9000, 795.7534
179.3821, 797.0663
179.8642, 800.3927
180.3464, 803.5464
180.8285, 804.7321
181.3106, 804.4108
181.7927, 799.5203
182.2748, 779.9556
182.7569, 758.9021
183.2391, 749.6574
183.7212, 757.9158
184.2033, 772.7971
184.6854, 780.6342
185.1675, 780.2432
185.6496, 778.9634
186.1318, 779.3181
186.6139, 780.1194
187.0960, 780.2764
187.5781, 779.3492
188.0602, 778.2057
188.5423, 778.0094
189.0245, 778.9255
189.5066, 780.0298
189.9887, 780.0692
190.4708, 780.6145
190.9529, 783.8574
191.4350, 791.1259
191.9172, 798.3018
192.3993, 798.9516
192.8814, 791.3390
193.3635, 785.3686
193.8456, 786.2216
194.3277, 789.0556
194.8099, 789.1336
195.2920, 784.4895
195.7741, 781.0620
196.2562, 788.5701
196.7383, 810.0833
197.2204, 827.5128
197.7026, 831.5914
198.1847, 831.4753
198.6668, 833.3250
199.1489, 838.6349
199.6310, 845.6193
200.1131, 851.8455
200.5953, 856.8210
201.0774, 863.7117
201.5595, 874.4176
202.0416, 886.8942
202.5237, 898.3428
203.0058, 907.8778
203.4880, 921.3075
203.9701, 946.8974
204.4522, 986.3808
204.9343, 1025.927
205.4164, 1057.344
205.8985, 1090.790
206.3807, 1133.795
206.8628, 1187.902
207.3449, 1247.357
207.8270, 1303.943
208.3091, 1356.251
208.7912, 1420.407
209.2734, 1509.252
209.7555, 1605.103
210.2376, 1694.829
210.7197, 1777.164
211.2018, 1860.450
211.6839, 1959.581
212.1660, 2076.023
212.6482, 2170.156
213.1303, 2245.424
213.6124, 2282.993
214.0945, 2270.250
214.5766, 2207.275
215.0587, 2105.695
215.5409, 1962.445
216.0230, 1779.249
216.5051, 1604.055
216.9872, 1434.011
217.4693, 1286.202
217.9514, 1170.017
218.4336, 1084.895
218.9157, 1020.496
219.3978, 974.7834
219.8799, 946.0853
220.3620, 918.6802
220.8441, 888.2604
221.3263, 862.6483
221.8084, 848.2029
222.2905, 843.2015
222.7726, 839.0653
223.2547, 830.0341
223.7368, 817.0942
224.2190, 805.1413
224.7011, 793.8848
225.1832, 784.6541
225.6653, 777.9369
226.1474, 773.5346
226.6295, 770.9739
227.1117, 771.7499
227.5938, 774.2657
228.0759, 773.1426
228.5580, 766.3290
229.0401, 759.6465
229.5222, 756.9949
230.0044, 757.2466
230.4865, 758.1597
230.9686, 759.0384
231.4507, 759.8778
231.9328, 761.1313
232.4149, 763.5086
232.8971, 764.1774
233.3792, 759.6721
233.8613, 752.4400
234.3434, 746.3802
234.8255, 742.2526
235.3076, 740.2568
235.7898, 741.8837
236.2719, 748.0560
236.7540, 752.4458
237.2361, 747.1966
237.7182, 738.8354
238.2003, 738.5765
238.6825, 754.2717
239.1646, 772.7137
239.6467, 780.0481
240.1288, 776.1577
240.6109, 768.9894
241.0930, 759.8423
241.5752, 750.7803
242.0573, 745.2206
242.5394, 744.2387
243.0215, 745.3896
243.5036, 747.2064
243.9857, 749.6693
244.4679, 752.9978
244.9500, 758.6758
245.4321, 763.9558
245.9142, 763.7477
246.3963, 755.7068
246.8784, 748.3474
247.3606, 746.2725
247.8427, 748.5120
248.3248, 752.4285
248.8069, 757.8254
249.2890, 763.5098
249.7711, 768.0759
250.2533, 772.1227
250.7354, 773.2471
251.2175, 767.3046
251.6996, 758.4089
252.1817, 754.3596
252.6638, 757.6058
253.1460, 764.1137
253.6281, 768.3443
254.1102, 769.7750
254.5923, 773.2065
255.0744, 783.0313
255.5565, 793.7396
256.0387, 797.4097
256.5208, 792.6031
257.0029, 786.7317
257.4850, 787.6096
257.9671, 796.4648
258.4492, 804.7242
258.9314, 813.0941
259.4135, 820.1290
259.8956, 823.3724
260.3777, 823.3015
260.8598, 824.3132
261.3419, 830.1688
261.8241, 841.1072
262.3062, 852.2732
262.7883, 862.3340
263.2704, 873.7357
263.7525, 885.9545
264.2346, 900.2742
264.7168, 919.8371
265.1989, 946.3388
265.6810, 979.9871
266.1631, 1022.330
266.6452, 1071.581
267.1273, 1130.237
267.6095, 1200.845
268.0916, 1281.080
268.5737, 1365.859
269.0558, 1452.079
269.5379, 1544.156
270.0201, 1653.680
270.5022, 1795.530
270.9843, 1939.651
271.4664, 2085.789
271.9485, 2233.154
272.4306, 2377.727
272.9128, 2518.218
273.3949, 2664.390
273.8770, 2836.598
274.3591, 3076.151
274.8412, 3265.124
275.3233, 3445.037
275.8055, 3553.973
276.2876, 3542.975
276.7697, 3408.670
277.2518, 3187.069
277.7339, 2903.297
278.2160, 2532.315
278.6982, 2207.560
279.1803, 1929.925
279.6624, 1696.651
280.1445, 1511.991
280.6266, 1372.404
281.1087, 1268.174
281.5909, 1196.508
282.0730, 1156.080
282.5551, 1118.133
283.0372, 1079.348
283.5193, 1047.318
284.0014, 1028.015
284.4836, 1016.344
284.9657, 1003.440
285.4478, 983.5040
285.9299, 960.1267
286.4120, 944.5719
286.8941, 939.7004
287.3763, 936.4848
287.8584, 933.7344
288.3405, 930.0986
288.8226, 923.4449
289.3047, 912.4041
289.7868, 900.4682
290.2690, 892.3895
290.7511, 888.5102
291.2332, 885.4880
291.7153, 883.9738
292.1974, 881.7202
292.6795, 875.6920
293.1617, 865.1123
293.6438, 855.6819
294.1259, 853.0764
294.6080, 855.9190
295.0901, 857.0826
295.5722, 855.6263
296.0544, 851.2550
296.5365, 840.7192
297.0186, 824.6829
297.5007, 815.2904
297.9828, 823.6639
298.4649, 839.6799
298.9471, 845.2563
299.4292, 837.1364
299.9113, 827.6346
300.3934, 828.8293
300.8755, 838.7980
301.3576, 843.0519
301.8398, 835.8530
302.3219, 825.6030
302.8040, 818.4620
303.2861, 814.3518
303.7682, 810.6501
304.2503, 804.9612
304.7325, 798.7004
305.2146, 798.7859
305.6967, 812.2970
306.1788, 823.2625
306.6609, 824.7961
307.1430, 820.4375
307.6252, 816.5880
308.1073, 815.9142
308.5894, 817.0888
309.0715, 817.2407
309.5536, 815.2650
310.0357, 813.8799
310.5179, 812.9819
311.0000, 812.7891
311.4821, 814.0168
311.9642, 816.5788
312.4463, 819.0156
312.9284, 819.3583
313.4106, 816.7504
313.8927, 815.1215
314.3748, 815.5826
314.8569, 815.8195
315.3390, 814.6883
315.8211, 812.3104
316.3033, 809.1187
316.7854, 804.8466
317.2675, 799.9221
317.7496, 799.9756
318.2317, 812.2727
318.7138, 820.5854
319.1960, 816.2781
319.6781, 807.1807
320.1602, 804.8757
320.6423, 815.5593
321.1244, 831.7037
321.6065, 836.5644
322.0887, 825.3217
322.5708, 817.9141
323.0529, 822.8496
323.5350, 831.3340
324.0171, 837.4575
324.4992, 840.1186
324.9814, 841.0369
325.4635, 841.5967
325.9456, 841.7828
326.4277, 841.0507
326.9098, 838.2358
327.3919, 836.0055
327.8741, 836.9446
328.3562, 840.5469
328.8383, 843.9280
329.3204, 846.4910
329.8025, 847.8552
330.2846, 846.2701
330.7668, 841.0869
331.2489, 837.5692
331.7310, 840.6149
332.2131, 848.5264
332.6952, 854.3382
333.1773, 856.6447
333.6595, 857.5428
334.1415, 857.1069
334.6237, 856.0564
335.1058, 857.4604
335.5879, 863.4672
336.0700, 871.4983
336.5521, 874.3363
337.0342, 868.3014
337.5164, 864.3588
337.9985, 864.4462
338.4806, 867.5251
338.9627, 873.2947
339.4448, 881.4532
339.9269, 890.0171
340.4091, 896.3644
340.8912, 899.4866
341.3733, 904.0103
341.8554, 913.4508
342.3375, 920.9067
342.8196, 920.1450
343.3018, 913.9215
343.7839, 910.4429
344.2660, 916.0535
344.7481, 929.5063
345.2302, 940.9112
345.7123, 950.5511
346.1945, 957.3318
346.6766, 959.1990
347.1587, 959.1140
347.6408, 960.5980
348.1229, 965.0275
348.6050, 970.6561
349.0872, 974.7224
349.5693, 976.9606
350.0514, 979.0471
350.5335, 981.4745
351.0156, 983.6848
351.4977, 985.8030
351.9799, 987.6732
352.4620, 987.9924
352.9441, 983.0067
353.4262, 975.3669
353.9083, 976.5245
354.3904, 991.1977
354.8726, 1004.670
355.3547, 1001.378
355.8368, 988.2949
356.3189, 981.1056
356.8010, 989.4903
357.2831, 1000.438
357.7653, 1000.118
358.2474, 990.3820
358.7295, 984.5148
359.2116, 989.5869
359.6937, 1001.660
360.1758, 1011.073
360.6580, 1019.422
361.1401, 1022.769
361.6222, 1015.144
362.1043, 1003.878
362.5864, 997.9692
363.0685, 999.5828
363.5507, 1006.399
364.0328, 1016.118
364.5149, 1029.891
364.9970, 1041.674
365.4791, 1052.370
365.9612, 1060.660
366.4434, 1064.193
366.9255, 1064.692
367.4076, 1066.289
367.8897, 1071.879
368.3718, 1080.401
368.8539, 1086.699
369.3361, 1088.826
369.8182, 1091.652
370.3003, 1094.743
370.7824, 1099.476
371.2645, 1107.843
371.7466, 1120.303
372.2288, 1133.973
372.7109, 1144.716
373.1930, 1152.191
373.6751, 1161.956
374.1572, 1171.734
374.6393, 1187.742
375.1215, 1216.890
375.6036, 1256.002
376.0857, 1292.719
376.5678, 1315.679
377.0499, 1334.122
377.5320, 1364.806
378.0142, 1408.827
378.4963, 1456.433
378.9784, 1500.456
379.4605, 1545.284
379.9426, 1600.051
380.4247, 1663.749
380.9069, 1739.242
381.3890, 1832.823
381.8711, 1939.095
382.3532, 2048.031
382.8353, 2157.142
383.3174, 2267.541
383.7996, 2381.027
384.2817, 2499.276
384.7638, 2617.390
385.2459, 2732.635
385.7280, 2849.859
386.2101, 2978.251
386.6923, 3112.965
387.1744, 3238.557
387.6565, 3345.357
388.1386, 3432.625
388.6207, 3495.961
389.1028, 3546.754
389.5850, 3553.287
390.0671, 3508.053
390.5492, 3420.349
391.0313, 3292.261
391.5134, 3126.139
391.9955, 2940.823
392.4777, 2755.016
392.9598, 2567.194
393.4419, 2392.972
393.9240, 2233.456
394.4061, 2090.026
394.8882, 1962.117
395.3704, 1850.203
395.8525, 1755.916
396.3346, 1685.356
396.8167, 1630.466
397.2988, 1579.238
397.7809, 1531.471
398.2631, 1491.989
398.7452, 1465.660
399.2273, 1448.472
399.7094, 1429.640
400.1915, 1408.910
400.6736, 1387.193
401.1558, 1361.595
401.6379, 1336.092
402.1200, 1317.679
402.6021, 1307.832
403.0842, 1301.980
403.5663, 1295.004
404.0485, 1286.492
404.5306, 1278.778
405.0127, 1267.915
405.4948, 1261.485
405.9769, 1265.904
406.4590, 1277.190
406.9412, 1287.909
407.4233, 1294.244
407.9054, 1295.791
408.3875, 1289.398
408.8696, 1265.802
409.3517, 1254.156
409.8339, 1266.601
410.3160, 1285.590
410.7981, 1299.796
411.2802, 1307.643
411.7623, 1312.923
412.2444, 1318.312
412.7266, 1323.698
413.2087, 1328.223
413.6908, 1330.905
414.1729, 1335.039
414.6550, 1344.242
415.1371, 1356.218
415.6193, 1366.903
416.1014, 1373.603
416.5835, 1381.233
417.0656, 1392.464
417.5477, 1407.417
418.0298, 1428.113
418.5120, 1456.947
418.9941, 1486.328
419.4762, 1503.456
419.9583, 1501.613
420.4404, 1508.538
420.9225, 1532.622
421.4047, 1559.769
421.8868, 1578.778
422.3689, 1591.410
422.8510, 1607.223
423.3331, 1633.103
423.8152, 1667.002
424.2974, 1696.908
424.7795, 1714.375
425.2616, 1740.807
425.7437, 1783.840
426.2258, 1833.388
426.7079, 1879.459
427.1901, 1920.250
427.6722, 1963.638
428.1543, 2017.469
428.6364, 2081.227
429.1185, 2151.778
429.6006, 2232.224
430.0828, 2313.964
430.5649, 2385.928
431.0470, 2455.284
431.5291, 2538.002
432.0112, 2632.063
432.4933, 2747.399
432.9755, 2900.673
433.4576, 3084.553
433.9397, 3265.594
434.4218, 3427.719
434.9039, 3596.391
435.3860, 3810.940
435.8682, 4075.972
436.3503, 4378.161
436.8324, 4712.197
437.3145, 5087.643
437.7966, 5508.622
438.2787, 5976.896
438.7609, 6485.299
439.2430, 7032.325
439.7251, 7622.950
440.2072, 8291.499
440.6893, 9079.578
441.1714, 9887.481
441.6536, 10689.64
442.1357, 11513.53
442.6178, 12400.04
443.0999, 13349.40
443.5820, 14296.92
444.0641, 15175.80
444.5463, 15999.94
445.0284, 16842.08
445.5105, 17726.97
445.9926, 18579.10
446.4747, 19408.73
446.9568, 20163.09
447.4390, 20728.41
447.9211, 21141.00
448.4032, 21281.68
448.8853, 21051.39
449.3674, 20494.13
449.8495, 19672.99
450.3317, 18599.55
450.8138, 17363.92
451.2959, 16070.82
451.7780, 14696.63
452.2601, 13385.42
452.7422, 12123.13
453.2244, 10942.90
453.7065, 9845.374
454.1886, 8846.098
454.6707, 7970.728
455.1528, 7239.593
455.6349, 6624.821
456.1171, 6061.670
456.5992, 5543.633
457.0813, 5097.575
457.5634, 4761.694
458.0455, 4472.180
458.5276, 4197.056
459.0098, 3935.515
459.4919, 3703.747
459.9740, 3522.369
460.4561, 3373.565
460.9382, 3222.795
461.4203, 3068.366
461.9025, 2926.623
462.3846, 2805.087
462.8667, 2701.452
463.3488, 2609.955
463.8309, 2533.519
464.3130, 2461.023
464.7952, 2387.793
465.2773, 2318.050
465.7594, 2257.266
466.2415, 2205.881
466.7236, 2161.277
467.2057, 2122.351
467.6879, 2088.658
468.1700, 2048.853
468.6521, 1995.793
469.1342, 1945.140
469.6163, 1897.174
470.0984, 1853.833
470.5806, 1817.628
471.0627, 1789.254
471.5448, 1764.444
472.0269, 1739.108
472.5090, 1713.304
472.9911, 1689.547
473.4733, 1669.352
473.9554, 1648.003
474.4375, 1619.292
474.9196, 1587.232
475.4017, 1560.391
475.8839, 1540.978
476.3660, 1525.924
476.8481, 1515.007
477.3302, 1506.767
477.8123, 1498.403
478.2944, 1489.178
478.7766, 1478.683
479.2587, 1466.221
479.7408, 1451.008
480.2229, 1437.884
480.7050, 1427.995
481.1871, 1418.656
481.6693, 1410.292
482.1514, 1401.487
482.6335, 1389.353
483.1156, 1372.548
483.5977, 1354.737
484.0798, 1341.622
484.5620, 1333.317
485.0441, 1329.245
485.5262, 1332.649
486.0083, 1336.560
486.4904, 1336.353
486.9725, 1332.800
487.4547, 1328.640
487.9368, 1325.484
488.4189, 1321.637
488.9010, 1313.746
489.3831, 1303.165
489.8652, 1297.331
490.3474, 1300.386
490.8295, 1304.759
491.3116, 1297.223
491.7937, 1269.252
492.2758, 1253.764
492.7579, 1261.857
493.2401, 1272.055
493.7222, 1271.097
494.2043, 1262.300
494.6864, 1256.230
495.1685, 1259.049
495.6506, 1265.928
496.1328, 1265.101
496.6149, 1253.763
497.0970, 1244.930
497.5791, 1241.179
498.0612, 1240.127
498.5433, 1240.783
499.0254, 1242.878
499.5075, 1245.515
499.9897, 1251.607
500.4718, 1255.924
500.9539, 1249.115
501.4360, 1233.096
501.9181, 1221.078
502.4002, 1218.780
502.8824, 1223.046
503.3645, 1228.670
503.8466, 1236.939
504.3287, 1243.253
504.8108, 1247.716
505.2929, 1250.014
505.7751, 1248.499
506.2572, 1244.673
506.7393, 1242.403
507.2214, 1244.279
507.7035, 1247.818
508.1856, 1246.417
508.6678, 1238.563
509.1499, 1231.361
509.6320, 1225.139
510.1141, 1220.797
510.5962, 1220.050
511.0783, 1222.140
511.5605, 1223.012
512.0426, 1219.125
512.5247, 1214.344
513.0068, 1213.592
513.4890, 1216.244
513.9711, 1218.555
514.4532, 1218.951
514.9353, 1218.406
515.4174, 1218.782
515.8995, 1221.312
516.3817, 1221.519
516.8638, 1215.477
517.3459, 1210.801
517.8280, 1213.274
518.3101, 1220.509
518.7922, 1226.695
519.2744, 1228.793
519.7565, 1228.193
520.2386, 1227.793
520.7207, 1227.908
521.2028, 1225.794
521.6849, 1216.861
522.1671, 1210.435
522.6492, 1216.858
523.1313, 1232.575
523.6134, 1241.869
524.0955, 1234.146
524.5776, 1222.848
525.0598, 1218.259
525.5419, 1219.319
526.0240, 1223.437
526.5061, 1230.000
526.9882, 1236.559
527.4703, 1239.579
527.9525, 1238.606
528.4346, 1235.713
528.9167, 1227.765
529.3988, 1221.497
529.8809, 1219.622
530.3630, 1221.146
530.8452, 1225.452
531.3273, 1232.635
531.8094, 1238.080
532.2915, 1233.500
532.7736, 1219.558
533.2557, 1210.980
533.7379, 1211.291
534.2200, 1213.543
534.7021, 1212.288
535.1842, 1208.692
535.6663, 1206.633
536.1484, 1208.842
536.6306, 1209.979
537.1127, 1203.431
537.5948, 1195.668
538.0769, 1199.600
538.5590, 1217.112
539.0411, 1234.162
539.5233, 1235.006
540.0054, 1219.464
540.4875, 1211.050
540.9696, 1215.072
541.4517, 1219.260
541.9338, 1222.081
542.4160, 1222.829
542.8981, 1219.957
543.3802, 1213.196
543.8623, 1206.550
544.3444, 1199.199
544.8265, 1194.954
545.3087, 1207.696
545.7908, 1239.334
546.2729, 1263.596
546.7550, 1263.680
547.2371, 1246.458
547.7192, 1232.866
548.2014, 1220.310
548.6835, 1215.218
549.1656, 1226.018
549.6477, 1238.686
550.1298, 1240.356
550.6119, 1232.960
551.0941, 1227.896
551.5762, 1233.416
552.0583, 1245.216
552.5404, 1251.495
553.0225, 1251.432
553.5046, 1249.710
553.9868, 1246.867
554.4689, 1243.118
554.9510, 1237.827
555.4331, 1231.432
555.9152, 1227.183
556.3973, 1226.810
556.8795, 1228.363
557.3616, 1230.707
557.8437, 1233.707
558.3258, 1237.492
558.8079, 1242.182
559.2900, 1246.428
559.7722, 1248.275
560.2543, 1247.330
560.7364, 1245.963
561.2185, 1241.058
561.7006, 1239.177
562.1827, 1246.169
562.6649, 1255.896
563.1470, 1258.888
563.6291, 1251.885
564.1112, 1243.674
564.5933, 1244.463
565.0754, 1250.660
565.5576, 1249.350
566.0397, 1238.310
566.5218, 1228.699
567.0039, 1228.593
567.4860, 1235.776
567.9681, 1240.396
568.4503, 1241.417
568.9324, 1241.709
569.4145, 1241.267
569.8966, 1240.470
570.3787, 1239.185
570.8608, 1237.758
571.3430, 1236.880
571.8251, 1236.536
572.3072, 1237.888
572.7893, 1246.139
573.2714, 1263.399
573.7535, 1274.184
574.2357, 1272.099
574.7178, 1264.901
575.1999, 1258.251
575.6820, 1252.498
576.1641, 1251.798
576.6462, 1261.526
577.1284, 1272.416
577.6105, 1279.741
578.0926, 1283.490
578.5747, 1283.562
579.0568, 1280.024
579.5389, 1274.236
580.0211, 1267.200
580.5032, 1258.483
580.9852, 1254.437
581.4673, 1258.973
581.9495, 1262.601
582.4316, 1261.826
582.9137, 1258.768
583.3958, 1254.972
583.8779, 1250.433
584.3600, 1248.795
584.8422, 1254.839
585.3243, 1264.135
585.8064, 1270.098
586.2885, 1272.309
586.7706, 1271.363
587.2527, 1266.676
587.7349, 1261.116
588.2170, 1262.821
588.6991, 1281.871
589.1812, 1289.269
589.6633, 1274.472
590.1454, 1259.279
590.6276, 1255.023
591.1097, 1259.502
591.5918, 1266.832
592.0739, 1275.613
592.5560, 1282.232
593.0381, 1279.614
593.5203, 1270.091
594.0024, 1266.622
594.4845, 1272.482
594.9666, 1279.319
595.4487, 1280.258
595.9308, 1275.937
596.4130, 1272.782
596.8951, 1269.602
597.3772, 1268.953
597.8593, 1274.296
598.3414, 1280.349
598.8235, 1281.571
599.3057, 1278.198
599.7878, 1275.009
600.2699, 1275.737
600.7520, 1278.883
601.2341, 1279.937
601.7162, 1278.482
602.1984, 1280.902
602.6805, 1292.889
603.1626, 1303.758
603.6447, 1296.660
604.1268, 1272.637
604.6089, 1261.499
605.0911, 1276.368
605.5732, 1293.839
606.0553, 1306.749
606.5374, 1313.448
607.0195, 1308.630
607.5016, 1292.521
607.9838, 1277.703
608.4659, 1278.942
608.9480, 1294.389
609.4301, 1306.076
609.9122, 1314.554
610.3943, 1317.656
610.8765, 1311.850
611.3586, 1301.865
611.8407, 1292.798
612.3228, 1284.435
612.8049, 1279.694
613.2870, 1281.730
613.7692, 1285.687
614.2513, 1288.521
614.7334, 1290.064
615.2155, 1289.518
615.6976, 1286.632
616.1797, 1284.966
616.6619, 1291.597
617.1440, 1308.226
617.6261, 1316.184
618.1082, 1309.294
618.5903, 1303.730
619.0724, 1310.029
619.5546, 1320.293
620.0367, 1323.410
620.5188, 1316.213
621.0009, 1311.549
621.4830, 1317.222
621.9651, 1327.004
622.4473, 1335.407
622.9294, 1341.604
623.4115, 1344.461
623.8936, 1343.170
624.3757, 1340.235
624.8578, 1341.461
625.3400, 1349.338
625.8221, 1351.675
626.3042, 1342.589
626.7863, 1334.955
627.2684, 1336.253
627.7505, 1342.304
628.2327, 1345.946
628.7148, 1345.048
629.1969, 1343.864
629.6790, 1343.876
630.1611, 1345.570
630.6432, 1350.677
631.1254, 1358.623
631.6075, 1365.973
632.0896, 1370.831
632.5717, 1373.195
633.0538, 1372.109
633.5359, 1364.192
634.0181, 1362.402
634.5002, 1370.894
634.9823, 1382.145
635.4644, 1396.162
635.9465, 1409.617
636.4286, 1414.256
636.9108, 1402.481
637.3929, 1395.772
637.8750, 1414.439
638.3571, 1444.763
638.8392, 1465.799
639.3214, 1475.286
639.8035, 1478.238
640.2856, 1476.850
640.7677, 1474.350
641.2498, 1481.284
641.7319, 1501.540
642.2141, 1521.248
642.6962, 1543.064
643.1783, 1560.330
643.6604, 1567.277
644.1425, 1567.389
644.6246, 1568.939
645.1068, 1575.335
645.5889, 1581.124
646.0710, 1582.360
646.5531, 1580.775
647.0352, 1578.973
647.5173, 1577.295
647.9995, 1575.121
648.4816, 1572.127
648.9637, 1568.077
649.4458, 1562.896
649.9279, 1559.075
650.4100, 1546.944
650.8922, 1515.562
651.3743, 1485.996
651.8564, 1470.165
652.3385, 1464.758
652.8206, 1461.597
653.3027, 1460.255
653.7849, 1457.519
654.2670, 1451.186
654.7491, 1442.405
655.2312, 1431.174
