##NAMES=Nordstrandite
##RRUFFID=R050592
##IDEAL CHEMISTRY=Al(OH)_3_
##LOCALITY=Cerro Sapo, Cochabamba Department, Bolivia
##OWNER=RRUFF
##SOURCE=Marcus Origlieri
##DESCRIPTION=Single crystals as colorless radiating clusters and tan thick tabular crystals
##STATUS=The identification of this mineral has been confirmed by X-ray diffraction and chemical analysis
##URL=rruff.info/R050592
##MEASURED CHEMISTRY=Al_1.00_(OH)_3_; trace amounts of Fe; H_2_O estimated by difference
91.11523, 3.579200
91.59735, 3.365527
92.07947, 3.568706
92.56158, 4.054441
93.04370, 4.399484
93.52582, 4.183854
94.00793, 3.669595
94.49006, 3.490882
94.97218, 3.813776
95.45429, 4.253314
95.93641, 4.146158
96.41853, 3.504143
96.90064, 2.811319
97.38276, 2.337751
97.86488, 2.085510
98.34699, 2.101205
98.82911, 2.470598
99.31123, 3.072898
99.79334, 3.512581
100.2755, 3.768542
100.7576, 3.921571
101.2397, 4.017260
101.7218, 4.040491
102.2039, 4.082529
102.6861, 4.161106
103.1682, 4.276823
103.6503, 4.439547
104.1324, 4.741537
104.6145, 4.990674
105.0966, 4.910815
105.5788, 4.225262
106.0609, 3.690059
106.5430, 3.511372
107.0251, 3.764972
107.5072, 4.107944
107.9893, 4.637123
108.4715, 5.234068
108.9536, 5.685206
109.4357, 5.729163
109.9178, 5.864575
110.3999, 6.267436
110.8820, 7.142171
111.3642, 7.941235
111.8463, 8.596652
112.3284, 9.159574
112.8105, 9.777118
113.2926, 10.33998
113.7747, 11.05816
114.2569, 12.02702
114.7390, 13.19309
115.2211, 14.69372
115.7032, 16.48155
116.1853, 18.59247
116.6674, 21.19680
117.1496, 24.46255
117.6317, 28.23565
118.1138, 32.35336
118.5959, 37.44372
119.0780, 42.33552
119.5602, 46.86036
120.0423, 51.00051
120.5244, 53.75312
121.0065, 54.03724
121.4886, 52.71714
121.9707, 50.92455
122.4529, 48.84747
122.9350, 46.67180
123.4171, 44.49329
123.8992, 42.30278
124.3813, 40.28327
124.8634, 38.50502
125.3456, 37.00413
125.8277, 35.85825
126.3098, 35.17410
126.7919, 34.85802
127.2740, 34.78971
127.7561, 34.96255
128.2383, 35.37091
128.7204, 36.15961
129.2025, 37.25289
129.6846, 38.25287
130.1667, 38.84010
130.6488, 39.13007
131.1310, 39.53483
131.6131, 40.14497
132.0952, 40.81039
132.5773, 41.14074
133.0594, 41.12859
133.5416, 41.30614
134.0237, 42.28756
134.5058, 44.00063
134.9879, 45.20581
135.4700, 45.58389
135.9521, 45.41202
136.4343, 45.53721
136.9164, 45.98227
137.3985, 46.63874
137.8806, 47.48798
138.3627, 48.57778
138.8448, 49.58252
139.3270, 50.48566
139.8091, 51.27742
140.2912, 51.80800
140.7733, 52.01274
141.2554, 52.07907
141.7375, 52.17858
142.2197, 52.30038
142.7018, 52.47866
143.1839, 52.65889
143.6660, 52.81255
144.1481, 53.40031
144.6303, 54.61827
145.1124, 56.10159
145.5945, 57.37824
146.0766, 58.37457
146.5587, 59.29714
147.0408, 60.19696
147.5230, 61.07676
148.0051, 61.89235
148.4872, 62.30830
148.9693, 62.31396
149.4514, 62.41354
149.9335, 62.69228
150.4157, 62.97786
150.8978, 63.21035
151.3799, 63.33112
151.8620, 63.53773
152.3441, 63.91115
152.8262, 64.36424
153.3084, 64.72391
153.7905, 64.98499
154.2726, 65.15390
154.7547, 65.24660
155.2368, 65.34126
155.7189, 65.23031
156.2011, 64.58835
156.6832, 63.69791
157.1653, 63.28006
157.6474, 63.91778
158.1295, 64.73449
158.6117, 65.27438
159.0938, 65.17773
159.5759, 65.19724
160.0580, 65.55843
160.5401, 66.19106
161.0222, 66.86129
161.5044, 67.39343
161.9865, 67.99043
162.4686, 68.80058
162.9507, 70.12934
163.4328, 71.37154
163.9149, 72.30000
164.3971, 72.95360
164.8792, 73.46883
165.3613, 73.82520
165.8434, 74.11327
166.3255, 74.41661
166.8076, 74.74989
167.2898, 75.11218
167.7719, 75.47719
168.2540, 75.85448
168.7361, 76.32960
169.2182, 76.87082
169.7004, 77.56005
170.1825, 78.49545
170.6646, 79.99930
171.1467, 81.56696
171.6288, 82.72542
172.1109, 83.48196
172.5931, 84.32560
173.0752, 85.49862
173.5573, 86.99891
174.0394, 88.83354
174.5215, 90.89519
175.0036, 93.33351
175.4858, 96.24939
175.9679, 99.66470
176.4500, 103.5728
176.9321, 108.2291
177.4142, 113.4393
177.8963, 118.6720
178.3785, 124.4116
178.8606, 129.8990
179.3427, 134.4359
179.8248, 138.2415
180.3069, 139.4422
180.7891, 135.0893
181.2712, 126.2978
181.7533, 116.5770
182.2354, 106.5237
182.7175, 96.82492
183.1996, 89.32882
183.6818, 84.10317
184.1639, 80.45154
184.6460, 77.71889
185.1281, 75.84534
185.6102, 74.38758
186.0923, 73.19361
186.5745, 72.25706
187.0566, 71.62375
187.5387, 71.30800
188.0208, 71.22029
188.5029, 71.42233
188.9850, 71.86784
189.4672, 72.00317
189.9493, 71.16715
190.4314, 69.65185
190.9135, 69.10638
191.3956, 69.83586
191.8778, 70.98348
192.3599, 71.08862
192.8420, 70.14425
193.3241, 69.33965
193.8062, 69.45423
194.2883, 70.38985
194.7705, 71.00925
195.2526, 71.20507
195.7347, 71.15539
196.2168, 71.13332
196.6989, 71.13258
197.1810, 71.21618
197.6632, 71.45016
198.1453, 71.83515
198.6274, 72.18935
199.1095, 72.51115
199.5916, 72.78802
200.0737, 72.94822
200.5559, 72.96449
201.0380, 73.04690
201.5201, 73.41929
202.0022, 74.13254
202.4843, 74.40667
202.9665, 74.02428
203.4486, 73.36275
203.9307, 73.36173
204.4128, 74.16216
204.8949, 75.05126
205.3770, 75.64336
205.8592, 75.90195
206.3413, 76.10942
206.8234, 76.23097
207.3055, 76.34467
207.7876, 76.65358
208.2697, 77.17242
208.7519, 77.82996
209.2340, 78.54092
209.7161, 79.23769
210.1982, 80.35330
210.6803, 82.02254
211.1624, 84.05920
211.6446, 86.00407
212.1267, 87.88947
212.6088, 89.57003
213.0909, 90.97273
213.5730, 92.07032
214.0551, 92.97194
214.5373, 93.56808
215.0194, 94.02146
215.5015, 94.81925
215.9836, 96.03472
216.4657, 97.45951
216.9479, 99.00410
217.4300, 100.6415
217.9121, 102.4750
218.3942, 104.4267
218.8763, 106.5871
219.3584, 109.1813
219.8406, 112.1134
220.3227, 115.6228
220.8048, 119.8203
221.2869, 124.7836
221.7690, 130.2830
222.2511, 136.2481
222.7333, 142.7482
223.2154, 149.7864
223.6975, 157.4617
224.1796, 165.6418
224.6617, 174.3184
225.1438, 183.5754
225.6260, 193.1286
226.1081, 203.2849
226.5902, 213.6371
227.0723, 223.3582
227.5544, 235.2503
228.0366, 242.2548
228.5187, 240.4487
229.0008, 226.2598
229.4829, 211.7095
229.9650, 195.3137
230.4471, 179.0112
230.9293, 167.8128
231.4114, 162.5723
231.8935, 160.9535
232.3756, 162.0606
232.8577, 166.2685
233.3398, 172.3970
233.8220, 180.7502
234.3041, 190.9358
234.7862, 201.8555
235.2683, 213.7229
235.7504, 225.9414
236.2325, 238.7600
236.7147, 253.1266
237.1968, 265.3986
237.6789, 276.9782
238.1610, 285.9438
238.6431, 287.7597
239.1253, 280.1166
239.6074, 268.8886
240.0895, 255.3623
240.5716, 237.4126
241.0537, 223.6215
241.5358, 214.2928
242.0180, 208.9582
242.5001, 206.8341
242.9822, 208.3983
243.4643, 212.3843
243.9464, 218.3133
244.4285, 226.0327
244.9107, 236.2914
245.3928, 249.1631
245.8749, 264.5694
246.3570, 282.5107
246.8391, 303.5909
247.3212, 326.1487
247.8034, 349.6754
248.2855, 374.2276
248.7676, 400.3187
249.2497, 430.6583
249.7318, 460.7626
250.2140, 485.5418
250.6961, 511.3982
251.1782, 520.0783
251.6603, 504.1187
252.1424, 459.7057
252.6245, 411.5182
253.1067, 354.7575
253.5888, 298.1395
254.0709, 252.1215
254.5530, 218.3115
255.0351, 191.7830
255.5172, 172.3550
255.9994, 160.3537
256.4815, 150.7531
256.9636, 143.9247
257.4457, 139.2104
257.9278, 135.9235
258.4099, 134.2847
258.8921, 133.5610
259.3742, 133.5682
259.8563, 134.2999
260.3384, 136.0861
260.8205, 139.2633
261.3026, 143.0207
261.7848, 146.5488
262.2669, 149.5626
262.7490, 153.0908
263.2311, 157.5130
263.7132, 162.7579
264.1953, 167.6861
264.6775, 172.9964
265.1596, 176.7847
265.6417, 177.2900
266.1238, 174.0973
266.6059, 168.8899
267.0880, 161.0723
267.5702, 151.2546
268.0523, 144.1790
268.5344, 140.2314
269.0165, 138.0798
269.4987, 136.7986
269.9808, 136.4456
270.4629, 136.7063
270.9450, 137.6832
271.4271, 139.2118
271.9092, 140.5245
272.3914, 141.4594
272.8735, 142.6359
273.3556, 144.4094
273.8377, 146.7726
274.3198, 149.8171
274.8019, 153.7271
275.2841, 158.2302
275.7662, 162.5096
276.2483, 166.3860
276.7304, 170.7373
277.2125, 175.7979
277.6946, 181.5405
278.1768, 188.6543
278.6589, 197.2321
279.1410, 207.1315
279.6231, 218.0566
280.1052, 230.1146
280.5873, 243.2289
281.0695, 257.1461
281.5516, 271.9263
282.0337, 288.2104
282.5158, 306.2191
282.9979, 325.3000
283.4800, 345.2204
283.9622, 366.1088
284.4443, 385.1143
284.9264, 403.2554
285.4085, 419.4740
285.8906, 424.7596
286.3727, 418.0343
286.8549, 404.2442
287.3370, 386.9855
287.8191, 366.5778
288.3012, 349.6230
288.7833, 338.6253
289.2654, 333.0813
289.7476, 331.5201
290.2297, 334.1004
290.7118, 339.4043
291.1939, 346.1740
291.6761, 354.3932
292.1582, 364.3349
292.6403, 376.0853
293.1224, 389.5847
293.6045, 404.8854
294.0866, 421.8535
294.5688, 441.0453
295.0509, 462.4296
295.5330, 486.4048
296.0151, 513.7321
296.4972, 544.6672
296.9793, 579.5410
297.4615, 617.8126
297.9436, 659.7540
298.4257, 705.5244
298.9078, 755.3958
299.3899, 809.0555
299.8720, 864.6780
300.3542, 922.7899
300.8363, 982.3619
301.3184, 1043.948
301.8005, 1107.067
302.2826, 1167.054
302.7647, 1229.021
303.2469, 1284.143
303.7290, 1322.261
304.2111, 1342.777
304.6932, 1341.672
305.1753, 1311.196
305.6574, 1255.477
306.1396, 1185.255
306.6217, 1093.210
307.1038, 995.1173
307.5859, 905.3410
308.0680, 823.8137
308.5501, 753.4600
309.0323, 697.1454
309.5144, 653.1113
309.9965, 618.6949
310.4786, 595.7512
310.9607, 579.4910
311.4428, 569.4593
311.9250, 565.2496
312.4071, 557.4193
312.8892, 542.5514
313.3713, 520.5953
313.8534, 491.1729
314.3355, 447.6130
314.8177, 402.7935
315.2998, 361.4830
315.7819, 324.0105
316.2640, 291.0215
316.7462, 263.5035
317.2283, 240.6529
317.7104, 221.7013
318.1925, 207.6740
318.6746, 195.7787
319.1567, 185.5706
319.6389, 176.7792
320.1210, 168.9717
320.6031, 162.2847
321.0852, 156.3417
321.5673, 150.9004
322.0494, 145.9265
322.5316, 141.4702
323.0137, 137.6581
323.4958, 134.3521
323.9779, 131.3277
324.4600, 128.6283
324.9421, 126.1227
325.4243, 123.8041
325.9064, 121.6666
326.3885, 119.6761
326.8706, 117.7773
327.3527, 116.0511
327.8348, 114.5562
328.3170, 113.3915
328.7991, 112.3509
329.2812, 111.4402
329.7633, 110.6567
330.2454, 109.8861
330.7275, 109.0554
331.2097, 108.2997
331.6918, 107.7204
332.1739, 107.4019
332.6560, 107.1160
333.1381, 106.8478
333.6202, 106.5962
334.1024, 106.3720
334.5845, 106.1774
335.0666, 106.0083
335.5487, 105.8425
336.0308, 105.6201
336.5129, 105.5985
336.9951, 105.8649
337.4772, 106.2829
337.9593, 106.5569
338.4414, 106.6141
338.9236, 106.7494
339.4057, 107.0701
339.8878, 107.5756
340.3699, 108.3161
340.8520, 109.4101
341.3341, 110.5231
341.8163, 111.0479
342.2984, 110.8714
342.7805, 111.2878
343.2626, 112.9063
343.7447, 115.4606
344.2268, 117.3708
344.7090, 118.5443
345.1911, 119.7205
345.6732, 121.5239
346.1553, 123.9408
346.6374, 126.7508
347.1195, 130.1011
347.6017, 133.6337
348.0838, 136.6738
348.5659, 139.2576
349.0480, 141.5449
349.5301, 143.6326
350.0122, 145.5136
350.4944, 147.2862
350.9765, 149.1787
351.4586, 150.2408
351.9407, 148.8615
352.4228, 145.5454
352.9049, 141.9588
353.3871, 138.6020
353.8692, 135.6138
354.3513, 133.1639
354.8334, 131.2597
355.3155, 129.8849
355.7976, 129.1402
356.2798, 128.8840
356.7619, 128.8805
357.2440, 128.8373
357.7261, 129.1685
358.2082, 130.1970
358.6903, 131.8885
359.1725, 134.0150
359.6546, 136.6888
360.1367, 139.6245
360.6188, 142.5071
361.1009, 144.8939
361.5831, 147.7447
362.0652, 151.6450
362.5473, 156.3262
363.0294, 161.1276
363.5115, 165.6303
363.9937, 170.3698
364.4758, 175.6089
364.9579, 181.5541
365.4400, 187.5736
365.9221, 193.5065
366.4042, 199.4959
366.8864, 205.7229
367.3685, 211.2930
367.8506, 218.0336
368.3327, 226.6343
368.8148, 237.1995
369.2969, 248.0152
369.7791, 258.4182
370.2612, 269.5788
370.7433, 282.3653
371.2254, 296.9584
371.7075, 312.6836
372.1896, 329.7353
372.6718, 347.9780
373.1539, 366.5017
373.6360, 385.3087
374.1181, 404.3374
374.6002, 423.6807
375.0823, 444.2087
375.5645, 462.4758
376.0466, 478.4738
376.5287, 491.9895
377.0108, 503.1653
377.4929, 512.3956
377.9750, 516.4693
378.4572, 513.6144
378.9393, 504.3123
379.4214, 492.2912
379.9035, 477.2274
380.3856, 461.2379
380.8677, 445.7679
381.3499, 430.9595
381.8320, 418.7427
382.3141, 409.4194
382.7962, 402.8875
383.2783, 398.8520
383.7604, 397.3221
384.2426, 397.9985
384.7247, 401.5711
385.2068, 407.1027
385.6889, 412.6774
386.1711, 418.0565
386.6532, 423.3797
387.1353, 429.8356
387.6174, 436.4966
388.0995, 441.0272
388.5816, 443.4697
389.0638, 442.6259
389.5459, 437.2589
390.0280, 427.3360
390.5101, 413.8011
390.9922, 395.4988
391.4743, 374.6935
391.9565, 353.5362
392.4386, 331.8635
392.9207, 311.1519
393.4028, 292.0618
393.8849, 274.6671
394.3670, 259.1171
394.8492, 245.6095
395.3313, 234.0452
395.8134, 224.4979
396.2955, 217.2891
396.7776, 211.1717
397.2597, 205.8556
397.7419, 201.5494
398.2240, 198.5058
398.7061, 197.3303
399.1882, 196.8842
399.6703, 197.0501
400.1524, 197.8381
400.6346, 198.8233
401.1167, 199.7141
401.5988, 201.0414
402.0809, 203.1751
402.5630, 206.3439
403.0451, 209.8410
403.5273, 213.3167
404.0094, 217.1481
404.4915, 222.5275
404.9736, 229.9539
405.4557, 237.7478
405.9378, 245.2166
406.4200, 252.2992
406.9021, 259.8858
407.3842, 268.1076
407.8663, 276.3468
408.3484, 284.0020
408.8306, 291.1119
409.3127, 297.2167
409.7948, 302.6035
410.2769, 306.6958
410.7590, 307.9911
411.2411, 306.4865
411.7233, 302.0657
412.2054, 293.7409
412.6875, 282.3054
413.1696, 270.0953
413.6517, 257.0478
414.1339, 244.0257
414.6160, 231.6911
415.0981, 220.2144
415.5802, 210.1934
416.0623, 201.9960
416.5444, 195.4125
417.0266, 190.7833
417.5087, 188.0340
417.9908, 185.9258
418.4729, 183.5355
418.9550, 181.4471
419.4371, 180.3522
419.9193, 181.0978
420.4014, 182.0534
420.8835, 182.7431
421.3656, 183.1345
421.8477, 183.1361
422.3298, 182.7562
422.8120, 181.9537
423.2941, 180.5706
423.7762, 178.2941
424.2583, 176.4051
424.7404, 175.0385
425.2225, 174.1612
425.7047, 173.6904
426.1868, 173.7561
426.6689, 174.0519
427.1510, 174.3721
427.6331, 174.7873
428.1152, 176.1380
428.5974, 178.7132
429.0795, 181.8250
429.5616, 185.1833
430.0437, 188.8704
430.5258, 192.3667
431.0079, 195.5283
431.4901, 198.6046
431.9722, 202.1978
432.4543, 206.3808
432.9364, 210.2487
433.4185, 213.7538
433.9007, 216.6377
434.3828, 217.6629
434.8649, 216.8199
435.3470, 214.2588
435.8291, 209.6626
436.3112, 203.3794
436.7934, 196.4949
437.2755, 188.9409
437.7576, 181.4096
438.2397, 174.4708
438.7218, 168.2919
439.2039, 163.4314
439.6861, 160.6922
440.1682, 159.1294
440.6503, 157.8794
441.1324, 156.8579
441.6145, 156.2576
442.0966, 156.6446
442.5788, 157.3307
443.0609, 157.5864
443.5430, 158.1177
444.0251, 157.1885
444.5072, 153.6923
444.9893, 148.1184
445.4715, 142.2388
445.9536, 135.6062
446.4357, 129.4142
446.9178, 124.2208
447.3999, 120.3013
447.8820, 116.7189
448.3642, 113.2434
448.8463, 110.1887
449.3284, 107.8868
449.8105, 106.7431
450.2926, 105.6456
450.7747, 104.3064
451.2569, 102.8353
451.7390, 102.0084
452.2211, 102.0056
452.7032, 102.1675
453.1853, 102.1005
453.6674, 101.7852
454.1496, 101.5581
454.6317, 101.4546
455.1138, 101.3733
455.5959, 101.0506
456.0781, 100.5291
456.5602, 100.3521
457.0423, 100.9218
457.5244, 101.8193
458.0065, 102.1355
458.4886, 101.9181
458.9708, 101.7167
459.4529, 102.0362
459.9350, 102.6024
460.4171, 102.9543
460.8992, 102.9581
461.3813, 102.9986
461.8635, 103.4438
462.3456, 104.1200
462.8277, 104.7243
463.3098, 105.0393
463.7919, 105.3421
464.2740, 105.7663
464.7562, 106.3109
465.2383, 106.9102
465.7204, 107.5901
466.2025, 108.2850
466.6846, 108.9380
467.1667, 109.4190
467.6489, 110.0534
468.1310, 110.9925
468.6131, 112.0586
469.0952, 112.9596
469.5773, 113.3768
470.0594, 114.1548
470.5416, 115.7082
471.0237, 117.9828
471.5058, 119.4544
471.9879, 119.7496
472.4700, 120.0828
472.9521, 121.4171
473.4343, 123.8029
473.9164, 126.2542
474.3985, 128.7209
474.8806, 131.1919
475.3627, 133.5853
475.8448, 135.9281
476.3270, 138.5186
476.8091, 141.6371
477.2912, 145.0014
477.7733, 147.9177
478.2554, 150.4238
478.7375, 153.0961
479.2197, 156.3972
479.7018, 160.1366
480.1839, 164.0277
480.6660, 167.9977
481.1482, 172.1138
481.6303, 176.2786
482.1124, 180.6312
482.5945, 185.4071
483.0766, 190.8323
483.5587, 196.5936
484.0409, 202.5292
484.5230, 208.6104
485.0051, 214.9501
485.4872, 221.6031
485.9693, 228.5166
486.4514, 235.6299
486.9336, 243.3388
487.4157, 250.6031
487.8978, 257.1693
488.3799, 263.4023
488.8620, 270.1083
489.3441, 277.4315
489.8263, 284.9603
490.3084, 292.8297
490.7905, 300.9385
491.2726, 308.2383
491.7547, 314.7289
492.2368, 320.6690
492.7190, 326.1846
493.2011, 331.2949
493.6832, 335.4914
494.1653, 338.6577
494.6474, 341.3272
495.1295, 344.3375
495.6117, 347.4636
496.0938, 350.0320
496.5759, 351.2050
497.0580, 352.1611
497.5401, 354.1739
498.0222, 357.1223
498.5044, 360.2904
498.9865, 363.2813
499.4686, 366.3608
499.9507, 369.8129
500.4328, 373.7943
500.9149, 377.6868
501.3971, 381.4479
501.8792, 384.9811
502.3613, 388.1813
502.8434, 391.4300
503.3256, 393.9331
503.8077, 395.5365
504.2898, 396.2912
504.7719, 396.4580
505.2540, 396.5085
505.7361, 395.2721
506.2183, 392.0663
506.7004, 386.6429
507.1825, 380.9245
507.6646, 374.9717
508.1467, 368.6026
508.6288, 361.5009
509.1110, 353.6734
509.5931, 345.7137
510.0752, 337.5865
510.5573, 329.6281
511.0394, 322.4751
511.5215, 316.0838
512.0037, 310.1684
512.4858, 304.4515
512.9679, 299.1670
513.4500, 294.5399
513.9321, 290.5832
514.4142, 287.5629
514.8964, 285.9014
515.3785, 285.1601
515.8606, 284.8848
516.3427, 284.9029
516.8248, 285.4608
517.3069, 286.2978
517.7891, 287.7802
518.2712, 290.6005
518.7533, 295.4970
519.2354, 301.1367
519.7175, 307.0043
520.1996, 313.1103
520.6818, 320.3100
521.1639, 328.5309
521.6460, 337.9777
522.1281, 348.7173
522.6102, 360.9211
523.0923, 373.9040
523.5745, 387.6062
524.0566, 402.2641
524.5387, 418.0738
525.0208, 435.0909
525.5029, 453.8220
525.9850, 474.6977
526.4672, 497.1180
526.9493, 520.0154
527.4314, 543.7164
527.9135, 568.9029
528.3956, 597.2061
528.8777, 627.3819
529.3599, 657.0973
529.8420, 686.3262
530.3241, 716.6120
530.8062, 749.8558
531.2883, 784.9726
531.7704, 819.9069
532.2526, 855.0003
532.7347, 889.5964
533.2168, 924.4275
533.6989, 958.6874
534.1810, 991.4380
534.6631, 1023.816
535.1453, 1053.082
535.6274, 1078.258
536.1095, 1099.685
536.5916, 1116.621
537.0737, 1129.372
537.5558, 1137.426
538.0380, 1140.541
538.5201, 1138.753
539.0023, 1131.537
539.4844, 1118.558
539.9665, 1101.129
540.4486, 1081.080
540.9307, 1058.520
541.4128, 1033.373
541.8950, 1005.558
542.3771, 975.5680
542.8592, 943.2430
543.3413, 909.1210
543.8234, 873.8964
544.3055, 837.7761
544.7877, 800.9103
545.2698, 763.4849
545.7519, 725.3986
546.2340, 688.3685
546.7161, 652.9730
547.1982, 619.3864
547.6804, 586.9442
548.1625, 555.4454
548.6446, 525.6414
549.1267, 497.5552
549.6088, 471.2772
550.0909, 446.9920
550.5731, 424.5345
551.0552, 404.3018
551.5373, 386.8133
552.0194, 371.8399
552.5015, 357.9981
552.9836, 345.3404
553.4658, 333.6089
553.9479, 322.5396
554.4300, 312.1742
554.9121, 303.0360
555.3942, 295.2748
555.8763, 288.4883
556.3585, 282.6167
556.8406, 277.3976
557.3227, 272.1405
557.8048, 266.4422
558.2869, 260.8875
558.7690, 256.1249
559.2512, 251.9253
559.7333, 247.7635
560.2154, 243.1651
560.6975, 238.7557
561.1796, 234.8589
561.6617, 231.5013
562.1439, 228.2939
562.6260, 225.0888
563.1081, 222.0862
563.5902, 219.3394
564.0723, 216.9221
564.5544, 214.5955
565.0366, 212.3173
565.5187, 210.1400
566.0008, 208.0804
566.4829, 206.0389
566.9650, 204.6357
567.4471, 204.2411
567.9293, 204.3300
568.4114, 203.3883
568.8935, 201.5005
569.3756, 199.9194
569.8577, 199.5059
570.3398, 199.8197
570.8220, 200.2130
571.3041, 200.6656
571.7862, 201.0258
572.2683, 200.8338
572.7504, 200.6856
573.2325, 201.2605
573.7147, 202.9731
574.1968, 204.6595
574.6789, 205.8375
575.1610, 206.7601
575.6431, 207.7694
576.1252, 208.6545
576.6074, 209.9391
577.0895, 211.7785
577.5716, 214.0779
578.0537, 216.4847
578.5358, 218.9348
579.0179, 221.6480
579.5001, 224.7455
579.9822, 228.2310
580.4643, 231.7572
580.9464, 235.3261
581.4285, 238.9016
581.9106, 242.2522
582.3928, 245.6047
582.8749, 249.8173
583.3570, 255.1687
583.8391, 260.6606
584.3212, 265.1112
584.8033, 269.1075
585.2855, 273.6861
585.7676, 279.5820
