##NAMES=Nordstrandite
##RRUFFID=R050592
##IDEAL CHEMISTRY=Al(OH)_3_
##LOCALITY=Cerro Sapo, Cochabamba Department, Bolivia
##OWNER=RRUFF
##SOURCE=Marcus Origlieri
##DESCRIPTION=Single crystals as colorless radiating clusters and tan thick tabular crystals
##STATUS=The identification of this mineral has been confirmed by X-ray diffraction and chemical analysis
##URL=rruff.info/R050592
##MEASURED CHEMISTRY=Al_1.00_(OH)_3_; trace amounts of Fe; H_2_O estimated by difference
92.06543, 34.62550
92.54755, 34.64978
93.02966, 34.82250
93.51178, 34.80817
93.99390, 34.63189
94.47601, 34.31536
94.95813, 33.96272
95.44025, 33.71684
95.92236, 33.70481
96.40448, 33.93687
96.88660, 34.08269
97.36871, 34.02509
97.85082, 34.00970
98.33294, 34.28007
98.81506, 34.84646
99.29717, 35.33554
99.77929, 35.40782
100.2614, 35.12103
100.7435, 34.95996
101.2256, 35.11655
101.7078, 35.46972
102.1899, 35.73731
102.6720, 35.78724
103.1541, 35.84342
103.6362, 36.05653
104.1183, 36.42173
104.6005, 36.95752
105.0826, 37.77013
105.5647, 38.91874
106.0468, 39.88964
106.5289, 40.39757
107.0110, 40.79365
107.4931, 41.21044
107.9753, 41.69387
108.4574, 42.32179
108.9395, 43.26275
109.4216, 44.67644
109.9037, 46.19307
110.3858, 47.56590
110.8680, 49.07013
111.3501, 50.95148
111.8322, 53.34404
112.3143, 56.23834
112.7964, 59.71060
113.2785, 63.67130
113.7607, 68.22643
114.2428, 73.27333
114.7249, 78.90759
115.2070, 85.48315
115.6891, 93.30067
116.1712, 102.4718
116.6534, 111.7099
117.1355, 122.9999
117.6176, 133.0855
118.0997, 140.1158
118.5818, 144.0274
119.0639, 143.9350
119.5461, 137.0529
120.0282, 125.0466
120.5103, 111.9868
120.9924, 97.75985
121.4745, 83.36253
121.9566, 71.01390
122.4388, 61.17077
122.9209, 53.38114
123.4030, 47.07418
123.8851, 42.15049
124.3672, 38.21772
124.8493, 35.24250
125.3315, 33.27126
125.8136, 31.45613
126.2957, 29.72886
126.7778, 28.19496
127.2599, 26.91674
127.7420, 25.90392
128.2242, 25.09650
128.7063, 24.43588
129.1884, 23.96149
129.6705, 23.56957
130.1526, 23.38067
130.6347, 23.18458
131.1169, 22.80023
131.5990, 22.17390
132.0811, 21.41311
132.5632, 20.75358
133.0453, 20.08644
133.5274, 19.66884
134.0096, 19.66259
134.4917, 19.88761
134.9738, 20.12338
135.4559, 20.28918
135.9380, 20.35491
136.4201, 20.20432
136.9023, 19.69597
137.3844, 19.20792
137.8665, 18.87471
138.3486, 18.68858
138.8307, 18.63534
139.3128, 18.79568
139.7950, 19.05203
140.2771, 19.13505
140.7592, 18.95920
141.2413, 18.67913
141.7234, 18.43461
142.2055, 18.22821
142.6877, 18.04962
143.1698, 17.88128
143.6519, 17.74066
144.1340, 17.66167
144.6161, 17.68441
145.0982, 17.76170
145.5803, 17.76690
146.0625, 17.66155
146.5446, 17.53902
147.0267, 17.39670
147.5088, 17.26603
147.9909, 17.19918
148.4730, 17.24519
148.9552, 17.39625
149.4373, 17.49036
149.9194, 17.49139
150.4015, 17.46299
150.8836, 17.37912
151.3657, 17.27263
151.8479, 17.21091
152.3300, 17.26212
152.8121, 17.45387
153.2942, 17.59062
153.7763, 17.68134
154.2584, 17.72585
154.7406, 17.72676
155.2227, 17.68295
155.7048, 17.58613
156.1869, 17.41869
156.6690, 17.15036
157.1511, 16.91843
157.6333, 16.59353
158.1154, 16.37264
158.5975, 16.51223
159.0796, 17.07587
159.5617, 17.74653
160.0438, 18.07566
160.5260, 18.04810
161.0081, 18.08149
161.4902, 18.38501
161.9723, 18.79358
162.4544, 18.97488
162.9365, 18.78281
163.4187, 18.48534
163.9008, 18.40690
164.3829, 18.53583
164.8650, 18.66586
165.3471, 18.64671
165.8292, 18.50857
166.3113, 18.45772
166.7935, 18.59834
167.2756, 18.78596
167.7577, 18.88685
168.2398, 18.89994
168.7219, 18.94025
169.2040, 19.14162
169.6862, 19.53227
170.1683, 19.88775
170.6504, 20.04290
171.1325, 20.23869
171.6146, 20.65167
172.0967, 21.30274
172.5789, 22.03169
173.0610, 22.57551
173.5431, 22.75793
174.0252, 23.16918
174.5073, 23.80469
174.9894, 24.66123
175.4716, 25.71552
175.9537, 26.96249
176.4358, 28.45868
176.9179, 30.33172
177.4000, 32.93088
177.8821, 35.46647
178.3643, 38.70822
178.8464, 41.55500
179.3285, 42.82837
179.8106, 42.05470
180.2927, 39.68429
180.7748, 36.88744
181.2570, 33.00883
181.7391, 29.51359
182.2212, 26.55254
182.7033, 24.07379
183.1854, 22.02953
183.6675, 20.39786
184.1497, 19.18291
184.6318, 18.47935
185.1139, 18.52885
185.5960, 18.57718
186.0781, 18.34810
186.5602, 17.91250
187.0423, 17.45884
187.5245, 17.04839
188.0066, 16.70753
188.4887, 16.46957
188.9708, 16.34942
189.4529, 16.29979
189.9350, 16.32410
190.4172, 16.41419
190.8993, 16.47474
191.3814, 16.39693
191.8635, 16.30679
192.3456, 16.40639
192.8277, 16.80293
193.3099, 17.21506
193.7920, 17.32085
194.2741, 17.07485
194.7562, 16.86273
195.2383, 16.91764
195.7204, 17.05054
196.2026, 17.10795
196.6847, 17.04401
197.1668, 16.91146
197.6489, 16.74494
198.1310, 16.46388
198.6131, 16.39317
199.0953, 16.82907
199.5774, 17.40208
200.0595, 17.78467
200.5416, 17.84877
201.0237, 17.70538
201.5058, 17.58435
201.9880, 17.45949
202.4701, 17.41331
202.9522, 17.53352
203.4343, 17.69528
203.9164, 17.76841
204.3985, 17.69269
204.8807, 17.51545
205.3628, 17.37023
205.8449, 17.16442
206.3270, 17.13455
206.8091, 17.35635
207.2912, 17.73878
207.7733, 18.19874
208.2555, 18.69536
208.7376, 19.21667
209.2197, 19.71801
209.7018, 20.38148
210.1839, 20.80855
210.6660, 20.75110
211.1482, 20.47412
211.6303, 20.34472
212.1124, 20.55602
212.5945, 21.02901
213.0766, 21.45582
213.5587, 21.75709
214.0409, 22.10727
214.5230, 22.58488
215.0051, 23.13157
215.4872, 23.61221
215.9693, 23.92631
216.4514, 24.18047
216.9336, 24.79558
217.4157, 25.77080
217.8978, 26.99446
218.3799, 28.54587
218.8620, 30.32944
219.3441, 32.11970
219.8263, 33.78616
220.3084, 35.40781
220.7905, 37.17992
221.2726, 39.08087
221.7547, 41.14490
222.2368, 43.34560
222.7190, 45.70958
223.2011, 48.28994
223.6832, 50.92385
224.1653, 54.02299
224.6474, 58.25055
225.1295, 63.97904
225.6117, 69.91610
226.0938, 75.83735
226.5759, 81.57213
227.0580, 85.52817
227.5401, 86.95492
228.0222, 86.15923
228.5043, 83.47643
228.9865, 78.46177
229.4686, 73.44186
229.9507, 70.06502
230.4328, 68.33072
230.9149, 68.21844
231.3970, 70.12879
231.8792, 73.57642
232.3613, 78.08372
232.8434, 83.59462
233.3255, 90.27340
233.8076, 98.25130
234.2897, 107.5259
234.7719, 118.1229
235.2540, 131.2801
235.7361, 145.0848
236.2182, 159.8315
236.7003, 175.3217
237.1824, 187.7933
237.6646, 193.6638
238.1467, 192.8447
238.6288, 185.8285
239.1109, 166.7877
239.5930, 145.4460
240.0751, 125.4048
240.5573, 107.6134
241.0394, 92.58916
241.5215, 81.25709
242.0036, 74.05190
242.4857, 68.71795
242.9678, 65.68533
243.4500, 64.02679
243.9321, 63.50372
244.4142, 64.02334
244.8963, 65.47531
245.3784, 67.66782
245.8605, 70.42705
246.3427, 74.64207
246.8248, 80.87757
247.3069, 87.95489
247.7890, 95.81911
248.2711, 104.1822
248.7532, 112.4169
249.2354, 120.4803
249.7175, 129.5488
250.1996, 132.8447
250.6817, 129.1272
251.1638, 121.6640
251.6459, 110.2167
252.1281, 95.86050
252.6102, 81.15982
253.0923, 68.31904
253.5744, 57.30505
254.0565, 48.98180
254.5386, 44.17067
255.0208, 40.71437
255.5029, 37.86167
255.9850, 35.50834
256.4671, 33.79421
256.9492, 32.88087
257.4313, 32.83768
257.9135, 32.86093
258.3956, 32.78055
258.8777, 32.90565
259.3598, 33.31189
259.8419, 34.02842
260.3240, 35.08191
260.8062, 36.48257
261.2883, 38.23698
261.7704, 40.50352
262.2525, 43.67114
262.7346, 46.85368
263.2167, 49.94460
263.6989, 52.79479
264.1810, 55.14703
264.6631, 56.94104
265.1452, 58.07213
265.6273, 57.58629
266.1094, 54.79013
266.5916, 51.51731
267.0737, 48.00123
267.5558, 44.49274
268.0379, 41.49407
268.5200, 39.29723
269.0021, 37.80473
269.4843, 36.60957
269.9664, 35.69291
270.4485, 35.01183
270.9306, 34.57853
271.4127, 34.37386
271.8948, 34.38471
272.3770, 34.63487
272.8591, 35.04341
273.3412, 35.38902
273.8233, 35.53178
274.3054, 35.88776
274.7875, 36.57344
275.2697, 37.55767
275.7518, 38.82579
276.2339, 40.41428
276.7160, 42.17815
277.1981, 43.79155
277.6802, 45.16311
278.1623, 46.79659
278.6444, 48.77759
279.1266, 51.13111
279.6087, 53.86275
280.0908, 56.95584
280.5729, 60.48876
281.0550, 64.59258
281.5371, 69.18815
282.0193, 74.53616
282.5014, 81.16080
282.9835, 88.42957
283.4656, 95.79282
283.9477, 103.3355
284.4298, 109.9588
284.9120, 114.2872
285.3941, 116.5532
285.8762, 117.4302
286.3583, 116.2615
286.8404, 114.1312
287.3225, 112.0526
287.8047, 110.0355
288.2868, 108.7776
288.7689, 108.9690
289.2510, 110.4368
289.7331, 112.6085
290.2152, 115.5090
290.6974, 119.0094
291.1795, 122.8466
291.6616, 127.0019
292.1437, 131.9675
292.6258, 138.2187
293.1079, 145.5992
293.5901, 153.6014
294.0722, 161.9614
294.5543, 171.1815
295.0364, 181.5526
295.5185, 193.1235
296.0006, 205.9953
296.4828, 220.1365
296.9649, 235.8828
297.4470, 253.1477
297.9291, 271.6307
298.4112, 292.3473
298.8933, 316.0699
299.3755, 342.6209
299.8576, 371.6927
300.3397, 403.8127
300.8218, 437.9240
301.3039, 473.4921
301.7860, 511.0650
302.2682, 545.4711
302.7503, 577.4098
303.2324, 604.6323
303.7145, 620.0909
304.1966, 622.5265
304.6787, 611.5492
305.1609, 585.0758
305.6430, 544.6283
306.1251, 500.1616
306.6072, 452.1633
307.0893, 403.6156
307.5714, 360.5996
308.0536, 323.6312
308.5357, 292.8509
309.0178, 269.6316
309.4999, 252.6988
309.9820, 240.3854
310.4641, 234.6640
310.9463, 232.3016
311.4284, 229.6841
311.9105, 227.2681
312.3926, 221.6702
312.8747, 209.1978
313.3568, 192.1713
313.8390, 174.3258
314.3211, 155.2245
314.8032, 136.7432
315.2853, 120.4889
315.7674, 106.5034
316.2495, 94.59780
316.7317, 85.15268
317.2138, 77.63030
317.6959, 71.08542
318.1780, 65.52567
318.6601, 60.76821
319.1422, 56.84870
319.6243, 53.68586
320.1064, 50.84234
320.5886, 48.22281
321.0707, 45.85518
321.5528, 43.70670
322.0349, 41.76487
322.5170, 40.02369
322.9991, 38.51650
323.4813, 37.21132
323.9634, 36.00682
324.4455, 34.91080
324.9276, 33.87536
325.4097, 32.85558
325.8918, 31.85314
326.3740, 30.92943
326.8561, 30.08060
327.3382, 29.32923
327.8203, 28.73064
328.3024, 28.30971
328.7845, 27.93019
329.2667, 27.46297
329.7488, 26.95979
330.2309, 26.55421
330.7130, 26.37035
331.1951, 26.22551
331.6772, 25.92077
332.1594, 25.45858
332.6415, 24.98828
333.1236, 24.52406
333.6057, 24.14084
334.0878, 23.97846
334.5699, 24.16096
335.0521, 24.34635
335.5342, 24.32012
336.0163, 24.11171
336.4984, 23.81496
336.9805, 23.38479
337.4626, 22.99366
337.9448, 22.94752
338.4269, 23.28590
338.9090, 23.59932
339.3911, 23.72308
339.8732, 23.71290
340.3553, 23.63361
340.8375, 23.46893
341.3196, 23.35924
341.8017, 23.53622
342.2838, 23.96678
342.7659, 24.27894
343.2480, 24.21926
343.7302, 24.11087
344.2123, 24.34958
344.6944, 24.95937
345.1765, 25.59749
345.6586, 25.99196
346.1407, 26.19085
346.6229, 26.53961
347.1050, 26.98726
347.5871, 27.62977
348.0692, 28.74770
348.5513, 30.17070
349.0334, 31.26898
349.5156, 31.69017
349.9977, 31.61458
350.4798, 31.52607
350.9619, 31.46802
351.4440, 31.32190
351.9261, 30.99557
352.4083, 30.57025
352.8904, 30.17589
353.3725, 29.85348
353.8546, 29.56135
354.3367, 29.19975
354.8188, 28.68884
355.3010, 28.46975
355.7831, 28.79335
356.2652, 29.29389
356.7473, 29.61477
357.2294, 29.72914
357.7115, 29.88365
358.1937, 30.29535
358.6758, 30.98047
359.1579, 31.72397
359.6400, 32.54140
360.1221, 33.39579
360.6042, 34.25547
361.0863, 35.13581
361.5685, 36.06549
362.0506, 37.06365
362.5327, 38.12737
363.0148, 39.25127
363.4969, 40.46907
363.9790, 41.69701
364.4612, 42.82434
364.9433, 43.99611
365.4254, 45.34628
365.9075, 46.92368
366.3896, 48.74433
366.8717, 50.83780
367.3539, 53.25547
367.8360, 55.87729
368.3181, 58.47590
368.8002, 61.42041
369.2823, 65.01350
369.7644, 69.22269
370.2466, 73.78575
370.7287, 78.46245
371.2108, 83.22856
371.6929, 88.59204
372.1750, 94.85277
372.6571, 101.3585
373.1393, 107.9601
373.6214, 114.6992
374.1035, 121.9000
374.5856, 129.7599
375.0677, 137.8805
375.5498, 145.0333
376.0320, 150.9800
376.5141, 156.1838
376.9962, 161.2485
377.4783, 165.3537
377.9604, 167.5130
378.4425, 167.5984
378.9247, 166.5594
379.4068, 165.5622
379.8889, 164.5497
380.3710, 163.7867
380.8531, 162.3853
381.3352, 162.0330
381.8174, 163.5584
382.2995, 166.8316
382.7816, 171.2657
383.2637, 176.3997
383.7458, 182.2982
384.2279, 189.3866
384.7101, 197.9525
385.1922, 207.4148
385.6743, 218.4169
386.1564, 229.7589
386.6385, 240.4094
387.1206, 250.0178
387.6028, 258.0506
388.0849, 264.2184
388.5670, 269.0123
389.0491, 269.4645
389.5312, 263.3647
390.0133, 253.4040
390.4955, 240.3339
390.9776, 224.4723
391.4597, 207.5898
391.9418, 190.6123
392.4239, 173.5982
392.9060, 157.1455
393.3882, 140.7777
393.8703, 125.9948
394.3524, 113.8594
394.8345, 103.8471
395.3166, 95.00926
395.7987, 87.12211
396.2809, 80.17695
396.7630, 74.33401
397.2451, 69.57656
397.7272, 65.50195
398.2093, 62.00499
398.6914, 59.08065
399.1736, 56.63172
399.6557, 54.66254
400.1378, 53.07115
400.6199, 51.91960
401.1020, 51.09814
401.5841, 50.25117
402.0662, 49.22154
402.5483, 48.38304
403.0305, 48.29882
403.5126, 48.91310
403.9947, 49.56416
404.4768, 49.96295
404.9589, 50.46369
405.4410, 51.45462
405.9232, 52.91711
406.4053, 54.52625
406.8874, 56.11043
407.3695, 57.65171
407.8516, 59.12376
408.3337, 60.78471
408.8159, 62.08899
409.2980, 62.96430
409.7801, 63.35688
410.2622, 63.15866
410.7443, 62.32644
411.2264, 60.97619
411.7086, 59.27843
412.1907, 57.16575
412.6728, 54.80548
413.1549, 51.95431
413.6370, 49.05503
414.1191, 46.23433
414.6013, 43.60582
415.0834, 41.40896
415.5655, 39.84915
416.0476, 38.90089
416.5297, 38.23011
417.0118, 37.97688
417.4940, 37.85810
417.9761, 37.81482
418.4582, 37.88708
418.9403, 38.15133
419.4224, 38.63408
419.9045, 39.24780
420.3867, 39.89531
420.8688, 40.71582
421.3509, 41.17788
421.8330, 41.11449
422.3151, 40.83234
422.7972, 40.41069
423.2794, 39.90004
423.7615, 39.36931
424.2436, 38.81794
424.7257, 38.28675
425.2078, 38.05457
425.6899, 38.21240
426.1721, 38.52730
426.6542, 38.94057
427.1363, 39.43200
427.6184, 39.95267
428.1005, 40.46635
428.5826, 41.11467
429.0648, 42.05466
429.5469, 43.29187
430.0290, 44.75980
430.5111, 46.46304
430.9932, 48.38668
431.4753, 50.64278
431.9575, 53.16311
432.4396, 55.39547
432.9217, 57.13388
433.4038, 58.38993
433.8859, 59.23672
434.3680, 59.69527
434.8502, 59.53395
435.3323, 58.45969
435.8144, 56.63468
436.2965, 54.61995
436.7786, 52.17580
437.2607, 49.93333
437.7429, 48.19218
438.2250, 46.91358
438.7071, 45.99976
439.1892, 45.41455
439.6713, 45.22417
440.1534, 45.58832
440.6356, 46.63204
441.1177, 47.71526
441.5998, 49.10208
442.0819, 50.28162
442.5640, 51.05025
443.0461, 51.30125
443.5282, 50.80981
444.0103, 49.41588
444.4925, 47.17036
444.9746, 44.33556
445.4567, 40.18799
445.9388, 36.35064
446.4209, 32.90052
446.9030, 29.91101
447.3852, 27.45841
447.8673, 25.55991
448.3494, 24.06947
448.8315, 22.81401
449.3136, 21.79395
449.7957, 21.01334
450.2779, 20.71111
450.7600, 20.41284
451.2421, 19.85844
451.7242, 19.20043
452.2063, 18.75962
452.6884, 18.73952
453.1706, 18.96493
453.6527, 19.00189
454.1348, 18.75266
454.6169, 18.62421
455.0990, 18.87464
455.5811, 19.17972
456.0633, 19.29474
456.5454, 19.20552
457.0275, 19.12016
457.5096, 19.22188
457.9917, 19.45355
458.4738, 19.59902
458.9560, 19.61370
459.4381, 19.63233
459.9202, 19.73243
460.4023, 19.90204
460.8844, 20.13451
461.3665, 20.46516
461.8487, 20.80521
462.3308, 21.10686
462.8129, 21.36596
463.2950, 21.53886
463.7771, 21.57639
464.2592, 21.62312
464.7414, 21.94608
465.2235, 22.61203
465.7056, 23.06708
466.1877, 23.01540
466.6698, 22.91187
467.1519, 23.15636
467.6341, 23.70869
468.1162, 24.27305
468.5983, 24.66603
469.0804, 24.91387
469.5625, 25.12073
470.0446, 25.01684
470.5268, 25.22246
471.0089, 26.07518
471.4910, 27.09011
471.9731, 27.72063
472.4552, 27.91683
472.9373, 28.13275
473.4195, 28.87536
473.9016, 30.17691
474.3837, 31.54353
474.8658, 33.15623
475.3479, 34.62053
475.8300, 35.70532
476.3122, 36.60696
476.7943, 37.62451
477.2764, 38.88431
477.7585, 40.25984
478.2406, 41.55762
478.7227, 42.75483
479.2049, 44.03065
479.6870, 45.41144
480.1691, 46.89656
480.6512, 48.46416
481.1333, 50.11452
481.6154, 51.86673
482.0976, 53.66011
482.5797, 55.59254
483.0618, 57.89128
483.5439, 60.56716
484.0260, 63.23241
484.5081, 65.61530
484.9902, 67.95106
485.4724, 70.76331
485.9545, 74.19320
486.4366, 77.63081
486.9187, 80.83986
487.4008, 83.96928
487.8829, 87.21655
488.3651, 90.61590
488.8472, 94.06219
489.3293, 97.45960
489.8114, 100.8263
490.2935, 104.0300
490.7756, 107.0974
491.2578, 109.9963
491.7399, 112.7154
492.2220, 115.2494
492.7041, 117.6308
493.1862, 119.8524
493.6683, 121.7955
494.1505, 123.2361
494.6326, 124.0253
495.1147, 124.8884
495.5968, 125.7771
496.0789, 126.7868
496.5610, 127.9770
497.0432, 129.3112
497.5253, 130.7390
498.0074, 132.2339
498.4895, 133.7721
498.9716, 135.2880
499.4537, 136.7668
499.9359, 138.3320
500.4180, 140.0655
500.9001, 141.8729
501.3822, 143.7289
501.8643, 145.6172
502.3464, 147.3456
502.8286, 149.0186
503.3107, 150.4040
503.7928, 151.1790
504.2749, 151.3300
504.7570, 150.9538
505.2391, 150.0938
505.7213, 148.7269
506.2034, 146.8517
506.6855, 144.4956
507.1676, 141.6772
507.6497, 138.2231
508.1318, 134.4018
508.6140, 130.4100
509.0961, 126.3298
509.5782, 122.3735
510.0603, 118.7382
510.5424, 115.4180
511.0245, 112.3191
511.5067, 109.4728
511.9888, 106.8217
512.4709, 104.3201
512.9530, 102.0189
513.4351, 99.93542
513.9172, 98.08691
514.3994, 96.56190
514.8815, 95.42692
515.3636, 94.66615
515.8457, 94.47202
516.3278, 95.03307
516.8099, 95.95338
517.2921, 97.04356
517.7742, 98.34859
518.2563, 99.95352
518.7384, 101.9175
519.2205, 104.1089
519.7026, 106.3220
520.1848, 108.5986
520.6669, 111.2398
521.1490, 114.2432
521.6311, 117.7557
522.1132, 122.0520
522.5953, 127.0209
523.0775, 132.1601
523.5596, 137.0278
524.0417, 142.3304
524.5238, 148.6447
525.0059, 155.7694
525.4880, 163.1838
525.9702, 170.6389
526.4523, 178.3237
526.9344, 186.6192
527.4165, 195.2966
527.8986, 205.2508
528.3807, 217.1542
528.8629, 229.6465
529.3450, 241.8402
529.8271, 253.9873
530.3092, 266.8323
530.7913, 280.8124
531.2734, 295.6154
531.7556, 310.7290
532.2377, 326.4083
532.7198, 341.5606
533.2019, 355.8153
533.6840, 369.6452
534.1661, 384.0162
534.6483, 398.4687
535.1304, 411.1747
535.6125, 421.3105
536.0946, 428.9946
536.5767, 434.3893
537.0588, 437.4685
537.5410, 438.8642
538.0231, 439.1343
538.5052, 437.4240
538.9873, 432.3329
539.4694, 423.6935
539.9515, 413.8592
540.4337, 403.2665
540.9158, 391.8824
541.3979, 379.5475
541.8800, 366.3561
542.3621, 352.5945
542.8442, 338.4869
543.3264, 323.9935
543.8085, 308.9332
544.2906, 292.5064
544.7726, 276.7536
545.2548, 262.1542
545.7369, 247.9093
546.2190, 233.3156
546.7011, 218.5247
547.1832, 204.2156
547.6653, 190.9781
548.1475, 178.7577
548.6296, 167.6389
549.1117, 157.8635
549.5938, 148.6000
550.0759, 139.3038
550.5580, 130.6722
551.0402, 123.3047
551.5223, 117.2374
552.0044, 111.8655
552.4865, 106.9012
552.9686, 102.3580
553.4507, 98.28612
553.9329, 94.68802
554.4150, 91.37090
554.8971, 88.23291
555.3792, 85.31316
555.8613, 82.78347
556.3434, 80.74624
556.8256, 78.74754
557.3077, 76.60779
557.7898, 74.52016
558.2719, 72.71458
558.7540, 71.16391
559.2361, 69.68278
559.7183, 68.12595
560.2004, 66.54805
560.6825, 65.13356
561.1646, 63.91317
561.6467, 62.83691
562.1288, 61.97918
562.6110, 61.17770
563.0931, 60.29011
563.5752, 59.33270
564.0573, 58.43370
564.5394, 57.67038
565.0215, 57.03557
565.5037, 56.54779
565.9858, 56.23350
566.4679, 55.86872
566.9500, 55.26725
567.4321, 54.66746
567.9142, 54.37446
568.3964, 54.39987
568.8785, 54.53846
569.3606, 54.76801
569.8427, 55.04668
570.3248, 55.33051
570.8069, 55.62104
571.2891, 55.93608
571.7712, 56.27065
572.2533, 56.67076
572.7354, 57.25960
573.2175, 58.30094
573.6996, 59.06015
574.1818, 59.21284
574.6639, 59.39112
575.1460, 60.00257
575.6281, 60.97273
576.1102, 61.99775
576.5923, 62.89047
577.0745, 63.76665
577.5566, 64.92657
578.0387, 66.43832
578.5208, 67.84646
579.0029, 68.93401
579.4850, 70.01594
579.9672, 71.27835
580.4493, 72.72276
580.9314, 74.34518
581.4135, 76.22267
581.8956, 78.21197
582.3777, 80.15800
582.8599, 82.09496
583.3420, 84.16927
583.8241, 86.42374
584.3062, 88.89457
584.7883, 91.70075
585.2704, 95.00114
585.7526, 97.85774
586.2347, 99.70708
586.7168, 101.7579
