##NAMES=Norrishite
##RRUFFID=R130089
##IDEAL CHEMISTRY=KLiMn^3+^_2_Si_4_O_12_
##LOCALITY=Wessels mine, Kalahari Manganese Field, South Africa
##OWNER=RRUFF
##SOURCE=Marcus Origlieri
##DESCRIPTION=Dark brown platy massive cleavages associated with purple sugilite and blue wesselsite.
##STATUS=The identification of this mineral has been confirmed only by single crystal X-ray diffraction.
##URL=rruff.info/R130089
113.3769, 92.54811
113.8591, 92.44515
114.3412, 91.49312
114.8233, 90.59682
115.3054, 89.70565
115.7875, 88.88290
116.2696, 88.23203
116.7517, 87.79700
117.2339, 87.45274
117.7160, 86.86037
118.1981, 85.78581
118.6802, 84.97340
119.1623, 84.78490
119.6444, 85.04796
120.1266, 85.31515
120.6087, 85.46276
121.0908, 85.41190
121.5729, 85.10061
122.0550, 84.47073
122.5371, 83.68176
123.0193, 82.80266
123.5014, 81.80576
123.9835, 80.93513
124.4656, 80.47047
124.9477, 80.14265
125.4298, 79.67786
125.9120, 78.90655
126.3941, 78.04842
126.8762, 77.66158
127.3583, 78.12533
127.8404, 78.43289
128.3225, 78.22774
128.8047, 77.72203
129.2868, 77.21104
129.7689, 76.90117
130.2510, 76.76388
130.7331, 76.37270
131.2152, 75.19092
131.6974, 74.25850
132.1795, 73.99715
132.6616, 74.23283
133.1437, 74.49837
133.6258, 74.36459
134.1079, 73.72536
134.5901, 73.40038
135.0722, 73.52147
135.5543, 73.78081
136.0364, 74.11166
136.5185, 74.46636
137.0006, 74.67953
137.4828, 74.53865
137.9649, 73.96729
138.4470, 73.34003
138.9291, 72.64469
139.4112, 71.91418
139.8933, 71.13529
140.3755, 70.27217
140.8576, 69.50535
141.3397, 69.15579
141.8218, 69.18192
142.3039, 69.20174
142.7860, 69.04910
143.2681, 68.76254
143.7503, 68.47997
144.2324, 68.23183
144.7145, 67.99506
145.1966, 67.69991
145.6787, 67.34936
146.1608, 67.09824
146.6430, 67.12895
147.1251, 67.47504
147.6072, 67.77560
148.0893, 68.06525
148.5714, 68.21901
149.0535, 68.04538
149.5357, 67.53000
150.0178, 66.97976
150.4999, 66.92017
150.9820, 67.73107
151.4641, 68.19810
151.9462, 68.04758
152.4284, 67.67209
152.9105, 67.34452
153.3926, 67.17390
153.8747, 67.12815
154.3568, 67.13412
154.8389, 67.36625
155.3211, 67.43005
155.8032, 67.11769
156.2853, 66.68400
156.7674, 66.45700
157.2495, 66.60942
157.7316, 67.03726
158.2138, 67.29952
158.6959, 67.19042
159.1780, 67.16995
159.6601, 67.33672
160.1422, 67.67342
160.6243, 68.17625
161.1065, 68.90593
161.5886, 69.75715
162.0707, 70.27641
162.5528, 70.08920
163.0349, 69.95075
163.5170, 70.31431
163.9991, 71.14670
164.4813, 72.12655
164.9634, 73.10143
165.4455, 74.08646
165.9276, 75.11710
166.4097, 76.26588
166.8918, 77.41329
167.3740, 78.40901
167.8561, 79.22945
168.3382, 80.00204
168.8203, 80.78920
169.3024, 81.57140
169.7845, 82.31702
170.2667, 82.96597
170.7488, 83.59555
171.2309, 84.36991
171.7130, 85.26700
172.1951, 86.37908
172.6772, 87.72265
173.1594, 89.26775
173.6415, 91.00391
174.1236, 92.96207
174.6057, 95.09653
175.0878, 97.08998
175.5699, 98.64274
176.0521, 100.4071
176.5342, 102.6110
177.0163, 105.1389
177.4984, 107.7929
177.9805, 110.4911
178.4626, 113.2419
178.9448, 115.5234
179.4269, 117.0734
179.9090, 118.4226
180.3911, 119.4985
180.8732, 120.4659
181.3553, 121.6786
181.8375, 123.5069
182.3196, 126.0777
182.8017, 127.9457
183.2838, 128.8261
183.7659, 129.4348
184.2480, 130.4889
184.7301, 131.7842
185.2123, 132.2770
185.6944, 131.0058
186.1765, 127.7035
186.6586, 123.5468
187.1407, 118.1373
187.6228, 112.2416
188.1050, 106.1098
188.5871, 99.84574
189.0692, 94.02013
189.5513, 89.19532
190.0334, 85.41920
190.5155, 82.34312
190.9977, 80.17176
191.4798, 78.59786
191.9619, 77.31320
192.4440, 76.29512
192.9261, 75.49946
193.4082, 74.88079
193.8904, 74.43529
194.3725, 74.29203
194.8546, 74.64468
195.3367, 75.30172
195.8188, 75.83907
196.3009, 76.09725
196.7831, 76.52908
197.2652, 77.55764
197.7473, 79.01820
198.2294, 80.49742
198.7115, 81.63180
199.1936, 82.57755
199.6758, 84.03752
200.1579, 86.35860
200.6400, 88.76824
201.1221, 90.74187
201.6042, 92.44261
202.0863, 94.27685
202.5685, 96.79895
203.0506, 99.92227
203.5327, 102.0889
204.0148, 103.5353
204.4969, 103.5448
204.9790, 101.1470
205.4612, 97.05578
205.9433, 92.82518
206.4254, 89.59828
206.9075, 87.37911
207.3896, 86.10137
207.8717, 86.32021
208.3539, 87.04273
208.8360, 88.19103
209.3181, 89.62843
209.8002, 91.13779
210.2823, 92.51218
210.7644, 93.70200
211.2466, 95.13607
211.7287, 96.85320
212.2108, 98.74357
212.6929, 100.7225
213.1750, 102.8264
213.6571, 105.2227
214.1393, 108.1113
214.6214, 111.6162
215.1035, 114.7591
215.5856, 117.3238
216.0677, 119.8147
216.5498, 122.4592
217.0320, 125.2647
217.5141, 128.2468
217.9962, 131.5461
218.4783, 135.2819
218.9604, 137.6155
219.4425, 139.4590
219.9247, 139.4094
220.4068, 136.1320
220.8889, 129.8133
221.3710, 122.0584
221.8531, 113.8740
222.3352, 105.2758
222.8174, 97.85645
223.2995, 91.68899
223.7816, 86.59862
224.2637, 82.65352
224.7458, 79.80807
225.2279, 77.62611
225.7100, 75.81761
226.1922, 74.44056
226.6743, 73.52688
227.1564, 73.21983
227.6385, 73.29565
228.1206, 73.63752
228.6027, 74.24503
229.0849, 74.92559
229.5670, 75.54282
230.0491, 76.12514
230.5312, 76.75548
231.0133, 77.35082
231.4954, 78.05200
231.9776, 79.01879
232.4597, 80.26099
232.9418, 81.69596
233.4239, 83.27216
233.9060, 85.02387
234.3881, 87.06168
234.8703, 89.57212
235.3524, 92.24690
235.8345, 94.87074
236.3166, 97.62312
236.7987, 99.61678
237.2808, 100.7968
237.7630, 100.8413
238.2451, 99.04298
238.7272, 94.83107
239.2093, 89.18814
239.6914, 83.37864
240.1735, 77.03153
240.6557, 71.67286
241.1378, 68.14093
241.6199, 65.72000
242.1020, 63.92638
242.5841, 62.67045
243.0662, 61.77336
243.5484, 60.92449
244.0305, 60.06713
244.5126, 59.43069
244.9947, 59.20997
245.4768, 59.14972
245.9589, 59.06591
246.4410, 58.90007
246.9232, 58.64700
247.4053, 58.25633
247.8874, 57.60952
248.3695, 57.11861
248.8516, 56.77229
249.3337, 56.63189
249.8159, 56.83585
250.2980, 57.41331
250.7801, 58.12415
251.2622, 58.58164
251.7443, 58.73452
252.2264, 58.71938
252.7086, 58.38398
253.1907, 58.02186
253.6728, 57.77122
254.1549, 57.69287
254.6370, 57.85723
255.1191, 58.44283
255.6013, 59.79850
256.0834, 60.81163
256.5655, 61.48658
257.0476, 61.87250
257.5297, 61.91084
258.0118, 61.63573
258.4940, 61.23676
258.9761, 60.95266
259.4582, 60.76712
259.9403, 60.76289
260.4224, 60.87943
260.9045, 61.17781
261.3867, 61.77007
261.8688, 62.62591
262.3509, 63.54910
262.8330, 64.30599
263.3151, 64.80311
263.7972, 65.48463
264.2794, 66.49509
264.7615, 67.52850
265.2436, 68.40578
265.7257, 69.12746
266.2078, 69.80204
266.6899, 70.52391
267.1721, 71.28242
267.6542, 72.16751
268.1363, 73.09947
268.6184, 74.19603
269.1005, 75.61276
269.5826, 77.27283
270.0648, 78.91758
270.5469, 80.32939
271.0290, 81.48827
271.5111, 82.73924
271.9932, 84.20981
272.4753, 85.62495
272.9575, 87.28309
273.4396, 88.84887
273.9217, 89.49321
274.4038, 88.63560
274.8859, 86.34204
275.3680, 83.34037
275.8501, 78.96426
276.3322, 74.76997
276.8144, 71.04385
277.2965, 67.87087
277.7786, 65.46138
278.2607, 63.98867
278.7428, 63.27289
279.2249, 62.57011
279.7071, 61.68362
280.1892, 61.02641
280.6713, 60.81438
281.1534, 60.88778
281.6355, 60.95054
282.1176, 60.86382
282.5998, 60.73381
283.0819, 60.85871
283.5640, 61.37970
284.0461, 61.84499
284.5282, 62.15601
285.0103, 62.35927
285.4925, 62.49380
285.9746, 62.56133
286.4567, 62.63267
286.9388, 62.81999
287.4209, 63.09742
287.9030, 63.55072
288.3852, 64.31714
288.8673, 65.21707
289.3494, 66.03395
289.8315, 66.71839
290.3136, 67.33031
290.7957, 67.90694
291.2779, 68.42010
291.7600, 69.13303
292.2421, 70.26441
292.7242, 71.49861
293.2063, 72.50157
293.6884, 73.23725
294.1706, 73.92698
294.6527, 74.77760
295.1348, 75.79491
295.6169, 76.77441
296.0990, 77.74957
296.5811, 78.65562
297.0633, 79.37447
297.5454, 79.92437
298.0275, 80.55835
298.5096, 81.51720
298.9917, 82.71794
299.4738, 83.63749
299.9560, 84.71359
300.4381, 85.12291
300.9202, 84.31306
301.4023, 82.38605
301.8844, 79.73103
302.3665, 76.27773
302.8487, 72.40671
303.3308, 69.20796
303.8129, 66.69459
304.2950, 64.69499
304.7771, 63.28872
305.2592, 62.34750
305.7414, 61.53864
306.2235, 60.73207
306.7056, 60.01548
307.1877, 59.59866
307.6698, 59.51670
308.1519, 59.48705
308.6341, 59.44537
309.1162, 59.39246
309.5983, 59.34815
310.0804, 59.33068
310.5625, 59.26499
311.0446, 58.98961
311.5268, 58.48997
312.0089, 58.13385
312.4910, 58.04189
312.9731, 58.10859
313.4552, 58.24955
313.9373, 58.45725
314.4195, 58.63085
314.9016, 58.64121
315.3837, 58.50437
315.8658, 58.47404
316.3479, 58.67302
316.8300, 58.91326
317.3121, 58.99270
317.7943, 58.92353
318.2764, 58.95562
318.7585, 59.33690
319.2406, 59.94558
319.7227, 60.21915
320.2048, 59.87182
320.6870, 59.48714
321.1691, 59.37984
321.6512, 59.50090
322.1333, 59.67183
322.6154, 59.80045
323.0975, 59.94251
323.5797, 60.25454
324.0618, 60.84323
324.5439, 61.34577
325.0260, 61.56409
325.5081, 61.61987
325.9902, 61.76403
326.4724, 62.09332
326.9545, 62.46338
327.4366, 62.60540
327.9187, 62.46002
328.4008, 62.46465
328.8829, 62.85084
329.3651, 63.35836
329.8472, 63.70339
330.3293, 63.83686
330.8114, 63.82150
331.2935, 63.70124
331.7756, 63.46487
332.2578, 63.18125
332.7399, 62.66078
333.2220, 62.24019
333.7041, 62.18499
334.1862, 62.48427
334.6683, 62.95958
335.1505, 63.51891
335.6326, 64.15147
336.1147, 64.75076
336.5968, 65.27192
337.0789, 65.81724
337.5610, 66.46359
338.0432, 67.17033
338.5253, 67.86022
339.0074, 68.51987
339.4895, 69.09055
339.9716, 69.38042
340.4537, 69.30692
340.9359, 69.15815
341.4180, 69.02956
341.9001, 68.84040
342.3822, 68.46351
342.8643, 67.86409
343.3464, 67.14425
343.8286, 66.42653
344.3107, 65.67332
344.7928, 65.06663
345.2749, 64.57952
345.7570, 64.26373
346.2391, 64.27479
346.7213, 64.56508
347.2034, 64.79624
347.6855, 64.62257
348.1676, 64.01089
348.6497, 63.76995
349.1318, 64.14309
349.6140, 64.57375
350.0961, 64.82969
350.5782, 64.95454
351.0603, 65.10405
351.5424, 65.38043
352.0245, 65.72238
352.5067, 65.86140
352.9888, 65.45860
353.4709, 65.27273
353.9530, 65.50886
354.4351, 65.96432
354.9172, 66.45041
355.3994, 66.89375
355.8815, 67.24466
356.3636, 67.40329
356.8457, 67.16689
357.3278, 67.15825
357.8099, 67.51985
358.2920, 67.97914
358.7741, 68.41403
359.2563, 68.77749
359.7384, 68.98919
360.2205, 68.91970
360.7026, 68.49509
361.1847, 68.52242
361.6668, 69.38527
362.1490, 70.26865
362.6311, 70.84069
363.1132, 71.24061
363.5953, 71.78069
364.0774, 72.66740
364.5595, 73.79265
365.0417, 74.71210
365.5238, 75.57700
366.0059, 75.96999
366.4880, 75.73077
366.9701, 75.08588
367.4522, 74.28297
367.9344, 73.39606
368.4165, 72.26576
368.8986, 70.50970
369.3807, 67.68849
369.8628, 65.46423
370.3449, 64.20618
370.8271, 63.24514
371.3092, 62.25747
371.7913, 61.23058
372.2734, 60.29496
372.7555, 59.58517
373.2376, 59.09627
373.7198, 58.62442
374.2019, 58.17246
374.6840, 57.73600
375.1661, 57.31987
375.6482, 56.91510
376.1303, 56.48829
376.6125, 55.99263
377.0946, 55.53178
377.5767, 55.36418
378.0588, 55.58947
378.5409, 55.82794
379.0230, 56.04237
379.5052, 56.18865
379.9873, 56.23424
380.4694, 56.17199
380.9515, 55.99560
381.4336, 55.58422
381.9157, 54.94696
382.3979, 54.63139
382.8800, 54.86245
383.3621, 55.26696
383.8442, 55.64736
384.3263, 55.98360
384.8084, 56.22555
385.2906, 56.30798
385.7727, 56.28106
386.2548, 56.24472
386.7369, 56.18768
387.2190, 56.16254
387.7011, 56.21277
388.1833, 56.31173
388.6654, 56.42251
389.1475, 56.52485
389.6296, 56.66264
390.1117, 56.92160
390.5938, 57.27892
391.0760, 57.52633
391.5581, 57.52602
392.0402, 57.47548
392.5223, 57.68270
393.0044, 58.16866
393.4865, 58.59219
393.9687, 58.81742
394.4508, 58.89844
394.9329, 58.84581
395.4150, 58.63752
395.8971, 58.55243
396.3792, 58.93158
396.8614, 59.72059
397.3435, 60.23475
397.8256, 60.29160
398.3077, 60.20392
398.7898, 60.14998
399.2719, 60.12177
399.7540, 60.06710
400.2361, 59.95815
400.7183, 59.80835
401.2004, 59.65601
401.6825, 59.50206
402.1646, 59.34398
402.6467, 59.11678
403.1288, 58.91460
403.6110, 58.86238
404.0931, 58.98414
404.5752, 59.19665
405.0573, 59.42256
405.5394, 59.69020
406.0215, 59.79984
406.5037, 59.65399
406.9858, 59.46532
407.4679, 59.26340
407.9500, 59.10268
408.4321, 59.09088
408.9142, 59.30544
409.3964, 59.69818
409.8785, 60.05269
410.3606, 60.44512
410.8427, 60.68489
411.3248, 60.59419
411.8069, 60.43514
412.2891, 60.47643
412.7712, 60.77804
413.2533, 61.17914
413.7354, 61.48159
414.2175, 61.68554
414.6996, 61.79216
415.1818, 61.62013
415.6639, 61.51845
416.1460, 61.65320
416.6281, 61.97237
417.1102, 62.34092
417.5923, 62.70271
418.0745, 63.02562
418.5566, 63.15841
419.0387, 62.93147
419.5208, 62.89595
420.0029, 63.35651
420.4850, 63.99828
420.9672, 64.57813
421.4493, 65.04153
421.9314, 65.35564
422.4135, 65.39897
422.8956, 65.19069
423.3777, 65.14050
423.8599, 65.37930
424.3420, 65.69653
424.8241, 65.92500
425.3062, 66.08936
425.7883, 66.28105
426.2704, 66.53128
426.7526, 66.83480
427.2347, 67.21818
427.7168, 67.69236
428.1989, 68.10091
428.6810, 68.37801
429.1631, 68.51550
429.6453, 68.52360
430.1274, 68.34902
430.6095, 68.16578
431.0916, 68.15865
431.5737, 68.18935
432.0558, 67.95224
432.5380, 67.35670
433.0201, 66.59132
433.5022, 65.80864
433.9843, 64.98678
434.4664, 64.45279
434.9485, 64.61304
435.4307, 64.72771
435.9128, 64.13500
436.3949, 63.03080
436.8770, 62.16128
437.3591, 61.98732
437.8412, 62.31876
438.3234, 62.43547
438.8055, 62.08024
439.2876, 61.83791
439.7697, 61.83930
440.2518, 61.91903
440.7339, 61.94735
441.2160, 61.88627
441.6982, 61.72570
442.1803, 61.40728
442.6624, 60.85857
443.1445, 60.68003
443.6266, 61.32918
444.1087, 61.87856
444.5909, 62.03294
445.0730, 61.89570
445.5551, 61.63215
446.0372, 61.30838
446.5193, 60.99985
447.0014, 60.91781
447.4836, 61.19056
447.9657, 61.30585
448.4478, 61.05704
448.9299, 60.70175
449.4120, 60.34122
449.8941, 60.00665
450.3763, 59.76715
450.8584, 59.72210
451.3405, 59.82503
451.8226, 59.85950
452.3047, 59.76516
452.7868, 59.74331
453.2690, 60.07416
453.7511, 60.51357
454.2332, 60.66457
454.7153, 60.28623
455.1974, 59.91050
455.6795, 60.07811
456.1617, 60.65516
456.6438, 61.04631
457.1259, 61.05153
457.6080, 60.88296
458.0901, 60.77595
458.5722, 60.72389
459.0544, 60.76130
459.5365, 60.95855
460.0186, 61.20257
460.5007, 61.39346
460.9828, 61.53503
461.4649, 61.68398
461.9471, 61.87550
462.4292, 62.10207
462.9113, 62.33780
463.3934, 62.72551
463.8755, 62.93702
464.3576, 62.71832
464.8398, 62.42430
465.3219, 62.51507
465.8040, 63.02880
466.2861, 63.51628
466.7682, 63.43657
467.2503, 62.69152
467.7325, 62.32153
468.2146, 62.69462
468.6967, 63.05574
469.1788, 63.15784
469.6609, 63.13386
470.1430, 63.19422
470.6252, 63.43199
471.1073, 63.78090
471.5894, 64.11689
472.0715, 64.41600
472.5536, 64.80819
473.0357, 65.43593
473.5179, 66.05595
474.0000, 66.48625
474.4821, 66.76832
474.9642, 67.10995
475.4463, 67.69355
475.9284, 68.39592
476.4106, 68.90677
476.8927, 69.17545
477.3748, 69.56520
477.8569, 70.33052
478.3390, 71.27699
478.8211, 72.06251
479.3033, 72.60696
479.7854, 73.23068
480.2675, 74.19229
480.7496, 75.31620
481.2317, 76.24183
481.7138, 76.89637
482.1959, 77.56445
482.6780, 78.48985
483.1602, 79.68124
483.6423, 80.99463
484.1244, 82.61055
484.6065, 84.14163
485.0886, 85.40719
485.5707, 86.49255
486.0529, 87.56268
486.5350, 88.68239
487.0171, 89.76138
487.4992, 90.62577
487.9813, 91.15426
488.4634, 91.81876
488.9456, 92.99171
489.4277, 93.92451
489.9098, 94.24939
490.3919, 94.03680
490.8740, 93.49155
491.3561, 92.71593
491.8383, 91.75102
492.3204, 90.70450
492.8025, 89.58216
493.2846, 88.37003
493.7667, 87.06288
494.2488, 85.67313
494.7310, 84.11503
495.2131, 82.42912
495.6952, 80.87884
496.1773, 79.71967
496.6594, 78.83929
497.1415, 77.89668
497.6237, 76.82803
498.1058, 75.96928
498.5879, 75.58984
499.0700, 75.51091
499.5521, 75.38253
500.0342, 75.17999
500.5164, 74.94385
500.9985, 74.68008
501.4806, 74.39870
501.9627, 74.10275
502.4448, 73.79311
502.9269, 73.50381
503.4091, 73.25908
503.8912, 73.05909
504.3733, 72.95623
504.8554, 73.05824
505.3375, 73.12589
505.8196, 73.19368
506.3018, 73.13707
506.7839, 72.69958
507.2660, 71.80622
507.7481, 70.75791
508.2302, 70.02926
508.7123, 69.71245
509.1945, 69.37946
509.6766, 68.90182
510.1587, 68.53784
510.6408, 68.50014
511.1229, 68.63289
511.6050, 68.63601
512.0872, 68.34911
512.5693, 67.89742
513.0514, 67.46323
513.5335, 67.02757
514.0156, 66.74659
514.4977, 66.70065
514.9799, 66.78290
515.4620, 66.98515
515.9441, 67.26587
516.4262, 67.36811
516.9083, 67.02363
517.3904, 66.53409
517.8726, 66.28452
518.3547, 66.26868
518.8368, 66.32623
519.3189, 66.41288
519.8010, 66.49048
520.2831, 66.42423
520.7653, 66.07376
521.2474, 66.00328
521.7295, 66.67168
522.2116, 67.40405
522.6937, 67.45876
523.1758, 66.92202
523.6580, 66.52077
524.1401, 66.80605
524.6222, 67.62173
525.1043, 68.17317
525.5864, 68.37814
526.0685, 68.40201
526.5507, 68.00427
527.0328, 67.61880
527.5149, 67.68669
527.9970, 68.19551
528.4791, 68.70505
528.9612, 68.77145
529.4434, 68.49303
529.9255, 68.49510
530.4076, 68.88856
530.8897, 69.30633
531.3718, 69.65539
531.8539, 69.91683
532.3361, 70.02953
532.8182, 69.95872
533.3003, 69.91897
533.7824, 70.02326
534.2645, 70.26360
534.7466, 70.68864
535.2288, 71.32383
535.7109, 71.87043
536.1930, 72.02238
536.6751, 71.88519
537.1572, 72.10515
537.6393, 72.95390
538.1215, 73.79316
538.6036, 74.43616
539.0857, 74.97658
539.5678, 75.51073
540.0499, 76.06711
540.5320, 76.66725
541.0142, 77.34396
541.4963, 78.10189
541.9784, 78.76885
542.4604, 79.33944
542.9426, 79.80955
543.4247, 80.18110
543.9068, 80.44894
544.3889, 80.62264
544.8710, 80.70178
545.3531, 80.63187
545.8353, 80.33074
546.3174, 79.80919
546.7995, 79.20454
547.2816, 78.51212
547.7637, 77.76511
548.2458, 76.84915
548.7280, 75.92220
549.2101, 75.28154
549.6922, 75.11831
550.1743, 74.94877
550.6564, 74.36701
551.1385, 73.57780
551.6207, 72.98859
552.1028, 72.68401
552.5849, 72.59707
553.0670, 72.70824
553.5491, 73.01920
554.0313, 73.19923
554.5134, 73.25323
554.9955, 73.19397
555.4776, 72.82478
555.9597, 72.43491
556.4418, 72.41353
556.9240, 72.84071
557.4061, 73.45570
557.8882, 73.99582
558.3703, 74.46072
558.8524, 74.76363
559.3345, 74.68746
559.8167, 74.76173
560.2988, 75.31835
560.7809, 76.03584
561.2630, 76.51566
561.7451, 76.64421
562.2272, 76.66398
562.7094, 76.76474
563.1915, 76.92564
563.6736, 77.09752
564.1557, 77.29144
564.6378, 77.41138
565.1199, 77.37300
565.6021, 77.19881
566.0842, 77.02084
566.5663, 76.87199
567.0484, 76.67451
567.5305, 76.30261
568.0126, 75.91557
568.4948, 75.76163
568.9769, 75.85738
569.4590, 75.97066
569.9411, 75.89478
570.4232, 75.63359
570.9053, 75.25498
571.3875, 74.49673
571.8696, 73.98087
572.3517, 74.01628
572.8338, 74.18980
573.3159, 74.07478
573.7980, 73.62943
574.2802, 73.19054
574.7623, 73.07545
575.2444, 73.21318
575.7265, 73.30188
576.2086, 73.31938
576.6907, 73.37906
577.1729, 73.52584
577.6550, 73.75504
578.1371, 74.08400
578.6192, 74.56251
579.1013, 74.91579
579.5834, 74.91628
580.0656, 74.81053
580.5477, 74.90745
581.0298, 75.20208
581.5119, 75.47269
581.9940, 75.56911
582.4761, 75.55741
582.9583, 75.66142
583.4404, 75.88399
583.9225, 76.23185
584.4046, 76.85300
584.8867, 77.46822
585.3688, 77.83427
585.8510, 78.01974
586.3331, 78.29144
586.8152, 78.83731
587.2973, 79.53250
587.7794, 80.10490
588.2615, 80.55327
588.7437, 80.86935
589.2258, 80.90073
589.7079, 80.96902
590.1900, 81.35670
590.6721, 82.03636
591.1542, 82.84776
591.6364, 83.83226
592.1185, 84.85194
592.6006, 85.81200
593.0827, 86.70305
593.5648, 87.45017
594.0469, 88.00429
594.5291, 88.61010
595.0112, 89.62891
595.4933, 91.15778
595.9754, 92.68425
596.4575, 93.95870
596.9396, 95.50576
597.4218, 97.64878
597.9039, 100.1367
598.3860, 102.5622
598.8681, 104.8008
599.3502, 107.1604
599.8323, 109.9897
600.3145, 113.2964
600.7966, 117.0844
601.2787, 121.5907
601.7608, 126.0433
602.2429, 129.7448
602.7250, 133.1818
603.2072, 137.0621
603.6893, 141.6241
604.1714, 146.2129
604.6535, 150.3860
605.1356, 154.4580
605.6177, 158.7159
606.0999, 163.2444
606.5820, 168.4185
607.0641, 174.5441
607.5462, 181.4387
608.0283, 188.3575
608.5104, 195.1423
608.9926, 202.1605
609.4747, 209.2774
