##NAMES=Norrishite
##RRUFFID=R060368
##IDEAL CHEMISTRY=KLiMn^3+^_2_Si_4_O_12_
##LOCALITY=Hoskins mine, Grenfell, New South Wales, Australia
##OWNER=RRUFF
##SOURCE=Michael Scott
##DESCRIPTION=Black flaky massive
##STATUS=The identification of this mineral has been confirmed only by single crystal X-ray diffraction.
##URL=rruff.info/R060368
131.9542, 9.816748
132.4363, 10.25446
132.9185, 12.16179
133.4006, 13.35109
133.8827, 12.92247
134.3648, 11.38342
134.8469, 10.47672
135.3290, 10.23532
135.8112, 10.48417
136.2933, 11.22061
136.7754, 12.49380
137.2575, 13.53302
137.7396, 13.99162
138.2217, 13.88183
138.7039, 13.98717
139.1860, 14.39140
139.6681, 14.87927
140.1502, 15.11198
140.6323, 15.02522
141.1144, 14.88771
141.5966, 14.71416
142.0787, 14.39201
142.5608, 14.59805
143.0429, 15.52904
143.5250, 16.87423
144.0071, 17.92138
144.4893, 18.54836
144.9714, 19.06050
145.4535, 19.61130
145.9356, 20.38907
146.4177, 20.82919
146.8998, 20.82057
147.3820, 20.45841
147.8641, 20.09598
148.3462, 19.33467
148.8283, 18.95136
149.3104, 19.39816
149.7925, 21.78633
150.2747, 23.55341
150.7568, 24.34637
151.2389, 24.24151
151.7210, 24.11885
152.2031, 23.87198
152.6852, 23.67248
153.1674, 23.62473
153.6495, 23.33364
154.1316, 23.61637
154.6137, 25.06995
155.0958, 27.73020
155.5779, 29.39687
156.0601, 28.96515
156.5422, 27.81608
157.0243, 27.13375
157.5064, 27.92068
157.9885, 28.45817
158.4706, 27.95036
158.9528, 26.16760
159.4349, 25.10530
159.9170, 25.88266
160.3991, 27.47134
160.8812, 28.68258
161.3633, 28.76016
161.8455, 28.72022
162.3276, 29.02888
162.8097, 29.79209
163.2918, 30.57289
163.7739, 31.19305
164.2560, 31.68203
164.7382, 31.94102
165.2203, 32.53698
165.7024, 32.90835
166.1845, 32.46138
166.6666, 30.76418
167.1487, 29.45517
167.6309, 29.71140
168.1130, 30.99364
168.5951, 32.16280
169.0772, 32.53038
169.5593, 32.64685
170.0414, 33.01817
170.5236, 33.86036
171.0057, 34.66721
171.4878, 35.15170
171.9699, 35.32985
172.4520, 35.23503
172.9341, 34.52686
173.4163, 33.69038
173.8984, 33.35338
174.3805, 33.87833
174.8626, 34.55178
175.3447, 34.60014
175.8268, 34.15413
176.3090, 33.82084
176.7911, 34.13203
177.2732, 34.80390
177.7553, 35.39461
178.2374, 35.84064
178.7195, 36.10727
179.2017, 36.01529
179.6838, 35.60765
180.1659, 35.30662
180.6480, 35.53503
181.1301, 36.11511
181.6122, 36.64951
182.0944, 37.08100
182.5765, 37.36554
183.0586, 37.31432
183.5407, 36.93317
184.0228, 36.62768
184.5049, 36.80701
184.9871, 37.37865
185.4692, 38.00440
185.9513, 38.55816
186.4334, 39.10490
186.9155, 40.05109
187.3976, 41.46269
187.8798, 42.47163
188.3619, 41.72158
188.8440, 39.51694
189.3261, 37.88024
189.8082, 37.77576
190.2903, 38.74704
190.7725, 39.11642
191.2546, 38.81892
191.7367, 38.29016
192.2188, 38.09891
192.7009, 38.21582
193.1830, 38.09890
193.6652, 37.33656
194.1473, 36.09031
194.6294, 35.45594
195.1115, 35.49731
195.5936, 35.92575
196.0757, 36.45968
196.5579, 37.10583
197.0400, 37.66790
197.5221, 38.01520
198.0042, 38.16692
198.4863, 38.40895
198.9684, 38.70446
199.4506, 39.17205
199.9327, 40.06664
200.4148, 41.44090
200.8969, 42.78530
201.3790, 43.85807
201.8611, 44.63995
202.3433, 45.58684
202.8254, 46.73115
203.3075, 47.99164
203.7896, 49.26787
204.2717, 50.60409
204.7538, 51.76833
205.2360, 52.85469
205.7181, 53.97550
206.2002, 53.84340
206.6823, 52.06359
207.1644, 49.51028
207.6465, 47.76091
208.1287, 46.93419
208.6108, 46.53805
209.0929, 46.39869
209.5750, 46.53205
210.0571, 46.85591
210.5392, 47.41597
211.0214, 48.12612
211.5035, 48.85800
211.9856, 49.67701
212.4677, 50.32436
212.9498, 50.54543
213.4319, 50.09384
213.9140, 50.27335
214.3962, 51.23711
214.8783, 52.74955
215.3604, 54.24096
215.8425, 55.65531
216.3246, 57.20057
216.8067, 58.93024
217.2889, 60.71656
217.7710, 63.11665
218.2531, 66.41035
218.7352, 70.17409
219.2173, 73.55372
219.6994, 76.71258
220.1816, 79.19041
220.6637, 80.81149
221.1458, 81.48069
221.6279, 81.61652
222.1100, 81.42262
222.5921, 80.63577
223.0743, 78.39019
223.5564, 74.09102
224.0385, 69.40630
224.5206, 65.11311
225.0027, 61.08077
225.4848, 57.63666
225.9670, 54.89601
226.4491, 52.73835
226.9312, 50.81364
227.4133, 49.10933
227.8954, 47.67712
228.3775, 46.59607
228.8597, 45.95897
229.3418, 45.38328
229.8239, 44.78168
230.3060, 44.25657
230.7881, 44.13097
231.2702, 44.55931
231.7524, 45.15077
232.2345, 45.73857
232.7166, 46.35530
233.1987, 46.89102
233.6808, 47.21455
234.1629, 47.48738
234.6451, 48.13190
235.1272, 49.09977
235.6093, 50.50651
236.0914, 52.48812
236.5735, 55.45940
237.0556, 58.07398
237.5378, 60.35031
238.0199, 62.26997
238.5020, 63.83253
238.9841, 65.34124
239.4662, 66.07639
239.9483, 65.70509
240.4305, 64.01681
240.9126, 61.69286
241.3947, 58.46285
241.8768, 54.68027
242.3589, 51.15708
242.8410, 47.74508
243.3232, 44.81793
243.8053, 42.58331
244.2874, 41.19939
244.7695, 40.14563
245.2516, 39.57996
245.7337, 39.27535
246.2159, 38.69769
246.6980, 37.62373
247.1801, 36.62571
247.6622, 35.90240
248.1443, 35.46216
248.6264, 35.29313
249.1086, 35.51150
249.5907, 35.94270
250.0728, 36.20112
250.5549, 36.11074
251.0370, 36.14444
251.5191, 36.51345
252.0013, 37.33428
252.4834, 38.10272
252.9655, 38.85928
253.4476, 39.53202
253.9297, 39.87581
254.4118, 39.44873
254.8940, 39.51408
255.3761, 40.67350
255.8582, 43.33233
256.3403, 45.43373
256.8224, 46.66307
257.3046, 47.57868
257.7867, 49.14796
258.2688, 51.74908
258.7509, 54.23560
259.2330, 56.18909
259.7151, 57.53715
260.1973, 58.84566
260.6794, 60.03429
261.1615, 61.23656
261.6436, 62.68525
262.1257, 64.60809
262.6078, 66.23946
263.0900, 67.20075
263.5721, 67.38484
264.0542, 68.03549
264.5363, 69.22897
265.0184, 70.80191
265.5005, 72.61375
265.9827, 74.67229
266.4648, 76.88863
266.9469, 79.15273
267.4290, 81.44109
267.9111, 84.22922
268.3932, 87.42191
268.8754, 91.23499
269.3575, 96.01953
269.8396, 102.0513
270.3217, 108.1825
270.8038, 113.9379
271.2859, 119.4347
271.7681, 126.1185
272.2502, 134.2712
272.7323, 143.0219
273.2144, 151.6641
273.6965, 160.5353
274.1786, 167.8836
274.6608, 174.0192
275.1429, 178.4932
275.6250, 178.1039
276.1071, 172.4542
276.5892, 163.1413
277.0714, 150.9013
277.5535, 135.2970
278.0356, 120.1938
278.5177, 105.9191
278.9998, 92.77365
279.4819, 82.20989
279.9641, 74.34786
280.4462, 68.14323
280.9283, 62.95105
281.4104, 58.82970
281.8925, 55.20438
282.3746, 51.98491
282.8568, 49.35631
283.3389, 47.03870
283.8210, 45.49633
284.3031, 44.34874
284.7852, 43.60663
285.2673, 43.24133
285.7495, 42.56464
286.2316, 41.36261
286.7137, 39.99513
287.1958, 39.23900
287.6779, 39.10681
288.1600, 39.18480
288.6422, 39.39542
289.1243, 39.67123
289.6064, 39.40014
290.0885, 38.34830
290.5706, 37.19137
291.0527, 37.18953
291.5349, 38.26793
292.0170, 39.32647
292.4991, 39.65526
292.9812, 39.45839
293.4633, 39.47968
293.9454, 39.79177
294.4276, 40.18059
294.9097, 40.26379
295.3918, 40.12288
295.8739, 40.18970
296.3560, 40.79008
296.8381, 41.73616
297.3203, 42.52110
297.8024, 43.10118
298.2845, 43.78981
298.7666, 45.05936
299.2487, 46.72849
299.7308, 48.27857
300.2130, 49.40188
300.6951, 50.31091
301.1772, 51.61147
301.6593, 53.29792
302.1414, 54.42044
302.6235, 54.00172
303.1057, 52.41269
303.5878, 50.38375
304.0699, 47.85100
304.5520, 45.22093
305.0341, 42.90230
305.5162, 40.89679
305.9984, 39.13490
306.4805, 37.69452
306.9626, 36.44957
307.4447, 35.22447
307.9268, 33.78841
308.4089, 32.57801
308.8911, 32.11663
309.3732, 32.26150
309.8553, 32.42622
310.3374, 32.19186
310.8195, 31.84049
311.3016, 31.65123
311.7838, 31.69584
312.2659, 31.88126
312.7480, 32.27983
313.2301, 32.78484
313.7122, 33.14007
314.1943, 33.20715
314.6765, 33.09712
315.1586, 32.79195
315.6407, 32.15131
316.1228, 31.80945
316.6049, 32.29322
317.0870, 33.25077
317.5692, 34.09401
318.0513, 34.68194
318.5334, 35.05757
319.0155, 35.20681
319.4976, 35.11026
319.9797, 34.93724
320.4619, 34.48565
320.9440, 34.07451
321.4261, 34.06431
321.9082, 35.11657
322.3903, 36.02376
322.8724, 36.32795
323.3546, 36.00426
323.8367, 35.75386
324.3188, 35.52551
324.8009, 35.51940
325.2830, 35.88863
325.7651, 37.23747
326.2473, 38.31384
326.7294, 38.74790
327.2115, 38.64513
327.6936, 38.84772
328.1757, 39.75435
328.6578, 40.71864
329.1400, 41.42629
329.6221, 41.81684
330.1042, 42.01932
330.5863, 41.94478
331.0684, 41.67868
331.5505, 41.49567
332.0327, 41.68451
332.5148, 41.61213
332.9969, 40.92684
333.4790, 39.22164
333.9611, 38.10142
334.4432, 37.92438
334.9254, 38.12314
335.4075, 37.64589
335.8896, 35.98340
336.3717, 34.66734
336.8538, 34.23778
337.3359, 34.77089
337.8180, 35.38618
338.3001, 36.18313
338.7823, 36.91067
339.2644, 37.23432
339.7465, 37.07459
340.2286, 36.86883
340.7107, 36.71450
341.1928, 36.59937
341.6750, 36.44377
342.1571, 36.23073
342.6392, 36.03080
343.1213, 35.93820
343.6034, 35.95665
344.0855, 35.81548
344.5677, 35.34699
345.0498, 34.82160
345.5319, 35.16307
346.0140, 36.41331
346.4961, 37.34709
346.9782, 36.91108
347.4604, 35.39425
347.9425, 34.11106
348.4246, 33.08044
348.9067, 32.58162
349.3888, 33.29485
349.8709, 35.03228
350.3531, 36.75074
350.8352, 37.94004
351.3173, 38.74699
351.7994, 39.45612
352.2815, 40.07405
352.7636, 40.57642
353.2458, 40.73849
353.7279, 40.76763
354.2100, 41.11990
354.6921, 42.29254
355.1742, 43.64632
355.6563, 44.48512
356.1385, 44.84217
356.6206, 45.11641
357.1027, 45.34504
357.5848, 45.72871
358.0669, 46.54229
358.5490, 48.09193
359.0312, 49.73216
359.5133, 51.11866
359.9954, 52.28032
360.4775, 53.32912
360.9596, 53.97025
361.4417, 54.74275
361.9239, 56.07892
362.4060, 58.21199
362.8881, 60.41430
363.3702, 62.28631
363.8523, 64.07941
364.3344, 66.17931
364.8166, 69.03217
365.2987, 71.93000
365.7808, 74.60292
366.2629, 77.06926
366.7450, 79.26791
367.2271, 81.54563
367.7093, 83.38013
368.1914, 84.31264
368.6735, 84.39448
369.1556, 83.46017
369.6377, 81.25507
370.1198, 77.88614
370.6020, 74.30370
371.0841, 70.44776
371.5662, 66.41681
372.0483, 62.28351
372.5304, 57.86827
373.0125, 53.59229
373.4947, 49.31766
373.9768, 45.27796
374.4589, 41.99215
374.9410, 39.58641
375.4231, 37.66874
375.9052, 36.11575
376.3874, 34.94436
376.8695, 33.99110
377.3516, 33.28472
377.8337, 32.73219
378.3158, 32.21495
378.7979, 31.73524
379.2801, 31.24000
379.7622, 30.61021
380.2443, 29.96181
380.7264, 29.92237
381.2085, 30.57418
381.6906, 31.25532
382.1728, 31.36027
382.6549, 30.97129
383.1370, 30.60478
383.6191, 30.34936
384.1012, 30.14691
384.5833, 29.78975
385.0655, 29.32831
385.5476, 29.12809
386.0297, 29.76382
386.5118, 30.71375
386.9939, 30.91363
387.4760, 30.18517
387.9582, 29.34916
388.4403, 29.15073
388.9224, 29.41378
389.4045, 29.76687
389.8866, 30.14223
390.3687, 30.48385
390.8509, 30.60239
391.3330, 30.54004
391.8151, 30.77171
392.2972, 32.00357
392.7793, 33.46818
393.2614, 34.38635
393.7436, 34.02740
394.2257, 33.83258
394.7078, 34.66003
395.1899, 36.13742
395.6720, 37.28713
396.1541, 37.31559
396.6363, 37.33223
397.1184, 37.98962
397.6005, 39.72552
398.0826, 40.92988
398.5647, 40.97402
399.0468, 40.49160
399.5290, 40.25055
400.0111, 40.51642
400.4932, 40.80105
400.9753, 41.13454
401.4574, 41.51473
401.9395, 41.45826
402.4217, 40.80742
402.9038, 39.88739
403.3859, 38.90976
403.8680, 37.90940
404.3501, 36.74585
404.8322, 35.34560
405.3144, 33.81086
405.7965, 32.44930
406.2786, 31.27135
406.7607, 30.20261
407.2428, 29.13622
407.7249, 28.05626
408.2071, 27.52835
408.6892, 27.67790
409.1713, 27.99901
409.6534, 27.75913
410.1355, 26.99633
410.6176, 26.49276
411.0998, 26.65079
411.5819, 27.10122
412.0640, 26.79332
412.5461, 25.76269
413.0282, 24.85273
413.5103, 24.80329
413.9925, 25.33560
414.4746, 25.94990
414.9567, 26.65600
415.4388, 27.15607
415.9209, 26.90644
416.4030, 26.19369
416.8852, 25.72319
417.3673, 26.12214
417.8494, 26.73744
418.3315, 27.01817
418.8136, 26.92709
419.2957, 26.78229
419.7779, 26.82906
420.2600, 26.88161
420.7421, 26.75272
421.2242, 25.99191
421.7063, 25.45594
422.1884, 25.52772
422.6706, 26.07079
423.1527, 26.57096
423.6348, 27.04305
424.1169, 27.33599
424.5990, 27.30897
425.0811, 26.61392
425.5633, 26.38626
426.0454, 27.11294
426.5275, 28.13400
427.0096, 28.60370
427.4917, 28.12655
427.9738, 27.68593
428.4560, 27.45734
428.9381, 27.43596
429.4202, 27.58496
429.9023, 28.00478
430.3844, 28.40578
430.8665, 28.53480
431.3487, 28.33063
431.8308, 28.20852
432.3129, 28.16812
432.7950, 28.27262
433.2771, 28.77753
433.7592, 29.70054
434.2414, 30.45917
434.7235, 30.70123
435.2056, 30.54720
435.6877, 30.47102
436.1698, 30.47607
436.6519, 30.51545
437.1341, 30.50664
437.6162, 30.49399
438.0983, 30.63567
438.5804, 31.14979
439.0625, 31.58383
439.5446, 31.23572
440.0268, 30.30720
440.5089, 29.53417
440.9910, 29.51739
441.4731, 29.74666
441.9552, 29.77351
442.4373, 29.52374
442.9195, 29.19170
443.4016, 28.84632
443.8837, 28.48437
444.3658, 28.10187
444.8479, 27.53801
445.3300, 27.11424
445.8122, 26.93708
446.2943, 26.99742
446.7764, 27.17847
447.2585, 27.80442
447.7406, 28.28526
448.2227, 28.29592
448.7049, 27.51631
449.1870, 26.88138
449.6691, 26.42262
450.1512, 26.09596
450.6333, 25.85612
451.1154, 25.75448
451.5976, 25.62221
452.0797, 25.39634
452.5618, 25.08710
453.0439, 24.84501
453.5260, 24.66085
454.0081, 24.58463
454.4903, 24.71739
454.9724, 25.05378
455.4545, 25.28143
455.9366, 25.34225
456.4187, 25.31857
456.9008, 25.26060
457.3830, 25.19686
457.8651, 25.34459
458.3472, 26.06878
458.8293, 26.99129
459.3114, 27.47032
459.7935, 27.49629
460.2757, 27.18541
460.7578, 26.23724
461.2399, 25.12706
461.7220, 24.55504
462.2041, 24.92723
462.6862, 25.48301
463.1684, 25.74912
463.6505, 25.82420
464.1326, 25.92999
464.6147, 26.16095
465.0968, 26.44140
465.5789, 26.79142
466.0611, 27.24805
466.5432, 27.47983
467.0253, 27.26085
467.5074, 26.87203
467.9895, 26.54717
468.4716, 26.14459
468.9538, 26.01565
469.4359, 26.42310
469.9180, 27.11521
470.4001, 27.21891
470.8822, 26.34061
471.3643, 25.57172
471.8465, 25.36491
472.3286, 25.76423
472.8107, 26.29065
473.2928, 26.96942
473.7749, 27.69770
474.2570, 28.39309
474.7392, 29.05514
475.2213, 29.55322
475.7034, 29.83825
476.1855, 29.96913
476.6676, 29.95203
477.1497, 29.82169
477.6319, 29.89951
478.1140, 30.62100
478.5961, 31.59965
479.0782, 32.11534
479.5603, 32.08911
480.0424, 32.04814
480.5246, 32.44594
481.0067, 33.09177
481.4888, 33.71459
481.9709, 34.19759
482.4530, 34.67613
482.9352, 35.27012
483.4173, 35.92507
483.8994, 36.46894
484.3815, 36.63886
484.8636, 36.85365
485.3457, 37.30988
485.8279, 38.05213
486.3100, 38.92835
486.7921, 40.22351
487.2742, 41.48153
487.7563, 42.28197
488.2384, 42.23316
488.7206, 42.41233
489.2027, 43.02039
489.6848, 43.92904
490.1669, 44.71306
490.6490, 45.39764
491.1311, 45.86280
491.6133, 46.01732
492.0954, 45.86651
492.5775, 45.62470
493.0596, 45.30453
493.5417, 44.84311
494.0238, 44.01976
494.5060, 42.94461
494.9881, 42.18739
495.4702, 42.03246
495.9523, 42.04414
496.4344, 41.56209
496.9165, 40.69770
497.3987, 39.87276
497.8808, 39.44157
498.3629, 39.08147
498.8450, 38.41933
499.3271, 37.40554
499.8092, 36.48601
500.2914, 35.92330
500.7735, 35.55046
501.2556, 35.19398
501.7377, 34.84201
502.2198, 34.47194
502.7019, 34.00792
503.1841, 33.51625
503.6662, 33.17480
504.1483, 33.17408
504.6304, 33.12947
505.1125, 32.88338
505.5946, 32.40179
506.0768, 32.17369
506.5589, 32.31934
507.0410, 32.54369
507.5231, 32.65201
508.0052, 32.66599
508.4873, 32.37645
508.9695, 31.65410
509.4516, 30.79348
509.9337, 30.38097
510.4158, 30.39668
510.8979, 30.47089
511.3800, 30.49989
511.8622, 30.45817
512.3443, 30.29035
512.8264, 29.99836
513.3085, 29.59477
513.7906, 28.89487
514.2728, 28.16232
514.7549, 27.77008
515.2370, 27.86183
515.7191, 28.07516
516.2012, 28.27050
516.6833, 28.42153
517.1655, 28.49144
517.6476, 28.32815
518.1297, 28.22126
518.6118, 28.37219
519.0939, 28.74139
519.5760, 28.86642
520.0582, 28.41876
520.5403, 27.94913
521.0224, 27.70971
521.5045, 27.81864
521.9866, 27.78235
522.4688, 27.46189
522.9509, 27.14922
523.4330, 27.26101
523.9151, 27.89233
524.3972, 28.44919
524.8793, 28.87091
525.3615, 29.07856
525.8436, 28.70547
526.3257, 27.76012
526.8078, 26.93127
527.2899, 26.62734
527.7720, 26.72124
528.2542, 27.04013
528.7363, 27.58667
529.2184, 28.00022
529.7005, 27.79079
530.1826, 27.31625
530.6647, 27.07400
531.1469, 27.31724
531.6290, 27.63097
532.1111, 27.81372
532.5932, 27.89942
533.0753, 27.95697
533.5574, 28.00917
534.0396, 28.03461
534.5217, 28.00159
535.0038, 27.90359
535.4859, 27.88015
535.9680, 28.02741
536.4501, 28.15794
536.9323, 28.14578
537.4144, 27.89450
537.8965, 27.77396
538.3786, 27.81445
538.8607, 27.95450
539.3428, 28.13269
539.8250, 28.35895
540.3071, 28.53832
540.7892, 28.74943
541.2713, 28.81413
541.7534, 27.96380
542.2355, 26.31431
542.7177, 25.09823
543.1998, 25.55507
543.6819, 26.76724
544.1640, 27.30090
544.6461, 27.03055
545.1282, 26.54869
545.6104, 25.87558
546.0925, 25.38181
546.5746, 25.51533
547.0567, 26.89633
547.5388, 28.22276
548.0209, 29.21032
548.5031, 29.81832
548.9852, 29.98308
549.4673, 29.08040
549.9494, 28.37964
550.4315, 28.26921
550.9136, 28.74601
551.3958, 29.09352
551.8779, 29.34374
552.3600, 29.41074
552.8421, 29.18702
553.3242, 28.63331
553.8063, 28.10145
554.2885, 27.53036
554.7706, 27.19049
555.2527, 27.69038
555.7348, 28.86503
556.2169, 29.65311
556.6990, 29.57053
557.1812, 29.15169
557.6633, 29.15913
558.1454, 29.49166
558.6275, 29.76938
559.1096, 29.61107
559.5917, 29.41989
560.0739, 29.56585
560.5560, 30.07908
561.0381, 30.58977
561.5202, 30.98006
562.0023, 31.28501
562.4844, 31.52492
562.9666, 31.63806
563.4487, 31.78598
563.9308, 32.01593
564.4129, 32.26831
564.8950, 32.45127
565.3771, 32.54594
565.8593, 32.59687
566.3414, 32.55523
566.8235, 32.48370
567.3056, 32.75809
567.7877, 33.44044
568.2698, 34.00277
568.7520, 33.97818
569.2341, 33.55849
569.7162, 33.53471
570.1983, 33.95112
570.6804, 34.42983
571.1625, 34.56071
571.6447, 34.53045
572.1268, 34.65643
572.6089, 35.09146
573.0910, 35.53361
573.5731, 35.71221
574.0552, 35.77921
574.5374, 36.00441
575.0195, 36.85752
575.5016, 37.49451
575.9837, 37.46997
576.4658, 36.85192
576.9479, 36.55182
577.4301, 36.59563
577.9122, 36.96145
578.3943, 37.85357
578.8764, 39.55758
579.3585, 39.90956
579.8406, 38.35659
580.3228, 36.68197
580.8049, 37.06908
581.2870, 39.37260
581.7691, 40.98872
582.2512, 41.34385
582.7333, 41.12426
583.2155, 41.28186
583.6975, 41.71109
584.1796, 42.08974
584.6617, 42.17688
585.1439, 42.20955
585.6260, 42.36511
586.1081, 42.64399
586.5902, 43.04599
587.0723, 43.57932
587.5544, 44.22618
588.0366, 45.09180
588.5187, 46.33110
589.0008, 47.11977
589.4829, 46.62016
589.9650, 46.13615
590.4471, 46.71562
590.9293, 49.00856
591.4114, 50.85268
591.8935, 52.01113
592.3756, 52.78687
592.8577, 53.68230
593.3398, 54.69052
593.8220, 55.78268
594.3041, 56.83883
594.7862, 58.05410
595.2683, 60.06467
595.7504, 62.75576
596.2325, 65.41509
596.7147, 67.12846
597.1968, 68.80811
597.6789, 71.70684
598.1610, 75.93044
598.6431, 80.23290
599.1252, 83.73360
599.6074, 87.07673
600.0895, 90.80308
600.5716, 94.99332
601.0537, 99.61656
601.5358, 104.5533
602.0179, 109.9414
602.5001, 116.0019
602.9822, 122.9798
603.4643, 130.0610
603.9464, 137.2377
604.4285, 144.4001
604.9106, 151.3123
605.3928, 157.8479
605.8749, 164.7284
606.3570, 172.5232
606.8391, 180.9125
607.3212, 188.5816
607.8033, 195.5587
608.2855, 203.4717
608.7676, 214.2454
609.2497, 226.3360
609.7318, 237.5052
610.2139, 247.3382
610.6960, 257.1968
611.1782, 267.5470
611.6603, 278.4117
612.1424, 289.9508
612.6245, 303.1500
613.1066, 315.7014
613.5887, 327.4138
614.0709, 338.3086
614.5530, 348.8006
615.0351, 359.1571
615.5172, 368.1945
615.9993, 375.8621
616.4814, 381.9872
616.9636, 386.2131
617.4457, 388.6746
617.9278, 387.8288
618.4099, 382.4168
618.8920, 372.9762
619.3741, 360.4525
619.8563, 344.7599
620.3384, 327.2801
620.8205, 308.3281
621.3026, 288.5451
621.7847, 268.6158
622.2668, 248.0548
622.7490, 228.3748
623.2311, 209.7681
623.7132, 192.3696
624.1953, 176.3522
624.6774, 161.3557
625.1595, 148.3131
625.6417, 137.7416
626.1238, 129.0680
626.6059, 120.8962
627.0880, 113.1432
627.5701, 105.9942
628.0522, 99.49361
628.5344, 93.65038
629.0165, 88.61298
629.4986, 84.39040
629.9807, 80.55746
