##NAMES=Northupite
##RRUFFID=R060156
##IDEAL CHEMISTRY=Na_3_Mg(CO_3_)_2_Cl
##LOCALITY=Searles Lake, San Bernardino County, California, USA
##OWNER=RRUFF
##SOURCE=Marcus Origlieri
##DESCRIPTION=Gray octahedron
##STATUS=The identification of this mineral has been confirmed by X-ray diffraction and chemical analysis
##URL=rruff.info/R060156
##MEASURED CHEMISTRY=(Na_2.98_Ca_0.02_)_Î£=3_Mg_1.00_(CO_3_)_2_Cl_1.00_
92.02539, 1355.012
92.50751, 1337.099
92.98962, 1338.441
93.47174, 1350.997
93.95386, 1372.251
94.43597, 1390.307
94.91809, 1402.813
95.40021, 1411.432
95.88232, 1416.008
96.36444, 1415.715
96.84656, 1412.612
97.32867, 1407.176
97.81078, 1400.699
98.29290, 1394.907
98.77502, 1390.428
99.25713, 1385.436
99.73925, 1379.186
100.2214, 1370.151
100.7035, 1362.016
101.1856, 1356.496
101.6677, 1353.482
102.1498, 1351.597
102.6320, 1349.156
103.1141, 1345.250
103.5962, 1343.060
104.0783, 1343.161
104.5604, 1344.525
105.0425, 1346.065
105.5247, 1347.418
106.0068, 1348.819
106.4889, 1350.250
106.9710, 1351.456
107.4531, 1353.195
107.9352, 1355.748
108.4173, 1359.054
108.8995, 1362.991
109.3816, 1367.705
109.8637, 1372.880
110.3458, 1378.061
110.8279, 1383.133
111.3100, 1388.488
111.7922, 1394.681
112.2743, 1401.864
112.7564, 1409.319
113.2385, 1416.202
113.7206, 1423.486
114.2027, 1432.159
114.6849, 1442.669
115.1670, 1454.682
115.6491, 1466.797
116.1312, 1478.271
116.6133, 1490.986
117.0954, 1506.138
117.5776, 1522.615
118.0597, 1538.989
118.5418, 1554.451
119.0239, 1569.037
119.5060, 1581.072
119.9881, 1593.258
120.4703, 1601.152
120.9524, 1603.191
121.4345, 1599.276
121.9166, 1589.590
122.3987, 1573.517
122.8808, 1549.730
123.3630, 1526.585
123.8451, 1503.466
124.3272, 1481.228
124.8093, 1460.718
125.2914, 1441.906
125.7735, 1425.295
126.2557, 1412.369
126.7378, 1402.427
127.2199, 1393.778
127.7020, 1385.684
128.1841, 1378.406
128.6662, 1373.062
129.1483, 1370.668
129.6305, 1369.380
130.1126, 1367.827
130.5947, 1365.986
131.0768, 1363.925
131.5589, 1361.430
132.0410, 1358.351
132.5232, 1356.128
133.0053, 1356.249
133.4874, 1356.393
133.9695, 1355.098
134.4516, 1352.175
134.9337, 1348.800
135.4159, 1346.752
135.8980, 1346.614
136.3801, 1346.849
136.8622, 1347.439
137.3443, 1348.252
137.8264, 1349.260
138.3086, 1350.440
138.7907, 1351.665
139.2728, 1352.568
139.7549, 1353.430
140.2370, 1353.601
140.7191, 1352.364
141.2013, 1350.511
141.6834, 1349.280
142.1655, 1349.403
142.6476, 1350.512
143.1297, 1350.934
143.6118, 1349.649
144.0939, 1348.881
144.5761, 1349.986
145.0582, 1352.592
145.5403, 1354.973
146.0224, 1356.053
146.5045, 1356.127
146.9866, 1356.326
147.4688, 1356.516
147.9509, 1356.988
148.4330, 1358.097
148.9151, 1359.911
149.3972, 1361.935
149.8793, 1363.493
150.3615, 1365.160
150.8436, 1367.933
151.3257, 1373.051
151.8078, 1379.048
152.2899, 1382.257
152.7720, 1381.079
153.2542, 1379.839
153.7363, 1380.476
154.2184, 1382.201
154.7005, 1383.859
155.1826, 1384.755
155.6647, 1384.943
156.1469, 1384.953
156.6290, 1384.604
157.1111, 1384.234
157.5932, 1383.704
158.0753, 1383.204
158.5574, 1383.082
159.0396, 1383.638
159.5217, 1384.916
160.0038, 1386.524
160.4859, 1389.199
160.9680, 1391.514
161.4501, 1392.404
161.9323, 1392.144
162.4144, 1392.046
162.8965, 1393.516
163.3786, 1397.075
163.8607, 1400.145
164.3428, 1402.610
164.8250, 1404.718
165.3071, 1406.395
165.7892, 1407.689
166.2713, 1409.148
166.7534, 1411.535
167.2355, 1414.995
167.7177, 1418.359
168.1998, 1421.172
168.6819, 1423.960
169.1640, 1427.460
169.6461, 1431.904
170.1282, 1436.743
170.6104, 1440.994
171.0925, 1444.712
171.5746, 1449.370
172.0567, 1456.208
172.5388, 1464.490
173.0209, 1471.838
173.5031, 1476.917
173.9852, 1482.293
174.4673, 1490.648
174.9494, 1501.668
175.4315, 1512.605
175.9136, 1521.533
176.3958, 1528.516
176.8779, 1534.858
177.3600, 1541.408
177.8421, 1546.610
178.3242, 1549.832
178.8063, 1550.974
179.2885, 1549.946
179.7706, 1546.418
180.2527, 1540.031
180.7348, 1532.558
181.2169, 1523.779
181.6990, 1514.225
182.1812, 1503.723
182.6633, 1492.413
183.1454, 1481.176
183.6275, 1471.216
184.1096, 1462.890
184.5917, 1455.250
185.0738, 1448.019
185.5560, 1441.463
186.0381, 1435.895
186.5202, 1431.354
187.0023, 1427.547
187.4844, 1424.000
187.9665, 1420.544
188.4487, 1417.707
188.9308, 1416.218
189.4129, 1414.981
189.8950, 1412.473
190.3771, 1408.242
190.8592, 1403.889
191.3414, 1402.790
191.8235, 1407.497
192.3056, 1410.632
192.7877, 1410.115
193.2698, 1407.957
193.7519, 1406.951
194.2341, 1408.201
194.7162, 1410.533
195.1983, 1411.424
195.6804, 1410.489
196.1625, 1409.886
196.6446, 1410.503
197.1268, 1411.924
197.6089, 1413.249
198.0910, 1414.224
198.5731, 1414.891
199.0552, 1415.173
199.5373, 1414.898
200.0195, 1415.099
200.5016, 1416.791
200.9837, 1419.631
201.4658, 1421.731
201.9479, 1421.938
202.4300, 1421.796
202.9122, 1423.059
203.3943, 1425.875
203.8764, 1429.052
204.3585, 1431.562
204.8406, 1433.418
205.3227, 1435.689
205.8048, 1438.758
206.2870, 1442.282
206.7691, 1446.172
207.2512, 1450.399
207.7333, 1454.546
208.2154, 1458.288
208.6975, 1461.694
209.1797, 1464.267
209.6618, 1465.311
210.1439, 1465.877
210.6260, 1466.352
211.1081, 1466.850
211.5902, 1467.464
212.0724, 1468.461
212.5545, 1470.184
213.0366, 1471.182
213.5187, 1471.306
214.0008, 1470.790
214.4829, 1469.694
214.9651, 1468.057
215.4472, 1465.955
215.9293, 1463.372
216.4114, 1459.672
216.8935, 1456.854
217.3756, 1456.003
217.8578, 1455.139
218.3399, 1452.623
218.8220, 1448.234
219.3041, 1443.171
219.7862, 1439.286
220.2683, 1437.163
220.7505, 1435.264
221.2326, 1433.554
221.7147, 1432.055
222.1968, 1430.982
222.6789, 1430.317
223.1610, 1429.548
223.6432, 1427.795
224.1253, 1423.727
224.6074, 1421.629
225.0895, 1422.977
225.5716, 1425.441
226.0537, 1426.957
226.5358, 1427.043
227.0180, 1426.496
227.5001, 1426.421
227.9822, 1427.032
228.4643, 1427.426
228.9464, 1426.919
229.4285, 1426.456
229.9107, 1427.320
230.3928, 1429.835
230.8749, 1432.719
231.3570, 1434.268
231.8391, 1434.385
232.3212, 1434.455
232.8034, 1434.511
233.2855, 1434.706
233.7676, 1435.371
234.2497, 1436.644
234.7318, 1437.933
235.2139, 1438.380
235.6961, 1438.107
236.1782, 1438.144
236.6603, 1438.653
237.1424, 1439.654
237.6245, 1441.255
238.1066, 1443.562
238.5888, 1446.188
239.0709, 1449.037
239.5530, 1451.981
240.0351, 1454.581
240.5172, 1456.193
240.9993, 1457.452
241.4815, 1459.558
241.9636, 1462.685
242.4457, 1466.422
242.9278, 1470.836
243.4099, 1475.617
243.8920, 1480.098
244.3742, 1483.682
244.8563, 1486.809
245.3384, 1490.602
245.8205, 1495.408
246.3026, 1500.084
246.7847, 1504.265
247.2668, 1507.879
247.7490, 1510.727
248.2311, 1512.688
248.7132, 1513.842
249.1953, 1514.572
249.6774, 1515.394
250.1595, 1514.581
250.6417, 1511.206
251.1238, 1506.095
251.6059, 1500.009
252.0880, 1492.898
252.5701, 1485.514
253.0522, 1479.829
253.5344, 1476.827
254.0165, 1473.700
254.4986, 1468.962
254.9807, 1463.903
255.4628, 1459.957
255.9449, 1457.826
256.4271, 1456.915
256.9092, 1455.868
257.3913, 1454.615
257.8734, 1453.370
258.3555, 1452.220
258.8376, 1451.081
259.3198, 1449.669
259.8019, 1447.867
260.2840, 1446.225
260.7661, 1446.080
261.2482, 1448.714
261.7303, 1450.390
262.2125, 1450.371
262.6946, 1449.567
263.1767, 1448.653
263.6588, 1447.856
264.1409, 1447.080
264.6230, 1446.146
265.1052, 1444.947
265.5873, 1443.772
266.0694, 1443.002
266.5515, 1442.021
267.0336, 1439.902
267.5157, 1436.648
267.9979, 1433.570
268.4800, 1432.751
268.9621, 1435.491
269.4442, 1437.797
269.9263, 1440.094
270.4084, 1441.768
270.8906, 1442.236
271.3727, 1441.528
271.8548, 1440.247
272.3369, 1439.083
272.8190, 1438.049
273.3011, 1437.167
273.7833, 1436.069
274.2654, 1435.397
274.7475, 1435.667
275.2296, 1436.795
275.7117, 1438.257
276.1938, 1439.536
276.6760, 1440.577
277.1581, 1441.805
277.6402, 1442.828
278.1223, 1444.343
278.6044, 1447.353
279.0865, 1451.319
279.5686, 1454.480
280.0508, 1455.261
280.5329, 1453.582
281.0150, 1453.119
281.4971, 1454.403
281.9792, 1456.067
282.4613, 1458.087
282.9435, 1460.105
283.4256, 1461.367
283.9077, 1461.300
284.3898, 1460.085
284.8719, 1459.388
285.3540, 1459.622
285.8362, 1459.803
286.3183, 1459.757
286.8004, 1459.466
287.2825, 1458.793
287.7646, 1457.591
288.2467, 1456.184
288.7289, 1455.739
289.2110, 1457.607
289.6931, 1458.709
290.1752, 1458.094
290.6573, 1456.568
291.1394, 1455.184
291.6216, 1454.346
292.1037, 1453.928
292.5858, 1453.708
293.0679, 1453.917
293.5500, 1453.899
294.0321, 1453.179
294.5143, 1452.385
294.9964, 1452.353
295.4785, 1453.305
295.9606, 1454.571
296.4427, 1455.160
296.9248, 1454.681
297.4070, 1454.735
297.8891, 1455.297
298.3712, 1456.458
298.8533, 1458.706
299.3354, 1461.989
299.8175, 1465.113
300.2997, 1466.793
300.7818, 1466.726
301.2639, 1466.948
301.7460, 1467.559
302.2281, 1468.363
302.7102, 1469.542
303.1924, 1470.947
303.6745, 1471.789
304.1566, 1471.359
304.6387, 1469.696
305.1208, 1468.308
305.6029, 1467.198
306.0851, 1466.309
306.5672, 1465.896
307.0493, 1465.736
307.5314, 1465.090
308.0135, 1463.428
308.4956, 1461.045
308.9778, 1459.280
309.4599, 1458.636
309.9420, 1457.863
310.4241, 1456.217
310.9062, 1454.191
311.3883, 1452.992
311.8705, 1453.305
312.3526, 1454.115
312.8347, 1452.922
313.3168, 1448.618
313.7989, 1445.255
314.2810, 1444.057
314.7632, 1444.099
315.2453, 1444.225
315.7274, 1444.130
316.2095, 1444.024
316.6916, 1444.342
317.1737, 1445.400
317.6559, 1445.393
318.1380, 1443.096
318.6201, 1440.317
319.1022, 1438.911
319.5843, 1439.058
320.0664, 1439.391
320.5485, 1438.579
321.0306, 1436.507
321.5128, 1434.942
321.9949, 1433.818
322.4770, 1433.223
322.9591, 1433.614
323.4412, 1434.740
323.9233, 1435.530
324.4055, 1435.248
324.8876, 1433.998
325.3697, 1432.689
325.8518, 1430.811
326.3339, 1429.414
326.8160, 1429.123
327.2982, 1429.597
327.7803, 1430.148
328.2624, 1430.508
328.7445, 1430.636
329.2266, 1430.360
329.7087, 1429.351
330.1909, 1428.589
330.6730, 1428.362
331.1551, 1428.447
331.6372, 1428.621
332.1193, 1428.824
332.6014, 1428.968
333.0836, 1428.953
333.5657, 1428.819
334.0478, 1428.323
334.5299, 1426.969
335.0120, 1425.568
335.4941, 1424.691
335.9763, 1424.439
336.4584, 1424.758
336.9405, 1425.702
337.4226, 1427.349
337.9047, 1428.592
338.3868, 1429.500
338.8690, 1430.006
339.3511, 1429.940
339.8332, 1429.421
340.3153, 1428.796
340.7974, 1428.301
341.2795, 1427.875
341.7617, 1427.099
342.2438, 1425.099
342.7259, 1423.832
343.2080, 1424.318
343.6901, 1425.677
344.1722, 1426.592
344.6544, 1426.516
345.1365, 1425.838
345.6186, 1425.335
346.1007, 1424.875
346.5828, 1424.873
347.0649, 1425.732
347.5471, 1426.820
348.0292, 1427.728
348.5113, 1428.313
348.9934, 1428.409
349.4755, 1427.687
349.9576, 1425.708
350.4398, 1424.787
350.9219, 1425.648
351.4040, 1426.717
351.8861, 1427.212
352.3682, 1427.173
352.8503, 1427.007
353.3325, 1427.007
353.8146, 1427.159
354.2967, 1427.310
354.7788, 1427.402
355.2609, 1427.545
355.7430, 1427.823
356.2252, 1428.146
356.7073, 1428.523
357.1894, 1428.969
357.6715, 1429.186
358.1536, 1428.343
358.6357, 1424.959
359.1179, 1422.807
359.5999, 1422.791
360.0821, 1423.475
360.5642, 1423.786
361.0463, 1423.477
361.5284, 1422.888
362.0105, 1422.422
362.4926, 1422.104
362.9748, 1421.841
363.4569, 1421.918
363.9390, 1421.799
364.4211, 1420.935
364.9032, 1419.636
365.3853, 1418.768
365.8675, 1419.084
366.3496, 1420.414
366.8317, 1421.139
367.3138, 1421.026
367.7959, 1420.516
368.2780, 1419.136
368.7602, 1417.626
369.2423, 1416.951
369.7244, 1417.545
370.2065, 1418.861
370.6886, 1419.913
371.1707, 1420.794
371.6529, 1421.119
372.1350, 1420.504
372.6171, 1419.592
373.0992, 1418.333
373.5813, 1416.937
374.0634, 1414.121
374.5456, 1416.047
375.0277, 1417.046
375.5098, 1417.166
375.9919, 1413.781
376.4740, 1414.923
376.9561, 1414.250
377.4383, 1413.503
377.9204, 1415.282
378.4025, 1412.407
378.8846, 1412.311
379.3667, 1414.192
379.8488, 1415.146
380.3310, 1415.223
380.8131, 1411.793
381.2952, 1412.891
381.7773, 1412.174
382.2594, 1411.383
382.7415, 1413.118
383.2237, 1410.198
383.7058, 1411.893
384.1879, 1411.746
384.6700, 1412.442
385.1521, 1411.312
385.6342, 1410.747
386.1164, 1412.007
386.5985, 1412.256
387.0806, 1410.916
387.5627, 1411.666
388.0448, 1408.682
388.5269, 1408.975
389.0091, 1410.680
389.4912, 1409.432
389.9733, 1410.215
390.4554, 1410.225
390.9375, 1406.719
391.4196, 1409.441
391.9018, 1409.031
392.3839, 1407.202
392.8660, 1405.960
393.3481, 1406.423
393.8302, 1407.766
394.3123, 1408.289
394.7945, 1407.741
395.2766, 1407.282
395.7587, 1407.519
396.2408, 1408.096
396.7229, 1408.380
397.2050, 1408.213
397.6872, 1407.918
398.1693, 1407.955
398.6514, 1408.377
399.1335, 1408.104
399.6156, 1406.285
400.0977, 1404.393
400.5798, 1403.425
401.0620, 1403.338
401.5441, 1403.740
402.0262, 1404.504
402.5083, 1405.474
402.9904, 1405.834
403.4725, 1405.009
403.9547, 1404.384
404.4368, 1404.257
404.9189, 1404.459
405.4010, 1404.925
405.8831, 1405.605
406.3652, 1406.159
406.8474, 1406.040
407.3295, 1404.888
407.8116, 1404.100
408.2937, 1404.170
408.7758, 1404.129
409.2579, 1403.096
409.7401, 1401.400
410.2222, 1400.193
410.7043, 1400.409
411.1864, 1401.829
411.6685, 1402.510
412.1506, 1401.608
412.6328, 1400.981
413.1149, 1401.014
413.5970, 1401.408
414.0791, 1401.840
414.5612, 1402.195
415.0433, 1402.553
415.5255, 1403.186
416.0076, 1404.446
416.4897, 1404.770
416.9718, 1402.915
417.4539, 1401.073
417.9360, 1400.387
418.4182, 1400.673
418.9003, 1400.990
419.3824, 1400.490
419.8645, 1399.488
420.3466, 1399.467
420.8287, 1400.737
421.3109, 1402.347
421.7930, 1404.627
422.2751, 1406.713
422.7572, 1407.457
423.2393, 1406.400
423.7214, 1404.644
424.2036, 1403.172
424.6857, 1401.990
425.1678, 1401.266
425.6499, 1401.474
426.1320, 1401.607
426.6141, 1400.467
427.0963, 1398.256
427.5784, 1396.535
428.0605, 1396.387
428.5426, 1396.961
429.0247, 1396.874
429.5068, 1396.017
429.9890, 1395.217
430.4711, 1394.931
430.9532, 1395.141
431.4353, 1395.646
431.9174, 1396.754
432.3995, 1397.695
432.8817, 1398.034
433.3638, 1397.926
433.8459, 1397.578
434.3280, 1396.990
434.8101, 1396.556
435.2922, 1397.036
435.7744, 1398.933
436.2565, 1399.447
436.7386, 1396.906
437.2207, 1394.197
437.7028, 1393.578
438.1849, 1394.764
438.6671, 1396.068
439.1492, 1396.402
439.6313, 1395.866
440.1134, 1395.025
440.5955, 1393.046
441.0776, 1391.812
441.5598, 1391.997
442.0418, 1392.806
442.5240, 1393.522
443.0061, 1393.926
443.4882, 1394.132
443.9703, 1394.337
444.4524, 1394.673
444.9345, 1394.411
445.4167, 1392.771
445.8988, 1391.306
446.3809, 1390.693
446.8630, 1390.659
447.3451, 1390.548
447.8272, 1389.926
448.3094, 1389.158
448.7915, 1389.358
449.2736, 1391.084
449.7557, 1392.145
450.2378, 1391.390
450.7199, 1390.166
451.2021, 1389.212
451.6842, 1388.663
452.1663, 1388.654
452.6484, 1389.910
453.1305, 1391.939
453.6126, 1392.265
454.0948, 1390.051
454.5769, 1387.795
455.0590, 1387.503
455.5411, 1388.312
456.0232, 1388.756
456.5053, 1388.331
456.9875, 1387.721
457.4696, 1387.386
457.9517, 1387.332
458.4338, 1387.692
458.9159, 1388.720
459.3980, 1389.771
459.8802, 1389.669
460.3623, 1388.299
460.8444, 1387.261
461.3265, 1386.501
461.8086, 1386.414
462.2907, 1388.028
462.7729, 1390.982
463.2550, 1393.079
463.7371, 1392.680
464.2192, 1390.270
464.7013, 1388.650
465.1834, 1388.568
465.6656, 1388.263
466.1477, 1387.192
466.6298, 1385.923
467.1119, 1385.002
467.5940, 1384.585
468.0761, 1384.639
468.5583, 1385.233
469.0404, 1386.559
469.5225, 1387.221
470.0046, 1387.080
470.4867, 1386.395
470.9688, 1384.668
471.4510, 1382.557
471.9331, 1381.124
472.4152, 1380.904
472.8973, 1381.365
473.3794, 1381.524
473.8615, 1381.311
474.3437, 1381.077
474.8258, 1380.983
475.3079, 1380.789
475.7900, 1380.182
476.2721, 1379.266
476.7542, 1378.594
477.2364, 1378.760
477.7185, 1379.361
478.2006, 1379.496
478.6827, 1379.130
479.1648, 1378.484
479.6469, 1377.395
480.1291, 1376.236
480.6112, 1375.726
481.0933, 1376.180
481.5754, 1376.510
482.0575, 1375.913
482.5396, 1374.881
483.0217, 1374.442
483.5038, 1374.826
483.9860, 1375.231
484.4681, 1374.825
484.9502, 1373.568
485.4323, 1372.699
485.9144, 1372.547
486.3965, 1372.401
486.8787, 1371.941
487.3608, 1371.268
487.8429, 1370.403
488.3250, 1369.350
488.8071, 1368.644
489.2892, 1369.433
489.7714, 1373.166
490.2535, 1374.769
490.7356, 1372.633
491.2177, 1370.232
491.6998, 1369.250
492.1819, 1369.489
492.6641, 1370.134
493.1462, 1370.793
493.6283, 1371.251
494.1104, 1370.734
494.5925, 1368.763
495.0746, 1367.124
495.5568, 1366.060
496.0389, 1365.613
496.5210, 1366.329
497.0031, 1368.050
497.4852, 1369.181
497.9673, 1368.035
498.4495, 1365.482
498.9316, 1364.055
499.4137, 1364.059
499.8958, 1364.131
500.3779, 1363.284
500.8600, 1362.058
501.3422, 1361.630
501.8243, 1362.464
502.3064, 1363.210
502.7885, 1363.100
503.2706, 1362.480
503.7527, 1361.939
504.2349, 1361.610
504.7170, 1361.413
505.1991, 1361.330
505.6812, 1361.377
506.1633, 1361.093
506.6454, 1359.952
507.1276, 1359.105
507.6097, 1359.242
508.0918, 1359.874
508.5739, 1360.255
509.0560, 1360.107
509.5381, 1359.629
510.0203, 1359.070
510.5024, 1358.276
510.9845, 1357.935
511.4666, 1358.512
511.9487, 1359.082
512.4308, 1359.311
512.9130, 1359.260
513.3951, 1359.102
513.8772, 1358.920
514.3593, 1358.678
514.8414, 1358.244
515.3235, 1357.557
515.8057, 1357.135
516.2878, 1357.476
516.7699, 1357.718
517.2520, 1356.989
517.7341, 1355.424
518.2162, 1354.037
518.6984, 1353.093
519.1805, 1352.641
519.6626, 1353.044
520.1447, 1354.212
520.6268, 1354.939
521.1089, 1354.502
521.5911, 1353.451
522.0732, 1353.056
522.5553, 1353.422
523.0374, 1353.968
523.5195, 1355.182
524.0016, 1356.132
524.4838, 1355.764
524.9659, 1354.216
525.4480, 1352.445
525.9301, 1351.077
526.4122, 1350.156
526.8943, 1349.943
527.3765, 1351.564
527.8586, 1352.265
528.3407, 1351.296
528.8228, 1349.735
529.3049, 1348.089
529.7870, 1346.642
530.2692, 1345.981
530.7513, 1347.045
531.2334, 1349.396
531.7155, 1350.422
532.1976, 1349.919
532.6797, 1348.559
533.1619, 1345.499
533.6440, 1342.282
534.1261, 1340.572
534.6082, 1340.734
535.0903, 1341.478
535.5724, 1342.092
536.0546, 1342.662
536.5367, 1343.505
537.0188, 1344.697
537.5009, 1345.591
537.9830, 1345.635
538.4651, 1344.960
538.9473, 1344.410
539.4294, 1343.824
539.9115, 1343.535
540.3936, 1344.084
540.8757, 1344.762
541.3578, 1344.475
541.8400, 1343.119
542.3221, 1341.795
542.8042, 1341.790
543.2863, 1343.148
543.7684, 1343.092
544.2505, 1339.742
544.7326, 1337.229
545.2147, 1336.701
545.6968, 1337.226
546.1790, 1338.026
546.6611, 1338.832
547.1432, 1339.236
547.6253, 1338.477
548.1074, 1336.705
548.5895, 1335.716
549.0717, 1335.826
549.5538, 1336.195
550.0359, 1336.236
550.5180, 1336.240
551.0001, 1336.798
551.4822, 1338.377
551.9644, 1339.580
552.4465, 1339.048
552.9286, 1337.603
553.4107, 1337.022
553.8928, 1337.656
554.3749, 1338.638
554.8571, 1339.331
555.3392, 1339.712
555.8213, 1339.299
556.3034, 1336.911
556.7855, 1335.274
557.2676, 1335.477
557.7498, 1336.615
558.2319, 1337.938
558.7140, 1339.113
559.1961, 1339.594
559.6782, 1338.595
560.1603, 1336.102
560.6425, 1334.207
561.1246, 1333.240
561.6067, 1332.450
562.0888, 1331.417
562.5709, 1330.502
563.0530, 1330.235
563.5352, 1330.766
564.0173, 1331.348
564.4994, 1331.360
564.9815, 1330.912
565.4636, 1330.215
565.9457, 1329.170
566.4279, 1328.525
566.9100, 1328.951
567.3921, 1330.163
567.8742, 1331.060
568.3563, 1331.575
568.8384, 1331.891
569.3206, 1331.998
569.8027, 1331.972
570.2848, 1331.960
570.7669, 1331.952
571.2490, 1331.730
571.7311, 1331.085
572.2133, 1330.049
572.6954, 1328.993
573.1775, 1327.293
573.6596, 1326.476
574.1417, 1327.195
574.6238, 1328.522
575.1060, 1329.960
575.5881, 1331.281
576.0702, 1332.005
576.5523, 1331.443
577.0344, 1329.994
577.5165, 1329.263
577.9987, 1329.492
578.4808, 1329.350
578.9629, 1327.749
579.4450, 1325.844
579.9271, 1325.325
580.4092, 1326.402
580.8914, 1327.541
581.3735, 1328.398
581.8556, 1328.878
582.3377, 1328.786
582.8198, 1328.177
583.3019, 1327.320
583.7841, 1326.314
584.2662, 1325.297
584.7483, 1324.629
585.2304, 1324.001
585.7125, 1324.295
586.1946, 1327.098
586.6768, 1329.366
587.1589, 1328.596
587.6410, 1325.659
588.1231, 1323.171
