##NAMES=Nosean
##RRUFFID=R050422
##IDEAL CHEMISTRY=Na_8_(Si_6_Al_6_)O_24_(S^6+^O_4_)&#183;H_2_O
##LOCALITY=Laacher See, Mendig Area, Eifel Mountains, Rhineland-Palatinate, Germany
##OWNER=RRUFF
##SOURCE=Marcus Origlieri
##DESCRIPTION=Colorless prismatic single crystals
##STATUS=The identification of this mineral is confirmed by single-crystal X-ray diffraction and chemical analysis.
##URL=rruff.info/R050422
##MEASURED CHEMISTRY=(Na_0.92_Ca_0.03_[box]_0.03_K_0.01_)_8_Al_5.99_Si_6.01_O_24_(S_1.00_O_4_)Â·H_2_O
93.78320, 651.4995
94.26532, 657.5823
94.74744, 659.9662
95.22955, 656.9636
95.71167, 652.2969
96.19379, 648.3785
96.67590, 647.6094
97.15802, 644.7407
97.64014, 638.2621
98.12225, 629.3951
98.60437, 619.9953
99.08649, 610.4200
99.56860, 601.5059
100.0507, 594.2518
100.5328, 587.7528
101.0150, 581.8105
101.4971, 576.7188
101.9792, 572.5223
102.4613, 568.1658
102.9434, 562.3341
103.4255, 556.4401
103.9077, 551.7355
104.3898, 548.7682
104.8719, 546.5314
105.3540, 542.9186
105.8361, 536.9604
106.3182, 531.0955
106.8004, 526.2196
107.2825, 521.6039
107.7646, 516.3041
108.2467, 509.6942
108.7288, 501.8519
109.2109, 493.9887
109.6931, 485.8308
110.1752, 477.8219
110.6573, 470.0493
111.1394, 462.5024
111.6215, 455.1127
112.1036, 447.8681
112.5858, 440.7232
113.0679, 433.8239
113.5500, 427.1083
114.0321, 420.6654
114.5142, 414.5269
114.9964, 408.6958
115.4785, 403.2355
115.9606, 398.1929
116.4427, 393.5332
116.9248, 389.6905
117.4069, 387.3190
117.8891, 385.8081
118.3712, 383.8983
118.8533, 381.3553
119.3354, 378.3069
119.8175, 374.7456
120.2996, 370.7152
120.7818, 366.8755
121.2639, 363.8711
121.7460, 361.7406
122.2281, 359.3413
122.7102, 356.0213
123.1923, 352.6681
123.6745, 349.8358
124.1566, 347.5907
124.6387, 345.5339
125.1208, 343.0827
125.6029, 340.1201
126.0850, 336.9580
126.5672, 333.3757
127.0493, 329.7742
127.5314, 326.5124
128.0135, 323.7126
128.4956, 321.2602
128.9777, 318.7701
129.4599, 316.0670
129.9420, 313.5562
130.4241, 311.3756
130.9062, 309.3854
131.3883, 307.3780
131.8705, 305.2272
132.3526, 302.9686
132.8347, 300.7717
133.3168, 298.5554
133.7989, 296.4567
134.2810, 294.5879
134.7632, 292.9102
135.2453, 291.2271
135.7274, 289.4033
136.2095, 287.4624
136.6916, 285.5307
137.1737, 283.5407
137.6559, 281.5987
138.1380, 279.8855
138.6201, 278.4778
139.1022, 276.9172
139.5843, 274.6581
140.0664, 272.0657
140.5486, 269.6900
141.0307, 267.8549
141.5128, 266.3746
141.9949, 264.6853
142.4770, 262.4773
142.9591, 260.5356
143.4413, 259.3151
143.9234, 258.5644
144.4055, 257.8083
144.8876, 256.6810
145.3697, 255.1813
145.8518, 253.8666
146.3340, 253.0267
146.8161, 252.1293
147.2982, 251.0140
147.7803, 249.6922
148.2624, 248.2471
148.7445, 246.7141
149.2267, 245.0110
149.7088, 243.6431
150.1909, 242.5753
150.6730, 241.7754
151.1551, 241.3603
151.6372, 241.2827
152.1194, 241.2463
152.6015, 240.8597
153.0836, 239.8949
153.5657, 239.2017
154.0478, 239.1891
154.5299, 239.2533
155.0121, 238.6584
155.4942, 237.1807
155.9763, 235.4689
156.4584, 234.5903
156.9405, 234.5895
157.4227, 234.5437
157.9048, 234.2624
158.3869, 233.7612
158.8690, 233.0022
159.3511, 231.8048
159.8332, 230.6173
160.3154, 229.9675
160.7975, 229.8501
161.2796, 229.9274
161.7617, 230.1928
162.2438, 230.6029
162.7259, 230.5429
163.2081, 229.4180
163.6902, 228.1194
164.1723, 227.3089
164.6544, 227.0443
165.1365, 227.0283
165.6186, 226.9976
166.1008, 226.9810
166.5829, 226.8196
167.0650, 226.2613
167.5471, 225.7003
168.0292, 225.4534
168.5113, 225.5834
168.9935, 225.8215
169.4756, 225.6668
169.9577, 224.7063
170.4398, 224.1600
170.9219, 224.4802
171.4040, 224.9870
171.8862, 225.0842
172.3683, 224.5573
172.8504, 223.6666
173.3325, 223.0222
173.8146, 222.7918
174.2967, 222.6525
174.7789, 222.8210
175.2610, 223.0027
175.7431, 222.8162
176.2252, 222.0760
176.7073, 220.9524
177.1894, 220.0025
177.6716, 218.9782
178.1537, 218.3844
178.6358, 218.6111
179.1179, 219.3235
179.6000, 219.9097
180.0821, 220.0942
180.5643, 219.9097
181.0464, 219.4632
181.5285, 218.4957
182.0106, 217.6777
182.4927, 217.4279
182.9749, 217.6398
183.4570, 217.8550
183.9391, 217.9405
184.4212, 217.8129
184.9033, 217.3672
185.3854, 216.4341
185.8676, 215.4591
186.3497, 214.8038
186.8318, 214.4746
187.3139, 214.2467
187.7960, 214.1066
188.2781, 213.9788
188.7603, 213.7528
189.2424, 213.3549
189.7245, 212.9693
190.2066, 212.8868
190.6887, 213.2124
191.1708, 213.4561
191.6530, 213.4325
192.1351, 213.2576
192.6172, 213.0011
193.0993, 212.6803
193.5814, 212.3196
194.0635, 211.9527
194.5457, 211.5173
195.0278, 211.2136
195.5099, 211.1554
195.9920, 211.1921
196.4741, 211.1826
196.9562, 211.0638
197.4384, 210.8642
197.9205, 210.6601
198.4026, 210.4204
198.8847, 210.2245
199.3668, 210.1479
199.8489, 210.0957
200.3311, 209.9626
200.8132, 209.6946
201.2953, 209.3143
201.7774, 208.9134
202.2595, 208.4777
202.7416, 208.0341
203.2238, 207.6125
203.7059, 207.1770
204.1880, 206.6375
204.6701, 205.9341
205.1522, 205.1433
205.6344, 204.6241
206.1165, 204.4502
206.5986, 204.4182
207.0807, 204.6899
207.5628, 205.0649
208.0449, 205.1404
208.5271, 204.6660
209.0092, 203.7966
209.4913, 203.1762
209.9734, 202.8651
210.4555, 202.6642
210.9376, 202.6783
211.4198, 202.7779
211.9019, 202.5707
212.3840, 201.7946
212.8661, 200.6309
213.3482, 199.6043
213.8303, 198.6523
214.3125, 197.9151
214.7946, 197.6041
215.2767, 197.6418
215.7588, 197.6220
216.2409, 197.3856
216.7230, 196.9561
217.2052, 196.3876
217.6873, 195.5736
218.1694, 194.8574
218.6515, 194.5859
219.1336, 194.7397
219.6157, 194.8329
220.0979, 194.6891
220.5800, 194.3781
221.0621, 193.9297
221.5442, 193.2964
222.0263, 192.7323
222.5084, 192.5977
222.9906, 192.9514
223.4727, 193.0767
223.9548, 192.5120
224.4369, 191.7660
224.9190, 191.1447
225.4011, 190.6949
225.8833, 190.4650
226.3654, 190.5744
226.8475, 191.1017
227.3296, 191.5847
227.8117, 191.9285
228.2938, 192.1950
228.7760, 192.4839
229.2581, 192.8007
229.7402, 192.9345
230.2223, 192.4548
230.7044, 190.9891
231.1866, 190.1143
231.6687, 190.6307
232.1508, 191.2989
232.6329, 191.3109
233.1150, 190.5397
233.5971, 189.4715
234.0793, 188.8007
234.5614, 188.7502
235.0435, 188.5551
235.5256, 187.8786
236.0077, 187.3008
236.4898, 187.3385
236.9720, 188.0007
237.4541, 188.7649
237.9362, 188.8697
238.4183, 187.8763
238.9004, 187.2887
239.3825, 187.5531
239.8647, 187.8188
240.3468, 187.3795
240.8289, 186.2271
241.3110, 185.0353
241.7931, 184.6981
242.2752, 185.7608
242.7574, 186.0825
243.2395, 185.0417
243.7216, 183.8407
244.2037, 183.3397
244.6858, 183.5857
245.1679, 183.9399
245.6501, 183.6620
246.1322, 182.5087
246.6143, 181.6916
247.0964, 181.5103
247.5785, 181.3996
248.0606, 180.9179
248.5428, 180.0663
249.0249, 179.2270
249.5070, 178.8163
249.9891, 178.9337
250.4712, 178.6804
250.9533, 177.7226
251.4355, 176.6785
251.9176, 176.0283
252.3997, 175.7605
252.8818, 175.4308
253.3639, 174.5818
253.8460, 173.2206
254.3282, 172.4174
254.8103, 172.4935
255.2924, 172.8544
255.7745, 173.2388
256.2566, 173.5996
256.7387, 173.7488
257.2209, 173.5306
257.7030, 172.9498
258.1851, 172.2878
258.6672, 171.2933
259.1493, 170.4218
259.6314, 170.0766
260.1136, 170.2093
260.5957, 170.3568
261.0778, 170.2262
261.5599, 169.9163
262.0420, 169.7676
262.5241, 169.9553
263.0063, 170.0993
263.4884, 169.8669
263.9705, 168.5385
264.4526, 169.3658
264.9347, 169.7721
265.4168, 169.7798
265.8990, 168.1955
266.3811, 168.6670
266.8632, 168.3146
267.3453, 167.9285
267.8275, 168.6893
268.3096, 167.3366
268.7917, 168.0792
269.2738, 167.9854
269.7559, 168.2744
270.2380, 167.7345
270.7202, 167.4506
271.2023, 167.9959
271.6844, 168.0820
272.1665, 167.4467
272.6486, 167.7601
273.1307, 166.3784
273.6129, 166.4841
274.0950, 167.2316
274.5771, 166.6379
275.0592, 166.9664
275.5413, 166.9437
276.0234, 165.3249
276.5056, 166.0962
276.9877, 166.2669
277.4698, 166.1791
277.9519, 165.8697
278.4340, 165.5282
278.9161, 165.2661
279.3983, 165.0656
279.8804, 164.8192
280.3625, 164.4219
280.8446, 164.1464
281.3267, 164.2582
281.8088, 164.6060
282.2910, 164.8318
282.7731, 164.6719
283.2552, 164.2443
283.7373, 163.9376
284.2194, 163.7806
284.7015, 163.6984
285.1837, 163.7359
285.6658, 163.7990
286.1479, 163.7402
286.6300, 163.4755
287.1121, 163.0658
287.5942, 162.6133
288.0764, 162.0397
288.5585, 161.6167
289.0406, 161.6415
289.5227, 161.7761
290.0048, 161.6002
290.4869, 160.8981
290.9691, 159.4919
291.4512, 160.2517
291.9333, 160.5903
292.4154, 160.5305
292.8975, 158.8786
293.3796, 159.2825
293.8618, 158.8625
294.3439, 158.4088
294.8260, 159.1020
295.3081, 157.6817
295.7902, 158.3568
296.2723, 158.1954
296.7545, 157.6987
297.2366, 157.7308
297.7187, 157.6256
298.2008, 157.3487
298.6829, 157.0337
299.1650, 156.8181
299.6472, 156.7097
300.1293, 156.6127
300.6114, 156.5595
301.0935, 156.4811
301.5756, 156.3518
302.0577, 156.1707
302.5399, 155.9417
303.0220, 155.6493
303.5041, 155.2991
303.9862, 154.9997
304.4683, 154.7959
304.9504, 154.5964
305.4326, 154.3502
305.9147, 154.0871
306.3968, 153.8580
306.8789, 153.6855
307.3610, 153.5764
307.8431, 153.5708
308.3253, 153.7366
308.8074, 153.9075
309.2895, 154.0821
309.7716, 154.2205
310.2537, 154.2648
310.7358, 154.1840
311.2180, 154.0234
311.7001, 153.8932
312.1822, 153.8427
312.6643, 153.7024
313.1464, 153.4031
313.6285, 153.0330
314.1107, 152.6071
314.5928, 152.1387
315.0749, 151.7472
315.5570, 151.6491
316.0392, 151.9487
316.5213, 152.1584
317.0034, 152.2540
317.4855, 152.2289
317.9676, 151.9482
318.4497, 151.4704
318.9319, 151.1053
319.4140, 151.2784
319.8961, 152.0793
320.3782, 152.5304
320.8603, 152.3511
321.3424, 152.0547
321.8246, 151.7059
322.3067, 151.3903
322.7888, 151.2817
323.2709, 151.6055
323.7530, 152.2629
324.2351, 152.4858
324.7173, 151.9516
325.1994, 151.4110
325.6815, 151.1162
326.1636, 150.9551
326.6457, 150.7171
327.1278, 150.2571
327.6100, 149.7771
328.0921, 149.8527
328.5742, 150.8774
329.0563, 151.6020
329.5384, 151.6576
330.0205, 151.3723
330.5027, 150.9492
330.9848, 150.4482
331.4669, 149.9751
331.9490, 149.7250
332.4311, 149.7826
332.9132, 149.6906
333.3954, 149.1276
333.8775, 148.5842
334.3596, 148.4184
334.8417, 148.6036
335.3238, 148.7642
335.8059, 148.3734
336.2881, 147.4137
336.7702, 147.1085
337.2523, 148.0300
337.7344, 149.0301
338.2165, 149.6743
338.6986, 149.9882
339.1808, 150.0800
339.6629, 149.9431
340.1450, 149.6512
340.6271, 149.4780
341.1092, 149.4452
341.5913, 149.4970
342.0735, 149.7040
342.5556, 149.9405
343.0377, 150.0298
343.5198, 149.8761
344.0019, 149.6415
344.4840, 149.6275
344.9662, 149.9126
345.4483, 150.0733
345.9304, 149.8813
346.4125, 149.5701
346.8946, 149.2449
347.3767, 148.9235
347.8589, 148.7087
348.3410, 148.8050
348.8231, 149.1992
349.3052, 149.3186
349.7873, 148.8352
350.2694, 148.3379
350.7516, 148.2764
351.2337, 148.5683
351.7158, 148.8429
352.1979, 148.8498
352.6800, 148.6667
353.1621, 148.5523
353.6443, 148.5337
354.1264, 148.5311
354.6085, 148.4297
355.0906, 148.3235
355.5727, 148.3877
356.0548, 148.7615
356.5370, 149.2335
357.0191, 149.5313
357.5012, 149.6460
357.9833, 149.6780
358.4654, 149.6234
358.9475, 149.5290
359.4297, 149.4741
359.9118, 149.4901
360.3939, 149.4292
360.8760, 149.1030
361.3581, 148.5766
361.8402, 148.1875
362.3224, 148.0573
362.8045, 148.0213
363.2866, 147.8818
363.7687, 147.6535
364.2508, 147.5056
364.7329, 147.5408
365.2151, 147.6861
365.6972, 147.8054
366.1793, 147.8750
366.6614, 148.0034
367.1436, 148.3648
367.6257, 148.8542
368.1078, 149.1450
368.5899, 149.1772
369.0720, 149.0131
369.5541, 148.5020
370.0363, 147.7344
370.5184, 147.3566
371.0005, 147.7808
371.4826, 148.6928
371.9647, 149.3973
372.4468, 149.9289
372.9290, 150.2076
373.4111, 149.9911
373.8932, 149.5366
374.3753, 149.3130
374.8574, 149.4463
375.3395, 149.7994
375.8217, 150.2397
376.3038, 150.7786
376.7859, 151.2882
377.2680, 151.9575
377.7501, 152.4546
378.2322, 152.3093
378.7144, 151.5889
379.1965, 150.9989
379.6786, 151.1046
380.1607, 151.8357
380.6428, 152.3113
381.1249, 152.2514
381.6071, 152.2798
382.0892, 152.7365
382.5713, 153.4246
383.0534, 153.9534
383.5355, 154.1518
384.0176, 154.1509
384.4998, 154.2285
384.9819, 154.3579
385.4640, 154.6307
385.9461, 155.1197
386.4282, 155.7098
386.9103, 156.3363
387.3925, 156.9697
387.8746, 157.5745
388.3567, 158.1127
388.8388, 158.5923
389.3209, 158.9349
389.8030, 159.0373
390.2852, 159.1339
390.7673, 159.3019
391.2494, 159.5335
391.7315, 159.8008
392.2136, 160.0883
392.6957, 160.3928
393.1779, 160.7034
393.6600, 161.1055
394.1421, 161.3815
394.6242, 161.3414
395.1063, 161.2731
395.5884, 161.4822
396.0706, 162.0236
396.5527, 162.6527
397.0348, 163.0513
397.5169, 163.1702
397.9990, 163.2431
398.4811, 163.1501
398.9633, 163.1192
399.4454, 163.2292
399.9275, 163.4785
400.4096, 163.8415
400.8917, 164.3048
401.3738, 164.8653
401.8560, 165.5330
402.3381, 166.4151
402.8202, 167.1966
403.3023, 167.6444
403.7844, 168.0261
404.2665, 168.6401
404.7487, 169.5838
405.2308, 170.6563
405.7129, 171.5794
406.1950, 172.3439
406.6771, 173.2558
407.1592, 174.4722
407.6414, 175.7451
408.1235, 176.7815
408.6056, 177.6572
409.0877, 178.7938
409.5698, 180.6170
410.0519, 182.8380
410.5341, 184.7575
411.0162, 186.2738
411.4983, 187.7873
411.9804, 189.5186
412.4625, 191.4095
412.9446, 193.3716
413.4268, 195.4425
413.9089, 197.4917
414.3910, 199.2868
414.8731, 200.9177
415.3553, 202.8532
415.8374, 205.3203
416.3195, 208.0251
416.8016, 210.5786
417.2837, 212.9942
417.7658, 215.2808
418.2480, 217.3707
418.7301, 219.3680
419.2122, 221.3225
419.6943, 223.2559
420.1764, 225.4329
420.6585, 228.1753
421.1407, 231.3911
421.6228, 233.9731
422.1049, 235.3600
422.5870, 236.8214
423.0691, 238.9589
423.5512, 241.4978
424.0334, 243.9746
424.5155, 246.1971
424.9976, 248.2143
425.4797, 250.0929
425.9618, 251.7914
426.4439, 253.4098
426.9261, 254.8515
427.4082, 256.2997
427.8903, 257.9893
428.3724, 259.8566
428.8545, 261.5661
429.3366, 262.8346
429.8188, 263.6888
430.3009, 264.5328
430.7830, 265.4648
431.2651, 266.2797
431.7472, 266.7985
432.2293, 267.2386
432.7115, 267.9478
433.1936, 269.0389
433.6757, 270.1307
434.1578, 270.5412
434.6399, 270.0733
435.1220, 269.6112
435.6042, 269.0296
436.0863, 268.6247
436.5684, 268.7325
437.0505, 269.1843
437.5326, 269.4579
438.0147, 269.2610
438.4969, 268.5920
438.9790, 267.3292
439.4611, 265.1742
439.9432, 263.1839
440.4253, 261.9876
440.9074, 261.0860
441.3896, 259.9859
441.8717, 258.5721
442.3538, 257.0221
442.8359, 255.5411
443.3180, 254.0804
443.8001, 252.3987
444.2823, 250.3854
444.7644, 248.2431
445.2465, 246.0826
445.7286, 243.9165
446.2107, 241.9366
446.6928, 240.2952
447.1750, 238.7917
447.6571, 237.3100
448.1392, 235.8282
448.6213, 234.1774
449.1034, 232.2595
449.5855, 230.1297
450.0677, 227.9130
450.5498, 225.5093
451.0319, 223.2430
451.5140, 221.2749
451.9961, 219.4568
452.4782, 217.7154
452.9604, 216.0035
453.4425, 214.0761
453.9246, 211.6092
454.4067, 208.5058
454.8888, 205.9194
455.3709, 204.0717
455.8531, 202.4129
456.3352, 200.8547
456.8173, 199.3317
457.2994, 197.7465
457.7815, 196.0596
458.2636, 194.3159
458.7458, 192.5809
459.2279, 190.7578
459.7100, 189.1553
460.1921, 187.8000
460.6742, 186.6182
461.1563, 185.7260
461.6385, 185.0011
462.1206, 184.0922
462.6027, 182.6861
463.0848, 180.8780
463.5669, 179.1248
464.0491, 177.3235
464.5312, 175.8160
465.0133, 175.0280
465.4954, 174.4176
465.9775, 173.3622
466.4597, 171.6829
466.9418, 169.9743
467.4239, 168.8358
467.9060, 168.1855
468.3881, 167.4499
468.8702, 166.5088
469.3524, 165.5397
469.8345, 164.7486
470.3166, 164.0614
470.7987, 163.2597
471.2808, 162.1268
471.7629, 160.9861
472.2451, 160.1604
472.7272, 159.6033
473.2093, 159.0741
473.6914, 158.4764
474.1735, 157.8512
474.6556, 157.2903
475.1378, 156.8424
475.6199, 156.2890
476.1020, 155.4269
476.5841, 154.5596
477.0662, 153.9853
477.5483, 153.6992
478.0305, 153.4875
478.5126, 153.2178
478.9947, 152.8690
479.4768, 152.2729
479.9589, 151.0384
480.4410, 150.0222
480.9232, 149.4600
481.4053, 149.1011
481.8874, 148.7183
482.3695, 148.2422
482.8516, 147.7052
483.3337, 147.1236
483.8159, 146.4802
484.2980, 145.9406
484.7801, 145.5513
485.2622, 145.2230
485.7443, 144.9850
486.2264, 144.7733
486.7086, 144.4829
487.1907, 144.0584
487.6728, 143.5802
488.1549, 143.1758
488.6370, 142.8537
489.1191, 142.4657
489.6013, 141.9679
490.0834, 141.4006
490.5655, 140.7974
491.0476, 140.1606
491.5297, 139.5104
492.0118, 138.7363
492.4940, 138.0191
492.9761, 137.6572
493.4582, 137.6366
493.9403, 137.6157
494.4224, 137.4070
494.9045, 137.0994
495.3867, 136.9629
495.8688, 137.1783
496.3509, 137.0985
496.8330, 136.2119
497.3151, 135.1614
497.7972, 134.7030
498.2794, 134.8761
498.7615, 135.1641
499.2436, 135.1350
499.7257, 134.8049
500.2078, 134.4701
500.6899, 134.1461
501.1721, 133.7966
501.6542, 133.3561
502.1363, 132.9171
502.6184, 132.5807
503.1005, 132.3712
503.5826, 132.2318
504.0648, 132.0796
504.5469, 131.9017
505.0290, 131.8637
505.5111, 132.1894
505.9932, 132.3727
506.4753, 132.1503
506.9575, 131.6851
507.4396, 131.2301
507.9217, 130.8744
508.4038, 130.5693
508.8859, 130.2643
509.3680, 129.9588
509.8502, 129.6580
510.3323, 129.3564
510.8144, 129.0676
511.2965, 128.7929
511.7786, 128.5359
512.2607, 128.3221
512.7429, 128.1938
513.2250, 128.0825
513.7071, 127.9048
514.1892, 127.6840
514.6713, 127.5533
515.1534, 127.6057
515.6356, 127.6759
516.1177, 127.4058
516.5998, 126.4854
517.0819, 125.9273
517.5640, 126.0437
518.0461, 126.2969
518.5283, 126.3229
519.0104, 126.1466
519.4925, 125.9785
519.9746, 125.9606
520.4567, 126.0453
520.9388, 126.0589
521.4210, 125.9908
521.9031, 125.8637
522.3852, 125.6625
522.8673, 125.4232
523.3494, 125.1163
523.8315, 124.7753
524.3137, 124.5401
524.7958, 124.5806
525.2779, 124.8044
525.7600, 124.8992
526.2421, 124.8622
526.7242, 124.6992
527.2064, 124.2397
527.6885, 123.7508
528.1706, 123.6632
528.6527, 124.1196
529.1348, 124.3436
529.6169, 123.5665
530.0991, 122.4345
530.5812, 122.1048
531.0633, 122.7084
531.5454, 123.4703
532.0275, 123.8584
532.5096, 123.9150
532.9918, 123.9202
533.4739, 123.8235
533.9560, 123.7492
534.4381, 123.7561
534.9202, 123.7801
535.4023, 123.7516
535.8845, 123.6583
536.3666, 123.5191
536.8487, 123.3242
537.3308, 123.0736
537.8129, 123.0797
538.2951, 123.6693
538.7772, 124.0876
539.2593, 124.1258
539.7415, 123.9365
540.2236, 123.5943
540.7057, 123.1338
541.1878, 122.8064
541.6699, 122.9118
542.1520, 123.3982
542.6342, 123.9674
543.1163, 124.7197
543.5984, 125.2559
544.0805, 125.1508
544.5626, 124.6782
545.0447, 124.3352
545.5269, 124.2323
546.0090, 124.1782
546.4911, 124.0537
546.9732, 123.9014
547.4553, 123.7969
547.9374, 123.7557
548.4196, 123.7843
548.9017, 123.9164
549.3838, 124.1582
549.8659, 124.2217
550.3480, 123.9239
550.8301, 123.6993
551.3123, 123.6997
551.7944, 123.8254
552.2765, 123.9511
552.7586, 124.0426
553.2407, 124.1543
553.7228, 124.4115
554.2050, 124.8417
554.6871, 124.8825
555.1692, 124.2158
555.6513, 123.6030
556.1334, 123.3742
556.6155, 123.3309
557.0977, 123.2132
557.5798, 122.9457
558.0619, 122.6512
558.5440, 122.4165
559.0261, 122.2438
559.5082, 122.1599
559.9904, 122.1915
560.4725, 122.2085
560.9546, 122.0810
561.4367, 121.8508
561.9188, 121.7334
562.4009, 121.8849
562.8831, 121.9563
563.3652, 121.6694
563.8473, 121.2862
564.3294, 121.2733
564.8115, 121.6836
565.2936, 122.0208
565.7758, 121.7443
566.2579, 120.8501
566.7400, 120.2804
567.2221, 120.2352
567.7042, 120.2984
568.1863, 120.4435
568.6685, 120.6404
569.1506, 120.8898
569.6327, 121.1796
570.1148, 121.4366
570.5969, 121.5903
571.0790, 121.6474
571.5612, 121.6670
572.0433, 121.6850
572.5254, 121.5534
573.0075, 121.0277
573.4896, 120.3794
573.9717, 120.0330
574.4539, 120.0998
574.9360, 120.1893
575.4181, 120.1445
575.9002, 120.0007
576.3823, 119.7301
576.8644, 119.3583
577.3466, 119.1459
577.8287, 119.3086
578.3108, 119.7579
578.7929, 120.0559
579.2750, 119.9629
579.7571, 120.0342
580.2393, 120.5837
580.7214, 121.0950
581.2035, 121.0375
581.6856, 120.4941
582.1677, 120.0442
582.6498, 120.1792
583.1320, 120.6791
583.6141, 120.7166
584.0962, 120.0988
584.5783, 119.6808
585.0604, 119.8034
585.5425, 120.1421
586.0247, 120.5204
586.5068, 120.9077
586.9889, 121.0800
587.4710, 120.7388
