##NAMES=Nosean
##RRUFFID=R050422
##IDEAL CHEMISTRY=Na_8_(Si_6_Al_6_)O_24_(S^6+^O_4_)&#183;H_2_O
##LOCALITY=Laacher See, Mendig Area, Eifel Mountains, Rhineland-Palatinate, Germany
##OWNER=RRUFF
##SOURCE=Marcus Origlieri
##DESCRIPTION=Colorless prismatic single crystals
##STATUS=The identification of this mineral is confirmed by single-crystal X-ray diffraction and chemical analysis.
##URL=rruff.info/R050422
##MEASURED CHEMISTRY=(Na_0.92_Ca_0.03_[box]_0.03_K_0.01_)_8_Al_5.99_Si_6.01_O_24_(S_1.00_O_4_)Â·H_2_O
91.00781, 27.37958
91.48993, 26.40884
91.97205, 26.02153
92.45416, 26.37117
92.93628, 27.29348
93.41840, 28.43789
93.90051, 29.74144
94.38263, 31.24799
94.86475, 33.13169
95.34686, 35.38939
95.82898, 37.72594
96.31110, 39.67103
96.79321, 41.31572
97.27533, 43.59977
97.75745, 46.76776
98.23956, 50.69536
98.72168, 54.76962
99.20380, 58.90358
99.68591, 63.32660
100.1680, 68.19261
100.6501, 73.38642
101.1323, 79.39567
101.6144, 86.46049
102.0965, 94.66110
102.5786, 102.8465
103.0607, 110.8510
103.5428, 119.0460
104.0250, 128.1982
104.5071, 138.1829
104.9892, 149.2113
105.4713, 161.4400
105.9534, 175.6360
106.4355, 189.3042
106.9177, 202.4749
107.3998, 215.1171
107.8819, 227.5865
108.3640, 239.5837
108.8461, 251.5039
109.3282, 263.6949
109.8104, 276.6974
110.2925, 289.0775
110.7746, 300.2160
111.2567, 310.2817
111.7388, 321.0753
112.2209, 332.2790
112.7031, 344.4120
113.1852, 357.9726
113.6673, 373.5664
114.1494, 389.9943
114.6315, 407.0370
115.1136, 424.8326
115.5958, 443.2275
116.0779, 462.3325
116.5600, 481.9828
117.0421, 501.9068
117.5242, 523.0555
118.0063, 543.9033
118.4885, 563.7249
118.9706, 582.2830
119.4527, 600.7366
119.9348, 620.1448
120.4169, 639.8019
120.8990, 658.7272
121.3812, 676.6093
121.8633, 693.3190
122.3454, 708.6503
122.8275, 722.8739
123.3096, 735.2733
123.7917, 744.3770
124.2739, 750.8252
124.7560, 756.9683
125.2381, 764.4521
125.7202, 772.6395
126.2023, 780.2263
126.6844, 786.5880
127.1666, 792.7679
127.6487, 800.4506
128.1308, 809.5890
128.6129, 818.7888
129.0950, 826.5743
129.5771, 833.4489
130.0593, 841.1966
130.5414, 849.9767
131.0235, 860.0318
131.5056, 871.5771
131.9877, 881.5064
132.4698, 887.9847
132.9520, 893.4553
133.4341, 898.0158
133.9162, 903.1917
134.3983, 910.0541
134.8804, 918.2094
135.3625, 924.4285
135.8447, 928.3767
136.3268, 931.4626
136.8089, 935.7460
137.2910, 941.4406
137.7731, 947.1766
138.2552, 953.0320
138.7374, 959.3336
139.2195, 962.6196
139.7016, 961.9797
140.1837, 959.2594
140.6658, 958.4553
141.1479, 960.3623
141.6301, 962.2032
142.1122, 962.5342
142.5943, 960.5089
143.0764, 959.2236
143.5585, 958.8807
144.0406, 959.2691
144.5228, 959.7068
145.0049, 960.2255
145.4870, 960.7399
145.9691, 961.2181
146.4512, 961.8160
146.9333, 962.1639
147.4155, 962.2405
147.8976, 962.0673
148.3797, 961.7012
148.8618, 960.0897
149.3439, 959.0368
149.8260, 959.6902
150.3082, 964.5212
150.7903, 968.2959
151.2724, 970.1963
151.7545, 970.1489
152.2366, 970.4930
152.7188, 971.3769
153.2009, 972.6121
153.6830, 974.0363
154.1651, 976.4951
154.6472, 978.2712
155.1293, 978.6950
155.6115, 977.5787
156.0936, 976.6257
156.5757, 976.0283
157.0578, 975.7731
157.5399, 975.8596
158.0220, 976.8445
158.5042, 977.7338
158.9863, 978.1201
159.4684, 977.8987
159.9505, 977.6752
160.4326, 977.6184
160.9147, 977.7018
161.3969, 977.8765
161.8790, 977.6751
162.3611, 977.8934
162.8432, 979.1970
163.3253, 982.1140
163.8074, 984.6641
164.2896, 985.7285
164.7717, 985.7640
165.2538, 985.6914
165.7359, 985.4244
166.2180, 985.4550
166.7001, 986.3392
167.1823, 988.6534
167.6644, 990.6774
168.1465, 990.8478
168.6286, 989.7567
169.1107, 989.0827
169.5928, 990.5955
170.0750, 992.6418
170.5571, 993.3484
171.0392, 991.5032
171.5213, 989.5499
172.0034, 989.8171
172.4855, 991.9022
172.9677, 993.9834
173.4498, 994.7977
173.9319, 994.9367
174.4140, 995.2333
174.8961, 995.9571
175.3782, 996.8705
175.8604, 997.8760
176.3425, 998.9396
176.8246, 999.7473
177.3067, 999.9542
177.7888, 999.7472
178.2709, 999.4960
178.7531, 999.2496
179.2352, 999.0554
179.7173, 998.9490
180.1994, 998.9304
180.6815, 999.0724
181.1636, 999.5549
181.6458, 1000.272
182.1279, 1000.872
182.6100, 1001.013
183.0921, 1001.067
183.5742, 1001.886
184.0563, 1003.479
184.5385, 1005.359
185.0206, 1007.331
185.5027, 1009.281
185.9848, 1010.551
186.4669, 1010.657
186.9490, 1009.942
187.4312, 1009.357
187.9133, 1008.900
188.3954, 1008.633
188.8775, 1008.699
189.3596, 1009.070
189.8417, 1009.520
190.3239, 1009.897
190.8060, 1010.269
191.2881, 1011.004
191.7702, 1012.148
192.2523, 1013.476
192.7344, 1015.051
193.2166, 1016.871
193.6987, 1017.817
194.1808, 1016.916
194.6629, 1014.405
195.1450, 1013.095
195.6271, 1013.173
196.1093, 1013.970
196.5914, 1014.519
197.0735, 1014.783
197.5556, 1015.204
198.0377, 1016.251
198.5198, 1017.938
199.0020, 1018.419
199.4841, 1017.297
199.9662, 1015.648
200.4483, 1015.356
200.9304, 1016.640
201.4125, 1017.905
201.8947, 1018.301
202.3768, 1017.720
202.8589, 1017.764
203.3410, 1018.738
203.8231, 1019.963
204.3052, 1019.989
204.7874, 1018.525
205.2695, 1017.139
205.7516, 1016.719
206.2337, 1017.508
206.7158, 1017.547
207.1979, 1016.531
207.6801, 1015.043
208.1622, 1014.423
208.6443, 1014.996
209.1264, 1015.432
209.6085, 1014.934
210.0906, 1013.133
210.5728, 1012.108
211.0549, 1011.999
211.5370, 1012.610
212.0191, 1013.642
212.5012, 1015.378
212.9833, 1016.879
213.4655, 1017.663
213.9476, 1017.592
214.4297, 1017.341
214.9118, 1016.812
215.3939, 1016.177
215.8760, 1015.770
216.3581, 1015.436
216.8403, 1015.651
217.3224, 1016.836
217.8045, 1019.558
218.2866, 1021.493
218.7687, 1022.511
219.2508, 1022.710
219.7330, 1022.123
220.2151, 1020.023
220.6972, 1018.416
221.1793, 1018.443
221.6614, 1020.902
222.1435, 1022.719
222.6257, 1023.476
223.1078, 1023.662
223.5899, 1024.845
224.0720, 1028.005
224.5541, 1030.614
225.0362, 1031.375
225.5184, 1029.296
226.0005, 1027.889
226.4826, 1027.510
226.9647, 1027.792
227.4468, 1027.618
227.9289, 1026.601
228.4111, 1025.777
228.8932, 1025.684
229.3753, 1026.725
229.8574, 1027.606
230.3395, 1028.359
230.8216, 1028.933
231.3038, 1029.107
231.7859, 1028.495
232.2680, 1028.038
232.7501, 1028.260
233.2322, 1029.773
233.7143, 1030.489
234.1965, 1029.858
234.6786, 1028.525
235.1607, 1028.312
235.6428, 1029.643
236.1249, 1031.444
236.6070, 1033.296
237.0892, 1035.331
237.5713, 1037.113
238.0534, 1038.797
238.5355, 1040.174
239.0176, 1040.627
239.4997, 1039.564
239.9819, 1038.425
240.4640, 1037.863
240.9461, 1038.207
241.4282, 1038.357
241.9103, 1038.337
242.3924, 1038.125
242.8746, 1037.562
243.3567, 1036.082
243.8388, 1035.140
244.3209, 1035.552
244.8030, 1038.309
245.2851, 1039.769
245.7673, 1039.465
246.2494, 1038.077
246.7315, 1036.996
247.2136, 1036.156
247.6957, 1035.745
248.1778, 1035.968
248.6600, 1037.229
249.1421, 1037.852
249.6242, 1037.435
250.1063, 1036.593
250.5884, 1036.607
251.0705, 1038.052
251.5527, 1039.347
252.0348, 1039.768
252.5169, 1038.872
252.9990, 1038.758
253.4811, 1039.806
253.9632, 1041.375
254.4454, 1042.252
254.9275, 1042.006
255.4096, 1041.905
255.8917, 1042.582
256.3738, 1044.445
256.8560, 1045.064
257.3381, 1043.861
257.8202, 1041.908
258.3023, 1040.753
258.7844, 1040.468
259.2665, 1040.882
259.7487, 1042.222
260.2308, 1044.743
260.7129, 1046.310
261.1950, 1046.656
261.6771, 1046.337
262.1592, 1045.969
262.6414, 1045.335
263.1235, 1045.233
263.6056, 1046.083
264.0877, 1047.994
264.5698, 1049.273
265.0519, 1049.677
265.5341, 1049.784
266.0162, 1050.319
266.4983, 1051.448
266.9804, 1052.482
267.4625, 1053.219
267.9446, 1053.660
268.4268, 1054.385
268.9089, 1055.706
269.3910, 1056.743
269.8731, 1056.269
270.3552, 1053.720
270.8373, 1051.940
271.3195, 1051.612
271.8016, 1052.633
272.2837, 1054.085
272.7658, 1056.238
273.2479, 1058.238
273.7300, 1059.166
274.2122, 1058.813
274.6943, 1058.738
275.1764, 1059.395
275.6585, 1060.585
276.1406, 1061.194
276.6227, 1061.130
277.1049, 1060.829
277.5870, 1060.444
278.0691, 1059.912
278.5512, 1060.186
279.0333, 1061.753
279.5154, 1064.060
279.9976, 1064.980
280.4797, 1064.218
280.9618, 1063.588
281.4439, 1064.726
281.9260, 1067.648
282.4081, 1069.681
282.8903, 1070.288
283.3724, 1070.022
283.8545, 1070.203
284.3366, 1070.867
284.8187, 1071.570
285.3008, 1071.988
285.7830, 1072.155
286.2651, 1072.407
286.7472, 1072.801
287.2293, 1073.247
287.7114, 1073.521
288.1935, 1073.622
288.6757, 1073.832
289.1578, 1074.357
289.6399, 1075.139
290.1220, 1075.861
290.6041, 1076.485
291.0862, 1077.109
291.5684, 1077.945
292.0505, 1078.961
292.5326, 1079.846
293.0147, 1080.608
293.4968, 1081.132
293.9789, 1080.909
294.4611, 1079.829
294.9432, 1078.660
295.4253, 1078.307
295.9074, 1078.657
296.3895, 1079.189
296.8716, 1079.978
297.3538, 1080.748
297.8359, 1080.616
298.3180, 1079.524
298.8001, 1078.791
299.2822, 1080.255
299.7643, 1083.111
300.2465, 1085.211
300.7286, 1085.308
301.2107, 1084.572
301.6928, 1084.570
302.1749, 1085.271
302.6570, 1086.148
303.1392, 1086.826
303.6213, 1087.392
304.1034, 1088.027
304.5855, 1089.078
305.0676, 1089.882
305.5497, 1089.380
306.0319, 1087.849
306.5140, 1086.709
306.9961, 1087.042
307.4782, 1088.233
307.9603, 1089.631
308.4424, 1091.230
308.9246, 1092.685
309.4067, 1093.747
309.8888, 1094.436
310.3709, 1094.839
310.8530, 1094.419
311.3351, 1094.040
311.8173, 1094.550
312.2994, 1096.340
312.7815, 1098.241
313.2636, 1099.777
313.7457, 1100.921
314.2278, 1101.624
314.7100, 1101.400
315.1921, 1101.074
315.6742, 1101.300
316.1563, 1102.296
316.6384, 1102.933
317.1205, 1102.328
317.6027, 1101.195
318.0848, 1100.442
318.5669, 1100.500
319.0490, 1100.853
319.5311, 1101.360
320.0132, 1102.011
320.4954, 1102.655
320.9775, 1103.638
321.4596, 1104.394
321.9417, 1104.422
322.4238, 1101.820
322.9059, 1100.339
323.3881, 1101.695
323.8702, 1105.562
324.3523, 1108.053
324.8344, 1107.423
325.3165, 1106.051
325.7986, 1105.339
326.2808, 1105.615
326.7629, 1106.322
327.2450, 1107.977
327.7271, 1110.192
328.2092, 1111.411
328.6913, 1110.407
329.1735, 1109.482
329.6556, 1109.571
330.1377, 1111.372
330.6198, 1112.855
331.1019, 1113.986
331.5840, 1114.786
332.0662, 1115.272
332.5483, 1115.085
333.0304, 1115.066
333.5125, 1115.493
333.9946, 1116.438
334.4767, 1117.447
334.9589, 1118.678
335.4410, 1119.796
335.9231, 1120.207
336.4052, 1119.402
336.8873, 1119.306
337.3694, 1120.849
337.8516, 1123.858
338.3336, 1124.895
338.8158, 1123.302
339.2979, 1121.183
339.7800, 1120.550
340.2621, 1121.671
340.7442, 1122.502
341.2263, 1122.478
341.7085, 1122.039
342.1906, 1122.860
342.6727, 1125.154
343.1548, 1127.435
343.6369, 1128.648
344.1190, 1128.835
344.6012, 1128.881
345.0833, 1128.765
345.5654, 1128.724
346.0475, 1129.185
346.5296, 1130.121
347.0117, 1131.345
347.4939, 1133.012
347.9760, 1134.885
348.4581, 1136.169
348.9402, 1136.753
349.4223, 1137.116
349.9044, 1137.727
350.3866, 1138.564
350.8687, 1139.555
351.3508, 1140.697
351.8329, 1141.978
352.3150, 1143.677
352.7971, 1145.771
353.2793, 1147.270
353.7614, 1146.591
354.2435, 1144.984
354.7256, 1144.542
355.2077, 1146.498
355.6898, 1149.027
356.1720, 1150.689
356.6541, 1151.590
357.1362, 1152.204
357.6183, 1152.996
358.1004, 1153.530
358.5826, 1153.262
359.0647, 1151.702
359.5468, 1150.336
360.0289, 1149.807
360.5110, 1150.041
360.9931, 1150.903
361.4753, 1153.512
361.9574, 1155.793
362.4395, 1156.501
362.9216, 1155.293
363.4037, 1154.042
363.8858, 1152.819
364.3680, 1152.034
364.8501, 1152.122
365.3322, 1154.468
365.8143, 1156.396
366.2964, 1156.965
366.7785, 1156.215
367.2607, 1156.036
367.7428, 1157.211
368.2249, 1158.629
368.7070, 1159.623
369.1891, 1159.875
369.6712, 1160.093
370.1534, 1159.972
370.6355, 1159.807
371.1176, 1160.589
371.5997, 1163.011
372.0818, 1165.435
372.5639, 1167.146
373.0461, 1167.794
373.5282, 1168.856
374.0103, 1170.606
374.4924, 1172.494
374.9745, 1173.656
375.4566, 1173.968
375.9388, 1173.946
376.4209, 1173.534
376.9030, 1172.810
377.3851, 1173.032
377.8672, 1174.423
378.3493, 1176.151
378.8315, 1177.463
379.3136, 1178.388
379.7957, 1179.125
380.2778, 1179.567
380.7599, 1180.030
381.2420, 1181.635
381.7242, 1184.355
382.2063, 1186.686
382.6884, 1187.001
383.1705, 1186.002
383.6526, 1186.174
384.1347, 1187.823
384.6169, 1190.248
385.0990, 1192.826
385.5811, 1195.475
386.0632, 1197.852
386.5453, 1199.719
387.0274, 1201.258
387.5096, 1202.658
387.9917, 1203.923
388.4738, 1205.085
388.9559, 1206.062
389.4380, 1206.976
389.9201, 1208.024
390.4023, 1209.587
390.8844, 1210.953
391.3665, 1211.302
391.8486, 1210.964
392.3307, 1211.127
392.8128, 1212.732
393.2950, 1214.773
393.7771, 1216.657
394.2592, 1218.385
394.7413, 1219.626
395.2234, 1219.878
395.7055, 1219.619
396.1877, 1219.593
396.6698, 1219.605
397.1519, 1220.208
397.6340, 1221.776
398.1161, 1224.450
398.5982, 1226.912
399.0804, 1229.334
399.5625, 1231.387
400.0446, 1232.808
400.5267, 1233.013
401.0088, 1233.497
401.4909, 1234.313
401.9731, 1235.520
402.4552, 1237.352
402.9373, 1240.055
403.4194, 1243.003
403.9015, 1245.814
404.3836, 1248.277
404.8658, 1251.540
405.3479, 1255.874
405.8300, 1260.563
406.3121, 1264.496
406.7942, 1267.532
407.2763, 1270.649
407.7585, 1274.036
408.2406, 1277.740
408.7227, 1282.034
409.2048, 1286.908
409.6869, 1292.147
410.1690, 1297.991
410.6512, 1304.134
411.1333, 1309.157
411.6154, 1312.345
412.0975, 1315.148
412.5796, 1320.273
413.0617, 1327.250
413.5439, 1333.792
414.0260, 1337.816
414.5081, 1340.999
414.9902, 1345.888
415.4723, 1352.839
415.9544, 1360.005
416.4366, 1365.763
416.9187, 1370.756
417.4008, 1375.916
417.8829, 1381.740
418.3650, 1387.752
418.8471, 1393.862
419.3293, 1399.980
419.8114, 1405.956
420.2935, 1412.000
420.7756, 1417.667
421.2577, 1422.351
421.7398, 1425.083
422.2220, 1428.718
422.7041, 1434.620
423.1862, 1441.745
423.6683, 1448.225
424.1504, 1453.627
424.6325, 1458.672
425.1147, 1463.364
425.5968, 1467.697
426.0789, 1472.352
426.5610, 1477.552
427.0431, 1482.879
427.5252, 1487.948
428.0074, 1492.695
428.4895, 1497.343
428.9716, 1501.976
429.4537, 1506.423
429.9358, 1510.048
430.4179, 1512.726
430.9001, 1514.955
431.3822, 1516.780
431.8643, 1518.188
432.3464, 1520.155
432.8285, 1522.910
433.3106, 1525.499
433.7928, 1526.541
434.2749, 1526.193
434.7570, 1525.728
435.2391, 1525.445
435.7212, 1525.368
436.2033, 1525.954
436.6855, 1527.079
437.1676, 1527.462
437.6497, 1525.430
438.1318, 1522.306
438.6139, 1520.228
439.0960, 1519.768
439.5782, 1519.531
440.0603, 1518.694
440.5424, 1517.228
441.0245, 1515.106
441.5066, 1511.733
441.9887, 1508.157
442.4709, 1505.121
442.9530, 1502.607
443.4351, 1499.686
443.9172, 1495.719
444.3993, 1491.372
444.8814, 1487.173
445.3636, 1483.110
445.8457, 1479.259
446.3278, 1475.825
446.8099, 1472.627
447.2920, 1469.122
447.7741, 1465.152
448.2563, 1461.034
448.7384, 1456.955
449.2205, 1452.909
449.7026, 1448.710
450.1847, 1444.327
450.6668, 1439.929
451.1490, 1435.803
451.6311, 1432.158
452.1132, 1427.894
452.5953, 1422.527
453.0774, 1416.666
453.5595, 1411.359
454.0417, 1406.493
454.5238, 1403.068
455.0059, 1402.997
455.4880, 1405.219
455.9701, 1403.392
456.4522, 1396.796
456.9344, 1389.704
457.4165, 1387.427
457.8986, 1388.409
458.3807, 1388.401
458.8628, 1385.958
459.3449, 1382.012
459.8271, 1376.731
460.3092, 1370.557
460.7913, 1365.285
461.2734, 1362.501
461.7555, 1360.770
462.2376, 1358.885
462.7198, 1356.656
463.2019, 1354.472
463.6840, 1352.172
464.1661, 1350.140
464.6482, 1348.841
465.1303, 1350.518
465.6125, 1350.698
466.0946, 1347.160
466.5767, 1340.381
467.0588, 1335.234
467.5409, 1332.852
468.0230, 1331.486
468.5052, 1330.514
468.9873, 1330.304
469.4694, 1329.596
469.9515, 1328.273
470.4336, 1326.585
470.9157, 1324.827
471.3979, 1322.997
471.8800, 1321.176
472.3621, 1319.325
472.8442, 1317.523
473.3263, 1316.006
473.8084, 1314.761
474.2906, 1313.881
474.7727, 1313.911
475.2548, 1314.490
475.7369, 1313.624
476.2190, 1310.801
476.7011, 1307.694
477.1833, 1306.371
477.6654, 1306.382
478.1475, 1306.506
478.6296, 1306.571
479.1117, 1306.277
479.5938, 1304.919
480.0760, 1302.703
480.5581, 1301.026
481.0402, 1301.181
481.5223, 1301.902
482.0044, 1302.199
482.4865, 1301.855
482.9687, 1301.214
483.4508, 1300.101
483.9329, 1298.837
484.4150, 1297.892
484.8971, 1297.694
485.3792, 1297.440
485.8614, 1296.812
486.3435, 1295.854
486.8256, 1295.328
487.3077, 1295.773
487.7898, 1296.025
488.2719, 1295.283
488.7541, 1292.940
489.2362, 1291.685
489.7183, 1291.865
490.2004, 1292.694
490.6825, 1293.167
491.1646, 1293.313
491.6468, 1292.688
492.1289, 1290.756
492.6110, 1288.169
493.0931, 1286.838
493.5752, 1286.746
494.0573, 1286.974
494.5395, 1287.030
495.0216, 1286.893
495.5037, 1286.450
495.9858, 1285.641
496.4679, 1284.846
496.9500, 1284.157
497.4322, 1283.770
497.9143, 1284.021
498.3964, 1286.341
498.8785, 1288.189
499.3606, 1287.473
499.8427, 1284.793
500.3249, 1282.979
500.8070, 1283.851
501.2891, 1285.177
501.7712, 1285.799
502.2533, 1285.383
502.7354, 1284.890
503.2176, 1283.951
503.6997, 1283.195
504.1818, 1283.335
504.6639, 1285.043
505.1460, 1286.313
505.6281, 1286.578
506.1103, 1286.208
506.5924, 1286.880
507.0745, 1288.981
507.5566, 1290.697
508.0387, 1291.092
508.5208, 1290.201
509.0030, 1288.447
509.4851, 1285.619
509.9672, 1283.140
510.4493, 1282.888
510.9314, 1284.320
511.4135, 1285.621
511.8957, 1286.393
512.3778, 1286.785
512.8599, 1286.802
513.3420, 1286.570
513.8242, 1286.432
514.3063, 1286.647
514.7884, 1286.987
515.2705, 1287.308
515.7526, 1287.601
516.2347, 1287.822
516.7169, 1287.749
517.1990, 1287.699
517.6811, 1287.916
518.1632, 1288.686
518.6453, 1289.343
519.1274, 1289.924
519.6096, 1290.299
520.0917, 1290.140
520.5738, 1288.644
521.0559, 1287.946
521.5380, 1288.925
522.0201, 1291.438
522.5023, 1292.911
522.9844, 1293.205
523.4665, 1292.882
523.9486, 1291.955
524.4307, 1290.501
524.9128, 1290.219
525.3950, 1291.392
525.8771, 1293.236
526.3592, 1295.028
526.8413, 1296.664
527.3234, 1297.828
527.8055, 1298.300
528.2877, 1298.306
528.7698, 1297.799
529.2519, 1296.948
529.7340, 1296.477
530.2161, 1296.860
530.6982, 1297.741
531.1804, 1299.113
531.6625, 1301.143
532.1446, 1302.521
532.6267, 1302.206
533.1088, 1301.359
533.5909, 1301.054
534.0731, 1302.322
534.5552, 1303.062
535.0373, 1302.852
535.5194, 1302.075
536.0015, 1301.602
536.4836, 1301.278
536.9658, 1301.619
537.4479, 1303.201
537.9300, 1305.894
538.4121, 1306.771
538.8942, 1305.459
539.3763, 1303.793
539.8585, 1303.058
540.3406, 1303.234
540.8227, 1304.501
541.3048, 1307.148
541.7869, 1309.911
542.2690, 1311.123
542.7512, 1311.214
543.2333, 1311.266
543.7154, 1311.659
544.1975, 1312.260
544.6796, 1313.413
545.1617, 1314.850
545.6439, 1315.329
546.1260, 1312.723
546.6081, 1310.194
547.0902, 1309.888
547.5723, 1312.717
548.0544, 1314.907
548.5366, 1316.015
549.0187, 1316.226
549.5008, 1315.630
549.9829, 1313.295
550.4650, 1311.888
550.9471, 1311.891
551.4293, 1312.817
551.9114, 1313.660
552.3935, 1314.501
552.8756, 1314.861
553.3577, 1314.327
553.8398, 1313.170
554.3220, 1312.605
554.8041, 1312.638
555.2862, 1313.088
555.7683, 1313.996
556.2504, 1315.181
556.7325, 1316.312
557.2147, 1317.342
557.6968, 1318.306
558.1789, 1319.446
558.6610, 1320.484
559.1431, 1321.003
559.6252, 1320.292
560.1074, 1319.597
560.5895, 1319.447
561.0716, 1319.703
561.5537, 1319.901
562.0358, 1319.660
562.5179, 1319.625
563.0001, 1320.049
563.4822, 1320.960
563.9643, 1321.983
564.4464, 1323.240
564.9285, 1324.449
565.4106, 1325.580
565.8928, 1326.782
566.3749, 1326.738
566.8570, 1324.949
567.3391, 1322.775
567.8212, 1322.290
568.3033, 1323.342
568.7855, 1324.919
569.2676, 1327.137
569.7497, 1329.230
570.2318, 1329.720
570.7139, 1328.948
571.1960, 1328.457
571.6782, 1329.603
572.1603, 1331.093
572.6424, 1331.724
573.1245, 1331.328
573.6066, 1331.238
574.0887, 1332.391
574.5709, 1333.807
575.0530, 1334.734
575.5351, 1335.006
576.0172, 1334.875
576.4993, 1333.806
576.9814, 1332.610
577.4636, 1332.776
577.9457, 1335.019
578.4278, 1336.683
578.9099, 1336.855
579.3920, 1336.048
579.8741, 1336.331
580.3563, 1337.775
580.8384, 1339.281
581.3205, 1340.163
581.8026, 1340.599
582.2847, 1340.965
582.7668, 1341.264
583.2490, 1341.768
583.7311, 1343.157
584.2132, 1344.712
584.6953, 1345.342
