##NAMES=Nuffieldite
##RRUFFID=R100113
##IDEAL CHEMISTRY=Pb^2+^_2_Cu^1+^_1.4_(Pb^2+^_0.4_Bi^3+^_0.4_Sb^3+^_0.2_)Bi^3+^_2_S^2-^_7_
##LOCALITY=British Columbia Molybdenum mine, Kitsault, British Columbia, Canada
##OWNER=RRUFF
##SOURCE=Robert Woodside
##DESCRIPTION=Steel-gray striated prismatic crystals in quartz
##STATUS=The identification of this mineral is confirmed by single-crystal X-ray diffraction and chemical analysis.
##URL=rruff.info/R100113
##MEASURED CHEMISTRY=Pb_2.00_(Cu_1.22_Sb_0.06_)_Σ=1.28_(Bi_0.71_Pb_0.23_Sb_0.06_)_Σ=1.00_Bi_2.00_S_7_ (Light phases are galena)
84.23633, 60.13768
84.71844, 59.52466
85.20056, 59.31420
85.68268, 60.71420
86.16479, 62.22638
86.64691, 60.55630
87.12903, 55.29604
87.61115, 49.62414
88.09327, 47.36395
88.57539, 48.16748
89.05750, 49.62429
89.53962, 51.03846
90.02174, 52.27842
90.50385, 52.64427
90.98597, 52.17295
91.46809, 50.68610
91.95020, 46.43684
92.43232, 38.70411
92.91444, 33.62395
93.39655, 37.39238
93.87867, 51.56921
94.36079, 59.50956
94.84290, 58.02579
95.32503, 49.35398
95.80714, 42.20615
96.28926, 36.13263
96.77138, 32.30647
97.25349, 32.11840
97.73561, 37.57972
98.21773, 41.95207
98.69984, 44.27526
99.18196, 44.55188
99.66408, 43.48687
100.1462, 39.51392
100.6283, 35.34837
101.1104, 33.67704
101.5925, 37.66381
102.0747, 40.43073
102.5568, 39.68944
103.0389, 33.64326
103.5210, 31.41786
104.0031, 37.19153
104.4853, 45.57740
104.9674, 50.05180
105.4495, 46.37966
105.9316, 41.93837
106.4137, 38.91936
106.8958, 38.07656
107.3780, 37.25598
107.8601, 36.16970
108.3422, 34.82802
108.8243, 33.24558
109.3064, 30.56090
109.7885, 28.21485
110.2707, 27.10201
110.7528, 27.97091
111.2349, 29.07316
111.7170, 29.66550
112.1991, 29.91681
112.6812, 30.34165
113.1634, 32.43597
113.6455, 34.24987
114.1276, 33.81841
114.6097, 28.40094
115.0918, 23.08986
115.5739, 22.46785
116.0561, 25.80993
116.5382, 28.75912
117.0203, 27.78855
117.5024, 24.70463
117.9845, 22.12809
118.4667, 20.59218
118.9488, 20.23092
119.4309, 22.12971
119.9130, 26.24408
120.3951, 29.61942
120.8772, 28.56005
121.3594, 24.47502
121.8415, 21.28824
122.3236, 20.82615
122.8057, 22.34913
123.2878, 24.62531
123.7699, 27.86809
124.2521, 30.71501
124.7342, 30.88427
125.2163, 28.73963
125.6984, 27.46622
126.1805, 29.67990
126.6626, 34.58905
127.1448, 36.42822
127.6269, 34.34164
128.1090, 30.85552
128.5911, 30.79899
129.0732, 34.57617
129.5553, 37.26607
130.0375, 35.02962
130.5196, 27.37353
131.0017, 23.47411
131.4838, 24.54746
131.9659, 28.90305
132.4480, 32.72962
132.9302, 36.31744
133.4123, 38.60738
133.8944, 38.45058
134.3765, 34.75782
134.8586, 32.82981
135.3408, 33.69004
135.8229, 36.58228
136.3050, 37.78516
136.7871, 35.64091
137.2692, 34.27900
137.7513, 37.08490
138.2335, 48.13181
138.7156, 54.92722
139.1977, 54.23532
139.6798, 46.81340
140.1619, 43.55241
140.6440, 47.18231
141.1262, 52.62902
141.6083, 56.05536
142.0904, 55.09215
142.5725, 55.18936
143.0546, 57.63678
143.5367, 62.66867
144.0189, 66.35352
144.5010, 67.57778
144.9831, 67.98895
145.4652, 68.92053
145.9473, 72.10393
146.4294, 74.10481
146.9116, 72.80460
147.3937, 67.15022
147.8758, 66.13764
148.3579, 75.83559
148.8400, 88.65541
149.3221, 97.12814
149.8043, 96.74979
150.2864, 94.74648
150.7685, 93.00198
151.2506, 91.67787
151.7327, 90.55242
152.2149, 89.71169
152.6970, 89.02102
153.1791, 88.28963
153.6612, 86.73221
154.1433, 85.70179
154.6254, 85.81987
155.1076, 87.25034
155.5897, 89.42440
156.0718, 92.81616
156.5539, 96.74614
157.0360, 100.1573
157.5181, 102.9859
158.0003, 104.9288
158.4824, 105.0330
158.9645, 101.9368
159.4466, 100.9354
159.9287, 107.9299
160.4108, 119.2465
160.8930, 127.3034
161.3751, 125.2223
161.8572, 119.9719
162.3393, 117.4361
162.8214, 119.3920
163.3035, 121.1933
163.7857, 120.6412
164.2678, 118.6464
164.7499, 116.5240
165.2320, 114.9076
165.7141, 113.5757
166.1963, 111.9776
166.6784, 109.2729
167.1605, 107.8201
167.6426, 111.3512
168.1247, 118.5419
168.6068, 124.3397
169.0890, 126.5032
169.5711, 125.2087
170.0532, 119.7329
170.5353, 107.3359
171.0174, 95.08642
171.4995, 92.68012
171.9817, 98.73960
172.4638, 106.1119
172.9459, 110.7637
173.4280, 112.9672
173.9101, 112.8495
174.3922, 109.8612
174.8744, 105.4149
175.3565, 100.8068
175.8386, 96.13115
176.3207, 93.13450
176.8028, 94.47473
177.2849, 98.70065
177.7671, 101.4551
178.2492, 101.4058
178.7313, 99.67970
179.2134, 97.77567
179.6955, 95.67797
180.1777, 94.70311
180.6598, 97.20435
181.1419, 102.2854
181.6240, 105.2081
182.1061, 104.2479
182.5882, 100.8544
183.0704, 98.58669
183.5525, 97.49064
184.0346, 96.77617
184.5167, 95.68942
184.9988, 94.29391
185.4809, 93.23830
185.9631, 92.60737
186.4452, 92.44416
186.9273, 93.24886
187.4094, 95.21133
187.8915, 96.92046
188.3736, 97.10975
188.8558, 95.78429
189.3379, 93.40536
189.8200, 89.13855
190.3021, 84.00860
190.7842, 83.08112
191.2663, 87.05099
191.7485, 92.27571
192.2306, 95.25358
192.7127, 95.86372
193.1948, 96.10885
193.6769, 96.55849
194.1591, 97.06039
194.6412, 96.22633
195.1233, 93.54833
195.6054, 91.02524
196.0875, 90.89560
196.5696, 93.49184
197.0518, 96.29484
197.5339, 99.27284
198.0160, 102.1544
198.4981, 101.6992
198.9802, 96.83762
199.4623, 91.14143
199.9445, 88.33120
200.4266, 88.93826
200.9087, 89.96690
201.3908, 90.98727
201.8729, 91.94341
202.3550, 92.09576
202.8372, 91.29131
203.3193, 89.99001
203.8014, 88.52785
204.2835, 86.75678
204.7656, 85.38675
205.2477, 84.74353
205.7299, 84.78166
206.2120, 84.14671
206.6941, 82.38420
207.1762, 80.68616
207.6583, 80.28152
208.1405, 81.42380
208.6226, 83.15116
209.1047, 85.62775
209.5868, 88.82063
210.0689, 90.54166
210.5510, 90.26096
211.0332, 89.33745
211.5153, 89.13843
211.9974, 90.02812
212.4795, 90.65975
212.9616, 90.62169
213.4437, 89.93594
213.9259, 89.97807
214.4080, 91.54600
214.8901, 92.78960
215.3722, 91.47146
215.8543, 85.55584
216.3364, 81.87388
216.8186, 82.06681
217.3007, 86.02446
217.7828, 89.83813
218.2649, 93.92360
218.7470, 97.41547
219.2291, 99.45890
219.7113, 99.51180
220.1934, 99.36951
220.6755, 99.46844
221.1576, 99.76513
221.6397, 99.06310
222.1218, 97.06438
222.6040, 94.45753
223.0861, 91.49631
223.5682, 87.13025
224.0503, 84.76387
224.5324, 85.76601
225.0146, 89.78447
225.4967, 91.66573
225.9788, 90.03196
226.4609, 87.87741
226.9430, 87.60863
227.4251, 90.54464
227.9073, 92.67307
228.3894, 93.37843
228.8715, 92.78084
229.3536, 91.78673
229.8357, 89.36319
230.3178, 87.78954
230.8000, 89.07832
231.2821, 95.77883
231.7642, 100.0027
232.2463, 100.4417
232.7284, 97.51366
233.2105, 94.07024
233.6927, 89.32121
234.1748, 85.03538
234.6569, 82.33306
235.1390, 81.66861
235.6211, 81.63643
236.1032, 82.22384
236.5854, 83.37160
237.0675, 84.91782
237.5496, 87.63272
238.0317, 89.74247
238.5138, 89.90236
238.9960, 86.42696
239.4781, 84.86307
239.9602, 86.79854
240.4423, 90.86645
240.9244, 91.47036
241.4065, 86.30611
241.8887, 81.02987
242.3708, 78.75320
242.8529, 80.96438
243.3350, 82.60671
243.8171, 83.43800
244.2992, 83.62194
244.7814, 83.53362
245.2635, 82.75602
245.7456, 82.37761
246.2277, 83.15984
246.7098, 86.21223
247.1919, 87.39146
247.6741, 85.49331
248.1562, 82.24972
248.6383, 81.96964
249.1204, 86.11471
249.6025, 90.55183
250.0846, 93.68027
250.5668, 95.27314
251.0489, 96.12651
251.5310, 96.06850
252.0131, 95.38609
252.4952, 94.34023
252.9774, 92.12004
253.4595, 91.24799
253.9416, 93.17934
254.4237, 98.75761
254.9058, 102.3612
255.3879, 103.4691
255.8701, 103.0953
256.3522, 102.7669
256.8343, 102.6132
257.3164, 102.1253
257.7985, 100.6328
258.2806, 97.76331
258.7628, 97.99447
259.2449, 102.7075
259.7270, 108.6554
260.2091, 111.4709
260.6912, 110.1345
261.1733, 109.0903
261.6555, 109.9456
262.1376, 112.6640
262.6197, 112.9162
263.1018, 109.6486
263.5839, 105.8438
264.0660, 104.8788
264.5482, 107.4593
265.0303, 109.8509
265.5124, 110.8753
265.9945, 110.8411
266.4766, 112.8946
266.9587, 117.5196
267.4409, 122.9297
267.9230, 127.9991
268.4051, 133.0073
268.8872, 135.5975
269.3693, 134.6917
269.8514, 131.1746
270.3336, 128.8203
270.8157, 127.6458
271.2978, 127.6389
271.7799, 129.0007
272.2620, 131.7781
272.7441, 135.1629
273.2263, 139.5632
273.7084, 144.0758
274.1905, 145.9582
274.6726, 144.9464
275.1548, 143.0133
275.6369, 140.8978
276.1190, 138.6272
276.6011, 137.9403
277.0832, 139.5504
277.5653, 141.9111
278.0475, 141.8101
278.5296, 139.1292
279.0117, 135.9193
279.4938, 133.2984
279.9759, 131.1568
280.4580, 128.3348
280.9402, 124.4947
281.4223, 120.7377
281.9044, 119.1667
282.3865, 119.6742
282.8686, 119.8554
283.3507, 118.5840
283.8329, 116.0738
284.3150, 113.1612
284.7971, 109.8223
285.2792, 106.1849
285.7613, 101.7266
286.2434, 96.75840
286.7256, 93.15430
287.2077, 92.38018
287.6898, 93.30885
288.1719, 93.23775
288.6540, 92.12791
289.1361, 90.69253
289.6183, 89.80566
290.1004, 89.18194
290.5825, 87.86268
291.0646, 85.30900
291.5467, 82.10233
292.0288, 78.91528
292.5110, 75.78432
292.9931, 73.35825
293.4752, 73.12164
293.9573, 73.90760
294.4394, 73.19502
294.9215, 69.96655
295.4037, 65.76557
295.8858, 61.19000
296.3679, 56.76860
296.8500, 54.71224
297.3321, 59.82824
297.8142, 67.16740
298.2964, 68.86209
298.7785, 61.95549
299.2606, 54.22953
299.7427, 53.56045
300.2248, 57.73151
300.7069, 61.01043
301.1891, 59.81452
301.6712, 56.50532
302.1533, 52.63614
302.6354, 48.06963
303.1176, 45.23270
303.5997, 47.29999
304.0818, 52.05009
304.5639, 55.75307
305.0460, 56.35862
305.5281, 55.72532
306.0103, 54.99213
306.4924, 54.21910
306.9745, 53.34279
307.4566, 52.28233
307.9387, 51.11718
308.4208, 49.93940
308.9030, 48.89695
309.3851, 47.72795
309.8672, 46.00871
310.3493, 43.86574
310.8314, 42.35334
311.3135, 42.27959
311.7957, 42.74839
312.2778, 43.11535
312.7599, 43.29531
313.2420, 43.27305
313.7241, 42.89980
314.2062, 42.29265
314.6884, 41.82181
315.1705, 41.11475
315.6526, 40.92524
316.1347, 41.95551
316.6168, 45.87242
317.0989, 47.72599
317.5811, 44.31780
318.0632, 38.66206
318.5453, 36.10343
319.0274, 40.51770
319.5095, 45.20650
319.9916, 48.35824
320.4738, 49.84237
320.9559, 50.02438
321.4380, 48.47497
321.9201, 45.82676
322.4022, 42.64376
322.8843, 36.48407
323.3665, 32.84376
323.8486, 34.07880
324.3307, 40.34597
324.8128, 42.94767
325.2949, 39.30915
325.7770, 34.33772
326.2592, 31.67061
326.7413, 32.11187
327.2234, 33.36570
327.7055, 35.79975
328.1876, 38.91483
328.6697, 40.39869
329.1519, 39.44043
329.6340, 38.24586
330.1161, 38.00752
330.5982, 38.99530
331.0803, 40.14381
331.5625, 41.82143
332.0446, 43.30238
332.5267, 42.85311
333.0088, 39.92922
333.4909, 37.11604
333.9731, 35.61964
334.4552, 35.47939
334.9373, 34.35048
335.4194, 31.70648
335.9015, 29.48325
336.3836, 30.92396
336.8658, 36.17600
337.3479, 40.24170
337.8300, 41.38558
338.3121, 40.28976
338.7942, 39.43476
339.2763, 38.85393
339.7585, 38.28749
340.2406, 37.23889
340.7227, 35.90981
341.2048, 35.26754
341.6869, 35.49792
342.1690, 36.53504
342.6512, 39.09508
343.1333, 42.90382
343.6154, 45.50263
344.0975, 44.37505
344.5796, 41.11203
345.0617, 39.08841
345.5439, 38.89840
346.0260, 38.94679
346.5081, 36.83458
346.9902, 33.54663
347.4723, 31.55908
347.9544, 32.77130
348.4366, 35.48755
348.9187, 38.34575
349.4008, 41.29374
349.8829, 43.39142
350.3650, 43.89679
350.8471, 43.17009
351.3293, 41.64890
351.8114, 38.17955
352.2935, 35.20638
352.7756, 34.70813
353.2577, 36.22396
353.7398, 37.58181
354.2220, 37.60828
354.7041, 37.16759
355.1862, 36.84811
355.6683, 36.62058
356.1504, 36.80061
356.6325, 38.29229
357.1147, 40.21472
357.5968, 40.85494
358.0789, 38.97351
358.5610, 36.38810
359.0431, 33.29733
359.5252, 29.14114
360.0074, 27.14559
360.4895, 29.55796
360.9716, 33.55966
361.4537, 36.27597
361.9359, 36.46589
362.4180, 36.49583
362.9001, 36.61927
363.3822, 36.83851
363.8643, 37.27621
364.3464, 38.49122
364.8286, 39.39390
365.3107, 39.32912
365.7928, 37.96859
366.2749, 36.21269
366.7570, 33.70228
367.2391, 30.94909
367.7213, 29.15733
368.2034, 28.34619
368.6855, 28.50050
369.1676, 29.93970
369.6497, 32.88737
370.1318, 35.03418
370.6140, 36.29412
371.0961, 36.87643
371.5782, 37.18599
372.0603, 37.30614
372.5424, 36.18902
373.0245, 33.02462
373.5067, 28.49101
373.9888, 25.49777
374.4709, 24.09562
374.9530, 23.48807
375.4351, 22.87978
375.9172, 22.43936
376.3994, 23.03627
376.8815, 24.85449
377.3636, 27.66399
377.8457, 32.15205
378.3278, 37.77715
378.8099, 41.65626
379.2921, 40.94364
379.7742, 37.82958
380.2563, 35.91161
380.7384, 35.47695
381.2205, 35.45092
381.7026, 35.28932
382.1848, 34.83031
382.6669, 33.77273
383.1490, 30.56246
383.6311, 27.86723
384.1132, 28.23610
384.5953, 31.23673
385.0775, 34.32511
385.5596, 36.70331
386.0417, 38.25614
386.5238, 38.91704
387.0059, 38.77721
387.4880, 37.53533
387.9702, 33.59487
388.4523, 28.58640
388.9344, 25.62833
389.4165, 27.97181
389.8987, 30.40002
390.3808, 30.90071
390.8629, 29.04528
391.3450, 26.79487
391.8271, 22.37003
392.3092, 18.64726
392.7914, 18.28484
393.2735, 24.78210
393.7556, 30.40553
394.2377, 34.45558
394.7198, 37.01558
395.2019, 38.45393
395.6841, 38.12907
396.1662, 37.55023
396.6483, 37.71399
397.1304, 39.64183
397.6125, 39.10984
398.0946, 35.00901
398.5768, 29.57498
399.0589, 26.65495
399.5410, 26.69052
400.0231, 27.36880
400.5052, 28.06498
400.9873, 28.78292
401.4695, 29.73007
401.9516, 31.00323
402.4337, 32.01323
402.9158, 31.83657
403.3979, 30.69835
403.8800, 30.52623
404.3622, 32.10923
404.8443, 34.07233
405.3264, 33.47116
405.8085, 30.73611
406.2906, 28.59305
406.7727, 29.74805
407.2549, 32.24976
407.7370, 32.40767
408.2191, 29.76650
408.7012, 27.26910
409.1833, 28.38111
409.6654, 31.24167
410.1476, 32.80106
410.6297, 30.93030
411.1118, 28.17215
411.5939, 25.80745
412.0760, 23.91769
412.5581, 23.01144
413.0403, 24.35219
413.5224, 26.09097
414.0045, 26.82123
414.4866, 25.73058
414.9687, 24.97608
415.4508, 25.48401
415.9330, 26.65375
416.4151, 27.57038
416.8972, 28.84736
417.3793, 29.08060
417.8614, 26.88216
418.3436, 21.84175
418.8257, 19.91811
419.3078, 23.71618
419.7899, 28.53462
420.2720, 31.17654
420.7542, 30.18211
421.2363, 29.96158
421.7184, 31.56207
422.2005, 33.79528
422.6826, 33.06825
423.1647, 27.89842
423.6469, 23.81961
424.1290, 23.48861
424.6111, 26.94048
425.0932, 29.91550
425.5753, 32.69807
426.0574, 34.21004
426.5396, 32.15730
427.0217, 26.80941
427.5038, 23.74048
427.9859, 24.90734
428.4680, 28.16622
428.9501, 29.53399
429.4323, 29.11735
429.9144, 27.81301
430.3965, 24.73237
430.8786, 21.52824
431.3607, 21.72840
431.8428, 26.02189
432.3250, 30.77691
432.8071, 32.61065
433.2892, 32.71846
433.7713, 33.11913
434.2534, 36.49376
434.7355, 38.86525
435.2177, 36.37978
435.6998, 30.08796
436.1819, 25.11625
436.6640, 24.52261
437.1461, 25.45181
437.6282, 26.10442
438.1104, 26.09858
438.5925, 26.04407
439.0746, 25.99375
439.5567, 25.99866
440.0388, 26.13189
440.5209, 26.77558
441.0031, 27.13816
441.4852, 26.80957
441.9673, 25.81370
442.4494, 25.63348
442.9315, 26.74328
443.4136, 28.10209
443.8958, 29.15310
444.3779, 29.97015
444.8600, 30.13203
445.3421, 29.23301
445.8242, 28.07722
446.3063, 28.64176
446.7885, 31.35856
447.2706, 32.89616
447.7527, 31.54388
448.2348, 27.97397
448.7169, 25.57870
449.1991, 24.38854
449.6812, 23.76280
450.1633, 23.09074
450.6454, 22.51182
451.1275, 22.55936
451.6096, 23.48014
452.0918, 24.63380
452.5739, 25.26271
453.0560, 25.49744
453.5381, 25.68192
454.0202, 25.83405
454.5023, 26.11801
454.9845, 26.94173
455.4666, 28.28301
455.9487, 29.09115
456.4308, 28.37869
456.9129, 27.09698
457.3951, 26.07315
457.8772, 25.40751
458.3593, 25.13452
458.8414, 25.63664
459.3235, 26.52479
459.8056, 26.95466
460.2878, 25.78884
460.7699, 25.12511
461.2520, 25.70401
461.7341, 27.67161
462.2162, 29.73804
462.6983, 32.79130
463.1805, 35.00957
463.6626, 34.56134
464.1447, 29.94367
464.6268, 26.99301
465.1089, 26.42139
465.5910, 27.60741
466.0732, 29.61331
466.5553, 32.76468
467.0374, 34.81001
467.5195, 34.52525
468.0016, 32.28174
468.4837, 29.82825
468.9659, 27.09459
469.4480, 24.91361
469.9301, 24.15386
470.4122, 24.57485
470.8943, 25.75120
471.3764, 28.12383
471.8586, 29.99563
472.3407, 28.66392
472.8228, 25.22350
473.3049, 22.54195
473.7870, 22.35321
474.2691, 23.28662
474.7513, 24.31740
475.2334, 25.40753
475.7155, 26.95677
476.1976, 30.14070
476.6797, 33.28566
477.1619, 35.11274
477.6440, 35.37619
478.1261, 34.26251
478.6082, 30.29815
479.0903, 25.11512
479.5724, 22.13201
480.0546, 23.02335
480.5367, 24.19314
481.0188, 24.73741
481.5009, 24.62982
481.9830, 25.16040
482.4651, 26.86781
482.9473, 28.34538
483.4294, 28.42329
483.9115, 26.87671
484.3936, 25.36859
484.8757, 23.85090
485.3578, 22.70653
485.8400, 22.82525
486.3221, 24.16482
486.8042, 25.57931
487.2863, 27.09068
487.7684, 28.18745
488.2505, 27.24569
488.7327, 24.39675
489.2148, 21.59449
489.6969, 19.58645
490.1790, 18.76151
490.6611, 20.04124
491.1432, 24.17325
491.6254, 28.08964
492.1075, 29.27777
492.5896, 29.02163
493.0717, 29.24523
493.5538, 32.33681
494.0359, 34.39197
494.5181, 33.34028
495.0002, 29.58636
495.4823, 25.84476
495.9644, 21.29033
496.4465, 17.99551
496.9286, 17.08326
497.4108, 19.50140
497.8929, 21.82047
498.3750, 24.30429
498.8571, 26.44493
499.3392, 27.55288
499.8214, 27.40848
500.3035, 26.85348
500.7856, 25.75425
501.2677, 24.49555
501.7498, 24.73068
502.2319, 26.65889
502.7141, 28.07682
503.1962, 27.23176
503.6783, 24.82381
504.1604, 23.59783
504.6425, 23.67806
505.1246, 24.20399
505.6068, 24.64515
506.0889, 24.89447
506.5710, 24.58250
507.0531, 23.00135
507.5352, 21.97825
508.0174, 24.02653
508.4995, 27.78837
508.9816, 30.19582
509.4637, 28.83678
509.9458, 26.70186
510.4279, 25.31630
510.9101, 24.76921
511.3922, 24.12448
511.8743, 22.15854
512.3564, 20.71164
512.8385, 21.15149
513.3206, 25.77683
513.8027, 28.28281
514.2849, 27.35346
514.7670, 25.07452
515.2491, 25.10031
515.7312, 28.70306
516.2133, 30.69372
516.6954, 29.09845
517.1776, 24.92043
517.6597, 23.14948
518.1418, 24.03256
518.6239, 25.26389
519.1060, 25.18803
519.5881, 24.18529
520.0703, 23.69372
520.5524, 23.84260
521.0345, 24.22452
521.5167, 24.56326
521.9988, 24.82033
522.4809, 24.94350
522.9630, 25.04244
523.4451, 24.83177
523.9272, 23.50553
524.4094, 21.64680
524.8915, 20.80747
525.3736, 22.46621
525.8557, 24.54179
526.3378, 26.43818
526.8199, 28.18289
527.3021, 28.55184
527.7842, 25.89916
528.2663, 22.82837
528.7484, 20.97049
529.2305, 20.58559
529.7126, 20.95242
530.1948, 22.31743
530.6769, 24.21970
531.1590, 26.19219
531.6411, 28.55816
532.1232, 29.43913
532.6053, 27.91837
533.0875, 24.68586
533.5696, 21.79203
534.0517, 19.23293
534.5338, 17.78446
535.0159, 18.53374
535.4980, 20.65821
535.9802, 22.67786
536.4623, 24.52491
536.9444, 25.60200
537.4265, 24.40590
537.9086, 22.43069
538.3907, 21.82031
538.8729, 24.20488
539.3550, 26.60786
539.8371, 27.83274
540.3192, 28.01662
540.8013, 27.42302
541.2834, 24.78422
541.7656, 22.68468
542.2477, 22.40532
542.7298, 24.02189
543.2119, 24.50776
543.6940, 22.82749
544.1761, 21.25056
544.6583, 21.11511
545.1404, 22.71131
545.6225, 24.88238
546.1046, 28.08275
546.5867, 30.95907
547.0688, 31.34519
547.5510, 29.33313
548.0331, 27.26454
548.5152, 25.35906
548.9973, 24.24083
549.4794, 26.14416
549.9615, 30.29444
550.4437, 33.03393
550.9258, 30.82469
551.4079, 26.96546
551.8900, 25.13007
552.3721, 25.42143
552.8542, 25.78304
553.3364, 25.29614
553.8185, 24.28021
554.3006, 22.84979
554.7827, 20.24877
555.2648, 18.77698
555.7469, 19.73613
556.2291, 21.79391
556.7112, 22.98383
557.1933, 22.33277
557.6754, 22.37894
558.1575, 23.94289
558.6396, 26.48841
559.1218, 27.71638
559.6039, 27.44003
560.0860, 26.50905
560.5681, 25.08393
561.0502, 23.26245
561.5323, 21.86339
562.0145, 20.87796
562.4966, 20.45749
562.9787, 21.08345
563.4608, 22.34633
563.9429, 23.27719
564.4250, 23.57514
564.9072, 23.97393
565.3893, 25.97295
565.8714, 28.31710
566.3535, 29.02533
566.8356, 25.36117
567.3177, 21.88894
567.7999, 20.52725
568.2820, 20.95938
568.7641, 21.68738
569.2462, 23.68944
569.7283, 24.72565
570.2104, 23.65308
570.6926, 20.12629
571.1747, 17.66973
571.6568, 16.42117
572.1389, 16.05041
572.6210, 16.18162
573.1031, 16.75342
573.5853, 19.13316
574.0674, 24.06521
574.5495, 29.04217
575.0316, 29.96113
575.5137, 27.52450
575.9958, 24.91193
576.4780, 23.16300
