##NAMES=Nuffieldite
##RRUFFID=R110088
##IDEAL CHEMISTRY=Pb^2+^_2_Cu^1+^_1.4_(Pb^2+^_0.4_Bi^3+^_0.4_Sb^3+^_0.2_)Bi^3+^_2_S^2-^_7_
##LOCALITY=Crabtree quarry, Wake County, North Carolina, USA
##OWNER=RRUFF
##SOURCE=Mark N. Feinglos 
##DESCRIPTION=Bright silvery-white metallic massive associated with quartz
##STATUS=The identification of this mineral is confirmed by single-crystal X-ray diffraction and chemical analysis.
##URL=rruff.info/R110088
##MEASURED CHEMISTRY=Pb_2.00_(Cu_1.16_Sb_0.05_)_Σ=1.21_(Bi_0.64_Pb_0.18_Sb_0.18_)_Σ=1.00_Bi_2.00_S_7_
207.7936, 121.5360
208.2758, 121.3739
208.7579, 121.5883
209.2400, 122.4619
209.7221, 123.0934
210.2042, 123.3278
210.6863, 123.4718
211.1685, 123.7856
211.6506, 124.2971
212.1327, 124.7881
212.6148, 124.9195
213.0969, 124.3723
213.5790, 124.1368
214.0612, 124.4357
214.5433, 124.8827
215.0254, 125.1316
215.5075, 125.1126
215.9896, 125.0761
216.4717, 125.4089
216.9539, 126.4212
217.4360, 127.0400
217.9181, 126.8394
218.4002, 126.4418
218.8823, 126.5546
219.3644, 127.3521
219.8466, 128.2938
220.3287, 128.6251
220.8108, 128.2536
221.2929, 127.8294
221.7750, 127.1942
222.2571, 126.6431
222.7393, 126.6768
223.2214, 127.4742
223.7035, 128.4057
224.1856, 128.5800
224.6677, 128.0638
225.1498, 127.6716
225.6320, 127.6215
226.1141, 127.8206
226.5962, 128.1850
227.0783, 128.7789
227.5604, 129.3102
228.0425, 129.3701
228.5247, 129.0747
229.0068, 128.8985
229.4889, 129.1995
229.9710, 129.7318
230.4531, 129.9110
230.9352, 129.5632
231.4174, 129.0992
231.8995, 128.7944
232.3816, 128.6217
232.8637, 128.5263
233.3458, 128.5318
233.8279, 128.5991
234.3101, 128.6223
234.7922, 128.6644
235.2743, 128.5317
235.7564, 127.9070
236.2385, 127.0501
236.7206, 126.5083
237.2028, 126.7927
237.6849, 127.6545
238.1670, 127.9796
238.6491, 127.3462
239.1312, 126.7897
239.6133, 126.9788
240.0955, 127.4983
240.5776, 127.5999
241.0597, 126.6868
241.5418, 125.0454
242.0239, 124.0962
242.5060, 124.2259
242.9882, 124.5839
243.4703, 125.2364
243.9524, 125.8682
244.4345, 125.9781
244.9166, 125.1921
245.3987, 123.7632
245.8809, 122.9203
246.3630, 123.2211
246.8451, 123.4255
247.3272, 123.2307
247.8093, 122.8091
248.2914, 122.4020
248.7736, 122.1442
249.2557, 121.9775
249.7378, 121.6670
250.2199, 121.0682
250.7020, 120.4920
251.1841, 120.0505
251.6663, 119.6331
252.1484, 119.0239
252.6305, 118.1061
253.1126, 117.1040
253.5947, 116.7239
254.0768, 117.9308
254.5590, 118.6199
255.0411, 118.2674
255.5232, 117.4930
256.0053, 117.0194
256.4874, 117.1514
256.9695, 117.6055
257.4517, 117.6965
257.9338, 116.8992
258.4159, 116.3491
258.8980, 116.3079
259.3801, 116.4064
259.8622, 116.2691
260.3444, 115.7654
260.8265, 114.9952
261.3086, 114.1324
261.7907, 112.9137
262.2728, 112.0372
262.7549, 111.6324
263.2371, 111.5101
263.7192, 111.5242
264.2013, 111.6289
264.6834, 111.8061
265.1655, 112.0826
265.6476, 112.7195
266.1298, 112.7130
266.6119, 111.4966
267.0940, 109.9308
267.5761, 108.7915
268.0582, 108.2294
268.5403, 107.9698
269.0225, 107.7106
269.5046, 107.4420
269.9867, 107.2534
270.4688, 107.2518
270.9509, 107.2672
271.4330, 107.2242
271.9152, 107.0993
272.3973, 106.7449
272.8794, 105.9578
273.3615, 104.6936
273.8436, 103.5749
274.3257, 102.5665
274.8079, 101.7312
275.2900, 101.2156
275.7721, 100.9986
276.2542, 100.7669
276.7363, 100.1975
277.2184, 99.38545
277.7006, 99.01045
278.1827, 99.49502
278.6648, 100.0849
279.1469, 100.3448
279.6290, 100.2672
280.1111, 99.83409
280.5933, 98.82973
281.0754, 97.52300
281.5575, 96.80764
282.0396, 97.11989
282.5217, 97.48711
283.0038, 97.28965
283.4860, 96.61189
283.9681, 95.90320
284.4502, 95.39651
284.9323, 94.94620
285.4144, 94.23560
285.8965, 93.14943
286.3787, 92.09633
286.8608, 91.31290
287.3429, 90.75172
287.8250, 90.26724
288.3071, 89.91054
288.7892, 89.46795
289.2714, 88.55882
289.7535, 87.11892
290.2356, 85.80964
290.7177, 85.03487
291.1998, 84.62666
291.6819, 84.12364
292.1641, 83.39761
292.6462, 82.60766
293.1283, 81.93485
293.6104, 81.36562
294.0925, 80.78488
294.5746, 80.11211
295.0568, 79.40523
295.5389, 78.81783
296.0210, 78.42489
296.5031, 77.98069
296.9852, 77.29386
297.4673, 76.39698
297.9495, 75.29762
298.4316, 73.70399
298.9137, 72.02592
299.3958, 70.99462
299.8779, 70.75976
300.3600, 70.51350
300.8422, 69.60149
301.3243, 68.32877
301.8064, 67.21928
302.2885, 66.44318
302.7706, 65.80763
303.2527, 65.09749
303.7349, 64.30461
304.2170, 63.50965
304.6991, 62.71132
305.1812, 61.95583
305.6633, 61.30114
306.1454, 60.75786
306.6276, 60.31437
307.1097, 60.02745
307.5918, 59.88385
308.0739, 59.63054
308.5560, 59.14264
309.0381, 58.54202
309.5203, 57.94728
310.0024, 57.35114
310.4845, 56.84155
310.9666, 56.53125
311.4487, 56.37728
311.9308, 56.19031
312.4130, 55.99506
312.8951, 55.65749
313.3772, 54.99195
313.8593, 54.04985
314.3414, 53.18707
314.8235, 52.56981
315.3057, 52.16080
315.7878, 51.88446
316.2699, 51.78532
316.7520, 51.70227
317.2341, 51.50905
317.7162, 51.24363
318.1984, 50.98356
318.6805, 50.84448
319.1626, 50.68750
319.6447, 50.20279
320.1268, 49.29718
320.6089, 48.53592
321.0911, 48.40629
321.5732, 48.57644
322.0553, 48.61312
322.5374, 48.43893
323.0195, 48.09387
323.5016, 47.49047
323.9838, 46.62072
324.4659, 46.02563
324.9480, 46.09370
325.4301, 46.42620
325.9122, 46.56559
326.3943, 46.49110
326.8765, 46.21071
327.3586, 45.52396
327.8407, 44.55018
328.3228, 44.02692
328.8049, 44.35054
329.2870, 44.86343
329.7692, 44.84806
330.2513, 44.35230
330.7334, 43.88106
331.2155, 43.69957
331.6976, 43.71519
332.1797, 43.74603
332.6619, 43.81329
333.1440, 43.78233
333.6261, 43.41739
334.1082, 42.85790
334.5903, 42.43879
335.0724, 42.42301
335.5546, 42.52277
336.0367, 42.32718
336.5188, 41.80732
337.0009, 41.29047
337.4830, 40.91931
337.9651, 40.69603
338.4473, 40.63834
338.9294, 40.85932
339.4115, 41.07145
339.8936, 40.98637
340.3757, 40.64911
340.8578, 40.41484
341.3400, 40.47497
341.8221, 40.63888
342.3042, 40.55556
342.7863, 40.14787
343.2684, 39.91714
343.7505, 40.35081
344.2327, 41.13462
344.7148, 41.46181
345.1969, 41.07330
345.6790, 40.44032
346.1611, 40.04462
346.6432, 39.85262
347.1254, 39.78230
347.6075, 40.07235
348.0896, 40.34733
348.5717, 40.02145
349.0538, 39.02287
349.5359, 38.01960
350.0181, 37.46764
350.5002, 37.33490
350.9823, 37.34540
351.4644, 37.73526
351.9465, 38.05092
352.4286, 37.83423
352.9108, 37.21440
353.3929, 36.83797
353.8750, 37.09745
354.3571, 37.71707
354.8392, 38.00430
355.3214, 37.87971
355.8035, 37.66951
356.2856, 37.40274
356.7677, 37.14377
357.2498, 37.03107
357.7319, 37.11826
358.2141, 37.28327
358.6962, 37.39725
359.1783, 37.48718
359.6604, 37.36005
360.1425, 36.76005
360.6246, 36.07667
361.1068, 35.62702
361.5889, 35.45082
362.0710, 35.55302
362.5531, 36.04102
363.0352, 36.89124
363.5173, 37.22673
363.9995, 36.62952
364.4816, 35.98637
364.9637, 35.81969
365.4458, 35.95219
365.9279, 35.84571
366.4100, 35.17563
366.8922, 34.18388
367.3743, 33.68158
367.8564, 34.04436
368.3385, 34.32571
368.8206, 34.36461
369.3027, 34.27822
369.7849, 34.16315
370.2670, 34.05422
370.7491, 34.00849
371.2312, 34.12274
371.7133, 34.49431
372.1954, 34.72247
372.6776, 34.75813
373.1597, 34.70452
373.6418, 34.54483
374.1239, 34.33458
374.6060, 34.24558
375.0881, 34.44593
375.5703, 34.91921
376.0524, 35.11270
376.5345, 34.74928
377.0166, 34.43213
377.4987, 34.33036
377.9808, 34.34949
378.4630, 34.36899
378.9451, 34.33431
379.4272, 34.21439
379.9093, 33.91997
380.3914, 33.26437
380.8735, 32.74308
381.3557, 32.39507
381.8378, 32.15576
382.3199, 31.96258
382.8020, 31.81386
383.2841, 31.77360
383.7662, 31.95414
384.2484, 32.41465
384.7305, 32.68308
385.2126, 32.47288
385.6947, 32.34235
386.1768, 32.59978
386.6589, 33.06499
387.1411, 33.34580
387.6232, 33.17218
388.1053, 32.69781
388.5874, 32.47149
389.0695, 32.55856
389.5516, 32.78900
390.0338, 33.35662
390.5159, 33.90379
390.9980, 34.09436
391.4801, 33.83590
391.9622, 33.29622
392.4443, 32.50581
392.9265, 31.38208
393.4086, 30.83576
393.8907, 31.51921
394.3728, 32.31995
394.8549, 32.59896
395.3370, 32.42419
395.8192, 32.16682
396.3013, 31.97173
396.7834, 31.87698
397.2655, 32.09201
397.7476, 32.80518
398.2297, 33.33550
398.7119, 33.12591
399.1940, 32.58091
399.6761, 32.20346
400.1582, 32.14658
400.6403, 32.22788
401.1224, 32.31370
401.6046, 32.39916
402.0867, 32.38182
402.5688, 32.18051
403.0509, 31.91680
403.5330, 31.74125
404.0151, 31.65513
404.4973, 31.56909
404.9794, 31.36325
405.4615, 31.15478
405.9436, 31.18655
406.4257, 31.50908
406.9078, 31.88533
407.3900, 32.14764
407.8721, 32.29920
408.3542, 32.39022
408.8363, 32.50343
409.3184, 32.48486
409.8005, 31.99647
410.2827, 31.23969
410.7648, 30.99580
411.2469, 31.72051
411.7290, 32.92753
412.2111, 33.49008
412.6932, 33.22068
413.1754, 32.90128
413.6575, 32.49583
414.1396, 32.19338
414.6217, 32.34037
415.1038, 32.94172
415.5859, 33.44365
416.0681, 33.22007
416.5502, 32.15350
417.0323, 31.70661
417.5144, 32.33079
417.9965, 32.99456
418.4786, 33.36991
418.9608, 33.46832
419.4429, 33.31828
419.9250, 32.91898
420.4071, 32.41459
420.8892, 32.21614
421.3713, 32.63874
421.8535, 32.90038
422.3356, 32.99206
422.8177, 32.92001
423.2998, 32.56243
423.7819, 31.98068
424.2640, 31.49823
424.7462, 31.48795
425.2283, 31.99045
425.7104, 32.35833
426.1925, 32.44730
426.6746, 32.55096
427.1567, 32.80418
427.6389, 33.11543
428.1210, 33.34350
428.6031, 33.42302
429.0852, 33.37904
429.5673, 33.24158
430.0494, 32.98055
430.5316, 32.73483
431.0137, 32.41062
431.4958, 32.20620
431.9779, 32.33893
432.4600, 32.79061
432.9421, 33.23581
433.4243, 33.44844
433.9064, 33.45374
434.3885, 33.35487
434.8706, 33.13898
435.3527, 32.85824
435.8348, 32.37300
436.3170, 31.87059
436.7991, 31.71654
437.2812, 32.17673
437.7633, 32.76456
438.2454, 32.97807
438.7275, 32.87947
439.2097, 32.93275
439.6918, 33.39381
440.1739, 33.92850
440.6560, 33.94055
441.1381, 33.38233
441.6202, 33.03141
442.1024, 33.28174
442.5845, 33.75313
443.0666, 34.01142
443.5487, 34.02177
444.0308, 33.98922
444.5129, 34.07488
444.9951, 34.25673
445.4772, 34.32757
445.9593, 34.14756
446.4414, 34.03540
446.9235, 34.28919
447.4056, 34.61317
447.8878, 34.49653
448.3699, 33.77362
448.8520, 32.80040
449.3341, 32.08926
449.8162, 31.61975
450.2983, 31.52970
450.7805, 32.18291
451.2626, 32.82079
451.7447, 32.97487
452.2268, 32.77021
452.7089, 32.66493
453.1910, 33.00615
453.6732, 33.60087
454.1553, 33.56838
454.6374, 32.26865
455.1195, 31.43978
455.6016, 31.51925
456.0837, 32.00954
456.5659, 32.60320
457.0480, 33.20443
457.5301, 33.69182
458.0122, 33.91139
458.4943, 33.86853
458.9764, 33.79913
459.4586, 33.67493
459.9407, 33.57878
460.4228, 33.60336
460.9049, 33.67458
461.3870, 33.65354
461.8691, 33.46628
462.3513, 33.21007
462.8334, 33.01668
463.3155, 32.88160
463.7976, 32.65145
464.2797, 32.13900
464.7618, 31.68589
465.2440, 31.81880
465.7261, 32.54854
466.2082, 33.10743
466.6903, 33.22219
467.1724, 33.03915
467.6545, 32.64890
468.1367, 32.07972
468.6188, 31.52570
469.1009, 31.06171
469.5830, 30.73902
470.0651, 30.80358
470.5472, 31.67250
471.0294, 32.34492
471.5115, 32.51663
471.9936, 32.37410
472.4757, 32.12637
472.9578, 31.83379
473.4399, 31.46318
473.9221, 30.92750
474.4042, 30.12016
474.8863, 29.78829
475.3684, 30.29349
475.8505, 30.82765
476.3326, 31.19391
476.8148, 31.36401
477.2969, 31.30391
477.7790, 30.99210
478.2611, 30.53562
478.7432, 30.11903
479.2253, 29.65033
479.7075, 29.49409
480.1896, 30.02853
480.6717, 30.60748
481.1538, 30.84738
481.6359, 30.78942
482.1180, 30.74558
482.6002, 31.01859
483.0823, 31.42974
483.5644, 31.39888
484.0465, 30.78261
484.5286, 30.24711
485.0107, 30.02556
485.4929, 30.08514
485.9750, 30.50827
486.4571, 31.41470
486.9392, 32.09712
487.4213, 31.94559
487.9034, 31.28619
488.3856, 30.83026
488.8677, 30.69317
489.3498, 30.71341
489.8319, 30.81228
490.3140, 30.96915
490.7961, 30.97928
491.2783, 30.65632
491.7604, 30.38518
492.2425, 30.46256
492.7246, 30.69229
493.2067, 30.68296
493.6888, 30.29781
494.1710, 29.73151
494.6531, 29.26822
495.1352, 28.87935
495.6173, 28.70953
496.0994, 28.97679
496.5815, 29.21885
497.0637, 29.06861
497.5458, 28.72669
498.0279, 28.72476
498.5100, 29.40922
498.9921, 30.36808
499.4742, 30.45901
499.9564, 29.17321
500.4385, 28.31180
500.9206, 28.47588
501.4027, 28.85792
501.8848, 28.98753
502.3669, 28.86341
502.8491, 28.74873
503.3312, 28.89820
503.8133, 29.17148
504.2954, 29.10602
504.7775, 28.59423
505.2596, 28.26245
505.7418, 28.52989
506.2239, 29.08032
506.7060, 29.50739
507.1881, 29.82551
507.6702, 29.86670
508.1523, 29.35470
508.6345, 28.57342
509.1166, 27.92197
509.5987, 27.45720
510.0808, 27.33041
510.5629, 27.80740
511.0450, 28.78876
511.5272, 29.14700
512.0093, 28.33679
512.4914, 27.64158
512.9735, 27.48962
513.4556, 27.64344
513.9377, 27.86068
514.4199, 28.04662
514.9020, 28.08277
515.3841, 27.74948
515.8662, 26.92207
516.3483, 26.58722
516.8304, 27.26974
517.3126, 27.90164
517.7947, 28.27985
518.2768, 28.39151
518.7589, 28.20790
519.2410, 27.70766
519.7231, 27.06392
520.2053, 26.44271
520.6874, 25.82652
521.1695, 25.52541
521.6516, 25.67605
522.1337, 26.04534
522.6158, 26.54442
523.0980, 27.11903
523.5801, 27.61543
524.0622, 27.98956
524.5443, 28.25055
525.0264, 28.41395
525.5085, 28.47543
525.9907, 28.38262
526.4728, 28.08660
526.9549, 27.69367
527.4370, 27.31645
527.9191, 26.91488
528.4012, 26.75559
528.8834, 27.08122
529.3655, 27.47234
529.8476, 27.60353
530.3297, 27.54719
530.8118, 27.58294
531.2939, 27.87061
531.7761, 28.28027
532.2582, 28.48295
532.7403, 28.41529
533.2224, 28.24105
533.7045, 27.84888
534.1866, 27.46562
534.6688, 27.17902
535.1509, 27.01703
535.6330, 27.03647
536.1151, 27.34898
536.5972, 27.76961
537.0793, 27.73852
537.5615, 27.11928
538.0436, 26.61108
538.5257, 26.45524
539.0078, 26.47080
539.4899, 26.49501
539.9720, 26.52593
540.4542, 26.65355
540.9363, 27.07180
541.4184, 27.53801
541.9005, 27.65726
542.3826, 27.43296
542.8647, 27.20020
543.3469, 27.14266
543.8290, 27.17758
544.3111, 27.08621
544.7932, 26.83045
545.2753, 26.56209
545.7574, 26.21858
546.2396, 25.92857
546.7217, 25.80778
547.2038, 25.85210
547.6859, 25.99523
548.1680, 26.19599
548.6501, 26.44776
549.1323, 26.74146
549.6144, 27.25136
550.0965, 27.48367
550.5786, 27.25138
551.0607, 26.86717
551.5428, 26.48347
552.0250, 26.15319
552.5071, 25.95196
552.9892, 25.97813
553.4713, 26.15890
553.9534, 26.27874
554.4355, 26.32226
554.9177, 26.38909
555.3998, 26.59211
555.8819, 26.78130
556.3640, 26.74369
556.8461, 26.44943
557.3282, 26.14895
557.8104, 25.98750
558.2925, 25.84153
558.7746, 25.49039
559.2567, 24.96336
559.7388, 24.58036
560.2209, 24.53820
560.7031, 24.76518
561.1852, 25.03252
561.6673, 25.45547
562.1494, 25.75619
562.6315, 25.86317
563.1136, 25.90002
563.5958, 26.07271
564.0779, 26.28334
564.5600, 26.12731
565.0421, 25.22791
565.5242, 23.91236
566.0063, 23.30959
566.4885, 23.61700
566.9706, 24.06860
567.4527, 24.76844
567.9348, 25.34032
568.4169, 25.44785
568.8990, 25.13043
569.3812, 24.77757
569.8633, 24.50483
570.3454, 24.36210
570.8275, 24.48141
571.3096, 24.84517
571.7917, 25.26760
572.2739, 25.81839
572.7560, 26.14963
573.2381, 25.44193
573.7202, 23.23758
574.2023, 21.84902
574.6844, 21.95704
575.1666, 22.53448
575.6487, 23.08816
576.1308, 23.51259
576.6129, 23.69782
577.0950, 23.57695
577.5771, 23.30657
578.0593, 23.26691
578.5414, 23.63171
579.0235, 23.75079
579.5056, 23.25302
579.9877, 22.81965
580.4698, 22.81718
580.9520, 23.11811
581.4341, 23.39468
581.9162, 23.49816
582.3983, 23.51952
582.8804, 23.63742
583.3625, 23.82405
583.8447, 23.73210
584.3268, 23.18453
584.8089, 22.56073
585.2910, 22.29601
585.7731, 22.34831
586.2552, 22.27840
586.7374, 21.57837
587.2195, 21.23930
587.7016, 22.16329
588.1837, 23.69856
588.6658, 24.69629
589.1479, 24.81731
589.6301, 24.53405
590.1122, 24.40077
590.5943, 24.42766
591.0764, 24.51579
591.5585, 24.88710
592.0406, 25.05156
592.5228, 24.75979
593.0049, 24.26364
593.4870, 23.81377
593.9691, 23.47971
594.4512, 23.30429
594.9333, 23.42307
595.4155, 23.75087
595.8976, 23.85673
596.3797, 23.63876
596.8618, 23.56728
597.3439, 24.08134
597.8260, 24.86446
598.3082, 25.11412
598.7903, 24.57009
599.2724, 24.15301
599.7545, 24.41611
600.2366, 24.79324
600.7188, 24.61822
601.2009, 23.90197
601.6830, 23.08337
602.1651, 22.42607
602.6472, 21.96317
603.1293, 21.82920
603.6115, 22.14845
604.0936, 22.58321
604.5757, 23.40858
605.0578, 24.06956
605.5399, 24.04168
606.0220, 23.52423
606.5042, 23.22863
606.9863, 23.68570
607.4684, 24.37015
607.9505, 24.34999
608.4326, 23.64460
608.9147, 23.04573
609.3969, 22.75909
609.8790, 22.64282
610.3611, 22.56347
610.8432, 22.52135
611.3253, 22.54765
611.8074, 22.73587
612.2896, 22.89927
612.7717, 23.02166
613.2538, 23.02959
613.7359, 22.69592
614.2180, 21.98759
614.7001, 21.31366
615.1823, 21.16764
615.6644, 21.57285
616.1465, 22.03875
616.6286, 22.81684
617.1107, 23.28988
617.5928, 23.03149
618.0750, 22.56664
618.5571, 22.51306
619.0392, 22.96750
619.5213, 23.34779
620.0034, 23.08762
620.4855, 22.47027
620.9677, 22.12116
621.4498, 22.07149
621.9319, 22.17200
622.4140, 22.43743
622.8961, 22.71488
623.3782, 22.60459
623.8604, 21.88568
624.3425, 21.52449
624.8246, 21.97942
625.3067, 22.51585
625.7888, 22.66098
626.2709, 22.47327
626.7531, 22.21879
627.2352, 22.03083
627.7173, 21.78583
628.1994, 21.06766
628.6815, 19.60537
629.1636, 19.23314
629.6458, 21.02444
630.1279, 22.66129
630.6100, 22.70322
631.0921, 21.89610
631.5742, 21.63525
632.0563, 22.49053
632.5385, 23.25318
633.0206, 22.79303
633.5027, 21.68963
633.9848, 21.12902
634.4669, 21.27749
634.9490, 21.56128
635.4312, 21.55326
635.9133, 21.34609
636.3954, 21.38161
636.8775, 21.93168
637.3596, 22.36535
637.8417, 22.72374
638.3239, 22.90927
638.8060, 22.72841
639.2881, 22.29906
639.7702, 21.97048
640.2523, 21.95603
640.7344, 22.14590
641.2166, 22.37012
641.6987, 22.63450
642.1808, 22.82648
642.6629, 22.95985
643.1450, 22.95821
643.6271, 22.63559
644.1093, 22.09504
644.5914, 21.72660
645.0735, 21.64676
645.5556, 21.67816
646.0377, 21.78336
646.5198, 21.93103
647.0020, 22.09420
647.4841, 22.25821
647.9662, 22.38717
648.4483, 22.45075
648.9304, 22.44980
649.4125, 22.37381
649.8947, 22.10436
650.3768, 21.98754
650.8589, 22.33763
651.3410, 22.65064
651.8231, 22.44450
652.3052, 21.82096
652.7874, 21.39007
653.2695, 21.52000
653.7516, 21.93243
654.2337, 22.47396
654.7158, 23.04663
655.1979, 23.11902
655.6801, 22.48357
656.1622, 21.63271
656.6443, 21.05902
657.1264, 20.76585
657.6085, 20.73797
658.0906, 21.16691
658.5728, 21.58130
659.0549, 21.96953
659.5370, 22.23107
660.0191, 22.16365
660.5012, 21.81088
660.9833, 21.56388
661.4655, 21.84682
661.9476, 22.42059
662.4297, 22.45448
662.9118, 21.86399
663.3939, 21.41469
663.8760, 21.41931
664.3582, 21.56987
664.8403, 21.47766
665.3224, 21.16613
665.8045, 20.94174
666.2866, 20.84932
666.7687, 20.85912
667.2509, 20.98163
667.7330, 21.18708
668.2151, 21.48378
668.6972, 21.85061
669.1793, 22.12098
669.6614, 22.09748
670.1436, 21.80568
670.6257, 21.62752
671.1078, 21.64303
671.5899, 21.60557
672.0720, 21.37819
672.5541, 21.11826
673.0363, 20.91554
673.5184, 20.78507
674.0005, 20.77331
674.4826, 21.04575
674.9647, 21.32873
675.4468, 21.25105
675.9290, 20.95236
676.4111, 20.90911
676.8932, 21.27423
677.3753, 21.70491
677.8574, 21.78628
678.3395, 21.50156
678.8217, 21.30373
679.3038, 21.25855
679.7859, 21.22009
680.2680, 21.09118
680.7501, 21.00834
681.2322, 21.16270
681.7144, 21.52663
682.1965, 21.81955
682.6786, 21.86981
683.1607, 21.72793
683.6428, 21.36269
684.1249, 20.82017
684.6071, 20.53761
685.0892, 20.68240
685.5713, 21.00097
686.0534, 21.24665
686.5355, 21.42266
687.0176, 21.40726
687.4998, 20.82001
687.9819, 20.53478
688.4640, 21.16478
688.9461, 21.95421
689.4282, 22.04757
689.9103, 21.42042
690.3925, 20.75211
690.8746, 20.56004
691.3567, 20.68205
691.8388, 20.74074
692.3209, 20.73209
692.8030, 20.76310
693.2852, 20.85383
693.7673, 21.01242
694.2494, 21.33115
694.7315, 21.78122
695.2136, 21.94075
695.6957, 21.53144
696.1779, 21.14921
696.6600, 21.01978
697.1421, 21.01087
697.6242, 21.00602
698.1063, 20.96844
698.5884, 20.88291
699.0706, 20.74982
699.5527, 20.54032
700.0348, 20.05485
700.5169, 19.17890
