##NAMES=Obradovicite-KCu
##RRUFFID=R100015
##IDEAL CHEMISTRY=[K_2_(H_2_O)_17_Cu^2+^(H_2_O)_6_][Mo^6+^_8_As^5+^_2_Fe^3+^_3_O_34_(OH)_3_]
##LOCALITY=Chuquicamata, Chile
##OWNER=Colorado School of Mines
##SOURCE=Colorado School of Mines
##DESCRIPTION=Aggregates of pea-green grains associated with quartz and jarosite, type material
##STATUS=The identification of this mineral has been confirmed by single-crystal X-ray diffraction.
##URL=rruff.info/R100015
91.18097, 0.0000000E+00
91.66309, 214.2771
92.14520, 212.3759
92.62732, 213.1502
93.10944, 216.7546
93.59155, 220.1868
94.07367, 220.7954
94.55579, 218.8675
95.03790, 216.1964
95.52002, 214.5530
96.00214, 214.3138
96.48425, 213.2564
96.96637, 210.0669
97.44849, 206.8334
97.93060, 205.2088
98.41272, 205.5299
98.89484, 206.6239
99.37695, 206.2071
99.85907, 202.6545
100.3412, 199.7304
100.8233, 198.1081
101.3054, 197.1885
101.7875, 196.0956
102.2697, 194.2013
102.7518, 191.5814
103.2339, 190.0796
103.7160, 190.2144
104.1981, 190.5629
104.6802, 190.4652
105.1624, 189.9555
105.6445, 189.5234
106.1266, 189.6256
106.6087, 190.2549
107.0908, 190.6862
107.5729, 191.1797
108.0551, 191.3326
108.5372, 190.3370
109.0193, 187.6792
109.5014, 185.1093
109.9835, 184.5161
110.4656, 185.4660
110.9478, 186.5457
111.4299, 186.9512
111.9120, 186.7847
112.3941, 186.8757
112.8762, 187.6999
113.3583, 188.4713
113.8405, 188.6025
114.3226, 188.1190
114.8047, 187.5855
115.2868, 187.7536
115.7689, 189.0173
116.2510, 189.8071
116.7332, 189.9523
117.2153, 189.6949
117.6974, 189.0861
118.1795, 188.1657
118.6616, 187.0684
119.1437, 186.1098
119.6259, 185.4039
120.1080, 184.7149
120.5901, 183.5575
121.0722, 182.5199
121.5543, 182.6468
122.0364, 184.6424
122.5186, 187.8738
123.0007, 188.7297
123.4828, 185.5688
123.9649, 182.3970
124.4470, 180.7415
124.9291, 180.3199
125.4113, 179.9181
125.8934, 178.6233
126.3755, 176.7064
126.8576, 175.5036
127.3397, 175.5925
127.8218, 176.0782
128.3040, 176.1214
128.7861, 175.6567
129.2682, 175.0703
129.7503, 174.6935
130.2324, 174.3870
130.7145, 173.8995
131.1967, 172.9606
131.6788, 171.7601
132.1609, 170.8275
132.6430, 169.9619
133.1251, 169.7382
133.6072, 170.6698
134.0894, 172.3836
134.5715, 174.0423
135.0536, 174.8060
135.5357, 174.5399
136.0178, 175.1694
136.4999, 178.0902
136.9821, 180.7651
137.4642, 182.1728
137.9463, 182.3582
138.4284, 181.9937
138.9105, 181.7747
139.3926, 181.4753
139.8748, 182.0599
140.3569, 183.9411
140.8390, 186.2386
141.3211, 188.5473
141.8032, 190.7035
142.2853, 192.5708
142.7675, 193.8654
143.2496, 194.1384
143.7317, 194.6487
144.2138, 195.6189
144.6959, 196.8089
145.1780, 197.9178
145.6602, 198.8335
146.1423, 199.6397
146.6244, 200.4906
147.1065, 201.3255
147.5886, 202.3183
148.0707, 203.7382
148.5529, 205.4259
149.0350, 206.7838
149.5171, 207.4205
149.9992, 207.7236
150.4813, 208.3759
150.9634, 209.5132
151.4456, 210.6763
151.9277, 211.4513
152.4098, 211.8088
152.8919, 212.1322
153.3740, 212.5623
153.8561, 213.0317
154.3383, 213.5784
154.8204, 214.2840
155.3025, 214.8427
155.7846, 214.6230
156.2667, 213.1563
156.7488, 211.9255
157.2310, 211.6420
157.7131, 211.6258
158.1952, 211.1501
158.6773, 209.8253
159.1594, 207.8983
159.6415, 206.3056
160.1237, 205.1573
160.6058, 204.2648
161.0879, 203.5686
161.5700, 203.1021
162.0521, 203.0337
162.5342, 203.5367
163.0164, 204.5190
163.4985, 204.5063
163.9806, 203.0779
164.4627, 201.1861
164.9448, 198.6663
165.4269, 195.8245
165.9091, 193.3448
166.3912, 191.7351
166.8733, 191.0417
167.3554, 190.6041
167.8375, 190.6718
168.3196, 190.7411
168.8018, 190.6224
169.2839, 190.2814
169.7660, 189.6039
170.2481, 188.2805
170.7302, 186.3882
171.2123, 185.2375
171.6945, 185.6551
172.1766, 186.4307
172.6587, 186.2410
173.1408, 184.8678
173.6229, 183.3502
174.1050, 182.6877
174.5872, 182.6243
175.0693, 182.5451
175.5514, 182.1694
176.0335, 181.6696
176.5156, 181.3979
176.9977, 181.4173
177.4799, 181.5891
177.9620, 181.8543
178.4441, 182.1834
178.9262, 182.5032
179.4083, 182.6718
179.8904, 182.7492
180.3726, 183.1618
180.8547, 184.2875
181.3368, 185.3145
181.8189, 185.9127
182.3010, 186.1104
182.7831, 186.0143
183.2653, 185.5686
183.7474, 184.7236
184.2295, 184.2853
184.7116, 184.3833
185.1937, 184.8280
185.6758, 185.9733
186.1580, 187.5439
186.6401, 188.7677
187.1222, 188.7546
187.6043, 187.1111
188.0864, 185.9293
188.5685, 185.1197
189.0507, 184.7569
189.5328, 184.7963
190.0149, 185.2890
190.4970, 186.4674
190.9791, 188.8045
191.4612, 193.2084
191.9434, 195.7434
192.4255, 195.0415
192.9076, 193.7138
193.3897, 193.3809
193.8718, 194.3573
194.3539, 196.0902
194.8361, 197.9498
195.3182, 200.0641
195.8003, 201.9400
196.2824, 203.5587
196.7645, 204.9444
197.2466, 205.9467
197.7288, 206.5237
198.2109, 207.1875
198.6930, 208.7755
199.1751, 211.4515
199.6572, 213.8149
200.1393, 215.5886
200.6215, 216.9349
201.1036, 217.9462
201.5857, 218.5275
202.0678, 219.1917
202.5499, 220.5102
203.0320, 222.3784
203.5142, 225.0015
203.9963, 229.1223
204.4784, 234.0513
204.9605, 237.9898
205.4426, 240.1940
205.9247, 242.0597
206.4069, 245.0409
206.8890, 249.0042
207.3711, 252.9583
207.8532, 256.3606
208.3353, 259.2990
208.8174, 262.0411
209.2996, 264.0829
209.7817, 266.6578
210.2638, 270.9843
210.7459, 276.7476
211.2280, 282.2604
211.7101, 286.0154
212.1923, 288.0625
212.6744, 290.5569
213.1565, 294.1458
213.6386, 297.7500
214.1207, 300.8028
214.6028, 303.3344
215.0850, 305.7338
215.5671, 308.2639
216.0492, 310.9302
216.5313, 313.7734
217.0134, 317.1076
217.4955, 320.3873
217.9777, 323.4450
218.4598, 326.2569
218.9419, 328.9246
219.4240, 331.7195
219.9061, 334.9505
220.3882, 336.6838
220.8704, 335.7534
221.3525, 334.4253
221.8346, 333.6270
222.3167, 333.3917
222.7988, 333.2445
223.2809, 332.6711
223.7631, 331.5269
224.2452, 330.5441
224.7273, 329.7960
225.2094, 329.1119
225.6915, 328.6954
226.1736, 328.3749
226.6558, 327.5527
227.1379, 325.5100
227.6200, 321.8624
228.1021, 318.7128
228.5842, 316.3992
229.0663, 314.2214
229.5485, 312.0907
230.0306, 309.8524
230.5127, 306.9682
230.9948, 302.7255
231.4769, 296.6398
231.9590, 292.1168
232.4412, 290.9319
232.9233, 289.7897
233.4054, 285.9653
233.8875, 279.5794
234.3696, 273.3647
234.8517, 270.0967
235.3339, 270.2147
235.8160, 269.2295
236.2981, 266.9190
236.7802, 263.7130
237.2623, 259.4444
237.7444, 254.2476
238.2266, 249.3264
238.7087, 245.6954
239.1908, 243.4378
239.6729, 241.5293
240.1550, 240.7779
240.6371, 239.8256
241.1193, 237.0384
241.6014, 232.3608
242.0835, 228.0971
242.5656, 226.1719
243.0477, 226.1721
243.5298, 226.0220
244.0120, 225.3765
244.4941, 224.6065
244.9762, 224.1707
245.4583, 224.0996
245.9404, 223.8076
246.4225, 222.8642
246.9047, 221.4144
247.3868, 219.7761
247.8689, 217.8268
248.3510, 215.8376
248.8331, 213.9660
249.3152, 212.1721
249.7974, 210.8903
250.2795, 210.9480
250.7616, 211.4698
251.2437, 211.1748
251.7258, 209.4736
252.2079, 207.3739
252.6901, 206.1504
253.1722, 205.9575
253.6543, 205.5069
254.1364, 203.5977
254.6185, 201.4314
255.1006, 200.3957
255.5828, 201.1331
256.0649, 202.0843
256.5470, 201.1513
257.0291, 198.0051
257.5112, 195.0383
257.9933, 192.8620
258.4755, 191.3233
258.9576, 190.5250
259.4397, 190.5515
259.9218, 190.8261
260.4039, 190.7861
260.8860, 190.4669
261.3682, 189.6333
261.8503, 187.4506
262.3324, 185.1976
262.8145, 183.6581
263.2966, 182.9679
263.7787, 182.7361
264.2609, 182.5761
264.7430, 182.4965
265.2251, 182.4365
265.7072, 182.1814
266.1893, 182.1010
266.6714, 182.6746
267.1536, 183.8208
267.6357, 184.7422
268.1178, 184.4870
268.5999, 182.8444
269.0820, 181.2652
269.5641, 179.6329
270.0463, 178.2319
270.5284, 177.1353
271.0105, 176.3855
271.4926, 176.0723
271.9747, 176.4924
272.4568, 177.8137
272.9390, 178.3979
273.4211, 177.2131
273.9032, 176.1622
274.3853, 175.9104
274.8674, 176.3691
275.3495, 177.1176
275.8317, 177.8223
276.3138, 178.4772
276.7959, 179.3145
277.2780, 180.4384
277.7601, 181.6631
278.2422, 183.1243
278.7244, 184.6445
279.2065, 185.8601
279.6886, 186.4624
280.1707, 186.5385
280.6528, 186.9793
281.1349, 187.1207
281.6171, 188.4650
282.0992, 192.8161
282.5813, 198.2580
283.0634, 201.9178
283.5455, 202.0107
284.0276, 199.3487
284.5098, 197.5966
284.9919, 197.1513
285.4740, 197.2675
285.9561, 198.4955
286.4382, 199.9899
286.9203, 200.7083
287.4025, 200.1692
287.8846, 198.8474
288.3667, 198.0567
288.8488, 199.0249
289.3309, 198.7144
289.8130, 195.9884
290.2952, 192.4817
290.7773, 189.8232
291.2594, 188.5228
291.7415, 187.7107
292.2236, 185.7669
292.7057, 181.7032
293.1879, 178.1209
293.6700, 175.7219
294.1521, 173.2849
294.6342, 169.7570
295.1163, 165.0145
295.5984, 159.8457
296.0806, 155.2557
296.5627, 151.3488
297.0448, 147.8218
297.5269, 144.5803
298.0090, 141.7201
298.4911, 139.8238
298.9733, 138.5836
299.4554, 136.7616
299.9375, 132.9701
300.4196, 126.7361
300.9017, 121.6438
301.3839, 117.5506
301.8660, 114.4745
302.3481, 113.0957
302.8302, 112.8251
303.3123, 112.1263
303.7944, 109.7082
304.2766, 105.6587
304.7587, 103.0006
305.2408, 102.4117
305.7229, 102.3553
306.2050, 103.0357
306.6871, 103.9124
307.1693, 104.0493
307.6514, 102.8655
308.1335, 100.7145
308.6156, 99.23732
309.0977, 98.70267
309.5798, 98.57371
310.0620, 98.99736
310.5441, 99.73567
311.0262, 100.5314
311.5083, 101.2810
311.9904, 102.0038
312.4725, 102.7551
312.9547, 104.1344
313.4368, 104.6563
313.9189, 103.4556
314.4010, 101.9359
314.8831, 101.3279
315.3652, 101.9175
315.8474, 103.1307
316.3295, 104.1571
316.8116, 104.8067
317.2937, 105.8070
317.7758, 107.3101
318.2579, 108.9878
318.7401, 110.8214
319.2222, 112.6920
319.7043, 114.2752
320.1864, 115.2400
320.6685, 115.5295
321.1506, 115.6242
321.6328, 114.5537
322.1149, 114.2567
322.5970, 116.0721
323.0791, 119.3429
323.5612, 122.4809
324.0433, 124.4472
324.5255, 125.2921
325.0076, 125.5791
325.4897, 123.5070
325.9718, 122.9271
326.4539, 125.8367
326.9360, 130.3643
327.4182, 133.7640
327.9003, 134.7126
328.3824, 134.0567
328.8645, 134.1684
329.3466, 135.2232
329.8287, 136.9450
330.3109, 139.7268
330.7930, 142.9214
331.2751, 146.2066
331.7572, 149.3954
332.2393, 152.0152
332.7214, 153.1191
333.2036, 151.2218
333.6857, 151.3221
334.1678, 154.3742
334.6499, 158.2799
335.1320, 162.1365
335.6141, 165.6545
336.0963, 168.6461
336.5784, 170.8774
337.0605, 172.2951
337.5426, 173.4390
338.0247, 173.9556
338.5068, 174.5671
338.9890, 175.2775
339.4711, 176.2828
339.9532, 178.1093
340.4353, 181.3108
340.9174, 185.4201
341.3995, 187.4319
341.8817, 185.0276
342.3638, 183.1921
342.8459, 183.3692
343.3280, 184.2531
343.8101, 183.9751
344.2922, 181.7419
344.7744, 178.8340
345.2565, 178.2788
345.7386, 182.1922
346.2207, 184.3148
346.7028, 183.1297
347.1849, 181.0334
347.6671, 179.6258
348.1492, 179.2451
348.6313, 179.4227
349.1134, 179.7011
349.5955, 180.1858
350.0776, 180.2960
350.5598, 179.1488
351.0419, 178.4150
351.5240, 179.1726
352.0061, 181.0105
352.4882, 182.6457
352.9703, 182.9177
353.4525, 182.0434
353.9346, 182.2823
354.4167, 184.7868
354.8988, 186.8919
355.3809, 187.4832
355.8630, 187.3405
356.3452, 187.6362
356.8273, 189.0156
357.3094, 190.7613
357.7915, 191.0964
358.2736, 189.2226
358.7557, 188.0183
359.2379, 189.1341
359.7200, 190.5164
360.2021, 190.3150
360.6842, 188.1859
361.1663, 185.7831
361.6484, 185.2415
362.1306, 186.7995
362.6127, 187.3491
363.0948, 185.9662
363.5769, 183.9834
364.0590, 181.9985
364.5411, 180.0521
365.0233, 178.1317
365.5054, 176.0049
365.9875, 173.8543
366.4696, 172.6806
366.9517, 173.2047
367.4338, 173.2680
367.9160, 171.2582
368.3981, 168.2339
368.8802, 165.8216
369.3623, 164.8553
369.8444, 164.3413
370.3265, 162.5563
370.8087, 159.2610
371.2908, 156.7782
371.7729, 156.5007
372.2550, 157.1610
372.7371, 157.6043
373.2192, 157.7740
373.7014, 157.3753
374.1835, 155.7232
374.6656, 153.1806
375.1477, 151.4361
375.6298, 151.0737
376.1119, 151.1939
376.5941, 150.9716
377.0762, 150.4603
377.5583, 149.9078
378.0404, 149.1731
378.5225, 148.5445
379.0046, 148.6718
379.4868, 149.6845
379.9689, 150.4198
380.4510, 149.8993
380.9331, 148.4868
381.4152, 147.3481
381.8973, 146.1440
382.3795, 145.7054
382.8616, 147.3120
383.3437, 150.3681
383.8258, 152.3321
384.3079, 151.8957
384.7900, 150.2727
385.2722, 149.9785
385.7543, 151.3130
386.2364, 152.4976
386.7185, 152.8149
387.2006, 152.8064
387.6827, 153.1011
388.1649, 153.8284
388.6470, 155.0115
389.1291, 156.8679
389.6112, 159.5419
390.0933, 161.2368
390.5754, 160.6712
391.0576, 160.2689
391.5397, 162.0375
392.0218, 165.3741
392.5039, 167.9604
392.9860, 168.2283
393.4681, 166.8354
393.9503, 166.9586
394.4324, 170.1023
394.9145, 172.7672
395.3966, 174.3554
395.8787, 175.2382
396.3608, 175.6794
396.8430, 175.8036
397.3251, 175.9565
397.8072, 176.6912
398.2893, 178.3304
398.7714, 179.6945
399.2535, 181.0314
399.7357, 181.9324
400.2178, 181.7781
400.6999, 180.9009
401.1820, 180.3754
401.6641, 181.1405
402.1462, 183.0372
402.6284, 184.0187
403.1105, 183.2373
403.5926, 182.4836
404.0747, 181.8060
404.5568, 181.4279
405.0389, 181.7164
405.5211, 182.8083
406.0032, 184.2165
406.4853, 185.1109
406.9674, 185.4344
407.4495, 185.4268
407.9316, 184.8624
408.4138, 184.1747
408.8959, 183.5077
409.3780, 182.9114
409.8601, 182.4864
410.3422, 182.4614
410.8243, 182.7404
411.3065, 182.4971
411.7886, 181.4108
412.2707, 180.3310
412.7528, 179.6523
413.2349, 179.2077
413.7170, 178.7599
414.1992, 178.2088
414.6813, 177.6642
415.1634, 177.4536
415.6455, 177.6238
416.1276, 177.1842
416.6097, 175.4661
417.0919, 173.3278
417.5740, 171.6236
418.0561, 170.3760
418.5382, 169.3477
419.0203, 168.4507
419.5024, 167.6810
419.9846, 166.9619
420.4667, 166.2233
420.9488, 165.8494
421.4309, 166.4838
421.9130, 167.7841
422.3951, 168.4679
422.8773, 168.0573
423.3594, 167.2824
423.8415, 166.4787
424.3236, 165.6968
424.8057, 165.1652
425.2878, 165.0436
425.7700, 165.1029
426.2521, 164.9152
426.7342, 164.6631
427.2163, 163.7561
427.6984, 161.1051
428.1805, 158.2956
428.6627, 157.2623
429.1448, 158.1476
429.6269, 159.2857
430.1090, 159.0726
430.5911, 157.3994
431.0732, 156.5737
431.5554, 157.3975
432.0375, 158.0096
432.5196, 157.4576
433.0017, 156.3281
433.4838, 155.6929
433.9659, 156.0553
434.4481, 156.9507
434.9302, 157.3936
435.4123, 157.4143
435.8944, 156.8541
436.3765, 155.1762
436.8586, 153.4251
437.3408, 152.5279
437.8229, 152.3393
438.3050, 151.8564
438.7871, 150.0857
439.2692, 147.1202
439.7513, 144.5908
440.2335, 142.4620
440.7156, 140.8736
441.1977, 140.1289
441.6798, 139.7742
442.1619, 139.1850
442.6440, 138.0986
443.1262, 137.0042
443.6083, 136.6140
444.0904, 136.9802
444.5725, 137.4290
445.0546, 138.0964
445.5367, 138.5241
446.0189, 138.1556
446.5010, 137.1575
446.9831, 136.4646
447.4652, 136.7752
447.9473, 137.6429
448.4294, 138.4782
448.9116, 139.3634
449.3937, 139.3376
449.8758, 137.0765
450.3579, 133.8130
450.8400, 132.3022
451.3221, 133.3484
451.8043, 134.7067
452.2864, 135.4754
452.7685, 135.6758
453.2506, 135.1924
453.7327, 133.9256
454.2148, 132.4998
454.6970, 131.6481
455.1791, 131.4802
455.6612, 131.2761
456.1433, 131.2516
456.6254, 130.9880
457.1075, 130.0612
457.5897, 128.6595
458.0718, 127.2775
458.5539, 126.1544
459.0360, 125.3396
459.5181, 124.9840
460.0002, 125.6416
460.4824, 126.0381
460.9645, 125.6221
461.4466, 125.3021
461.9287, 126.1034
462.4108, 127.9513
462.8929, 129.6557
463.3751, 129.8573
463.8572, 128.5344
464.3393, 128.6052
464.8214, 132.0338
465.3035, 134.4403
465.7856, 133.7460
466.2678, 131.7400
466.7499, 130.7944
467.2320, 131.8245
467.7141, 133.7330
468.1962, 134.7975
468.6783, 134.8678
469.1605, 135.8629
469.6426, 138.8896
470.1247, 142.0571
470.6068, 143.9499
471.0889, 144.7889
471.5710, 145.5760
472.0532, 146.9607
472.5353, 148.5010
473.0174, 149.3979
473.4995, 149.6244
473.9816, 149.8460
474.4637, 150.2388
474.9459, 150.9326
475.4280, 152.1370
475.9101, 153.9339
476.3922, 155.9496
476.8743, 158.3998
477.3564, 160.8555
477.8386, 162.5399
478.3207, 163.3565
478.8028, 164.0605
479.2849, 165.3498
479.7670, 167.2354
480.2491, 168.9126
480.7313, 170.3330
481.2134, 171.6434
481.6955, 173.1641
482.1776, 174.5264
482.6597, 174.8760
483.1418, 173.9510
483.6240, 172.8329
484.1061, 173.5180
484.5882, 177.1934
485.0703, 179.2827
485.5524, 179.0738
486.0345, 178.1111
486.5167, 176.7782
486.9988, 175.2556
487.4809, 173.7646
487.9630, 172.4641
488.4451, 171.2187
488.9272, 169.5030
489.4094, 166.9534
489.8915, 165.0807
490.3736, 165.2248
490.8557, 165.5462
491.3378, 164.7686
491.8199, 162.8165
492.3021, 160.4176
492.7842, 158.0489
493.2663, 155.2330
493.7484, 152.6319
494.2305, 149.0438
494.7126, 145.4778
495.1948, 141.9583
495.6769, 138.8862
496.1590, 137.2574
496.6411, 138.1973
497.1232, 138.5075
497.6053, 136.1817
498.0875, 132.3385
498.5696, 128.7120
499.0517, 125.7193
499.5338, 123.4031
500.0159, 122.0282
500.4980, 121.7596
500.9802, 120.4653
501.4623, 117.0392
501.9444, 113.9135
502.4265, 112.3098
502.9086, 111.5545
503.3907, 110.4452
503.8729, 108.5007
504.3550, 106.2233
504.8371, 104.5195
505.3192, 103.6029
505.8013, 102.6598
506.2834, 101.4645
506.7656, 100.4573
507.2477, 100.1928
507.7298, 100.2679
508.2119, 99.71848
508.6940, 97.86501
509.1761, 95.36147
509.6583, 93.51499
510.1404, 92.40962
510.6225, 91.49714
511.1046, 90.55211
511.5867, 89.84019
512.0688, 89.77193
512.5510, 90.30797
513.0331, 90.54014
513.5152, 89.88693
513.9973, 88.75178
514.4794, 87.58659
514.9615, 86.41790
515.4437, 85.63839
515.9258, 85.74123
516.4079, 86.18888
516.8900, 85.23655
517.3721, 81.93698
517.8542, 79.39257
518.3364, 78.73901
518.8185, 78.88998
519.3006, 78.82865
519.7827, 78.39387
520.2648, 77.82954
520.7469, 77.32728
521.2291, 76.88997
521.7112, 76.56338
522.1933, 76.62097
522.6754, 76.45040
523.1575, 75.72273
523.6396, 74.86829
524.1218, 74.44119
524.6039, 74.50172
525.0860, 74.47792
525.5681, 73.47579
526.0502, 71.53878
526.5323, 70.73897
527.0145, 71.94432
527.4966, 72.78487
527.9787, 71.66722
528.4608, 69.67895
528.9429, 68.29606
529.4250, 67.90788
529.9072, 68.02970
530.3893, 68.57987
530.8714, 69.34677
531.3535, 69.64595
531.8356, 69.34226
532.3177, 68.53915
532.7999, 67.04481
533.2820, 64.94370
533.7641, 63.75650
534.2462, 64.26906
534.7283, 64.90005
535.2104, 64.94061
535.6926, 64.60451
536.1747, 64.19328
536.6568, 63.82274
537.1389, 63.68633
537.6210, 64.16178
538.1031, 65.59531
538.5853, 66.09666
539.0674, 64.92504
539.5495, 63.66578
540.0316, 62.48826
540.5137, 61.67261
540.9958, 61.79744
541.4780, 63.15699
541.9601, 64.73818
542.4422, 64.77361
542.9243, 63.10605
543.4064, 62.13113
543.8885, 62.50571
544.3707, 63.18013
544.8528, 63.60064
545.3349, 63.75140
545.8170, 63.55624
546.2991, 62.79862
546.7813, 61.90559
547.2634, 61.18388
547.7455, 60.64944
548.2276, 60.33348
548.7097, 60.22653
549.1918, 60.42834
549.6740, 61.17970
550.1561, 62.65730
550.6382, 63.63916
551.1203, 64.08176
551.6024, 64.06554
552.0845, 63.50298
552.5667, 62.53720
553.0488, 61.22985
553.5309, 59.61953
554.0130, 58.19999
554.4951, 57.99720
554.9772, 59.55468
555.4594, 60.67159
555.9415, 61.40215
556.4236, 61.60903
556.9057, 60.72912
557.3878, 59.34209
557.8699, 58.65248
558.3521, 59.41118
558.8342, 60.41779
559.3163, 59.56274
559.7984, 56.95658
560.2805, 55.70437
560.7626, 56.91375
561.2448, 58.88789
561.7269, 60.17170
562.2090, 60.86073
562.6911, 61.27235
563.1732, 61.20694
563.6553, 61.12585
564.1375, 61.48071
564.6196, 62.04816
565.1017, 62.30050
565.5838, 62.05354
566.0659, 61.41196
566.5480, 60.42301
567.0302, 58.79310
567.5123, 58.12660
567.9944, 59.56076
568.4765, 60.58935
568.9586, 59.59150
569.4407, 57.79816
569.9229, 57.33991
570.4050, 59.02572
570.8871, 61.33303
571.3692, 61.95461
571.8513, 60.79543
572.3334, 60.10904
572.8156, 60.35951
573.2977, 60.64420
573.7798, 60.38486
574.2619, 59.79651
574.7440, 59.25936
575.2261, 58.85264
575.7083, 58.54325
576.1904, 58.41738
576.6725, 58.36129
577.1546, 58.06504
577.6367, 57.45177
578.1188, 56.70620
578.6010, 55.87110
579.0831, 54.95639
579.5652, 54.94403
580.0473, 56.66369
580.5294, 58.14655
581.0115, 58.68320
581.4937, 58.78985
581.9758, 59.20605
582.4579, 60.02507
582.9400, 60.55296
583.4221, 59.85547
583.9042, 58.02065
584.3864, 57.28379
584.8685, 58.45561
585.3506, 59.28278
585.8327, 58.53905
586.3148, 57.33846
