##NAMES=Obradovicite-KCu
##RRUFFID=R100015
##IDEAL CHEMISTRY=[K_2_(H_2_O)_17_Cu^2+^(H_2_O)_6_][Mo^6+^_8_As^5+^_2_Fe^3+^_3_O_34_(OH)_3_]
##LOCALITY=Chuquicamata, Chile
##OWNER=Colorado School of Mines
##SOURCE=Colorado School of Mines
##DESCRIPTION=Aggregates of pea-green grains associated with quartz and jarosite, type material
##STATUS=The identification of this mineral has been confirmed by single-crystal X-ray diffraction.
##URL=rruff.info/R100015
89.60352, 33.82454
90.08563, 33.68627
90.56775, 33.65141
91.04987, 33.73810
91.53198, 33.91257
92.01410, 34.15517
92.49622, 34.46385
92.97833, 34.78556
93.46045, 35.10395
93.94257, 35.40374
94.42468, 35.62457
94.90680, 35.69850
95.38892, 35.67674
95.87103, 35.77630
96.35315, 36.04203
96.83527, 36.24442
97.31738, 35.94719
97.79950, 35.12904
98.28162, 34.48351
98.76373, 34.38501
99.24585, 34.84969
99.72797, 35.29751
100.2101, 35.71940
100.6922, 36.11689
101.1743, 36.50231
101.6564, 36.88934
102.1385, 37.23626
102.6207, 37.54992
103.1028, 37.88006
103.5849, 37.97042
104.0670, 37.57639
104.5491, 36.84039
105.0313, 36.96103
105.5134, 38.71614
105.9955, 40.52357
106.4776, 41.10143
106.9597, 39.22350
107.4418, 37.84611
107.9240, 37.51055
108.4061, 38.34206
108.8882, 39.24381
109.3703, 40.43722
109.8524, 41.61908
110.3345, 42.45652
110.8167, 42.85619
111.2988, 42.99275
111.7809, 42.81095
112.2630, 42.11679
112.7451, 41.67774
113.2272, 41.77757
113.7094, 42.17469
114.1915, 42.47167
114.6736, 42.33685
115.1557, 42.24877
115.6378, 42.46109
116.1199, 43.18930
116.6021, 43.92359
117.0842, 44.33720
117.5663, 44.58748
118.0484, 45.14703
118.5305, 46.31857
119.0126, 47.83684
119.4948, 49.48621
119.9769, 51.32561
120.4590, 53.16896
120.9411, 54.62234
121.4232, 55.79750
121.9053, 57.49975
122.3875, 60.25347
122.8696, 63.84809
123.3517, 67.99119
123.8338, 73.01768
124.3159, 78.33440
124.7980, 82.88100
125.2802, 86.62206
125.7623, 91.04008
126.2444, 97.50025
126.7265, 105.6964
127.2086, 114.8123
127.6907, 124.2432
128.1729, 134.3660
128.6550, 145.8399
129.1371, 158.7096
129.6192, 173.0652
130.1013, 189.2721
130.5834, 207.1817
131.0656, 226.7898
131.5477, 248.7629
132.0298, 272.6593
132.5119, 296.3554
132.9940, 319.9661
133.4761, 342.9144
133.9583, 365.0495
134.4404, 386.3574
134.9225, 407.0977
135.4046, 427.2994
135.8867, 447.0631
136.3688, 465.8253
136.8510, 483.4110
137.3331, 499.8610
137.8152, 516.0572
138.2973, 531.3777
138.7794, 548.3134
139.2615, 569.5438
139.7437, 595.5915
140.2258, 622.7722
140.7079, 650.1940
141.1900, 677.8568
141.6721, 708.3154
142.1542, 741.4589
142.6364, 777.3210
143.1185, 816.5333
143.6006, 860.8475
144.0827, 904.3270
144.5648, 944.9652
145.0469, 982.7955
145.5291, 1020.491
146.0112, 1059.610
146.4933, 1098.172
146.9754, 1134.085
147.4575, 1165.719
147.9396, 1196.190
148.4218, 1226.896
148.9039, 1258.791
149.3860, 1288.063
149.8681, 1313.071
150.3502, 1335.231
150.8323, 1357.477
151.3145, 1380.892
151.7966, 1403.248
152.2787, 1423.792
152.7608, 1439.637
153.2429, 1457.898
153.7250, 1480.289
154.2072, 1505.586
154.6893, 1530.359
155.1714, 1548.468
155.6535, 1557.209
156.1356, 1565.625
156.6177, 1573.708
157.0999, 1583.663
157.5820, 1598.284
158.0641, 1615.917
158.5462, 1629.541
159.0283, 1634.358
159.5104, 1636.499
159.9926, 1639.963
160.4747, 1646.821
160.9568, 1653.968
161.4389, 1660.114
161.9210, 1665.382
162.4031, 1671.532
162.8853, 1680.764
163.3674, 1690.454
163.8495, 1698.202
164.3316, 1703.036
164.8137, 1705.932
165.2958, 1706.862
165.7780, 1705.866
166.2601, 1704.510
166.7422, 1703.573
167.2243, 1702.747
167.7064, 1701.666
168.1885, 1699.927
168.6707, 1698.039
169.1528, 1696.301
169.6349, 1694.715
170.1170, 1693.369
170.5991, 1692.363
171.0812, 1691.627
171.5634, 1691.047
172.0455, 1689.960
172.5276, 1689.311
173.0097, 1690.232
173.4918, 1692.965
173.9739, 1696.264
174.4561, 1699.044
174.9382, 1701.599
175.4203, 1704.648
175.9024, 1708.869
176.3845, 1713.664
176.8666, 1718.181
177.3488, 1722.312
177.8309, 1726.326
178.3130, 1730.238
178.7951, 1734.221
179.2772, 1738.755
179.7593, 1744.219
180.2415, 1750.420
180.7236, 1757.310
181.2057, 1765.178
181.6878, 1773.015
182.1699, 1779.140
182.6520, 1783.741
183.1342, 1788.895
183.6163, 1796.662
184.0984, 1806.078
184.5805, 1813.917
185.0626, 1819.313
185.5447, 1823.681
186.0269, 1829.325
186.5090, 1836.197
186.9911, 1843.937
187.4732, 1852.301
187.9553, 1861.351
188.4374, 1870.970
188.9196, 1881.165
189.4017, 1892.037
189.8838, 1904.080
190.3659, 1917.505
190.8480, 1931.201
191.3301, 1944.228
191.8123, 1956.831
192.2944, 1970.248
192.7765, 1984.759
193.2586, 2000.271
193.7407, 2015.867
194.2228, 2031.439
194.7050, 2047.957
195.1871, 2066.229
195.6692, 2086.252
196.1513, 2107.579
196.6334, 2130.115
197.1155, 2153.771
197.5977, 2178.681
198.0798, 2204.609
198.5619, 2232.308
199.0440, 2262.362
199.5261, 2294.969
200.0082, 2328.426
200.4904, 2362.656
200.9725, 2397.559
201.4546, 2433.257
201.9367, 2469.481
202.4188, 2507.327
202.9009, 2547.871
203.3831, 2591.678
203.8652, 2635.346
204.3473, 2677.547
204.8294, 2718.589
205.3115, 2762.270
205.7936, 2808.977
206.2758, 2857.476
206.7579, 2906.743
207.2400, 2956.314
207.7221, 3006.602
208.2042, 3057.135
208.6863, 3108.227
209.1685, 3163.371
209.6506, 3224.454
210.1327, 3287.075
210.6148, 3346.086
211.0969, 3399.752
211.5790, 3453.897
212.0612, 3509.929
212.5433, 3567.370
213.0254, 3627.353
213.5075, 3691.409
213.9896, 3756.178
214.4717, 3816.837
214.9538, 3873.429
215.4360, 3927.169
215.9181, 3979.065
216.4002, 4028.742
216.8823, 4075.266
217.3644, 4119.331
217.8465, 4159.427
218.3287, 4194.176
218.8108, 4223.139
219.2929, 4248.066
219.7750, 4270.128
220.2571, 4289.705
220.7392, 4303.610
221.2214, 4311.724
221.7035, 4314.517
222.1856, 4312.464
222.6677, 4305.028
223.1498, 4293.944
223.6319, 4280.023
224.1141, 4263.329
224.5962, 4242.390
225.0783, 4216.832
225.5604, 4187.629
226.0425, 4155.400
226.5246, 4119.640
227.0068, 4082.203
227.4889, 4044.587
227.9710, 4006.645
228.4531, 3965.751
228.9352, 3921.192
229.4173, 3874.240
229.8995, 3827.693
230.3816, 3782.508
230.8637, 3734.753
231.3458, 3683.048
231.8279, 3625.505
232.3100, 3571.740
232.7922, 3523.559
233.2743, 3477.909
233.7564, 3429.952
234.2385, 3377.938
234.7206, 3327.322
235.2027, 3279.754
235.6849, 3235.690
236.1670, 3191.554
236.6491, 3145.854
237.1312, 3101.297
237.6133, 3061.510
238.0954, 3027.067
238.5776, 2995.677
239.0597, 2967.058
239.5418, 2941.793
240.0239, 2916.757
240.5060, 2891.014
240.9881, 2866.259
241.4703, 2844.668
241.9524, 2827.052
242.4345, 2811.210
242.9166, 2796.981
243.3987, 2784.490
243.8808, 2772.230
244.3630, 2759.249
244.8451, 2747.236
245.3272, 2738.419
245.8093, 2734.302
246.2914, 2730.630
246.7735, 2726.253
247.2557, 2720.965
247.7378, 2716.962
248.2199, 2714.743
248.7020, 2713.234
249.1841, 2711.352
249.6662, 2709.255
250.1484, 2706.362
250.6305, 2702.540
251.1126, 2697.803
251.5947, 2691.758
252.0768, 2683.549
252.5589, 2674.953
253.0411, 2667.890
253.5232, 2663.016
254.0053, 2658.323
254.4874, 2653.111
254.9695, 2647.333
255.4516, 2643.398
255.9338, 2641.429
256.4159, 2641.207
256.8980, 2643.605
257.3801, 2652.027
257.8622, 2654.751
258.3444, 2647.496
258.8265, 2630.854
259.3086, 2620.799
259.7907, 2621.540
260.2728, 2623.118
260.7549, 2616.037
261.2371, 2596.602
261.7192, 2578.667
262.2013, 2564.513
262.6834, 2553.865
263.1655, 2545.691
263.6476, 2540.888
264.1298, 2536.819
264.6119, 2531.159
265.0940, 2523.415
265.5761, 2515.712
266.0582, 2508.100
266.5403, 2500.769
267.0225, 2495.227
267.5046, 2492.704
267.9867, 2489.390
268.4688, 2481.742
268.9509, 2468.141
269.4330, 2456.890
269.9152, 2449.573
270.3973, 2445.159
270.8794, 2439.743
271.3615, 2432.966
271.8436, 2426.202
272.3257, 2420.674
272.8079, 2416.603
273.2900, 2411.923
273.7721, 2405.543
274.2542, 2398.997
274.7363, 2397.079
275.2184, 2400.582
275.7006, 2405.716
276.1827, 2409.433
276.6648, 2411.335
277.1469, 2417.329
277.6290, 2428.271
278.1111, 2443.036
278.5933, 2458.922
279.0754, 2475.827
279.5575, 2495.299
280.0396, 2518.837
280.5217, 2546.235
281.0038, 2574.315
281.4860, 2602.855
281.9681, 2632.065
282.4502, 2663.042
282.9323, 2695.964
283.4144, 2727.613
283.8965, 2756.184
284.3787, 2781.653
284.8608, 2807.356
285.3429, 2834.011
285.8250, 2859.072
286.3071, 2879.658
286.7892, 2895.769
287.2714, 2906.299
287.7535, 2910.773
288.2356, 2909.254
288.7177, 2902.103
289.1998, 2889.268
289.6819, 2871.263
290.1641, 2848.797
290.6462, 2821.810
291.1283, 2789.546
291.6104, 2752.276
292.0925, 2709.501
292.5746, 2660.270
293.0568, 2604.174
293.5389, 2543.927
294.0210, 2482.226
294.5031, 2418.966
294.9852, 2354.497
295.4673, 2289.800
295.9495, 2223.846
296.4316, 2154.735
296.9137, 2082.875
297.3958, 2012.290
297.8779, 1946.764
298.3600, 1885.609
298.8422, 1825.365
299.3243, 1764.342
299.8064, 1704.532
300.2885, 1648.376
300.7706, 1595.944
301.2527, 1545.735
301.7349, 1496.816
302.2170, 1449.750
302.6991, 1406.609
303.1812, 1367.518
303.6633, 1332.015
304.1454, 1300.110
304.6276, 1271.537
305.1097, 1244.650
305.5918, 1217.873
306.0739, 1192.703
306.5560, 1171.732
307.0381, 1155.757
307.5203, 1142.045
308.0024, 1128.405
308.4845, 1115.246
308.9666, 1103.533
309.4487, 1093.887
309.9308, 1085.799
310.4130, 1078.920
310.8951, 1073.187
311.3772, 1068.908
311.8593, 1066.988
312.3414, 1066.616
312.8235, 1066.467
313.3057, 1065.590
313.7878, 1065.080
314.2699, 1065.540
314.7520, 1067.000
315.2341, 1069.338
315.7162, 1073.189
316.1984, 1077.645
316.6805, 1081.641
317.1626, 1084.472
317.6447, 1087.156
318.1268, 1089.313
318.6089, 1091.130
319.0911, 1095.099
319.5732, 1104.078
320.0553, 1114.497
320.5374, 1123.507
321.0195, 1128.073
321.5016, 1133.874
321.9838, 1142.530
322.4659, 1153.624
322.9480, 1165.078
323.4301, 1175.855
323.9122, 1187.396
324.3943, 1200.380
324.8765, 1215.823
325.3586, 1231.456
325.8407, 1247.122
326.3228, 1262.829
326.8049, 1278.676
327.2870, 1294.124
327.7692, 1309.973
328.2513, 1326.647
328.7334, 1344.481
329.2155, 1361.961
329.6976, 1379.556
330.1797, 1396.703
330.6619, 1412.159
331.1440, 1424.224
331.6261, 1437.042
332.1082, 1452.270
332.5903, 1470.225
333.0724, 1486.230
333.5546, 1498.636
334.0367, 1510.671
334.5188, 1525.751
335.0009, 1545.064
335.4830, 1565.018
335.9651, 1584.845
336.4473, 1604.725
336.9294, 1624.649
337.4115, 1644.280
337.8936, 1664.541
338.3757, 1686.260
338.8578, 1710.088
339.3399, 1732.929
339.8221, 1754.462
340.3042, 1774.697
340.7863, 1792.383
341.2684, 1807.629
341.7505, 1821.140
342.2326, 1833.594
342.7148, 1844.891
343.1969, 1854.345
343.6790, 1861.589
344.1611, 1867.410
344.6432, 1872.974
345.1253, 1878.254
345.6075, 1882.846
346.0896, 1886.057
346.5717, 1888.273
347.0538, 1890.980
347.5359, 1894.148
348.0180, 1897.986
348.5002, 1902.961
348.9823, 1908.885
349.4644, 1914.916
349.9465, 1919.229
350.4286, 1924.257
350.9107, 1934.901
351.3929, 1951.048
351.8750, 1969.370
352.3571, 1988.083
352.8392, 2007.004
353.3213, 2025.726
353.8034, 2043.969
354.2856, 2062.267
354.7677, 2081.717
355.2498, 2101.972
355.7319, 2121.893
356.2140, 2141.126
356.6961, 2159.450
357.1783, 2176.921
357.6604, 2193.578
358.1425, 2209.035
358.6246, 2223.740
359.1067, 2237.073
359.5888, 2248.009
360.0710, 2255.776
360.5531, 2261.176
361.0352, 2264.573
361.5173, 2265.921
361.9994, 2265.816
362.4815, 2265.056
362.9637, 2262.753
363.4458, 2257.960
363.9279, 2247.954
364.4100, 2237.854
364.8921, 2230.058
365.3742, 2224.261
365.8564, 2216.648
366.3385, 2205.959
366.8206, 2193.709
367.3027, 2180.817
367.7848, 2166.442
368.2669, 2152.463
368.7491, 2139.741
369.2312, 2127.671
369.7133, 2114.696
370.1954, 2099.088
370.6775, 2084.448
371.1596, 2072.354
371.6418, 2063.474
372.1239, 2055.024
372.6060, 2046.778
373.0881, 2039.253
373.5702, 2033.082
374.0523, 2028.269
374.5345, 2024.750
375.0166, 2022.355
375.4987, 2021.071
375.9808, 2021.935
376.4629, 2025.681
376.9450, 2029.858
377.4272, 2031.196
377.9093, 2028.937
378.3914, 2030.968
378.8735, 2039.652
379.3556, 2052.689
379.8377, 2063.813
380.3199, 2072.772
380.8020, 2082.135
381.2841, 2093.730
381.7662, 2107.330
382.2483, 2120.782
382.7304, 2133.759
383.2126, 2147.528
383.6947, 2164.759
384.1768, 2184.921
384.6589, 2204.963
385.1410, 2222.888
385.6231, 2240.285
386.1053, 2260.309
386.5874, 2282.962
387.0695, 2306.982
387.5516, 2332.910
388.0337, 2359.533
388.5158, 2384.414
388.9980, 2405.190
389.4801, 2425.992
389.9622, 2449.698
390.4443, 2475.959
390.9264, 2504.024
391.4085, 2534.969
391.8907, 2566.388
392.3728, 2596.232
392.8549, 2622.961
393.3370, 2650.115
393.8191, 2678.961
394.3012, 2708.983
394.7834, 2739.315
395.2655, 2770.574
395.7476, 2801.283
396.2297, 2831.092
396.7118, 2860.047
397.1939, 2887.327
397.6761, 2911.935
398.1582, 2935.243
398.6403, 2958.395
399.1224, 2982.154
399.6045, 3004.942
400.0866, 3026.413
400.5688, 3046.819
401.0509, 3067.046
401.5330, 3088.614
402.0151, 3108.451
402.4972, 3124.735
402.9793, 3135.563
403.4615, 3148.250
403.9436, 3164.188
404.4257, 3180.724
404.9078, 3192.944
405.3899, 3200.431
405.8720, 3205.440
406.3542, 3208.540
406.8363, 3209.714
407.3184, 3208.715
407.8005, 3205.181
408.2826, 3200.776
408.7647, 3197.394
409.2469, 3194.857
409.7290, 3190.974
410.2111, 3185.262
410.6932, 3178.003
411.1753, 3169.532
411.6574, 3159.979
412.1396, 3149.656
412.6217, 3138.560
413.1038, 3127.073
413.5859, 3116.137
414.0680, 3106.071
414.5501, 3095.078
415.0323, 3079.677
415.5144, 3062.148
415.9965, 3046.563
416.4786, 3035.628
416.9607, 3026.777
417.4428, 3018.529
417.9250, 3010.785
418.4071, 3002.459
418.8892, 2992.445
419.3713, 2981.895
419.8534, 2971.832
420.3355, 2961.826
420.8177, 2953.208
421.2998, 2946.889
421.7819, 2942.191
422.2640, 2937.456
422.7461, 2931.542
423.2282, 2926.398
423.7104, 2923.001
424.1925, 2922.050
424.6746, 2920.497
425.1567, 2918.153
425.6388, 2915.280
426.1209, 2911.936
426.6031, 2906.962
427.0852, 2903.435
427.5673, 2902.238
428.0494, 2902.816
428.5315, 2902.434
429.0136, 2900.987
429.4958, 2898.626
429.9779, 2895.623
430.4600, 2892.128
430.9421, 2886.386
431.4242, 2877.881
431.9063, 2868.001
432.3885, 2859.224
432.8706, 2851.659
433.3527, 2843.195
433.8348, 2833.287
434.3169, 2821.956
434.7990, 2808.350
435.2812, 2792.542
435.7633, 2777.472
436.2454, 2766.992
436.7275, 2759.285
437.2096, 2749.695
437.6917, 2736.938
438.1739, 2723.079
438.6560, 2709.882
439.1381, 2697.302
439.6202, 2685.211
440.1023, 2674.145
440.5844, 2663.165
441.0666, 2650.416
441.5487, 2635.766
442.0308, 2623.560
442.5129, 2620.015
442.9950, 2618.168
443.4771, 2611.365
443.9593, 2590.922
444.4414, 2572.708
444.9235, 2560.901
445.4056, 2554.551
445.8877, 2549.864
446.3698, 2548.998
446.8520, 2547.305
447.3341, 2542.551
447.8162, 2533.383
448.2983, 2525.191
448.7804, 2517.564
449.2625, 2511.203
449.7447, 2507.927
450.2268, 2511.383
450.7089, 2509.067
451.1910, 2496.719
451.6731, 2476.685
452.1552, 2461.617
452.6374, 2452.809
453.1195, 2445.338
453.6016, 2436.062
454.0837, 2425.163
454.5658, 2415.238
455.0479, 2406.715
455.5301, 2398.756
456.0122, 2390.358
456.4943, 2381.511
456.9764, 2372.936
457.4585, 2365.519
457.9406, 2358.004
458.4228, 2347.394
458.9049, 2334.079
459.3870, 2321.061
459.8691, 2310.490
460.3512, 2301.600
460.8333, 2293.565
461.3155, 2286.268
461.7976, 2279.371
462.2797, 2272.384
462.7618, 2265.620
463.2439, 2259.769
463.7260, 2254.388
464.2082, 2250.562
464.6903, 2249.739
465.1724, 2251.916
465.6545, 2252.930
466.1366, 2248.844
466.6187, 2245.343
467.1009, 2246.158
467.5830, 2256.521
468.0651, 2264.420
468.5472, 2267.881
469.0293, 2269.368
469.5114, 2273.941
469.9936, 2282.370
470.4757, 2292.397
470.9578, 2303.484
471.4399, 2315.623
471.9220, 2328.355
472.4041, 2341.338
472.8863, 2355.403
473.3684, 2371.091
473.8505, 2388.385
474.3326, 2407.185
474.8147, 2427.984
475.2968, 2449.274
475.7790, 2467.555
476.2611, 2483.509
476.7432, 2501.003
477.2253, 2523.440
477.7074, 2548.282
478.1895, 2571.696
478.6717, 2593.608
479.1538, 2614.781
479.6359, 2635.851
480.1180, 2656.545
480.6001, 2676.787
481.0822, 2697.995
481.5644, 2716.695
482.0465, 2729.843
482.5286, 2739.217
483.0107, 2748.642
483.4928, 2762.023
483.9749, 2773.357
484.4571, 2780.115
484.9392, 2781.924
485.4213, 2781.330
485.9034, 2778.551
486.3855, 2773.334
486.8676, 2765.462
487.3498, 2755.063
487.8319, 2741.374
488.3140, 2723.628
488.7961, 2702.874
489.2782, 2682.058
489.7603, 2662.168
490.2425, 2639.407
490.7246, 2612.359
491.2067, 2581.163
491.6888, 2547.930
492.1709, 2512.741
492.6530, 2476.202
493.1352, 2438.507
493.6173, 2399.863
494.0994, 2361.542
494.5815, 2324.263
495.0636, 2287.198
495.5457, 2249.782
496.0279, 2212.181
496.5100, 2174.994
496.9921, 2137.304
497.4742, 2100.521
497.9563, 2065.963
498.4384, 2033.330
498.9206, 2002.056
499.4027, 1971.891
499.8848, 1942.655
500.3669, 1913.341
500.8490, 1883.209
501.3311, 1854.407
501.8133, 1827.116
502.2954, 1801.302
502.7775, 1776.806
503.2596, 1753.571
503.7417, 1731.209
504.2238, 1709.834
504.7060, 1689.430
505.1881, 1669.922
505.6702, 1651.950
506.1523, 1634.029
506.6344, 1614.980
507.1165, 1594.644
507.5987, 1574.530
508.0808, 1554.636
508.5629, 1535.894
509.0450, 1520.714
509.5271, 1508.810
510.0092, 1496.243
510.4914, 1480.794
510.9735, 1464.178
511.4556, 1450.114
511.9377, 1438.412
512.4199, 1426.354
512.9020, 1410.840
513.3841, 1394.485
513.8662, 1380.848
514.3483, 1370.938
514.8304, 1361.137
515.3126, 1348.801
515.7947, 1335.399
516.2768, 1322.621
516.7589, 1310.710
517.2410, 1299.767
517.7231, 1290.287
518.2053, 1281.955
518.6874, 1273.225
519.1695, 1264.111
519.6516, 1254.449
520.1337, 1244.100
520.6158, 1232.668
521.0980, 1222.184
521.5801, 1212.938
522.0622, 1204.291
522.5443, 1195.447
523.0264, 1186.312
523.5085, 1177.598
523.9907, 1169.516
524.4728, 1161.941
524.9549, 1154.346
525.4370, 1146.732
525.9191, 1139.864
526.4012, 1135.179
526.8834, 1131.192
527.3655, 1124.063
527.8476, 1113.880
528.3297, 1103.975
528.8118, 1097.339
529.2939, 1092.459
529.7761, 1087.473
530.2582, 1081.829
530.7403, 1076.439
531.2224, 1072.177
531.7045, 1068.466
532.1866, 1064.379
532.6688, 1059.184
533.1509, 1053.992
533.6330, 1049.023
534.1151, 1044.326
534.5972, 1039.795
535.0793, 1035.571
535.5615, 1031.392
536.0436, 1027.187
536.5257, 1022.980
537.0078, 1018.380
537.4899, 1012.962
537.9720, 1007.862
538.4542, 1005.245
538.9363, 1005.338
539.4184, 1003.684
539.9005, 998.7726
540.3826, 992.2039
540.8647, 987.2478
541.3469, 983.8220
541.8290, 981.2631
542.3111, 979.8000
542.7932, 978.6843
543.2753, 976.8203
543.7574, 974.1676
544.2396, 971.1451
544.7217, 967.4138
545.2038, 963.7628
545.6859, 961.1219
546.1680, 960.5468
546.6501, 959.4135
547.1323, 955.8411
547.6144, 951.3142
548.0965, 948.3569
548.5786, 949.2912
549.0607, 949.6537
549.5428, 948.3096
550.0250, 945.4535
550.5071, 943.1080
550.9892, 941.3227
551.4713, 939.9720
551.9534, 939.2574
552.4355, 939.3480
552.9177, 938.0944
553.3998, 935.0959
553.8819, 932.0163
554.3640, 931.1297
554.8461, 932.0537
555.3282, 932.5762
555.8104, 931.9152
556.2925, 931.0135
556.7746, 931.1814
557.2567, 932.1807
557.7388, 933.2742
558.2209, 934.2888
558.7031, 935.0826
559.1852, 935.2225
559.6673, 934.7687
560.1494, 934.9982
560.6315, 937.2394
561.1136, 939.7960
561.5958, 941.5064
562.0779, 941.6064
562.5600, 942.0646
563.0421, 943.3203
563.5242, 944.8024
564.0063, 945.8309
564.4885, 946.3967
564.9706, 946.3987
565.4527, 945.4475
565.9348, 944.0439
566.4169, 944.0682
566.8990, 945.6649
567.3812, 947.3727
567.8633, 948.7079
568.3454, 949.5508
568.8275, 949.0363
569.3096, 947.1256
569.7917, 945.7078
570.2739, 946.0587
570.7560, 948.0916
571.2381, 952.6061
571.7202, 961.6520
572.2023, 967.7100
572.6844, 963.7551
573.1666, 954.3721
573.6487, 946.3841
574.1308, 942.1016
574.6129, 939.4001
575.0950, 938.1621
575.5771, 938.1894
576.0593, 938.2908
576.5414, 938.9120
577.0235, 938.9957
577.5056, 937.9927
577.9877, 935.7589
578.4698, 933.5103
578.9520, 930.7005
579.4341, 929.2015
579.9162, 932.6345
580.3983, 940.3679
580.8804, 942.1210
581.3625, 935.3131
581.8447, 925.6174
582.3268, 920.5217
582.8089, 918.9531
583.2910, 917.6521
583.7731, 915.4377
584.2552, 912.8522
584.7373, 910.0865
