##NAMES=Offretite
##RRUFFID=R060767
##IDEAL CHEMISTRY=KCaMg(Si_13_Al_5_)O_36_&#183;15H_2_O
##LOCALITY=Vinarice, Kladno, Czech Republic
##OWNER=RRUFF
##SOURCE=Michael Scott
##DESCRIPTION=Colorless elongated hexagonal prisms
##STATUS=The identification of this mineral is confirmed by single-crystal X-ray diffraction and chemical analysis.
##URL=rruff.info/R060767
##MEASURED CHEMISTRY=(K_0.96_[box]_0.04_)_Σ=1_Ca_1.00_(Mg_0.95_Fe^2+^_0.05_)_Σ=1_Si_13.04_Al_4.96_O_36_·15H_2_O
119.5992, 599.8355
120.0814, 611.7956
120.5635, 626.3271
121.0456, 641.3643
121.5277, 657.0815
122.0098, 673.5764
122.4919, 690.2208
122.9741, 709.3334
123.4562, 723.0008
123.9383, 741.4492
124.4204, 779.5880
124.9025, 848.4156
125.3846, 938.4629
125.8668, 1021.614
126.3489, 1097.028
126.8310, 1166.264
127.3131, 1231.705
127.7952, 1292.550
128.2773, 1347.228
128.7595, 1391.599
129.2416, 1428.911
129.7237, 1480.571
130.2058, 1562.896
130.6879, 1642.318
131.1700, 1720.021
131.6522, 1788.139
132.1343, 1833.282
132.6164, 1842.339
133.0985, 1815.427
133.5806, 1794.198
134.0627, 1792.855
134.5449, 1783.950
135.0270, 1752.390
135.5091, 1705.411
135.9912, 1661.365
136.4733, 1636.577
136.9554, 1632.960
137.4376, 1631.338
137.9197, 1630.148
138.4018, 1632.028
138.8839, 1631.408
139.3660, 1632.859
139.8481, 1650.221
140.3302, 1699.252
140.8124, 1789.154
141.2945, 1867.609
141.7766, 1920.629
142.2587, 1975.717
142.7408, 2048.626
143.2229, 2139.507
143.7051, 2237.772
144.1872, 2333.312
144.6693, 2426.610
145.1514, 2514.089
145.6335, 2593.450
146.1156, 2669.185
146.5978, 2744.628
147.0799, 2820.228
147.5620, 2894.399
148.0441, 2965.909
148.5262, 3034.448
149.0083, 3099.931
149.4905, 3168.294
149.9726, 3230.596
150.4547, 3280.850
150.9368, 3317.828
151.4189, 3341.523
151.9010, 3349.869
152.3832, 3337.614
152.8653, 3327.986
153.3474, 3326.427
153.8295, 3326.288
154.3116, 3321.920
154.7937, 3312.229
155.2759, 3295.739
155.7580, 3267.233
156.2401, 3222.939
156.7222, 3187.325
157.2043, 3168.165
157.6864, 3158.304
158.1686, 3150.256
158.6507, 3142.974
159.1328, 3133.523
159.6149, 3112.289
160.0970, 3075.815
160.5791, 3057.142
161.0613, 3074.165
161.5434, 3111.931
162.0255, 3146.901
162.5076, 3173.447
162.9897, 3196.185
163.4718, 3223.138
163.9540, 3254.986
164.4361, 3278.470
164.9182, 3281.923
165.4003, 3274.441
165.8824, 3274.383
166.3645, 3286.319
166.8467, 3305.760
167.3288, 3329.181
167.8109, 3356.561
168.2930, 3381.791
168.7751, 3404.941
169.2572, 3424.188
169.7394, 3434.098
170.2215, 3432.510
170.7036, 3422.721
171.1857, 3407.161
171.6678, 3386.106
172.1499, 3364.986
172.6321, 3346.598
173.1142, 3330.240
173.5963, 3314.459
174.0784, 3301.330
174.5605, 3284.769
175.0426, 3254.345
175.5248, 3210.944
176.0069, 3175.982
176.4890, 3168.723
176.9711, 3181.438
177.4532, 3181.183
177.9353, 3156.476
178.4175, 3125.053
178.8996, 3104.869
179.3817, 3094.714
179.8638, 3081.156
180.3459, 3050.018
180.8280, 3006.367
181.3102, 2977.109
181.7923, 2973.574
182.2744, 2976.155
182.7565, 2968.196
183.2386, 2950.774
183.7207, 2932.582
184.2029, 2918.671
184.6850, 2908.536
185.1671, 2899.357
185.6492, 2890.521
186.1313, 2883.124
186.6134, 2879.688
187.0956, 2879.156
187.5777, 2875.422
188.0598, 2860.922
188.5419, 2838.173
189.0240, 2822.831
189.5061, 2818.521
189.9883, 2819.834
190.4704, 2831.592
190.9525, 2848.568
191.4346, 2848.836
191.9167, 2799.412
192.3988, 2712.585
192.8810, 2668.964
193.3631, 2699.420
193.8452, 2740.838
194.3273, 2758.603
194.8094, 2755.322
195.2915, 2741.217
195.7737, 2714.577
196.2558, 2679.445
196.7379, 2660.940
197.2200, 2668.434
197.7021, 2681.566
198.1842, 2690.388
198.6664, 2695.306
199.1485, 2697.637
199.6306, 2701.205
200.1127, 2703.772
200.5948, 2691.152
201.0770, 2648.266
201.5591, 2613.240
202.0412, 2607.855
202.5233, 2623.930
203.0054, 2644.142
203.4875, 2665.923
203.9697, 2684.435
204.4518, 2675.077
204.9339, 2612.305
205.4160, 2564.217
205.8981, 2573.227
206.3802, 2616.259
206.8624, 2653.029
207.3445, 2662.102
207.8266, 2649.531
208.3087, 2631.142
208.7908, 2599.307
209.2729, 2576.779
209.7551, 2579.898
210.2372, 2596.421
210.7193, 2608.141
211.2014, 2606.205
211.6835, 2594.610
212.1656, 2582.145
212.6478, 2567.870
213.1299, 2554.876
213.6120, 2538.356
214.0941, 2525.326
214.5762, 2527.470
215.0583, 2555.845
215.5405, 2593.010
216.0226, 2602.046
216.5047, 2571.955
216.9868, 2545.184
217.4689, 2539.552
217.9510, 2544.475
218.4332, 2550.705
218.9153, 2555.916
219.3974, 2559.612
219.8795, 2561.068
220.3616, 2560.275
220.8437, 2557.354
221.3259, 2548.005
221.8080, 2538.647
222.2901, 2535.846
222.7722, 2542.224
223.2543, 2551.173
223.7364, 2555.096
224.2186, 2553.687
224.7007, 2548.961
225.1828, 2532.409
225.6649, 2518.225
226.1470, 2520.462
226.6291, 2542.874
227.1113, 2568.797
227.5934, 2580.445
228.0755, 2577.112
228.5576, 2576.457
229.0397, 2586.219
229.5218, 2597.237
230.0040, 2603.030
230.4861, 2603.018
230.9682, 2598.412
231.4503, 2587.463
231.9324, 2570.890
232.4145, 2559.043
232.8967, 2557.305
233.3788, 2557.054
233.8609, 2549.985
234.3430, 2536.647
234.8251, 2525.395
235.3072, 2524.058
235.7894, 2530.123
236.2715, 2531.340
236.7536, 2523.636
237.2357, 2514.726
237.7178, 2510.413
238.1999, 2510.044
238.6821, 2510.883
239.1642, 2512.447
239.6463, 2514.206
240.1284, 2514.616
240.6105, 2513.113
241.0926, 2511.344
241.5748, 2506.499
242.0569, 2501.655
242.5390, 2506.278
243.0211, 2535.103
243.5032, 2571.521
243.9853, 2587.879
244.4675, 2581.163
244.9496, 2566.460
245.4317, 2543.936
245.9138, 2521.261
246.3959, 2515.897
246.8780, 2548.941
247.3602, 2588.291
247.8423, 2595.669
248.3244, 2570.102
248.8065, 2543.197
249.2886, 2530.281
249.7707, 2528.659
250.2529, 2531.241
250.7350, 2541.193
251.2171, 2550.563
251.6992, 2547.967
252.1813, 2536.447
252.6634, 2539.143
253.1456, 2574.300
253.6277, 2622.921
254.1098, 2645.469
254.5919, 2634.568
255.0740, 2616.232
255.5561, 2599.390
256.0382, 2584.694
256.5204, 2573.952
257.0025, 2567.817
257.4846, 2565.848
257.9667, 2569.413
258.4488, 2580.895
258.9309, 2586.924
259.4131, 2580.802
259.8952, 2567.640
260.3773, 2553.573
260.8594, 2539.513
261.3415, 2528.736
261.8236, 2526.285
262.3058, 2533.226
262.7879, 2541.635
263.2700, 2558.270
263.7521, 2571.768
264.2342, 2564.821
264.7163, 2536.745
265.1985, 2512.438
265.6806, 2517.461
266.1627, 2556.475
266.6448, 2583.190
267.1269, 2593.734
267.6090, 2595.954
268.0912, 2592.911
268.5733, 2585.458
269.0554, 2573.877
269.5375, 2556.789
270.0196, 2535.069
270.5017, 2526.295
270.9839, 2536.192
271.4660, 2549.772
271.9481, 2563.564
272.4302, 2577.292
272.9123, 2592.959
273.3944, 2612.387
273.8766, 2631.589
274.3587, 2635.364
274.8408, 2607.942
275.3229, 2583.429
275.8050, 2567.151
276.2871, 2554.393
276.7693, 2536.236
277.2514, 2509.978
277.7335, 2486.286
278.2156, 2487.222
278.6977, 2541.624
279.1798, 2572.757
279.6620, 2568.262
280.1441, 2551.909
280.6262, 2537.760
281.1083, 2529.761
281.5904, 2527.467
282.0725, 2532.328
282.5547, 2548.842
283.0368, 2553.815
283.5189, 2533.185
284.0010, 2514.312
284.4831, 2511.340
284.9652, 2521.184
285.4474, 2532.187
285.9295, 2535.886
286.4116, 2532.356
286.8937, 2521.751
287.3758, 2493.574
287.8579, 2471.135
288.3401, 2465.964
288.8222, 2470.045
289.3043, 2469.433
289.7864, 2454.986
290.2685, 2434.766
290.7506, 2431.143
291.2328, 2450.992
291.7149, 2472.534
292.1970, 2487.578
292.6791, 2502.110
293.1612, 2524.659
293.6433, 2559.109
294.1255, 2591.451
294.6076, 2600.107
295.0897, 2582.082
295.5718, 2570.979
296.0539, 2582.755
296.5360, 2597.704
297.0182, 2596.403
297.5003, 2577.908
297.9824, 2565.055
298.4645, 2582.490
298.9466, 2621.727
299.4287, 2640.502
299.9109, 2621.456
300.3930, 2602.414
300.8751, 2621.709
301.3572, 2670.665
301.8393, 2713.472
302.3214, 2736.931
302.8036, 2746.916
303.2857, 2749.166
303.7678, 2743.166
304.2499, 2737.118
304.7320, 2733.878
305.2141, 2735.499
305.6963, 2747.247
306.1784, 2780.154
306.6605, 2814.205
307.1426, 2834.653
307.6247, 2844.217
308.1068, 2854.317
308.5890, 2871.237
309.0711, 2891.037
309.5532, 2901.390
310.0353, 2896.155
310.5174, 2894.619
310.9995, 2907.164
311.4817, 2924.888
311.9638, 2933.667
312.4459, 2929.268
312.9280, 2919.872
313.4101, 2917.063
313.8922, 2923.068
314.3744, 2931.280
314.8565, 2954.656
315.3386, 2970.709
315.8207, 2955.779
316.3028, 2913.623
316.7849, 2871.231
317.2671, 2852.058
317.7492, 2857.108
318.2313, 2869.511
318.7134, 2911.538
319.1955, 2936.989
319.6776, 2922.932
320.1598, 2883.432
320.6419, 2841.302
321.1240, 2807.866
321.6061, 2785.123
322.0882, 2781.283
322.5703, 2815.029
323.0525, 2837.373
323.5346, 2838.767
324.0167, 2828.844
324.4988, 2813.142
324.9809, 2793.723
325.4630, 2775.866
325.9452, 2767.383
326.4273, 2769.913
326.9094, 2772.262
327.3915, 2773.444
327.8736, 2774.142
328.3557, 2773.457
328.8379, 2772.169
329.3200, 2773.266
329.8021, 2786.387
330.2842, 2804.999
330.7663, 2797.328
331.2484, 2748.681
331.7306, 2705.854
332.2127, 2705.293
332.6948, 2727.268
333.1769, 2739.077
333.6590, 2724.875
334.1411, 2703.806
334.6233, 2701.503
335.1054, 2716.854
335.5875, 2721.003
336.0696, 2698.626
336.5517, 2660.304
337.0338, 2625.148
337.5160, 2591.699
337.9981, 2565.388
338.4802, 2550.595
338.9623, 2544.208
339.4444, 2541.470
339.9265, 2541.654
340.4087, 2542.228
340.8908, 2539.422
341.3729, 2531.819
341.8550, 2529.274
342.3371, 2539.814
342.8192, 2549.561
343.3014, 2548.690
343.7835, 2537.452
344.2656, 2520.240
344.7477, 2498.705
345.2298, 2474.069
345.7119, 2459.603
346.1941, 2468.665
346.6762, 2471.486
347.1583, 2458.970
347.6404, 2437.701
348.1225, 2415.680
348.6046, 2396.190
349.0868, 2378.935
349.5689, 2362.882
350.0510, 2345.267
350.5331, 2335.502
351.0152, 2344.720
351.4973, 2352.375
351.9795, 2341.701
352.4616, 2314.862
352.9437, 2289.668
353.4258, 2283.855
353.9079, 2296.144
354.3900, 2302.288
354.8722, 2297.202
355.3543, 2293.292
355.8364, 2297.446
356.3185, 2305.773
356.8006, 2312.091
357.2827, 2314.113
357.7649, 2312.753
358.2470, 2310.775
358.7291, 2308.709
359.2112, 2298.288
359.6933, 2271.100
360.1754, 2237.870
360.6576, 2212.319
361.1397, 2195.532
361.6218, 2182.187
362.1039, 2170.445
362.5860, 2160.030
363.0681, 2148.894
363.5503, 2135.831
364.0324, 2127.589
364.5145, 2134.868
364.9966, 2158.147
365.4787, 2167.429
365.9608, 2145.964
366.4430, 2123.115
366.9251, 2121.210
367.4072, 2135.382
367.8893, 2147.207
368.3714, 2146.326
368.8535, 2135.007
369.3357, 2121.737
369.8178, 2096.142
370.2999, 2081.883
370.7820, 2086.097
371.2641, 2099.670
371.7462, 2117.211
372.2284, 2135.850
372.7105, 2149.677
373.1926, 2149.473
373.6747, 2130.795
374.1568, 2118.067
374.6389, 2113.769
375.1211, 2113.295
375.6032, 2119.374
376.0853, 2127.976
376.5674, 2131.048
377.0495, 2123.131
377.5316, 2107.187
378.0138, 2090.039
378.4959, 2069.320
378.9780, 2053.953
379.4601, 2046.667
379.9422, 2046.699
380.4243, 2058.140
380.9065, 2083.841
381.3886, 2104.071
381.8707, 2098.166
382.3528, 2072.791
382.8349, 2054.629
383.3170, 2049.542
383.7992, 2049.532
384.2813, 2046.973
384.7634, 2042.426
385.2455, 2040.073
385.7276, 2047.988
386.2097, 2052.836
386.6919, 2038.248
387.1740, 2008.223
387.6561, 1984.671
388.1382, 1980.658
388.6203, 1990.440
389.1024, 1993.388
389.5846, 1976.273
390.0667, 1969.984
390.5488, 1989.680
391.0309, 2015.535
391.5130, 2024.839
391.9951, 2013.984
392.4773, 1998.755
392.9594, 1997.793
393.4415, 2013.232
393.9236, 2029.351
394.4057, 2053.563
394.8878, 2070.717
395.3700, 2074.177
395.8521, 2067.180
396.3342, 2053.683
396.8163, 2033.258
397.2984, 2013.968
397.7805, 2017.209
398.2627, 2050.770
398.7448, 2076.513
399.2269, 2081.809
399.7090, 2076.263
400.1911, 2063.156
400.6732, 2042.933
401.1554, 2028.239
401.6375, 2035.337
402.1196, 2053.151
402.6017, 2050.621
403.0838, 2020.744
403.5659, 1990.440
404.0481, 1980.018
404.5302, 1987.261
405.0123, 1996.099
405.4944, 2004.686
405.9765, 2015.818
406.4586, 2035.896
406.9408, 2059.531
407.4229, 2073.853
407.9050, 2073.554
408.3871, 2064.091
408.8692, 2054.165
409.3513, 2037.074
409.8335, 2035.219
410.3156, 2058.954
410.7977, 2088.556
411.2798, 2115.802
411.7619, 2137.710
412.2440, 2150.009
412.7262, 2146.620
413.2083, 2132.218
413.6904, 2137.836
414.1725, 2173.250
414.6546, 2213.305
415.1367, 2260.591
415.6189, 2304.652
416.1010, 2334.618
416.5831, 2347.479
417.0652, 2351.646
417.5473, 2350.696
418.0294, 2346.155
418.5116, 2352.991
418.9937, 2378.287
419.4758, 2405.637
419.9579, 2414.488
420.4400, 2412.687
420.9221, 2427.741
421.4043, 2479.854
421.8864, 2540.263
422.3685, 2591.828
422.8506, 2632.552
423.3327, 2653.148
423.8148, 2645.935
424.2970, 2623.955
424.7791, 2615.186
425.2612, 2627.062
425.7433, 2637.726
426.2254, 2639.581
426.7076, 2644.392
427.1897, 2666.475
427.6718, 2702.956
428.1539, 2736.593
428.6360, 2754.167
429.1181, 2756.075
429.6003, 2747.646
430.0824, 2719.270
430.5645, 2693.994
431.0466, 2670.103
431.5287, 2654.384
432.0108, 2658.254
432.4930, 2684.652
432.9751, 2713.497
433.4572, 2720.998
433.9393, 2708.782
434.4214, 2698.109
434.9035, 2690.491
435.3857, 2686.315
435.8678, 2690.531
436.3499, 2699.010
436.8320, 2698.966
437.3141, 2675.123
437.7962, 2651.430
438.2784, 2652.117
438.7605, 2671.231
439.2426, 2684.352
439.7247, 2680.472
440.2068, 2669.264
440.6889, 2668.024
441.1711, 2677.894
441.6532, 2696.588
442.1353, 2741.783
442.6174, 2781.873
443.0995, 2785.397
443.5816, 2760.692
444.0638, 2743.315
444.5459, 2759.932
445.0280, 2803.493
445.5101, 2839.552
445.9922, 2874.059
446.4743, 2889.315
446.9564, 2853.993
447.4385, 2818.222
447.9207, 2831.934
448.4028, 2901.192
448.8849, 2977.561
449.3670, 3016.831
449.8491, 3027.839
450.3312, 3050.377
450.8134, 3090.255
451.2955, 3130.938
451.7776, 3164.257
452.2597, 3190.095
452.7418, 3207.784
453.2239, 3206.986
453.7061, 3211.755
454.1882, 3240.792
454.6703, 3283.522
455.1524, 3316.785
455.6345, 3333.746
456.1166, 3350.613
456.5988, 3389.433
457.0809, 3457.852
457.5630, 3511.941
458.0451, 3548.510
458.5272, 3576.455
459.0093, 3590.564
459.4915, 3600.189
459.9736, 3621.975
460.4557, 3664.474
460.9378, 3716.128
461.4199, 3753.605
461.9020, 3773.393
462.3842, 3795.598
462.8663, 3826.290
463.3484, 3857.002
463.8305, 3887.016
464.3126, 3913.628
464.7947, 3926.420
465.2769, 3904.542
465.7590, 3874.834
466.2411, 3879.498
466.7232, 3916.291
467.2053, 3944.948
467.6874, 3944.071
468.1696, 3929.456
468.6517, 3936.893
469.1338, 3975.578
469.6159, 4007.826
470.0980, 4017.385
470.5801, 4026.188
471.0623, 4057.290
471.5444, 4107.557
472.0265, 4155.040
472.5086, 4182.648
472.9907, 4194.536
473.4728, 4212.543
473.9550, 4240.021
474.4371, 4268.399
474.9192, 4282.898
475.4013, 4306.227
475.8834, 4367.465
476.3655, 4466.295
476.8477, 4558.844
477.3298, 4598.770
477.8119, 4603.675
478.2940, 4636.270
478.7761, 4704.160
479.2582, 4775.232
479.7404, 4835.017
480.2225, 4883.750
480.7046, 4921.884
481.1867, 4940.321
481.6688, 4965.701
482.1509, 5013.789
482.6331, 5072.699
483.1152, 5129.466
483.5973, 5180.392
484.0794, 5220.676
484.5615, 5242.874
485.0436, 5246.892
485.5258, 5266.095
486.0079, 5324.862
486.4900, 5370.804
486.9721, 5391.673
487.4542, 5396.535
487.9363, 5398.082
488.4185, 5399.235
488.9006, 5388.127
489.3827, 5350.506
489.8648, 5287.616
490.3469, 5210.388
490.8290, 5109.312
491.3112, 5014.952
491.7933, 4953.777
492.2754, 4912.894
492.7575, 4868.101
493.2396, 4820.850
493.7217, 4761.389
494.2039, 4673.454
494.6860, 4571.768
495.1681, 4486.905
495.6502, 4426.398
496.1323, 4365.189
496.6144, 4275.279
497.0966, 4152.580
497.5787, 4042.588
498.0608, 3951.134
498.5429, 3864.775
499.0250, 3783.422
499.5071, 3704.023
499.9893, 3623.913
500.4714, 3542.130
500.9535, 3459.193
501.4356, 3375.693
501.9177, 3291.570
502.3998, 3202.373
502.8820, 3099.654
503.3641, 3006.536
503.8462, 2943.165
504.3283, 2899.398
504.8104, 2856.515
505.2925, 2813.432
505.7747, 2766.999
506.2568, 2712.771
506.7389, 2654.017
507.2210, 2593.938
507.7031, 2533.682
508.1852, 2480.736
508.6674, 2445.676
509.1495, 2430.835
509.6316, 2404.775
510.1137, 2353.233
510.5958, 2307.382
511.0779, 2286.968
511.5601, 2271.863
512.0422, 2229.320
512.5243, 2150.648
513.0064, 2074.196
513.4885, 2053.057
513.9706, 2082.728
514.4528, 2092.515
514.9349, 2071.329
515.4170, 2044.963
515.8991, 2027.972
516.3812, 2017.779
516.8633, 2010.242
517.3455, 2009.321
517.8276, 2003.674
518.3097, 1982.466
518.7918, 1954.341
519.2739, 1934.233
519.7560, 1924.760
520.2382, 1917.365
520.7203, 1903.317
521.2024, 1882.723
521.6845, 1867.607
522.1666, 1862.808
522.6487, 1858.111
523.1309, 1852.470
523.6130, 1845.830
524.0951, 1837.751
524.5772, 1828.300
525.0593, 1818.857
525.5414, 1811.772
526.0236, 1805.947
526.5057, 1793.924
526.9878, 1772.090
527.4699, 1759.906
527.9520, 1776.873
528.4341, 1807.741
528.9163, 1813.201
529.3984, 1778.290
529.8805, 1751.385
530.3626, 1755.342
530.8447, 1769.802
531.3268, 1773.037
531.8090, 1763.602
532.2911, 1752.597
532.7732, 1749.029
533.2553, 1750.161
533.7374, 1740.662
534.2195, 1708.187
534.7017, 1688.607
535.1838, 1698.759
535.6659, 1714.457
536.1480, 1718.777
536.6301, 1710.958
537.1122, 1699.691
537.5944, 1681.724
538.0765, 1667.455
538.5586, 1679.755
539.0407, 1717.257
539.5228, 1750.181
540.0049, 1766.065
540.4871, 1771.469
540.9692, 1778.678
541.4513, 1791.319
541.9334, 1794.312
542.4155, 1779.058
542.8976, 1761.330
543.3798, 1746.823
543.8619, 1738.000
544.3440, 1739.596
544.8261, 1754.638
545.3082, 1774.851
545.7903, 1783.226
546.2725, 1777.376
546.7546, 1776.521
547.2367, 1783.540
547.7188, 1795.227
548.2009, 1811.378
548.6830, 1830.272
549.1652, 1847.090
549.6473, 1859.623
550.1294, 1870.842
550.6115, 1884.472
551.0936, 1897.932
551.5757, 1904.773
552.0579, 1903.421
552.5400, 1899.664
553.0221, 1899.164
553.5042, 1901.883
553.9863, 1908.618
554.4684, 1919.809
554.9506, 1934.866
555.4327, 1961.330
555.9148, 1987.587
556.3969, 1999.383
556.8790, 1994.519
557.3611, 1986.986
557.8433, 1989.564
558.3254, 1998.761
558.8075, 2002.071
559.2896, 1997.850
559.7717, 2000.332
560.2538, 2020.827
560.7360, 2049.990
561.2181, 2064.695
561.7002, 2063.188
562.1823, 2054.647
562.6644, 2027.315
563.1465, 2003.887
563.6287, 2011.634
564.1108, 2040.101
564.5929, 2054.549
565.0750, 2033.926
565.5571, 1991.676
566.0392, 1957.051
566.5214, 1931.230
567.0035, 1907.522
567.4856, 1883.765
567.9677, 1863.613
568.4498, 1850.074
568.9319, 1842.022
569.4141, 1835.644
569.8962, 1828.310
570.3783, 1824.177
570.8604, 1830.353
571.3425, 1841.156
571.8246, 1843.794
572.3068, 1835.253
572.7889, 1824.274
573.2710, 1820.971
573.7531, 1825.615
574.2352, 1819.959
574.7173, 1791.293
575.1995, 1769.199
575.6816, 1766.235
576.1637, 1767.886
576.6458, 1757.066
577.1279, 1732.180
577.6100, 1710.966
578.0922, 1712.957
578.5743, 1725.032
579.0564, 1717.504
579.5385, 1690.306
580.0206, 1668.462
580.5027, 1664.290
580.9849, 1670.560
581.4670, 1673.903
581.9491, 1674.765
582.4312, 1670.901
582.9133, 1662.485
583.3954, 1649.166
583.8776, 1622.103
584.3597, 1591.672
584.8418, 1578.492
585.3239, 1592.310
585.8060, 1616.281
586.2881, 1629.762
586.7703, 1632.784
587.2524, 1623.412
587.7345, 1595.379
588.2166, 1571.040
588.6987, 1567.041
589.1808, 1578.825
589.6630, 1589.560
590.1451, 1601.712
590.6272, 1608.251
591.1093, 1607.039
591.5914, 1599.210
592.0735, 1581.440
592.5557, 1556.895
593.0378, 1537.951
593.5199, 1534.346
594.0020, 1541.204
594.4841, 1542.594
594.9662, 1537.131
595.4484, 1531.383
595.9305, 1527.924
596.4126, 1523.007
596.8947, 1509.736
597.3768, 1491.284
597.8589, 1483.015
598.3411, 1497.607
598.8232, 1515.460
599.3053, 1522.342
599.7874, 1522.967
600.2695, 1527.762
600.7516, 1539.046
601.2338, 1549.036
601.7159, 1549.337
602.1980, 1540.146
602.6801, 1530.265
603.1622, 1519.477
603.6443, 1508.472
604.1265, 1494.560
604.6086, 1482.337
605.0907, 1476.696
605.5728, 1477.769
606.0549, 1480.251
606.5370, 1483.556
607.0192, 1485.321
607.5013, 1481.347
607.9834, 1472.795
608.4655, 1464.930
608.9476, 1459.698
609.4297, 1456.299
609.9119, 1453.034
610.3940, 1448.493
610.8761, 1450.973
611.3582, 1480.589
611.8403, 1494.334
612.3224, 1463.812
612.8046, 1418.179
613.2867, 1394.429
613.7688, 1401.466
614.2509, 1419.317
