##NAMES=Offretite
##RRUFFID=R060767
##IDEAL CHEMISTRY=KCaMg(Si_13_Al_5_)O_36_&#183;15H_2_O
##LOCALITY=Vinarice, Kladno, Czech Republic
##OWNER=RRUFF
##SOURCE=Michael Scott
##DESCRIPTION=Colorless elongated hexagonal prisms
##STATUS=The identification of this mineral is confirmed by single-crystal X-ray diffraction and chemical analysis.
##URL=rruff.info/R060767
##MEASURED CHEMISTRY=(K_0.96_[box]_0.04_)_Σ=1_Ca_1.00_(Mg_0.95_Fe^2+^_0.05_)_Σ=1_Si_13.04_Al_4.96_O_36_·15H_2_O
196.2508, 1425.360
196.7329, 1419.518
197.2150, 1415.075
197.6971, 1412.037
198.1792, 1410.478
198.6613, 1411.919
199.1435, 1416.638
199.6256, 1416.554
200.1077, 1409.964
200.5898, 1399.795
201.0719, 1391.942
201.5540, 1386.365
202.0362, 1383.173
202.5183, 1383.329
203.0004, 1387.346
203.4825, 1389.625
203.9646, 1388.882
204.4467, 1386.332
204.9289, 1387.026
205.4110, 1392.482
205.8931, 1396.512
206.3752, 1393.201
206.8573, 1380.351
207.3394, 1371.474
207.8215, 1369.053
208.3037, 1372.174
208.7858, 1376.237
209.2679, 1382.666
209.7500, 1387.248
210.2321, 1384.682
210.7142, 1371.645
211.1964, 1364.487
211.6785, 1368.710
212.1606, 1383.249
212.6427, 1389.845
213.1248, 1386.537
213.6069, 1378.553
214.0891, 1369.762
214.5712, 1358.205
215.0533, 1351.361
215.5354, 1351.976
216.0175, 1360.291
216.4996, 1367.824
216.9818, 1374.641
217.4639, 1380.267
217.9460, 1384.002
218.4281, 1385.477
218.9102, 1385.667
219.3923, 1384.499
219.8745, 1381.725
220.3566, 1379.433
220.8387, 1377.669
221.3208, 1376.417
221.8029, 1375.822
222.2850, 1376.577
222.7672, 1376.709
223.2493, 1375.261
223.7314, 1371.469
224.2135, 1369.833
224.6956, 1372.445
225.1777, 1375.946
225.6599, 1373.222
226.1420, 1358.339
226.6241, 1347.717
227.1062, 1349.065
227.5883, 1368.785
228.0704, 1381.115
228.5526, 1384.458
229.0347, 1381.047
229.5168, 1375.043
229.9989, 1362.967
230.4810, 1353.549
230.9631, 1351.283
231.4453, 1361.607
231.9274, 1366.509
232.4095, 1364.461
232.8916, 1357.355
233.3737, 1349.640
233.8558, 1338.786
234.3380, 1331.032
234.8201, 1330.474
235.3022, 1344.323
235.7843, 1349.289
236.2664, 1339.121
236.7485, 1319.816
237.2307, 1314.291
237.7128, 1331.774
238.1949, 1350.392
238.6770, 1358.263
239.1591, 1349.870
239.6412, 1342.169
240.1234, 1335.172
240.6055, 1329.359
241.0876, 1326.955
241.5697, 1328.674
242.0518, 1332.824
242.5339, 1339.090
243.0161, 1350.575
243.4982, 1357.587
243.9803, 1358.076
244.4624, 1353.117
244.9445, 1348.879
245.4266, 1345.417
245.9087, 1342.552
246.3909, 1340.140
246.8730, 1337.979
247.3551, 1336.689
247.8372, 1337.135
248.3193, 1338.807
248.8014, 1337.187
249.2836, 1328.870
249.7657, 1321.741
250.2478, 1322.222
250.7299, 1335.657
251.2120, 1345.482
251.6941, 1350.302
252.1763, 1350.146
252.6584, 1343.689
253.1405, 1325.343
253.6226, 1308.217
254.1047, 1303.824
254.5868, 1320.420
255.0690, 1330.684
255.5511, 1328.563
256.0332, 1315.497
256.5153, 1307.984
256.9974, 1307.982
257.4795, 1310.928
257.9616, 1313.435
258.4438, 1315.591
258.9259, 1316.853
259.4080, 1316.489
259.8901, 1314.726
260.3722, 1315.249
260.8543, 1318.961
261.3365, 1323.604
261.8186, 1327.206
262.3007, 1329.036
262.7828, 1332.011
263.2649, 1338.074
263.7470, 1346.510
264.2292, 1348.244
264.7113, 1340.772
265.1934, 1330.502
265.6755, 1322.803
266.1576, 1317.445
266.6397, 1315.527
267.1219, 1318.370
267.6040, 1325.457
268.0861, 1330.737
268.5682, 1334.854
269.0503, 1336.142
269.5324, 1331.501
270.0146, 1318.337
270.4967, 1310.131
270.9788, 1311.682
271.4609, 1321.355
271.9430, 1322.755
272.4251, 1312.734
272.9073, 1301.615
273.3894, 1300.075
273.8715, 1309.841
274.3536, 1319.179
274.8357, 1326.010
275.3178, 1330.490
275.8000, 1334.026
276.2821, 1336.643
276.7642, 1338.169
277.2463, 1338.422
277.7284, 1337.354
278.2105, 1335.035
278.6927, 1330.820
279.1748, 1325.339
279.6569, 1322.110
280.1390, 1321.499
280.6211, 1321.678
281.1032, 1320.524
281.5854, 1317.948
282.0675, 1317.181
282.5496, 1319.517
283.0317, 1324.064
283.5138, 1327.909
283.9959, 1331.308
284.4781, 1332.663
284.9602, 1329.048
285.4423, 1320.638
285.9244, 1314.637
286.4065, 1312.585
286.8886, 1313.815
287.3708, 1317.658
287.8529, 1324.488
288.3350, 1330.017
288.8171, 1327.926
289.2992, 1319.624
289.7813, 1317.386
290.2635, 1326.085
290.7456, 1340.414
291.2277, 1349.171
291.7098, 1352.329
292.1919, 1351.239
292.6740, 1344.121
293.1561, 1332.852
293.6382, 1325.422
294.1204, 1324.199
294.6025, 1327.089
295.0846, 1330.562
295.5667, 1334.690
296.0488, 1340.382
296.5309, 1352.489
297.0131, 1367.033
297.4952, 1371.369
297.9773, 1358.078
298.4594, 1340.621
298.9415, 1339.951
299.4236, 1354.206
299.9058, 1370.669
300.3879, 1380.433
300.8700, 1385.989
301.3521, 1392.037
301.8342, 1400.284
302.3163, 1407.826
302.7985, 1408.235
303.2806, 1403.724
303.7627, 1404.152
304.2448, 1421.615
304.7269, 1446.114
305.2090, 1463.375
305.6912, 1469.688
306.1733, 1470.730
306.6554, 1469.724
307.1375, 1467.295
307.6196, 1465.380
308.1017, 1465.161
308.5839, 1466.020
309.0660, 1467.238
309.5481, 1468.561
310.0302, 1470.793
310.5123, 1474.604
310.9944, 1479.793
311.4766, 1485.799
311.9587, 1496.887
312.4408, 1505.949
312.9229, 1504.871
313.4050, 1488.689
313.8871, 1476.964
314.3693, 1486.228
314.8514, 1506.264
315.3335, 1519.005
315.8156, 1512.855
316.2977, 1500.676
316.7798, 1488.507
317.2620, 1476.648
317.7441, 1466.786
318.2262, 1459.030
318.7083, 1453.705
319.1904, 1451.249
319.6725, 1452.797
320.1547, 1456.398
320.6368, 1463.770
321.1189, 1476.862
321.6010, 1481.642
322.0831, 1466.331
322.5652, 1444.168
323.0474, 1429.553
323.5295, 1428.102
324.0116, 1431.498
324.4937, 1440.521
324.9758, 1456.251
325.4579, 1465.151
325.9401, 1461.456
326.4222, 1452.351
326.9043, 1443.918
327.3864, 1432.966
327.8685, 1426.488
328.3506, 1428.541
328.8328, 1439.142
329.3149, 1443.019
329.7970, 1434.713
330.2791, 1423.761
330.7612, 1416.615
331.2433, 1413.326
331.7254, 1414.189
332.2076, 1423.228
332.6897, 1438.336
333.1718, 1441.196
333.6539, 1424.428
334.1360, 1404.561
334.6181, 1391.520
335.1003, 1387.333
335.5824, 1385.612
336.0645, 1387.551
336.5466, 1391.320
337.0287, 1389.676
337.5108, 1379.726
337.9930, 1370.509
338.4751, 1367.440
338.9572, 1371.853
339.4393, 1375.223
339.9214, 1377.365
340.4035, 1377.974
340.8857, 1376.021
341.3678, 1371.122
341.8499, 1365.720
342.3320, 1361.114
342.8141, 1357.272
343.2962, 1353.249
343.7784, 1349.320
344.2605, 1344.563
344.7426, 1335.139
345.2247, 1321.242
345.7068, 1312.464
346.1889, 1316.157
346.6711, 1329.081
347.1532, 1338.376
347.6353, 1344.002
348.1174, 1345.599
348.5995, 1339.694
349.0816, 1328.249
349.5638, 1320.197
350.0459, 1320.601
350.5280, 1325.801
351.0101, 1331.121
351.4922, 1336.496
351.9743, 1337.306
352.4565, 1325.096
352.9386, 1305.626
353.4207, 1290.482
353.9028, 1285.075
354.3849, 1283.911
354.8670, 1282.115
355.3492, 1279.727
355.8313, 1276.845
356.3134, 1272.815
356.7955, 1268.646
357.2776, 1265.403
357.7597, 1262.929
358.2419, 1262.208
358.7240, 1267.819
359.2061, 1276.524
359.6882, 1278.397
360.1703, 1260.693
360.6524, 1239.501
361.1346, 1225.911
361.6167, 1223.211
362.0988, 1225.092
362.5809, 1233.672
363.0630, 1244.860
363.5451, 1251.190
364.0273, 1249.789
364.5094, 1243.689
364.9915, 1231.658
365.4736, 1209.919
365.9557, 1196.635
366.4378, 1201.786
366.9200, 1214.542
367.4021, 1221.849
367.8842, 1217.794
368.3663, 1213.034
368.8484, 1209.065
369.3305, 1205.702
369.8126, 1205.085
370.2947, 1209.815
370.7769, 1215.392
371.2590, 1218.124
371.7411, 1217.112
372.2232, 1214.366
372.7053, 1207.481
373.1874, 1197.935
373.6696, 1199.458
374.1517, 1218.810
374.6338, 1238.054
375.1159, 1244.522
375.5980, 1234.967
376.0801, 1224.949
376.5623, 1214.494
377.0444, 1205.282
377.5265, 1203.729
378.0086, 1211.723
378.4907, 1218.141
378.9728, 1214.022
379.4550, 1199.706
379.9371, 1196.014
380.4192, 1206.216
380.9013, 1220.721
381.3834, 1224.523
381.8655, 1218.245
382.3477, 1212.056
382.8298, 1212.404
383.3119, 1216.141
383.7940, 1211.711
384.2761, 1198.355
384.7582, 1186.350
385.2404, 1187.941
385.7225, 1199.274
386.2046, 1210.406
386.6867, 1219.185
387.1688, 1225.042
387.6509, 1225.900
388.1331, 1222.259
388.6152, 1218.096
389.0973, 1216.321
389.5794, 1215.547
390.0615, 1213.832
390.5436, 1209.420
391.0258, 1206.169
391.5079, 1208.629
391.9900, 1214.566
392.4721, 1217.912
392.9542, 1214.618
393.4363, 1208.700
393.9185, 1201.602
394.4006, 1191.542
394.8827, 1186.660
395.3648, 1194.899
395.8469, 1208.846
396.3290, 1217.524
396.8112, 1212.951
397.2933, 1207.962
397.7754, 1206.875
398.2575, 1210.452
398.7396, 1213.234
399.2217, 1211.730
399.7039, 1210.987
400.1860, 1215.674
400.6681, 1237.823
401.1502, 1248.025
401.6323, 1235.401
402.1144, 1204.781
402.5966, 1193.330
403.0787, 1211.815
403.5608, 1233.679
404.0429, 1242.434
404.5250, 1233.454
405.0071, 1227.420
405.4893, 1225.715
405.9713, 1227.364
406.4535, 1230.305
406.9356, 1234.480
407.4177, 1240.242
407.8998, 1250.504
408.3819, 1264.474
408.8640, 1266.800
409.3462, 1254.587
409.8283, 1241.246
410.3104, 1246.624
410.7925, 1267.653
411.2746, 1283.872
411.7567, 1284.567
412.2389, 1277.906
412.7210, 1281.479
413.2031, 1295.003
413.6852, 1307.946
414.1673, 1307.666
414.6494, 1302.160
415.1316, 1306.151
415.6137, 1327.010
416.0958, 1351.433
416.5779, 1369.219
417.0600, 1381.354
417.5421, 1390.386
418.0243, 1394.360
418.5064, 1398.110
418.9885, 1405.664
419.4706, 1418.232
419.9527, 1431.563
420.4348, 1445.538
420.9170, 1458.726
421.3991, 1468.933
421.8812, 1471.136
422.3633, 1474.606
422.8454, 1484.229
423.3275, 1500.572
423.8097, 1512.038
424.2918, 1511.349
424.7739, 1509.125
425.2560, 1513.137
425.7381, 1533.940
426.2202, 1545.853
426.7024, 1542.490
427.1845, 1528.853
427.6666, 1524.181
428.1487, 1533.094
428.6308, 1543.205
429.1129, 1548.526
429.5951, 1547.385
430.0772, 1548.889
430.5593, 1553.714
431.0414, 1560.122
431.5235, 1566.769
432.0056, 1574.171
432.4878, 1576.338
432.9699, 1568.439
433.4520, 1553.756
433.9341, 1547.130
434.4162, 1549.043
434.8983, 1553.665
435.3805, 1554.396
435.8626, 1553.275
436.3447, 1558.091
436.8268, 1573.481
437.3089, 1590.652
437.7910, 1597.487
438.2732, 1595.915
438.7553, 1593.615
439.2374, 1594.632
439.7195, 1597.477
440.2016, 1600.936
440.6837, 1605.065
441.1659, 1608.562
441.6480, 1606.388
442.1301, 1604.037
442.6122, 1609.154
443.0943, 1633.287
443.5764, 1657.260
444.0585, 1671.725
444.5406, 1677.105
445.0228, 1685.164
445.5049, 1699.504
445.9870, 1716.969
446.4691, 1735.432
446.9512, 1763.195
447.4333, 1781.243
447.9155, 1781.416
448.3976, 1772.187
448.8797, 1775.053
449.3618, 1794.339
449.8439, 1819.414
450.3260, 1849.154
450.8082, 1885.967
451.2903, 1909.401
451.7724, 1914.653
452.2545, 1913.896
452.7366, 1919.791
453.2188, 1932.448
453.7009, 1951.407
454.1830, 1979.448
454.6651, 2012.194
455.1472, 2037.185
455.6293, 2054.114
456.1115, 2066.758
456.5936, 2073.824
457.0757, 2078.450
457.5578, 2091.551
458.0399, 2116.728
458.5220, 2142.423
459.0042, 2153.155
459.4863, 2154.063
459.9684, 2158.566
460.4505, 2176.537
460.9326, 2198.750
461.4147, 2217.460
461.8969, 2232.485
462.3790, 2244.544
462.8611, 2249.106
463.3432, 2253.137
463.8253, 2263.169
464.3074, 2287.611
464.7896, 2309.683
465.2717, 2324.521
465.7538, 2333.121
466.2359, 2337.958
466.7180, 2332.634
467.2001, 2329.702
467.6823, 2333.613
468.1644, 2344.954
468.6465, 2361.037
469.1286, 2386.275
469.6107, 2412.677
470.0928, 2432.448
470.5750, 2445.458
471.0571, 2451.324
471.5392, 2446.932
472.0213, 2435.409
472.5034, 2431.056
472.9855, 2434.094
473.4677, 2443.411
473.9498, 2459.232
474.4319, 2481.253
474.9140, 2507.280
475.3961, 2538.272
475.8782, 2569.673
476.3604, 2594.977
476.8425, 2615.377
477.3246, 2635.004
477.8067, 2656.476
478.2888, 2678.072
478.7709, 2697.185
479.2531, 2714.022
479.7352, 2730.530
480.2173, 2746.216
480.6994, 2763.118
481.1815, 2783.414
481.6636, 2808.976
482.1457, 2835.456
482.6278, 2863.237
483.1100, 2890.036
483.5921, 2911.206
484.0742, 2924.705
484.5563, 2932.807
485.0384, 2936.078
485.5205, 2934.668
486.0027, 2927.613
486.4848, 2907.551
486.9669, 2887.242
487.4490, 2877.420
487.9311, 2886.357
488.4132, 2889.595
488.8954, 2886.295
489.3775, 2875.558
489.8596, 2852.499
490.3417, 2814.746
490.8238, 2774.988
491.3059, 2737.826
491.7881, 2703.671
492.2702, 2674.814
492.7523, 2652.212
493.2344, 2630.992
493.7165, 2608.502
494.1986, 2583.472
494.6808, 2550.798
495.1629, 2507.350
495.6450, 2457.992
496.1271, 2406.921
496.6092, 2355.230
497.0913, 2307.595
497.5735, 2267.912
498.0556, 2232.814
498.5377, 2202.650
499.0198, 2179.296
499.5019, 2148.317
499.9840, 2093.881
500.4662, 2030.688
500.9483, 1976.757
501.4304, 1939.233
501.9125, 1907.040
502.3946, 1881.164
502.8767, 1859.922
503.3589, 1832.942
503.8410, 1794.110
504.3231, 1755.424
504.8052, 1722.230
505.2873, 1694.261
505.7694, 1673.057
506.2516, 1662.519
506.7337, 1653.699
507.2158, 1632.670
507.6979, 1597.317
508.1800, 1564.606
508.6621, 1539.084
509.1443, 1519.269
509.6264, 1499.808
510.1085, 1480.731
510.5906, 1465.992
511.0727, 1463.993
511.5548, 1467.721
512.0369, 1460.146
512.5190, 1438.130
513.0012, 1412.319
513.4833, 1387.026
513.9654, 1365.497
514.4475, 1353.273
514.9296, 1364.111
515.4117, 1374.710
515.8939, 1369.638
516.3760, 1351.330
516.8581, 1335.172
517.3402, 1329.387
517.8223, 1324.835
518.3044, 1315.557
518.7866, 1294.668
519.2687, 1282.829
519.7508, 1287.944
520.2329, 1299.096
520.7150, 1302.195
521.1971, 1293.182
521.6793, 1284.581
522.1614, 1278.787
522.6435, 1275.388
523.1256, 1272.451
523.6077, 1270.316
524.0898, 1267.197
524.5720, 1261.855
525.0541, 1254.472
525.5362, 1245.181
526.0183, 1233.172
526.5004, 1222.967
526.9825, 1219.915
527.4647, 1223.126
527.9468, 1230.807
528.4289, 1249.195
528.9110, 1265.040
529.3931, 1259.366
529.8752, 1237.255
530.3574, 1220.351
530.8395, 1225.144
531.3216, 1236.214
531.8037, 1244.050
532.2858, 1248.211
532.7679, 1245.915
533.2501, 1227.311
533.7322, 1205.791
534.2143, 1195.972
534.6964, 1207.599
535.1785, 1220.596
535.6606, 1236.461
536.1428, 1252.432
536.6249, 1255.114
537.1070, 1237.956
537.5891, 1221.897
538.0712, 1218.518
538.5533, 1228.588
539.0355, 1230.943
539.5176, 1223.625
539.9997, 1216.045
540.4818, 1220.447
540.9639, 1234.437
541.4460, 1247.261
541.9282, 1256.568
542.4103, 1262.774
542.8924, 1264.748
543.3745, 1263.674
543.8566, 1263.631
544.3387, 1269.441
544.8209, 1275.369
545.3030, 1275.061
545.7851, 1267.685
546.2672, 1264.126
546.7493, 1273.538
547.2314, 1286.200
547.7136, 1294.183
548.1957, 1289.484
548.6778, 1288.244
549.1599, 1291.629
549.6420, 1299.274
550.1241, 1311.423
550.6063, 1332.801
551.0884, 1350.128
551.5705, 1358.416
552.0526, 1358.212
552.5347, 1360.687
553.0168, 1366.923
553.4990, 1371.597
553.9811, 1367.970
554.4632, 1357.761
554.9453, 1353.260
555.4274, 1356.153
555.9095, 1364.182
556.3917, 1376.736
556.8738, 1392.410
557.3559, 1407.606
557.8380, 1423.538
558.3201, 1436.292
558.8022, 1439.943
559.2844, 1436.336
559.7665, 1435.335
560.2486, 1448.382
560.7307, 1460.165
561.2128, 1460.234
561.6949, 1442.690
562.1771, 1427.673
562.6592, 1417.497
563.1413, 1411.088
563.6234, 1407.955
564.1055, 1410.528
564.5876, 1411.321
565.0698, 1408.596
565.5519, 1403.698
566.0340, 1402.174
566.5161, 1405.375
566.9982, 1404.570
567.4803, 1391.145
567.9625, 1369.139
568.4446, 1360.425
568.9267, 1365.669
569.4088, 1374.352
569.8909, 1381.613
570.3730, 1384.696
570.8552, 1376.421
571.3373, 1350.535
571.8194, 1324.798
572.3015, 1312.614
572.7836, 1309.756
573.2657, 1308.303
573.7479, 1306.289
574.2300, 1304.266
574.7121, 1303.460
575.1942, 1303.652
575.6763, 1300.504
576.1584, 1288.652
576.6405, 1278.214
577.1226, 1275.392
577.6047, 1286.393
578.0869, 1282.687
578.5690, 1256.818
579.0511, 1227.248
579.5332, 1219.832
580.0153, 1235.461
580.4974, 1246.601
580.9796, 1247.084
581.4617, 1240.023
581.9438, 1227.374
582.4259, 1210.650
582.9080, 1199.850
583.3901, 1206.760
583.8723, 1218.878
584.3544, 1220.407
584.8365, 1211.108
585.3186, 1202.605
585.8007, 1202.545
586.2828, 1205.642
586.7650, 1207.912
587.2471, 1210.379
587.7292, 1208.578
588.2113, 1197.702
588.6934, 1183.253
589.1755, 1173.717
589.6577, 1172.471
590.1398, 1170.327
590.6219, 1164.033
591.1040, 1155.471
591.5861, 1154.536
592.0682, 1162.606
592.5504, 1171.933
593.0325, 1180.025
593.5146, 1186.148
593.9967, 1185.395
594.4788, 1177.379
594.9609, 1165.494
595.4431, 1148.376
595.9252, 1130.447
596.4073, 1119.798
596.8894, 1119.529
597.3715, 1124.700
597.8536, 1136.822
598.3358, 1151.475
598.8179, 1160.149
599.3000, 1157.026
599.7821, 1150.647
600.2642, 1141.771
600.7463, 1130.782
601.2285, 1124.396
601.7106, 1125.147
602.1927, 1127.439
602.6748, 1128.739
603.1569, 1128.897
603.6390, 1128.975
604.1212, 1128.954
604.6033, 1128.882
605.0854, 1128.743
605.5675, 1128.558
606.0496, 1128.743
606.5317, 1129.759
607.0139, 1130.375
607.4960, 1127.716
607.9781, 1123.086
608.4602, 1120.307
608.9423, 1121.822
609.4244, 1125.345
609.9066, 1130.124
610.3887, 1135.797
610.8708, 1140.371
611.3529, 1142.750
611.8350, 1144.069
612.3171, 1145.401
612.7993, 1148.440
613.2814, 1146.503
613.7635, 1135.237
614.2456, 1123.050
614.7277, 1119.246
615.2098, 1126.208
615.6920, 1130.743
616.1741, 1130.745
616.6562, 1127.952
617.1383, 1125.584
617.6204, 1123.581
618.1025, 1121.145
618.5847, 1115.586
619.0668, 1110.770
619.5489, 1113.893
620.0310, 1123.889
620.5131, 1134.235
620.9952, 1143.486
621.4774, 1149.647
621.9595, 1149.783
622.4416, 1142.001
622.9237, 1136.319
623.4058, 1135.408
623.8879, 1137.690
624.3701, 1142.398
624.8522, 1157.693
625.3343, 1160.133
625.8164, 1141.283
626.2985, 1114.114
626.7806, 1105.278
627.2628, 1117.667
627.7449, 1128.181
628.2270, 1128.671
628.7091, 1122.681
629.1912, 1119.586
629.6733, 1119.178
630.1555, 1119.130
630.6376, 1119.316
631.1197, 1118.329
631.6018, 1112.508
632.0839, 1101.376
632.5660, 1094.333
633.0482, 1099.731
633.5303, 1109.746
634.0124, 1117.642
634.4945, 1122.899
634.9766, 1125.088
635.4587, 1123.142
635.9409, 1118.598
636.4230, 1112.571
636.9051, 1102.368
637.3872, 1097.807
637.8693, 1102.771
638.3514, 1113.395
638.8336, 1117.570
639.3157, 1115.162
639.7978, 1113.294
640.2799, 1118.764
640.7620, 1126.547
641.2441, 1123.974
641.7263, 1111.723
642.2084, 1100.983
642.6905, 1099.276
643.1726, 1102.813
643.6547, 1109.790
644.1368, 1122.476
644.6190, 1128.855
645.1011, 1119.097
645.5832, 1103.859
646.0653, 1094.515
646.5474, 1094.968
647.0295, 1095.382
647.5117, 1094.620
647.9938, 1093.693
648.4759, 1093.930
648.9580, 1094.747
649.4401, 1101.171
649.9222, 1119.494
650.4044, 1141.635
650.8865, 1143.001
651.3686, 1125.609
651.8507, 1109.335
652.3328, 1107.119
652.8149, 1112.697
653.2970, 1121.173
653.7791, 1132.355
654.2612, 1138.861
654.7433, 1134.150
655.2255, 1125.238
655.7076, 1116.495
656.1897, 1103.665
656.6718, 1101.554
657.1539, 1121.087
657.6360, 1143.897
658.1182, 1145.873
658.6003, 1118.735
659.0824, 1101.554
659.5645, 1102.579
660.0466, 1114.458
660.5287, 1125.013
661.0109, 1133.707
661.4930, 1134.559
661.9751, 1118.607
662.4572, 1097.467
662.9393, 1086.502
663.4214, 1084.714
663.9036, 1086.782
664.3857, 1093.802
664.8678, 1100.637
665.3499, 1103.816
665.8320, 1102.606
666.3141, 1100.760
666.7963, 1098.826
667.2784, 1096.386
667.7605, 1092.694
668.2426, 1085.824
668.7247, 1083.264
669.2068, 1086.173
669.6890, 1091.365
670.1711, 1095.665
670.6532, 1098.908
671.1353, 1099.082
671.6174, 1094.795
672.0995, 1089.086
672.5817, 1085.787
673.0638, 1084.405
673.5459, 1083.705
674.0280, 1083.278
674.5101, 1083.332
674.9922, 1084.312
675.4744, 1086.065
675.9565, 1087.594
676.4386, 1089.649
676.9207, 1090.485
677.4028, 1088.638
677.8849, 1083.733
678.3671, 1083.027
678.8492, 1088.362
679.3313, 1093.479
679.8134, 1092.244
680.2955, 1085.359
680.7776, 1083.674
681.2598, 1088.347
681.7419, 1093.960
682.2240, 1094.389
682.7061, 1091.893
683.1882, 1090.851
683.6703, 1093.682
684.1525, 1095.340
684.6346, 1091.406
685.1167, 1084.772
685.5988, 1079.929
686.0809, 1080.157
686.5630, 1079.590
687.0452, 1076.330
687.5273, 1071.709
688.0094, 1069.869
688.4915, 1071.047
688.9736, 1074.394
689.4557, 1080.819
689.9379, 1088.968
690.4200, 1092.721
690.9021, 1092.208
