##NAMES=Okenite
##RRUFFID=R070602
##IDEAL CHEMISTRY=Ca_5_Si_9_O_23_&#183;9H_2_O
##LOCALITY=Poona, Maharashtra, India
##OWNER=RRUFF
##SOURCE=James Shigley
##DESCRIPTION=Mass of radiating white fibers
##STATUS=The identification of this mineral has been confirmed by single-crystal X-ray diffraction.
##URL=rruff.info/R070602
97.08893, 3171.311
97.57104, 3281.065
98.05316, 3398.581
98.53528, 3523.383
99.01740, 3653.646
99.49951, 3786.398
99.98163, 3931.208
100.4637, 4063.987
100.9459, 4173.714
101.4280, 4266.343
101.9101, 4358.615
102.3922, 4460.153
102.8743, 4445.246
103.3564, 4421.909
103.8386, 4388.150
104.3207, 4349.114
104.8028, 4303.283
105.2849, 4246.821
105.7670, 4203.762
106.2491, 4205.482
106.7313, 4227.537
107.2134, 4233.915
107.6955, 4204.099
108.1776, 4145.198
108.6597, 4085.746
109.1418, 4025.150
109.6240, 3963.534
110.1061, 3894.575
110.5882, 3822.239
111.0703, 3759.133
111.5524, 3719.209
112.0345, 3707.232
112.5167, 3697.682
112.9988, 3698.920
113.4809, 3695.416
113.9630, 3671.676
114.4451, 3625.728
114.9272, 3574.145
115.4094, 3550.621
115.8915, 3585.597
116.3736, 3610.532
116.8557, 3619.891
117.3378, 3618.813
117.8199, 3612.653
118.3021, 3604.050
118.7842, 3593.034
119.2663, 3579.711
119.7484, 3558.302
120.2305, 3540.493
120.7127, 3527.808
121.1948, 3521.309
121.6769, 3525.351
122.1590, 3547.518
122.6411, 3587.406
123.1232, 3609.704
123.6054, 3606.219
124.0875, 3589.789
124.5696, 3568.778
125.0517, 3542.803
125.5338, 3519.706
126.0159, 3509.268
126.4981, 3509.033
126.9802, 3511.927
127.4623, 3518.932
127.9444, 3527.640
128.4265, 3529.621
128.9086, 3518.179
129.3907, 3505.599
129.8729, 3504.328
130.3550, 3514.447
130.8371, 3523.358
131.3192, 3517.403
131.8013, 3493.723
132.2834, 3475.744
132.7656, 3474.723
133.2477, 3477.632
133.7298, 3477.511
134.2119, 3472.333
134.6940, 3462.771
135.1761, 3449.021
135.6583, 3425.594
136.1404, 3407.874
136.6225, 3400.065
137.1046, 3397.764
137.5867, 3396.834
138.0688, 3395.101
138.5510, 3392.680
139.0331, 3390.211
139.5152, 3399.090
139.9973, 3396.188
140.4794, 3368.148
140.9615, 3323.816
141.4437, 3281.116
141.9258, 3253.800
142.4079, 3243.332
142.8900, 3238.299
143.3721, 3246.472
143.8542, 3252.743
144.3364, 3245.735
144.8185, 3225.851
145.3006, 3205.523
145.7827, 3200.505
146.2648, 3218.656
146.7469, 3218.796
147.2291, 3180.979
147.7112, 3131.992
148.1933, 3102.894
148.6754, 3102.881
149.1575, 3116.193
149.6396, 3120.359
150.1218, 3115.996
150.6039, 3107.444
151.0860, 3090.071
151.5681, 3068.605
152.0502, 3058.470
152.5324, 3070.397
153.0145, 3090.218
153.4966, 3096.945
153.9787, 3087.488
154.4608, 3075.311
154.9429, 3072.279
155.4251, 3078.916
155.9072, 3082.742
156.3893, 3076.866
156.8714, 3066.671
157.3535, 3055.872
157.8356, 3044.543
158.3178, 3034.715
158.7999, 3029.772
159.2820, 3030.729
159.7641, 3034.497
160.2462, 3043.463
160.7283, 3053.276
161.2105, 3057.821
161.6926, 3052.046
162.1747, 3040.134
162.6568, 3040.265
163.1389, 3060.297
163.6210, 3084.228
164.1032, 3111.045
164.5853, 3138.270
165.0674, 3162.581
165.5495, 3181.505
166.0316, 3195.075
166.5137, 3204.373
166.9959, 3201.548
167.4780, 3201.729
167.9601, 3213.894
168.4422, 3234.986
168.9243, 3254.334
169.4064, 3259.968
169.8886, 3245.779
170.3707, 3241.734
170.8528, 3246.044
171.3349, 3259.358
171.8170, 3289.290
172.2991, 3333.987
172.7813, 3376.756
173.2634, 3394.222
173.7455, 3364.419
174.2276, 3354.520
174.7097, 3381.729
175.1918, 3420.703
175.6740, 3442.736
176.1561, 3438.471
176.6382, 3427.345
177.1203, 3449.112
177.6024, 3520.887
178.0845, 3580.408
178.5667, 3612.436
179.0488, 3624.678
179.5309, 3630.141
180.0130, 3633.194
180.4951, 3632.438
180.9772, 3623.899
181.4594, 3602.919
181.9415, 3585.245
182.4236, 3585.574
182.9057, 3598.394
183.3878, 3597.811
183.8699, 3566.741
184.3521, 3518.234
184.8342, 3480.823
185.3163, 3460.582
185.7984, 3443.240
186.2805, 3418.237
186.7626, 3385.534
187.2448, 3348.135
187.7269, 3303.947
188.2090, 3257.272
188.6911, 3213.859
189.1732, 3176.388
189.6553, 3141.335
190.1375, 3103.914
190.6196, 3063.330
191.1017, 3022.794
191.5838, 2977.197
192.0659, 2933.949
192.5480, 2903.292
193.0302, 2894.027
193.5123, 2897.972
193.9944, 2894.831
194.4765, 2883.896
194.9586, 2866.099
195.4408, 2834.263
195.9229, 2797.966
196.4050, 2773.277
196.8871, 2774.095
197.3692, 2795.360
197.8513, 2802.952
198.3335, 2783.549
198.8156, 2764.559
199.2977, 2751.372
199.7798, 2745.285
200.2619, 2748.254
200.7440, 2764.809
201.2262, 2795.667
201.7083, 2815.429
202.1904, 2812.019
202.6725, 2807.423
203.1546, 2804.312
203.6367, 2805.152
204.1189, 2814.187
204.6010, 2837.847
205.0831, 2881.358
205.5652, 2910.415
206.0473, 2904.606
206.5294, 2903.365
207.0116, 2933.539
207.4937, 2990.687
207.9758, 3045.820
208.4579, 3064.628
208.9400, 3030.998
209.4221, 3010.662
209.9043, 3009.488
210.3864, 3014.422
210.8685, 3018.819
211.3506, 3021.103
211.8327, 3022.213
212.3148, 3023.370
212.7970, 3024.934
213.2791, 3025.531
213.7612, 3018.486
214.2433, 3014.433
214.7254, 3023.381
215.2075, 3047.239
215.6897, 3078.967
216.1718, 3108.706
216.6539, 3140.399
217.1360, 3160.771
217.6181, 3160.553
218.1002, 3152.735
218.5824, 3152.000
219.0645, 3162.850
219.5466, 3176.977
220.0287, 3180.088
220.5108, 3170.592
220.9929, 3154.185
221.4751, 3128.316
221.9572, 3096.792
222.4393, 3065.406
222.9214, 3036.326
223.4035, 3006.176
223.8856, 2965.271
224.3678, 2905.445
224.8499, 2857.767
225.3320, 2838.113
225.8141, 2834.758
226.2962, 2826.726
226.7783, 2807.310
227.2605, 2778.785
227.7426, 2743.288
228.2247, 2697.412
228.7068, 2655.524
229.1889, 2623.337
229.6710, 2599.417
230.1532, 2580.761
230.6353, 2568.107
231.1174, 2558.116
231.5995, 2544.173
232.0816, 2524.475
232.5637, 2506.443
233.0459, 2491.700
233.5280, 2481.129
234.0101, 2479.829
234.4922, 2495.480
234.9743, 2515.774
235.4564, 2521.633
235.9386, 2511.332
236.4207, 2492.860
236.9028, 2463.937
237.3849, 2427.526
237.8670, 2404.392
238.3491, 2410.067
238.8313, 2427.099
239.3134, 2429.094
239.7955, 2411.287
240.2776, 2390.365
240.7597, 2379.606
241.2418, 2378.308
241.7240, 2375.223
242.2061, 2362.395
242.6882, 2348.892
243.1703, 2346.198
243.6524, 2357.598
244.1345, 2371.963
244.6167, 2380.556
245.0988, 2383.355
245.5809, 2382.469
246.0630, 2373.748
246.5451, 2364.725
247.0272, 2364.772
247.5094, 2377.483
247.9915, 2389.956
248.4736, 2386.097
248.9557, 2364.325
249.4378, 2349.451
249.9199, 2358.091
250.4021, 2372.248
250.8842, 2374.302
251.3663, 2359.346
251.8484, 2342.372
252.3305, 2341.263
252.8126, 2358.195
253.2948, 2372.273
253.7769, 2377.710
254.2590, 2376.920
254.7411, 2369.521
255.2232, 2354.524
255.7053, 2338.833
256.1875, 2330.090
256.6696, 2328.818
257.1517, 2330.903
257.6338, 2342.733
258.1159, 2353.257
258.5981, 2352.042
259.0802, 2336.060
259.5623, 2317.540
260.0444, 2311.866
260.5265, 2321.143
261.0086, 2330.739
261.4908, 2340.104
261.9729, 2346.540
262.4550, 2347.858
262.9371, 2343.538
263.4192, 2335.035
263.9013, 2322.666
264.3835, 2305.419
264.8656, 2290.008
265.3477, 2277.358
265.8298, 2267.573
266.3119, 2263.072
266.7940, 2264.277
267.2762, 2264.527
267.7583, 2255.726
268.2404, 2236.785
268.7225, 2214.722
269.2046, 2183.189
269.6867, 2153.750
270.1689, 2133.534
270.6510, 2123.778
271.1331, 2120.695
271.6152, 2122.637
272.0973, 2131.625
272.5794, 2134.262
273.0616, 2118.478
273.5437, 2102.290
274.0258, 2097.949
274.5079, 2106.439
274.9900, 2115.915
275.4721, 2111.993
275.9543, 2092.055
276.4364, 2075.513
276.9185, 2069.777
277.4006, 2064.486
277.8827, 2051.943
278.3648, 2032.438
278.8470, 2015.484
279.3291, 2012.590
279.8112, 2025.770
280.2933, 2036.058
280.7754, 2037.843
281.2575, 2039.374
281.7397, 2048.705
282.2218, 2064.122
282.7039, 2073.258
283.1860, 2057.683
283.6681, 2014.285
284.1502, 1990.036
284.6324, 2002.464
285.1145, 2022.740
285.5966, 2040.300
286.0787, 2053.876
286.5608, 2063.844
287.0429, 2066.832
287.5251, 2062.507
288.0072, 2069.489
288.4893, 2100.067
288.9714, 2130.425
289.4535, 2151.047
289.9356, 2162.253
290.4178, 2167.020
290.8999, 2163.051
291.3820, 2151.407
291.8641, 2152.159
292.3462, 2175.484
292.8283, 2199.836
293.3105, 2217.876
293.7926, 2229.577
294.2747, 2235.883
294.7568, 2236.455
295.2389, 2231.927
295.7210, 2225.568
296.2032, 2214.462
296.6853, 2205.814
297.1674, 2204.749
297.6495, 2207.876
298.1316, 2208.384
298.6137, 2200.036
299.0959, 2186.834
299.5780, 2185.160
300.0601, 2205.424
300.5422, 2218.290
301.0243, 2207.180
301.5064, 2183.256
301.9886, 2162.528
302.4707, 2153.423
302.9528, 2151.254
303.4349, 2144.606
303.9170, 2130.506
304.3991, 2119.191
304.8813, 2117.921
305.3634, 2120.426
305.8455, 2120.081
306.3276, 2115.076
306.8097, 2105.098
307.2918, 2087.125
307.7740, 2057.612
308.2561, 2032.993
308.7382, 2024.037
309.2203, 2020.986
309.7024, 2015.897
310.1845, 2006.841
310.6667, 1994.794
311.1488, 1979.582
311.6309, 1960.470
312.1130, 1943.768
312.5951, 1933.680
313.0772, 1925.526
313.5594, 1914.002
314.0415, 1897.541
314.5236, 1883.349
315.0057, 1881.017
315.4878, 1890.319
315.9699, 1894.536
316.4521, 1884.917
316.9342, 1872.443
317.4163, 1867.226
317.8984, 1869.939
318.3805, 1875.116
318.8626, 1881.617
319.3448, 1888.352
319.8269, 1887.447
320.3090, 1871.487
320.7911, 1855.502
321.2732, 1856.457
321.7553, 1872.963
322.2375, 1885.372
322.7196, 1879.681
323.2017, 1862.200
323.6838, 1850.525
324.1659, 1847.636
324.6480, 1849.088
325.1302, 1851.958
325.6123, 1855.975
326.0944, 1860.234
326.5765, 1861.064
327.0586, 1863.009
327.5407, 1876.971
328.0229, 1906.728
328.5050, 1932.618
328.9871, 1933.575
329.4692, 1916.875
329.9513, 1906.356
330.4334, 1906.595
330.9156, 1914.834
331.3977, 1930.718
331.8798, 1954.233
332.3619, 1977.944
332.8440, 1997.738
333.3261, 2013.857
333.8083, 2028.836
334.2904, 2047.735
334.7725, 2060.942
335.2546, 2055.921
335.7367, 2037.130
336.2188, 2027.841
336.7010, 2043.696
337.1831, 2073.979
337.6652, 2085.908
338.1473, 2064.382
338.6294, 2048.982
339.1115, 2062.017
339.5937, 2092.260
340.0758, 2115.021
340.5579, 2120.410
341.0400, 2115.416
341.5221, 2114.763
342.0042, 2122.162
342.4864, 2124.941
342.9685, 2118.708
343.4506, 2107.337
343.9327, 2094.392
344.4148, 2080.820
344.8969, 2068.801
345.3791, 2062.064
345.8612, 2064.719
346.3433, 2061.821
346.8254, 2045.383
347.3075, 2028.640
347.7896, 2023.566
348.2718, 2030.745
348.7539, 2041.374
349.2360, 2047.528
349.7181, 2049.371
350.2002, 2043.782
350.6823, 2026.058
351.1645, 2006.578
351.6466, 1987.721
352.1287, 1971.116
352.6108, 1960.586
353.0929, 1960.040
353.5750, 1968.534
354.0572, 1967.518
354.5393, 1945.386
355.0214, 1926.739
355.5035, 1919.000
355.9856, 1917.861
356.4677, 1916.512
356.9499, 1911.450
357.4320, 1903.455
357.9141, 1895.128
358.3962, 1887.926
358.8783, 1878.015
359.3604, 1861.992
359.8426, 1844.844
360.3247, 1830.027
360.8068, 1818.969
361.2889, 1812.765
361.7710, 1817.186
362.2531, 1844.130
362.7353, 1848.983
363.2174, 1804.000
363.6995, 1755.925
364.1816, 1734.744
364.6637, 1742.247
365.1458, 1757.927
365.6280, 1761.907
366.1101, 1753.364
366.5922, 1744.534
367.0743, 1735.753
367.5564, 1726.529
368.0385, 1715.180
368.5207, 1702.991
369.0028, 1693.431
369.4849, 1688.445
369.9670, 1687.830
370.4491, 1691.646
370.9312, 1702.435
371.4134, 1712.460
371.8955, 1717.738
372.3776, 1719.920
372.8597, 1720.329
373.3418, 1716.120
373.8239, 1714.544
374.3061, 1729.682
374.7882, 1763.837
375.2703, 1792.197
375.7524, 1802.371
376.2345, 1801.884
376.7166, 1798.860
377.1988, 1790.740
377.6809, 1789.543
378.1630, 1810.587
378.6451, 1847.726
379.1272, 1873.164
379.6093, 1874.427
380.0915, 1868.856
380.5736, 1881.477
381.0557, 1912.964
381.5378, 1944.586
382.0199, 1974.594
382.5020, 1999.718
382.9842, 2010.544
383.4663, 2004.553
383.9484, 2001.450
384.4305, 2022.883
384.9126, 2071.684
385.3947, 2109.786
385.8769, 2132.614
386.3590, 2147.666
386.8411, 2159.108
387.3232, 2167.271
387.8053, 2171.019
388.2874, 2168.632
388.7696, 2161.305
389.2517, 2159.012
389.7338, 2168.494
390.2159, 2174.383
390.6980, 2169.353
391.1801, 2159.069
391.6623, 2153.081
392.1444, 2155.535
392.6265, 2161.417
393.1086, 2159.542
393.5907, 2141.663
394.0728, 2128.150
394.5550, 2124.004
395.0371, 2120.826
395.5192, 2109.186
396.0013, 2089.246
396.4834, 2072.005
396.9655, 2073.623
397.4477, 2101.159
397.9298, 2109.517
398.4119, 2079.061
398.8940, 2047.251
399.3761, 2030.085
399.8582, 2023.017
400.3404, 2012.265
400.8225, 1987.460
401.3046, 1952.032
401.7867, 1921.798
402.2688, 1898.071
402.7509, 1877.545
403.2331, 1859.989
403.7152, 1844.114
404.1973, 1828.057
404.6794, 1810.638
405.1615, 1794.605
405.6436, 1783.932
406.1258, 1778.851
406.6079, 1775.592
407.0900, 1775.309
407.5721, 1774.578
408.0542, 1771.153
408.5363, 1765.028
409.0185, 1754.078
409.5006, 1731.153
409.9827, 1702.528
410.4648, 1686.185
410.9469, 1686.801
411.4290, 1693.192
411.9112, 1697.952
412.3933, 1700.644
412.8754, 1696.292
413.3575, 1678.669
413.8396, 1657.481
414.3217, 1639.579
414.8039, 1625.501
415.2860, 1616.449
415.7681, 1614.293
416.2502, 1617.393
416.7323, 1617.437
417.2144, 1608.627
417.6966, 1604.060
418.1787, 1610.122
418.6608, 1621.890
419.1429, 1633.329
419.6250, 1642.429
420.1071, 1647.324
420.5893, 1644.361
421.0714, 1627.457
421.5535, 1614.995
422.0356, 1607.915
422.5177, 1604.087
422.9998, 1602.476
423.4820, 1602.790
423.9641, 1605.232
424.4462, 1610.860
424.9283, 1619.742
425.4104, 1622.713
425.8925, 1615.849
426.3747, 1606.963
426.8568, 1595.312
427.3389, 1583.585
427.8210, 1576.196
428.3031, 1575.835
428.7852, 1578.492
429.2674, 1574.882
429.7495, 1561.975
430.2316, 1553.526
430.7137, 1559.085
431.1958, 1566.874
431.6779, 1567.698
432.1601, 1560.366
432.6422, 1553.241
433.1243, 1555.788
433.6064, 1564.857
434.0885, 1563.761
434.5706, 1544.453
435.0528, 1527.380
435.5349, 1536.045
436.0170, 1562.713
436.4991, 1581.452
436.9812, 1577.681
437.4633, 1568.387
437.9455, 1571.890
438.4276, 1587.166
438.9097, 1600.637
439.3918, 1604.882
439.8739, 1602.056
440.3560, 1599.569
440.8382, 1597.896
441.3203, 1595.822
441.8024, 1592.756
442.2845, 1589.211
442.7666, 1585.564
443.2487, 1581.984
443.7309, 1578.369
444.2130, 1571.768
444.6951, 1550.730
445.1772, 1568.094
445.6593, 1652.418
446.1414, 1743.584
446.6236, 1818.759
447.1057, 1873.691
447.5878, 1907.077
448.0699, 1916.167
448.5520, 1904.740
449.0341, 1896.305
449.5163, 1917.077
449.9984, 1897.066
450.4805, 1791.225
450.9626, 1658.791
451.4447, 1557.757
451.9268, 1505.379
452.4090, 1480.701
452.8911, 1464.771
453.3732, 1458.076
453.8553, 1443.791
454.3374, 1409.415
454.8195, 1368.637
455.3017, 1382.752
455.7838, 1390.598
456.2659, 1392.512
456.7480, 1370.726
457.2301, 1379.544
457.7122, 1376.097
458.1944, 1372.147
458.6765, 1385.272
459.1586, 1366.933
459.6407, 1379.787
460.1229, 1380.190
460.6050, 1386.291
461.0871, 1380.052
461.5692, 1377.625
462.0513, 1387.541
462.5334, 1390.623
463.0156, 1382.963
463.4977, 1389.427
463.9798, 1370.657
464.4619, 1374.030
464.9440, 1386.956
465.4261, 1379.917
465.9083, 1386.606
466.3904, 1376.075
466.8725, 1369.888
467.3546, 1364.598
467.8367, 1366.621
468.3188, 1373.727
468.8010, 1373.846
469.2831, 1358.357
469.7652, 1349.499
470.2473, 1361.754
470.7294, 1375.730
471.2115, 1366.070
471.6937, 1327.907
472.1758, 1294.141
472.6579, 1306.962
473.1400, 1365.827
473.6221, 1416.375
474.1042, 1446.591
474.5864, 1477.076
475.0685, 1525.578
475.5506, 1586.214
476.0327, 1641.298
476.5148, 1690.410
476.9969, 1726.625
477.4791, 1734.163
477.9612, 1715.110
478.4433, 1700.346
478.9254, 1703.582
479.4075, 1720.826
479.8896, 1745.260
480.3718, 1787.897
480.8539, 1812.453
481.3360, 1803.664
481.8181, 1774.838
482.3002, 1734.181
482.7823, 1685.653
483.2645, 1643.532
483.7466, 1622.252
484.2287, 1622.668
484.7108, 1635.097
485.1929, 1700.718
485.6750, 1732.754
486.1572, 1680.188
486.6393, 1582.400
487.1214, 1497.805
487.6035, 1452.671
488.0856, 1436.275
488.5677, 1431.574
489.0499, 1442.553
489.5320, 1451.322
490.0141, 1450.881
490.4962, 1451.169
490.9783, 1459.338
491.4604, 1474.392
491.9426, 1488.591
492.4247, 1497.154
492.9068, 1501.314
493.3889, 1503.228
493.8710, 1502.426
494.3531, 1502.453
494.8353, 1507.627
495.3174, 1514.114
495.7995, 1513.035
496.2816, 1500.318
496.7637, 1486.696
497.2458, 1473.338
497.7280, 1463.350
498.2101, 1465.322
498.6922, 1481.641
499.1743, 1499.505
499.6564, 1503.397
500.1385, 1489.948
500.6207, 1478.637
501.1028, 1469.172
501.5849, 1461.713
502.0670, 1457.484
502.5491, 1455.143
503.0313, 1450.989
503.5134, 1442.658
503.9955, 1434.542
504.4776, 1439.948
504.9597, 1469.322
505.4418, 1485.984
505.9240, 1472.490
506.4061, 1454.759
506.8882, 1448.892
507.3703, 1455.196
507.8524, 1463.674
508.3345, 1468.520
508.8167, 1470.190
509.2988, 1468.517
509.7809, 1462.011
510.2630, 1459.234
510.7451, 1468.814
511.2272, 1484.193
511.7094, 1490.581
512.1915, 1481.623
512.6736, 1473.940
513.1557, 1481.330
513.6378, 1493.969
514.1199, 1492.051
514.6021, 1470.741
515.0842, 1445.754
515.5663, 1434.877
516.0484, 1440.730
516.5305, 1443.594
517.0126, 1441.221
517.4948, 1438.725
517.9769, 1441.769
518.4590, 1445.340
518.9411, 1438.745
519.4232, 1416.656
519.9053, 1389.230
520.3875, 1378.025
520.8696, 1388.706
521.3517, 1396.023
521.8338, 1396.440
522.3159, 1393.063
522.7980, 1385.195
523.2802, 1374.273
523.7623, 1365.653
524.2444, 1364.729
524.7265, 1366.967
525.2086, 1363.895
525.6907, 1355.355
526.1729, 1344.702
526.6550, 1331.844
527.1371, 1319.087
527.6192, 1311.383
528.1013, 1310.053
528.5834, 1309.704
529.0656, 1310.007
529.5477, 1309.832
530.0298, 1307.526
530.5119, 1303.083
530.9940, 1298.282
531.4761, 1294.797
531.9583, 1292.515
532.4404, 1288.370
532.9225, 1277.870
533.4046, 1270.774
533.8867, 1269.959
534.3688, 1272.709
534.8510, 1277.986
535.3331, 1284.975
535.8152, 1288.771
536.2973, 1280.719
536.7794, 1260.895
537.2615, 1248.177
537.7437, 1244.861
538.2258, 1246.821
538.7079, 1257.359
539.1900, 1270.669
539.6721, 1272.980
540.1542, 1251.169
540.6364, 1229.779
541.1185, 1234.465
541.6006, 1256.973
542.0827, 1269.498
542.5648, 1250.232
543.0469, 1262.403
543.5291, 1268.304
544.0112, 1268.273
544.4933, 1244.543
544.9754, 1251.416
545.4575, 1246.024
545.9396, 1240.130
546.4218, 1251.310
546.9039, 1231.027
547.3860, 1241.936
547.8681, 1240.394
548.3502, 1244.551
548.8323, 1236.367
549.3145, 1231.995
549.7966, 1239.967
550.2787, 1241.104
550.7608, 1231.500
551.2429, 1236.018
551.7250, 1215.304
552.2072, 1216.732
552.6893, 1227.714
553.1714, 1218.730
553.6535, 1223.474
554.1356, 1222.990
554.6177, 1203.830
555.0999, 1205.025
555.5820, 1205.781
556.0641, 1205.893
556.5462, 1206.330
557.0283, 1209.906
557.5104, 1212.044
557.9926, 1205.271
558.4747, 1191.976
558.9568, 1184.263
559.4389, 1192.011
559.9210, 1210.850
560.4031, 1218.368
560.8853, 1204.596
561.3674, 1196.245
561.8495, 1201.104
562.3316, 1209.183
562.8137, 1212.878
563.2958, 1211.375
563.7780, 1208.318
564.2601, 1208.023
564.7422, 1208.329
565.2243, 1200.456
565.7064, 1182.206
566.1885, 1167.566
566.6707, 1163.733
567.1528, 1168.876
567.6349, 1178.471
568.1170, 1196.528
568.5991, 1209.671
569.0812, 1209.100
569.5634, 1203.524
570.0455, 1204.033
570.5276, 1211.432
571.0097, 1218.457
571.4918, 1218.943
571.9739, 1213.525
572.4561, 1209.297
572.9382, 1204.108
573.4203, 1203.331
573.9024, 1212.370
574.3845, 1223.136
574.8666, 1227.673
575.3488, 1224.793
575.8309, 1219.930
576.3130, 1215.591
576.7951, 1212.894
577.2772, 1218.818
577.7593, 1236.553
578.2415, 1250.593
578.7236, 1247.689
579.2057, 1236.498
579.6878, 1238.809
580.1699, 1265.075
580.6520, 1284.210
581.1342, 1278.971
581.6163, 1262.639
582.0984, 1248.534
582.5805, 1240.044
583.0626, 1241.218
583.5447, 1257.101
584.0269, 1286.158
584.5090, 1307.332
584.9911, 1311.761
585.4732, 1320.092
585.9553, 1341.572
586.4374, 1364.498
586.9196, 1376.600
587.4017, 1376.273
587.8838, 1373.995
588.3659, 1377.165
588.8480, 1385.539
589.3301, 1398.800
589.8123, 1417.448
590.2944, 1438.903
590.7765, 1463.827
591.2586, 1489.753
591.7407, 1510.445
592.2228, 1521.790
592.7050, 1536.895
593.1871, 1562.608
593.6692, 1592.353
594.1513, 1618.182
594.6334, 1639.920
595.1155, 1662.699
595.5977, 1690.172
