##NAMES=Olenite
##RRUFFID=R061133
##IDEAL CHEMISTRY=NaAl_3_Al_6_(Si_6_O_18_)(BO_3_)_3_(O_3_)OH
##LOCALITY=Uvil'dy, Urals, Siberia, Russia
##OWNER=RRUFF
##SOURCE=Michael Scott
##DESCRIPTION=Blue-gray grains
##STATUS=The identification of this mineral has been confirmed only by single crystal X-ray diffraction.
##URL=rruff.info/R061133
165.0199, 20485.02
165.5020, 20575.04
165.9841, 20649.76
166.4662, 20708.43
166.9483, 20757.02
167.4305, 20803.83
167.9126, 20840.85
168.3947, 20854.80
168.8768, 20840.95
169.3589, 20815.57
169.8410, 20817.62
170.3232, 20865.29
170.8053, 20914.35
171.2874, 20976.38
171.7695, 21030.21
172.2516, 21050.34
172.7337, 21026.26
173.2159, 20974.90
173.6980, 20938.83
174.1801, 20918.78
174.6622, 20912.16
175.1443, 20924.81
175.6264, 20945.69
176.1085, 20969.87
176.5907, 20994.52
177.0728, 21008.90
177.5549, 20985.48
178.0370, 20842.93
178.5191, 20763.61
179.0012, 20805.08
179.4834, 20890.00
179.9655, 20933.58
180.4476, 20902.74
180.9297, 20829.38
181.4118, 20787.81
181.8939, 20801.34
182.3761, 20823.50
182.8582, 20875.48
183.3403, 20927.59
183.8224, 20940.65
184.3045, 20900.22
184.7866, 20834.83
185.2688, 20804.81
185.7509, 20852.37
186.2330, 20885.67
186.7151, 20903.05
187.1972, 20906.22
187.6793, 20891.55
188.1615, 20858.00
188.6436, 20818.25
189.1257, 20797.97
189.6078, 20809.00
190.0899, 20824.95
190.5720, 20847.70
191.0542, 20874.14
191.5363, 20902.87
192.0184, 20933.25
192.5005, 20962.32
192.9826, 20984.92
193.4647, 21003.23
193.9469, 21010.26
194.4290, 20987.79
194.9111, 20962.43
195.3932, 20965.94
195.8753, 21006.75
196.3574, 21063.51
196.8396, 21101.91
197.3217, 21115.43
197.8038, 21120.18
198.2859, 21105.63
198.7680, 21088.02
199.2501, 21081.10
199.7323, 21088.63
200.2144, 21109.79
200.6965, 21144.97
201.1786, 21207.27
201.6607, 21254.90
202.1428, 21276.85
202.6250, 21290.16
203.1071, 21312.29
203.5892, 21346.13
204.0713, 21378.71
204.5534, 21392.27
205.0355, 21375.67
205.5177, 21369.00
205.9998, 21360.97
206.4819, 21368.87
206.9640, 21418.39
207.4461, 21509.21
207.9282, 21602.03
208.4104, 21648.70
208.8925, 21627.19
209.3746, 21648.58
209.8567, 21743.21
210.3388, 21856.49
210.8209, 21950.10
211.3030, 22020.76
211.7852, 22086.26
212.2673, 22163.03
212.7494, 22251.37
213.2315, 22355.51
213.7136, 22479.11
214.1957, 22613.89
214.6779, 22758.29
215.1600, 22910.31
215.6421, 23065.92
216.1242, 23220.89
216.6063, 23375.38
217.0884, 23535.08
217.5706, 23703.79
218.0527, 23875.22
218.5348, 24041.67
219.0169, 24206.54
219.4990, 24385.86
219.9811, 24597.98
220.4633, 24840.88
220.9454, 25027.45
221.4275, 25131.95
221.9096, 25218.66
222.3917, 25305.15
222.8738, 25394.04
223.3560, 25492.16
223.8381, 25609.60
224.3202, 25737.68
224.8023, 25802.21
225.2844, 25780.23
225.7665, 25732.26
226.2487, 25661.61
226.7308, 25577.68
227.2129, 25500.06
227.6950, 25442.38
228.1771, 25391.97
228.6592, 25292.39
229.1414, 25109.29
229.6235, 24921.67
230.1056, 24737.48
230.5877, 24557.65
231.0698, 24381.62
231.5519, 24208.03
232.0341, 24040.90
232.5162, 23890.02
232.9983, 23763.08
233.4804, 23644.61
233.9625, 23535.82
234.4446, 23434.00
234.9268, 23335.30
235.4089, 23239.04
235.8910, 23147.56
236.3731, 23065.70
236.8552, 23003.89
237.3373, 22936.06
237.8195, 22858.52
238.3016, 22778.22
238.7837, 22697.71
239.2658, 22619.07
239.7479, 22546.49
240.2300, 22484.93
240.7122, 22431.70
241.1943, 22400.82
241.6764, 22422.57
242.1585, 22440.61
242.6406, 22408.55
243.1227, 22328.97
243.6049, 22246.06
244.0870, 22209.35
244.5691, 22233.36
245.0512, 22230.36
245.5333, 22162.21
246.0154, 22105.54
246.4975, 22105.68
246.9797, 22151.07
247.4618, 22199.72
247.9439, 22217.37
248.4260, 22203.23
248.9081, 22183.21
249.3902, 22146.88
249.8724, 22114.98
250.3545, 22088.22
250.8366, 22070.44
251.3187, 22067.63
251.8008, 22084.40
252.2829, 22118.65
252.7651, 22158.21
253.2472, 22213.35
253.7293, 22261.69
254.2114, 22305.97
254.6935, 22339.63
255.1756, 22353.24
255.6578, 22341.54
256.1399, 22311.94
256.6220, 22281.75
257.1041, 22238.66
257.5862, 22218.60
258.0684, 22233.07
258.5505, 22265.05
259.0326, 22300.62
259.5147, 22335.05
259.9968, 22371.10
260.4789, 22418.02
260.9611, 22490.53
261.4432, 22531.75
261.9253, 22510.77
262.4074, 22476.79
262.8895, 22467.36
263.3716, 22484.47
263.8537, 22492.23
264.3358, 22436.79
264.8180, 22305.18
265.3001, 22220.54
265.7822, 22234.68
266.2643, 22259.86
266.7464, 22260.38
267.2285, 22235.07
267.7107, 22193.94
268.1928, 22140.67
268.6749, 22076.30
269.1570, 22010.31
269.6391, 21943.08
270.1212, 21872.79
270.6034, 21794.58
271.0855, 21713.14
271.5676, 21638.64
272.0497, 21582.85
272.5318, 21534.89
273.0139, 21467.51
273.4961, 21373.31
273.9782, 21278.90
274.4603, 21195.81
274.9424, 21119.72
275.4245, 21045.15
275.9066, 20968.64
276.3888, 20895.61
276.8709, 20833.39
277.3530, 20782.29
277.8351, 20735.41
278.3172, 20692.84
278.7993, 20652.01
279.2815, 20610.75
279.7636, 20569.57
280.2457, 20525.72
280.7278, 20469.29
281.2099, 20405.75
281.6920, 20362.97
282.1742, 20355.62
282.6563, 20362.54
283.1384, 20359.00
283.6205, 20345.80
284.1026, 20323.26
284.5847, 20292.40
285.0669, 20252.30
285.5490, 20190.81
286.0311, 20099.89
286.5132, 20022.22
286.9953, 20017.91
287.4774, 20082.92
287.9596, 20115.46
288.4417, 20069.04
288.9238, 20005.65
289.4059, 19984.68
289.8880, 20007.04
290.3701, 20033.86
290.8523, 20037.11
291.3344, 20018.15
291.8165, 20003.83
292.2986, 20002.74
292.7807, 19996.85
293.2628, 19973.76
293.7450, 19938.78
294.2271, 19903.11
294.7092, 19870.71
295.1913, 19845.48
295.6734, 19842.20
296.1555, 19901.88
296.6377, 19930.64
297.1198, 19891.48
297.6019, 19825.23
298.0840, 19778.76
298.5661, 19767.21
299.0482, 19776.41
299.5304, 19784.47
300.0125, 19794.53
300.4946, 19796.63
300.9767, 19776.05
301.4588, 19759.91
301.9409, 19775.04
302.4231, 19817.89
302.9052, 19857.20
303.3873, 19857.66
303.8694, 19811.61
304.3515, 19801.87
304.8336, 19859.08
305.3158, 19922.37
305.7979, 19981.50
306.2800, 20032.11
306.7621, 20070.01
307.2442, 20092.26
307.7263, 20100.25
308.2085, 20097.35
308.6906, 20063.81
309.1727, 20052.23
309.6548, 20088.39
310.1369, 20142.47
310.6190, 20185.91
311.1012, 20209.22
311.5833, 20213.43
312.0654, 20193.32
312.5475, 20140.83
313.0296, 20102.25
313.5117, 20107.63
313.9939, 20114.81
314.4760, 20095.54
314.9581, 20047.86
315.4402, 19991.41
315.9223, 19934.79
316.4044, 19880.09
316.8866, 19844.68
317.3687, 19845.47
317.8508, 19839.70
318.3329, 19786.66
318.8150, 19700.92
319.2971, 19626.22
319.7793, 19582.94
320.2614, 19557.96
320.7435, 19531.39
321.2256, 19502.51
321.7077, 19480.57
322.1898, 19473.06
322.6720, 19476.70
323.1541, 19482.34
323.6362, 19498.79
324.1183, 19505.21
324.6004, 19479.37
325.0826, 19432.30
325.5647, 19394.90
326.0468, 19376.78
326.5289, 19378.67
327.0110, 19410.79
327.4931, 19492.64
327.9753, 19543.54
328.4574, 19527.46
328.9395, 19484.21
329.4216, 19456.63
329.9037, 19452.21
330.3858, 19454.75
330.8680, 19447.67
331.3501, 19429.56
331.8322, 19409.97
332.3143, 19375.11
332.7964, 19352.02
333.2785, 19362.59
333.7606, 19396.29
334.2427, 19422.91
334.7249, 19420.80
335.2070, 19399.87
335.6891, 19414.44
336.1712, 19537.99
336.6533, 19603.49
337.1354, 19552.46
337.6176, 19454.15
338.0997, 19371.15
338.5818, 19325.92
339.0639, 19313.96
339.5460, 19336.37
340.0281, 19407.73
340.5103, 19461.93
340.9924, 19488.07
341.4745, 19500.89
341.9566, 19505.70
342.4387, 19503.30
342.9208, 19492.52
343.4030, 19458.77
343.8851, 19411.80
344.3672, 19418.09
344.8493, 19512.52
345.3314, 19594.88
345.8135, 19604.14
346.2957, 19572.55
346.7778, 19547.24
347.2599, 19543.42
347.7420, 19552.18
348.2241, 19560.62
348.7062, 19569.11
349.1884, 19594.78
349.6705, 19651.81
350.1526, 19723.29
350.6347, 19783.92
351.1168, 19833.16
351.5989, 19874.98
352.0811, 19905.56
352.5632, 19931.20
353.0453, 19964.09
353.5274, 20007.18
354.0095, 20051.17
354.4916, 20085.63
354.9738, 20108.72
355.4559, 20140.89
355.9380, 20183.42
356.4201, 20233.97
356.9022, 20291.14
357.3843, 20355.29
357.8665, 20430.22
358.3486, 20520.36
358.8307, 20620.14
359.3128, 20705.71
359.7949, 20737.55
360.2770, 20804.77
360.7592, 20944.91
361.2413, 21108.70
361.7234, 21242.63
362.2055, 21333.58
362.6876, 21411.94
363.1697, 21518.60
363.6519, 21659.78
364.1340, 21806.42
364.6161, 21961.91
365.0982, 22118.93
365.5803, 22276.78
366.0624, 22433.61
366.5446, 22584.48
367.0267, 22726.14
367.5088, 22860.27
367.9909, 22999.84
368.4730, 23155.38
368.9551, 23288.65
369.4373, 23394.71
369.9194, 23466.93
370.4015, 23491.76
370.8836, 23461.21
371.3657, 23404.22
371.8478, 23346.66
372.3300, 23285.88
372.8121, 23207.25
373.2942, 23109.13
373.7763, 22988.60
374.2584, 22829.77
374.7405, 22636.27
375.2227, 22457.79
375.7048, 22315.27
376.1869, 22186.92
376.6690, 22051.93
377.1511, 21908.59
377.6332, 21760.53
378.1154, 21607.43
378.5975, 21450.54
379.0796, 21305.42
379.5617, 21165.36
380.0438, 21041.23
380.5259, 20951.38
381.0081, 20872.66
381.4902, 20767.54
381.9723, 20624.74
382.4544, 20476.39
382.9365, 20373.24
383.4186, 20336.36
383.9008, 20286.19
384.3829, 20221.37
384.8650, 20146.35
385.3471, 20052.62
385.8292, 19949.32
386.3113, 19858.93
386.7935, 19798.40
387.2756, 19762.44
387.7577, 19729.36
388.2398, 19697.21
388.7219, 19672.69
389.2040, 19670.91
389.6862, 19670.78
390.1683, 19648.30
390.6504, 19596.67
391.1325, 19541.12
391.6146, 19502.94
392.0967, 19481.58
392.5789, 19477.25
393.0610, 19500.50
393.5431, 19522.18
394.0252, 19505.06
394.5073, 19458.72
394.9894, 19430.75
395.4716, 19453.41
395.9537, 19485.40
396.4358, 19480.88
396.9179, 19444.82
397.4000, 19419.68
397.8821, 19431.66
398.3643, 19466.73
398.8464, 19479.08
399.3285, 19456.82
399.8106, 19433.36
400.2927, 19404.76
400.7748, 19381.85
401.2570, 19381.96
401.7391, 19405.46
402.2212, 19430.92
402.7033, 19434.68
403.1854, 19414.43
403.6675, 19390.57
404.1497, 19368.12
404.6317, 19336.46
405.1139, 19283.34
405.5960, 19220.74
406.0781, 19168.63
406.5602, 19137.12
407.0423, 19116.33
407.5244, 19086.60
408.0066, 19045.42
408.4887, 19006.88
408.9708, 18983.30
409.4529, 18955.64
409.9350, 18901.78
410.4171, 18824.13
410.8993, 18759.74
411.3814, 18742.71
411.8635, 18751.02
412.3456, 18737.52
412.8277, 18697.01
413.3098, 18657.92
413.7920, 18645.17
414.2741, 18647.39
414.7562, 18621.65
415.2383, 18538.14
415.7204, 18464.83
416.2025, 18449.09
416.6847, 18458.80
417.1668, 18431.03
417.6489, 18347.08
418.1310, 18253.60
418.6131, 18217.86
419.0952, 18264.67
419.5774, 18277.68
420.0595, 18232.45
420.5416, 18182.44
421.0237, 18150.64
421.5058, 18134.36
421.9879, 18123.35
422.4701, 18112.28
422.9522, 18100.51
423.4343, 18089.51
423.9164, 18090.04
424.3985, 18064.14
424.8806, 17966.31
425.3628, 17867.07
425.8449, 17823.38
426.3270, 17836.98
426.8091, 17853.66
427.2912, 17827.44
427.7733, 17773.59
428.2555, 17736.96
428.7376, 17719.33
429.2197, 17719.74
429.7018, 17749.13
430.1839, 17794.83
430.6660, 17823.18
431.1482, 17829.76
431.6303, 17821.85
432.1124, 17791.75
432.5945, 17751.87
433.0766, 17726.02
433.5587, 17721.14
434.0409, 17729.56
434.5230, 17744.42
435.0051, 17772.60
435.4872, 17776.26
435.9693, 17736.87
436.4514, 17694.72
436.9336, 17665.17
437.4157, 17647.78
437.8978, 17641.40
438.3799, 17646.65
438.8620, 17654.32
439.3441, 17636.06
439.8263, 17571.21
440.3084, 17537.10
440.7905, 17579.49
441.2726, 17630.43
441.7547, 17648.40
442.2368, 17633.51
442.7190, 17612.97
443.2011, 17602.07
443.6832, 17598.43
444.1653, 17600.91
444.6474, 17612.05
445.1295, 17609.73
445.6117, 17572.90
446.0938, 17518.44
446.5759, 17487.78
447.0580, 17492.17
447.5401, 17497.97
448.0222, 17492.29
448.5044, 17480.60
448.9865, 17467.73
449.4686, 17455.30
449.9507, 17449.49
450.4328, 17458.48
450.9149, 17483.68
451.3971, 17495.38
451.8792, 17489.92
452.3613, 17475.58
452.8434, 17442.34
453.3255, 17405.60
453.8076, 17387.26
454.2898, 17394.94
454.7719, 17413.82
455.2540, 17423.81
455.7361, 17424.38
456.2182, 17420.61
456.7003, 17414.43
457.1825, 17401.65
457.6646, 17372.09
458.1467, 17334.20
458.6288, 17312.57
459.1109, 17334.15
459.5930, 17358.80
460.0752, 17330.89
460.5573, 17259.48
461.0394, 17207.21
461.5215, 17200.41
462.0036, 17215.82
462.4857, 17215.57
462.9679, 17194.23
463.4500, 17179.72
463.9321, 17184.98
464.4142, 17189.52
464.8963, 17171.00
465.3784, 17137.26
465.8606, 17116.98
466.3427, 17129.38
466.8248, 17164.30
467.3069, 17186.98
467.7890, 17194.19
468.2711, 17194.59
468.7533, 17186.50
469.2354, 17174.73
469.7175, 17158.95
470.1996, 17141.17
470.6817, 17130.19
471.1638, 17144.90
471.6460, 17170.31
472.1281, 17151.22
472.6102, 17075.53
473.0923, 17020.53
473.5744, 17039.64
474.0565, 17096.55
474.5387, 17116.27
475.0208, 17087.65
475.5029, 17050.53
475.9850, 17012.92
476.4671, 16978.95
476.9492, 16955.00
477.4313, 16941.51
477.9135, 16932.80
478.3956, 16923.88
478.8777, 16915.25
479.3598, 16914.22
479.8419, 16936.97
480.3240, 16948.23
480.8062, 16934.27
481.2883, 16911.52
481.7704, 16898.64
482.2525, 16899.06
482.7346, 16899.51
483.2167, 16878.21
483.6989, 16838.37
484.1810, 16829.29
484.6631, 16864.07
485.1452, 16904.35
485.6273, 16939.89
486.1094, 16964.07
486.5916, 16959.07
487.0737, 16901.24
487.5558, 16857.63
488.0379, 16889.68
488.5200, 16961.86
489.0021, 16999.08
489.4843, 16984.84
489.9664, 16955.25
490.4485, 16946.03
490.9306, 16958.80
491.4127, 16961.45
491.8948, 16937.56
492.3770, 16924.35
492.8591, 16944.64
493.3412, 16976.69
493.8233, 16991.66
494.3054, 16980.88
494.7875, 16959.42
495.2697, 16947.59
495.7518, 16946.25
496.2339, 16934.54
496.7160, 16903.68
497.1981, 16875.15
497.6802, 16863.69
498.1624, 16861.59
498.6445, 16854.60
499.1266, 16834.57
499.6087, 16817.85
500.0908, 16818.24
500.5729, 16831.29
501.0551, 16848.22
501.5372, 16867.68
502.0193, 16883.31
502.5014, 16889.00
502.9835, 16884.48
503.4656, 16871.84
503.9478, 16842.08
504.4299, 16815.83
504.9120, 16801.03
505.3941, 16793.33
505.8762, 16785.03
506.3583, 16774.09
506.8405, 16767.36
507.3226, 16774.42
507.8047, 16795.78
508.2868, 16823.87
508.7689, 16871.39
509.2510, 16904.91
509.7332, 16896.44
510.2153, 16865.41
510.6974, 16844.91
511.1795, 16845.70
511.6616, 16851.32
512.1437, 16849.11
512.6259, 16842.99
513.1080, 16846.18
513.5901, 16862.00
514.0722, 16869.31
514.5543, 16843.01
515.0364, 16781.29
515.5186, 16748.84
516.0007, 16779.09
516.4828, 16794.63
516.9649, 16762.10
517.4470, 16711.12
517.9291, 16679.29
518.4113, 16675.26
518.8934, 16676.87
519.3755, 16657.64
519.8576, 16618.56
520.3397, 16587.58
520.8218, 16570.44
521.3040, 16549.53
521.7861, 16503.92
522.2682, 16452.39
522.7503, 16424.29
523.2324, 16430.80
523.7145, 16439.93
524.1967, 16429.83
524.6788, 16413.55
525.1609, 16416.75
525.6430, 16441.25
526.1251, 16459.96
526.6072, 16450.60
527.0894, 16415.93
527.5715, 16382.51
528.0536, 16352.27
528.5357, 16320.69
529.0178, 16286.05
529.4999, 16251.00
529.9821, 16215.12
530.4642, 16180.11
530.9463, 16152.87
531.4284, 16142.37
531.9105, 16143.56
532.3926, 16136.80
532.8748, 16119.18
533.3569, 16111.49
533.8390, 16130.17
534.3211, 16158.29
534.8032, 16167.09
535.2853, 16153.12
535.7675, 16137.06
536.2496, 16127.87
536.7317, 16116.55
537.2138, 16088.43
537.6959, 16049.08
538.1780, 16021.39
538.6602, 16019.87
539.1423, 16034.63
539.6244, 16039.66
540.1065, 16035.29
540.5886, 16020.29
541.0707, 15976.86
541.5529, 15938.76
542.0350, 15929.48
542.5171, 15941.63
542.9992, 15949.38
543.4813, 15938.26
543.9634, 15919.30
544.4456, 15905.50
544.9277, 15896.23
545.4098, 15889.44
545.8919, 15886.19
546.3740, 15879.04
546.8561, 15855.88
547.3383, 15812.42
547.8204, 15785.79
548.3025, 15787.71
548.7846, 15793.16
549.2667, 15795.31
549.7488, 15793.14
550.2310, 15787.45
550.7131, 15778.27
551.1952, 15761.66
551.6773, 15728.17
552.1594, 15677.78
552.6415, 15639.32
553.1237, 15614.88
553.6058, 15599.77
554.0879, 15597.43
554.5700, 15601.39
555.0521, 15602.37
555.5342, 15598.50
556.0164, 15594.09
556.4985, 15591.04
556.9806, 15588.88
557.4627, 15587.97
557.9448, 15587.81
558.4269, 15585.24
558.9091, 15577.74
559.3912, 15566.03
559.8733, 15553.99
560.3554, 15539.95
560.8375, 15527.93
561.3196, 15521.73
561.8018, 15514.47
562.2839, 15498.37
562.7660, 15475.75
563.2481, 15458.63
563.7302, 15458.41
564.2123, 15463.77
564.6945, 15456.24
565.1766, 15436.89
565.6587, 15417.28
566.1408, 15403.06
566.6229, 15385.18
567.1050, 15344.88
567.5872, 15271.59
568.0693, 15244.85
568.5514, 15315.41
569.0335, 15378.59
569.5156, 15381.71
569.9977, 15349.82
570.4799, 15323.38
570.9620, 15315.86
571.4441, 15312.27
571.9262, 15290.69
572.4083, 15251.85
572.8904, 15225.62
573.3726, 15211.83
573.8547, 15211.92
574.3368, 15239.69
574.8189, 15277.10
575.3010, 15294.85
575.7831, 15288.61
576.2653, 15270.19
576.7474, 15227.60
577.2295, 15185.59
577.7116, 15175.76
578.1937, 15195.73
578.6758, 15221.16
579.1580, 15237.17
579.6401, 15245.93
580.1222, 15254.59
580.6042, 15267.66
581.0864, 15269.52
581.5685, 15245.29
582.0506, 15221.02
582.5327, 15212.82
583.0148, 15215.72
583.4969, 15213.26
583.9791, 15195.21
584.4612, 15174.94
584.9433, 15169.93
585.4254, 15172.97
585.9075, 15156.96
586.3896, 15114.03
586.8718, 15080.75
587.3539, 15100.28
587.8360, 15171.63
588.3181, 15195.88
588.8002, 15134.82
589.2823, 15073.48
589.7645, 15010.92
590.2466, 14962.47
590.7287, 14949.69
591.2108, 14970.47
591.6929, 14992.59
592.1750, 14991.34
592.6572, 14974.98
593.1393, 14960.51
593.6214, 14947.98
594.1035, 14935.26
594.5856, 14920.10
595.0677, 14906.88
595.5499, 14902.86
596.0320, 14910.62
596.5141, 14916.06
596.9962, 14915.74
597.4783, 14916.14
597.9604, 14921.63
598.4426, 14929.36
598.9247, 14934.45
599.4068, 14935.33
599.8889, 14935.13
600.3710, 14941.70
600.8531, 14952.96
601.3353, 14943.98
601.8174, 14907.03
602.2995, 14873.42
602.7816, 14856.15
603.2637, 14854.31
603.7458, 14867.20
604.2280, 14903.30
604.7101, 14927.57
605.1922, 14925.54
605.6743, 14913.65
606.1564, 14901.45
606.6385, 14891.12
607.1207, 14883.90
607.6028, 14880.22
608.0849, 14881.17
608.5670, 14893.22
609.0491, 14920.28
609.5313, 14926.40
610.0134, 14899.91
610.4955, 14866.12
610.9776, 14830.40
611.4597, 14799.95
611.9418, 14793.51
612.4240, 14829.69
612.9061, 14855.73
613.3882, 14835.18
613.8703, 14798.61
614.3524, 14785.92
614.8345, 14797.35
615.3167, 14805.93
615.7988, 14793.03
616.2809, 14766.09
616.7630, 14746.22
617.2451, 14731.93
617.7272, 14729.61
618.2094, 14751.69
618.6915, 14773.65
619.1736, 14772.10
619.6557, 14758.15
620.1378, 14766.41
620.6199, 14823.53
621.1021, 14878.49
621.5842, 14890.41
622.0663, 14880.45
622.5484, 14883.41
623.0305, 14905.49
623.5126, 14937.07
623.9948, 14971.44
624.4769, 15007.81
624.9590, 15041.46
625.4411, 15076.84
625.9232, 15100.67
626.4053, 15097.54
626.8875, 15093.71
627.3696, 15104.95
627.8517, 15130.09
628.3338, 15160.57
628.8159, 15192.79
629.2980, 15229.45
629.7802, 15285.14
630.2623, 15344.72
630.7444, 15371.65
631.2265, 15358.40
631.7086, 15329.78
632.1907, 15305.98
632.6729, 15287.91
633.1550, 15286.70
633.6371, 15315.81
634.1192, 15337.74
634.6013, 15350.38
635.0834, 15350.29
635.5656, 15329.04
636.0477, 15290.30
636.5298, 15253.77
637.0119, 15230.22
637.4940, 15210.13
637.9761, 15187.18
638.4583, 15160.14
638.9404, 15121.74
639.4225, 15070.58
639.9046, 15025.51
640.3867, 15008.50
640.8688, 15017.23
641.3510, 15006.21
641.8331, 14954.12
642.3152, 14918.26
642.7973, 14930.69
643.2794, 14946.32
643.7615, 14924.57
644.2437, 14868.99
644.7258, 14819.95
645.2079, 14801.03
645.6900, 14792.32
646.1721, 14782.30
646.6542, 14766.97
647.1364, 14730.40
647.6185, 14669.14
648.1006, 14609.40
648.5827, 14579.50
649.0648, 14577.60
649.5469, 14568.83
650.0291, 14548.65
650.5112, 14529.77
650.9933, 14517.43
651.4754, 14505.54
651.9575, 14493.94
652.4396, 14480.30
652.9218, 14452.42
653.4039, 14390.19
653.8860, 14325.89
654.3681, 14286.70
654.8502, 14265.78
655.3323, 14250.94
655.8145, 14238.16
656.2966, 14218.65
656.7787, 14180.99
657.2608, 14128.60
657.7429, 14097.56
658.2250, 14093.96
658.7072, 14098.65
659.1893, 14133.31
659.6714, 14153.83
660.1535, 14113.16
660.6356, 14021.98
661.1177, 13950.49
661.5999, 13934.72
662.0820, 13931.57
662.5641, 13911.68
663.0462, 13884.40
