##NAMES=Olenite
##RRUFFID=R061133
##IDEAL CHEMISTRY=NaAl_3_Al_6_(Si_6_O_18_)(BO_3_)_3_(O_3_)OH
##LOCALITY=Uvil'dy, Urals, Siberia, Russia
##OWNER=RRUFF
##SOURCE=Michael Scott
##DESCRIPTION=Blue-gray grains
##STATUS=The identification of this mineral has been confirmed only by single crystal X-ray diffraction.
##URL=rruff.info/R061133
113.5961, 293.7154
114.0782, 306.1902
114.5603, 319.7780
115.0425, 334.5602
115.5246, 350.1840
116.0067, 363.9283
116.4888, 380.5656
116.9709, 402.9255
117.4530, 430.8271
117.9352, 461.9659
118.4173, 494.2856
118.8994, 528.2184
119.3815, 568.0004
119.8636, 616.4750
120.3457, 668.8271
120.8279, 720.0833
121.3100, 769.7484
121.7921, 822.9105
122.2742, 885.5358
122.7563, 956.5335
123.2384, 1030.346
123.7206, 1108.880
124.2027, 1188.869
124.6848, 1264.408
125.1669, 1334.243
125.6490, 1404.692
126.1311, 1482.068
126.6133, 1564.958
127.0954, 1648.839
127.5775, 1737.365
128.0596, 1825.894
128.5417, 1904.745
129.0238, 1972.816
129.5060, 2031.409
129.9881, 2079.015
130.4702, 2118.303
130.9523, 2157.884
131.4344, 2205.907
131.9165, 2259.239
132.3987, 2301.413
132.8808, 2321.704
133.3629, 2342.577
133.8450, 2376.647
134.3271, 2422.857
134.8092, 2476.070
135.2914, 2530.054
135.7735, 2585.167
136.2556, 2654.214
136.7377, 2740.625
137.2198, 2840.564
137.7019, 2954.243
138.1841, 3079.740
138.6662, 3213.511
139.1483, 3352.666
139.6304, 3497.174
140.1125, 3644.662
140.5946, 3798.620
141.0768, 3953.659
141.5589, 4108.633
142.0410, 4263.583
142.5231, 4418.382
143.0052, 4573.954
143.4873, 4731.606
143.9695, 4884.194
144.4516, 5037.378
144.9337, 5183.095
145.4158, 5319.378
145.8979, 5445.155
146.3800, 5557.622
146.8622, 5652.864
147.3443, 5726.311
147.8264, 5794.807
148.3085, 5861.607
148.7906, 5922.167
149.2727, 5974.431
149.7549, 6017.902
150.2370, 6052.897
150.7191, 6078.681
151.2012, 6088.385
151.6833, 6104.581
152.1654, 6130.992
152.6476, 6160.118
153.1297, 6187.562
153.6118, 6212.221
154.0939, 6234.075
154.5760, 6251.838
155.0581, 6255.251
155.5403, 6278.761
156.0224, 6333.396
156.5045, 6399.207
156.9866, 6461.391
157.4687, 6516.390
157.9508, 6569.820
158.4330, 6629.550
158.9151, 6700.009
159.3972, 6768.480
159.8793, 6828.589
160.3614, 6890.444
160.8435, 6965.676
161.3257, 7056.793
161.8078, 7151.753
162.2899, 7233.376
162.7720, 7292.413
163.2541, 7357.348
163.7362, 7435.974
164.2184, 7517.350
164.7005, 7588.517
165.1826, 7646.533
165.6647, 7701.319
166.1468, 7769.988
166.6289, 7862.449
167.1111, 7937.346
167.5932, 7981.430
168.0753, 8010.051
168.5574, 8040.516
169.0395, 8077.545
169.5216, 8113.496
170.0038, 8135.151
170.4859, 8138.053
170.9680, 8149.757
171.4501, 8184.273
171.9322, 8226.184
172.4143, 8253.821
172.8965, 8260.980
173.3786, 8262.750
173.8607, 8280.865
174.3428, 8317.026
174.8249, 8348.283
175.3070, 8362.063
175.7892, 8371.044
176.2713, 8395.953
176.7534, 8443.113
177.2355, 8494.628
177.7176, 8523.085
178.1997, 8529.246
178.6819, 8546.239
179.1640, 8595.911
179.6461, 8657.206
180.1282, 8695.236
180.6103, 8699.811
181.0924, 8696.324
181.5745, 8712.576
182.0567, 8745.684
182.5388, 8784.951
183.0209, 8835.106
183.5030, 8887.444
183.9851, 8926.142
184.4672, 8946.314
184.9494, 8961.979
185.4315, 8993.074
185.9136, 9034.864
186.3957, 9061.492
186.8778, 9049.809
187.3599, 9022.555
187.8421, 9016.397
188.3242, 9036.860
188.8063, 9072.176
189.2884, 9125.792
189.7705, 9189.642
190.2526, 9233.717
190.7348, 9229.204
191.2169, 9204.996
191.6990, 9214.153
192.1811, 9269.060
192.6632, 9325.112
193.1453, 9340.061
193.6275, 9328.752
194.1096, 9322.288
194.5917, 9331.970
195.0738, 9351.776
195.5559, 9373.761
196.0380, 9398.882
196.5202, 9422.369
197.0023, 9439.314
197.4844, 9452.360
197.9665, 9465.679
198.4486, 9479.702
198.9307, 9495.214
199.4129, 9515.734
199.8950, 9543.826
200.3771, 9566.387
200.8592, 9562.831
201.3413, 9550.364
201.8234, 9556.080
202.3056, 9600.814
202.7877, 9656.480
203.2698, 9682.828
203.7519, 9674.782
204.2340, 9664.241
204.7161, 9667.322
205.1983, 9678.436
205.6804, 9691.690
206.1625, 9707.177
206.6446, 9722.436
207.1267, 9733.647
207.6088, 9740.221
208.0910, 9747.271
208.5731, 9751.911
209.0552, 9760.818
209.5373, 9783.367
210.0194, 9824.563
210.5015, 9872.632
210.9837, 9914.991
211.4658, 9950.988
211.9479, 9989.546
212.4300, 10037.49
212.9121, 10087.68
213.3942, 10132.25
213.8764, 10169.93
214.3585, 10203.89
214.8406, 10234.07
215.3227, 10260.76
215.8048, 10294.09
216.2869, 10340.33
216.7691, 10392.54
217.2512, 10442.33
217.7333, 10488.98
218.2154, 10538.95
218.6975, 10606.62
219.1796, 10688.78
219.6618, 10745.33
220.1439, 10752.05
220.6260, 10745.08
221.1081, 10752.93
221.5902, 10776.17
222.0723, 10819.33
222.5545, 10899.60
223.0366, 11007.33
223.5187, 11094.68
224.0008, 11153.44
224.4829, 11187.26
224.9650, 11196.76
225.4472, 11184.80
225.9293, 11169.68
226.4114, 11163.32
226.8935, 11161.64
227.3756, 11150.30
227.8577, 11122.94
228.3399, 11095.60
228.8220, 11087.88
229.3041, 11092.13
229.7862, 11081.87
230.2683, 11034.04
230.7504, 10966.22
231.2325, 10916.96
231.7147, 10893.72
232.1968, 10870.77
232.6789, 10820.46
233.1610, 10757.24
233.6431, 10710.19
234.1252, 10701.72
234.6074, 10707.69
235.0895, 10690.91
235.5716, 10647.54
236.0537, 10603.44
236.5358, 10571.07
237.0179, 10548.46
237.5001, 10534.39
237.9822, 10536.91
238.4643, 10538.88
238.9464, 10516.66
239.4285, 10469.77
239.9106, 10432.81
240.3928, 10428.03
240.8749, 10440.93
241.3570, 10446.31
241.8391, 10439.93
242.3212, 10431.09
242.8033, 10425.92
243.2855, 10424.17
243.7676, 10425.20
244.2497, 10433.07
244.7318, 10439.01
245.2139, 10429.54
245.6960, 10401.63
246.1782, 10371.37
246.6603, 10341.61
247.1424, 10315.45
247.6245, 10303.44
248.1066, 10311.43
248.5887, 10329.16
249.0709, 10342.43
249.5530, 10350.56
250.0351, 10364.78
250.5172, 10399.48
250.9993, 10440.32
251.4814, 10456.30
251.9636, 10436.78
252.4457, 10417.11
252.9278, 10447.84
253.4099, 10523.92
253.8920, 10568.50
254.3741, 10530.36
254.8563, 10474.02
255.3384, 10477.91
255.8205, 10549.43
256.3026, 10624.66
256.7847, 10650.49
257.2668, 10629.58
257.7490, 10619.40
258.2311, 10622.71
258.7132, 10635.99
259.1953, 10661.78
259.6774, 10697.69
260.1595, 10730.34
260.6417, 10750.58
261.1238, 10761.54
261.6059, 10779.08
262.0880, 10808.83
262.5701, 10838.27
263.0522, 10865.98
263.5344, 10889.63
264.0165, 10902.41
264.4986, 10899.39
264.9807, 10887.55
265.4628, 10886.05
265.9449, 10905.91
266.4271, 10915.94
266.9092, 10898.36
267.3913, 10871.83
267.8734, 10864.92
268.3555, 10886.53
268.8376, 10915.44
269.3198, 10918.88
269.8019, 10881.76
270.2840, 10848.84
270.7661, 10822.77
271.2482, 10799.19
271.7303, 10774.62
272.2125, 10748.55
272.6946, 10722.92
273.1767, 10700.12
273.6588, 10681.66
274.1409, 10657.22
274.6230, 10618.33
275.1052, 10582.39
275.5873, 10558.84
276.0694, 10545.94
276.5515, 10537.23
277.0336, 10529.01
277.5157, 10520.69
277.9979, 10502.36
278.4800, 10459.76
278.9621, 10423.19
279.4442, 10400.56
279.9263, 10387.64
280.4084, 10377.61
280.8906, 10367.05
281.3727, 10357.20
281.8548, 10352.63
282.3369, 10366.80
282.8190, 10365.40
283.3011, 10332.59
283.7833, 10291.75
284.2654, 10262.37
284.7475, 10250.35
285.2296, 10249.69
285.7117, 10254.25
286.1938, 10270.38
286.6760, 10273.73
287.1581, 10248.19
287.6402, 10223.11
288.1223, 10220.86
288.6044, 10237.76
289.0865, 10248.70
289.5687, 10224.17
290.0508, 10162.70
290.5329, 10126.46
291.0150, 10132.90
291.4971, 10147.62
291.9792, 10165.83
292.4614, 10181.96
292.9435, 10185.15
293.4256, 10163.15
293.9077, 10127.93
294.3898, 10120.44
294.8719, 10157.53
295.3541, 10184.36
295.8362, 10168.79
296.3183, 10137.96
296.8004, 10121.38
297.2825, 10129.45
297.7646, 10148.52
298.2468, 10163.41
298.7289, 10174.08
299.2110, 10181.44
299.6931, 10188.68
300.1752, 10189.73
300.6573, 10173.07
301.1395, 10136.84
301.6216, 10111.50
302.1037, 10129.09
302.5858, 10176.75
303.0679, 10202.83
303.5500, 10191.47
304.0321, 10172.98
304.5143, 10180.02
304.9964, 10206.47
305.4785, 10223.59
305.9606, 10212.54
306.4427, 10191.71
306.9248, 10187.51
307.4070, 10202.11
307.8891, 10215.25
308.3712, 10210.58
308.8533, 10193.00
309.3354, 10185.31
309.8175, 10190.09
310.2997, 10202.87
310.7818, 10229.27
311.2639, 10263.12
311.7460, 10283.29
312.2281, 10278.20
312.7102, 10258.15
313.1924, 10250.16
313.6745, 10266.66
314.1566, 10268.01
314.6387, 10232.59
315.1208, 10183.57
315.6029, 10147.61
316.0851, 10131.31
316.5672, 10128.23
317.0493, 10132.17
317.5314, 10147.56
318.0135, 10152.42
318.4956, 10138.58
318.9778, 10122.16
319.4599, 10110.57
319.9420, 10104.70
320.4241, 10103.81
320.9062, 10108.06
321.3883, 10116.86
321.8705, 10121.79
322.3526, 10123.76
322.8347, 10120.56
323.3168, 10107.50
323.7989, 10090.37
324.2810, 10074.61
324.7632, 10062.63
325.2453, 10056.94
325.7274, 10063.73
326.2095, 10087.71
326.6916, 10114.57
327.1737, 10160.11
327.6559, 10195.65
328.1380, 10193.42
328.6201, 10154.84
329.1022, 10112.16
329.5843, 10097.17
330.0664, 10110.67
330.5486, 10130.10
331.0307, 10166.51
331.5128, 10194.98
331.9949, 10201.04
332.4770, 10191.46
332.9591, 10180.99
333.4413, 10178.54
333.9234, 10178.56
334.4055, 10168.73
334.8876, 10147.08
335.3697, 10123.42
335.8518, 10088.51
336.3340, 10060.47
336.8161, 10067.59
337.2982, 10125.74
337.7803, 10179.00
338.2624, 10173.51
338.7445, 10122.93
339.2267, 10091.39
339.7088, 10099.77
340.1909, 10123.02
340.6730, 10130.41
341.1551, 10122.90
341.6372, 10117.16
342.1194, 10119.39
342.6015, 10124.72
343.0836, 10125.28
343.5657, 10120.91
344.0478, 10122.66
344.5299, 10142.03
345.0121, 10176.38
345.4942, 10196.13
345.9763, 10191.59
346.4584, 10184.24
346.9405, 10179.83
347.4226, 10179.00
347.9048, 10182.37
348.3869, 10190.23
348.8690, 10202.33
349.3511, 10218.57
349.8332, 10247.44
350.3153, 10266.79
350.7975, 10268.21
351.2796, 10266.40
351.7617, 10272.28
352.2438, 10287.00
352.7259, 10305.33
353.2080, 10322.04
353.6902, 10336.77
354.1723, 10354.29
354.6544, 10373.52
355.1365, 10397.08
355.6186, 10436.23
356.1007, 10478.05
356.5829, 10497.51
357.0650, 10477.00
357.5471, 10444.62
358.0292, 10472.90
358.5113, 10594.18
358.9934, 10677.44
359.4756, 10648.52
359.9577, 10598.38
360.4398, 10589.99
360.9219, 10631.47
361.4040, 10688.70
361.8861, 10740.74
362.3683, 10787.00
362.8504, 10820.86
363.3325, 10835.52
363.8146, 10850.26
364.2967, 10876.11
364.7788, 10912.76
365.2610, 10962.29
365.7431, 11040.89
366.2252, 11121.30
366.7073, 11173.25
367.1894, 11199.45
367.6715, 11225.23
368.1537, 11262.27
368.6358, 11305.95
369.1179, 11344.15
369.6000, 11373.03
370.0821, 11405.87
370.5642, 11460.58
371.0464, 11514.92
371.5285, 11535.45
372.0106, 11516.73
372.4927, 11487.05
372.9748, 11478.31
373.4569, 11496.59
373.9391, 11494.87
374.4212, 11464.37
374.9033, 11426.19
375.3854, 11388.37
375.8675, 11349.57
376.3496, 11304.49
376.8318, 11249.74
377.3139, 11189.10
377.7960, 11133.01
378.2781, 11081.77
378.7602, 11034.49
379.2423, 10993.41
379.7245, 10953.84
380.2066, 10913.12
380.6887, 10870.29
381.1708, 10824.56
381.6529, 10770.80
382.1350, 10709.57
382.6172, 10662.37
383.0993, 10635.81
383.5814, 10614.16
384.0635, 10593.61
384.5456, 10571.35
385.0277, 10540.67
385.5099, 10493.14
385.9920, 10444.76
386.4741, 10420.07
386.9562, 10417.96
387.4383, 10408.01
387.9204, 10371.12
388.4026, 10330.88
388.8847, 10328.58
389.3668, 10371.32
389.8489, 10398.11
390.3310, 10374.24
390.8131, 10329.49
391.2953, 10301.87
391.7774, 10295.83
392.2595, 10296.60
392.7416, 10294.02
393.2237, 10287.85
393.7058, 10274.32
394.1880, 10239.75
394.6701, 10214.39
395.1522, 10217.61
395.6343, 10233.57
396.1164, 10236.43
396.5985, 10216.31
397.0807, 10185.96
397.5628, 10167.22
398.0449, 10162.71
398.5270, 10164.48
399.0091, 10181.65
399.4912, 10196.29
399.9734, 10200.79
400.4555, 10194.56
400.9376, 10178.33
401.4197, 10148.85
401.9018, 10111.89
402.3839, 10090.87
402.8660, 10092.04
403.3481, 10094.38
403.8303, 10095.21
404.3124, 10091.22
404.7945, 10076.02
405.2766, 10047.01
405.7587, 10019.35
406.2408, 10008.17
406.7230, 10008.73
407.2051, 10002.65
407.6872, 9985.639
408.1693, 9965.458
408.6514, 9946.906
409.1335, 9930.532
409.6157, 9920.322
410.0978, 9919.412
410.5799, 9922.616
411.0620, 9933.175
411.5441, 9945.717
412.0262, 9942.140
412.5084, 9912.176
412.9905, 9869.361
413.4726, 9843.391
413.9547, 9850.991
414.4368, 9848.232
414.9189, 9825.575
415.4011, 9799.787
415.8832, 9782.834
416.3653, 9774.987
416.8474, 9770.412
417.3295, 9765.749
417.8116, 9759.946
418.2938, 9741.495
418.7759, 9691.431
419.2580, 9658.063
419.7401, 9659.902
420.2222, 9678.067
420.7043, 9696.312
421.1865, 9710.238
421.6686, 9716.838
422.1507, 9710.980
422.6328, 9693.528
423.1149, 9673.913
423.5970, 9650.542
424.0792, 9629.879
424.5613, 9618.477
425.0434, 9613.821
425.5255, 9609.440
426.0076, 9599.465
426.4897, 9592.526
426.9719, 9602.863
427.4540, 9624.661
427.9361, 9630.976
428.4182, 9607.271
428.9003, 9571.375
429.3824, 9558.008
429.8646, 9580.708
430.3467, 9590.901
430.8288, 9569.923
431.3109, 9547.372
431.7930, 9550.248
432.2751, 9574.332
432.7573, 9594.413
433.2394, 9591.312
433.7215, 9569.774
434.2036, 9558.330
434.6857, 9563.191
435.1678, 9569.362
435.6500, 9574.412
436.1321, 9579.813
436.6142, 9590.979
437.0963, 9607.363
437.5784, 9615.574
438.0605, 9593.023
438.5427, 9545.155
439.0248, 9525.699
439.5069, 9548.767
439.9890, 9575.263
440.4711, 9583.070
440.9532, 9577.784
441.4354, 9566.545
441.9175, 9546.637
442.3996, 9527.734
442.8817, 9516.500
443.3638, 9511.929
443.8459, 9512.370
444.3281, 9518.153
444.8102, 9524.534
445.2923, 9524.333
445.7744, 9514.550
446.2565, 9515.062
446.7386, 9544.681
447.2208, 9566.603
447.7029, 9551.302
448.1850, 9513.613
448.6671, 9488.941
449.1492, 9495.895
449.6313, 9519.376
450.1135, 9522.890
450.5956, 9496.317
451.0777, 9473.047
451.5598, 9449.757
452.0419, 9434.672
452.5240, 9439.667
453.0062, 9458.910
453.4883, 9471.296
453.9704, 9459.504
454.4525, 9433.503
454.9346, 9415.733
455.4167, 9405.946
455.8989, 9407.884
456.3810, 9440.101
456.8631, 9472.498
457.3452, 9455.944
457.8273, 9377.735
458.3094, 9312.268
458.7916, 9298.421
459.2737, 9309.510
459.7558, 9311.116
460.2379, 9299.872
460.7200, 9290.389
461.2021, 9294.000
461.6843, 9308.812
462.1664, 9319.974
462.6485, 9331.535
463.1306, 9334.457
463.6127, 9322.013
464.0948, 9303.259
464.5770, 9283.748
465.0591, 9266.414
465.5412, 9257.500
466.0233, 9269.004
466.5054, 9300.546
466.9875, 9306.738
467.4697, 9264.869
467.9518, 9233.008
468.4339, 9245.993
468.9160, 9276.350
469.3981, 9286.624
469.8802, 9264.014
470.3624, 9234.785
470.8445, 9221.348
471.3266, 9220.059
471.8087, 9217.645
472.2908, 9210.721
472.7729, 9207.300
473.2551, 9218.592
473.7372, 9243.380
474.2193, 9251.917
474.7014, 9236.254
475.1835, 9212.839
475.6656, 9176.508
476.1478, 9140.414
476.6299, 9128.917
477.1120, 9149.357
477.5941, 9182.988
478.0762, 9203.451
478.5583, 9208.487
479.0405, 9210.353
479.5226, 9205.296
480.0047, 9200.786
480.4868, 9202.757
480.9689, 9206.118
481.4510, 9200.307
481.9332, 9178.859
482.4153, 9156.129
482.8974, 9154.493
483.3795, 9172.851
483.8616, 9182.970
484.3438, 9175.802
484.8259, 9165.302
485.3080, 9164.973
485.7901, 9172.992
486.2722, 9181.863
486.7543, 9195.207
487.2365, 9204.431
487.7186, 9202.914
488.2007, 9192.737
488.6828, 9175.669
489.1649, 9151.667
489.6470, 9132.273
490.1292, 9138.284
490.6113, 9184.362
491.0934, 9211.005
491.5755, 9204.232
492.0576, 9195.025
492.5397, 9197.942
493.0219, 9207.959
493.5040, 9214.704
493.9861, 9213.601
494.4682, 9205.027
494.9503, 9185.339
495.4324, 9153.071
495.9146, 9133.508
496.3967, 9139.286
496.8788, 9148.135
497.3609, 9134.099
497.8430, 9104.932
498.3251, 9094.337
498.8073, 9131.164
499.2894, 9172.785
499.7715, 9183.946
500.2536, 9171.966
500.7357, 9157.901
501.2178, 9149.302
501.6999, 9143.203
502.1820, 9134.063
502.6642, 9116.839
503.1463, 9115.193
503.6284, 9143.391
504.1105, 9170.412
504.5926, 9181.573
505.0747, 9182.342
505.5569, 9184.661
506.0390, 9194.097
506.5211, 9204.055
507.0032, 9201.159
507.4853, 9184.040
507.9674, 9176.257
508.4496, 9184.627
508.9317, 9197.782
509.4138, 9207.647
509.8959, 9215.507
510.3780, 9225.129
510.8601, 9242.339
511.3423, 9256.414
511.8244, 9258.336
512.3065, 9251.074
512.7886, 9236.825
513.2708, 9215.494
513.7529, 9205.261
514.2350, 9233.771
514.7171, 9312.893
515.1992, 9355.448
515.6813, 9344.248
516.1635, 9320.583
516.6456, 9282.362
517.1277, 9245.242
517.6098, 9233.513
518.0919, 9254.769
518.5740, 9283.746
519.0562, 9286.670
519.5383, 9264.644
520.0204, 9252.688
520.5025, 9257.916
520.9846, 9263.484
521.4667, 9263.860
521.9489, 9256.178
522.4310, 9230.985
522.9131, 9172.429
523.3952, 9122.914
523.8773, 9112.825
524.3594, 9123.393
524.8416, 9122.678
525.3237, 9105.290
525.8058, 9089.577
526.2879, 9094.400
526.7700, 9117.996
527.2521, 9120.254
527.7343, 9074.204
528.2164, 9039.903
528.6985, 9026.851
529.1806, 9027.718
529.6627, 9045.416
530.1448, 9075.312
530.6270, 9090.100
531.1091, 9048.603
531.5912, 8972.636
532.0733, 8947.634
532.5554, 8983.467
533.0375, 9015.334
533.5197, 9008.494
534.0018, 8983.588
534.4839, 8979.639
534.9660, 9001.516
535.4481, 9024.166
535.9302, 9049.739
536.4124, 9066.936
536.8945, 9060.778
537.3766, 9035.343
537.8587, 9006.653
538.3408, 8983.486
538.8229, 8967.839
539.3051, 8967.565
539.7872, 8993.945
540.2693, 9009.553
540.7514, 9007.865
541.2335, 8997.981
541.7156, 8978.424
542.1978, 8954.037
542.6799, 8937.377
543.1620, 8937.198
543.6441, 8943.439
544.1262, 8942.664
544.6083, 8936.481
545.0905, 8937.494
545.5726, 8952.288
546.0547, 8964.427
546.5368, 8954.094
547.0189, 8918.308
547.5010, 8884.857
547.9832, 8845.861
548.4653, 8817.811
548.9474, 8807.998
549.4295, 8812.795
549.9116, 8833.790
550.3937, 8868.886
550.8758, 8898.633
551.3579, 8898.047
551.8400, 8867.752
552.3221, 8831.304
552.8043, 8777.736
553.2864, 8740.520
553.7685, 8751.413
554.2506, 8781.174
554.7327, 8796.204
555.2148, 8791.553
555.6970, 8777.278
556.1791, 8753.568
556.6612, 8725.516
557.1433, 8690.391
557.6254, 8652.983
558.1075, 8645.393
558.5897, 8693.243
559.0718, 8773.183
559.5539, 8810.990
560.0360, 8782.681
560.5181, 8752.790
561.0002, 8717.113
561.4824, 8686.187
561.9645, 8670.454
562.4466, 8664.985
562.9287, 8655.183
563.4108, 8630.878
563.8929, 8603.648
564.3751, 8592.591
564.8572, 8595.722
565.3393, 8594.326
565.8214, 8582.755
566.3035, 8569.265
566.7856, 8561.826
567.2678, 8560.687
567.7499, 8560.030
568.2320, 8552.241
568.7141, 8553.760
569.1962, 8583.318
569.6783, 8619.307
570.1605, 8635.548
570.6426, 8626.308
571.1247, 8601.796
571.6068, 8565.688
572.0889, 8522.232
572.5710, 8511.896
573.0532, 8549.182
573.5353, 8581.186
574.0174, 8584.607
574.4995, 8576.259
574.9816, 8576.359
575.4637, 8586.950
575.9459, 8586.984
576.4280, 8553.698
576.9101, 8517.275
577.3922, 8513.399
577.8743, 8534.055
578.3564, 8544.361
578.8386, 8527.828
579.3207, 8500.351
579.8028, 8490.757
580.2849, 8504.703
580.7670, 8517.286
581.2491, 8536.774
581.7313, 8545.771
582.2134, 8530.430
582.6955, 8503.202
583.1776, 8483.329
583.6597, 8477.306
584.1418, 8475.096
584.6240, 8468.505
585.1061, 8459.183
585.5882, 8451.927
586.0703, 8447.368
586.5524, 8439.995
587.0345, 8423.844
587.5167, 8403.825
587.9988, 8398.081
588.4809, 8424.951
588.9630, 8440.130
589.4451, 8431.082
589.9272, 8419.891
590.4094, 8423.852
590.8915, 8439.034
591.3736, 8451.189
591.8557, 8453.420
592.3378, 8446.231
592.8199, 8423.432
593.3021, 8386.254
593.7842, 8370.850
594.2663, 8392.140
594.7484, 8415.988
595.2305, 8411.942
595.7126, 8383.270
596.1948, 8360.396
596.6769, 8344.924
597.1590, 8333.954
597.6411, 8327.443
598.1232, 8324.444
598.6053, 8325.819
599.0875, 8330.361
599.5696, 8332.451
600.0517, 8325.941
600.5338, 8315.498
601.0159, 8320.516
601.4980, 8346.196
601.9802, 8365.483
602.4623, 8375.142
602.9444, 8372.382
603.4265, 8349.066
603.9086, 8308.727
604.3907, 8277.560
604.8729, 8259.755
605.3550, 8254.652
605.8371, 8274.624
606.3192, 8303.463
606.8013, 8308.463
607.2834, 8283.203
607.7656, 8253.412
608.2477, 8247.230
608.7298, 8262.544
609.2119, 8266.184
609.6940, 8251.684
610.1761, 8238.077
610.6583, 8232.972
611.1404, 8229.133
611.6225, 8217.018
