##NAMES=Olivenite
##RRUFFID=R040181
##IDEAL CHEMISTRY=Cu^2+^_2_As^5+^O_4_(OH)
##LOCALITY=Majuba Hill, Pershing County, Nevada, USA
##OWNER=RRUFF
##SOURCE=University of Arizona Mineral Museum
##DESCRIPTION=Greenish blue prismatic, untwinned. Structure for this sample reported in Li et al (2008).
##STATUS=The identification of this mineral has been confirmed by X-ray diffraction and chemical analysis
##URL=rruff.info/R040181
##MEASURED CHEMISTRY=(Cu_0.98_[box]_0.02_)_2_(As_0.90_P_0.10_O_4_)(OH)_0.92_
127.4844, 1814.040
127.9666, 1911.848
128.4487, 2005.364
128.9308, 2098.411
129.4129, 2194.227
129.8950, 2292.705
130.3772, 2388.255
130.8593, 2479.709
131.3414, 2567.576
131.8235, 2652.421
132.3056, 2732.478
132.7877, 2813.656
133.2699, 2903.894
133.7520, 3003.950
134.2341, 3105.051
134.7162, 3199.843
135.1983, 3288.675
135.6804, 3395.140
136.1626, 3523.788
136.6447, 3662.116
137.1268, 3783.376
137.6089, 3881.128
138.0910, 3981.341
138.5731, 4095.864
139.0553, 4228.914
139.5374, 4362.201
140.0195, 4492.950
140.5016, 4623.274
140.9837, 4754.055
141.4658, 4880.355
141.9480, 5016.889
142.4301, 5175.092
142.9122, 5367.546
143.3943, 5553.598
143.8764, 5724.826
144.3585, 5880.410
144.8407, 6055.421
145.3228, 6251.824
145.8049, 6465.111
146.2870, 6691.009
146.7691, 6941.812
147.2512, 7185.354
147.7334, 7412.476
148.2155, 7622.542
148.6976, 7828.835
149.1797, 8046.001
149.6618, 8255.605
150.1439, 8431.595
150.6261, 8590.075
151.1082, 8698.449
151.5903, 8743.440
152.0724, 8708.665
152.5545, 8647.035
153.0366, 8559.553
153.5188, 8447.759
154.0009, 8315.262
154.4830, 8134.701
154.9651, 7952.868
155.4472, 7788.717
155.9293, 7651.776
156.4115, 7522.935
156.8936, 7403.002
157.3757, 7289.088
157.8578, 7169.418
158.3399, 7041.558
158.8221, 6906.522
159.3042, 6763.606
159.7863, 6592.065
160.2684, 6432.897
160.7505, 6299.394
161.2326, 6189.435
161.7148, 6096.535
162.1969, 6019.480
162.6790, 5957.112
163.1611, 5909.136
163.6432, 5881.349
164.1253, 5862.513
164.6075, 5849.643
165.0896, 5842.736
165.5717, 5834.393
166.0538, 5819.055
166.5359, 5799.907
167.0180, 5781.503
167.5002, 5765.624
167.9823, 5751.100
168.4644, 5731.996
168.9465, 5705.035
169.4286, 5693.274
169.9107, 5714.568
170.3929, 5763.500
170.8750, 5829.322
171.3571, 5907.502
171.8392, 5998.678
172.3213, 6105.466
172.8034, 6229.332
173.2856, 6361.419
173.7677, 6498.417
174.2498, 6638.586
174.7319, 6773.400
175.2140, 6907.774
175.6961, 7031.596
176.1783, 7122.853
176.6604, 7162.715
177.1425, 7193.711
177.6246, 7272.372
178.1067, 7392.276
178.5888, 7517.240
179.0710, 7614.442
179.5531, 7695.754
180.0352, 7787.144
180.5173, 7899.535
180.9994, 8019.046
181.4815, 8128.971
181.9637, 8229.727
182.4458, 8304.312
182.9279, 8357.160
183.4100, 8377.300
183.8921, 8323.001
184.3742, 8163.964
184.8564, 7930.767
185.3385, 7692.892
185.8206, 7448.231
186.3027, 7199.654
186.7848, 6937.280
187.2669, 6665.763
187.7491, 6410.968
188.2312, 6175.513
188.7133, 5964.310
189.1954, 5796.972
189.6775, 5679.082
190.1596, 5585.163
190.6418, 5484.217
191.1239, 5377.013
191.6060, 5276.342
192.0881, 5181.816
192.5702, 5095.452
193.0524, 5036.552
193.5345, 5007.565
194.0166, 4999.790
194.4987, 5004.308
194.9808, 5021.693
195.4629, 5042.813
195.9451, 5056.812
196.4272, 5064.434
196.9093, 5100.463
197.3914, 5170.102
197.8735, 5261.698
198.3556, 5354.762
198.8378, 5448.468
199.3199, 5546.605
199.8020, 5648.143
200.2841, 5751.378
200.7662, 5869.750
201.2483, 6004.069
201.7305, 6153.870
202.2126, 6322.952
202.6947, 6516.811
203.1768, 6709.434
203.6589, 6882.501
204.1410, 7030.445
204.6232, 7187.142
205.1053, 7355.961
205.5874, 7535.194
206.0695, 7721.488
206.5516, 7918.264
207.0337, 8113.119
207.5159, 8296.390
207.9980, 8460.504
208.4801, 8632.146
208.9622, 8812.773
209.4443, 9003.296
209.9264, 9209.579
210.4086, 9435.102
210.8907, 9670.410
211.3728, 9907.229
211.8549, 10149.55
212.3370, 10385.85
212.8191, 10612.93
213.3013, 10831.43
213.7834, 11068.35
214.2655, 11336.98
214.7476, 11603.66
215.2297, 11837.20
215.7118, 12036.04
216.1940, 12212.91
216.6761, 12373.02
217.1582, 12516.22
217.6403, 12620.89
218.1224, 12686.55
218.6045, 12713.00
219.0867, 12698.87
219.5688, 12642.73
220.0509, 12548.62
220.5330, 12416.35
221.0151, 12243.91
221.4972, 12050.40
221.9794, 11832.23
222.4615, 11595.23
222.9436, 11339.71
223.4257, 11054.30
223.9078, 10769.91
224.3899, 10495.09
224.8721, 10225.87
225.3542, 9970.222
225.8363, 9725.100
226.3184, 9494.298
226.8005, 9280.526
227.2827, 9095.915
227.7648, 8907.680
228.2469, 8705.408
228.7290, 8486.940
229.2111, 8277.051
229.6932, 8078.597
230.1754, 7888.891
230.6575, 7701.545
231.1396, 7515.512
231.6217, 7335.897
232.1038, 7163.352
232.5859, 6997.138
233.0681, 6841.253
233.5502, 6691.940
234.0323, 6556.148
234.5144, 6445.054
234.9965, 6375.501
235.4786, 6303.600
235.9608, 6215.831
236.4429, 6110.833
236.9250, 6000.601
237.4071, 5878.721
237.8892, 5756.389
238.3713, 5653.492
238.8535, 5584.311
239.3356, 5510.629
239.8177, 5418.987
240.2998, 5303.376
240.7819, 5191.775
241.2640, 5082.349
241.7462, 4976.204
242.2283, 4874.095
242.7104, 4774.632
243.1925, 4681.466
243.6746, 4595.365
244.1567, 4515.271
244.6389, 4445.099
245.1210, 4386.208
245.6031, 4336.495
246.0852, 4293.603
246.5673, 4260.789
247.0494, 4229.260
247.5316, 4195.994
248.0137, 4160.387
248.4958, 4124.171
248.9779, 4083.792
249.4600, 4045.017
249.9421, 4020.627
250.4243, 4017.414
250.9064, 4016.036
251.3885, 4008.234
251.8706, 3989.269
252.3527, 3980.625
252.8348, 3987.659
253.3170, 4001.678
253.7991, 4005.161
254.2812, 3992.010
254.7633, 3979.891
255.2454, 3974.555
255.7275, 3975.688
256.2097, 3985.207
256.6918, 4004.359
257.1739, 4030.912
257.6560, 4062.395
258.1381, 4102.635
258.6202, 4139.949
259.1024, 4167.614
259.5845, 4179.690
260.0666, 4206.059
260.5487, 4250.124
261.0308, 4305.886
261.5129, 4364.867
261.9951, 4426.589
262.4772, 4491.405
262.9593, 4556.339
263.4414, 4618.452
263.9235, 4698.258
264.4056, 4800.477
264.8878, 4917.053
265.3699, 5036.318
265.8520, 5158.703
266.3341, 5285.347
266.8162, 5415.602
267.2983, 5545.820
267.7805, 5696.336
268.2626, 5868.493
268.7447, 6058.288
269.2268, 6262.194
269.7089, 6484.260
270.1910, 6704.868
270.6732, 6914.088
271.1553, 7107.636
271.6374, 7322.172
272.1195, 7556.653
272.6016, 7814.228
273.0837, 8091.836
273.5659, 8390.727
274.0480, 8708.710
274.5301, 9055.130
275.0122, 9429.859
275.4943, 9790.373
275.9764, 10130.82
276.4586, 10468.06
276.9407, 10828.65
277.4228, 11209.18
277.9049, 11602.71
278.3870, 12012.84
278.8691, 12437.62
279.3513, 12834.43
279.8334, 13204.73
280.3155, 13543.25
280.7976, 13849.89
281.2798, 14123.00
281.7619, 14343.10
282.2440, 14507.45
282.7261, 14614.02
283.2082, 14649.70
283.6903, 14615.99
284.1725, 14505.87
284.6546, 14298.70
285.1367, 13998.02
285.6188, 13647.69
286.1009, 13248.35
286.5830, 12810.66
287.0652, 12369.14
287.5473, 11923.47
288.0294, 11499.74
288.5115, 11135.47
288.9936, 10824.42
289.4757, 10528.52
289.9579, 10221.75
290.4400, 9922.542
290.9221, 9677.146
291.4042, 9487.378
291.8863, 9328.764
292.3684, 9175.145
292.8506, 9031.352
293.3327, 8915.908
293.8148, 8838.852
294.2969, 8790.419
294.7790, 8746.574
295.2611, 8707.228
295.7433, 8690.288
296.2254, 8723.028
296.7075, 8792.005
297.1896, 8856.983
297.6717, 8900.779
298.1538, 8940.984
298.6360, 9005.313
299.1181, 9092.858
299.6002, 9185.809
300.0823, 9270.720
300.5644, 9352.213
301.0465, 9439.973
301.5287, 9537.938
302.0108, 9641.304
302.4929, 9745.458
302.9750, 9850.593
303.4571, 9951.895
303.9392, 10055.01
304.4214, 10150.53
304.9035, 10226.81
305.3856, 10274.37
305.8677, 10309.87
306.3498, 10346.66
306.8319, 10382.65
307.3141, 10411.18
307.7962, 10435.50
308.2783, 10446.63
308.7604, 10435.42
309.2425, 10398.34
309.7246, 10342.58
310.2068, 10269.76
310.6889, 10181.19
311.1710, 10079.77
311.6531, 9972.813
312.1352, 9849.795
312.6173, 9701.418
313.0995, 9522.852
313.5816, 9333.836
314.0637, 9132.308
314.5458, 8926.498
315.0279, 8730.265
315.5100, 8549.652
315.9922, 8379.456
316.4743, 8217.095
316.9564, 8062.205
317.4385, 7915.425
317.9206, 7772.379
318.4027, 7638.608
318.8849, 7521.853
319.3670, 7430.359
319.8491, 7350.814
320.3312, 7279.922
320.8133, 7217.958
321.2954, 7159.847
321.7776, 7096.458
322.2597, 7039.038
322.7418, 6999.576
323.2239, 6998.126
323.7060, 6996.497
324.1881, 6980.069
324.6703, 6945.708
325.1524, 6932.103
325.6345, 6948.977
326.1166, 6984.081
326.5987, 7028.051
327.0808, 7105.442
327.5630, 7162.426
328.0451, 7182.500
328.5272, 7168.066
329.0093, 7171.738
329.4914, 7200.314
329.9735, 7240.577
330.4557, 7284.946
330.9378, 7339.111
331.4199, 7386.843
331.9020, 7420.671
332.3841, 7446.233
332.8662, 7494.586
333.3484, 7583.307
333.8305, 7667.442
334.3126, 7720.557
334.7947, 7730.544
335.2768, 7746.146
335.7589, 7774.097
336.2411, 7806.532
336.7232, 7823.680
337.2053, 7822.547
337.6874, 7814.444
338.1695, 7800.590
338.6516, 7778.872
339.1338, 7771.888
339.6159, 7782.570
340.0980, 7804.143
340.5801, 7824.179
341.0622, 7842.092
341.5443, 7866.596
342.0265, 7905.262
342.5086, 7955.792
342.9907, 8001.949
343.4728, 8044.545
343.9549, 8078.015
344.4370, 8088.551
344.9192, 8078.822
345.4013, 8075.557
345.8834, 8096.450
346.3655, 8128.223
346.8476, 8134.405
347.3297, 8114.656
347.8119, 8081.105
348.2940, 8047.097
348.7761, 8008.574
349.2582, 7954.100
349.7403, 7875.761
350.2225, 7783.457
350.7046, 7687.218
351.1867, 7587.024
351.6688, 7489.420
352.1509, 7399.701
352.6331, 7315.161
353.1152, 7231.207
353.5973, 7145.024
354.0794, 7062.592
354.5615, 6987.415
355.0436, 6919.989
355.5258, 6861.824
356.0079, 6824.426
356.4900, 6790.732
356.9721, 6745.133
357.4542, 6682.848
357.9363, 6616.754
358.4185, 6556.510
358.9006, 6497.088
359.3827, 6429.781
359.8648, 6344.718
360.3469, 6256.031
360.8290, 6172.991
361.3112, 6097.805
361.7933, 6015.305
362.2754, 5916.678
362.7575, 5809.121
363.2396, 5699.999
363.7217, 5592.407
364.2039, 5483.437
364.6860, 5369.646
365.1681, 5250.489
365.6502, 5139.787
366.1323, 5043.634
366.6144, 4952.788
367.0966, 4860.536
367.5787, 4761.521
368.0608, 4668.565
368.5429, 4582.771
369.0250, 4503.453
369.5071, 4429.174
369.9893, 4360.663
370.4714, 4296.623
370.9535, 4236.703
371.4356, 4183.007
371.9177, 4129.821
372.3998, 4075.927
372.8820, 4022.891
373.3641, 3975.485
373.8462, 3935.780
374.3283, 3896.284
374.8104, 3848.057
375.2925, 3787.043
375.7747, 3769.242
376.2568, 3810.998
376.7389, 3863.293
377.2210, 3852.812
377.7031, 3774.989
378.1852, 3699.946
378.6674, 3646.437
379.1495, 3612.883
379.6316, 3595.997
380.1137, 3597.916
380.5958, 3598.406
381.0779, 3574.363
381.5601, 3530.702
382.0422, 3493.586
382.5243, 3468.644
383.0064, 3452.282
383.4885, 3440.641
383.9706, 3433.054
384.4528, 3425.428
384.9349, 3416.135
385.4170, 3404.615
385.8991, 3388.672
386.3812, 3366.279
386.8633, 3344.513
387.3455, 3331.310
387.8276, 3323.858
388.3097, 3315.495
388.7918, 3305.284
389.2739, 3291.358
389.7560, 3270.169
390.2382, 3240.688
390.7203, 3213.222
391.2024, 3192.322
391.6845, 3176.903
392.1666, 3165.491
392.6487, 3162.486
393.1309, 3158.994
393.6130, 3150.769
394.0951, 3138.204
394.5772, 3126.821
395.0593, 3117.317
395.5414, 3109.865
396.0236, 3104.674
396.5057, 3100.775
396.9878, 3100.315
397.4699, 3103.720
397.9520, 3110.782
398.4341, 3120.967
398.9163, 3141.411
399.3984, 3157.472
399.8805, 3161.391
400.3626, 3143.832
400.8447, 3142.549
401.3268, 3164.136
401.8090, 3197.143
402.2911, 3226.997
402.7732, 3254.274
403.2553, 3275.766
403.7374, 3288.015
404.2195, 3291.910
404.7017, 3303.457
405.1838, 3323.101
405.6659, 3349.518
406.1480, 3383.332
406.6301, 3424.796
407.1122, 3465.778
407.5944, 3505.621
408.0765, 3543.459
408.5586, 3574.037
409.0407, 3597.669
409.5228, 3624.511
410.0049, 3663.746
410.4871, 3711.113
410.9692, 3753.311
411.4513, 3787.083
411.9334, 3823.997
412.4155, 3884.621
412.8976, 3961.199
413.3798, 4028.956
413.8619, 4073.563
414.3440, 4106.777
414.8261, 4137.534
415.3082, 4166.382
415.7903, 4202.029
416.2725, 4260.048
416.7546, 4324.568
417.2367, 4378.923
417.7188, 4414.768
418.2009, 4441.302
418.6830, 4459.829
419.1652, 4471.560
419.6473, 4480.203
420.1294, 4483.781
420.6115, 4487.093
421.0937, 4494.522
421.5758, 4514.409
422.0579, 4521.174
422.5400, 4507.251
423.0221, 4479.199
423.5042, 4447.324
423.9864, 4412.712
424.4685, 4373.836
424.9506, 4327.140
425.4327, 4271.978
425.9148, 4226.259
426.3969, 4197.232
426.8791, 4169.409
427.3612, 4128.508
427.8433, 4069.449
428.3254, 4013.481
428.8075, 3963.426
429.2896, 3918.663
429.7718, 3879.236
430.2539, 3846.041
430.7360, 3813.034
431.2181, 3773.709
431.7002, 3729.220
432.1823, 3698.709
432.6645, 3685.721
433.1466, 3677.976
433.6287, 3656.810
434.1108, 3625.222
434.5929, 3598.045
435.0750, 3582.733
435.5572, 3575.335
436.0393, 3570.549
436.5214, 3568.239
437.0035, 3565.484
437.4856, 3557.318
437.9677, 3548.106
438.4499, 3545.278
438.9320, 3556.767
439.4141, 3564.756
439.8962, 3548.286
440.3783, 3517.667
440.8604, 3498.992
441.3426, 3518.006
441.8247, 3541.707
442.3068, 3550.257
442.7889, 3538.157
443.2710, 3526.997
443.7531, 3523.904
444.2353, 3524.151
444.7174, 3522.458
445.1995, 3508.107
445.6816, 3502.779
446.1637, 3515.367
446.6458, 3543.479
447.1280, 3562.994
447.6101, 3572.232
448.0922, 3574.719
448.5743, 3571.334
449.0564, 3558.655
449.5385, 3548.572
450.0207, 3539.925
450.5028, 3535.330
450.9849, 3542.763
451.4670, 3565.408
451.9491, 3583.561
452.4312, 3588.823
452.9134, 3582.563
453.3955, 3574.874
453.8776, 3565.507
454.3597, 3556.665
454.8418, 3551.433
455.3239, 3548.860
455.8061, 3544.302
456.2882, 3533.883
456.7703, 3525.358
457.2524, 3534.166
457.7345, 3556.059
458.2166, 3573.897
458.6988, 3572.569
459.1809, 3564.165
459.6630, 3562.538
460.1451, 3570.108
460.6272, 3576.852
461.1093, 3570.259
461.5915, 3561.002
462.0736, 3562.542
462.5557, 3589.340
463.0378, 3617.853
463.5199, 3642.850
464.0020, 3663.340
464.4842, 3674.133
464.9663, 3661.118
465.4484, 3647.577
465.9305, 3646.091
466.4126, 3665.185
466.8947, 3681.966
467.3769, 3692.741
467.8590, 3702.739
468.3411, 3722.034
468.8232, 3757.892
469.3053, 3787.954
469.7874, 3803.049
470.2696, 3804.617
470.7517, 3819.712
471.2338, 3849.823
471.7159, 3888.593
472.1980, 3933.272
472.6801, 3983.808
473.1623, 4029.684
473.6444, 4069.286
474.1265, 4104.586
474.6086, 4134.760
475.0907, 4161.550
475.5728, 4196.210
476.0550, 4249.977
476.5371, 4313.803
477.0192, 4372.637
477.5013, 4426.204
477.9834, 4478.107
478.4655, 4524.261
478.9477, 4572.792
479.4298, 4633.782
479.9119, 4714.380
480.3940, 4803.844
480.8761, 4900.730
481.3582, 5002.291
481.8404, 5099.448
482.3225, 5183.428
482.8046, 5267.064
483.2867, 5355.912
483.7688, 5449.550
484.2509, 5551.446
484.7331, 5661.678
485.2152, 5780.142
485.6973, 5910.192
486.1794, 6059.230
486.6615, 6208.075
487.1436, 6357.156
487.6258, 6504.867
488.1079, 6640.651
488.5900, 6756.676
489.0721, 6880.420
489.5542, 7029.813
490.0363, 7205.680
490.5185, 7378.543
491.0006, 7545.909
491.4827, 7711.282
491.9648, 7871.178
492.4470, 8028.760
492.9291, 8200.919
493.4112, 8401.284
493.8933, 8608.658
494.3754, 8777.785
494.8575, 8916.040
495.3397, 9059.604
495.8218, 9245.995
496.3039, 9446.333
496.7860, 9623.168
497.2681, 9766.257
497.7502, 9915.317
498.2324, 10106.24
498.7145, 10312.68
499.1966, 10502.53
499.6787, 10658.38
500.1608, 10802.09
500.6429, 10929.96
501.1251, 11044.53
501.6072, 11180.79
502.0893, 11362.77
502.5714, 11549.56
503.0535, 11721.24
503.5356, 11865.18
504.0178, 12024.67
504.4999, 12208.23
504.9820, 12398.27
505.4641, 12568.80
505.9462, 12714.77
506.4283, 12864.84
506.9105, 13027.62
507.3926, 13199.51
507.8747, 13369.54
508.3568, 13538.84
508.8389, 13696.00
509.3210, 13839.96
509.8032, 13967.66
510.2853, 14077.88
510.7674, 14175.22
511.2495, 14234.49
511.7316, 14229.21
512.2137, 14166.53
512.6959, 14061.99
513.1780, 13922.30
513.6601, 13742.29
514.1422, 13515.54
514.6243, 13243.78
515.1064, 12938.88
515.5886, 12596.05
516.0707, 12226.62
516.5528, 11838.87
517.0349, 11420.90
517.5170, 11004.72
517.9991, 10592.17
518.4813, 10186.29
518.9634, 9791.522
519.4455, 9396.667
519.9276, 9032.574
520.4097, 8706.112
520.8918, 8419.093
521.3740, 8146.538
521.8561, 7887.905
522.3382, 7645.562
522.8203, 7423.984
523.3024, 7223.911
523.7845, 7023.183
524.2667, 6816.217
524.7488, 6621.286
525.2309, 6459.088
525.7130, 6322.972
526.1951, 6193.156
526.6772, 6060.581
527.1594, 5930.793
527.6415, 5812.113
528.1236, 5703.769
528.6057, 5599.396
529.0878, 5490.500
529.5699, 5388.565
530.0521, 5306.747
530.5342, 5250.576
531.0163, 5193.148
531.4984, 5125.623
531.9805, 5051.970
532.4626, 4976.154
532.9448, 4892.159
533.4269, 4814.039
533.9090, 4746.279
534.3911, 4685.861
534.8732, 4623.017
535.3553, 4553.148
535.8375, 4487.925
536.3196, 4431.667
536.8017, 4383.417
537.2838, 4352.877
537.7659, 4345.057
538.2480, 4337.445
538.7302, 4297.923
539.2123, 4232.393
539.6944, 4185.572
540.1765, 4171.622
540.6586, 4172.248
541.1407, 4164.635
541.6229, 4149.929
542.1050, 4132.231
542.5871, 4106.697
543.0692, 4083.737
543.5513, 4073.063
544.0334, 4075.264
544.5156, 4084.613
544.9977, 4111.989
545.4798, 4137.630
545.9619, 4144.598
546.4440, 4109.547
546.9261, 4085.789
547.4083, 4087.521
547.8904, 4103.765
548.3725, 4114.647
548.8546, 4116.734
549.3367, 4119.153
549.8188, 4123.743
550.3010, 4130.489
550.7831, 4140.441
551.2652, 4155.328
551.7473, 4167.681
552.2294, 4170.192
552.7115, 4164.047
553.1937, 4160.456
553.6758, 4160.058
554.1579, 4163.245
554.6400, 4175.951
555.1221, 4193.234
555.6042, 4200.656
556.0864, 4189.772
556.5685, 4170.273
557.0506, 4152.588
557.5327, 4134.619
558.0148, 4108.699
558.4969, 4061.077
558.9791, 4011.748
559.4612, 3975.216
559.9433, 3956.618
560.4254, 3932.389
560.9075, 3892.714
561.3896, 3848.764
561.8718, 3810.888
562.3539, 3792.808
562.8360, 3756.079
563.3181, 3689.632
563.8002, 3607.216
564.2823, 3540.470
564.7645, 3491.759
565.2466, 3450.773
565.7287, 3415.809
566.2108, 3385.692
566.6929, 3357.650
567.1750, 3332.253
567.6572, 3301.063
568.1393, 3248.071
568.6214, 3186.157
569.1035, 3146.306
569.5856, 3137.904
570.0677, 3131.428
570.5499, 3099.960
571.0320, 3054.514
571.5141, 3012.371
571.9962, 2979.218
572.4783, 2951.191
572.9604, 2929.063
573.4426, 2911.829
573.9247, 2893.922
574.4068, 2870.198
574.8889, 2849.887
575.3710, 2838.650
575.8531, 2840.226
576.3353, 2830.845
576.8174, 2804.802
577.2995, 2776.398
577.7816, 2760.067
578.2637, 2757.159
578.7458, 2753.044
579.2280, 2745.869
579.7101, 2736.117
580.1922, 2723.633
580.6743, 2708.900
581.1564, 2694.650
581.6385, 2683.332
582.1207, 2672.553
582.6028, 2658.372
583.0849, 2641.451
583.5670, 2626.019
584.0491, 2612.093
584.5313, 2602.274
585.0134, 2599.935
585.4955, 2608.609
585.9776, 2614.756
586.4597, 2614.498
586.9418, 2610.081
587.4240, 2603.872
587.9061, 2593.604
588.3882, 2585.296
588.8703, 2579.997
589.3524, 2576.957
589.8345, 2574.536
590.3167, 2573.413
590.7988, 2570.169
591.2809, 2562.307
591.7630, 2550.989
592.2451, 2543.364
592.7272, 2539.619
593.2094, 2534.998
593.6915, 2518.832
594.1736, 2500.331
594.6557, 2499.806
595.1378, 2524.159
595.6199, 2550.976
596.1021, 2568.482
596.5842, 2576.500
597.0663, 2574.762
597.5485, 2555.391
598.0306, 2534.496
598.5127, 2512.265
598.9948, 2491.439
599.4769, 2483.448
599.9590, 2498.130
600.4412, 2514.295
600.9233, 2526.583
601.4054, 2535.339
601.8875, 2534.885
602.3696, 2522.748
602.8517, 2507.435
603.3339, 2494.300
603.8160, 2483.534
604.2981, 2481.615
604.7802, 2491.287
605.2623, 2502.810
605.7444, 2503.512
606.2266, 2495.885
606.7087, 2486.461
607.1908, 2474.442
607.6729, 2464.747
608.1550, 2461.879
608.6371, 2464.628
609.1193, 2468.957
609.6014, 2471.934
610.0835, 2477.279
610.5656, 2490.863
611.0477, 2516.128
611.5298, 2523.484
612.0120, 2498.800
612.4941, 2469.329
612.9762, 2452.757
613.4583, 2451.319
613.9404, 2455.973
614.4225, 2469.019
614.9047, 2483.439
615.3868, 2488.657
615.8689, 2485.299
616.3510, 2480.813
616.8331, 2476.274
617.3152, 2473.163
617.7974, 2474.634
618.2795, 2479.772
618.7616, 2485.061
619.2437, 2486.810
619.7258, 2489.250
620.2079, 2496.047
620.6901, 2507.343
621.1722, 2519.287
621.6543, 2533.185
