##NAMES=Olivenite
##RRUFFID=R050532
##IDEAL CHEMISTRY=Cu^2+^_2_As^5+^O_4_(OH)
##LOCALITY=Tsumeb mine, Tsumeb, Otavi District, Oshikoto, Namibia
##OWNER=RRUFF
##SOURCE=University of Arizona Mineral Museum
##DESCRIPTION=Dark green prismatic crystals on botryoidal bayldonite R050670
##STATUS=The identification of this mineral has been confirmed by X-ray diffraction and chemical analysis
##URL=rruff.info/R050532
##MEASURED CHEMISTRY=(Cu_0.99_Zn_0.01_)_2_(As_1.00_O_4_)(OH)
92.37695, 38.31540
92.85907, 38.69802
93.34119, 38.69596
93.82330, 37.96247
94.30542, 36.93552
94.78754, 35.64263
95.26965, 34.24338
95.75177, 33.46209
96.23389, 34.14471
96.71600, 35.09477
97.19812, 35.20546
97.68024, 34.25128
98.16235, 32.87749
98.64447, 31.86770
99.12659, 31.23185
99.60870, 30.82962
100.0908, 30.98963
100.5729, 31.27843
101.0551, 31.25607
101.5372, 30.68318
102.0193, 29.66501
102.5014, 28.76218
102.9835, 27.63418
103.4656, 26.97121
103.9478, 27.16178
104.4299, 27.90568
104.9120, 28.66482
105.3941, 29.02037
105.8762, 28.93952
106.3583, 28.73255
106.8405, 28.35078
107.3226, 27.90398
107.8047, 27.33975
108.2868, 26.68777
108.7689, 26.21356
109.2510, 26.36405
109.7332, 27.20623
110.2153, 27.61327
110.6974, 27.04831
111.1795, 26.06059
111.6616, 25.55169
112.1437, 25.89154
112.6259, 26.35333
113.1080, 26.01760
113.5901, 24.95586
114.0722, 24.02539
114.5543, 23.89825
115.0364, 24.52833
115.5185, 24.97035
116.0007, 24.90329
116.4828, 24.66809
116.9649, 24.51475
117.4470, 24.47171
117.9291, 24.33394
118.4112, 23.72828
118.8934, 22.29352
119.3755, 21.29260
119.8576, 21.02241
120.3397, 21.07732
120.8218, 21.15928
121.3039, 21.14647
121.7861, 21.10246
122.2682, 21.21324
122.7503, 21.74714
123.2324, 22.15323
123.7145, 22.37871
124.1966, 22.45516
124.6788, 22.43484
125.1609, 22.35001
125.6430, 22.19180
126.1251, 21.88064
126.6072, 21.14327
127.0893, 20.55289
127.5715, 20.41146
128.0536, 20.66306
128.5357, 20.99910
129.0178, 21.21710
129.4999, 21.33002
129.9821, 21.46432
130.4642, 21.81377
130.9463, 22.08824
131.4284, 21.89927
131.9105, 21.14089
132.3926, 20.35324
132.8748, 19.92848
133.3569, 19.76154
133.8390, 19.72647
134.3211, 19.81223
134.8032, 19.99448
135.2853, 20.17364
135.7674, 20.25072
136.2496, 20.47954
136.7317, 21.23191
137.2138, 22.26238
137.6959, 22.95685
138.1780, 22.62851
138.6601, 21.12347
139.1423, 20.23000
139.6244, 20.48275
140.1065, 20.92895
140.5886, 21.38194
141.0707, 21.73788
141.5528, 21.86681
142.0350, 21.54595
142.5171, 20.40357
142.9992, 19.80149
143.4813, 20.06358
143.9634, 20.53406
144.4455, 20.79861
144.9277, 20.74961
145.4098, 20.53830
145.8919, 20.40308
146.3740, 20.36957
146.8561, 20.37807
147.3382, 20.46691
147.8204, 20.58415
148.3025, 20.66404
148.7846, 20.68101
149.2667, 20.66097
149.7488, 20.66863
150.2309, 20.73825
150.7131, 20.73649
151.1952, 20.60017
151.6773, 20.35034
152.1594, 20.03450
152.6415, 19.59608
153.1236, 19.17854
153.6058, 19.02608
154.0879, 19.24429
154.5700, 19.40615
155.0521, 19.00122
155.5342, 17.99050
156.0163, 17.31255
156.4985, 17.75956
156.9806, 18.48804
157.4627, 18.82915
157.9448, 18.60312
158.4269, 18.05997
158.9090, 17.48828
159.3912, 16.75567
159.8733, 16.36329
160.3554, 16.72738
160.8375, 17.30150
161.3196, 17.54323
161.8017, 17.18949
162.2839, 16.52596
162.7660, 16.46120
163.2481, 17.95605
163.7302, 18.74065
164.2123, 17.91480
164.6944, 16.39241
165.1766, 15.31503
165.6587, 15.34397
166.1408, 16.29827
166.6229, 16.99422
167.1050, 17.28315
167.5871, 17.47983
168.0693, 17.50890
168.5514, 17.49126
169.0335, 17.71838
169.5156, 18.45825
169.9977, 19.62767
170.4798, 19.91000
170.9620, 18.51450
171.4441, 17.18113
171.9262, 16.85672
172.4083, 17.37651
172.8904, 17.83985
173.3725, 17.53436
173.8547, 16.54203
174.3368, 15.90786
174.8189, 15.68143
175.3010, 15.76850
175.7831, 16.34044
176.2652, 17.42744
176.7474, 18.17538
177.2295, 17.46839
177.7116, 15.92905
178.1937, 15.11541
178.6758, 15.99669
179.1579, 17.55523
179.6401, 18.28257
180.1222, 18.00562
180.6043, 17.36868
181.0864, 16.37934
181.5685, 15.34949
182.0506, 14.88263
182.5328, 15.62261
183.0149, 17.08558
183.4970, 17.68763
183.9791, 16.84704
184.4612, 15.99914
184.9433, 15.80460
185.4255, 16.03623
185.9076, 16.31644
186.3897, 16.46939
186.8718, 16.47773
187.3539, 16.12303
187.8360, 14.56910
188.3182, 13.55271
188.8003, 13.93190
189.2824, 15.24129
189.7645, 16.53010
190.2466, 17.03859
190.7287, 16.73553
191.2109, 16.44435
191.6930, 15.88234
192.1751, 15.59758
192.6572, 16.10147
193.1393, 17.10094
193.6214, 17.80596
194.1036, 17.42328
194.5857, 15.69784
195.0678, 15.00249
195.5499, 16.16176
196.0320, 17.35296
196.5141, 17.62931
196.9963, 17.06598
197.4784, 16.36203
197.9605, 16.16091
198.4426, 16.54885
198.9247, 16.89261
199.4068, 17.14913
199.8890, 17.39831
200.3711, 17.80891
200.8532, 18.35602
201.3353, 18.67519
201.8174, 18.32299
202.2995, 17.25119
202.7817, 16.54013
203.2638, 16.28316
203.7459, 16.37113
204.2280, 16.87762
204.7101, 17.83955
205.1922, 18.67924
205.6744, 18.76465
206.1565, 18.23502
206.6386, 17.72147
207.1207, 17.13784
207.6028, 16.71576
208.0849, 16.93690
208.5671, 18.02707
209.0492, 19.04144
209.5313, 19.02786
210.0134, 18.36250
210.4955, 17.79537
210.9776, 17.63257
211.4598, 17.74954
211.9419, 17.90253
212.4240, 18.14656
212.9061, 18.29553
213.3882, 18.10825
213.8703, 17.76111
214.3525, 17.59309
214.8346, 17.88731
215.3167, 18.49366
215.7988, 18.84661
216.2809, 18.81014
216.7630, 18.71426
217.2451, 18.83392
217.7273, 18.99496
218.2094, 18.86553
218.6915, 18.13396
219.1736, 16.94316
219.6557, 16.16069
220.1378, 15.93300
220.6200, 16.00225
221.1021, 16.48288
221.5842, 17.15957
222.0663, 17.70514
222.5484, 17.88888
223.0305, 17.74735
223.5127, 17.62967
223.9948, 17.46594
224.4769, 17.41202
224.9590, 17.57777
225.4411, 17.86921
225.9232, 18.12579
226.4054, 18.23597
226.8875, 18.21597
227.3696, 18.26565
227.8517, 18.62016
228.3338, 18.79672
228.8159, 18.62797
229.2981, 18.20946
229.7802, 17.67713
230.2623, 17.09162
230.7444, 16.48380
231.2265, 16.23260
231.7086, 16.83802
232.1908, 17.22680
232.6729, 17.01590
233.1550, 16.39399
233.6371, 15.72280
234.1192, 15.20352
234.6013, 14.83765
235.0835, 14.66127
235.5656, 14.83714
236.0477, 14.98359
236.5298, 14.87270
237.0119, 14.64358
237.4940, 14.66450
237.9762, 15.21379
238.4583, 16.09580
238.9404, 16.37453
239.4225, 15.44798
239.9046, 14.70685
240.3867, 14.85555
240.8689, 15.57050
241.3510, 16.06230
241.8331, 15.94112
242.3152, 15.32691
242.7973, 14.57774
243.2794, 13.47269
243.7616, 12.59405
244.2437, 12.27337
244.7258, 12.39625
245.2079, 12.63263
245.6900, 12.87002
246.1721, 13.12236
246.6543, 13.41764
247.1364, 13.76172
247.6185, 14.12289
248.1006, 14.57668
248.5827, 15.05639
249.0648, 15.27937
249.5470, 14.99579
250.0291, 14.60056
250.5112, 14.81232
250.9933, 15.78571
251.4754, 16.41617
251.9576, 15.66831
252.4397, 13.92534
252.9218, 12.93883
253.4039, 13.53084
253.8860, 14.58753
254.3681, 14.83175
254.8503, 14.27069
255.3324, 13.65641
255.8145, 13.44206
256.2966, 13.56765
256.7787, 13.72743
257.2608, 13.85064
257.7430, 14.03098
258.2251, 14.47467
258.7072, 15.11232
259.1893, 15.48086
259.6714, 14.99873
260.1535, 13.88233
260.6357, 13.38298
261.1178, 13.93527
261.5999, 14.72736
262.0820, 15.33396
262.5641, 15.75051
263.0462, 15.97348
263.5284, 15.86632
264.0105, 15.51036
264.4926, 15.40696
264.9747, 15.70541
265.4568, 16.05920
265.9389, 16.35075
266.4211, 16.56586
266.9032, 16.66979
267.3853, 16.59267
267.8674, 16.39122
268.3495, 16.31487
268.8316, 16.40771
269.3138, 16.57311
269.7959, 16.88706
270.2780, 17.21738
270.7601, 17.35260
271.2422, 17.14545
271.7243, 16.70323
272.2065, 16.38876
272.6886, 16.28688
273.1707, 16.17786
273.6528, 15.90839
274.1349, 15.63053
274.6170, 15.53862
275.0992, 15.73042
275.5813, 16.10275
276.0634, 16.44483
276.5455, 16.94821
277.0276, 17.02334
277.5097, 16.13290
277.9919, 15.06428
278.4740, 14.60211
278.9561, 15.02206
279.4382, 15.90493
279.9203, 16.51411
280.4024, 16.88144
280.8846, 16.85517
281.3667, 15.90942
281.8488, 14.95806
282.3309, 14.83766
282.8130, 15.69241
283.2951, 16.83817
283.7773, 17.20541
284.2594, 16.34801
284.7415, 15.81319
285.2236, 15.97787
285.7057, 16.17161
286.1878, 15.87407
286.6700, 15.10106
287.1521, 14.35246
287.6342, 14.30545
288.1163, 15.30901
288.5984, 15.62321
289.0805, 14.40119
289.5627, 13.29947
290.0448, 13.22772
290.5269, 14.03927
291.0090, 14.94288
291.4911, 15.18911
291.9732, 14.70526
292.4554, 14.48983
292.9375, 14.91841
293.4196, 15.23706
293.9017, 15.14627
294.3838, 14.74765
294.8659, 14.26865
295.3481, 13.84346
295.8302, 13.48802
296.3123, 13.44454
296.7944, 14.25012
297.2765, 14.80104
297.7586, 14.75732
298.2408, 14.34696
298.7229, 13.89914
299.2050, 13.59247
299.6871, 13.40772
300.1692, 13.27026
300.6513, 12.98265
301.1335, 13.01331
301.6156, 13.89975
302.0977, 14.91845
302.5798, 15.11645
303.0619, 14.13888
303.5440, 12.67071
304.0262, 12.19343
304.5083, 13.85565
304.9904, 14.81003
305.4725, 14.53341
305.9546, 13.89329
306.4367, 13.67639
306.9189, 14.02720
307.4010, 14.40866
307.8831, 13.97928
308.3652, 12.08086
308.8473, 11.13094
309.3294, 11.51021
309.8116, 12.34852
310.2937, 13.40586
310.7758, 14.49184
311.2579, 15.22279
311.7400, 15.14807
312.2221, 14.09945
312.7043, 13.44156
313.1864, 13.51093
313.6685, 13.57748
314.1506, 13.31349
314.6327, 12.80059
315.1148, 12.24971
315.5970, 11.77418
316.0791, 11.40689
316.5612, 11.62206
317.0433, 13.33672
317.5254, 14.61615
318.0075, 14.84913
318.4897, 14.42954
318.9718, 13.94430
319.4539, 13.69115
319.9360, 13.61124
320.4181, 13.51305
320.9002, 13.28784
321.3824, 13.19141
321.8645, 13.34923
322.3466, 13.58471
322.8287, 13.77323
323.3108, 13.85959
323.7929, 13.78762
324.2751, 13.43025
324.7572, 12.49314
325.2393, 11.84047
325.7214, 11.43152
326.2035, 11.28403
326.6856, 11.54701
327.1678, 12.15596
327.6499, 12.76902
328.1320, 12.98245
328.6141, 12.66060
329.0962, 12.61693
329.5783, 13.47692
330.0605, 13.98958
330.5426, 13.11477
331.0247, 11.37678
331.5068, 10.24290
331.9889, 10.94161
332.4710, 13.30635
332.9532, 14.61732
333.4353, 13.89515
333.9174, 13.12619
334.3995, 12.45822
334.8816, 12.02827
335.3637, 12.10448
335.8459, 12.84320
336.3280, 13.90031
336.8101, 14.18688
337.2922, 12.79822
337.7743, 11.98108
338.2564, 12.31308
338.7386, 13.00942
339.2206, 13.33202
339.7028, 13.09625
340.1849, 12.69636
340.6670, 12.73552
341.1491, 13.37902
341.6312, 14.06497
342.1133, 15.30491
342.5955, 16.16486
343.0776, 15.90359
343.5597, 14.66452
344.0418, 13.23607
344.5239, 12.33431
345.0060, 11.98219
345.4882, 11.75017
345.9703, 11.71786
346.4524, 11.73935
346.9345, 11.65940
347.4166, 11.61892
347.8987, 11.95409
348.3809, 12.95777
348.8630, 14.33819
349.3451, 14.84344
349.8272, 13.87549
350.3093, 12.91241
350.7914, 12.09636
351.2736, 11.48995
351.7557, 11.19748
352.2378, 11.25008
352.7199, 11.50025
353.2020, 11.70188
353.6841, 11.81444
354.1663, 12.00400
354.6484, 12.65250
355.1305, 13.10607
355.6126, 12.74204
356.0947, 11.64475
356.5768, 10.61258
357.0590, 10.50130
357.5411, 11.35148
358.0232, 12.07925
358.5053, 12.83668
358.9874, 13.26154
359.4695, 12.92684
359.9517, 12.17314
360.4338, 11.72999
360.9159, 12.18503
361.3980, 13.14043
361.8801, 13.30476
362.3622, 12.31392
362.8444, 11.32068
363.3265, 10.45367
363.8086, 9.910811
364.2907, 10.08497
364.7728, 11.20177
365.2549, 12.44955
365.7371, 12.61221
366.2192, 11.53251
366.7013, 10.83929
367.1834, 11.30728
367.6655, 11.97218
368.1476, 12.11743
368.6298, 11.72460
369.1119, 11.20538
369.5940, 10.79196
370.0761, 10.48663
370.5582, 10.30211
371.0403, 10.22813
371.5225, 10.30629
372.0046, 10.77495
372.4867, 11.41476
372.9688, 11.68752
373.4509, 11.11569
373.9330, 10.23181
374.4152, 9.870022
374.8973, 10.09063
375.3794, 10.33263
375.8615, 10.28087
376.3436, 10.10274
376.8257, 10.05769
377.3079, 10.20389
377.7900, 10.39616
378.2721, 10.55983
378.7542, 10.68922
379.2363, 10.76282
379.7184, 10.78168
380.2006, 10.72826
380.6827, 10.56274
381.1648, 10.29079
381.6469, 10.00409
382.1290, 9.690883
382.6111, 9.395015
383.0933, 9.152339
383.5754, 8.962072
384.0575, 8.916958
384.5396, 9.192259
385.0217, 9.715934
385.5038, 9.945139
385.9860, 9.576845
386.4681, 9.169300
386.9502, 9.099804
387.4323, 9.286755
387.9144, 9.393266
388.3965, 9.203348
388.8787, 8.925463
389.3608, 9.197025
389.8429, 10.46234
390.3250, 11.25984
390.8071, 10.90439
391.2892, 10.09072
391.7714, 9.634168
392.2535, 9.720521
392.7356, 10.08187
393.2177, 10.43391
393.6998, 10.78891
394.1819, 11.04863
394.6641, 11.28420
395.1462, 11.37269
395.6283, 11.16031
396.1104, 10.72697
396.5925, 10.27856
397.0746, 9.927224
397.5568, 9.697615
398.0389, 9.728373
398.5210, 10.56962
399.0031, 11.00476
399.4852, 10.40401
399.9673, 9.555741
400.4495, 9.449850
400.9316, 10.35498
401.4137, 11.58207
401.8958, 12.06904
402.3779, 11.55560
402.8600, 10.97944
403.3422, 9.914522
403.8243, 9.165906
404.3064, 9.460517
404.7885, 10.49227
405.2706, 11.28619
405.7527, 11.02706
406.2349, 9.881360
406.7170, 9.195277
407.1991, 9.269366
407.6812, 9.407540
408.1633, 9.458007
408.6454, 9.471866
409.1276, 9.474860
409.6097, 9.472666
410.0918, 9.564011
410.5739, 10.09256
411.0560, 11.28488
411.5381, 11.67017
412.0203, 9.939534
412.5024, 8.236563
412.9845, 8.004091
413.4666, 9.046329
413.9487, 10.05354
414.4308, 9.881902
414.9130, 8.918715
415.3951, 8.732723
415.8772, 9.659851
416.3593, 10.54059
416.8414, 10.72009
417.3235, 10.47081
417.8057, 10.06074
418.2878, 9.413577
418.7699, 8.910177
419.2520, 9.040645
419.7341, 9.735271
420.2162, 10.32176
420.6984, 10.58743
421.1805, 10.67083
421.6626, 10.73472
422.1447, 10.78018
422.6268, 10.81751
423.1089, 11.04157
423.5911, 11.17709
424.0732, 10.63463
424.5553, 9.345606
425.0374, 8.287687
425.5195, 8.321312
426.0016, 9.284015
426.4838, 9.823836
426.9659, 9.678144
427.4480, 9.403239
427.9301, 9.096447
428.4122, 8.854371
428.8943, 8.954669
429.3765, 9.534977
429.8586, 10.26394
430.3407, 10.55147
430.8228, 10.12316
431.3049, 9.823363
431.7870, 9.890864
432.2692, 9.915510
432.7513, 9.389886
433.2334, 8.448740
433.7155, 7.822660
434.1976, 8.177717
434.6797, 9.411946
435.1619, 10.03196
435.6440, 9.391789
436.1261, 8.864132
436.6082, 8.562430
437.0903, 8.533237
437.5724, 8.983683
438.0546, 9.944445
438.5367, 10.90907
439.0188, 10.98554
439.5009, 9.806510
439.9830, 8.924398
440.4651, 8.294719
440.9473, 8.043066
441.4294, 8.571118
441.9115, 9.573315
442.3936, 10.21948
442.8757, 9.780777
443.3578, 8.690321
443.8400, 8.618143
444.3221, 10.24125
444.8042, 11.17868
445.2863, 9.727202
445.7684, 7.651738
446.2505, 6.601373
446.7327, 6.942472
447.2148, 7.716253
447.6969, 8.097033
448.1790, 8.177876
448.6611, 8.588289
449.1432, 9.701304
449.6254, 10.60268
450.1075, 10.21093
450.5896, 8.920147
451.0717, 7.907255
451.5538, 7.527956
452.0359, 7.529515
452.5181, 7.806634
453.0002, 8.310515
453.4823, 8.692869
453.9644, 8.736835
454.4465, 8.636086
454.9286, 8.856227
455.4108, 9.480230
455.8929, 10.08855
456.3750, 10.82154
456.8571, 11.36506
457.3392, 11.17373
457.8214, 10.25619
458.3035, 9.415738
458.7856, 9.430783
459.2677, 10.31701
459.7498, 10.62172
460.2319, 9.839725
460.7141, 9.157041
461.1962, 8.904499
461.6783, 8.954766
462.1604, 9.176317
462.6425, 9.507090
463.1246, 9.814357
463.6068, 9.813153
464.0889, 9.226099
464.5710, 9.075792
465.0531, 10.13431
465.5352, 10.88907
466.0173, 10.26639
466.4995, 8.705746
466.9816, 7.433166
467.4637, 7.255769
467.9458, 7.922620
468.4279, 8.732742
468.9100, 9.895798
469.3922, 10.65886
469.8743, 10.59915
470.3564, 10.17501
470.8385, 9.547321
471.3206, 8.760708
471.8027, 8.337490
472.2849, 9.010973
472.7670, 10.43121
473.2491, 11.19613
473.7312, 11.02687
474.2133, 10.64802
474.6954, 10.58490
475.1776, 10.69892
475.6597, 10.65559
476.1418, 10.19606
476.6239, 9.820820
477.1060, 9.980012
477.5881, 10.51429
478.0703, 10.97228
478.5524, 11.21218
479.0345, 11.28069
479.5166, 11.21870
479.9987, 10.99427
480.4808, 10.78022
480.9630, 10.45939
481.4451, 10.25707
481.9272, 10.49865
482.4093, 11.02389
482.8914, 11.28369
483.3735, 10.91567
483.8557, 10.13882
484.3378, 9.735838
484.8199, 9.951596
485.3020, 10.22162
485.7841, 10.63031
486.2662, 11.00776
486.7484, 11.25631
487.2305, 11.34586
487.7126, 11.24597
488.1947, 10.85975
488.6768, 10.22122
489.1589, 9.886135
489.6411, 10.02271
490.1232, 10.20701
490.6053, 10.35912
491.0874, 10.45554
491.5695, 10.41684
492.0516, 10.20510
492.5338, 10.06028
493.0159, 10.37397
493.4980, 11.06551
493.9801, 11.37622
494.4622, 11.10955
494.9443, 10.61248
495.4265, 9.909964
495.9086, 9.169911
496.3907, 8.958106
496.8728, 9.928868
497.3549, 11.01854
497.8370, 11.30563
498.3192, 10.94828
498.8013, 10.47009
499.2834, 10.00767
499.7655, 9.693539
500.2476, 9.814320
500.7297, 10.57872
501.2119, 11.01859
501.6940, 10.98389
502.1761, 10.68143
502.6582, 10.06971
503.1403, 9.296653
503.6224, 8.717168
504.1045, 8.550716
504.5866, 8.747617
505.0688, 9.147907
505.5509, 10.05833
506.0330, 10.68317
506.5151, 10.85138
506.9972, 10.84175
507.4793, 10.82734
507.9615, 10.83912
508.4436, 10.84479
508.9257, 10.81423
509.4078, 10.79405
509.8899, 10.71124
510.3720, 10.70832
510.8542, 10.67313
511.3363, 10.61352
511.8184, 10.49137
512.3005, 10.18829
512.7827, 9.653623
513.2648, 9.272384
513.7469, 9.404109
514.2290, 9.914021
514.7111, 10.50835
515.1932, 11.23091
515.6754, 11.63158
516.1575, 11.11804
516.6396, 9.959051
517.1217, 9.440370
517.6038, 10.26459
518.0859, 10.97014
518.5681, 10.77878
519.0502, 10.06174
519.5323, 9.359533
520.0144, 8.829149
520.4965, 8.562864
520.9786, 8.720690
521.4608, 9.414389
521.9429, 9.850673
522.4250, 10.02015
522.9071, 9.992929
523.3892, 9.572400
523.8713, 9.034740
524.3535, 8.825671
524.8356, 9.124509
525.3177, 9.635501
525.7998, 9.882414
526.2819, 9.831150
526.7640, 9.672573
527.2462, 9.121948
527.7283, 8.789613
528.2104, 9.185273
528.6925, 10.00731
529.1746, 10.56173
529.6567, 10.51210
530.1389, 10.12882
530.6210, 9.641881
531.1031, 9.070480
531.5852, 8.794780
532.0673, 9.049627
532.5494, 9.446280
533.0316, 9.462049
533.5137, 9.125956
533.9958, 8.883593
534.4779, 8.896868
534.9600, 8.976412
535.4421, 8.973365
535.9243, 8.905781
536.4064, 8.828562
536.8885, 8.752414
537.3706, 8.763134
537.8527, 9.067084
538.3348, 10.00803
538.8170, 10.54522
539.2991, 10.48909
539.7812, 10.23250
540.2633, 9.844112
540.7454, 9.448487
541.2275, 9.308709
541.7097, 9.629717
542.1918, 10.16267
542.6739, 10.18528
543.1560, 9.461903
543.6381, 8.984468
544.1202, 9.197309
544.6024, 9.515664
545.0845, 9.537402
545.5666, 9.305726
546.0487, 9.153141
546.5308, 9.313470
547.0129, 9.628232
547.4951, 9.987509
547.9772, 10.38055
548.4593, 10.22094
548.9414, 8.955089
549.4235, 7.376325
549.9056, 7.077893
550.3878, 8.244806
550.8699, 9.206458
551.3520, 9.679169
551.8341, 9.806556
552.3162, 9.569983
552.7983, 9.073034
553.2805, 8.594258
553.7626, 8.290009
554.2447, 8.128273
554.7268, 7.994617
555.2089, 7.670600
555.6910, 7.790399
556.1732, 8.965348
556.6553, 10.01955
557.1374, 10.07305
557.6195, 9.335227
558.1016, 8.658908
558.5837, 8.616751
559.0659, 8.922162
559.5480, 8.850542
560.0301, 8.314049
560.5122, 7.915082
560.9943, 7.748876
561.4764, 7.872741
561.9586, 8.409936
562.4407, 9.328507
562.9228, 10.16783
563.4049, 10.90535
563.8870, 11.38037
564.3691, 11.37403
564.8513, 10.92489
565.3334, 10.15694
565.8155, 9.026581
566.2976, 7.906671
566.7797, 7.549535
567.2618, 8.486472
567.7440, 8.972273
568.2261, 8.643327
568.7082, 8.199162
569.1903, 8.039553
569.6724, 8.098228
570.1545, 8.124332
570.6367, 7.981382
571.1188, 7.760392
571.6009, 7.658321
572.0830, 7.702131
572.5651, 7.760902
573.0472, 7.862107
573.5294, 7.933067
574.0115, 7.903487
574.4936, 7.811433
574.9757, 7.746315
575.4578, 7.663638
575.9399, 7.734246
576.4221, 8.353307
576.9042, 9.380771
577.3863, 9.982870
577.8684, 9.859179
578.3505, 9.418104
578.8326, 9.058542
579.3148, 8.781681
579.7969, 8.727052
580.2790, 9.232584
580.7611, 9.614035
581.2432, 9.486590
581.7253, 9.027942
582.2075, 8.470966
582.6896, 7.918301
583.1717, 7.508457
583.6538, 7.486381
584.1359, 7.935174
584.6180, 8.172213
585.1002, 7.986088
585.5823, 7.836360
586.0643, 7.888566
586.5464, 8.051284
587.0286, 8.237298
