##NAMES=Olivenite
##RRUFFID=R050532
##IDEAL CHEMISTRY=Cu^2+^_2_As^5+^O_4_(OH)
##LOCALITY=Tsumeb mine, Tsumeb, Otavi District, Oshikoto, Namibia
##OWNER=RRUFF
##SOURCE=University of Arizona Mineral Museum
##DESCRIPTION=Dark green prismatic crystals on botryoidal bayldonite R050670
##STATUS=The identification of this mineral has been confirmed by X-ray diffraction and chemical analysis
##URL=rruff.info/R050532
##MEASURED CHEMISTRY=(Cu_0.99_Zn_0.01_)_2_(As_1.00_O_4_)(OH)
90.92609, 0.0000000E+00
91.40820, 34.83937
91.89032, 34.08191
92.37244, 34.45471
92.85455, 35.78246
93.33667, 37.01686
93.81879, 37.57224
94.30090, 37.46471
94.78302, 36.58535
95.26514, 34.38729
95.74725, 31.84483
96.22937, 31.56750
96.71149, 33.73754
97.19360, 36.13233
97.67572, 36.31232
98.15784, 34.31742
98.63995, 32.86739
99.12207, 32.92949
99.60419, 34.29350
100.0863, 35.15671
100.5684, 35.53778
101.0505, 35.37754
101.5327, 34.21251
102.0148, 31.45151
102.4969, 29.73882
102.9790, 30.39168
103.4611, 34.11750
103.9432, 36.08161
104.4253, 35.21143
104.9075, 33.14859
105.3896, 33.26577
105.8717, 36.80131
106.3538, 40.84371
106.8359, 44.42784
107.3180, 47.64824
107.8002, 50.13453
108.2823, 50.72585
108.7644, 50.35521
109.2465, 52.51285
109.7286, 59.07362
110.2107, 66.79871
110.6929, 74.41399
111.1750, 81.31937
111.6571, 88.65337
112.1392, 96.82076
112.6213, 105.6713
113.1034, 114.2761
113.5856, 121.4868
114.0677, 129.0508
114.5498, 138.1401
115.0319, 148.3241
115.5140, 160.7617
115.9961, 175.7122
116.4783, 193.1824
116.9604, 212.9203
117.4425, 234.7999
117.9246, 259.1831
118.4067, 286.2289
118.8888, 318.4525
119.3710, 351.7910
119.8531, 384.5090
120.3352, 416.4662
120.8173, 446.7605
121.2994, 475.2001
121.7815, 501.2989
122.2637, 524.3055
122.7458, 542.5468
123.2279, 557.9250
123.7100, 572.1099
124.1921, 585.2886
124.6742, 597.2231
125.1564, 605.4235
125.6385, 611.5741
126.1206, 621.0576
126.6027, 637.4021
127.0848, 659.0540
127.5669, 683.0391
128.0491, 708.4919
128.5312, 737.0277
129.0133, 772.2236
129.4954, 813.3080
129.9775, 856.0969
130.4596, 899.1141
130.9418, 941.4794
131.4239, 981.1565
131.9060, 1017.106
132.3881, 1050.862
132.8702, 1085.440
133.3523, 1121.092
133.8345, 1156.384
134.3166, 1189.851
134.7987, 1221.790
135.2808, 1253.431
135.7629, 1285.279
136.2450, 1317.554
136.7272, 1350.339
137.2093, 1383.751
137.6914, 1417.869
138.1735, 1452.875
138.6556, 1488.582
139.1377, 1525.091
139.6199, 1562.853
140.1020, 1601.539
140.5841, 1640.669
141.0662, 1679.046
141.5483, 1718.842
142.0304, 1761.913
142.5126, 1805.815
142.9947, 1857.172
143.4768, 1911.798
143.9589, 1966.421
144.4410, 2023.001
144.9231, 2079.902
145.4053, 2139.930
145.8874, 2209.306
146.3695, 2292.257
146.8516, 2377.943
147.3337, 2462.228
147.8158, 2548.492
148.2980, 2629.045
148.7801, 2706.861
149.2622, 2779.233
149.7443, 2838.694
150.2264, 2889.703
150.7085, 2925.454
151.1907, 2943.099
151.6728, 2938.501
152.1549, 2924.839
152.6370, 2900.225
153.1191, 2866.678
153.6012, 2829.643
154.0834, 2787.455
154.5655, 2743.587
155.0476, 2699.020
155.5297, 2657.738
156.0118, 2611.618
156.4939, 2560.708
156.9761, 2504.210
157.4582, 2440.925
157.9403, 2367.003
158.4224, 2288.616
158.9045, 2208.820
159.3866, 2124.328
159.8688, 2044.215
160.3509, 1970.924
160.8330, 1904.329
161.3151, 1844.121
161.7972, 1789.514
162.2793, 1741.441
162.7615, 1700.631
163.2436, 1670.273
163.7257, 1644.236
164.2078, 1619.569
164.6899, 1596.497
165.1720, 1576.882
165.6541, 1562.075
166.1363, 1550.904
166.6184, 1542.216
167.1005, 1535.589
167.5826, 1531.292
168.0647, 1528.863
168.5468, 1528.401
169.0290, 1531.516
169.5111, 1539.769
169.9932, 1552.023
170.4753, 1566.854
170.9574, 1586.102
171.4395, 1605.982
171.9217, 1624.464
172.4038, 1641.534
172.8859, 1655.278
173.3680, 1666.160
173.8501, 1672.583
174.3322, 1671.924
174.8144, 1661.897
175.2965, 1644.667
175.7786, 1621.324
176.2607, 1591.524
176.7428, 1561.134
177.2249, 1533.557
177.7071, 1509.383
178.1892, 1489.400
178.6713, 1474.678
179.1534, 1464.180
179.6355, 1456.282
180.1176, 1450.871
180.5998, 1447.806
181.0819, 1448.578
181.5640, 1452.001
182.0461, 1453.887
182.5282, 1453.890
183.0103, 1450.823
183.4925, 1441.709
183.9746, 1426.297
184.4567, 1405.787
184.9388, 1380.463
185.4209, 1350.620
185.9030, 1319.498
186.3852, 1287.402
186.8673, 1255.086
187.3494, 1223.380
187.8315, 1191.907
188.3136, 1163.008
188.7957, 1139.489
189.2779, 1121.327
189.7600, 1105.333
190.2421, 1089.422
190.7242, 1074.222
191.2063, 1063.147
191.6884, 1056.652
192.1706, 1053.680
192.6527, 1052.715
193.1348, 1053.757
193.6169, 1056.549
194.0990, 1060.733
194.5811, 1066.356
195.0633, 1074.389
195.5454, 1084.606
196.0275, 1097.684
196.5096, 1114.975
196.9917, 1136.756
197.4738, 1160.224
197.9560, 1183.894
198.4381, 1207.660
198.9202, 1233.033
199.4023, 1259.756
199.8844, 1288.484
200.3665, 1320.255
200.8487, 1355.449
201.3308, 1392.382
201.8129, 1430.830
202.2950, 1471.009
202.7771, 1509.679
203.2592, 1546.427
203.7414, 1582.493
204.2235, 1621.361
204.7056, 1663.288
205.1877, 1705.511
205.6698, 1746.250
206.1519, 1785.062
206.6341, 1825.195
207.1162, 1866.124
207.5983, 1908.445
208.0804, 1953.559
208.5625, 2001.490
209.0446, 2050.693
209.5268, 2100.548
210.0089, 2151.233
210.4910, 2201.594
210.9731, 2251.089
211.4552, 2300.846
211.9373, 2353.429
212.4195, 2410.168
212.9016, 2465.899
213.3837, 2518.345
213.8658, 2567.777
214.3479, 2613.560
214.8300, 2655.865
215.3121, 2694.775
215.7943, 2731.142
216.2764, 2766.230
216.7585, 2795.407
217.2406, 2817.874
217.7227, 2835.464
218.2048, 2839.267
218.6870, 2826.810
219.1691, 2801.693
219.6512, 2772.142
220.1333, 2739.283
220.6154, 2699.560
221.0975, 2649.661
221.5797, 2586.592
222.0618, 2523.620
222.5439, 2460.718
223.0260, 2398.149
223.5081, 2334.431
223.9902, 2268.903
224.4724, 2204.198
224.9545, 2142.826
225.4366, 2084.397
225.9187, 2027.864
226.4008, 1972.296
226.8829, 1918.606
227.3651, 1868.648
227.8472, 1823.313
228.3293, 1779.266
228.8114, 1735.056
229.2935, 1690.305
229.7757, 1646.787
230.2578, 1604.585
230.7399, 1563.971
231.2220, 1524.830
231.7041, 1487.375
232.1862, 1451.430
232.6684, 1416.840
233.1505, 1383.353
233.6326, 1352.210
234.1147, 1324.894
234.5968, 1299.060
235.0789, 1270.794
235.5611, 1238.312
236.0432, 1206.458
236.5253, 1176.734
237.0074, 1150.629
237.4895, 1122.704
237.9716, 1091.546
238.4538, 1059.447
238.9359, 1030.251
239.4180, 1004.628
239.9001, 980.2888
240.3822, 956.0836
240.8643, 931.5493
241.3465, 910.5056
241.8286, 894.3192
242.3107, 880.6505
242.7928, 866.0114
243.2749, 848.8568
243.7570, 833.4017
244.2392, 821.1261
244.7213, 812.5589
245.2034, 803.6810
245.6855, 793.9979
246.1676, 784.3505
246.6497, 775.7027
247.1319, 767.8405
247.6140, 761.4110
248.0961, 756.8138
248.5782, 754.2270
249.0603, 751.8200
249.5424, 749.7651
250.0246, 747.7223
250.5067, 745.1149
250.9888, 741.1052
251.4709, 738.1974
251.9530, 737.0967
252.4351, 737.8792
252.9173, 738.7463
253.3994, 739.3553
253.8815, 740.4119
254.3636, 742.6332
254.8457, 746.2181
255.3278, 750.4277
255.8100, 755.1506
256.2921, 760.4026
256.7742, 766.1550
257.2563, 772.5098
257.7384, 779.2099
258.2205, 785.7104
258.7026, 791.2693
259.1848, 798.6500
259.6669, 808.3588
260.1490, 820.3399
260.6311, 833.2607
261.1132, 846.9272
261.5953, 861.8336
262.0775, 878.1016
262.5596, 895.8665
263.0417, 914.9948
263.5238, 935.5562
264.0059, 957.4592
264.4880, 981.5315
264.9702, 1008.213
265.4523, 1035.879
265.9344, 1063.188
266.4165, 1089.838
266.8986, 1118.069
267.3807, 1148.547
267.8629, 1180.764
268.3450, 1213.358
268.8271, 1246.687
269.3092, 1280.420
269.7913, 1314.867
270.2734, 1349.585
270.7556, 1386.154
271.2377, 1424.604
271.7198, 1465.479
272.2019, 1510.403
272.6840, 1559.605
273.1661, 1612.231
273.6483, 1668.013
274.1304, 1726.764
274.6125, 1788.433
275.0946, 1852.550
275.5767, 1919.631
276.0588, 1990.905
276.5410, 2066.380
277.0231, 2144.811
277.5052, 2224.418
277.9873, 2305.483
278.4694, 2389.131
278.9515, 2477.148
279.4337, 2563.711
279.9158, 2642.377
280.3979, 2713.181
280.8800, 2773.109
281.3621, 2821.021
281.8442, 2856.811
282.3264, 2876.517
282.8085, 2879.843
283.2906, 2868.386
283.7727, 2843.330
284.2548, 2804.717
284.7369, 2753.820
285.2191, 2687.869
285.7012, 2610.538
286.1833, 2533.120
286.6654, 2455.430
287.1475, 2378.602
287.6296, 2304.101
288.1118, 2231.694
288.5939, 2162.342
289.0760, 2095.317
289.5581, 2032.228
290.0402, 1975.532
290.5223, 1925.048
291.0045, 1879.949
291.4866, 1838.938
291.9687, 1802.205
292.4508, 1770.992
292.9329, 1745.975
293.4150, 1725.787
293.8972, 1707.113
294.3793, 1690.075
294.8614, 1675.895
295.3435, 1666.135
295.8256, 1659.984
296.3077, 1655.298
296.7899, 1651.790
297.2720, 1649.955
297.7541, 1651.015
298.2362, 1654.582
298.7183, 1658.951
299.2004, 1663.014
299.6826, 1667.248
300.1647, 1672.939
300.6468, 1680.332
301.1289, 1687.905
301.6110, 1693.883
302.0931, 1698.763
302.5753, 1704.073
303.0574, 1710.609
303.5395, 1717.880
304.0216, 1725.857
304.5037, 1734.655
304.9858, 1741.873
305.4680, 1745.172
305.9501, 1745.612
306.4322, 1745.032
306.9143, 1745.449
307.3964, 1744.203
307.8785, 1738.646
308.3607, 1728.976
308.8428, 1716.906
309.3249, 1703.245
309.8070, 1687.935
310.2891, 1670.938
310.7712, 1651.795
311.2534, 1631.218
311.7355, 1609.818
312.2176, 1587.270
312.6997, 1563.069
313.1818, 1535.635
313.6639, 1507.478
314.1461, 1480.314
314.6282, 1454.686
315.1103, 1430.136
315.5924, 1406.258
316.0745, 1383.391
316.5566, 1361.849
317.0388, 1341.786
317.5209, 1323.369
318.0030, 1306.592
318.4851, 1291.573
318.9672, 1277.773
319.4493, 1265.170
319.9315, 1253.697
320.4136, 1243.094
320.8957, 1231.990
321.3778, 1223.064
321.8599, 1217.754
322.3420, 1216.391
322.8242, 1215.367
323.3063, 1213.447
323.7884, 1211.769
324.2705, 1211.330
324.7526, 1211.971
325.2347, 1214.204
325.7169, 1218.828
326.1990, 1225.633
326.6811, 1231.757
327.1632, 1236.208
327.6453, 1240.460
328.1274, 1245.325
328.6096, 1250.522
329.0917, 1256.754
329.5738, 1264.695
330.0559, 1273.700
330.5380, 1281.848
331.0201, 1289.124
331.5023, 1295.562
331.9844, 1300.985
332.4665, 1304.424
332.9486, 1309.174
333.4307, 1315.915
333.9128, 1323.587
334.3950, 1330.192
334.8771, 1335.198
335.3592, 1340.246
335.8413, 1345.957
336.3234, 1352.519
336.8055, 1357.930
337.2877, 1361.534
337.7698, 1364.807
338.2519, 1369.487
338.7340, 1375.812
339.2161, 1382.562
339.6982, 1389.865
340.1803, 1397.433
340.6624, 1402.522
341.1446, 1404.421
341.6267, 1406.398
342.1088, 1411.778
342.5909, 1420.690
343.0730, 1428.001
343.5551, 1433.281
344.0373, 1436.185
344.5194, 1435.721
345.0015, 1431.849
345.4836, 1425.282
345.9657, 1416.720
346.4478, 1405.934
346.9300, 1391.254
347.4121, 1372.001
347.8942, 1350.555
348.3763, 1329.663
348.8584, 1309.196
349.3405, 1287.840
349.8227, 1264.518
350.3048, 1240.026
350.7869, 1215.785
351.2690, 1191.895
351.7511, 1168.529
352.2332, 1146.026
352.7154, 1124.408
353.1975, 1103.676
353.6796, 1083.518
354.1617, 1064.540
354.6438, 1047.841
355.1259, 1033.125
355.6081, 1018.945
356.0902, 1004.622
356.5723, 990.0409
357.0544, 974.7917
357.5365, 958.5461
358.0186, 942.5637
358.5008, 927.7509
358.9829, 913.8680
359.4650, 900.4083
359.9471, 888.0548
360.4292, 875.3997
360.9113, 861.2327
361.3935, 845.3558
361.8756, 829.6859
362.3577, 815.0223
362.8398, 801.0235
363.3219, 787.2988
363.8040, 773.9290
364.2862, 760.6627
364.7683, 747.3875
365.2504, 734.0626
365.7325, 721.0090
366.2146, 707.9666
366.6967, 695.3125
367.1789, 683.2813
367.6610, 671.8731
368.1431, 661.1068
368.6252, 651.0828
369.1073, 641.6359
369.5894, 632.3754
370.0716, 622.1078
370.5537, 613.1791
371.0358, 606.5784
371.5179, 603.2199
372.0000, 599.3836
372.4821, 594.9565
372.9643, 590.1600
373.4464, 585.1658
373.9285, 579.5447
374.4106, 574.7325
374.8927, 571.2399
375.3748, 568.9932
375.8570, 566.3720
376.3391, 563.1631
376.8212, 559.9623
377.3033, 557.1810
377.7854, 554.8391
378.2675, 552.9327
378.7497, 551.5688
379.2318, 550.5253
379.7139, 549.3659
380.1960, 548.1453
380.6781, 546.3350
381.1602, 543.1278
381.6424, 538.8669
382.1245, 535.8801
382.6066, 534.4245
383.0887, 533.5280
383.5708, 532.2805
384.0529, 530.6212
384.5351, 528.1513
385.0172, 524.2661
385.4993, 519.7233
385.9814, 515.8658
386.4635, 512.6806
386.9456, 509.2062
387.4278, 504.0460
387.9099, 498.2676
388.3920, 493.5766
388.8741, 490.7059
389.3562, 488.5746
389.8383, 486.1066
390.3205, 483.5435
390.8026, 481.6431
391.2847, 481.4732
391.7668, 481.6837
392.2489, 481.2060
392.7310, 479.8123
393.2132, 478.2585
393.6953, 476.3192
394.1774, 474.6323
394.6595, 473.9671
395.1416, 475.1778
395.6237, 476.8755
396.1059, 478.5727
396.5880, 480.2814
397.0701, 482.4111
397.5522, 485.1927
398.0343, 488.3040
398.5164, 491.5438
398.9986, 494.3565
399.4807, 498.0152
399.9628, 503.1493
400.4449, 509.1132
400.9270, 514.4568
401.4091, 519.0383
401.8913, 523.0817
402.3734, 526.2090
402.8555, 527.8509
403.3376, 531.9796
403.8197, 539.5941
404.3018, 548.5228
404.7840, 556.3135
405.2661, 562.4574
405.7482, 569.3389
406.2303, 577.6957
406.7124, 587.0822
407.1945, 595.9538
407.6767, 604.2330
408.1588, 612.3355
408.6409, 620.2495
409.1230, 628.0184
409.6051, 637.0178
410.0872, 647.6672
410.5694, 658.8435
411.0515, 668.5623
411.5336, 677.0864
412.0157, 685.7827
412.4978, 695.5265
412.9799, 705.7928
413.4621, 715.7879
413.9442, 725.5930
414.4263, 734.6733
414.9084, 742.3925
415.3905, 749.2338
415.8727, 756.1796
416.3548, 763.8253
416.8369, 771.1205
417.3190, 777.4616
417.8011, 782.7819
418.2832, 786.9968
418.7654, 790.2150
419.2475, 792.1396
419.7296, 792.2031
420.2117, 790.0885
420.6938, 787.7901
421.1759, 787.7625
421.6581, 787.2875
422.1402, 783.4655
422.6223, 772.7831
423.1044, 761.6738
423.5865, 751.9803
424.0686, 743.4875
424.5508, 733.9136
425.0329, 722.6737
425.5150, 710.6861
425.9971, 698.2112
426.4792, 684.3372
426.9613, 672.0201
427.4435, 662.2889
427.9256, 653.6390
428.4077, 643.6047
428.8898, 631.2408
429.3719, 619.2831
429.8540, 608.1964
430.3362, 598.0395
430.8183, 589.2101
431.3004, 581.9938
431.7825, 575.4384
432.2646, 568.6268
432.7467, 561.5793
433.2289, 555.5783
433.7110, 551.2855
434.1931, 547.4500
434.6752, 541.2816
435.1573, 533.0374
435.6394, 525.5681
436.1216, 520.6579
436.6036, 517.4993
437.0858, 514.4696
437.5679, 511.5197
438.0500, 508.7693
438.5321, 506.1913
439.0142, 503.9091
439.4963, 502.2108
439.9785, 501.6658
440.4606, 501.0566
440.9427, 499.0536
441.4248, 496.1350
441.9069, 493.7319
442.3890, 492.8062
442.8712, 492.4428
443.3533, 492.1725
443.8354, 492.0118
444.3175, 491.5758
444.7996, 490.3946
445.2817, 489.0186
445.7639, 488.0116
446.2460, 487.1832
446.7281, 487.0346
447.2102, 488.3435
447.6923, 490.7480
448.1744, 491.6762
448.6566, 490.2065
449.1387, 488.1926
449.6208, 486.3423
450.1029, 484.4759
450.5850, 483.3236
451.0671, 483.2038
451.5493, 483.4824
452.0314, 483.3362
452.5135, 482.7827
452.9956, 481.6962
453.4777, 479.7885
453.9598, 477.3817
454.4420, 475.9795
454.9241, 475.6924
455.4062, 475.5229
455.8883, 474.7579
456.3704, 473.4938
456.8525, 472.0910
457.3347, 470.5621
457.8168, 469.1105
458.2989, 467.9191
458.7810, 467.0166
459.2631, 466.5233
459.7452, 466.7556
460.2274, 467.2612
460.7095, 467.5405
461.1916, 467.6254
461.6737, 467.7235
462.1558, 468.1274
462.6379, 468.5148
463.1201, 468.4726
463.6022, 467.5262
464.0843, 467.0835
464.5664, 467.9745
465.0485, 469.6768
465.5306, 471.3585
466.0128, 472.5469
466.4949, 473.9568
466.9770, 475.9550
467.4591, 478.5727
467.9412, 480.7753
468.4233, 481.7158
468.9055, 482.9799
469.3876, 485.5933
469.8697, 490.4283
470.3518, 494.6827
470.8339, 498.1159
471.3160, 501.1194
471.7982, 504.4129
472.2803, 508.0157
472.7624, 511.8340
473.2445, 515.6152
473.7266, 519.5348
474.2087, 524.7299
474.6909, 531.2658
475.1730, 538.2865
475.6551, 545.0248
476.1372, 551.5651
476.6193, 558.1443
477.1014, 564.5400
477.5836, 571.5523
478.0657, 580.3849
478.5478, 590.6910
479.0299, 601.2900
479.5120, 611.6926
479.9941, 622.2446
480.4763, 633.0643
480.9584, 644.2136
481.4405, 655.8168
481.9226, 668.2481
482.4047, 680.9901
482.8868, 693.5812
483.3690, 705.3428
483.8511, 717.8990
484.3332, 732.1263
484.8153, 747.2996
485.2974, 762.5436
485.7795, 776.4066
486.2617, 791.5551
486.7438, 809.2244
487.2259, 829.4132
487.7080, 847.9321
488.1901, 863.9455
488.6722, 879.5840
489.1544, 896.0771
489.6365, 912.9784
490.1186, 932.2115
490.6007, 954.8076
491.0828, 978.3688
491.5649, 999.1373
492.0471, 1016.777
492.5292, 1035.483
493.0113, 1057.437
493.4934, 1080.707
493.9755, 1100.128
494.4576, 1115.659
494.9398, 1130.339
495.4219, 1146.616
495.9040, 1163.439
496.3861, 1178.198
496.8682, 1190.645
497.3503, 1201.945
497.8325, 1213.648
498.3146, 1224.831
498.7967, 1234.308
499.2788, 1240.638
499.7609, 1245.970
500.2430, 1250.912
500.7252, 1255.621
501.2073, 1260.831
501.6894, 1266.631
502.1715, 1273.053
502.6536, 1280.178
503.1357, 1287.992
503.6179, 1296.513
504.1000, 1305.359
504.5821, 1315.135
505.0642, 1326.593
505.5463, 1340.541
506.0284, 1354.178
506.5106, 1366.484
506.9927, 1378.295
507.4748, 1392.865
507.9569, 1410.801
508.4390, 1428.456
508.9211, 1444.503
509.4033, 1458.848
509.8854, 1470.526
510.3675, 1479.409
510.8496, 1486.669
511.3317, 1494.160
511.8138, 1500.991
512.2960, 1504.707
512.7781, 1504.846
513.2602, 1501.719
513.7423, 1494.598
514.2244, 1484.433
514.7065, 1473.514
515.1887, 1463.810
515.6708, 1453.004
516.1529, 1439.068
516.6350, 1422.007
517.1171, 1405.240
517.5992, 1389.701
518.0814, 1375.210
518.5635, 1361.737
519.0456, 1349.704
519.5277, 1337.932
520.0098, 1325.398
520.4919, 1313.542
520.9741, 1304.885
521.4562, 1301.688
521.9383, 1297.287
522.4204, 1289.929
522.9025, 1280.080
523.3846, 1270.785
523.8668, 1262.283
524.3489, 1253.508
524.8310, 1244.294
525.3131, 1234.378
525.7952, 1221.926
526.2773, 1206.725
526.7595, 1189.409
527.2416, 1170.398
527.7237, 1150.047
528.2058, 1128.875
528.6879, 1107.281
529.1700, 1085.033
529.6522, 1061.506
530.1343, 1037.259
530.6164, 1013.141
531.0985, 989.8367
531.5806, 966.8588
532.0627, 944.0610
532.5449, 921.4968
533.0270, 899.4294
533.5091, 878.2347
533.9912, 857.5276
534.4733, 837.3197
534.9554, 815.5714
535.4376, 796.8329
535.9197, 782.5453
536.4018, 770.6467
536.8839, 757.9329
537.3660, 743.6999
537.8481, 730.2195
538.3303, 717.9039
538.8124, 706.7523
539.2945, 696.4496
539.7766, 686.9782
540.2587, 678.5176
540.7408, 671.4919
541.2230, 665.5883
541.7051, 659.8862
542.1872, 654.3115
542.6693, 649.0884
543.1514, 644.3770
543.6335, 640.1654
544.1157, 636.3303
544.5978, 633.1057
545.0799, 629.8818
545.5620, 625.8970
546.0441, 621.5976
546.5262, 618.0850
547.0084, 616.9371
547.4905, 615.6141
547.9726, 612.6223
548.4547, 607.7062
548.9368, 603.8204
549.4189, 601.9271
549.9011, 600.5416
550.3832, 598.9698
550.8653, 597.7617
551.3474, 594.8918
551.8295, 589.7477
552.3116, 583.6610
552.7938, 578.8113
553.2759, 575.3954
553.7580, 571.2537
554.2401, 565.6356
554.7222, 559.0847
555.2043, 553.0615
555.6865, 547.5360
556.1686, 541.5609
556.6507, 534.0917
557.1328, 526.0322
557.6149, 518.7825
558.0970, 512.4326
558.5792, 505.8578
559.0613, 498.3651
559.5434, 490.2836
560.0255, 481.9030
560.5076, 473.2079
560.9897, 464.5538
561.4719, 456.0512
561.9540, 447.6354
562.4361, 439.3270
562.9182, 430.3491
563.4003, 422.3020
563.8824, 415.8041
564.3646, 410.6180
564.8467, 404.6309
565.3288, 397.5305
565.8109, 390.2194
566.2930, 382.7495
566.7751, 375.0960
567.2573, 369.0417
567.7394, 364.6863
568.2215, 361.2277
568.7036, 358.2845
569.1857, 355.5925
569.6678, 351.9333
570.1500, 346.8552
570.6321, 341.3226
571.1142, 336.1825
571.5963, 331.4920
572.0784, 327.3938
572.5605, 324.2073
573.0427, 321.3715
573.5248, 318.4700
574.0069, 315.5769
574.4890, 313.0160
574.9711, 311.5255
575.4532, 309.9340
575.9354, 307.6016
576.4175, 304.2235
576.8996, 301.0934
577.3817, 298.2271
577.8638, 295.6289
578.3459, 293.2795
578.8281, 291.2333
579.3102, 289.3321
579.7923, 287.5433
580.2744, 285.9116
580.7565, 284.7863
581.2386, 284.1122
581.7208, 282.9031
582.2029, 280.2666
582.6850, 277.2089
583.1671, 275.7646
583.6492, 275.6734
584.1313, 275.3877
584.6134, 273.5813
585.0955, 271.3309
585.5776, 269.5703
