##NAMES=Olmiite
##RRUFFID=R050177
##IDEAL CHEMISTRY=CaMn^2+^SiO_3_(OH)_2_
##LOCALITY=N'Chwaning II mine, Kuruman, South Africa
##OWNER=RRUFF
##SOURCE=Marcus Origlieri
##DESCRIPTION=Gray etched crystals
##STATUS=The identification of this mineral has been confirmed by X-ray diffraction and chemical analysis
##URL=rruff.info/R050177
##MEASURED CHEMISTRY=Ca_1.00_(Mn_0.98_Ca_0.02_)(Si_1.00_O_3_OH)(OH)
114.9877, 186.5637
115.4698, 193.2339
115.9520, 202.4530
116.4341, 211.7352
116.9162, 220.1430
117.3983, 227.8731
117.8804, 235.4415
118.3625, 241.9958
118.8447, 248.9195
119.3268, 257.6134
119.8089, 269.1873
120.2910, 282.1478
120.7731, 295.9469
121.2552, 310.7377
121.7374, 325.0967
122.2195, 337.1759
122.7016, 348.1020
123.1837, 360.1356
123.6658, 374.8819
124.1479, 391.0525
124.6301, 406.6457
125.1122, 420.9789
125.5943, 436.1901
126.0764, 456.0575
126.5585, 479.7471
127.0406, 502.1952
127.5227, 519.7589
128.0049, 533.7404
128.4870, 547.3068
128.9691, 561.4586
129.4512, 575.3812
129.9333, 587.9003
130.4154, 599.0967
130.8976, 608.0759
131.3797, 612.5507
131.8618, 613.0908
132.3439, 615.5206
132.8260, 623.1298
133.3081, 634.5516
133.7903, 642.1855
134.2724, 645.3403
134.7545, 646.5402
135.2366, 647.6061
135.7187, 647.8055
136.2008, 653.5034
136.6830, 670.5480
137.1651, 700.4669
137.6472, 723.5018
138.1293, 737.5909
138.6114, 745.3480
139.0935, 752.7201
139.5757, 757.6179
140.0578, 766.8737
140.5399, 787.2701
141.0220, 825.1298
141.5041, 854.0164
141.9862, 868.2767
142.4684, 869.3585
142.9505, 873.5780
143.4326, 882.7274
143.9147, 893.1617
144.3968, 901.4778
144.8789, 905.0529
145.3611, 910.5854
145.8432, 920.0289
146.3253, 934.6512
146.8074, 946.9198
147.2895, 954.7219
147.7716, 960.9876
148.2537, 970.2423
148.7359, 985.4985
149.2180, 1000.536
149.7001, 1013.459
150.1822, 1021.356
150.6643, 1032.021
151.1464, 1045.147
151.6286, 1061.049
152.1107, 1080.630
152.5928, 1108.987
153.0749, 1137.446
153.5570, 1162.148
154.0391, 1172.942
154.5213, 1190.571
155.0034, 1221.704
155.4855, 1264.255
155.9676, 1302.282
156.4497, 1331.391
156.9318, 1355.736
157.4140, 1378.907
157.8961, 1401.939
158.3782, 1423.629
158.8603, 1446.325
159.3424, 1470.516
159.8245, 1484.980
160.3067, 1485.722
160.7888, 1474.497
161.2709, 1453.492
161.7530, 1415.732
162.2351, 1374.086
162.7172, 1335.044
163.1993, 1299.923
163.6815, 1264.808
164.1636, 1225.478
164.6457, 1184.644
165.1278, 1148.342
165.6099, 1116.481
166.0920, 1091.339
166.5742, 1075.094
167.0563, 1069.743
167.5384, 1070.348
168.0205, 1077.396
168.5026, 1089.009
168.9847, 1097.734
169.4669, 1093.775
169.9490, 1086.709
170.4311, 1087.624
170.9132, 1103.714
171.3953, 1124.795
171.8774, 1142.414
172.3596, 1156.857
172.8417, 1170.186
173.3238, 1184.714
173.8059, 1199.049
174.2880, 1210.498
174.7701, 1216.771
175.2523, 1220.323
175.7344, 1225.755
176.2165, 1233.416
176.6986, 1236.802
177.1807, 1228.854
177.6628, 1211.634
178.1450, 1190.451
178.6271, 1163.605
179.1092, 1135.358
179.5913, 1112.469
180.0734, 1095.635
180.5555, 1083.818
181.0376, 1077.817
181.5198, 1076.843
182.0019, 1076.190
182.4840, 1069.376
182.9661, 1060.586
183.4482, 1062.568
183.9303, 1079.146
184.4125, 1102.300
184.8946, 1120.435
185.3767, 1133.601
185.8588, 1144.836
186.3409, 1155.390
186.8230, 1165.601
187.3052, 1176.918
187.7873, 1190.526
188.2694, 1204.594
188.7515, 1214.671
189.2336, 1220.781
189.7157, 1223.967
190.1979, 1223.276
190.6800, 1219.269
191.1621, 1218.277
191.6442, 1221.907
192.1263, 1229.754
192.6084, 1240.414
193.0906, 1254.041
193.5727, 1269.773
194.0548, 1285.248
194.5369, 1300.377
195.0190, 1321.908
195.5011, 1356.114
195.9832, 1401.094
196.4654, 1433.999
196.9475, 1452.884
197.4296, 1464.447
197.9117, 1476.319
198.3938, 1488.239
198.8759, 1502.875
199.3581, 1524.900
199.8402, 1555.120
200.3223, 1571.599
200.8044, 1571.084
201.2865, 1561.400
201.7686, 1558.118
202.2508, 1563.481
202.7329, 1565.074
203.2150, 1556.532
203.6971, 1537.100
204.1792, 1512.085
204.6613, 1477.654
205.1435, 1440.698
205.6256, 1420.453
206.1077, 1420.196
206.5898, 1427.293
207.0719, 1434.827
207.5540, 1442.538
208.0362, 1452.054
208.5183, 1463.815
209.0004, 1477.449
209.4825, 1491.546
209.9646, 1505.764
210.4467, 1520.551
210.9289, 1537.095
211.4110, 1557.116
211.8931, 1573.041
212.3752, 1584.339
212.8573, 1590.813
213.3394, 1588.965
213.8215, 1575.191
214.3037, 1558.691
214.7858, 1548.535
215.2679, 1548.325
215.7500, 1543.472
216.2321, 1527.726
216.7142, 1501.279
217.1964, 1489.913
217.6785, 1497.959
218.1606, 1515.911
218.6427, 1535.462
219.1248, 1559.420
219.6069, 1577.748
220.0891, 1586.257
220.5712, 1583.519
221.0533, 1585.434
221.5354, 1593.284
222.0175, 1604.661
222.4996, 1617.004
222.9818, 1633.361
223.4639, 1644.841
223.9460, 1647.581
224.4281, 1639.126
224.9102, 1634.887
225.3923, 1638.243
225.8745, 1643.575
226.3566, 1642.118
226.8387, 1634.202
227.3208, 1618.749
227.8029, 1592.963
228.2850, 1549.906
228.7672, 1518.796
229.2493, 1503.604
229.7314, 1498.381
230.2135, 1490.597
230.6956, 1478.127
231.1777, 1466.460
231.6599, 1457.956
232.1420, 1453.963
232.6241, 1449.381
233.1062, 1442.221
233.5883, 1434.995
234.0704, 1434.382
234.5526, 1442.474
235.0347, 1454.174
235.5168, 1468.075
235.9989, 1487.600
236.4810, 1501.118
236.9631, 1503.835
237.4453, 1500.535
237.9274, 1508.279
238.4095, 1532.380
238.8916, 1559.904
239.3737, 1584.149
239.8558, 1601.913
240.3380, 1623.149
240.8201, 1651.641
241.3022, 1684.492
241.7843, 1707.166
242.2664, 1713.382
242.7485, 1717.444
243.2307, 1729.309
243.7128, 1758.345
244.1949, 1775.326
244.6770, 1775.019
245.1591, 1759.755
245.6412, 1745.550
246.1233, 1737.218
246.6055, 1723.952
247.0876, 1697.348
247.5697, 1650.274
248.0518, 1604.343
248.5339, 1560.902
249.0160, 1520.066
249.4982, 1482.889
249.9803, 1449.062
250.4624, 1419.165
250.9445, 1394.368
251.4266, 1376.813
251.9087, 1359.734
252.3909, 1341.973
252.8730, 1323.615
253.3551, 1307.354
253.8372, 1293.780
254.3193, 1281.335
254.8014, 1268.752
255.2836, 1255.599
255.7657, 1243.407
256.2478, 1232.188
256.7299, 1222.068
257.2120, 1213.518
257.6941, 1205.393
258.1762, 1200.324
258.6584, 1201.544
259.1405, 1212.191
259.6226, 1221.258
260.1047, 1226.637
260.5868, 1228.391
261.0689, 1229.161
261.5511, 1227.517
262.0332, 1226.896
262.5153, 1231.605
262.9974, 1244.133
263.4795, 1254.512
263.9616, 1260.231
264.4438, 1261.431
264.9259, 1262.362
265.4080, 1262.645
265.8901, 1263.236
266.3722, 1264.804
266.8543, 1266.940
267.3365, 1271.558
267.8186, 1279.713
268.3007, 1291.332
268.7828, 1302.200
269.2649, 1312.909
269.7470, 1322.023
270.2292, 1327.782
270.7113, 1329.735
271.1934, 1330.274
271.6755, 1329.359
272.1576, 1327.180
272.6397, 1326.809
273.1219, 1328.376
273.6040, 1331.516
274.0861, 1335.714
274.5682, 1340.920
275.0503, 1348.016
275.5324, 1358.346
276.0146, 1371.356
276.4967, 1380.395
276.9788, 1384.583
277.4609, 1387.310
277.9430, 1391.729
278.4251, 1397.748
278.9073, 1406.667
279.3894, 1420.354
279.8715, 1437.679
280.3536, 1450.043
280.8357, 1456.803
281.3178, 1460.829
281.8000, 1463.629
282.2821, 1465.084
282.7642, 1471.095
283.2463, 1487.241
283.7284, 1509.602
284.2105, 1514.935
284.6927, 1499.659
285.1748, 1484.656
285.6569, 1499.139
286.1390, 1541.090
286.6211, 1571.475
287.1032, 1572.900
287.5853, 1554.284
288.0674, 1548.909
288.5496, 1558.279
289.0317, 1569.719
289.5138, 1565.595
289.9959, 1549.138
290.4780, 1542.834
290.9601, 1557.738
291.4423, 1586.352
291.9244, 1610.375
292.4065, 1629.935
292.8886, 1645.031
293.3707, 1653.491
293.8528, 1656.768
294.3350, 1661.300
294.8171, 1671.645
295.2992, 1683.022
295.7813, 1686.424
296.2634, 1681.811
296.7455, 1672.771
297.2277, 1662.165
297.7098, 1649.509
298.1919, 1633.491
298.6740, 1611.396
299.1561, 1587.268
299.6382, 1566.923
300.1204, 1550.083
300.6025, 1535.145
301.0846, 1520.999
301.5667, 1507.715
302.0488, 1494.848
302.5309, 1480.552
303.0131, 1468.431
303.4952, 1464.620
303.9773, 1468.117
304.4594, 1471.020
304.9415, 1465.282
305.4236, 1456.047
305.9058, 1450.392
306.3879, 1448.882
306.8700, 1453.188
307.3521, 1467.248
307.8342, 1489.618
308.3163, 1512.532
308.7985, 1536.161
309.2806, 1556.148
309.7627, 1566.521
310.2448, 1556.395
310.7269, 1549.091
311.2090, 1564.186
311.6912, 1596.602
312.1733, 1626.674
312.6554, 1639.656
313.1375, 1648.412
313.6196, 1663.571
314.1017, 1688.496
314.5839, 1718.708
315.0660, 1754.002
315.5481, 1793.111
316.0302, 1833.020
316.5123, 1872.126
316.9944, 1912.313
317.4766, 1954.940
317.9587, 2000.794
318.4408, 2048.137
318.9229, 2100.045
319.4050, 2153.042
319.8871, 2200.010
320.3692, 2229.729
320.8513, 2259.966
321.3335, 2300.088
321.8156, 2357.472
322.2977, 2411.858
322.7798, 2458.281
323.2619, 2499.318
323.7440, 2541.032
324.2262, 2581.421
324.7083, 2624.993
325.1904, 2675.116
325.6725, 2739.166
326.1546, 2792.843
326.6367, 2825.689
327.1189, 2849.299
327.6010, 2882.620
328.0831, 2939.981
328.5652, 2991.831
329.0473, 3029.538
329.5294, 3049.022
330.0116, 3069.375
330.4937, 3094.921
330.9758, 3118.913
331.4579, 3132.530
331.9400, 3136.308
332.4221, 3128.924
332.9043, 3108.783
333.3864, 3074.854
333.8685, 3038.389
334.3506, 3004.457
334.8327, 2963.058
335.3148, 2900.576
335.7970, 2810.759
336.2791, 2720.366
336.7612, 2634.503
337.2433, 2553.711
337.7254, 2473.714
338.2076, 2393.788
338.6897, 2317.924
339.1718, 2250.755
339.6539, 2194.563
340.1360, 2138.859
340.6181, 2080.468
341.1003, 2021.458
341.5824, 1973.937
342.0645, 1938.603
342.5466, 1909.217
343.0287, 1880.837
343.5108, 1853.638
343.9930, 1828.771
344.4751, 1806.647
344.9572, 1786.795
345.4393, 1767.312
345.9214, 1748.366
346.4035, 1732.114
346.8857, 1721.313
347.3678, 1714.825
347.8499, 1708.753
348.3320, 1702.887
348.8141, 1696.583
349.2962, 1687.572
349.7784, 1676.619
350.2605, 1667.718
350.7426, 1663.336
351.2247, 1662.537
351.7068, 1662.985
352.1889, 1663.725
352.6710, 1668.795
353.1531, 1688.086
353.6353, 1715.499
354.1174, 1735.815
354.5995, 1734.206
355.0816, 1725.769
355.5637, 1725.389
356.0458, 1734.423
356.5280, 1747.057
357.0101, 1761.173
357.4922, 1776.005
357.9743, 1790.420
358.4564, 1802.038
358.9385, 1814.693
359.4207, 1830.669
359.9028, 1850.078
360.3849, 1870.897
360.8670, 1895.655
361.3491, 1919.927
361.8312, 1939.531
362.3134, 1943.558
362.7955, 1952.444
363.2776, 1975.038
363.7597, 2009.799
364.2418, 2043.333
364.7239, 2071.766
365.2061, 2098.720
365.6882, 2126.132
366.1703, 2158.933
366.6524, 2187.032
367.1345, 2206.111
367.6166, 2218.671
368.0988, 2236.005
368.5809, 2261.537
369.0630, 2288.886
369.5451, 2315.799
370.0272, 2342.258
370.5093, 2368.943
370.9915, 2400.583
371.4736, 2430.829
371.9557, 2444.662
372.4378, 2434.657
372.9199, 2421.378
373.4020, 2412.097
373.8842, 2408.021
374.3663, 2400.926
374.8484, 2390.542
375.3305, 2377.327
375.8126, 2362.671
376.2947, 2346.848
376.7769, 2327.041
377.2590, 2299.999
377.7411, 2267.346
378.2232, 2241.368
378.7053, 2222.478
379.1874, 2208.429
379.6696, 2196.848
380.1517, 2187.860
380.6338, 2183.209
381.1159, 2184.734
381.5980, 2189.808
382.0801, 2190.533
382.5623, 2187.104
383.0444, 2187.489
383.5265, 2200.641
384.0086, 2222.375
384.4907, 2241.394
384.9728, 2254.667
385.4549, 2267.265
385.9370, 2285.729
386.4192, 2309.149
386.9013, 2333.573
387.3834, 2358.635
387.8655, 2382.421
388.3476, 2399.983
388.8297, 2408.613
389.3119, 2421.572
389.7940, 2454.118
390.2761, 2497.008
390.7582, 2534.222
391.2403, 2556.109
391.7224, 2572.488
392.2046, 2589.240
392.6867, 2606.889
393.1688, 2621.201
393.6509, 2628.126
394.1330, 2631.927
394.6151, 2636.736
395.0973, 2646.895
395.5794, 2654.708
396.0615, 2661.237
396.5436, 2665.578
397.0257, 2658.651
397.5078, 2633.537
397.9900, 2600.769
398.4721, 2566.094
398.9542, 2523.325
399.4363, 2487.014
399.9184, 2460.208
400.4005, 2439.966
400.8827, 2418.073
401.3648, 2389.917
401.8469, 2366.803
402.3290, 2355.874
402.8111, 2363.779
403.2932, 2355.760
403.7754, 2323.664
404.2575, 2284.780
404.7396, 2267.737
405.2217, 2277.662
405.7038, 2285.171
406.1859, 2278.698
406.6681, 2260.559
407.1502, 2252.240
407.6323, 2254.563
408.1144, 2263.516
408.5965, 2276.751
409.0786, 2294.009
409.5608, 2311.859
410.0429, 2329.101
410.5250, 2347.100
411.0071, 2369.409
411.4892, 2395.665
411.9713, 2422.298
412.4535, 2446.439
412.9356, 2469.428
413.4177, 2495.097
413.8998, 2525.482
414.3819, 2554.424
414.8640, 2573.365
415.3462, 2586.055
415.8283, 2602.502
416.3104, 2633.763
416.7925, 2666.683
417.2746, 2691.191
417.7567, 2705.946
418.2388, 2716.485
418.7209, 2723.557
419.2031, 2728.594
419.6852, 2733.037
420.1673, 2731.613
420.6494, 2735.413
421.1315, 2755.802
421.6136, 2789.841
422.0958, 2807.304
422.5779, 2788.303
423.0600, 2760.771
423.5421, 2740.951
424.0242, 2732.106
424.5063, 2728.625
424.9885, 2734.371
425.4706, 2745.106
425.9527, 2749.159
426.4348, 2734.719
426.9169, 2730.726
427.3990, 2752.302
427.8812, 2807.202
428.3633, 2841.792
428.8454, 2848.728
429.3275, 2844.798
429.8096, 2851.681
430.2917, 2871.506
430.7739, 2891.064
431.2560, 2909.723
431.7381, 2924.995
432.2202, 2924.122
432.7023, 2905.842
433.1844, 2882.683
433.6666, 2867.693
434.1487, 2857.590
434.6308, 2834.460
435.1129, 2791.055
435.5950, 2741.933
436.0771, 2711.925
436.5593, 2695.705
437.0414, 2670.576
437.5235, 2616.793
438.0056, 2549.795
438.4877, 2487.245
438.9698, 2430.233
439.4520, 2379.173
439.9341, 2339.369
440.4162, 2303.900
440.8983, 2263.075
441.3804, 2204.258
441.8625, 2147.227
442.3447, 2102.026
442.8268, 2068.279
443.3089, 2037.732
443.7910, 2009.986
444.2731, 1982.839
444.7552, 1954.505
445.2374, 1915.106
445.7195, 1887.720
446.2016, 1885.570
446.6837, 1896.680
447.1658, 1891.630
447.6479, 1856.170
448.1301, 1822.284
448.6122, 1799.922
449.0943, 1790.553
449.5764, 1785.061
450.0585, 1785.359
450.5406, 1787.073
451.0227, 1785.152
451.5049, 1778.937
451.9870, 1772.469
452.4691, 1767.081
452.9512, 1761.947
453.4333, 1752.647
453.9154, 1738.469
454.3976, 1726.707
454.8797, 1724.048
455.3618, 1728.807
455.8439, 1733.093
456.3260, 1735.968
456.8081, 1738.616
457.2903, 1743.132
457.7724, 1748.834
458.2545, 1753.657
458.7366, 1758.047
459.2187, 1760.177
459.7008, 1754.064
460.1830, 1739.827
460.6651, 1733.095
461.1472, 1750.020
461.6293, 1777.289
462.1114, 1800.785
462.5935, 1818.069
463.0757, 1828.960
463.5578, 1827.619
464.0399, 1818.815
464.5220, 1817.536
465.0041, 1830.939
465.4862, 1849.845
465.9684, 1871.870
466.4505, 1900.494
466.9326, 1922.090
467.4147, 1931.882
467.8968, 1936.868
468.3789, 1944.961
468.8611, 1957.143
469.3432, 1970.500
469.8253, 1983.732
470.3074, 1997.295
470.7895, 2017.442
471.2716, 2046.960
471.7538, 2074.654
472.2359, 2089.241
472.7180, 2090.444
473.2001, 2102.664
473.6822, 2131.441
474.1643, 2164.757
474.6465, 2181.961
475.1286, 2184.665
475.6107, 2185.490
476.0928, 2192.512
476.5749, 2200.918
477.0570, 2199.044
477.5392, 2186.879
478.0213, 2177.811
478.5034, 2187.448
478.9855, 2205.222
479.4676, 2216.486
479.9497, 2212.831
480.4319, 2207.958
480.9140, 2210.821
481.3961, 2219.023
481.8782, 2225.992
482.3603, 2226.947
482.8424, 2227.963
483.3246, 2233.552
483.8066, 2246.980
484.2888, 2253.598
484.7709, 2247.491
485.2530, 2235.540
485.7351, 2224.809
486.2172, 2216.739
486.6993, 2207.813
487.1815, 2196.824
487.6636, 2184.431
488.1457, 2174.266
488.6278, 2165.020
489.1099, 2160.732
489.5920, 2167.502
490.0742, 2187.307
490.5563, 2192.184
491.0384, 2177.776
491.5205, 2157.325
492.0026, 2149.334
492.4847, 2152.846
492.9669, 2160.196
493.4490, 2172.729
493.9311, 2184.946
494.4132, 2181.232
494.8953, 2163.503
495.3774, 2153.459
495.8596, 2174.080
496.3417, 2208.665
496.8238, 2235.892
497.3059, 2250.739
497.7880, 2261.474
498.2701, 2268.065
498.7523, 2274.881
499.2344, 2289.625
499.7165, 2325.609
500.1986, 2360.126
500.6807, 2382.298
501.1628, 2391.022
501.6450, 2405.088
502.1271, 2429.765
502.6092, 2458.965
503.0913, 2488.763
503.5734, 2520.614
504.0555, 2550.289
504.5377, 2574.614
505.0198, 2598.031
505.5019, 2631.011
505.9840, 2676.967
506.4661, 2723.130
506.9482, 2766.978
507.4304, 2807.769
507.9125, 2835.010
508.3946, 2847.753
508.8767, 2854.015
509.3588, 2860.259
509.8409, 2866.272
510.3231, 2871.972
510.8052, 2878.856
511.2873, 2882.064
511.7694, 2879.282
512.2515, 2868.447
512.7336, 2843.302
513.2158, 2784.990
513.6979, 2721.433
514.1800, 2676.452
514.6621, 2652.235
515.1442, 2632.403
515.6263, 2616.588
516.1085, 2598.222
516.5906, 2571.691
517.0727, 2527.197
517.5548, 2484.533
518.0369, 2443.620
518.5190, 2406.805
519.0012, 2379.562
519.4833, 2372.746
519.9654, 2361.287
520.4475, 2333.610
520.9296, 2286.737
521.4117, 2259.007
521.8939, 2256.318
522.3760, 2261.504
522.8581, 2259.357
523.3402, 2249.745
523.8223, 2236.625
524.3044, 2219.875
524.7866, 2201.362
525.2687, 2182.859
525.7508, 2165.057
526.2329, 2151.803
526.7150, 2145.648
527.1971, 2145.325
527.6793, 2153.445
528.1614, 2170.179
528.6435, 2178.773
529.1256, 2161.161
529.6077, 2131.481
530.0898, 2105.619
530.5720, 2088.108
531.0541, 2074.592
531.5362, 2065.248
532.0183, 2058.640
532.5004, 2051.188
532.9825, 2043.065
533.4646, 2033.170
533.9467, 2018.560
534.4288, 1997.773
534.9109, 1988.725
535.3931, 1999.052
535.8752, 2012.037
536.3573, 2014.967
536.8394, 2006.200
537.3215, 1993.207
537.8036, 1973.770
538.2858, 1953.940
538.7679, 1948.864
539.2500, 1958.211
539.7321, 1964.966
540.2142, 1957.315
540.6964, 1942.654
541.1785, 1943.006
541.6606, 1957.837
542.1427, 1967.301
542.6248, 1946.500
543.1069, 1914.784
543.5891, 1899.633
544.0712, 1913.531
544.5533, 1927.889
545.0354, 1925.407
545.5175, 1912.561
545.9996, 1900.582
546.4818, 1888.237
546.9639, 1881.695
547.4460, 1886.622
547.9281, 1902.900
548.4102, 1911.612
548.8923, 1908.188
549.3745, 1901.263
549.8566, 1894.884
550.3387, 1888.467
550.8208, 1884.366
551.3029, 1882.298
551.7850, 1882.961
552.2672, 1889.232
552.7493, 1901.532
553.2314, 1910.281
553.7135, 1912.501
554.1956, 1909.389
554.6777, 1900.610
555.1599, 1887.127
555.6420, 1878.391
556.1241, 1884.642
556.6062, 1897.857
557.0883, 1908.198
557.5704, 1914.822
558.0526, 1916.991
558.5347, 1912.504
559.0168, 1904.006
559.4989, 1894.535
559.9810, 1877.891
560.4631, 1868.060
560.9453, 1873.348
561.4274, 1889.453
561.9095, 1900.325
562.3916, 1900.933
562.8737, 1901.130
563.3558, 1904.589
563.8380, 1912.052
564.3201, 1915.621
564.8022, 1912.866
565.2843, 1911.000
565.7664, 1921.690
566.2485, 1945.363
566.7307, 1948.995
567.2128, 1921.535
567.6949, 1885.853
568.1770, 1884.276
568.6591, 1910.085
569.1412, 1932.429
569.6234, 1932.244
570.1055, 1923.365
570.5876, 1921.288
571.0697, 1925.525
571.5518, 1929.650
572.0339, 1927.156
572.5161, 1924.777
572.9982, 1928.767
573.4803, 1943.885
573.9624, 1955.757
574.4445, 1960.981
574.9266, 1961.229
575.4088, 1958.304
575.8909, 1947.827
576.3730, 1941.169
576.8551, 1941.223
577.3372, 1946.446
577.8193, 1950.310
578.3015, 1952.620
578.7836, 1954.249
579.2657, 1954.259
579.7478, 1953.208
580.2299, 1958.725
580.7120, 1971.746
581.1942, 1983.994
581.6763, 1986.684
582.1584, 1982.450
582.6405, 1976.578
583.1226, 1968.786
583.6047, 1962.991
584.0869, 1961.894
584.5690, 1965.249
585.0511, 1972.621
585.5332, 1992.288
586.0153, 2008.001
586.4974, 2010.068
586.9796, 1998.558
587.4617, 1990.347
587.9438, 1988.132
588.4259, 1989.233
588.9080, 1993.321
589.3901, 2003.200
589.8723, 2007.541
590.3544, 2004.997
590.8365, 1998.825
591.3186, 1990.862
591.8007, 1980.664
592.2828, 1979.188
592.7650, 1991.924
593.2471, 2011.407
593.7292, 2023.961
594.2113, 2029.899
594.6934, 2029.967
595.1755, 2019.366
595.6577, 2006.041
596.1398, 1998.622
596.6219, 1997.576
597.1040, 1999.771
597.5861, 2005.629
598.0682, 2012.810
598.5503, 2019.561
599.0324, 2027.042
599.5145, 2031.612
599.9966, 2028.200
600.4788, 2023.126
600.9609, 2026.578
601.4430, 2047.821
601.9251, 2058.755
602.4072, 2049.281
602.8893, 2025.931
603.3715, 2019.843
603.8536, 2033.256
604.3357, 2048.059
604.8178, 2055.044
605.2999, 2055.050
605.7820, 2048.884
606.2642, 2036.077
606.7463, 2026.154
607.2284, 2027.690
607.7105, 2037.296
608.1926, 2051.698
608.6747, 2074.876
609.1569, 2091.854
609.6390, 2089.714
610.1211, 2076.676
610.6032, 2066.390
611.0853, 2062.083
611.5674, 2061.121
