##NAMES=Olmiite
##RRUFFID=R050177
##IDEAL CHEMISTRY=CaMn^2+^SiO_3_(OH)_2_
##LOCALITY=N'Chwaning II mine, Kuruman, South Africa
##OWNER=RRUFF
##SOURCE=Marcus Origlieri
##DESCRIPTION=Gray etched crystals
##STATUS=The identification of this mineral has been confirmed by X-ray diffraction and chemical analysis
##URL=rruff.info/R050177
##MEASURED CHEMISTRY=Ca_1.00_(Mn_0.98_Ca_0.02_)(Si_1.00_O_3_OH)(OH)
122.2742, 206.5986
122.7563, 211.1629
123.2384, 224.0456
123.7206, 243.8536
124.2027, 267.3044
124.6848, 292.8732
125.1669, 320.7799
125.6490, 345.3950
126.1311, 361.1686
126.6132, 378.4485
127.0954, 401.5027
127.5775, 429.3977
128.0596, 458.4387
128.5417, 485.8345
129.0238, 511.8360
129.5060, 533.9088
129.9881, 549.5886
130.4702, 564.0923
130.9523, 580.5542
131.4344, 598.4377
131.9165, 614.7092
132.3987, 626.4305
132.8808, 633.8284
133.3629, 634.4763
133.8450, 625.9917
134.3271, 614.0787
134.8092, 601.6805
135.2913, 589.2557
135.7735, 575.7421
136.2556, 559.1622
136.7377, 536.6683
137.2198, 520.7399
137.7019, 511.8741
138.1840, 508.6548
138.6662, 510.4388
139.1483, 517.0261
139.6304, 527.9819
140.1125, 543.0862
140.5946, 563.5443
141.0767, 585.8289
141.5589, 611.1423
142.0410, 637.8178
142.5231, 664.4880
143.0052, 690.7970
143.4873, 717.0701
143.9694, 744.1700
144.4516, 773.2612
144.9337, 797.9114
145.4158, 811.3766
145.8979, 822.0116
146.3800, 841.9523
146.8621, 875.0566
147.3443, 911.9526
147.8264, 941.1942
148.3085, 963.8834
148.7906, 978.1664
149.2727, 979.3084
149.7548, 972.5069
150.2370, 965.5875
150.7191, 959.7211
151.2012, 955.7266
151.6833, 955.9901
152.1654, 960.3442
152.6475, 963.1583
153.1297, 957.7943
153.6118, 949.3611
154.0939, 951.1722
154.5760, 968.7111
155.0581, 992.0798
155.5402, 1007.917
156.0224, 1016.758
156.5045, 1032.328
156.9866, 1066.692
157.4687, 1114.156
157.9508, 1154.945
158.4329, 1182.754
158.9151, 1206.486
159.3972, 1236.838
159.8793, 1272.850
160.3614, 1303.386
160.8435, 1323.534
161.3256, 1333.116
161.8078, 1330.603
162.2899, 1312.960
162.7720, 1284.993
163.2541, 1250.345
163.7362, 1209.509
164.2183, 1166.273
164.7004, 1119.093
165.1826, 1069.230
165.6647, 1030.424
166.1468, 1010.340
166.6289, 995.5363
167.1110, 976.3491
167.5931, 953.6522
168.0753, 934.2426
168.5574, 923.2844
169.0395, 920.6669
169.5216, 923.0961
170.0037, 936.7169
170.4858, 949.2294
170.9680, 952.7783
171.4501, 948.8052
171.9322, 944.5572
172.4143, 944.7457
172.8964, 949.3032
173.3785, 960.2238
173.8607, 982.7007
174.3428, 1007.351
174.8249, 1032.847
175.3070, 1057.522
175.7891, 1077.884
176.2712, 1090.496
176.7534, 1095.165
177.2355, 1096.388
177.7176, 1096.755
178.1997, 1090.526
178.6818, 1072.448
179.1639, 1045.202
179.6461, 1015.949
180.1282, 990.4454
180.6103, 968.7583
181.0924, 949.5803
181.5745, 934.1401
182.0566, 920.4575
182.5388, 906.7242
183.0209, 894.0543
183.5030, 885.2056
183.9851, 882.7316
184.4672, 886.7891
184.9493, 892.8867
185.4315, 904.6400
185.9136, 915.2710
186.3957, 921.1764
186.8778, 924.1741
187.3599, 928.8912
187.8420, 939.4349
188.3242, 955.9094
188.8063, 969.2213
189.2884, 977.8316
189.7705, 984.5085
190.2526, 990.6085
190.7347, 995.3126
191.2169, 996.0845
191.6990, 989.9075
192.1811, 977.4879
192.6632, 974.0833
193.1453, 987.2559
193.6274, 1002.695
194.1096, 1017.223
194.5917, 1031.769
195.0738, 1048.501
195.5559, 1068.831
196.0380, 1092.727
196.5201, 1118.390
197.0022, 1147.225
197.4844, 1176.692
197.9665, 1206.559
198.4486, 1236.750
198.9307, 1268.300
199.4128, 1302.489
199.8949, 1337.332
200.3771, 1362.217
200.8592, 1370.514
201.3413, 1374.535
201.8234, 1377.441
202.3055, 1376.468
202.7876, 1366.703
203.2698, 1345.233
203.7519, 1315.093
204.2340, 1287.398
204.7161, 1261.260
205.1982, 1239.349
205.6803, 1223.653
206.1625, 1211.797
206.6446, 1200.289
207.1267, 1187.551
207.6088, 1175.814
208.0909, 1171.240
208.5730, 1176.250
209.0552, 1186.473
209.5373, 1203.340
210.0194, 1224.398
210.5015, 1248.089
210.9836, 1273.750
211.4657, 1299.907
211.9479, 1323.726
212.4300, 1351.768
212.9121, 1366.671
213.3942, 1360.287
213.8763, 1346.174
214.3584, 1334.496
214.8406, 1328.525
215.3227, 1327.292
215.8048, 1329.885
216.2869, 1341.472
216.7690, 1346.748
217.2511, 1339.456
217.7333, 1330.825
218.2154, 1327.491
218.6975, 1331.315
219.1796, 1342.071
219.6617, 1360.409
220.1438, 1390.785
220.6260, 1416.139
221.1081, 1434.203
221.5902, 1449.815
222.0723, 1464.573
222.5544, 1479.327
223.0365, 1495.217
223.5187, 1513.893
224.0008, 1536.021
224.4829, 1557.061
224.9650, 1582.804
225.4471, 1602.488
225.9292, 1610.010
226.4113, 1606.598
226.8935, 1597.973
227.3756, 1589.595
227.8577, 1582.060
228.3398, 1562.645
228.8219, 1525.762
229.3040, 1483.573
229.7862, 1434.691
230.2683, 1383.410
230.7504, 1337.538
231.2325, 1302.671
231.7146, 1277.841
232.1967, 1251.121
232.6789, 1215.529
233.1610, 1185.670
233.6431, 1165.484
234.1252, 1152.549
234.6073, 1143.266
235.0894, 1135.849
235.5716, 1129.924
236.0537, 1123.834
236.5358, 1114.834
237.0179, 1109.388
237.5000, 1107.366
237.9821, 1109.429
238.4643, 1117.151
238.9464, 1131.049
239.4285, 1148.843
239.9106, 1165.294
240.3927, 1180.740
240.8748, 1193.931
241.3570, 1203.323
241.8391, 1211.672
242.3212, 1220.550
242.8033, 1230.606
243.2854, 1242.451
243.7675, 1257.978
244.2497, 1281.431
244.7318, 1298.315
245.2139, 1309.849
245.6960, 1314.919
246.1781, 1311.030
246.6602, 1298.975
247.1424, 1283.206
247.6245, 1269.057
248.1066, 1258.232
248.5887, 1240.469
249.0708, 1213.408
249.5529, 1181.551
250.0351, 1141.814
250.5172, 1097.769
250.9993, 1058.414
251.4814, 1031.974
251.9635, 1018.097
252.4456, 1002.370
252.9278, 983.3720
253.4099, 963.8444
253.8920, 943.3223
254.3741, 922.9774
254.8562, 904.4830
255.3383, 888.7120
255.8205, 875.6567
256.3026, 865.9007
256.7847, 861.8168
257.2668, 857.3513
257.7489, 848.5505
258.2310, 839.5010
258.7132, 835.7487
259.1953, 840.0724
259.6774, 847.7924
260.1595, 849.2288
260.6416, 841.1424
261.1237, 835.6878
261.6059, 837.6785
262.0880, 841.8921
262.5701, 844.2393
263.0522, 843.7903
263.5343, 843.1061
264.0164, 845.8863
264.4986, 852.8250
264.9807, 857.6968
265.4628, 855.5484
265.9449, 854.4023
266.4270, 860.0779
266.9091, 872.1932
267.3913, 884.8962
267.8734, 893.6317
268.3555, 898.6933
268.8376, 902.2818
269.3197, 901.1214
269.8018, 903.4162
270.2840, 917.3292
270.7661, 938.4960
271.2482, 955.1224
271.7303, 959.1926
272.2124, 954.3893
272.6945, 948.1189
273.1766, 937.5075
273.6588, 933.3618
274.1409, 951.1204
274.6230, 977.3162
275.1051, 991.2175
275.5872, 980.2413
276.0693, 961.9752
276.5515, 957.8270
277.0336, 968.4633
277.5157, 983.5336
277.9978, 1001.747
278.4799, 1020.338
278.9620, 1035.838
279.4442, 1048.237
279.9263, 1057.026
280.4084, 1060.006
280.8905, 1058.399
281.3726, 1057.566
281.8547, 1057.563
282.3369, 1061.283
282.8190, 1074.484
283.3011, 1098.011
283.7832, 1118.154
284.2653, 1127.388
284.7474, 1130.261
285.2296, 1134.347
285.7117, 1141.019
286.1938, 1148.557
286.6759, 1155.350
287.1580, 1161.450
287.6401, 1167.512
288.1223, 1172.828
288.6044, 1178.638
289.0865, 1186.073
289.5686, 1195.151
290.0507, 1205.438
290.5328, 1217.199
291.0150, 1230.007
291.4971, 1240.931
291.9792, 1246.050
292.4613, 1253.441
292.9434, 1267.786
293.4255, 1287.125
293.9077, 1307.283
294.3898, 1326.672
294.8719, 1344.736
295.3540, 1359.966
295.8361, 1371.058
296.3182, 1381.640
296.8004, 1399.604
297.2825, 1413.977
297.7646, 1410.104
298.2467, 1384.680
298.7288, 1349.352
299.2109, 1320.124
299.6931, 1300.274
300.1752, 1277.949
300.6573, 1253.539
301.1394, 1226.670
301.6215, 1195.670
302.1036, 1161.656
302.5858, 1127.734
303.0679, 1095.541
303.5500, 1064.752
304.0321, 1047.036
304.5142, 1056.061
304.9963, 1063.676
305.4785, 1060.582
305.9606, 1051.828
306.4427, 1046.245
306.9248, 1048.588
307.4069, 1056.589
307.8890, 1063.105
308.3712, 1065.019
308.8533, 1071.165
309.3354, 1083.362
309.8175, 1099.163
310.2996, 1116.939
310.7817, 1136.138
311.2639, 1156.611
311.7460, 1178.427
312.2281, 1201.808
312.7102, 1225.602
313.1923, 1250.608
313.6744, 1275.201
314.1566, 1295.142
314.6387, 1312.920
315.1208, 1337.807
315.6029, 1381.318
316.0850, 1438.625
316.5671, 1483.832
317.0493, 1509.131
317.5314, 1537.641
318.0135, 1583.493
318.4956, 1639.547
318.9777, 1694.951
319.4598, 1746.087
319.9420, 1795.947
320.4241, 1848.528
320.9062, 1904.193
321.3883, 1959.268
321.8704, 2009.880
322.3525, 2061.271
322.8347, 2120.156
323.3168, 2188.253
323.7989, 2256.713
324.2810, 2320.480
324.7631, 2380.375
325.2452, 2438.792
325.7274, 2495.813
326.2095, 2552.118
326.6916, 2607.816
327.1737, 2662.870
327.6558, 2719.905
328.1379, 2781.521
328.6201, 2843.735
329.1022, 2902.777
329.5843, 2958.361
330.0664, 3013.626
330.5485, 3073.198
331.0306, 3134.337
331.5128, 3179.427
331.9949, 3200.642
332.4770, 3216.854
332.9591, 3246.801
333.4412, 3273.918
333.9233, 3266.704
334.4054, 3211.627
334.8875, 3125.226
335.3697, 3040.499
335.8518, 2964.036
336.3339, 2876.737
336.8160, 2776.091
337.2981, 2667.339
337.7802, 2548.339
338.2624, 2422.443
338.7445, 2301.416
339.2266, 2197.948
339.7087, 2113.483
340.1908, 2026.959
340.6729, 1929.796
341.1551, 1838.552
341.6372, 1756.717
342.1193, 1684.339
342.6014, 1620.601
343.0835, 1565.515
343.5656, 1517.623
344.0478, 1473.258
344.5299, 1432.662
345.0120, 1395.670
345.4941, 1362.428
345.9762, 1332.531
346.4583, 1307.157
346.9405, 1286.303
347.4226, 1265.609
347.9047, 1238.365
348.3868, 1205.370
348.8689, 1181.197
349.3510, 1170.790
349.8332, 1164.991
350.3153, 1158.163
350.7974, 1150.582
351.2795, 1142.975
351.7616, 1135.272
352.2437, 1127.934
352.7259, 1120.387
353.2080, 1112.374
353.6901, 1109.202
354.1722, 1116.106
354.6543, 1128.797
355.1364, 1136.734
355.6186, 1137.969
356.1007, 1138.361
356.5828, 1138.765
357.0649, 1140.593
357.5470, 1148.309
358.0291, 1163.931
358.5113, 1180.499
358.9934, 1188.199
359.4755, 1183.833
359.9576, 1184.764
360.4397, 1192.817
360.9218, 1205.357
361.4040, 1223.949
361.8861, 1246.195
362.3682, 1264.468
362.8503, 1272.857
363.3324, 1272.862
363.8145, 1275.592
364.2967, 1276.384
364.7788, 1285.752
365.2609, 1314.360
365.7430, 1348.285
366.2251, 1369.641
366.7072, 1373.612
367.1894, 1372.675
367.6715, 1387.563
368.1536, 1426.671
368.6357, 1454.930
369.1178, 1458.907
369.5999, 1463.614
370.0821, 1481.610
370.5642, 1510.195
371.0463, 1539.031
371.5284, 1561.724
372.0105, 1579.463
372.4926, 1596.737
372.9748, 1614.673
373.4569, 1629.404
373.9390, 1640.899
374.4211, 1647.704
374.9032, 1647.273
375.3853, 1638.406
375.8675, 1625.216
376.3496, 1608.896
376.8317, 1590.503
377.3138, 1575.708
377.7959, 1566.523
378.2780, 1559.624
378.7602, 1551.266
379.2423, 1541.707
379.7244, 1533.913
380.2065, 1530.464
380.6886, 1527.672
381.1707, 1519.335
381.6529, 1506.808
382.1350, 1500.968
382.6171, 1509.810
383.0992, 1529.167
383.5813, 1540.833
384.0634, 1534.523
384.5456, 1534.901
385.0277, 1549.626
385.5098, 1571.630
385.9919, 1592.520
386.4740, 1610.372
386.9561, 1629.451
387.4383, 1655.351
387.9204, 1689.871
388.4025, 1722.508
388.8846, 1753.905
389.3667, 1782.834
389.8488, 1804.015
390.3310, 1822.925
390.8131, 1851.507
391.2952, 1897.775
391.7773, 1952.742
392.2594, 1990.901
392.7415, 2004.112
393.2237, 2023.242
393.7058, 2066.234
394.1879, 2110.306
394.6700, 2140.543
395.1521, 2154.970
395.6342, 2158.013
396.1163, 2148.712
396.5984, 2130.169
397.0806, 2114.835
397.5627, 2105.495
398.0448, 2093.645
398.5269, 2070.878
399.0090, 2041.085
399.4911, 2013.906
399.9733, 1994.756
400.4554, 1973.941
400.9375, 1944.424
401.4196, 1907.889
401.9017, 1867.116
402.3839, 1821.754
402.8660, 1778.447
403.3481, 1749.380
403.8302, 1740.131
404.3123, 1728.346
404.7944, 1705.934
405.2766, 1686.217
405.7587, 1682.678
406.2408, 1692.025
406.7229, 1697.959
407.2050, 1687.710
407.6871, 1665.395
408.1693, 1656.902
408.6514, 1672.281
409.1335, 1688.974
409.6156, 1702.642
410.0977, 1717.300
410.5798, 1738.185
411.0620, 1766.003
411.5441, 1794.743
412.0262, 1816.683
412.5083, 1831.382
412.9904, 1850.969
413.4725, 1877.483
413.9547, 1906.924
414.4368, 1937.998
414.9189, 1970.170
415.4010, 2002.863
415.8831, 2035.724
416.3652, 2068.942
416.8474, 2104.147
417.3295, 2140.997
417.8116, 2174.911
418.2937, 2205.769
418.7758, 2231.015
419.2579, 2244.719
419.7401, 2246.037
420.2222, 2248.928
420.7043, 2259.936
421.1864, 2271.880
421.6685, 2278.752
422.1506, 2279.979
422.6328, 2275.639
423.1149, 2264.468
423.5970, 2248.581
424.0791, 2240.446
424.5612, 2245.249
425.0433, 2251.328
425.5255, 2254.082
426.0076, 2259.403
426.4897, 2275.082
426.9718, 2301.750
427.4539, 2331.115
427.9360, 2352.453
428.4182, 2364.271
428.9003, 2388.435
429.3824, 2436.615
429.8645, 2482.638
430.3466, 2516.372
430.8287, 2542.101
431.3109, 2566.979
431.7930, 2594.048
432.2751, 2619.893
432.7572, 2643.133
433.2393, 2663.397
433.7214, 2671.063
434.2036, 2664.219
434.6857, 2643.314
435.1678, 2605.266
435.6499, 2551.836
436.1320, 2496.347
436.6141, 2443.457
437.0963, 2389.133
437.5784, 2332.583
438.0605, 2272.324
438.5426, 2201.745
439.0247, 2115.617
439.5068, 2019.940
439.9890, 1931.014
440.4711, 1853.877
440.9532, 1776.468
441.4353, 1691.777
441.9174, 1612.031
442.3995, 1549.040
442.8817, 1501.793
443.3638, 1459.819
443.8459, 1414.497
444.3280, 1366.392
444.8101, 1319.090
445.2922, 1268.907
445.7744, 1226.686
446.2565, 1199.874
446.7386, 1178.534
447.2207, 1151.692
447.7028, 1116.783
448.1849, 1083.396
448.6671, 1061.638
449.1492, 1049.104
449.6313, 1034.044
450.1134, 1014.072
450.5955, 995.2800
451.0776, 983.3939
451.5598, 976.5480
452.0419, 968.3435
452.5240, 957.6664
453.0061, 946.0352
453.4882, 932.4944
453.9703, 918.7929
454.4525, 908.4345
454.9346, 902.5225
455.4167, 899.8441
455.8988, 899.0401
456.3809, 900.6857
456.8630, 901.9144
457.3452, 902.9458
457.8272, 903.4158
458.3094, 903.3820
458.7915, 902.6375
459.2736, 900.1403
459.7557, 895.1902
460.2378, 890.4203
460.7199, 892.3479
461.2021, 903.5591
461.6842, 909.1333
462.1663, 898.9797
462.6484, 890.3948
463.1305, 895.9421
463.6126, 912.9021
464.0948, 929.4886
464.5769, 940.0488
465.0590, 947.4183
465.5411, 955.2538
466.0232, 963.4899
466.5053, 971.2874
466.9875, 978.5268
467.4696, 984.8892
467.9517, 988.9028
468.4338, 988.6058
468.9159, 993.2454
469.3980, 1006.765
469.8802, 1023.755
470.3623, 1041.533
470.8444, 1058.966
471.3265, 1074.241
471.8086, 1085.856
472.2907, 1094.896
472.7729, 1105.036
473.2550, 1115.351
473.7371, 1128.684
474.2192, 1150.920
474.7013, 1171.645
475.1834, 1181.662
475.6656, 1181.552
476.1477, 1179.997
476.6298, 1182.547
477.1119, 1188.724
477.5940, 1198.555
478.0761, 1213.437
478.5583, 1224.885
479.0404, 1227.740
479.5225, 1225.525
480.0046, 1224.204
480.4867, 1223.885
480.9688, 1224.323
481.4510, 1225.068
481.9331, 1226.704
482.4152, 1231.407
482.8973, 1238.725
483.3794, 1243.198
483.8615, 1239.891
484.3437, 1230.678
484.8258, 1227.880
485.3079, 1244.971
485.7900, 1251.506
486.2721, 1234.692
486.7542, 1213.034
487.2364, 1204.861
487.7185, 1211.105
488.2006, 1216.893
488.6827, 1206.638
489.1648, 1183.748
489.6469, 1170.605
490.1291, 1169.915
490.6112, 1172.177
491.0933, 1174.765
491.5754, 1177.550
492.0575, 1181.284
492.5396, 1186.842
493.0218, 1188.870
493.5039, 1180.500
493.9860, 1168.069
494.4681, 1161.234
494.9502, 1161.192
495.4323, 1167.487
495.9145, 1181.308
496.3966, 1200.919
496.8787, 1214.634
497.3608, 1217.348
497.8429, 1221.236
498.3250, 1226.354
498.8072, 1234.208
499.2893, 1247.860
499.7714, 1266.562
500.2535, 1284.460
500.7356, 1294.438
501.2177, 1298.834
501.6999, 1317.368
502.1820, 1358.844
502.6641, 1394.679
503.1462, 1404.635
503.6283, 1409.766
504.1104, 1431.210
504.5926, 1472.437
505.0747, 1517.281
505.5568, 1555.866
506.0389, 1592.237
506.5210, 1634.637
507.0031, 1683.352
507.4853, 1730.076
507.9674, 1769.779
508.4495, 1803.019
508.9316, 1831.395
509.4137, 1856.542
509.8958, 1874.719
510.3780, 1883.446
510.8601, 1886.609
511.3422, 1891.832
511.8243, 1896.052
512.3064, 1884.703
512.7885, 1843.892
513.2706, 1781.351
513.7527, 1727.908
514.2349, 1686.625
514.7170, 1647.090
515.1991, 1606.977
515.6812, 1567.353
516.1633, 1528.790
516.6454, 1491.512
517.1276, 1454.416
517.6097, 1419.082
518.0918, 1382.567
518.5739, 1336.978
519.0560, 1284.207
519.5381, 1243.304
520.0203, 1225.730
520.5024, 1220.796
520.9845, 1204.835
521.4666, 1166.341
521.9487, 1139.207
522.4308, 1131.671
522.9130, 1128.152
523.3951, 1119.788
523.8772, 1107.261
524.3593, 1095.384
524.8414, 1087.133
525.3235, 1079.490
525.8057, 1064.618
526.2878, 1040.554
526.7699, 1021.910
527.2520, 1014.409
527.7341, 1009.367
528.2162, 1000.069
528.6984, 987.3869
529.1805, 974.7702
529.6626, 962.5709
530.1447, 951.5185
530.6268, 942.5695
531.1089, 935.2172
531.5911, 928.6184
532.0732, 922.6677
532.5553, 915.0537
533.0374, 901.6298
533.5195, 879.7374
534.0016, 868.2424
534.4838, 875.8480
534.9659, 883.1679
535.4480, 886.8269
535.9301, 885.5847
536.4122, 876.3499
536.8943, 858.4006
537.3765, 839.8233
537.8586, 831.0004
538.3407, 830.5791
538.8228, 827.2253
539.3049, 818.9952
539.7870, 811.3588
540.2692, 807.0124
540.7513, 805.8377
541.2334, 807.9189
541.7155, 817.2729
542.1976, 821.7036
542.6797, 812.2365
543.1619, 797.7874
543.6440, 789.4105
544.1261, 787.7618
544.6082, 785.9961
545.0903, 778.4058
545.5724, 767.0469
546.0546, 762.6129
546.5367, 769.9117
547.0188, 775.3520
547.5009, 780.2216
547.9830, 780.3499
548.4651, 770.8063
548.9473, 752.9795
549.4294, 734.1028
549.9115, 712.8475
550.3936, 696.8147
550.8757, 703.3831
551.3578, 729.9057
551.8400, 747.4873
552.3221, 744.3073
552.8042, 732.3250
553.2863, 728.1561
553.7684, 734.5854
554.2505, 736.2184
554.7327, 727.6600
555.2148, 719.8636
555.6969, 719.6669
556.1790, 723.2466
556.6611, 723.4679
557.1432, 717.8284
557.6254, 710.7388
558.1075, 708.5799
558.5896, 711.5393
559.0717, 712.7382
559.5538, 711.3850
560.0359, 709.4546
560.5181, 708.7484
561.0002, 707.8627
561.4823, 703.7771
561.9644, 694.0218
562.4465, 687.5613
562.9286, 691.7682
563.4108, 700.4604
563.8929, 705.8851
564.3750, 707.1830
564.8571, 705.6939
565.3392, 701.6778
565.8214, 696.7629
566.3035, 697.4431
566.7856, 708.6952
567.2677, 716.5430
567.7498, 720.6501
568.2319, 721.0349
568.7141, 714.8433
569.1962, 704.7111
569.6783, 698.2624
570.1604, 701.4291
570.6425, 707.0437
571.1246, 704.0865
571.6068, 693.9869
572.0889, 686.4424
572.5710, 683.5407
573.0531, 684.8712
573.5352, 691.5622
574.0173, 703.8444
574.4995, 710.4223
574.9816, 704.8918
575.4637, 701.6430
575.9458, 708.4508
576.4279, 718.2200
576.9100, 723.2532
577.3922, 721.7211
577.8743, 715.0170
578.3564, 700.9268
578.8385, 682.8398
579.3206, 682.1872
579.8027, 705.0695
580.2849, 722.6577
580.7670, 721.5635
581.2491, 711.9096
581.7312, 706.3630
582.2133, 705.1027
582.6954, 705.2689
583.1776, 709.5265
583.6597, 711.9727
584.1418, 703.4459
584.6239, 689.3036
585.1060, 685.3894
585.5881, 698.1801
586.0703, 715.8734
586.5524, 718.9034
587.0345, 703.8273
587.5166, 694.0066
587.9987, 692.4564
588.4808, 692.4572
588.9630, 692.3898
589.4451, 691.9001
589.9272, 689.8090
590.4093, 685.3624
590.8914, 683.1039
591.3735, 686.9211
591.8557, 694.5059
592.3378, 703.5663
592.8199, 713.4004
593.3020, 719.6570
593.7841, 719.4783
594.2662, 714.7891
594.7484, 710.3741
595.2305, 704.8425
595.7126, 702.3677
596.1947, 705.3191
596.6768, 708.6771
597.1589, 711.0671
597.6411, 711.7469
598.1232, 708.7346
598.6053, 700.1429
599.0874, 692.5474
599.5695, 694.9408
600.0516, 705.0598
600.5338, 715.1543
601.0159, 725.0146
601.4980, 727.4885
601.9801, 713.6116
602.4622, 688.6381
602.9443, 678.6199
603.4265, 695.5777
603.9086, 709.1204
604.3907, 714.7678
604.8728, 717.1815
605.3549, 719.0867
605.8370, 721.0679
606.3192, 723.5294
606.8013, 727.0663
607.2834, 730.1181
607.7655, 729.0792
608.2476, 723.9413
608.7297, 720.0997
609.2119, 718.8572
609.6940, 718.2055
610.1761, 715.1522
610.6582, 710.9386
611.1403, 712.4305
611.6224, 728.7919
612.1045, 739.6406
612.5866, 732.8664
613.0687, 721.3681
613.5508, 720.6681
614.0330, 730.4496
614.5151, 738.1146
614.9972, 733.5416
615.4793, 721.8594
615.9614, 718.8728
616.4435, 726.8900
616.9257, 730.1185
617.4078, 722.6428
617.8899, 713.0210
618.3720, 707.2363
618.8541, 705.2523
