##NAMES=Olmiite
##RRUFFID=R050144
##IDEAL CHEMISTRY=CaMn^2+^SiO_3_(OH)_2_
##LOCALITY=N'Chwaning II mine, Kuruman, South Africa
##OWNER=RRUFF
##SOURCE=Rock Currier
##DESCRIPTION=Tan colored prismatic crystals associated with fibrous bultfonteinite, R050088
##STATUS=The identification of this mineral has been confirmed by X-ray diffraction and chemical analysis
##URL=rruff.info/R050144
##MEASURED CHEMISTRY=Ca_1.00_(Mn_0.98_Ca_0.02_)(Si_1.00_O_3_OH)(OH)
114.9877, 157.5679
115.4698, 164.3133
115.9520, 175.6052
116.4341, 186.6015
116.9162, 195.0451
117.3983, 201.5262
117.8804, 208.3322
118.3625, 216.7166
118.8447, 225.9012
119.3268, 235.1602
119.8089, 243.5820
120.2910, 252.3502
120.7731, 262.6818
121.2552, 274.7553
121.7374, 286.3237
122.2195, 294.6114
122.7016, 301.2327
123.1837, 309.3881
123.6658, 323.4054
124.1479, 338.7541
124.6301, 348.4185
125.1122, 349.8397
125.5943, 351.1948
126.0764, 362.8938
126.5585, 383.4586
127.0406, 404.5483
127.5227, 420.6853
128.0049, 433.3451
128.4870, 445.8833
128.9691, 458.3653
129.4512, 471.7761
129.9333, 489.6987
130.4155, 512.5240
130.8976, 533.8875
131.3797, 547.8405
131.8618, 554.8483
132.3439, 559.3918
132.8260, 563.5134
133.3081, 566.5551
133.7903, 564.4280
134.2724, 556.3196
134.7545, 545.1396
135.2366, 534.9071
135.7187, 525.6449
136.2008, 516.6981
136.6830, 506.3163
137.1651, 493.7926
137.6472, 488.4690
138.1293, 492.4093
138.6114, 502.5600
139.0935, 510.6386
139.5757, 515.2062
140.0578, 520.9003
140.5399, 530.9755
141.0220, 546.8375
141.5041, 562.6014
141.9862, 577.3166
142.4684, 591.2348
142.9505, 606.3406
143.4326, 625.7739
143.9147, 643.2389
144.3968, 652.1439
144.8789, 643.9642
145.3611, 641.0694
145.8432, 650.2446
146.3253, 675.5693
146.8074, 691.8552
147.2895, 692.1255
147.7716, 685.9903
148.2537, 687.4352
148.7359, 701.4873
149.2180, 718.0938
149.7001, 734.8814
150.1822, 752.4661
150.6643, 768.8318
151.1464, 782.8630
151.6286, 795.6191
152.1107, 810.0735
152.5928, 825.8970
153.0749, 843.8124
153.5570, 864.1416
154.0391, 888.0950
154.5213, 913.1674
155.0034, 939.7615
155.4855, 967.5635
155.9676, 994.0999
156.4497, 1017.538
156.9318, 1040.407
157.4140, 1064.944
157.8961, 1095.185
158.3782, 1123.857
158.8603, 1149.141
159.3424, 1170.859
159.8245, 1189.322
160.3067, 1204.875
160.7888, 1216.912
161.2709, 1224.958
161.7530, 1229.225
162.2351, 1229.157
162.7172, 1223.495
163.1994, 1210.980
163.6815, 1197.600
164.1636, 1188.094
164.6457, 1179.717
165.1278, 1167.205
165.6099, 1146.247
166.0920, 1121.198
166.5742, 1094.702
167.0563, 1065.522
167.5384, 1038.260
168.0205, 1015.489
168.5026, 996.8922
168.9847, 982.1780
169.4669, 970.5634
169.9490, 962.5406
170.4311, 958.8516
170.9132, 961.3766
171.3953, 966.6404
171.8774, 974.3869
172.3596, 983.9739
172.8417, 988.4526
173.3238, 978.0836
173.8059, 959.4343
174.2880, 943.9268
174.7701, 937.1750
175.2523, 935.0875
175.7344, 932.6157
176.2165, 929.6633
176.6986, 928.0133
177.1807, 931.4813
177.6628, 937.9483
178.1450, 941.7924
178.6271, 939.1023
179.1092, 932.3184
179.5913, 926.9821
180.0734, 924.6075
180.5555, 918.8959
181.0376, 898.1083
181.5198, 865.4071
182.0019, 835.0786
182.4840, 815.0110
182.9661, 803.7661
183.4482, 798.6460
183.9303, 800.1592
184.4125, 805.9288
184.8946, 813.0508
185.3767, 821.4554
185.8588, 830.2372
186.3409, 836.6337
186.8230, 842.1343
187.3052, 854.3439
187.7873, 877.1609
188.2694, 905.2686
188.7515, 925.3640
189.2336, 937.2357
189.7157, 946.7916
190.1979, 961.0574
190.6800, 979.3070
191.1621, 991.4517
191.6442, 992.0926
192.1263, 985.1008
192.6084, 985.0966
193.0906, 992.4165
193.5727, 1005.153
194.0548, 1021.038
194.5369, 1040.043
195.0190, 1064.435
195.5011, 1097.151
195.9833, 1137.302
196.4654, 1172.613
196.9475, 1202.048
197.4296, 1229.275
197.9117, 1257.614
198.3938, 1286.654
198.8759, 1320.615
199.3581, 1365.421
199.8402, 1422.053
200.3223, 1464.831
200.8044, 1491.743
201.2865, 1507.624
201.7686, 1520.775
202.2508, 1531.176
202.7329, 1538.398
203.2150, 1544.151
203.6971, 1549.699
204.1792, 1541.878
204.6613, 1515.971
205.1435, 1479.260
205.6256, 1451.057
206.1077, 1433.496
206.5898, 1418.821
207.0719, 1401.220
207.5540, 1378.624
208.0362, 1363.756
208.5183, 1359.710
209.0004, 1363.960
209.4825, 1365.942
209.9646, 1364.452
210.4467, 1363.262
210.9289, 1366.672
211.4110, 1377.968
211.8931, 1382.098
212.3752, 1376.081
212.8573, 1360.762
213.3394, 1342.148
213.8215, 1317.893
214.3037, 1293.912
214.7858, 1275.286
215.2679, 1262.540
215.7500, 1253.162
216.2321, 1246.249
216.7142, 1241.790
217.1964, 1243.731
217.6785, 1253.294
218.1606, 1267.722
218.6427, 1284.761
219.1248, 1305.195
219.6069, 1326.104
220.0891, 1347.819
220.5712, 1370.684
221.0533, 1388.109
221.5354, 1396.688
222.0175, 1402.858
222.4996, 1415.182
222.9818, 1436.803
223.4639, 1458.578
223.9460, 1477.981
224.4281, 1494.236
224.9102, 1511.463
225.3923, 1530.737
225.8745, 1550.231
226.3566, 1566.410
226.8387, 1579.437
227.3208, 1589.348
227.8029, 1595.610
228.2850, 1596.852
228.7672, 1599.127
229.2493, 1603.127
229.7314, 1607.871
230.2135, 1611.161
230.6956, 1611.734
231.1777, 1612.862
231.6599, 1616.481
232.1420, 1625.759
232.6241, 1629.470
233.1062, 1624.326
233.5883, 1614.486
234.0704, 1610.131
234.5526, 1610.463
235.0347, 1617.584
235.5168, 1633.806
235.9989, 1665.654
236.4810, 1691.818
236.9631, 1709.021
237.4453, 1720.244
237.9274, 1736.293
238.4095, 1761.020
238.8916, 1784.901
239.3737, 1802.813
239.8558, 1811.438
240.3380, 1821.175
240.8201, 1836.180
241.3022, 1853.253
241.7843, 1857.174
242.2664, 1845.602
242.7485, 1823.800
243.2307, 1794.040
243.7128, 1753.804
244.1949, 1710.737
244.6770, 1664.807
245.1591, 1616.347
245.6412, 1567.882
246.1234, 1521.164
246.6055, 1472.216
247.0876, 1416.851
247.5697, 1349.193
248.0518, 1286.957
248.5339, 1231.088
249.0160, 1181.690
249.4982, 1140.120
249.9803, 1108.218
250.4624, 1081.795
250.9445, 1058.824
251.4266, 1042.335
251.9087, 1022.408
252.3909, 995.3034
252.8730, 961.8344
253.3551, 936.9475
253.8372, 922.9854
254.3193, 914.3069
254.8014, 907.4669
255.2836, 905.4901
255.7657, 897.9229
256.2478, 880.4401
256.7299, 853.8997
257.2120, 835.0848
257.6941, 827.0244
258.1762, 822.7905
258.6584, 815.0025
259.1405, 799.6638
259.6226, 791.3290
260.1047, 795.1099
260.5868, 810.4023
261.0689, 819.5882
261.5511, 820.9343
262.0332, 818.5054
262.5153, 815.3798
262.9974, 810.3813
263.4795, 808.4392
263.9616, 811.8842
264.4438, 820.4077
264.9259, 824.7708
265.4080, 823.0998
265.8901, 820.1282
266.3722, 821.0833
266.8543, 827.1968
267.3365, 832.9596
267.8186, 836.4758
268.3007, 837.9457
268.7828, 842.4781
269.2649, 850.3887
269.7470, 860.9152
270.2292, 874.1626
270.7113, 891.5234
271.1934, 906.6003
271.6755, 917.7706
272.1576, 925.1616
272.6397, 931.1262
273.1219, 935.1967
273.6040, 938.7277
274.0861, 943.5085
274.5682, 950.0131
275.0503, 955.2053
275.5324, 956.9185
276.0146, 955.9236
276.4967, 961.7224
276.9788, 976.1417
277.4609, 992.7720
277.9430, 1004.905
278.4251, 1012.325
278.9073, 1017.146
279.3894, 1018.522
279.8715, 1017.380
280.3536, 1020.637
280.8357, 1029.041
281.3178, 1039.264
281.8000, 1047.362
282.2821, 1053.259
282.7642, 1060.453
283.2463, 1070.739
283.7284, 1083.178
284.2105, 1093.241
284.6927, 1100.866
285.1748, 1106.410
285.6569, 1108.261
286.1390, 1106.800
286.6211, 1109.473
287.1032, 1120.399
287.5853, 1136.946
288.0674, 1150.507
288.5496, 1161.015
289.0317, 1169.056
289.5138, 1174.553
289.9959, 1177.766
290.4780, 1179.929
290.9601, 1179.147
291.4423, 1178.357
291.9244, 1186.608
292.4065, 1204.284
292.8886, 1224.424
293.3707, 1243.246
293.8528, 1259.588
294.3350, 1269.169
294.8171, 1267.782
295.2992, 1260.330
295.7813, 1258.005
296.2634, 1260.840
296.7455, 1259.897
297.2277, 1245.254
297.7098, 1220.305
298.1919, 1194.685
298.6740, 1171.183
299.1561, 1148.405
299.6382, 1122.952
300.1204, 1094.896
300.6025, 1069.287
301.0846, 1049.218
301.5667, 1034.349
302.0488, 1023.829
302.5309, 1019.466
303.0131, 1017.544
303.4952, 1011.964
303.9773, 1003.605
304.4594, 1000.098
304.9415, 1012.876
305.4236, 1032.383
305.9058, 1044.321
306.3879, 1038.760
306.8700, 1031.206
307.3521, 1034.981
307.8342, 1048.893
308.3163, 1066.525
308.7985, 1086.453
309.2806, 1107.246
309.7627, 1127.153
310.2448, 1144.446
310.7269, 1162.894
311.2090, 1183.193
311.6912, 1206.242
312.1733, 1234.526
312.6554, 1274.503
313.1375, 1317.404
313.6196, 1355.973
314.1017, 1384.007
314.5839, 1413.865
315.0660, 1452.905
315.5481, 1498.545
316.0302, 1543.813
316.5123, 1583.441
316.9944, 1623.895
317.4766, 1669.031
317.9587, 1718.401
318.4408, 1774.610
318.9229, 1841.931
319.4050, 1916.626
319.8871, 1991.254
320.3693, 2066.453
320.8513, 2139.062
321.3335, 2205.999
321.8156, 2259.616
322.2977, 2322.681
322.7798, 2407.625
323.2619, 2503.748
323.7440, 2591.696
324.2262, 2654.902
324.7083, 2721.456
325.1904, 2802.300
325.6725, 2905.339
326.1546, 3005.497
326.6367, 3099.451
327.1189, 3190.563
327.6010, 3283.588
328.0831, 3383.730
328.5652, 3479.921
329.0473, 3571.168
329.5294, 3660.734
330.0116, 3733.656
330.4937, 3785.945
330.9758, 3823.295
331.4579, 3852.259
331.9400, 3874.348
332.4221, 3886.156
332.9043, 3887.229
333.3864, 3877.831
333.8685, 3856.194
334.3506, 3825.014
334.8327, 3779.067
335.3148, 3709.584
335.7970, 3610.726
336.2791, 3507.994
336.7612, 3405.191
337.2433, 3303.348
337.7254, 3205.039
338.2076, 3112.231
338.6897, 3020.944
339.1718, 2924.748
339.6539, 2823.219
340.1360, 2732.240
340.6181, 2660.334
341.1003, 2600.761
341.5824, 2525.065
342.0645, 2429.193
342.5466, 2334.398
343.0287, 2259.773
343.5108, 2204.646
343.9930, 2142.833
344.4751, 2066.532
344.9572, 1985.423
345.4393, 1922.094
345.9214, 1877.028
346.4035, 1832.543
346.8857, 1773.814
347.3678, 1705.356
347.8499, 1644.071
348.3320, 1593.221
348.8141, 1548.131
349.2962, 1499.772
349.7784, 1449.857
350.2605, 1406.597
350.7426, 1378.797
351.2247, 1359.918
351.7068, 1336.384
352.1889, 1304.299
352.6711, 1278.562
353.1532, 1280.834
353.6353, 1301.559
354.1174, 1316.496
354.5995, 1307.753
355.0816, 1290.502
355.5637, 1279.879
356.0458, 1277.139
356.5280, 1276.384
357.0101, 1274.734
357.4922, 1272.259
357.9743, 1269.058
358.4564, 1262.137
358.9385, 1256.887
359.4207, 1256.272
359.9028, 1260.366
360.3849, 1268.221
360.8670, 1281.473
361.3491, 1297.405
361.8312, 1313.448
362.3134, 1328.526
362.7955, 1343.989
363.2776, 1361.392
363.7597, 1380.157
364.2418, 1396.352
364.7239, 1405.280
365.2061, 1413.811
365.6882, 1426.092
366.1703, 1441.791
366.6524, 1462.309
367.1345, 1490.423
367.6166, 1524.076
368.0988, 1555.816
368.5809, 1584.652
369.0630, 1612.318
369.5451, 1639.634
370.0272, 1666.182
370.5093, 1693.153
370.9915, 1719.065
371.4736, 1745.814
371.9557, 1777.626
372.4378, 1820.075
372.9199, 1858.393
373.4020, 1888.128
373.8842, 1909.136
374.3663, 1922.232
374.8484, 1926.370
375.3305, 1924.099
375.8126, 1918.146
376.2947, 1907.774
376.7769, 1897.176
377.2590, 1889.032
377.7411, 1882.368
378.2232, 1866.082
378.7053, 1838.020
379.1874, 1808.266
379.6696, 1786.719
380.1517, 1773.057
380.6338, 1761.909
381.1159, 1752.529
381.5980, 1744.599
382.0801, 1736.025
382.5623, 1726.965
383.0444, 1722.858
383.5265, 1729.131
384.0086, 1743.664
384.4907, 1761.357
384.9728, 1782.132
385.4550, 1804.402
385.9371, 1823.841
386.4192, 1842.483
386.9013, 1867.390
387.3834, 1906.850
387.8655, 1952.781
388.3476, 1993.505
388.8297, 2025.607
389.3119, 2062.523
389.7940, 2120.259
390.2761, 2189.024
390.7582, 2252.016
391.2403, 2296.899
391.7224, 2337.908
392.2046, 2384.842
392.6867, 2438.762
393.1688, 2487.846
393.6509, 2520.473
394.1330, 2548.922
394.6151, 2585.318
395.0973, 2647.030
395.5794, 2701.946
396.0615, 2741.476
396.5436, 2766.372
397.0257, 2786.286
397.5078, 2809.220
397.9900, 2822.883
398.4721, 2820.131
398.9542, 2789.587
399.4363, 2757.278
399.9184, 2720.636
400.4005, 2682.683
400.8827, 2652.831
401.3648, 2637.098
401.8469, 2620.865
402.3290, 2597.550
402.8111, 2564.126
403.2932, 2535.238
403.7754, 2511.423
404.2575, 2491.840
404.7396, 2477.117
405.2217, 2468.797
405.7038, 2457.716
406.1859, 2439.128
406.6681, 2414.407
407.1502, 2395.772
407.6323, 2383.591
408.1144, 2377.289
408.5965, 2374.953
409.0786, 2377.227
409.5608, 2391.133
410.0429, 2422.591
410.5250, 2462.169
411.0071, 2489.550
411.4892, 2505.639
411.9713, 2523.126
412.4535, 2552.577
412.9356, 2589.223
413.4177, 2625.196
413.8998, 2659.732
414.3819, 2692.292
414.8640, 2721.255
415.3462, 2747.812
415.8283, 2776.252
416.3104, 2811.624
416.7925, 2847.659
417.2746, 2881.501
417.7567, 2912.991
418.2389, 2937.320
418.7210, 2951.149
419.2031, 2956.512
419.6852, 2955.416
420.1673, 2944.657
420.6494, 2931.476
421.1315, 2917.667
421.6136, 2903.323
422.0958, 2888.329
422.5779, 2862.788
423.0600, 2843.123
423.5421, 2838.907
424.0242, 2871.674
424.5063, 2892.908
424.9885, 2890.841
425.4706, 2878.139
425.9527, 2886.445
426.4348, 2925.801
426.9169, 2972.254
427.3990, 3018.503
427.8812, 3063.985
428.3633, 3109.472
428.8454, 3155.499
429.3275, 3200.350
429.8096, 3241.814
430.2917, 3280.184
430.7739, 3315.640
431.2560, 3348.581
431.7381, 3378.525
432.2202, 3407.048
432.7023, 3435.124
433.1844, 3453.086
433.6666, 3456.711
434.1487, 3444.495
434.6308, 3407.970
435.1129, 3341.738
435.5950, 3258.447
436.0771, 3173.673
436.5593, 3086.339
437.0414, 2991.859
437.5235, 2888.653
438.0056, 2776.374
438.4877, 2650.443
438.9698, 2507.943
439.4520, 2369.505
439.9341, 2248.508
440.4162, 2139.744
440.8983, 2035.921
441.3804, 1934.042
441.8625, 1836.692
442.3447, 1743.026
442.8268, 1654.017
443.3089, 1575.179
443.7910, 1510.177
444.2731, 1453.934
444.7552, 1403.417
445.2374, 1361.273
445.7195, 1320.544
446.2016, 1281.390
446.6837, 1242.955
447.1658, 1202.647
447.6479, 1155.845
448.1301, 1113.989
448.6122, 1081.121
449.0943, 1058.216
449.5764, 1039.085
450.0585, 1025.501
450.5406, 1013.219
451.0228, 996.8499
451.5049, 975.0652
451.9870, 955.8316
452.4691, 940.9619
452.9512, 929.9680
453.4333, 922.9414
453.9154, 920.3632
454.3976, 916.6245
454.8797, 903.4447
455.3618, 884.2900
455.8439, 878.7253
456.3260, 891.7971
456.8081, 908.7998
457.2903, 908.1117
457.7724, 894.9919
458.2545, 886.5823
458.7366, 895.9160
459.2187, 911.8244
459.7008, 921.4914
460.1830, 924.7612
460.6651, 928.4512
461.1472, 935.4779
461.6293, 945.8945
462.1114, 959.8513
462.5935, 980.7352
463.0757, 1001.118
463.5578, 1016.022
464.0399, 1027.723
464.5220, 1043.723
465.0041, 1068.359
465.4862, 1095.433
465.9684, 1122.890
466.4505, 1151.037
466.9326, 1177.970
467.4147, 1202.617
467.8968, 1226.406
468.3789, 1250.234
468.8611, 1272.442
469.3432, 1297.773
469.8253, 1327.316
470.3074, 1360.708
470.7895, 1397.387
471.2716, 1438.241
471.7538, 1478.434
472.2359, 1515.376
472.7180, 1549.094
473.2001, 1577.053
473.6822, 1598.527
474.1643, 1615.240
474.6465, 1630.804
475.1286, 1644.765
475.6107, 1653.102
476.0928, 1647.382
476.5749, 1636.917
477.0570, 1641.068
477.5392, 1659.916
478.0213, 1679.037
478.5034, 1686.372
478.9855, 1687.069
479.4676, 1687.992
479.9497, 1689.885
480.4319, 1694.107
480.9140, 1701.675
481.3961, 1712.212
481.8782, 1724.855
482.3603, 1747.382
482.8424, 1765.481
483.3246, 1770.349
483.8067, 1757.804
484.2888, 1746.000
484.7709, 1738.250
485.2530, 1731.877
485.7351, 1724.095
486.2172, 1714.346
486.6993, 1704.144
487.1815, 1694.073
487.6636, 1683.776
488.1457, 1671.601
488.6278, 1656.728
489.1099, 1641.602
489.5920, 1628.682
490.0742, 1618.383
490.5563, 1602.180
491.0384, 1577.574
491.5205, 1552.876
492.0026, 1541.237
492.4847, 1541.501
492.9669, 1544.335
493.4490, 1548.591
493.9311, 1552.031
494.4132, 1547.333
494.8953, 1535.559
495.3774, 1528.544
495.8596, 1537.953
496.3417, 1555.878
496.8238, 1572.234
497.3059, 1584.704
497.7880, 1597.039
498.2701, 1608.446
498.7523, 1621.832
499.2344, 1642.414
499.7165, 1673.622
500.1986, 1710.928
500.6807, 1753.854
501.1628, 1802.273
501.6450, 1853.099
502.1271, 1906.625
502.6092, 1962.780
503.0913, 2020.871
503.5734, 2080.477
504.0555, 2143.352
504.5377, 2210.302
505.0198, 2279.786
505.5019, 2348.888
505.9840, 2419.113
506.4661, 2486.493
506.9482, 2548.678
507.4304, 2606.290
507.9125, 2663.542
508.3946, 2721.736
508.8767, 2774.800
509.3588, 2820.916
509.8409, 2858.104
510.3231, 2877.975
510.8052, 2877.635
511.2873, 2861.586
511.7694, 2832.932
512.2515, 2792.684
512.7336, 2743.908
513.2158, 2682.764
513.6979, 2617.414
514.1800, 2554.427
514.6621, 2494.822
515.1442, 2434.407
515.6263, 2370.451
516.1085, 2305.373
516.5906, 2241.233
517.0727, 2176.907
517.5548, 2115.376
518.0369, 2055.211
518.5190, 1998.462
519.0012, 1948.806
519.4833, 1911.625
519.9654, 1875.136
520.4475, 1834.834
520.9296, 1789.864
521.4117, 1751.048
521.8939, 1719.474
522.3760, 1691.765
522.8581, 1665.188
523.3402, 1639.647
523.8223, 1614.748
524.3044, 1591.148
524.7866, 1567.476
525.2687, 1539.762
525.7508, 1509.010
526.2329, 1480.715
526.7150, 1460.993
527.1971, 1444.681
527.6793, 1423.471
528.1614, 1396.955
528.6435, 1370.069
529.1256, 1347.961
529.6077, 1326.346
530.0898, 1300.256
530.5720, 1264.754
531.0541, 1230.167
531.5362, 1199.139
532.0183, 1171.830
532.5004, 1147.755
532.9825, 1130.841
533.4647, 1113.566
533.9468, 1092.592
534.4288, 1067.160
534.9109, 1046.151
535.3931, 1030.124
535.8752, 1017.603
536.3573, 1008.658
536.8394, 1005.094
537.3215, 996.2662
537.8036, 978.7664
538.2858, 958.3326
538.7679, 948.0077
539.2500, 947.4958
539.7321, 946.5040
540.2142, 939.7149
540.6964, 929.3223
541.1785, 921.2621
541.6606, 915.4071
542.1427, 908.4366
542.6248, 896.9881
543.1069, 883.0192
543.5891, 868.7929
544.0712, 854.2292
544.5533, 840.9163
545.0354, 829.3151
545.5175, 819.5147
545.9996, 811.7133
546.4818, 808.5811
546.9639, 804.7456
547.4460, 798.1798
547.9281, 788.8781
548.4102, 779.7614
548.8923, 770.4415
549.3745, 761.8713
549.8566, 754.9371
550.3387, 751.1439
550.8208, 744.1495
551.3029, 732.1641
551.7850, 719.4286
552.2672, 712.9634
552.7493, 713.0706
553.2314, 712.8406
553.7135, 710.0651
554.1956, 705.7222
554.6777, 701.5910
555.1599, 697.7393
555.6420, 695.0072
556.1241, 694.3229
556.6062, 694.9479
557.0883, 696.2068
557.5704, 698.1783
558.0526, 699.6217
558.5347, 699.3763
559.0168, 698.2938
559.4989, 697.3505
559.9810, 696.3059
560.4631, 696.0075
560.9453, 699.0075
561.4274, 703.4423
561.9095, 702.0185
562.3916, 687.2382
562.8737, 675.0688
563.3558, 671.4044
563.8380, 677.3703
564.3201, 682.4117
564.8022, 686.5925
565.2843, 689.8083
565.7664, 691.8444
566.2485, 692.6931
566.7307, 692.7145
567.2128, 691.6862
567.6949, 690.4341
568.1770, 691.0176
568.6591, 692.8620
569.1412, 693.2953
569.6234, 688.5972
570.1055, 683.2738
570.5876, 682.9385
571.0697, 687.2244
571.5518, 692.0813
572.0339, 698.0378
572.5161, 701.8317
572.9982, 699.6166
573.4803, 686.5729
573.9624, 678.3000
574.4445, 682.2907
574.9266, 691.5556
575.4088, 696.9271
575.8909, 696.1483
576.3730, 694.5240
576.8551, 692.1260
577.3372, 689.4934
577.8193, 689.5298
578.3015, 693.2298
578.7836, 696.0820
579.2657, 695.2233
579.7478, 691.0438
580.2299, 687.5690
580.7120, 684.7922
581.1942, 682.9295
581.6763, 681.9832
582.1584, 682.1282
582.6405, 684.3472
583.1226, 690.5855
583.6047, 695.3560
584.0869, 690.3140
584.5690, 680.4961
585.0511, 676.5889
585.5332, 689.8625
586.0153, 703.6480
586.4974, 710.9846
586.9796, 711.6605
587.4617, 710.1498
587.9438, 704.4351
588.4259, 698.8346
588.9080, 695.3163
589.3901, 694.2040
589.8723, 694.4567
590.3544, 696.4708
590.8365, 699.2881
591.3186, 702.1853
591.8007, 705.2509
592.2828, 706.1350
592.7650, 703.2311
593.2471, 699.1005
593.7292, 700.1334
594.2113, 705.2805
594.6934, 708.9427
595.1755, 704.3605
595.6577, 698.5957
596.1398, 702.0245
596.6219, 714.9630
597.1040, 723.8967
597.5861, 715.9802
598.0682, 704.3813
598.5504, 700.2764
599.0325, 711.1983
599.5146, 719.8851
599.9967, 721.4460
600.4788, 720.1877
600.9609, 722.7518
601.4430, 733.4924
601.9251, 739.3019
602.4072, 735.8727
602.8893, 725.8035
603.3715, 720.7583
603.8536, 721.1157
604.3357, 723.5975
604.8178, 728.1616
605.2999, 733.4813
605.7820, 733.5083
606.2642, 727.8285
606.7463, 722.4174
607.2284, 722.6312
607.7105, 726.4055
608.1926, 730.9413
608.6747, 735.8738
609.1569, 740.6084
609.6390, 746.7701
610.1211, 752.1297
