##NAMES=Olmiite
##RRUFFID=R050144
##IDEAL CHEMISTRY=CaMn^2+^SiO_3_(OH)_2_
##LOCALITY=N'Chwaning II mine, Kuruman, South Africa
##OWNER=RRUFF
##SOURCE=Rock Currier
##DESCRIPTION=Tan colored prismatic crystals associated with fibrous bultfonteinite, R050088
##STATUS=The identification of this mineral has been confirmed by X-ray diffraction and chemical analysis
##URL=rruff.info/R050144
##MEASURED CHEMISTRY=Ca_1.00_(Mn_0.98_Ca_0.02_)(Si_1.00_O_3_OH)(OH)
116.0067, 86.09174
116.4888, 91.11024
116.9709, 99.03728
117.4530, 108.0583
117.9352, 112.4448
118.4173, 109.8929
118.8994, 106.2091
119.3815, 103.0980
119.8636, 100.9737
120.3457, 100.6482
120.8278, 102.9892
121.3100, 107.7171
121.7921, 112.4463
122.2742, 115.8163
122.7563, 120.9354
123.2384, 130.1017
123.7205, 141.8957
124.2027, 153.2409
124.6848, 161.4636
125.1669, 166.3937
125.6490, 172.3333
126.1311, 177.3318
126.6132, 185.2665
127.0954, 197.9599
127.5775, 214.9807
128.0596, 234.7935
128.5417, 256.7658
129.0238, 281.8163
129.5059, 303.0786
129.9881, 319.7627
130.4702, 333.9824
130.9523, 346.6905
131.4344, 357.8077
131.9165, 366.7367
132.3986, 373.2966
132.8808, 378.8517
133.3629, 375.4931
133.8450, 357.2798
134.3271, 336.6306
134.8092, 320.3224
135.2913, 309.2477
135.7735, 300.5984
136.2556, 290.8164
136.7377, 278.4580
137.2198, 270.0815
137.7019, 268.7722
138.1840, 269.1258
138.6662, 264.9916
139.1483, 255.8797
139.6304, 249.2493
140.1125, 255.0148
140.5946, 278.7465
141.0767, 300.6804
141.5589, 319.8462
142.0410, 337.6346
142.5231, 355.9293
143.0052, 375.1302
143.4873, 393.3842
143.9694, 407.5894
144.4516, 417.0568
144.9337, 426.4942
145.4158, 436.3043
145.8979, 446.4907
146.3800, 457.3835
146.8621, 469.2294
147.3443, 480.8758
147.8264, 490.4933
148.3085, 498.1285
148.7906, 505.3770
149.2727, 511.9057
149.7548, 518.4089
150.2370, 527.1306
150.7191, 539.7966
151.2012, 551.2742
151.6833, 553.3138
152.1654, 546.4862
152.6475, 540.4124
153.1297, 539.7236
153.6118, 542.4374
154.0939, 543.0144
154.5760, 538.5040
155.0581, 535.2103
155.5402, 540.1672
156.0223, 552.7801
156.5045, 567.7501
156.9866, 583.3772
157.4687, 599.4119
157.9508, 615.0278
158.4329, 629.5433
158.9150, 644.3066
159.3972, 660.7036
159.8793, 678.5850
160.3614, 696.5076
160.8435, 713.9980
161.3256, 730.9401
161.8077, 746.9100
162.2899, 762.8751
162.7720, 776.1236
163.2541, 783.8608
163.7362, 786.7493
164.2183, 789.6852
164.7004, 798.8880
165.1826, 813.1595
165.6647, 819.0670
166.1468, 812.1084
166.6289, 798.7863
167.1110, 780.7368
167.5931, 759.2491
168.0753, 740.1013
168.5574, 728.1865
169.0395, 723.3572
169.5216, 720.3829
170.0037, 720.9496
170.4858, 721.4126
170.9680, 719.6461
171.4501, 715.9388
171.9322, 711.9546
172.4143, 709.2656
172.8964, 707.9234
173.3785, 706.0756
173.8607, 706.0380
174.3428, 702.9681
174.8249, 692.2166
175.3070, 675.7988
175.7891, 660.5004
176.2712, 652.7122
176.7534, 652.8344
177.2355, 652.8438
177.7176, 653.4505
178.1997, 653.2275
178.6818, 651.8702
179.1639, 649.2607
179.6461, 645.2559
180.1282, 640.0298
180.6103, 633.6749
181.0924, 624.3458
181.5745, 607.6422
182.0566, 591.7630
182.5387, 579.6304
183.0209, 570.6311
183.5030, 562.2632
183.9851, 551.7809
184.4672, 538.9241
184.9493, 531.3973
185.4314, 532.6988
185.9136, 536.6040
186.3957, 542.0325
186.8778, 548.7395
187.3599, 556.9736
187.8420, 567.3362
188.3241, 579.9178
188.8063, 589.7362
189.2884, 593.6794
189.7705, 597.7122
190.2526, 604.8533
190.7347, 613.3227
191.2168, 618.8372
191.6990, 617.4525
192.1811, 609.7486
192.6632, 608.3159
193.1453, 621.1188
193.6274, 632.6591
194.1095, 636.4393
194.5917, 636.6248
195.0738, 641.1312
195.5559, 655.5407
196.0380, 678.9576
196.5201, 701.0122
197.0022, 720.1703
197.4844, 739.5770
197.9665, 760.0676
198.4486, 781.1333
198.9307, 801.7958
199.4128, 821.4231
199.8949, 840.2885
200.3771, 860.4901
200.8592, 882.9532
201.3413, 905.8255
201.8234, 928.6588
202.3055, 951.6368
202.7876, 977.0241
203.2698, 1006.428
203.7519, 1035.949
204.2340, 1050.866
204.7161, 1035.517
205.1982, 1022.449
205.6803, 1018.778
206.1625, 1017.603
206.6446, 1009.440
207.1267, 989.9031
207.6088, 963.9222
208.0909, 945.1321
208.5730, 939.1303
209.0551, 933.9713
209.5373, 929.3004
210.0194, 924.9845
210.5015, 920.5247
210.9836, 915.7867
211.4657, 911.8003
211.9478, 910.8860
212.4300, 916.4174
212.9121, 920.2286
213.3942, 924.0444
213.8763, 925.2393
214.3584, 919.7987
214.8405, 907.2157
215.3227, 892.5433
215.8048, 883.8789
216.2869, 882.3125
216.7690, 885.7854
217.2511, 898.0150
217.7332, 912.1232
218.2154, 922.1685
218.6975, 927.5585
219.1796, 932.8358
219.6617, 943.8061
220.1438, 961.5081
220.6259, 982.7270
221.1081, 1008.882
221.5902, 1036.567
222.0723, 1065.124
222.5544, 1093.749
223.0365, 1120.325
223.5186, 1142.861
224.0008, 1160.581
224.4829, 1177.132
224.9650, 1193.302
225.4471, 1207.779
225.9292, 1220.164
226.4113, 1230.347
226.8935, 1238.006
227.3756, 1242.564
227.8577, 1243.801
228.3398, 1246.327
228.8219, 1254.663
229.3040, 1259.664
229.7862, 1258.353
230.2683, 1251.356
230.7504, 1240.024
231.2325, 1224.729
231.7146, 1206.023
232.1967, 1189.894
232.6789, 1183.652
233.1610, 1172.089
233.6431, 1145.977
234.1252, 1113.916
234.6073, 1089.393
235.0894, 1080.220
235.5715, 1081.922
236.0537, 1077.016
236.5358, 1057.540
237.0179, 1041.009
237.5000, 1032.265
237.9821, 1026.130
238.4642, 1016.810
238.9464, 1002.002
239.4285, 983.6991
239.9106, 966.4383
240.3927, 948.9799
240.8748, 935.0708
241.3569, 926.4834
241.8391, 920.0489
242.3212, 915.1703
242.8033, 910.9775
243.2854, 903.7882
243.7675, 887.0641
244.2496, 855.4760
244.7318, 826.6014
245.2139, 802.6411
245.6960, 779.4562
246.1781, 754.2530
246.6602, 727.0524
247.1423, 699.7822
247.6245, 673.8445
248.1066, 648.8405
248.5887, 628.2586
249.0708, 615.4805
249.5529, 604.1913
250.0350, 591.6929
250.5172, 578.4501
250.9993, 566.6812
251.4814, 558.4279
251.9635, 553.6016
252.4456, 548.5848
252.9277, 545.3809
253.4099, 539.5591
253.8920, 527.3703
254.3741, 512.0325
254.8562, 498.7817
255.3383, 490.5995
255.8204, 486.9451
256.3026, 486.3203
256.7847, 491.9563
257.2668, 495.3832
257.7489, 493.6263
258.2310, 489.1903
258.7131, 484.4893
259.1953, 480.3588
259.6774, 477.2323
260.1595, 476.0073
260.6416, 477.0706
261.1237, 479.0563
261.6058, 483.5854
262.0880, 487.7216
262.5701, 488.6107
263.0522, 485.6517
263.5343, 481.7219
264.0164, 480.7287
264.4985, 483.2950
264.9807, 483.9072
265.4628, 478.6884
265.9449, 473.7702
266.4270, 472.1861
266.9091, 474.2324
267.3912, 479.3600
267.8734, 490.0372
268.3555, 505.1389
268.8376, 512.2656
269.3197, 503.6866
269.8018, 496.3937
270.2839, 502.1091
270.7661, 517.1518
271.2482, 531.4661
271.7303, 539.6102
272.2124, 543.1584
272.6945, 545.3174
273.1766, 544.9738
273.6588, 546.2317
274.1409, 549.4667
274.6230, 556.0923
275.1051, 569.9187
275.5872, 596.8157
276.0693, 625.7455
276.5515, 642.6150
277.0336, 646.9364
277.5157, 647.8922
277.9978, 647.4564
278.4799, 646.8062
278.9620, 646.8668
279.4442, 646.6425
279.9263, 650.1411
280.4084, 662.7357
280.8905, 682.4172
281.3726, 699.8317
281.8547, 712.2632
282.3369, 721.2596
282.8190, 729.2927
283.3011, 736.7279
283.7832, 740.9450
284.2653, 736.2756
284.7474, 728.8219
285.2296, 730.9324
285.7117, 746.1752
286.1938, 763.1696
286.6759, 768.8047
287.1580, 763.8680
287.6401, 763.5475
288.1223, 774.3552
288.6044, 787.5122
289.0865, 795.4761
289.5686, 797.9828
290.0507, 798.1305
290.5328, 796.9349
291.0150, 795.1823
291.4971, 797.9396
291.9792, 805.7693
292.4613, 817.0242
292.9434, 833.6383
293.4255, 853.1999
293.9077, 871.0421
294.3898, 885.5534
294.8719, 895.4670
295.3540, 896.8220
295.8361, 884.0033
296.3182, 871.7168
296.8004, 864.3166
297.2825, 857.1335
297.7646, 843.6179
298.2467, 822.3834
298.7288, 798.9728
299.2109, 781.2134
299.6931, 771.7300
300.1752, 761.1962
300.6573, 749.1194
301.1394, 736.5213
301.6215, 722.6064
302.1036, 708.4028
302.5858, 697.3333
303.0679, 692.9403
303.5500, 695.4082
304.0321, 694.2726
304.5142, 681.9734
304.9963, 674.1948
305.4784, 676.1880
305.9605, 685.1441
306.4427, 697.1575
306.9248, 710.5280
307.4069, 723.7674
307.8890, 731.5402
308.3711, 727.4954
308.8532, 729.2488
309.3354, 739.7632
309.8175, 755.7003
310.2996, 775.5985
310.7817, 798.6717
311.2638, 822.4333
311.7459, 843.1295
312.2281, 859.6931
312.7102, 879.1697
313.1923, 902.5427
313.6744, 928.8434
314.1565, 957.9457
314.6386, 989.7179
315.1208, 1023.903
315.6029, 1058.554
316.0850, 1095.067
316.5671, 1141.777
317.0492, 1204.734
317.5313, 1267.028
318.0135, 1318.132
318.4956, 1363.907
318.9777, 1412.930
319.4598, 1469.279
319.9419, 1529.237
320.4240, 1587.875
320.9062, 1645.328
321.3883, 1702.575
321.8704, 1754.704
322.3525, 1811.292
322.8346, 1884.776
323.3167, 1978.557
323.7989, 2075.264
324.2810, 2165.425
324.7631, 2250.409
325.2452, 2334.040
325.7273, 2416.379
326.2094, 2498.874
326.6916, 2582.003
327.1737, 2665.596
327.6558, 2754.780
328.1379, 2859.281
328.6200, 2963.770
329.1021, 3052.680
329.5843, 3125.702
330.0664, 3194.851
330.5485, 3270.907
331.0306, 3350.309
331.5127, 3409.792
331.9948, 3440.959
332.4770, 3464.456
332.9591, 3497.741
333.4412, 3526.243
333.9233, 3522.297
334.4054, 3474.062
334.8875, 3395.600
335.3697, 3314.482
335.8518, 3227.429
336.3339, 3142.625
336.8160, 3067.528
337.2981, 2989.898
337.7802, 2898.532
338.2624, 2793.533
338.7445, 2683.056
339.2266, 2573.501
339.7087, 2463.740
340.1908, 2367.338
340.6729, 2299.341
341.1551, 2228.533
341.6372, 2142.165
342.1193, 2047.864
342.6014, 1957.739
343.0835, 1878.025
343.5656, 1807.265
344.0478, 1743.873
344.5299, 1695.392
345.0120, 1636.800
345.4941, 1549.780
345.9762, 1459.921
346.4583, 1386.786
346.9405, 1334.093
347.4226, 1290.971
347.9047, 1249.411
348.3868, 1209.167
348.8689, 1166.962
349.3510, 1120.167
349.8332, 1074.981
350.3153, 1034.416
350.7974, 998.4415
351.2795, 966.9514
351.7616, 942.7926
352.2437, 921.8942
352.7259, 897.1592
353.2080, 868.2300
353.6901, 841.6060
354.1722, 818.8613
354.6543, 802.0217
355.1364, 794.7871
355.6186, 803.7254
356.1007, 809.0845
356.5828, 798.4861
357.0649, 777.8237
357.5470, 758.0577
358.0291, 741.8362
358.5113, 729.9882
358.9933, 724.6166
359.4755, 727.9388
359.9576, 728.0692
360.4397, 723.1843
360.9218, 716.1184
361.4039, 706.7195
361.8860, 696.4406
362.3682, 689.9920
362.8503, 691.4308
363.3324, 699.1613
363.8145, 701.2938
364.2966, 689.5693
364.7787, 682.0666
365.2609, 685.0148
365.7430, 691.7328
366.2251, 694.1065
366.7072, 689.7820
367.1893, 683.2859
367.6714, 681.3083
368.1536, 684.7864
368.6357, 689.9135
369.1178, 697.3735
369.5999, 705.8578
370.0820, 717.3419
370.5641, 729.6977
371.0463, 736.9337
371.5284, 731.9858
372.0105, 720.3465
372.4926, 722.8317
372.9747, 746.3680
373.4568, 766.5050
373.9390, 770.8207
374.4211, 767.8475
374.9032, 764.3632
375.3853, 760.7189
375.8674, 761.4571
376.3495, 774.1243
376.8317, 795.8196
377.3138, 811.0212
377.7959, 814.3441
378.2780, 814.5396
378.7601, 821.6399
379.2422, 834.6387
379.7244, 846.5900
380.2065, 852.5615
380.6886, 859.2458
381.1707, 875.2206
381.6528, 899.3043
382.1349, 920.9430
382.6171, 932.8094
383.0992, 938.2291
383.5813, 951.1611
384.0634, 973.1315
384.5455, 999.2834
385.0276, 1032.036
385.5098, 1067.094
385.9919, 1097.405
386.4740, 1121.989
386.9561, 1148.977
387.4382, 1190.123
387.9203, 1251.376
388.4025, 1297.520
388.8846, 1313.464
389.3667, 1330.494
389.8488, 1358.451
390.3309, 1396.384
390.8130, 1442.356
391.2952, 1496.081
391.7773, 1553.387
392.2594, 1602.523
392.7415, 1641.157
393.2236, 1678.440
393.7057, 1715.975
394.1879, 1753.428
394.6700, 1792.203
395.1521, 1831.951
395.6342, 1866.839
396.1163, 1892.854
396.5984, 1910.539
397.0806, 1921.242
397.5627, 1924.730
398.0448, 1922.079
398.5269, 1909.089
399.0090, 1890.555
399.4911, 1878.734
399.9733, 1885.971
400.4554, 1888.455
400.9375, 1863.988
401.4196, 1820.811
401.9017, 1783.440
402.3839, 1761.301
402.8660, 1747.167
403.3481, 1730.181
403.8302, 1709.708
404.3123, 1687.824
404.7944, 1660.911
405.2766, 1635.614
405.7587, 1616.261
406.2408, 1602.978
406.7229, 1594.038
407.2050, 1588.328
407.6871, 1585.743
408.1693, 1585.636
408.6514, 1591.233
409.1335, 1595.005
409.6156, 1592.424
410.0977, 1589.763
410.5798, 1591.856
411.0620, 1600.220
411.5441, 1615.056
412.0262, 1638.887
412.5083, 1672.177
412.9904, 1701.909
413.4725, 1722.561
413.9546, 1747.094
414.4367, 1787.498
414.9189, 1835.582
415.4010, 1874.928
415.8831, 1895.354
416.3652, 1910.243
416.8473, 1936.074
417.3294, 1971.947
417.8116, 2005.718
418.2937, 2032.738
418.7758, 2056.718
419.2579, 2084.936
419.7400, 2118.777
420.2221, 2145.184
420.7043, 2151.956
421.1864, 2155.866
421.6685, 2175.913
422.1506, 2210.891
422.6327, 2243.784
423.1148, 2261.234
423.5970, 2267.508
424.0791, 2288.650
424.5612, 2338.410
425.0433, 2385.827
425.5254, 2422.103
426.0075, 2457.485
426.4897, 2503.363
426.9718, 2561.534
427.4539, 2624.587
427.9360, 2686.030
428.4181, 2745.775
428.9002, 2801.089
429.3824, 2846.263
429.8645, 2894.107
430.3466, 2950.358
430.8287, 3011.741
431.3108, 3074.733
431.7929, 3139.961
432.2751, 3200.410
432.7572, 3251.184
433.2393, 3291.961
433.7214, 3310.401
434.2035, 3300.267
434.6856, 3271.595
435.1678, 3236.742
435.6499, 3195.647
436.1320, 3135.366
436.6141, 3049.188
437.0962, 2945.091
437.5783, 2826.925
438.0605, 2696.640
438.5426, 2560.769
439.0247, 2421.568
439.5068, 2280.925
439.9889, 2143.323
440.4710, 2004.794
440.9532, 1875.760
441.4353, 1757.793
441.9174, 1649.456
442.3995, 1551.344
442.8816, 1462.286
443.3637, 1378.518
443.8459, 1295.944
444.3280, 1215.569
444.8101, 1145.111
445.2922, 1088.787
445.7743, 1036.483
446.2564, 984.8748
446.7386, 935.4747
447.2207, 889.5019
447.7028, 847.0855
448.1849, 809.3840
448.6670, 778.6227
449.1491, 753.8121
449.6313, 730.0901
450.1134, 707.1614
450.5955, 684.9460
451.0776, 662.7056
451.5597, 641.1614
452.0418, 622.7297
452.5240, 610.2209
453.0061, 597.9505
453.4882, 581.2656
453.9703, 562.7924
454.4524, 547.8326
454.9345, 538.0570
455.4167, 531.5464
455.8988, 525.9998
456.3809, 521.7854
456.8630, 516.9106
457.3451, 509.4387
457.8272, 503.3752
458.3094, 500.4017
458.7915, 500.0558
459.2736, 501.9561
459.7557, 506.1017
460.2378, 510.4274
460.7199, 509.8926
461.2021, 502.5766
461.6842, 499.3503
462.1663, 503.4507
462.6484, 510.6316
463.1305, 519.7958
463.6126, 529.9874
464.0948, 538.1402
464.5769, 541.9835
465.0590, 543.5439
465.5411, 543.4828
466.0232, 542.2881
466.5053, 547.6472
466.9875, 565.1511
467.4696, 587.6944
467.9517, 601.2019
468.4338, 602.6483
468.9159, 607.8318
469.3980, 621.0638
469.8801, 637.3249
470.3622, 653.1545
470.8444, 668.2609
471.3265, 684.0681
471.8086, 701.6829
472.2907, 719.9609
472.7728, 733.6395
473.2549, 740.0371
473.7371, 746.4278
474.2192, 754.8345
474.7013, 762.5560
475.1834, 768.4210
475.6655, 771.8601
476.1476, 771.6155
476.6298, 765.2291
477.1119, 754.7299
477.5940, 745.7672
478.0761, 738.2297
478.5582, 733.0388
479.0403, 731.9266
479.5225, 732.7321
480.0046, 731.8714
480.4867, 729.0387
480.9688, 725.5400
481.4509, 719.4023
481.9330, 714.1627
482.4152, 716.6231
482.8973, 726.2858
483.3794, 733.1876
483.8615, 729.4497
484.3436, 716.8509
484.8257, 707.0234
485.3079, 697.6653
485.7900, 694.4409
486.2721, 701.9718
486.7542, 713.1804
487.2363, 722.8251
487.7184, 729.6998
488.2006, 734.7928
488.6827, 740.6536
489.1648, 745.8146
489.6469, 738.6700
490.1290, 712.5444
490.6111, 690.5397
491.0933, 684.6425
491.5754, 687.3416
492.0575, 692.0620
492.5396, 698.8926
493.0217, 703.2682
493.5038, 700.6458
493.9860, 694.6425
494.4681, 690.3792
494.9502, 688.5624
495.4323, 690.1763
495.9144, 696.5238
496.3965, 706.8158
496.8787, 715.7984
497.3608, 722.9531
497.8429, 729.5695
498.3250, 733.8525
498.8071, 738.8357
499.2892, 746.9698
499.7714, 758.7639
500.2535, 773.7847
500.7356, 792.0972
501.2177, 813.3751
501.6998, 835.1723
502.1819, 856.3030
502.6641, 880.3266
503.1462, 909.8278
503.6283, 942.3392
504.1104, 976.4261
504.5925, 1012.162
505.0746, 1046.543
505.5568, 1075.369
506.0389, 1102.665
506.5210, 1135.597
507.0031, 1174.558
507.4852, 1216.176
507.9673, 1260.331
508.4495, 1303.899
508.9316, 1334.021
509.4137, 1348.027
509.8958, 1353.074
510.3779, 1348.110
510.8600, 1335.559
511.3422, 1316.351
511.8243, 1291.317
512.3064, 1261.906
512.7885, 1228.812
513.2706, 1192.687
513.7527, 1155.483
514.2349, 1116.990
514.7170, 1078.703
515.1991, 1041.332
515.6812, 1004.222
516.1633, 965.2802
516.6454, 924.9053
517.1276, 887.9099
517.6097, 859.0459
518.0918, 833.6439
518.5739, 806.5909
519.0560, 777.6257
519.5381, 747.0167
520.0203, 714.1270
520.5024, 681.2877
520.9845, 653.4896
521.4666, 633.6694
521.9487, 613.5162
522.4308, 591.0172
522.9130, 570.0223
523.3951, 553.2820
523.8772, 539.9664
524.3593, 527.8160
524.8414, 515.6835
525.3235, 503.2398
525.8057, 488.7271
526.2878, 471.0592
526.7699, 458.6152
527.2520, 457.1168
527.7341, 456.3329
528.2162, 447.7279
528.6984, 432.9988
529.1805, 418.9228
529.6626, 407.0612
530.1447, 397.1396
530.6268, 389.1835
531.1089, 382.9779
531.5911, 378.3660
532.0732, 375.4324
532.5553, 372.1966
533.0374, 365.4433
533.5195, 353.5750
534.0016, 347.9136
534.4838, 353.5921
534.9659, 359.1694
535.4480, 362.5029
535.9301, 363.0651
536.4122, 359.7469
536.8943, 352.2884
537.3765, 343.6865
537.8586, 336.8446
538.3407, 331.7392
538.8228, 328.5544
539.3049, 327.5905
539.7870, 327.6928
540.2692, 329.0271
540.7513, 330.7257
541.2334, 330.6047
541.7155, 327.1584
542.1976, 324.7863
542.6797, 328.1863
543.1619, 331.8854
543.6440, 327.8225
544.1261, 316.2808
544.6082, 304.9506
545.0903, 299.8106
545.5724, 299.6764
546.0546, 298.8408
546.5367, 298.0637
547.0188, 295.0826
547.5009, 288.4816
547.9830, 280.6923
548.4651, 272.0891
548.9473, 263.4993
549.4294, 257.7192
549.9115, 258.4010
550.3936, 261.3691
550.8757, 259.5007
551.3578, 253.3370
551.8399, 248.6130
552.3220, 247.4377
552.8041, 248.3195
553.2863, 249.9944
553.7684, 253.4871
554.2505, 252.0176
554.7326, 239.1570
555.2147, 227.9792
555.6968, 226.0268
556.1790, 229.5278
556.6611, 231.6723
557.1432, 229.9968
557.6253, 227.6496
558.1074, 229.5116
558.5895, 235.7705
559.0717, 239.6051
559.5538, 240.5070
560.0359, 239.6620
560.5180, 236.5044
561.0001, 232.3618
561.4822, 228.8720
561.9644, 225.8773
562.4465, 224.6709
562.9286, 227.8517
563.4107, 232.2359
563.8928, 233.5778
564.3749, 231.5592
564.8571, 226.9398
565.3392, 219.2089
565.8213, 211.2428
566.3034, 214.9981
566.7855, 244.0916
567.2676, 260.0294
567.7498, 252.4311
568.2319, 239.4930
568.7140, 230.2724
569.1961, 225.3306
569.6782, 222.7968
570.1603, 222.0909
570.6425, 222.8202
571.1246, 225.4859
571.6067, 229.5692
572.0888, 231.0452
572.5709, 228.4020
573.0530, 224.8096
573.5352, 223.6691
574.0173, 225.1003
574.4994, 225.1889
574.9815, 221.9266
575.4636, 219.7935
575.9457, 220.5856
576.4279, 223.0379
576.9100, 226.9598
577.3921, 231.5772
577.8742, 233.3362
578.3563, 227.1071
578.8384, 215.1262
579.3206, 210.1443
579.8027, 213.8173
580.2848, 218.4465
580.7669, 221.8913
581.2490, 224.4122
581.7311, 227.0132
582.2133, 229.8926
582.6954, 229.9287
583.1775, 221.6341
583.6596, 214.0674
584.1417, 216.8725
584.6238, 226.4002
585.1060, 232.5960
585.5881, 231.3484
586.0702, 226.0443
586.5523, 221.3176
587.0344, 216.6405
587.5165, 215.8517
587.9987, 223.4712
588.4808, 229.0950
588.9629, 226.1363
589.4450, 220.2326
589.9271, 219.3513
590.4092, 225.7303
590.8914, 233.0788
591.3735, 239.9436
591.8556, 244.0019
592.3377, 238.5860
592.8198, 224.4329
593.3019, 213.5399
593.7841, 213.3007
594.2662, 219.9650
594.7483, 223.7878
595.2304, 222.5096
595.7125, 222.6318
596.1946, 227.0309
596.6768, 229.8683
597.1589, 225.9882
597.6410, 218.6544
598.1231, 215.3099
598.6052, 219.8408
599.0873, 225.4964
599.5695, 222.8599
600.0516, 214.4215
600.5337, 211.1837
601.0158, 215.2550
601.4979, 220.5757
601.9800, 222.7302
602.4622, 222.5495
602.9443, 224.1222
603.4264, 231.6773
603.9085, 234.9163
604.3906, 228.3573
604.8727, 220.6890
605.3549, 218.7700
605.8370, 221.9743
606.3191, 225.9458
606.8012, 228.3796
607.2833, 229.3626
607.7654, 228.2069
608.2476, 224.9055
608.7297, 224.2036
609.2118, 228.3769
609.6939, 232.0315
610.1760, 229.9095
610.6581, 223.0546
611.1403, 218.2546
