##NAMES=Olshanskyite
##RRUFFID=R150028
##IDEAL CHEMISTRY=Ca_2_[B_3_O_3_(OH)_6_]OH&#183;3H_2_O
##LOCALITY=Shijangshan mine, Jipeng, Chifeng, Inner Mongolia, China
##OWNER=RRUFF
##SOURCE=Renato and Adriana Pagano
##DESCRIPTION=Aggregates of colorless prismatic crystals.
##STATUS=The identification of this mineral has been confirmed by single-crystal X-ray diffraction.
##URL=rruff.info/R150028
8.813672e+001, 3.883162e+002
8.861884e+001, 3.918738e+002
8.910095e+001, 3.967077e+002
8.958307e+001, 4.084920e+002
9.006519e+001, 4.188283e+002
9.054730e+001, 4.179981e+002
9.102942e+001, 4.062115e+002
9.151154e+001, 3.881917e+002
9.199365e+001, 3.653360e+002
9.247577e+001, 3.391965e+002
9.295789e+001, 3.138272e+002
9.344000e+001, 2.892153e+002
9.392212e+001, 2.667562e+002
9.440424e+001, 2.499119e+002
9.488635e+001, 2.395806e+002
9.536847e+001, 2.333642e+002
9.585059e+001, 2.284019e+002
9.633270e+001, 2.246505e+002
9.681482e+001, 2.226752e+002
9.729694e+001, 2.225815e+002
9.777905e+001, 2.243604e+002
9.826117e+001, 2.286303e+002
9.874329e+001, 2.355104e+002
9.922540e+001, 2.446496e+002
9.970752e+001, 2.555241e+002
1.001896e+002, 2.680351e+002
1.006718e+002, 2.820522e+002
1.011539e+002, 2.978995e+002
1.016360e+002, 3.163765e+002
1.021181e+002, 3.338163e+002
1.026002e+002, 3.516474e+002
1.030823e+002, 3.686637e+002
1.035645e+002, 3.747155e+002
1.040466e+002, 3.668222e+002
1.045287e+002, 3.525817e+002
1.050108e+002, 3.376503e+002
1.054929e+002, 3.207798e+002
1.059750e+002, 3.057358e+002
1.064572e+002, 2.937692e+002
1.069393e+002, 2.852998e+002
1.074214e+002, 2.758174e+002
1.079035e+002, 2.643920e+002
1.083856e+002, 2.524393e+002
1.088677e+002, 2.417017e+002
1.093499e+002, 2.311575e+002
1.098320e+002, 2.226466e+002
1.103141e+002, 2.167041e+002
1.107962e+002, 2.136908e+002
1.112783e+002, 2.117651e+002
1.117604e+002, 2.108399e+002
1.122426e+002, 2.108678e+002
1.127247e+002, 2.118079e+002
1.132068e+002, 2.138493e+002
1.136889e+002, 2.166358e+002
1.141710e+002, 2.200069e+002
1.146531e+002, 2.238986e+002
1.151353e+002, 2.284548e+002
1.156174e+002, 2.340053e+002
1.160995e+002, 2.403230e+002
1.165816e+002, 2.468817e+002
1.170637e+002, 2.531901e+002
1.175458e+002, 2.598180e+002
1.180280e+002, 2.671711e+002
1.185101e+002, 2.749330e+002
1.189922e+002, 2.839717e+002
1.194743e+002, 2.948988e+002
1.199564e+002, 3.075747e+002
1.204385e+002, 3.211445e+002
1.209207e+002, 3.366519e+002
1.214028e+002, 3.523380e+002
1.218849e+002, 3.662057e+002
1.223670e+002, 3.784290e+002
1.228491e+002, 3.880799e+002
1.233312e+002, 3.937890e+002
1.238134e+002, 3.956486e+002
1.242955e+002, 3.953726e+002
1.247776e+002, 3.924814e+002
1.252597e+002, 3.883810e+002
1.257418e+002, 3.859064e+002
1.262239e+002, 3.863560e+002
1.267061e+002, 3.891678e+002
1.271882e+002, 3.936762e+002
1.276703e+002, 3.999936e+002
1.281524e+002, 4.072427e+002
1.286345e+002, 4.159079e+002
1.291166e+002, 4.252523e+002
1.295988e+002, 4.320779e+002
1.300809e+002, 4.341316e+002
1.305630e+002, 4.322942e+002
1.310451e+002, 4.294435e+002
1.315272e+002, 4.255904e+002
1.320093e+002, 4.209478e+002
1.324915e+002, 4.153998e+002
1.329736e+002, 4.089495e+002
1.334557e+002, 4.027404e+002
1.339378e+002, 3.971285e+002
1.344199e+002, 3.921416e+002
1.349020e+002, 3.887437e+002
1.353842e+002, 3.872321e+002
1.358663e+002, 3.870695e+002
1.363484e+002, 3.867440e+002
1.368305e+002, 3.859337e+002
1.373126e+002, 3.864745e+002
1.377947e+002, 3.896580e+002
1.382769e+002, 3.957511e+002
1.387590e+002, 4.028973e+002
1.392411e+002, 4.110908e+002
1.397232e+002, 4.201915e+002
1.402053e+002, 4.293283e+002
1.406874e+002, 4.389914e+002
1.411696e+002, 4.479464e+002
1.416517e+002, 4.552541e+002
1.421338e+002, 4.608249e+002
1.426159e+002, 4.651356e+002
1.430980e+002, 4.680331e+002
1.435801e+002, 4.696308e+002
1.440623e+002, 4.709727e+002
1.445444e+002, 4.709168e+002
1.450265e+002, 4.719004e+002
1.455086e+002, 4.755658e+002
1.459907e+002, 4.805157e+002
1.464728e+002, 4.904428e+002
1.469550e+002, 5.062696e+002
1.474371e+002, 5.280775e+002
1.479192e+002, 5.536058e+002
1.484013e+002, 5.824075e+002
1.488834e+002, 6.150198e+002
1.493655e+002, 6.525605e+002
1.498477e+002, 7.051414e+002
1.503298e+002, 7.515168e+002
1.508119e+002, 7.917187e+002
1.512940e+002, 8.288987e+002
1.517761e+002, 8.423004e+002
1.522583e+002, 8.209407e+002
1.527404e+002, 7.791280e+002
1.532225e+002, 7.314729e+002
1.537046e+002, 6.659795e+002
1.541867e+002, 6.072166e+002
1.546688e+002, 5.619714e+002
1.551510e+002, 5.315942e+002
1.556331e+002, 5.087426e+002
1.561152e+002, 4.928929e+002
1.565973e+002, 4.838715e+002
1.570794e+002, 4.816222e+002
1.575615e+002, 4.887990e+002
1.580437e+002, 5.005190e+002
1.585258e+002, 5.149822e+002
1.590079e+002, 5.319487e+002
1.594900e+002, 5.517487e+002
1.599721e+002, 5.769250e+002
1.604542e+002, 6.048142e+002
1.609364e+002, 6.307404e+002
1.614185e+002, 6.573517e+002
1.619006e+002, 6.786501e+002
1.623827e+002, 6.915926e+002
1.628648e+002, 6.960117e+002
1.633469e+002, 6.912625e+002
1.638291e+002, 6.752621e+002
1.643112e+002, 6.497751e+002
1.647933e+002, 6.185967e+002
1.652754e+002, 5.784189e+002
1.657575e+002, 5.360347e+002
1.662396e+002, 4.960500e+002
1.667218e+002, 4.582991e+002
1.672039e+002, 4.251792e+002
1.676860e+002, 3.985275e+002
1.681681e+002, 3.779660e+002
1.686502e+002, 3.613740e+002
1.691323e+002, 3.484659e+002
1.696145e+002, 3.387944e+002
1.700966e+002, 3.321064e+002
1.705787e+002, 3.287788e+002
1.710608e+002, 3.277461e+002
1.715429e+002, 3.286021e+002
1.720250e+002, 3.312029e+002
1.725072e+002, 3.347479e+002
1.729893e+002, 3.395985e+002
1.734714e+002, 3.448966e+002
1.739535e+002, 3.495848e+002
1.744356e+002, 3.538877e+002
1.749177e+002, 3.568585e+002
1.753999e+002, 3.570446e+002
1.758820e+002, 3.546612e+002
1.763641e+002, 3.515966e+002
1.768462e+002, 3.491473e+002
1.773283e+002, 3.469672e+002
1.778104e+002, 3.443414e+002
1.782926e+002, 3.407857e+002
1.787747e+002, 3.369841e+002
1.792568e+002, 3.334383e+002
1.797389e+002, 3.302353e+002
1.802210e+002, 3.283692e+002
1.807031e+002, 3.290567e+002
1.811853e+002, 3.318091e+002
1.816674e+002, 3.353452e+002
1.821495e+002, 3.389096e+002
1.826316e+002, 3.432283e+002
1.831137e+002, 3.496078e+002
1.835958e+002, 3.581118e+002
1.840780e+002, 3.681187e+002
1.845601e+002, 3.790006e+002
1.850422e+002, 3.908001e+002
1.855243e+002, 4.046419e+002
1.860064e+002, 4.206533e+002
1.864885e+002, 4.389488e+002
1.869707e+002, 4.592663e+002
1.874528e+002, 4.817653e+002
1.879349e+002, 5.065429e+002
1.884170e+002, 5.346750e+002
1.888991e+002, 5.657902e+002
1.893812e+002, 5.969252e+002
1.898634e+002, 6.287309e+002
1.903455e+002, 6.599441e+002
1.908276e+002, 6.872719e+002
1.913097e+002, 7.114338e+002
1.917918e+002, 7.292259e+002
1.922739e+002, 7.361894e+002
1.927561e+002, 7.324705e+002
1.932382e+002, 7.237004e+002
1.937203e+002, 7.100181e+002
1.942024e+002, 6.924763e+002
1.946845e+002, 6.766121e+002
1.951666e+002, 6.626280e+002
1.956488e+002, 6.498969e+002
1.961309e+002, 6.379171e+002
1.966130e+002, 6.265558e+002
1.970951e+002, 6.155049e+002
1.975772e+002, 6.043314e+002
1.980593e+002, 5.931572e+002
1.985415e+002, 5.833195e+002
1.990236e+002, 5.749413e+002
1.995057e+002, 5.676713e+002
1.999878e+002, 5.611586e+002
2.004699e+002, 5.553763e+002
2.009520e+002, 5.506594e+002
2.014342e+002, 5.470510e+002
2.019163e+002, 5.445548e+002
2.023984e+002, 5.437132e+002
2.028805e+002, 5.444943e+002
2.033626e+002, 5.470233e+002
2.038447e+002, 5.513898e+002
2.043269e+002, 5.575384e+002
2.048090e+002, 5.658775e+002
2.052911e+002, 5.766297e+002
2.057732e+002, 5.898575e+002
2.062553e+002, 6.046515e+002
2.067374e+002, 6.216176e+002
2.072196e+002, 6.391769e+002
2.077017e+002, 6.556840e+002
2.081838e+002, 6.716698e+002
2.086659e+002, 6.847484e+002
2.091480e+002, 6.945225e+002
2.096301e+002, 7.012254e+002
2.101123e+002, 7.015274e+002
2.105944e+002, 6.939177e+002
2.110765e+002, 6.819111e+002
2.115586e+002, 6.696022e+002
2.120407e+002, 6.559136e+002
2.125228e+002, 6.449277e+002
2.130050e+002, 6.378924e+002
2.134871e+002, 6.348633e+002
2.139692e+002, 6.351871e+002
2.144513e+002, 6.386740e+002
2.149334e+002, 6.457402e+002
2.154155e+002, 6.573896e+002
2.158977e+002, 6.746202e+002
2.163798e+002, 6.941428e+002
2.168619e+002, 7.154282e+002
2.173440e+002, 7.387516e+002
2.178261e+002, 7.613145e+002
2.183082e+002, 7.841703e+002
2.187904e+002, 8.049586e+002
2.192725e+002, 8.209825e+002
2.197546e+002, 8.337860e+002
2.202367e+002, 8.381570e+002
2.207188e+002, 8.319527e+002
2.212009e+002, 8.142772e+002
2.216831e+002, 7.915172e+002
2.221652e+002, 7.625729e+002
2.226473e+002, 7.296041e+002
2.231294e+002, 6.955245e+002
2.236115e+002, 6.581651e+002
2.240936e+002, 6.234501e+002
2.245758e+002, 5.927288e+002
2.250579e+002, 5.664539e+002
2.255400e+002, 5.420223e+002
2.260221e+002, 5.192445e+002
2.265042e+002, 4.984384e+002
2.269863e+002, 4.805912e+002
2.274685e+002, 4.664034e+002
2.279506e+002, 4.535046e+002
2.284327e+002, 4.413906e+002
2.289148e+002, 4.299493e+002
2.293969e+002, 4.192304e+002
2.298790e+002, 4.090426e+002
2.303612e+002, 3.997260e+002
2.308433e+002, 3.918144e+002
2.313254e+002, 3.857607e+002
2.318075e+002, 3.801064e+002
2.322896e+002, 3.742534e+002
2.327717e+002, 3.680165e+002
2.332539e+002, 3.634934e+002
2.337360e+002, 3.611145e+002
2.342181e+002, 3.601614e+002
2.347002e+002, 3.599411e+002
2.351823e+002, 3.608466e+002
2.356644e+002, 3.617884e+002
2.361466e+002, 3.624141e+002
2.366287e+002, 3.626428e+002
2.371108e+002, 3.636088e+002
2.375929e+002, 3.655121e+002
2.380750e+002, 3.679654e+002
2.385571e+002, 3.707361e+002
2.390393e+002, 3.746420e+002
2.395214e+002, 3.773562e+002
2.400035e+002, 3.782031e+002
2.404856e+002, 3.770921e+002
2.409677e+002, 3.760600e+002
2.414498e+002, 3.756829e+002
2.419320e+002, 3.748216e+002
2.424141e+002, 3.723365e+002
2.428962e+002, 3.677459e+002
2.433783e+002, 3.623947e+002
2.438604e+002, 3.563942e+002
2.443425e+002, 3.497365e+002
2.448247e+002, 3.427629e+002
2.453068e+002, 3.350232e+002
2.457889e+002, 3.274273e+002
2.462710e+002, 3.206559e+002
2.467531e+002, 3.148330e+002
2.472352e+002, 3.095999e+002
2.477174e+002, 3.049941e+002
2.481995e+002, 3.010297e+002
2.486816e+002, 2.971060e+002
2.491637e+002, 2.928410e+002
2.496458e+002, 2.890728e+002
2.501279e+002, 2.866114e+002
2.506101e+002, 2.860776e+002
2.510922e+002, 2.854713e+002
2.515743e+002, 2.843906e+002
2.520564e+002, 2.829611e+002
2.525385e+002, 2.822381e+002
2.530206e+002, 2.824139e+002
2.535028e+002, 2.830509e+002
2.539849e+002, 2.838161e+002
2.544670e+002, 2.845993e+002
2.549491e+002, 2.857728e+002
2.554312e+002, 2.873600e+002
2.559133e+002, 2.893468e+002
2.563955e+002, 2.917906e+002
2.568776e+002, 2.947845e+002
2.573597e+002, 2.980888e+002
2.578418e+002, 3.015177e+002
2.583239e+002, 3.049857e+002
2.588061e+002, 3.088802e+002
2.592882e+002, 3.133751e+002
2.597703e+002, 3.183296e+002
2.602524e+002, 3.231450e+002
2.607345e+002, 3.279185e+002
2.612166e+002, 3.324586e+002
2.616988e+002, 3.366491e+002
2.621809e+002, 3.401993e+002
2.626630e+002, 3.442028e+002
2.631451e+002, 3.489728e+002
2.636272e+002, 3.541033e+002
2.641093e+002, 3.580937e+002
2.645915e+002, 3.602503e+002
2.650736e+002, 3.629302e+002
2.655557e+002, 3.675974e+002
2.660378e+002, 3.748421e+002
2.665199e+002, 3.811626e+002
2.670020e+002, 3.857889e+002
2.674842e+002, 3.900057e+002
2.679663e+002, 3.963897e+002
2.684484e+002, 4.051722e+002
2.689305e+002, 4.153728e+002
2.694126e+002, 4.265705e+002
2.698947e+002, 4.389846e+002
2.703769e+002, 4.519861e+002
2.708590e+002, 4.655818e+002
2.713411e+002, 4.798399e+002
2.718232e+002, 4.949025e+002
2.723053e+002, 5.111211e+002
2.727874e+002, 5.266785e+002
2.732696e+002, 5.411060e+002
2.737517e+002, 5.543669e+002
2.742338e+002, 5.669531e+002
2.747159e+002, 5.795579e+002
2.751980e+002, 5.902950e+002
2.756801e+002, 5.966381e+002
2.761623e+002, 5.985681e+002
2.766444e+002, 5.961207e+002
2.771265e+002, 5.884382e+002
2.776086e+002, 5.757324e+002
2.780907e+002, 5.633350e+002
2.785728e+002, 5.514496e+002
2.790550e+002, 5.391465e+002
2.795371e+002, 5.246033e+002
2.800192e+002, 5.075125e+002
2.805013e+002, 4.923710e+002
2.809834e+002, 4.804313e+002
2.814655e+002, 4.714047e+002
2.819477e+002, 4.638639e+002
2.824298e+002, 4.578843e+002
2.829119e+002, 4.533427e+002
2.833940e+002, 4.502903e+002
2.838761e+002, 4.487149e+002
2.843582e+002, 4.480634e+002
2.848404e+002, 4.481094e+002
2.853225e+002, 4.490499e+002
2.858046e+002, 4.517257e+002
2.862867e+002, 4.561994e+002
2.867688e+002, 4.614390e+002
2.872509e+002, 4.669150e+002
2.877331e+002, 4.725641e+002
2.882152e+002, 4.778517e+002
2.886973e+002, 4.827036e+002
2.891794e+002, 4.871427e+002
2.896615e+002, 4.909625e+002
2.901436e+002, 4.942006e+002
2.906258e+002, 4.974655e+002
2.911079e+002, 5.016781e+002
2.915900e+002, 5.064284e+002
2.920721e+002, 5.098024e+002
2.925542e+002, 5.113260e+002
2.930363e+002, 5.119452e+002
2.935185e+002, 5.132432e+002
2.940006e+002, 5.151050e+002
2.944827e+002, 5.163692e+002
2.949648e+002, 5.169916e+002
2.954469e+002, 5.165396e+002
2.959290e+002, 5.139276e+002
2.964112e+002, 5.090807e+002
2.968933e+002, 5.020453e+002
2.973754e+002, 4.924030e+002
2.978575e+002, 4.805587e+002
2.983396e+002, 4.677445e+002
2.988217e+002, 4.543173e+002
2.993039e+002, 4.404294e+002
2.997860e+002, 4.265214e+002
3.002681e+002, 4.125135e+002
3.007502e+002, 3.987495e+002
3.012323e+002, 3.855586e+002
3.017144e+002, 3.728548e+002
3.021966e+002, 3.610301e+002
3.026787e+002, 3.497476e+002
3.031608e+002, 3.394611e+002
3.036429e+002, 3.306600e+002
3.041250e+002, 3.233894e+002
3.046071e+002, 3.169873e+002
3.050893e+002, 3.108511e+002
3.055714e+002, 3.052959e+002
3.060535e+002, 3.010783e+002
3.065356e+002, 2.990160e+002
3.070177e+002, 2.976781e+002
3.074998e+002, 2.957993e+002
3.079820e+002, 2.934870e+002
3.084641e+002, 2.914066e+002
3.089462e+002, 2.898198e+002
3.094283e+002, 2.887391e+002
3.099104e+002, 2.882285e+002
3.103925e+002, 2.884159e+002
3.108747e+002, 2.889789e+002
3.113568e+002, 2.896502e+002
3.118389e+002, 2.905170e+002
3.123210e+002, 2.918155e+002
3.128031e+002, 2.939411e+002
3.132852e+002, 2.963940e+002
3.137674e+002, 2.987303e+002
3.142495e+002, 3.006786e+002
3.147316e+002, 3.030419e+002
3.152137e+002, 3.064438e+002
3.156958e+002, 3.104837e+002
3.161779e+002, 3.144773e+002
3.166601e+002, 3.178771e+002
3.171422e+002, 3.213941e+002
3.176243e+002, 3.252845e+002
3.181064e+002, 3.295009e+002
3.185885e+002, 3.343632e+002
3.190706e+002, 3.404204e+002
3.195528e+002, 3.470294e+002
3.200349e+002, 3.534585e+002
3.205170e+002, 3.590020e+002
3.209991e+002, 3.648299e+002
3.214812e+002, 3.713758e+002
3.219633e+002, 3.786866e+002
3.224455e+002, 3.861492e+002
3.229276e+002, 3.937360e+002
3.234097e+002, 4.014261e+002
3.238918e+002, 4.092035e+002
3.243739e+002, 4.169677e+002
3.248560e+002, 4.249225e+002
3.253382e+002, 4.335150e+002
3.258203e+002, 4.425636e+002
3.263024e+002, 4.505766e+002
3.267845e+002, 4.572227e+002
3.272666e+002, 4.630385e+002
3.277487e+002, 4.682874e+002
3.282309e+002, 4.727704e+002
3.287130e+002, 4.768976e+002
3.291951e+002, 4.807861e+002
3.296772e+002, 4.843150e+002
3.301593e+002, 4.872186e+002
3.306414e+002, 4.898416e+002
3.311236e+002, 4.914063e+002
3.316057e+002, 4.914863e+002
3.320878e+002, 4.894828e+002
3.325699e+002, 4.878076e+002
3.330520e+002, 4.865767e+002
3.335341e+002, 4.856219e+002
3.340163e+002, 4.847309e+002
3.344984e+002, 4.839852e+002
3.349805e+002, 4.831537e+002
3.354626e+002, 4.820109e+002
3.359447e+002, 4.805129e+002
3.364268e+002, 4.799865e+002
3.369090e+002, 4.808974e+002
3.373911e+002, 4.820634e+002
3.378732e+002, 4.822929e+002
3.383553e+002, 4.814005e+002
3.388374e+002, 4.803389e+002
3.393195e+002, 4.793319e+002
3.398017e+002, 4.782679e+002
3.402838e+002, 4.766979e+002
3.407659e+002, 4.746784e+002
3.412480e+002, 4.718797e+002
3.417301e+002, 4.676273e+002
3.422122e+002, 4.618527e+002
3.426944e+002, 4.568399e+002
3.431765e+002, 4.529917e+002
3.436586e+002, 4.497692e+002
3.441407e+002, 4.460995e+002
3.446228e+002, 4.419858e+002
3.451049e+002, 4.380501e+002
3.455871e+002, 4.344386e+002
3.460692e+002, 4.312284e+002
3.465513e+002, 4.291269e+002
3.470334e+002, 4.281972e+002
3.475155e+002, 4.281653e+002
3.479977e+002, 4.288361e+002
3.484798e+002, 4.301743e+002
3.489619e+002, 4.319393e+002
3.494440e+002, 4.339549e+002
3.499261e+002, 4.363588e+002
3.504082e+002, 4.395268e+002
3.508904e+002, 4.434539e+002
3.513725e+002, 4.476924e+002
3.518546e+002, 4.522677e+002
3.523367e+002, 4.568678e+002
3.528188e+002, 4.608405e+002
3.533009e+002, 4.637108e+002
3.537831e+002, 4.662205e+002
3.542652e+002, 4.696374e+002
3.547473e+002, 4.736063e+002
3.552294e+002, 4.765099e+002
3.557115e+002, 4.767392e+002
3.561936e+002, 4.756407e+002
3.566758e+002, 4.746928e+002
3.571579e+002, 4.742782e+002
3.576400e+002, 4.737064e+002
3.581221e+002, 4.726874e+002
3.586042e+002, 4.711759e+002
3.590863e+002, 4.690513e+002
3.595685e+002, 4.656170e+002
3.600506e+002, 4.620466e+002
3.605327e+002, 4.590344e+002
3.610148e+002, 4.566633e+002
3.614969e+002, 4.546462e+002
3.619790e+002, 4.525449e+002
3.624612e+002, 4.508567e+002
3.629433e+002, 4.500815e+002
3.634254e+002, 4.513490e+002
3.639075e+002, 4.525492e+002
3.643896e+002, 4.526761e+002
3.648717e+002, 4.518643e+002
3.653539e+002, 4.518877e+002
3.658360e+002, 4.538763e+002
3.663181e+002, 4.562831e+002
3.668002e+002, 4.582157e+002
3.672823e+002, 4.596197e+002
3.677644e+002, 4.604865e+002
3.682466e+002, 4.609830e+002
3.687287e+002, 4.609405e+002
3.692108e+002, 4.599254e+002
3.696929e+002, 4.573269e+002
3.701750e+002, 4.543849e+002
3.706571e+002, 4.515550e+002
3.711393e+002, 4.489539e+002
3.716214e+002, 4.459821e+002
3.721035e+002, 4.423184e+002
3.725856e+002, 4.384990e+002
3.730677e+002, 4.353534e+002
3.735498e+002, 4.333797e+002
3.740320e+002, 4.309374e+002
3.745141e+002, 4.274370e+002
3.749962e+002, 4.230107e+002
3.754783e+002, 4.194612e+002
3.759604e+002, 4.171049e+002
3.764425e+002, 4.150187e+002
3.769247e+002, 4.123931e+002
3.774068e+002, 4.091485e+002
3.778889e+002, 4.062390e+002
3.783710e+002, 4.039981e+002
3.788531e+002, 4.019883e+002
3.793352e+002, 3.991246e+002
3.798174e+002, 3.954037e+002
3.802995e+002, 3.911144e+002
3.807816e+002, 3.863877e+002
3.812637e+002, 3.812035e+002
3.817458e+002, 3.758462e+002
3.822279e+002, 3.703106e+002
3.827101e+002, 3.643352e+002
3.831922e+002, 3.572956e+002
3.836743e+002, 3.493115e+002
3.841564e+002, 3.412906e+002
3.846385e+002, 3.332689e+002
3.851206e+002, 3.254930e+002
3.856028e+002, 3.182425e+002
3.860849e+002, 3.115293e+002
3.865670e+002, 3.055727e+002
3.870491e+002, 3.008146e+002
3.875312e+002, 2.968241e+002
3.880133e+002, 2.928299e+002
3.884955e+002, 2.885255e+002
3.889776e+002, 2.844051e+002
3.894597e+002, 2.809902e+002
3.899418e+002, 2.781680e+002
3.904239e+002, 2.756103e+002
3.909060e+002, 2.731499e+002
3.913882e+002, 2.708853e+002
3.918703e+002, 2.689263e+002
3.923524e+002, 2.672949e+002
3.928345e+002, 2.658049e+002
3.933166e+002, 2.642741e+002
3.937987e+002, 2.628493e+002
3.942809e+002, 2.617343e+002
3.947630e+002, 2.612513e+002
3.952451e+002, 2.608150e+002
3.957272e+002, 2.601546e+002
3.962093e+002, 2.592901e+002
3.966914e+002, 2.586310e+002
3.971736e+002, 2.584913e+002
3.976557e+002, 2.584283e+002
3.981378e+002, 2.581698e+002
3.986199e+002, 2.575401e+002
3.991020e+002, 2.569048e+002
3.995841e+002, 2.562926e+002
4.000663e+002, 2.556805e+002
4.005484e+002, 2.550097e+002
4.010305e+002, 2.542294e+002
4.015126e+002, 2.534582e+002
4.019947e+002, 2.528000e+002
4.024768e+002, 2.523622e+002
4.029590e+002, 2.514334e+002
4.034411e+002, 2.496983e+002
4.039232e+002, 2.478343e+002
4.044053e+002, 2.467571e+002
4.048874e+002, 2.468656e+002
4.053695e+002, 2.463113e+002
4.058517e+002, 2.444375e+002
4.063338e+002, 2.416810e+002
4.068159e+002, 2.399973e+002
4.072980e+002, 2.395707e+002
4.077801e+002, 2.393282e+002
4.082622e+002, 2.385325e+002
4.087444e+002, 2.372194e+002
4.092265e+002, 2.358343e+002
4.097086e+002, 2.343069e+002
4.101907e+002, 2.329855e+002
4.106728e+002, 2.325873e+002
4.111549e+002, 2.329748e+002
4.116371e+002, 2.332872e+002
4.121192e+002, 2.329134e+002
4.126013e+002, 2.322414e+002
4.130834e+002, 2.319017e+002
4.135655e+002, 2.318968e+002
