##NAMES=Omphacite
##RRUFFID=R110038
##IDEAL CHEMISTRY=(Ca,Na)(Mg,Fe^2+^,Al)Si_2_O_6_
##LOCALITY=Kefalos Hill, Skotini Bay, Galissas, Syros Island, Aegean Sea, Greece
##OWNER=RRUFF
##SOURCE=William W Pinch
##DESCRIPTION=Pale green granular crystals associated with fluor-dravite R110031 
##STATUS=The identification of this mineral has been confirmed only by single crystal X-ray diffraction.
##URL=rruff.info/R110038
179.2017, 711.5906
179.6838, 708.3171
180.1659, 708.8652
180.6480, 713.4844
181.1301, 718.7761
181.6122, 720.8243
182.0944, 720.6840
182.5765, 721.7531
183.0586, 727.2493
183.5407, 734.7071
184.0228, 738.5701
184.5049, 738.2986
184.9871, 736.9791
185.4692, 737.3508
185.9513, 739.4768
186.4334, 743.8707
186.9155, 752.1356
187.3976, 762.9872
187.8798, 772.0918
188.3619, 778.9903
188.8440, 785.2086
189.3261, 792.7868
189.8082, 801.6830
190.2903, 810.5540
190.7725, 818.9349
191.2546, 826.8813
191.7367, 834.0009
192.2188, 840.3254
192.7009, 845.8497
193.1830, 849.8740
193.6652, 852.3676
194.1473, 855.5087
194.6294, 861.4730
195.1115, 869.8690
195.5936, 874.9130
196.0757, 875.1151
196.5579, 873.8557
197.0400, 878.3730
197.5221, 889.1752
198.0042, 900.1242
198.4863, 907.6612
198.9684, 911.7183
199.4506, 916.2639
199.9327, 921.7028
200.4148, 927.5291
200.8969, 932.5997
201.3790, 936.9205
201.8611, 940.7803
202.3433, 944.1500
202.8254, 946.9520
203.3075, 950.3524
203.7896, 954.6463
204.2717, 959.3573
204.7538, 963.2637
205.2360, 966.3082
205.7181, 968.7222
206.2002, 970.0161
206.6823, 969.6478
207.1644, 971.8718
207.6465, 978.0888
208.1287, 986.4908
208.6108, 991.9175
209.0929, 994.0271
209.5750, 994.1282
210.0571, 992.6593
210.5392, 989.2493
211.0214, 986.1365
211.5035, 983.9247
211.9856, 982.0393
212.4677, 978.3137
212.9498, 972.4468
213.4319, 965.4680
213.9140, 957.7115
214.3962, 948.8331
214.8783, 940.5081
215.3604, 933.2473
215.8425, 926.6130
216.3246, 919.0940
216.8067, 910.3089
217.2889, 901.2343
217.7710, 892.2071
218.2531, 882.8558
218.7352, 874.6161
219.2173, 867.9948
219.6994, 862.4576
220.1816, 855.9880
220.6637, 848.4833
221.1458, 840.0227
221.6279, 830.3111
222.1100, 817.9173
222.5921, 807.8951
223.0743, 801.1135
223.5564, 797.0202
224.0385, 792.7355
224.5206, 788.1891
225.0027, 783.7460
225.4848, 779.7399
225.9670, 776.6241
226.4491, 772.8683
226.9312, 767.6875
227.4133, 761.7230
227.8954, 758.0677
228.3775, 758.1658
228.8597, 758.5735
229.3418, 757.0873
229.8239, 752.6420
230.3060, 748.7358
230.7881, 745.4963
231.2702, 742.9571
231.7524, 741.5811
232.2345, 742.0163
232.7166, 742.6730
233.1987, 742.6214
233.6808, 741.5916
234.1629, 740.4076
234.6451, 739.0686
235.1272, 737.5926
235.6093, 736.0300
236.0914, 734.2435
236.5735, 732.5599
237.0556, 731.2024
237.5378, 730.4151
238.0199, 729.4661
238.5020, 728.4005
238.9841, 727.1660
239.4662, 725.5253
239.9483, 723.2722
240.4305, 720.9375
240.9126, 718.7181
241.3947, 716.3790
241.8768, 714.8215
242.3589, 714.8646
242.8410, 715.6915
243.3232, 714.1494
243.8053, 708.7538
244.2874, 703.0195
244.7695, 698.6164
245.2516, 695.3800
245.7337, 693.9130
246.2159, 695.5606
246.6980, 698.7959
247.1801, 698.4050
247.6622, 692.0126
248.1443, 685.5521
248.6264, 682.0310
249.1086, 682.9066
249.5907, 683.1052
250.0728, 682.1285
250.5549, 680.5524
251.0370, 679.9920
251.5191, 681.0576
252.0013, 682.1971
252.4834, 682.7960
252.9655, 682.8646
253.4476, 682.2683
253.9297, 680.3389
254.4118, 678.0550
254.8940, 677.7951
255.3761, 680.7673
255.8582, 683.6230
256.3403, 684.7557
256.8224, 683.3136
257.3046, 682.9115
257.7867, 683.6487
258.2688, 685.3365
258.7509, 687.8839
259.2330, 692.0282
259.7151, 695.4426
260.1973, 697.0764
260.6794, 696.4631
261.1615, 695.8755
261.6436, 694.8549
262.1257, 694.2639
262.6078, 696.0488
263.0900, 701.6384
263.5721, 706.1589
264.0542, 707.3348
264.5363, 704.3575
265.0184, 703.9147
265.5005, 707.0857
265.9827, 711.5352
266.4648, 713.8015
266.9469, 713.1379
267.4290, 712.4161
267.9111, 712.4935
268.3932, 713.4105
268.8754, 714.4735
269.3575, 715.8510
269.8396, 717.0845
270.3217, 717.3395
270.8038, 716.1984
271.2859, 715.7112
271.7681, 717.0052
272.2502, 719.9391
272.7323, 720.1879
273.2144, 716.9832
273.6965, 712.6276
274.1786, 709.4508
274.6608, 707.5156
275.1429, 706.3427
275.6250, 706.1108
276.1071, 706.6281
276.5892, 706.2249
277.0714, 704.6076
277.5535, 702.9319
278.0356, 702.4244
278.5177, 703.2127
278.9998, 703.8273
279.4819, 704.0182
279.9641, 703.7941
280.4462, 703.0583
280.9283, 701.6853
281.4104, 700.3167
281.8925, 699.7423
282.3746, 699.9894
282.8568, 699.2099
283.3389, 696.5591
283.8210, 693.1458
284.3031, 692.3273
284.7852, 694.3535
285.2673, 696.9963
285.7495, 698.7276
286.2316, 699.6342
286.7137, 700.6603
287.1958, 701.8712
287.6779, 703.3582
288.1600, 705.8005
288.6422, 709.2279
289.1243, 711.7328
289.6064, 710.8071
290.0885, 707.4181
290.5706, 706.9639
291.0527, 710.3713
291.5349, 715.7217
292.0170, 720.4723
292.4991, 724.5638
292.9812, 727.9354
293.4633, 730.2775
293.9454, 731.8189
294.4276, 733.0389
294.9097, 733.8072
295.3918, 734.9075
295.8739, 737.8131
296.3560, 742.1119
296.8381, 745.9804
297.3203, 747.7612
297.8024, 748.6260
298.2845, 751.5039
298.7666, 756.6790
299.2487, 761.6663
299.7308, 763.3575
300.2130, 762.7856
300.6951, 762.9084
301.1772, 765.8281
301.6593, 769.6596
302.1414, 771.2145
302.6235, 770.5380
303.1057, 770.2803
303.5878, 773.3945
304.0699, 778.4141
304.5520, 782.5322
305.0341, 784.1390
305.5162, 785.0953
305.9984, 787.5734
306.4805, 791.3380
306.9626, 794.9366
307.4447, 796.2253
307.9268, 797.0880
308.4089, 800.1995
308.8911, 807.5919
309.3732, 815.3320
309.8553, 819.3094
310.3374, 820.7136
310.8195, 823.6671
311.3016, 832.4503
311.7838, 842.7659
312.2659, 850.6042
312.7480, 854.1778
313.2301, 857.5364
313.7122, 862.7799
314.1943, 869.6133
314.6765, 877.3118
315.1586, 886.7002
315.6407, 896.0225
316.1228, 904.0665
316.6049, 910.2932
317.0870, 916.7355
317.5692, 924.2629
318.0513, 932.5078
318.5334, 940.9172
319.0155, 948.2103
319.4976, 956.5806
319.9797, 967.6548
320.4619, 981.8400
320.9440, 994.8508
321.4261, 1003.638
321.9082, 1011.300
322.3903, 1020.733
322.8724, 1034.630
323.3546, 1048.238
323.8367, 1059.855
324.3188, 1069.557
324.8009, 1080.347
325.2830, 1093.038
325.7651, 1106.661
326.2473, 1120.564
326.7294, 1134.740
327.2115, 1149.181
327.6936, 1163.658
328.1757, 1178.267
328.6578, 1194.053
329.1400, 1211.781
329.6221, 1230.117
330.1042, 1248.710
330.5863, 1268.108
331.0684, 1286.951
331.5505, 1304.641
332.0327, 1321.767
332.5148, 1339.615
332.9969, 1359.811
333.4790, 1378.503
333.9611, 1394.529
334.4432, 1407.380
334.9254, 1419.458
335.4075, 1430.871
335.8896, 1441.208
336.3717, 1449.736
336.8538, 1455.854
337.3359, 1461.406
337.8180, 1467.085
338.3001, 1472.850
338.7823, 1476.701
339.2644, 1478.431
339.7465, 1478.662
340.2286, 1477.827
340.7107, 1475.877
341.1928, 1473.404
341.6750, 1470.593
342.1571, 1467.391
342.6392, 1463.206
343.1213, 1457.644
343.6034, 1453.081
344.0855, 1451.949
344.5677, 1454.081
345.0498, 1454.838
345.5319, 1453.359
346.0140, 1450.778
346.4961, 1449.276
346.9782, 1448.815
347.4604, 1448.370
347.9425, 1447.327
348.4246, 1445.822
348.9067, 1444.520
349.3888, 1443.555
349.8709, 1442.297
350.3531, 1439.814
350.8352, 1436.333
351.3173, 1432.724
351.7994, 1429.611
352.2815, 1426.472
352.7636, 1422.112
353.2458, 1416.518
353.7279, 1411.030
354.2100, 1407.362
354.6921, 1404.467
355.1742, 1400.525
355.6563, 1394.424
356.1385, 1387.550
356.6206, 1380.493
357.1027, 1373.484
357.5848, 1367.867
358.0669, 1365.288
358.5490, 1363.989
359.0312, 1362.174
359.5133, 1358.951
359.9954, 1356.395
360.4775, 1355.765
360.9596, 1356.690
361.4417, 1358.366
361.9239, 1361.113
362.4060, 1364.056
362.8881, 1366.519
363.3702, 1368.203
363.8523, 1370.687
364.3344, 1374.400
364.8166, 1379.214
365.2987, 1385.036
365.7808, 1393.663
366.2629, 1401.326
366.7450, 1406.549
367.2271, 1409.328
367.7093, 1412.529
368.1914, 1416.439
368.6735, 1420.879
369.1556, 1425.776
369.6377, 1431.762
370.1198, 1437.228
370.6020, 1441.900
371.0841, 1445.956
371.5662, 1450.050
372.0483, 1453.706
372.5304, 1457.893
373.0125, 1463.456
373.4947, 1471.937
373.9768, 1476.867
374.4589, 1476.288
374.9410, 1473.780
375.4231, 1475.463
375.9052, 1483.013
376.3874, 1490.186
376.8695, 1495.236
377.3516, 1498.262
377.8337, 1500.045
378.3158, 1500.436
378.7979, 1500.183
379.2801, 1500.403
379.7622, 1501.212
380.2443, 1500.161
380.7264, 1496.452
381.2085, 1490.835
381.6906, 1485.257
382.1728, 1479.741
382.6549, 1473.634
383.1370, 1466.184
383.6191, 1457.678
384.1012, 1449.860
384.5833, 1443.087
385.0655, 1435.954
385.5476, 1426.525
386.0297, 1415.083
386.5118, 1403.193
386.9939, 1390.801
387.4760, 1378.616
387.9582, 1367.805
388.4403, 1358.319
388.9224, 1349.241
389.4045, 1339.679
389.8866, 1330.211
390.3687, 1321.604
390.8509, 1314.565
391.3330, 1308.157
391.8151, 1302.090
392.2972, 1296.202
392.7793, 1289.691
393.2614, 1280.900
393.7436, 1272.180
394.2257, 1264.994
394.7078, 1259.780
395.1899, 1255.807
395.6720, 1252.918
396.1541, 1251.067
396.6363, 1250.188
397.1184, 1251.171
397.6005, 1252.263
398.0826, 1252.671
398.5647, 1252.184
399.0468, 1252.499
399.5290, 1254.928
400.0111, 1257.577
400.4932, 1258.925
400.9753, 1258.000
401.4574, 1257.076
401.9395, 1256.377
402.4217, 1255.848
402.9038, 1255.139
403.3859, 1253.677
403.8680, 1252.885
404.3501, 1253.637
404.8322, 1256.488
405.3144, 1258.999
405.7965, 1261.318
406.2786, 1263.086
406.7607, 1263.508
407.2428, 1262.348
407.7249, 1261.112
408.2071, 1260.357
408.6892, 1259.962
409.1713, 1259.635
409.6534, 1259.620
410.1355, 1258.155
410.6176, 1252.471
411.0998, 1243.400
411.5819, 1236.325
412.0640, 1233.181
412.5461, 1230.953
413.0282, 1224.977
413.5103, 1215.482
413.9925, 1203.808
414.4746, 1189.064
414.9567, 1173.045
415.4388, 1159.310
415.9209, 1148.322
416.4030, 1136.785
416.8852, 1121.027
417.3673, 1102.888
417.8494, 1085.336
418.3315, 1070.505
418.8136, 1055.691
419.2957, 1038.446
419.7779, 1019.316
420.2600, 1000.787
420.7421, 984.9649
421.2242, 969.6868
421.7063, 953.6458
422.1884, 935.2381
422.6706, 918.1241
423.1527, 903.3233
423.6348, 890.2826
424.1169, 877.8799
424.5990, 866.6018
425.0811, 855.1334
425.5633, 842.6180
426.0454, 828.6177
426.5275, 816.5287
427.0096, 807.1456
427.4917, 798.8926
427.9738, 790.4719
428.4560, 781.7559
428.9381, 773.1450
429.4202, 764.6932
429.9023, 756.4799
430.3844, 748.3884
430.8665, 740.5690
431.3487, 732.5773
431.8308, 723.6173
432.3129, 713.5587
432.7950, 706.3170
433.2771, 702.6021
433.7592, 700.0095
434.2414, 695.2368
434.7235, 688.4717
435.2056, 681.8876
435.6877, 676.0877
436.1698, 670.9876
436.6519, 666.1004
437.1341, 661.4844
437.6162, 657.9727
438.0983, 657.2467
438.5804, 657.7525
439.0625, 656.6616
439.5446, 653.2173
440.0268, 649.1297
440.5089, 645.2626
440.9910, 641.8802
441.4731, 639.5750
441.9552, 639.8688
442.4373, 640.2925
442.9195, 639.0370
443.4016, 636.0847
443.8837, 633.2571
444.3658, 630.5070
444.8479, 628.6091
445.3300, 628.2610
445.8122, 631.6868
446.2943, 633.9008
446.7764, 633.3369
447.2585, 630.9392
447.7406, 629.1262
448.2227, 628.1384
448.7049, 627.6931
449.1870, 627.9538
449.6691, 629.1863
450.1512, 629.4730
450.6333, 628.2551
451.1154, 626.7139
451.5976, 626.0782
452.0797, 626.7662
452.5618, 627.0582
453.0439, 626.7863
453.5260, 625.9171
454.0081, 623.7811
454.4903, 620.0168
454.9724, 617.3384
455.4545, 617.9107
455.9366, 621.1970
456.4187, 623.3598
456.9008, 624.1529
457.3830, 624.4071
457.8651, 624.5543
458.3472, 624.8464
458.8293, 626.2869
459.3114, 630.4324
459.7935, 634.6044
460.2757, 634.7548
460.7578, 631.5880
461.2399, 628.7276
461.7220, 629.1879
462.2041, 630.5870
462.6862, 630.3809
463.1684, 627.7383
463.6505, 625.6426
464.1326, 626.0778
464.6147, 627.8503
465.0968, 629.4299
465.5789, 631.0197
466.0611, 631.6737
466.5432, 630.4748
467.0253, 627.6700
467.5074, 625.8970
467.9895, 625.9393
468.4716, 626.7100
468.9538, 627.7466
469.4359, 629.1805
469.9180, 630.5928
470.4001, 632.2145
470.8822, 633.6560
471.3643, 634.2292
471.8465, 633.5732
472.3286, 633.0637
472.8107, 633.0320
473.2928, 633.4277
473.7749, 634.0406
474.2570, 634.8938
474.7392, 635.8054
475.2213, 636.9265
475.7034, 638.1138
476.1855, 638.0997
476.6676, 636.4352
477.1497, 634.6571
477.6319, 635.1741
478.1140, 637.3873
478.5961, 639.3319
479.0782, 639.7664
479.5603, 639.7322
480.0424, 640.3157
480.5246, 641.5013
481.0067, 643.1257
481.4888, 645.1155
481.9709, 647.4688
482.4530, 650.3339
482.9352, 654.1729
483.4173, 657.4128
483.8994, 658.4714
484.3815, 658.7496
484.8636, 660.3708
485.3457, 666.4308
485.8279, 671.1829
486.3100, 672.2610
486.7921, 669.6427
487.2742, 668.8310
487.7563, 670.9147
488.2384, 673.7154
488.7206, 676.0398
489.2027, 677.6686
489.6848, 679.4270
490.1669, 681.3638
490.6490, 683.4071
491.1311, 685.3814
491.6133, 687.1905
492.0954, 689.5389
492.5775, 692.9950
493.0596, 697.0558
493.5417, 699.7494
494.0238, 701.0424
494.5060, 702.0471
494.9881, 703.4719
495.4702, 705.2191
495.9523, 707.0189
496.4344, 708.7401
496.9165, 710.8687
497.3987, 714.1760
497.8808, 718.2207
498.3629, 722.1103
498.8450, 725.1251
499.3271, 728.1741
499.8092, 732.3876
500.2914, 737.4318
500.7735, 741.1146
501.2556, 740.4058
501.7377, 739.7986
502.2198, 742.3055
502.7019, 750.0340
503.1841, 756.3473
503.6662, 759.1389
504.1483, 760.6552
504.6304, 763.4481
505.1125, 768.0511
505.5946, 773.0291
506.0768, 778.4363
506.5589, 784.0872
507.0410, 789.1238
507.5231, 793.3887
508.0052, 797.4408
508.4873, 801.6642
508.9695, 806.0038
509.4516, 810.0394
509.9337, 813.7495
510.4158, 817.1993
510.8979, 820.4091
511.3800, 823.4216
511.8622, 826.2939
512.3443, 829.0062
512.8264, 831.6476
513.3085, 834.9636
513.7906, 838.5117
514.2728, 840.6961
514.7549, 841.0149
515.2370, 839.3400
515.7191, 834.9820
516.2012, 827.7634
516.6833, 820.4745
517.1655, 815.0536
517.6476, 809.7455
518.1297, 803.0205
518.6118, 792.3755
519.0939, 783.0323
519.5760, 776.2123
520.0582, 771.2673
520.5403, 766.4135
521.0224, 762.1010
521.5045, 757.2551
521.9866, 750.9098
522.4688, 743.0488
522.9509, 738.5750
523.4330, 738.3757
523.9151, 739.3939
524.3972, 739.1903
524.8793, 737.7185
525.3615, 737.1439
525.8436, 737.7589
526.3257, 739.0061
526.8078, 740.1292
527.2899, 741.1658
527.7720, 742.3001
528.2542, 743.7101
528.7363, 745.1534
529.2184, 746.2416
529.7005, 747.0347
530.1826, 747.9150
530.6647, 748.4360
531.1469, 749.5656
531.6290, 752.4815
532.1111, 757.7513
532.5932, 762.7595
533.0753, 765.4667
533.5574, 767.8541
534.0396, 771.9278
534.5217, 780.0117
535.0038, 787.5405
535.4859, 793.7111
535.9680, 798.9014
536.4501, 804.3821
536.9323, 810.3124
537.4144, 816.2025
537.8965, 821.3167
538.3786, 825.5387
538.8607, 833.3438
539.3428, 845.7894
539.8250, 858.3289
540.3071, 865.5739
540.7892, 868.1611
541.2713, 873.4556
541.7534, 883.0042
542.2355, 894.2154
542.7177, 903.9602
543.1998, 912.4749
543.6819, 920.2463
544.1640, 926.4492
544.6461, 932.6466
545.1282, 941.1537
545.6104, 951.4251
546.0925, 960.2883
546.5746, 964.1395
547.0567, 967.3781
547.5388, 973.3330
548.0209, 983.4948
548.5031, 992.8149
548.9852, 999.8624
549.4673, 1005.804
549.9494, 1011.922
550.4315, 1019.125
550.9136, 1025.153
551.3958, 1029.945
551.8779, 1033.366
552.3600, 1034.490
552.8421, 1032.455
553.3242, 1031.150
553.8063, 1032.620
554.2885, 1036.417
554.7706, 1039.443
555.2527, 1041.811
555.7348, 1042.242
556.2169, 1037.981
556.6990, 1030.986
557.1812, 1026.711
557.6633, 1026.724
558.1454, 1026.817
558.6275, 1022.826
559.1096, 1016.107
559.5917, 1008.953
560.0739, 1001.954
560.5560, 995.1618
561.0381, 988.8702
561.5202, 982.9320
562.0023, 976.4628
562.4844, 970.1279
562.9666, 962.4078
563.4487, 952.0369
563.9308, 938.1516
564.4129, 926.2300
564.8950, 917.1523
565.3771, 909.0573
565.8593, 900.3193
566.3414, 890.7097
566.8235, 881.2533
567.3056, 871.9045
567.7877, 862.7999
568.2698, 854.1862
568.7520, 845.9844
569.2341, 838.0681
569.7162, 830.3939
570.1983, 822.9125
570.6804, 815.2780
571.1625, 807.5764
571.6447, 800.1241
572.1268, 793.3365
572.6089, 786.7771
573.0910, 779.8389
573.5731, 772.2027
574.0552, 765.7430
574.5374, 762.2950
575.0195, 759.8574
575.5016, 756.5394
575.9837, 751.0583
576.4658, 745.8164
576.9479, 741.0414
577.4301, 736.5756
577.9122, 731.9758
578.3943, 726.5236
578.8764, 722.3164
579.3585, 720.4343
579.8406, 720.3763
580.3228, 718.5529
580.8049, 714.7819
581.2870, 710.4304
581.7691, 705.7383
582.2512, 701.1175
582.7333, 698.5059
583.2155, 698.1875
583.6975, 698.2035
584.1796, 697.0432
584.6617, 694.8831
585.1439, 691.9310
585.6260, 687.9236
586.1081, 683.7495
586.5902, 679.1632
587.0723, 674.8645
587.5544, 672.2657
588.0366, 673.2432
588.5187, 674.3938
589.0008, 674.6445
589.4829, 673.9918
589.9650, 673.3470
590.4471, 672.9324
590.9293, 672.1927
591.4114, 670.8319
591.8935, 668.7669
592.3756, 666.6351
592.8577, 664.5283
593.3398, 662.0768
593.8220, 658.7326
594.3041, 654.5970
594.7862, 650.2267
595.2683, 645.3958
595.7504, 641.2396
596.2325, 639.7999
596.7147, 640.2093
597.1968, 640.2215
597.6789, 638.8737
598.1610, 636.7568
598.6431, 634.0577
599.1252, 630.8868
599.6074, 627.6888
600.0895, 625.1013
600.5716, 622.0904
601.0537, 617.9258
601.5358, 612.2253
602.0179, 607.1197
602.5001, 602.2836
602.9822, 598.3832
603.4643, 596.4188
603.9464, 597.4998
604.4285, 595.7155
604.9106, 589.7943
605.3928, 582.5621
605.8749, 578.5010
606.3570, 577.3577
606.8391, 576.0297
607.3212, 573.5727
607.8033, 570.4373
608.2855, 566.8846
608.7676, 563.1345
609.2497, 559.8748
609.7318, 558.2776
610.2139, 556.7687
610.6960, 553.9291
611.1782, 549.7433
611.6603, 545.8077
612.1424, 542.6469
612.6245, 539.8970
613.1066, 537.3515
613.5887, 534.9846
614.0709, 532.8233
614.5530, 530.9570
615.0351, 529.2089
615.5172, 527.4586
615.9993, 525.8089
616.4814, 523.4417
616.9636, 519.7850
617.4457, 516.0458
617.9278, 515.0344
618.4099, 516.4655
618.8920, 517.3892
619.3741, 516.3563
619.8563, 514.2763
620.3384, 512.3502
620.8205, 510.5435
621.3026, 508.7037
621.7847, 505.8291
622.2668, 503.5325
622.7490, 503.5138
623.2311, 506.1498
623.7132, 508.1565
624.1953, 508.2747
624.6774, 507.7400
625.1595, 507.3543
625.6417, 506.6997
626.1238, 507.2183
626.6059, 509.6797
627.0880, 512.4849
627.5701, 512.9783
628.0522, 510.7573
628.5344, 510.3972
629.0165, 513.4897
629.4986, 518.0058
629.9807, 519.5162
630.4628, 518.6334
630.9449, 518.6293
631.4271, 522.2167
631.9092, 526.7920
632.3913, 529.1407
632.8734, 529.6599
633.3555, 530.8997
633.8376, 534.7077
634.3198, 539.1804
634.8019, 543.1990
635.2840, 546.5417
635.7661, 550.0590
636.2482, 553.8707
636.7303, 557.8914
637.2125, 562.1246
637.6946, 566.7727
638.1767, 571.2033
638.6588, 575.5903
639.1409, 579.4219
639.6230, 582.0465
640.1052, 583.4730
640.5873, 583.3879
641.0694, 581.4395
641.5515, 578.4239
642.0336, 575.0381
642.5157, 571.5448
642.9979, 568.6526
643.4800, 566.7017
643.9621, 565.5164
644.4442, 564.9174
644.9263, 564.9505
645.4084, 565.9468
645.8906, 568.2530
646.3727, 571.3429
646.8548, 575.4147
647.3369, 580.7683
647.8190, 584.3322
648.3011, 584.6586
648.7833, 585.3269
649.2654, 589.4843
649.7475, 597.5842
650.2296, 604.0961
650.7117, 608.5411
651.1938, 612.1277
651.6760, 615.6803
652.1581, 619.5035
652.6402, 624.6608
653.1223, 632.1366
653.6044, 639.5272
654.0865, 644.2451
654.5687, 647.4816
655.0508, 651.5548
655.5329, 657.1870
656.0150, 664.0160
656.4971, 672.6758
656.9792, 682.6788
657.4614, 691.4890
657.9435, 697.4669
658.4256, 704.3828
658.9077, 713.5488
659.3898, 724.8912
659.8719, 736.6998
660.3541, 748.9880
660.8362, 761.6105
661.3183, 774.1071
661.8004, 786.8143
662.2825, 801.6320
662.7646, 818.6628
663.2468, 837.7568
663.7289, 859.2500
664.2110, 882.5477
664.6931, 906.9366
665.1752, 932.4730
665.6573, 958.7233
666.1395, 984.0009
666.6216, 1010.688
667.1037, 1041.713
667.5858, 1080.586
668.0679, 1120.083
668.5500, 1158.408
669.0322, 1197.447
669.5143, 1240.562
669.9964, 1288.510
670.4785, 1337.710
670.9606, 1386.699
671.4427, 1436.665
671.9249, 1490.021
672.4070, 1546.792
672.8891, 1605.805
673.3712, 1666.047
673.8533, 1727.916
674.3354, 1790.356
674.8176, 1853.775
675.2997, 1920.101
