##NAMES=Omphacite
##RRUFFID=R110038
##IDEAL CHEMISTRY=(Ca,Na)(Mg,Fe^2+^,Al)Si_2_O_6_
##LOCALITY=Kefalos Hill, Skotini Bay, Galissas, Syros Island, Aegean Sea, Greece
##OWNER=RRUFF
##SOURCE=William W Pinch
##DESCRIPTION=Pale green granular crystals associated with fluor-dravite R110031 
##STATUS=The identification of this mineral has been confirmed only by single crystal X-ray diffraction.
##URL=rruff.info/R110038
180.3130, 4721.120
180.7951, 4704.351
181.2772, 4694.459
181.7593, 4697.017
182.2415, 4701.934
182.7236, 4700.656
183.2057, 4691.570
183.6878, 4680.678
184.1699, 4677.139
184.6520, 4685.170
185.1342, 4693.353
185.6163, 4703.186
186.0984, 4712.431
186.5805, 4717.767
187.0626, 4717.999
187.5447, 4716.790
188.0269, 4721.139
188.5090, 4732.853
188.9911, 4741.877
189.4732, 4744.110
189.9553, 4742.475
190.4374, 4742.805
190.9196, 4748.032
191.4017, 4752.735
191.8838, 4747.675
192.3659, 4732.352
192.8480, 4717.973
193.3301, 4710.546
193.8123, 4708.409
194.2944, 4705.466
194.7765, 4700.034
195.2586, 4693.384
195.7407, 4687.092
196.2228, 4681.181
196.7050, 4674.925
197.1871, 4666.721
197.6692, 4656.782
198.1513, 4650.019
198.6334, 4650.767
199.1155, 4652.265
199.5977, 4649.603
200.0798, 4642.632
200.5619, 4634.870
201.0440, 4629.305
201.5261, 4625.968
202.0082, 4624.634
202.4904, 4628.919
202.9725, 4632.669
203.4546, 4631.778
203.9367, 4626.220
204.4188, 4619.896
204.9009, 4618.133
205.3831, 4623.131
205.8652, 4625.919
206.3473, 4624.744
206.8294, 4622.559
207.3115, 4621.330
207.7936, 4621.205
208.2758, 4620.660
208.7579, 4617.130
209.2400, 4607.586
209.7221, 4601.868
210.2042, 4602.130
210.6863, 4603.978
211.1685, 4605.977
211.6506, 4607.171
212.1327, 4605.389
212.6148, 4596.765
213.0969, 4574.571
213.5790, 4560.174
214.0612, 4560.970
214.5433, 4564.423
215.0254, 4559.745
215.5075, 4544.703
215.9896, 4525.693
216.4717, 4511.984
216.9539, 4507.005
217.4360, 4499.154
217.9181, 4486.621
218.4002, 4471.929
218.8823, 4456.576
219.3644, 4440.943
219.8466, 4426.641
220.3287, 4416.269
220.8108, 4410.313
221.2929, 4405.117
221.7750, 4401.144
222.2571, 4397.343
222.7393, 4391.847
223.2214, 4383.982
223.7035, 4376.299
224.1856, 4374.028
224.6677, 4376.798
225.1498, 4374.771
225.6320, 4359.910
226.1141, 4340.035
226.5962, 4328.822
227.0783, 4330.142
227.5604, 4335.275
228.0425, 4335.703
228.5247, 4332.471
229.0068, 4329.375
229.4889, 4328.618
229.9710, 4328.958
230.4531, 4326.981
230.9352, 4320.781
231.4174, 4315.668
231.8995, 4317.771
232.3816, 4324.456
232.8637, 4328.421
233.3458, 4324.131
233.8279, 4314.201
234.3101, 4307.394
234.7922, 4305.870
235.2743, 4304.265
235.7564, 4298.298
236.2385, 4290.022
236.7206, 4283.604
237.2028, 4281.979
237.6849, 4284.157
238.1670, 4286.179
238.6491, 4289.319
239.1312, 4290.131
239.6133, 4286.747
240.0955, 4280.552
240.5776, 4273.523
241.0597, 4266.089
241.5418, 4258.952
242.0239, 4256.297
242.5060, 4264.253
242.9882, 4268.097
243.4703, 4260.162
243.9524, 4246.482
244.4345, 4235.922
244.9166, 4233.878
245.3987, 4238.489
245.8809, 4241.118
246.3630, 4240.809
246.8451, 4239.464
247.3272, 4236.089
247.8093, 4232.344
248.2914, 4231.286
248.7736, 4234.982
249.2557, 4240.922
249.7378, 4238.623
250.2199, 4217.972
250.7020, 4201.240
251.1841, 4191.656
251.6663, 4187.387
252.1484, 4186.515
252.6305, 4188.133
253.1126, 4191.934
253.5947, 4197.149
254.0768, 4209.889
254.5590, 4216.208
255.0411, 4210.082
255.5232, 4199.229
256.0053, 4192.218
256.4874, 4192.681
256.9695, 4197.883
257.4517, 4201.200
257.9338, 4199.592
258.4159, 4199.688
258.8980, 4202.486
259.3801, 4206.576
259.8622, 4210.804
260.3444, 4214.731
260.8265, 4218.047
261.3086, 4220.077
261.7907, 4218.552
262.2728, 4219.431
262.7549, 4225.756
263.2371, 4233.053
263.7192, 4236.555
264.2013, 4235.049
264.6834, 4231.121
265.1655, 4228.479
265.6476, 4227.621
266.1298, 4227.104
266.6119, 4227.216
267.0940, 4227.508
267.5761, 4227.151
268.0582, 4226.069
268.5403, 4225.851
269.0225, 4229.203
269.5046, 4237.903
269.9867, 4240.802
270.4688, 4233.046
270.9509, 4222.279
271.4330, 4214.191
271.9152, 4209.632
272.3973, 4208.023
272.8794, 4209.700
273.3615, 4214.948
273.8436, 4218.023
274.3257, 4217.282
274.8079, 4215.431
275.2900, 4214.462
275.7721, 4214.467
276.2542, 4214.724
276.7363, 4214.846
277.2184, 4214.725
277.7006, 4214.056
278.1827, 4213.224
278.6648, 4211.515
279.1469, 4208.237
279.6290, 4203.504
280.1111, 4197.749
280.5933, 4189.529
281.0754, 4181.303
281.5575, 4180.018
282.0396, 4190.172
282.5217, 4201.707
283.0038, 4210.339
283.4860, 4215.767
283.9681, 4215.632
284.4502, 4205.989
284.9323, 4192.505
285.4144, 4186.990
285.8965, 4191.485
286.3787, 4198.380
286.8608, 4205.354
287.3429, 4211.738
287.8250, 4214.468
288.3071, 4210.542
288.7892, 4205.282
289.2714, 4207.102
289.7535, 4216.792
290.2356, 4225.772
290.7177, 4230.185
291.1998, 4230.862
291.6819, 4229.322
292.1641, 4224.438
292.6462, 4220.298
293.1283, 4222.771
293.6104, 4230.959
294.0925, 4237.578
294.5746, 4239.278
295.0568, 4237.527
295.5389, 4234.813
296.0210, 4230.989
296.5031, 4227.496
296.9852, 4225.263
297.4673, 4224.231
297.9495, 4224.756
298.4316, 4227.872
298.9137, 4232.257
299.3958, 4236.485
299.8779, 4240.847
300.3600, 4243.372
300.8422, 4239.475
301.3243, 4233.286
301.8064, 4232.527
302.2885, 4242.406
302.7706, 4254.975
303.2527, 4260.763
303.7349, 4259.366
304.2170, 4257.226
304.6991, 4256.038
305.1812, 4256.596
305.6633, 4260.380
306.1454, 4268.696
306.6276, 4277.483
307.1097, 4283.046
307.5918, 4285.548
308.0739, 4287.888
308.5560, 4290.846
309.0381, 4294.150
309.5203, 4297.170
310.0024, 4299.794
310.4845, 4303.256
310.9666, 4308.778
311.4487, 4315.974
311.9308, 4323.012
312.4130, 4329.616
312.8951, 4335.737
313.3772, 4341.539
313.8593, 4346.963
314.3414, 4351.371
314.8235, 4352.475
315.3057, 4352.394
315.7878, 4357.555
316.2699, 4370.541
316.7520, 4383.751
317.2341, 4389.201
317.7162, 4390.505
318.1984, 4396.007
318.6805, 4414.555
319.1626, 4436.314
319.6447, 4443.095
320.1268, 4431.535
320.6089, 4422.049
321.0911, 4430.708
321.5732, 4447.447
322.0553, 4458.354
322.5374, 4459.032
323.0195, 4455.914
323.5016, 4454.147
323.9838, 4453.696
324.4659, 4457.084
324.9480, 4468.242
325.4301, 4481.733
325.9122, 4490.663
326.3943, 4494.162
326.8765, 4496.196
327.3586, 4499.125
327.8407, 4502.899
328.3228, 4507.242
328.8049, 4512.208
329.2870, 4517.575
329.7692, 4523.361
330.2513, 4529.480
330.7334, 4534.945
331.2155, 4538.691
331.6976, 4541.472
332.1797, 4545.100
332.6619, 4549.939
333.1440, 4555.125
333.6261, 4559.317
334.1082, 4563.207
334.5903, 4568.822
335.0724, 4579.415
335.5546, 4590.694
336.0367, 4596.588
336.5188, 4596.660
337.0009, 4595.725
337.4830, 4597.935
337.9651, 4600.328
338.4473, 4596.694
338.9294, 4581.908
339.4115, 4568.072
339.8936, 4567.688
340.3757, 4578.705
340.8578, 4585.399
341.3400, 4580.486
341.8221, 4569.788
342.3042, 4562.768
342.7863, 4560.087
343.2684, 4556.952
343.7505, 4549.627
344.2327, 4540.146
344.7148, 4533.243
345.1969, 4529.829
345.6790, 4529.369
346.1611, 4532.516
346.6432, 4538.677
347.1254, 4544.876
347.6075, 4551.769
348.0896, 4557.591
348.5717, 4559.608
349.0538, 4557.513
349.5359, 4554.175
350.0181, 4552.131
350.5002, 4550.508
350.9823, 4545.883
351.4644, 4533.926
351.9465, 4522.487
352.4286, 4518.222
352.9108, 4519.669
353.3929, 4519.179
353.8750, 4511.757
354.3571, 4501.505
354.8392, 4498.972
355.3214, 4506.981
355.8035, 4514.954
356.2856, 4520.658
356.7677, 4523.511
357.2498, 4521.263
357.7319, 4512.599
358.2141, 4502.438
358.6962, 4497.725
359.1783, 4499.317
359.6604, 4500.804
360.1425, 4502.354
360.6246, 4502.971
361.1068, 4500.698
361.5889, 4495.695
362.0710, 4491.445
362.5531, 4490.570
363.0352, 4493.296
363.5173, 4498.908
363.9995, 4515.016
364.4816, 4526.320
364.9637, 4520.786
365.4458, 4504.261
365.9279, 4491.893
366.4100, 4491.691
366.8922, 4500.592
367.3743, 4508.969
367.8564, 4516.174
368.3385, 4523.782
368.8206, 4534.557
369.3027, 4544.736
369.7849, 4549.374
370.2670, 4547.204
370.7491, 4541.384
371.2312, 4535.948
371.7133, 4530.497
372.1954, 4527.083
372.6776, 4527.017
373.1597, 4527.727
373.6418, 4527.971
374.1239, 4527.565
374.6060, 4526.754
375.0881, 4525.816
375.5703, 4524.723
376.0524, 4521.974
376.5345, 4514.937
377.0166, 4509.312
377.4987, 4507.634
377.9808, 4507.850
378.4630, 4506.721
378.9451, 4502.751
379.4272, 4497.331
379.9093, 4493.870
380.3914, 4494.389
380.8735, 4493.477
381.3557, 4491.481
381.8378, 4487.792
382.3199, 4480.938
382.8020, 4471.276
383.2841, 4461.575
383.7662, 4455.264
384.2484, 4453.007
384.7305, 4449.172
385.2126, 4442.536
385.6947, 4435.338
386.1768, 4427.168
386.6589, 4419.013
387.1411, 4412.747
387.6232, 4409.767
388.1053, 4409.009
388.5874, 4406.867
389.0695, 4403.626
389.5516, 4398.260
390.0338, 4389.353
390.5159, 4379.183
390.9980, 4369.006
391.4801, 4359.225
391.9622, 4351.768
392.4443, 4350.606
392.9265, 4356.820
393.4086, 4358.968
393.8907, 4353.252
394.3728, 4345.159
394.8549, 4337.161
395.3370, 4329.490
395.8192, 4322.302
396.3013, 4315.618
396.7834, 4309.491
397.2655, 4303.875
397.7476, 4298.241
398.2297, 4294.536
398.7119, 4296.192
399.1940, 4299.631
399.6761, 4299.997
400.1582, 4295.300
400.6403, 4288.924
401.1224, 4283.717
401.6046, 4279.645
402.0867, 4277.386
402.5688, 4278.874
403.0509, 4280.234
403.5330, 4275.190
404.0151, 4263.471
404.4973, 4256.046
404.9794, 4261.801
405.4615, 4273.812
405.9436, 4280.501
406.4257, 4280.447
406.9078, 4275.602
407.3900, 4265.030
407.8721, 4250.382
408.3542, 4240.067
408.8363, 4237.820
409.3184, 4237.285
409.8005, 4234.397
410.2827, 4229.825
410.7648, 4226.231
411.2469, 4225.088
411.7290, 4224.996
412.2111, 4222.649
412.6932, 4217.394
413.1754, 4211.950
413.6575, 4206.816
414.1396, 4201.682
414.6217, 4196.797
415.1038, 4191.996
415.5859, 4185.567
416.0681, 4175.629
416.5502, 4161.829
417.0323, 4147.905
417.5144, 4131.627
417.9965, 4117.510
418.4786, 4108.093
418.9608, 4102.120
419.4429, 4097.061
419.9250, 4091.647
420.4071, 4086.185
420.8892, 4081.715
421.3713, 4081.857
421.8535, 4077.251
422.3356, 4062.848
422.8177, 4047.272
423.2998, 4037.774
423.7819, 4034.827
424.2640, 4033.561
424.7462, 4028.861
425.2283, 4020.401
425.7104, 4013.075
426.1925, 4008.335
426.6746, 4003.184
427.1567, 3995.832
427.6389, 3987.711
428.1210, 3981.319
428.6031, 3978.031
429.0852, 3976.273
429.5673, 3972.526
430.0494, 3965.774
430.5316, 3960.712
431.0137, 3960.064
431.4958, 3960.466
431.9779, 3959.710
432.4600, 3957.728
432.9421, 3956.162
433.4243, 3956.992
433.9064, 3959.439
434.3885, 3959.803
434.8706, 3957.020
435.3527, 3954.243
435.8348, 3954.445
436.3170, 3955.871
436.7991, 3955.341
437.2812, 3950.916
437.7633, 3945.923
438.2454, 3944.129
438.7275, 3944.934
439.2097, 3944.042
439.6918, 3939.358
440.1739, 3933.269
440.6560, 3928.872
441.1381, 3925.871
441.6202, 3925.333
442.1024, 3929.878
442.5845, 3935.777
443.0666, 3938.430
443.5487, 3937.569
444.0308, 3936.290
444.5129, 3937.056
444.9951, 3939.524
445.4772, 3940.360
445.9593, 3939.088
446.4414, 3937.036
446.9235, 3933.877
447.4056, 3930.402
447.8878, 3927.123
448.3699, 3924.285
448.8520, 3923.575
449.3341, 3928.584
449.8162, 3945.040
450.2983, 3950.215
450.7805, 3933.267
451.2626, 3916.801
451.7447, 3913.774
452.2268, 3921.416
452.7089, 3929.560
453.1910, 3931.268
453.6732, 3928.469
454.1553, 3929.940
454.6374, 3942.395
455.1195, 3947.286
455.6016, 3935.148
456.0837, 3919.486
456.5659, 3912.088
457.0480, 3914.834
457.5301, 3920.821
458.0122, 3922.416
458.4943, 3919.769
458.9764, 3920.980
459.4586, 3929.460
459.9407, 3937.042
460.4228, 3938.452
460.9049, 3936.327
461.3870, 3935.394
461.8691, 3937.663
462.3513, 3941.173
462.8334, 3943.082
463.3155, 3943.515
463.7976, 3946.402
464.2797, 3955.897
464.7618, 3964.735
465.2440, 3962.378
465.7261, 3948.711
466.2082, 3936.607
466.6903, 3928.574
467.1724, 3925.336
467.6545, 3930.750
468.1367, 3944.312
468.6188, 3955.098
469.1009, 3954.844
469.5830, 3946.070
470.0651, 3941.683
470.5472, 3945.002
471.0294, 3947.862
471.5115, 3946.214
471.9936, 3943.777
472.4757, 3945.950
472.9578, 3953.875
473.4399, 3963.686
473.9221, 3971.009
474.4042, 3975.826
474.8863, 3977.978
475.3684, 3975.821
475.8505, 3973.093
476.3326, 3970.769
476.8148, 3968.897
477.2969, 3967.204
477.7790, 3965.546
478.2611, 3964.372
478.7432, 3965.305
479.2253, 3970.323
479.7075, 3971.801
480.1896, 3963.302
480.6717, 3955.719
481.1538, 3956.095
481.6359, 3963.390
482.1180, 3971.185
482.6002, 3974.880
483.0823, 3976.020
483.5644, 3979.685
484.0465, 3987.110
484.5286, 3992.403
485.0107, 3991.349
485.4929, 3987.506
485.9750, 3985.169
486.4571, 3985.106
486.9392, 3984.765
487.4213, 3981.227
487.9034, 3976.481
488.3856, 3975.299
488.8677, 3978.663
489.3498, 3983.665
489.8319, 3988.286
490.3140, 3992.425
490.7961, 3995.649
491.2783, 3997.158
491.7604, 3998.641
492.2425, 4001.220
492.7246, 4004.272
493.2067, 4006.204
493.6888, 4006.449
494.1710, 4006.858
494.6531, 4010.658
495.1352, 4020.222
495.6173, 4025.530
496.0994, 4021.548
496.5815, 4018.818
497.0637, 4023.737
497.5458, 4033.836
498.0279, 4043.704
498.5100, 4050.537
498.9921, 4054.003
499.4742, 4052.385
499.9564, 4042.286
500.4385, 4035.721
500.9206, 4036.560
501.4027, 4039.622
501.8848, 4042.398
502.3669, 4044.586
502.8491, 4046.532
503.3312, 4048.833
503.8133, 4050.998
504.2954, 4050.753
504.7775, 4047.051
505.2596, 4046.203
505.7418, 4054.534
506.2239, 4065.537
506.7060, 4068.953
507.1881, 4062.107
507.6702, 4056.879
508.1523, 4060.585
508.6345, 4069.313
509.1166, 4076.789
509.5987, 4082.104
510.0808, 4086.718
510.5629, 4091.911
511.0450, 4097.498
511.5272, 4101.744
512.0093, 4104.468
512.4914, 4106.266
512.9735, 4107.603
513.4556, 4107.999
513.9377, 4106.136
514.4199, 4101.936
514.9020, 4097.858
515.3841, 4097.771
515.8662, 4103.173
516.3483, 4102.337
516.8304, 4087.101
517.3126, 4074.216
517.7947, 4069.662
518.2768, 4070.043
518.7589, 4070.251
519.2410, 4068.270
519.7231, 4065.427
520.2053, 4063.442
520.6874, 4062.331
521.1695, 4061.826
521.6516, 4061.749
522.1337, 4062.499
522.6158, 4064.290
523.0980, 4067.007
523.5801, 4070.521
524.0622, 4076.802
524.5443, 4081.860
525.0264, 4079.219
525.5085, 4070.547
525.9907, 4066.412
526.4728, 4071.631
526.9549, 4080.427
527.4370, 4084.046
527.9191, 4081.640
528.4012, 4080.285
528.8834, 4079.704
529.3655, 4081.245
529.8476, 4087.238
530.3297, 4096.263
530.8118, 4104.462
531.2939, 4109.781
531.7761, 4112.832
532.2582, 4115.085
532.7403, 4115.879
533.2224, 4116.972
533.7045, 4116.571
534.1866, 4117.911
534.6688, 4125.120
535.1509, 4136.011
535.6330, 4143.967
536.1151, 4144.099
536.5972, 4139.136
537.0793, 4136.249
537.5615, 4135.798
538.0436, 4136.022
538.5257, 4135.730
539.0078, 4136.640
539.4899, 4140.861
539.9720, 4148.281
540.4542, 4155.481
540.9363, 4160.701
541.4184, 4164.799
541.9005, 4169.006
542.3826, 4173.354
542.8647, 4177.462
543.3469, 4181.630
543.8290, 4184.932
544.3111, 4184.288
544.7932, 4176.779
545.2753, 4172.677
545.7574, 4177.021
546.2396, 4182.714
546.7217, 4183.103
547.2038, 4178.579
547.6859, 4173.905
548.1680, 4172.456
548.6501, 4173.448
549.1323, 4173.281
549.6144, 4169.908
550.0965, 4169.032
550.5786, 4172.759
551.0607, 4177.717
551.5428, 4182.410
552.0250, 4186.180
552.5071, 4187.694
552.9892, 4184.352
553.4713, 4178.586
553.9534, 4178.691
554.4355, 4186.360
554.9177, 4191.088
555.3998, 4186.279
555.8819, 4178.082
556.3640, 4176.063
556.8461, 4181.532
557.3282, 4183.252
557.8104, 4172.664
558.2925, 4158.474
558.7746, 4152.464
559.2567, 4154.183
559.7388, 4153.899
560.2209, 4145.330
560.7031, 4131.232
561.1852, 4120.399
561.6673, 4115.114
562.1494, 4109.914
562.6315, 4104.774
563.1136, 4099.674
563.5958, 4095.421
564.0779, 4091.317
564.5600, 4085.063
565.0421, 4074.540
565.5242, 4061.507
566.0063, 4051.877
566.4885, 4046.362
566.9706, 4042.297
567.4527, 4041.595
567.9348, 4040.265
568.4169, 4035.156
568.8990, 4026.526
569.3812, 4017.187
569.8633, 4007.064
570.3454, 3997.979
570.8275, 3994.467
571.3096, 3995.966
571.7917, 3993.517
572.2739, 3981.951
572.7560, 3966.653
573.2381, 3957.855
573.7202, 3957.906
574.2023, 3954.675
574.6844, 3942.423
575.1666, 3930.556
575.6487, 3927.048
576.1308, 3929.377
576.6129, 3929.965
577.0950, 3924.810
577.5771, 3916.210
578.0593, 3909.181
578.5414, 3904.291
579.0235, 3899.381
579.5056, 3891.673
579.9877, 3886.446
580.4698, 3889.116
580.9520, 3896.005
581.4341, 3898.120
581.9162, 3889.613
582.3983, 3878.450
582.8804, 3876.737
583.3625, 3883.367
583.8447, 3886.248
584.3268, 3881.701
584.8089, 3874.735
585.2910, 3870.604
585.7731, 3868.947
586.2552, 3865.872
586.7374, 3858.865
587.2195, 3852.680
587.7016, 3851.016
588.1837, 3851.567
588.6658, 3850.384
589.1479, 3846.261
589.6301, 3840.240
590.1122, 3832.898
590.5943, 3823.581
591.0764, 3819.480
591.5585, 3827.969
592.0406, 3833.050
592.5228, 3828.825
593.0049, 3820.175
593.4870, 3812.758
593.9691, 3808.016
594.4512, 3804.010
594.9333, 3799.164
595.4155, 3793.511
595.8976, 3786.655
596.3797, 3777.894
596.8618, 3771.146
597.3439, 3769.939
597.8260, 3771.950
598.3082, 3771.499
598.7903, 3768.346
599.2724, 3763.414
599.7545, 3754.266
600.2366, 3745.183
600.7188, 3741.869
601.2009, 3743.853
601.6830, 3745.908
602.1651, 3744.611
602.6472, 3740.419
603.1293, 3734.846
603.6115, 3726.553
604.0936, 3719.324
604.5757, 3713.302
605.0578, 3708.381
605.5399, 3705.344
606.0220, 3703.449
606.5042, 3700.466
606.9863, 3694.664
607.4684, 3687.902
607.9505, 3683.606
608.4326, 3681.684
608.9147, 3678.492
609.3969, 3672.562
609.8790, 3666.040
610.3611, 3661.037
610.8432, 3657.476
611.3253, 3655.057
611.8074, 3656.195
612.2896, 3655.928
612.7717, 3649.370
613.2538, 3640.273
613.7359, 3635.396
614.2180, 3636.589
614.7001, 3640.148
615.1823, 3641.823
615.6644, 3641.520
616.1465, 3641.183
616.6286, 3641.414
617.1107, 3640.703
617.5928, 3638.217
618.0750, 3634.931
618.5571, 3631.220
619.0392, 3627.301
619.5213, 3625.085
620.0034, 3628.207
620.4855, 3633.549
620.9677, 3633.302
621.4498, 3626.989
621.9319, 3620.683
622.4140, 3617.259
622.8961, 3615.805
623.3782, 3614.521
623.8604, 3613.487
624.3425, 3612.387
624.8246, 3610.087
625.3067, 3608.681
625.7888, 3611.319
626.2709, 3615.908
626.7531, 3617.051
627.2352, 3612.017
627.7173, 3604.144
628.1994, 3599.369
628.6815, 3598.012
629.1636, 3597.937
629.6458, 3600.388
630.1279, 3602.315
630.6100, 3601.914
631.0921, 3600.078
631.5742, 3598.362
632.0563, 3597.161
632.5385, 3596.097
633.0206, 3594.463
633.5027, 3592.897
633.9848, 3592.995
634.4669, 3594.958
634.9490, 3596.987
635.4312, 3597.771
635.9133, 3597.585
636.3954, 3597.694
636.8775, 3598.203
637.3596, 3598.917
637.8417, 3600.730
638.3239, 3602.020
638.8060, 3601.438
639.2881, 3599.243
639.7702, 3596.567
640.2523, 3594.042
640.7344, 3591.530
641.2166, 3588.953
641.6987, 3586.325
642.1808, 3582.777
642.6629, 3577.520
643.1450, 3572.247
643.6271, 3568.008
644.1093, 3564.884
644.5914, 3563.692
645.0735, 3566.037
645.5556, 3568.645
646.0377, 3571.415
646.5198, 3572.945
647.0020, 3569.858
647.4841, 3562.261
647.9662, 3555.438
648.4483, 3554.511
648.9304, 3558.333
649.4125, 3558.315
649.8947, 3551.040
650.3768, 3546.379
650.8589, 3548.111
651.3410, 3551.240
651.8231, 3552.882
652.3052, 3552.765
652.7874, 3551.237
653.2695, 3547.021
653.7516, 3542.852
654.2337, 3542.875
654.7158, 3546.156
655.1979, 3548.161
655.6801, 3547.398
656.1622, 3546.180
656.6443, 3546.863
657.1264, 3549.472
657.6085, 3553.725
658.0906, 3562.323
658.5728, 3568.969
659.0549, 3570.446
659.5370, 3570.342
660.0191, 3572.342
660.5012, 3576.995
660.9833, 3582.581
661.4655, 3587.667
661.9476, 3592.647
662.4297, 3598.359
662.9118, 3604.659
663.3939, 3612.817
663.8760, 3623.537
664.3582, 3635.868
664.8403, 3649.487
665.3224, 3664.220
665.8045, 3677.047
666.2866, 3684.618
666.7687, 3693.167
667.2509, 3706.090
667.7330, 3722.300
668.2151, 3740.442
668.6972, 3759.956
669.1793, 3779.366
669.6614, 3796.458
670.1436, 3811.890
670.6257, 3835.651
671.1078, 3873.155
671.5899, 3907.910
672.0720, 3932.674
672.5541, 3955.063
673.0363, 3980.430
673.5184, 4009.132
674.0005, 4040.435
674.4826, 4074.448
674.9647, 4110.916
675.4468, 4152.718
675.9290, 4196.964
676.4111, 4233.862
