##NAMES=Opal
##RRUFFID=R070627
##IDEAL CHEMISTRY=SiO_2_&#183;<i>n</i>H_2_O
##LOCALITY=Madagascar
##OWNER=RRUFF
##SOURCE=www.multicolour.com
##DESCRIPTION=Polished iridescent fragment, Opal-CT. There is probably some polymer filler included, based on X-ray diffraction pattern
##STATUS=The identification of this mineral is not yet confirmed.
##URL=rruff.info/R070627
124.8354, 6999.466
125.3175, 7187.534
125.7996, 7382.156
126.2818, 7583.012
126.7639, 7790.620
127.2460, 7986.356
127.7281, 8167.471
128.2102, 8330.898
128.6924, 8464.018
129.1745, 8556.904
129.6566, 8619.264
130.1387, 8673.967
130.6208, 8719.361
131.1029, 8764.625
131.5850, 8824.630
132.0672, 8899.584
132.5493, 8967.350
133.0314, 9014.668
133.5135, 9042.318
133.9956, 9080.133
134.4777, 9127.040
134.9599, 9185.451
135.4420, 9260.359
135.9241, 9352.891
136.4062, 9455.298
136.8883, 9559.868
137.3704, 9661.173
137.8526, 9791.163
138.3347, 9965.733
138.8168, 10171.91
139.2989, 10342.56
139.7810, 10462.54
140.2631, 10570.57
140.7453, 10703.07
141.2274, 10880.96
141.7095, 11034.11
142.1916, 11141.45
142.6737, 11198.15
143.1558, 11267.43
143.6380, 11359.38
144.1201, 11458.32
144.6022, 11545.05
145.0843, 11604.30
145.5664, 11562.92
146.0485, 11525.01
146.5307, 11507.40
147.0128, 11463.31
147.4949, 11380.16
147.9770, 11271.60
148.4591, 11174.32
148.9412, 11092.48
149.4234, 11018.62
149.9055, 10950.59
150.3876, 10884.51
150.8697, 10828.66
151.3518, 10789.67
151.8339, 10765.02
152.3161, 10736.70
152.7982, 10696.24
153.2803, 10655.34
153.7624, 10622.07
154.2445, 10550.20
154.7266, 10573.15
155.2087, 10584.04
155.6909, 10583.53
156.1730, 10537.46
156.6551, 10550.22
157.1372, 10539.41
157.6193, 10527.62
158.1014, 10548.66
158.5836, 10509.22
159.0657, 10529.74
159.5478, 10526.32
160.0299, 10533.86
160.5120, 10519.09
160.9941, 10536.99
161.4763, 10546.84
161.9584, 10525.87
162.4405, 10500.98
162.9226, 10492.48
163.4047, 10517.28
163.8868, 10540.51
164.3690, 10538.98
164.8511, 10518.28
165.3332, 10502.47
165.8153, 10511.71
166.2974, 10530.19
166.7795, 10541.08
167.2617, 10525.24
167.7438, 10510.10
168.2259, 10525.22
168.7080, 10569.42
169.1901, 10601.51
169.6722, 10577.79
170.1544, 10524.18
170.6365, 10483.82
171.1186, 10491.04
171.6007, 10512.97
172.0828, 10505.87
172.5649, 10461.24
173.0471, 10429.35
173.5292, 10476.01
174.0113, 10576.23
174.4934, 10661.47
174.9755, 10683.83
175.4576, 10669.74
175.9397, 10657.17
176.4219, 10648.40
176.9040, 10648.19
177.3861, 10665.86
177.8682, 10699.02
178.3503, 10735.06
178.8324, 10766.00
179.3146, 10793.08
179.7967, 10820.83
180.2788, 10851.31
180.7609, 10880.78
181.2430, 10898.61
181.7251, 10904.83
182.2073, 10914.87
182.6894, 10944.70
183.1715, 10990.87
183.6536, 11038.10
184.1357, 11088.09
184.6178, 11134.74
185.1000, 11157.44
185.5821, 11153.43
186.0642, 11148.43
186.5463, 11173.80
187.0284, 11226.88
187.5105, 11283.47
187.9927, 11336.93
188.4748, 11385.86
188.9569, 11423.38
189.4390, 11445.33
189.9211, 11465.90
190.4032, 11507.68
190.8854, 11570.65
191.3675, 11639.87
191.8496, 11717.10
192.3317, 11799.90
192.8138, 11849.76
193.2959, 11853.61
193.7781, 11838.33
194.2602, 11863.63
194.7423, 11934.17
195.2244, 12011.66
195.7065, 12077.06
196.1886, 12130.85
196.6708, 12160.82
197.1529, 12153.04
197.6350, 12127.06
198.1171, 12159.40
198.5992, 12265.29
199.0813, 12373.12
199.5634, 12408.35
200.0456, 12357.43
200.5277, 12352.06
201.0098, 12437.02
201.4919, 12595.38
201.9740, 12679.61
202.4561, 12665.05
202.9383, 12631.11
203.4204, 12668.24
203.9025, 12792.93
204.3846, 12915.67
204.8667, 13010.79
205.3488, 13078.44
205.8310, 13150.68
206.3131, 13225.82
206.7952, 13307.55
207.2773, 13403.58
207.7594, 13518.71
208.2415, 13633.42
208.7237, 13737.37
209.2058, 13826.55
209.6879, 13932.02
210.1700, 14062.12
210.6521, 14201.69
211.1342, 14316.24
211.6164, 14389.12
212.0985, 14474.65
212.5806, 14602.63
213.0627, 14789.53
213.5448, 14957.82
214.0269, 15100.42
214.5091, 15226.71
214.9912, 15364.12
215.4733, 15514.45
215.9554, 15669.30
216.4375, 15824.80
216.9196, 15976.69
217.4018, 16131.11
217.8839, 16284.01
218.3660, 16438.56
218.8481, 16621.04
219.3302, 16842.92
219.8123, 17073.31
220.2945, 17288.36
220.7766, 17481.29
221.2587, 17675.04
221.7408, 17874.50
222.2229, 18079.65
222.7050, 18263.87
223.1871, 18418.41
223.6693, 18564.62
224.1514, 18724.79
224.6335, 18910.46
225.1156, 19083.06
225.5977, 19228.14
226.0798, 19342.68
226.5620, 19512.18
227.0441, 19805.97
227.5262, 20085.81
228.0083, 20195.52
228.4904, 20043.32
228.9725, 19887.94
229.4547, 19790.39
229.9368, 19760.41
230.4189, 19717.19
230.9010, 19670.83
231.3831, 19603.11
231.8652, 19487.41
232.3474, 19304.64
232.8295, 19101.26
233.3116, 18884.75
233.7937, 18643.66
234.2758, 18437.48
234.7579, 18294.70
235.2401, 18172.74
235.7222, 17993.95
236.2043, 17727.33
236.6864, 17451.83
237.1685, 17193.38
237.6507, 16955.58
238.1328, 16724.06
238.6149, 16494.28
239.0970, 16272.44
239.5791, 16073.87
240.0612, 15908.06
240.5434, 15751.28
241.0255, 15594.73
241.5076, 15431.45
241.9897, 15282.47
242.4718, 15148.95
242.9539, 15029.89
243.4360, 14923.75
243.9182, 14838.91
244.4003, 14755.52
244.8824, 14664.30
245.3645, 14567.89
245.8466, 14458.85
246.3287, 14327.21
246.8109, 14182.24
247.2930, 14063.09
247.7751, 13977.34
248.2572, 13908.63
248.7393, 13848.56
249.2214, 13799.93
249.7036, 13754.30
250.1857, 13707.54
250.6678, 13662.45
251.1499, 13636.48
251.6320, 13642.51
252.1141, 13649.96
252.5963, 13634.64
253.0784, 13580.20
253.5605, 13541.47
254.0426, 13532.91
254.5247, 13548.97
255.0068, 13537.83
255.4890, 13483.92
255.9711, 13424.01
256.4532, 13387.70
256.9353, 13385.19
257.4174, 13381.91
257.8995, 13372.40
258.3817, 13357.42
258.8638, 13343.84
259.3459, 13329.30
259.8280, 13319.69
260.3101, 13323.89
260.7922, 13352.26
261.2744, 13364.36
261.7565, 13344.01
262.2386, 13293.05
262.7207, 13271.36
263.2028, 13287.87
263.6849, 13319.20
264.1671, 13344.81
264.6492, 13366.28
265.1313, 13374.20
265.6134, 13360.04
266.0955, 13324.95
266.5776, 13308.09
267.0598, 13312.74
267.5419, 13330.62
268.0240, 13360.25
268.5061, 13411.23
268.9882, 13436.42
269.4703, 13412.80
269.9525, 13341.95
270.4346, 13307.19
270.9167, 13320.18
271.3988, 13347.46
271.8809, 13347.86
272.3630, 13317.25
272.8452, 13281.92
273.3273, 13243.67
273.8094, 13203.81
274.2915, 13195.40
274.7736, 13228.04
275.2557, 13271.18
275.7379, 13284.30
276.2200, 13264.39
276.7021, 13236.05
277.1842, 13201.26
277.6663, 13161.74
278.1484, 13144.10
278.6305, 13153.17
279.1126, 13171.30
279.5948, 13171.62
280.0769, 13152.26
280.5590, 13140.53
281.0411, 13148.52
281.5232, 13174.50
282.0053, 13201.34
282.4875, 13230.24
282.9696, 13256.55
283.4517, 13270.60
283.9338, 13272.42
284.4159, 13279.04
284.8980, 13296.92
285.3802, 13325.64
285.8623, 13368.75
286.3444, 13432.81
286.8265, 13487.41
287.3086, 13483.54
287.7907, 13425.53
288.2729, 13366.77
288.7550, 13326.54
289.2371, 13303.85
289.7192, 13299.28
290.2013, 13315.27
290.6834, 13338.35
291.1656, 13340.37
291.6477, 13328.32
292.1298, 13343.98
292.6119, 13447.13
293.0940, 13590.37
293.5761, 13640.48
294.0583, 13583.28
294.5404, 13492.76
295.0225, 13447.16
295.5046, 13437.76
295.9867, 13431.38
296.4688, 13407.03
296.9510, 13376.37
297.4331, 13368.12
297.9152, 13386.24
298.3973, 13401.26
298.8794, 13370.40
299.3615, 13310.87
299.8437, 13268.87
300.3258, 13285.76
300.8079, 13325.44
301.2900, 13338.97
301.7721, 13322.82
302.2542, 13293.34
302.7364, 13253.71
303.2185, 13211.61
303.7006, 13182.22
304.1827, 13187.34
304.6648, 13201.03
305.1469, 13196.65
305.6291, 13172.10
306.1112, 13139.13
306.5933, 13092.56
307.0754, 13044.74
307.5575, 13017.28
308.0396, 13048.49
308.5218, 13084.55
309.0039, 13077.84
309.4860, 13023.32
309.9681, 12968.33
310.4502, 12928.24
310.9323, 12907.99
311.4145, 12914.32
311.8966, 13000.10
312.3787, 13074.65
312.8608, 13070.19
313.3429, 12977.74
313.8250, 12898.82
314.3072, 12887.11
314.7893, 12909.52
315.2714, 12927.20
315.7535, 12920.33
316.2356, 12912.03
316.7177, 12914.83
317.1999, 12930.18
317.6820, 12936.85
318.1641, 12931.22
318.6462, 12912.59
319.1283, 12880.32
319.6104, 12796.69
320.0926, 12735.72
320.5747, 12731.87
321.0568, 12789.48
321.5389, 12830.03
322.0210, 12821.77
322.5031, 12799.51
322.9852, 12793.15
323.4673, 12828.91
323.9495, 12857.05
324.4316, 12868.15
324.9137, 12861.86
325.3958, 12852.27
325.8779, 12823.81
326.3600, 12801.72
326.8422, 12804.92
327.3243, 12865.43
327.8064, 12909.86
328.2885, 12917.09
328.7706, 12889.74
329.2527, 12899.72
329.7349, 12982.74
330.2170, 13069.24
330.6991, 13108.62
331.1812, 13066.06
331.6633, 13040.56
332.1454, 13045.47
332.6276, 13076.95
333.1097, 13109.68
333.5918, 13142.45
334.0739, 13177.80
334.5560, 13220.76
335.0381, 13277.57
335.5203, 13319.81
336.0024, 13340.86
336.4845, 13346.27
336.9666, 13352.92
337.4487, 13357.48
337.9308, 13373.60
338.4130, 13415.87
338.8951, 13488.62
339.3772, 13549.27
339.8593, 13595.34
340.3414, 13626.22
340.8235, 13636.06
341.3057, 13622.26
341.7878, 13608.15
342.2699, 13604.73
342.7520, 13612.00
343.2341, 13636.94
343.7162, 13686.67
344.1984, 13740.90
344.6805, 13761.32
345.1626, 13749.70
345.6447, 13734.60
346.1268, 13726.42
346.6089, 13727.09
347.0911, 13746.13
347.5732, 13787.24
348.0553, 13835.26
348.5374, 13874.71
349.0195, 13905.70
349.5016, 13928.83
349.9838, 13934.09
350.4659, 13935.06
350.9480, 13952.55
351.4301, 13989.01
351.9122, 14035.62
352.3943, 14093.22
352.8765, 14155.17
353.3586, 14207.68
353.8407, 14243.24
354.3228, 14266.81
354.8049, 14276.26
355.2870, 14270.44
355.7692, 14271.11
356.2513, 14289.42
356.7334, 14323.05
357.2155, 14369.02
357.6976, 14450.16
358.1797, 14523.07
358.6619, 14555.83
359.1440, 14548.92
359.6261, 14553.00
360.1082, 14592.39
360.5903, 14650.33
361.0724, 14711.64
361.5546, 14784.05
362.0367, 14847.31
362.5188, 14896.94
363.0009, 14932.98
363.4830, 14957.12
363.9651, 14954.68
364.4473, 14949.84
364.9294, 14957.77
365.4115, 15001.77
365.8936, 15033.61
366.3757, 15036.40
366.8578, 15019.41
367.3399, 15028.37
367.8221, 15091.64
368.3042, 15155.80
368.7863, 15195.77
369.2684, 15189.24
369.7505, 15198.50
370.2326, 15232.56
370.7148, 15280.91
371.1969, 15315.39
371.6790, 15329.37
372.1611, 15341.27
372.6432, 15357.91
373.1253, 15378.66
373.6075, 15407.40
374.0896, 15447.77
374.5717, 15491.37
375.0538, 15523.69
375.5359, 15542.64
376.0180, 15559.18
376.5002, 15577.86
376.9823, 15598.05
377.4644, 15614.41
377.9465, 15626.33
378.4286, 15634.90
378.9107, 15640.67
379.3929, 15643.75
379.8750, 15645.97
380.3571, 15644.26
380.8392, 15643.20
381.3213, 15658.94
381.8034, 15692.40
382.2856, 15727.79
382.7677, 15749.16
383.2498, 15761.04
383.7319, 15775.22
384.2140, 15794.65
384.6961, 15818.63
385.1783, 15847.89
385.6604, 15882.12
386.1425, 15917.56
386.6246, 15942.37
387.1067, 15970.81
387.5888, 16023.95
388.0710, 16122.60
388.5531, 16221.61
389.0352, 16285.06
389.5173, 16322.22
389.9994, 16360.60
390.4815, 16395.95
390.9637, 16448.37
391.4458, 16538.26
391.9279, 16686.46
392.4100, 16824.01
392.8921, 16911.45
393.3742, 16972.68
393.8564, 17049.19
394.3385, 17169.15
394.8206, 17290.53
395.3027, 17390.21
395.7848, 17452.06
396.2669, 17549.46
396.7491, 17722.25
397.2312, 17921.42
397.7133, 18090.12
398.1954, 18176.40
398.6775, 18295.70
399.1596, 18485.79
399.6418, 18750.04
400.1239, 18965.63
400.6060, 19107.28
401.0881, 19229.80
401.5702, 19376.11
402.0523, 19544.86
402.5345, 19740.02
403.0166, 19970.94
403.4987, 20227.54
403.9808, 20466.58
404.4629, 20682.68
404.9450, 20890.09
405.4272, 21088.98
405.9093, 21279.13
406.3914, 21496.53
406.8735, 21747.22
407.3556, 22018.55
407.8377, 22292.87
408.3199, 22570.42
408.8020, 22834.78
409.2841, 23076.08
409.7662, 23300.32
410.2483, 23518.50
410.7304, 23729.34
411.2126, 23941.90
411.6946, 24180.06
412.1768, 24427.92
412.6589, 24650.47
413.1410, 24815.94
413.6231, 24956.24
414.1052, 25119.05
414.5873, 25302.70
415.0695, 25437.50
415.5516, 25453.70
416.0337, 25402.66
416.5158, 25343.24
416.9979, 25330.13
417.4800, 25276.73
417.9622, 25138.16
418.4443, 24923.24
418.9264, 24669.50
419.4085, 24368.78
419.8906, 24048.35
420.3727, 23729.67
420.8549, 23431.11
421.3370, 23102.12
421.8191, 22713.03
422.3012, 22287.25
422.7833, 21895.68
423.2654, 21567.88
423.7476, 21240.99
424.2297, 20892.28
424.7118, 20511.50
425.1939, 20149.69
425.6760, 19810.52
426.1581, 19492.28
426.6403, 19183.80
427.1224, 18885.91
427.6045, 18602.55
428.0866, 18338.97
428.5687, 18091.76
429.0508, 17841.97
429.5330, 17584.85
430.0151, 17339.28
430.4972, 17116.22
430.9793, 16916.48
431.4614, 16744.97
431.9435, 16615.86
432.4257, 16501.47
432.9078, 16338.08
433.3899, 16128.30
433.8720, 15914.30
434.3541, 15724.01
434.8362, 15550.44
435.3184, 15381.08
435.8005, 15213.87
436.2826, 15053.16
436.7647, 14904.93
437.2468, 14766.24
437.7289, 14632.57
438.2111, 14493.41
438.6932, 14362.97
439.1753, 14258.15
439.6574, 14180.72
440.1395, 14100.79
440.6216, 14005.79
441.1038, 13899.05
441.5859, 13785.24
442.0680, 13636.20
442.5501, 13509.21
443.0322, 13433.08
443.5143, 13398.76
443.9965, 13348.98
444.4786, 13256.05
444.9607, 13159.09
445.4428, 13077.56
445.9249, 13029.39
446.4070, 12967.96
446.8892, 12884.29
447.3713, 12790.79
447.8534, 12715.05
448.3355, 12667.99
448.8176, 12618.19
449.2997, 12551.24
449.7819, 12465.51
450.2640, 12396.67
450.7461, 12349.60
451.2282, 12307.90
451.7103, 12250.11
452.1924, 12175.07
452.6746, 12108.64
453.1567, 12055.26
453.6388, 12015.34
454.1209, 11997.41
454.6030, 12000.79
455.0851, 11997.07
455.5673, 11955.18
456.0494, 11890.91
456.5315, 11839.72
457.0136, 11810.59
457.4957, 11788.41
457.9778, 11762.67
458.4599, 11732.05
458.9420, 11692.33
459.4242, 11625.34
459.9063, 11559.69
460.3884, 11524.66
460.8705, 11526.34
461.3526, 11519.00
461.8347, 11472.49
462.3169, 11410.50
462.7990, 11356.95
463.2811, 11315.48
463.7632, 11286.48
464.2453, 11277.87
464.7274, 11286.73
465.2096, 11283.06
465.6917, 11255.61
466.1738, 11222.81
466.6559, 11193.69
467.1380, 11173.67
467.6201, 11144.67
468.1023, 11095.07
468.5844, 11042.88
469.0665, 11030.95
469.5486, 11075.35
470.0307, 11109.28
470.5128, 11105.26
470.9950, 11065.58
471.4771, 11031.83
471.9592, 11004.88
472.4413, 10980.23
472.9234, 10950.31
473.4055, 10917.15
473.8877, 10895.14
474.3698, 10894.04
474.8519, 10899.04
475.3340, 10882.08
475.8161, 10846.44
476.2982, 10813.59
476.7804, 10800.04
477.2625, 10795.90
477.7446, 10788.16
478.2267, 10773.53
478.7088, 10761.15
479.1909, 10757.82
479.6731, 10760.39
480.1552, 10763.91
480.6373, 10779.56
481.1194, 10783.67
481.6015, 10759.54
482.0836, 10706.30
482.5658, 10660.66
483.0479, 10626.90
483.5300, 10604.70
484.0121, 10594.14
484.4942, 10609.05
484.9763, 10616.19
485.4585, 10617.21
485.9406, 10609.53
486.4227, 10579.60
486.9048, 10508.36
487.3869, 10456.43
487.8690, 10456.10
488.3512, 10512.25
488.8333, 10552.61
489.3154, 10574.22
489.7975, 10587.07
490.2796, 10613.17
490.7617, 10649.32
491.2439, 10647.05
491.7260, 10576.99
492.2081, 10473.35
492.6902, 10394.42
493.1723, 10341.21
493.6544, 10310.50
494.1366, 10315.73
494.6187, 10337.47
495.1008, 10348.74
495.5829, 10343.64
496.0650, 10334.19
496.5471, 10321.69
497.0293, 10311.70
497.5114, 10313.38
497.9935, 10357.94
498.4756, 10389.90
498.9577, 10374.27
499.4398, 10308.40
499.9220, 10261.07
500.4041, 10261.44
500.8862, 10273.76
501.3683, 10271.77
501.8504, 10228.05
502.3325, 10213.01
502.8146, 10250.57
503.2968, 10313.17
503.7789, 10325.54
504.2610, 10267.78
504.7431, 10207.61
505.2252, 10168.99
505.7073, 10151.72
506.1895, 10162.21
506.6716, 10208.13
507.1537, 10254.50
507.6358, 10256.86
508.1179, 10222.06
508.6000, 10193.38
509.0822, 10182.88
509.5643, 10183.03
510.0464, 10183.14
510.5285, 10183.60
511.0106, 10186.63
511.4927, 10199.71
511.9749, 10212.78
512.4570, 10213.10
512.9391, 10196.46
513.4212, 10180.43
513.9033, 10167.19
514.3854, 10162.31
514.8676, 10173.02
515.3497, 10234.85
515.8318, 10278.06
516.3139, 10275.47
516.7960, 10229.92
517.2781, 10190.13
517.7603, 10152.84
518.2424, 10126.63
518.7245, 10115.98
519.2066, 10123.80
519.6887, 10143.37
520.1708, 10186.50
520.6530, 10229.61
521.1351, 10226.06
521.6172, 10168.63
522.0993, 10116.83
522.5814, 10087.26
523.0635, 10078.68
523.5457, 10096.09
524.0278, 10140.50
524.5099, 10176.92
524.9920, 10164.63
525.4741, 10124.41
525.9562, 10101.64
526.4384, 10109.92
526.9205, 10123.58
527.4026, 10115.88
527.8847, 10096.10
528.3668, 10083.78
528.8489, 10098.17
529.3311, 10114.03
529.8132, 10114.11
530.2953, 10097.32
530.7774, 10087.63
531.2595, 10101.99
531.7416, 10119.30
532.2238, 10124.29
532.7059, 10101.87
533.1880, 10085.96
533.6701, 10076.72
534.1522, 10074.34
534.6343, 10081.38
535.1165, 10103.70
535.5986, 10121.81
536.0807, 10129.61
536.5628, 10127.35
537.0449, 10114.62
537.5270, 10088.99
538.0092, 10064.63
538.4913, 10056.36
538.9734, 10061.43
539.4555, 10068.36
539.9376, 10076.29
540.4197, 10082.27
540.9019, 10079.21
541.3840, 10070.50
541.8661, 10066.66
542.3482, 10080.47
542.8303, 10096.03
543.3124, 10100.08
543.7946, 10091.23
544.2767, 10080.51
544.7588, 10062.32
545.2409, 10049.36
545.7230, 10052.07
546.2051, 10103.72
546.6873, 10132.46
547.1694, 10115.21
547.6515, 10071.64
548.1336, 10049.59
548.6157, 10056.02
549.0978, 10072.89
549.5800, 10101.24
550.0621, 10141.85
550.5442, 10150.18
551.0263, 10119.91
551.5084, 10079.16
551.9905, 10051.05
552.4727, 10035.91
552.9548, 10034.78
553.4369, 10052.54
553.9190, 10075.80
554.4011, 10085.20
554.8832, 10083.39
555.3654, 10079.79
555.8475, 10077.19
556.3296, 10076.13
556.8117, 10078.53
557.2938, 10084.24
557.7759, 10086.35
558.2581, 10076.84
558.7402, 10064.44
559.2223, 10055.85
559.7044, 10040.81
560.1865, 10044.25
560.6686, 10088.08
561.1508, 10149.71
561.6329, 10181.58
562.1150, 10168.87
562.5971, 10151.29
563.0792, 10138.52
563.5613, 10130.67
564.0435, 10133.12
564.5256, 10149.32
565.0077, 10164.24
565.4898, 10164.63
565.9719, 10151.92
566.4540, 10134.09
566.9362, 10109.38
567.4183, 10088.27
567.9004, 10092.65
568.3824, 10113.56
568.8646, 10125.43
569.3467, 10102.04
569.8288, 10075.01
570.3109, 10070.35
570.7930, 10087.32
571.2751, 10110.85
571.7573, 10144.06
572.2394, 10174.49
572.7215, 10193.13
573.2036, 10194.02
573.6857, 10191.63
574.1678, 10181.60
574.6500, 10171.23
575.1321, 10173.24
575.6142, 10201.58
576.0963, 10212.06
576.5784, 10186.63
577.0605, 10134.94
577.5427, 10112.53
578.0248, 10122.91
578.5069, 10139.98
578.9890, 10144.23
579.4711, 10139.97
579.9532, 10148.66
580.4354, 10174.34
580.9175, 10197.67
581.3996, 10188.75
581.8817, 10164.45
582.3638, 10156.85
582.8459, 10197.66
583.3281, 10237.76
583.8102, 10247.59
584.2923, 10231.54
584.7744, 10203.82
585.2565, 10148.52
585.7386, 10100.37
586.2208, 10076.38
586.7029, 10083.40
587.1850, 10093.43
587.6671, 10107.35
588.1492, 10123.30
588.6313, 10141.02
589.1135, 10162.96
589.5956, 10175.32
590.0777, 10171.95
590.5598, 10162.77
591.0419, 10173.11
591.5240, 10202.03
592.0062, 10227.16
592.4883, 10237.60
592.9704, 10236.76
593.4525, 10225.58
593.9346, 10204.88
594.4167, 10193.52
594.8989, 10222.51
595.3810, 10259.98
595.8631, 10268.18
596.3452, 10222.96
596.8273, 10187.07
597.3094, 10191.93
597.7916, 10219.05
598.2737, 10239.54
598.7558, 10248.81
599.2379, 10251.04
599.7200, 10243.02
600.2021, 10227.04
600.6843, 10220.46
601.1664, 10223.93
601.6485, 10235.66
602.1306, 10264.09
602.6127, 10309.32
603.0948, 10313.10
603.5770, 10266.90
604.0591, 10214.40
604.5412, 10206.67
605.0233, 10233.05
605.5054, 10264.72
605.9875, 10301.46
606.4697, 10328.65
606.9518, 10321.20
607.4339, 10292.08
607.9160, 10275.37
608.3981, 10308.18
608.8802, 10338.01
609.3624, 10329.33
609.8445, 10274.96
610.3266, 10244.83
610.8087, 10274.22
611.2908, 10309.01
611.7729, 10314.99
612.2551, 10276.19
612.7372, 10251.35
613.2193, 10244.57
613.7014, 10250.29
614.1835, 10263.73
614.6656, 10285.43
615.1478, 10299.84
615.6299, 10296.63
616.1120, 10288.26
616.5941, 10308.42
617.0762, 10351.53
617.5583, 10381.06
618.0405, 10356.20
618.5226, 10316.43
619.0047, 10303.99
619.4868, 10326.38
619.9689, 10345.97
620.4510, 10346.41
620.9332, 10336.24
621.4153, 10323.17
621.8974, 10289.84
622.3795, 10278.45
