##NAMES=Opal
##RRUFFID=R060650
##IDEAL CHEMISTRY=SiO_2_&#183;<i>n</i>H_2_O
##LOCALITY=Idaho, USA
##OWNER=RRUFF
##SOURCE=Gemological Institute of America
##DESCRIPTION=Orange-brown glassy fragment, variety is opal-CT, based on its X-ray diffraction pattern
##STATUS=The identification of this mineral has been confirmed by X-ray diffraction and chemical analysis
##URL=rruff.info/R060650
##MEASURED CHEMISTRY=Si_1.00_O_2_ Â· 0.18H_2_O
150.931, 18367.721
151.413, 18405.131
151.895, 18442.770
152.377, 18491.039
152.859, 18556.740
153.342, 18695.090
153.824, 18798.500
154.306, 18834.609
154.788, 18793.381
155.270, 18767.789
155.752, 18776.439
156.234, 18805.910
156.716, 18840.631
157.198, 18875.109
157.680, 18916.920
158.163, 18971.010
158.645, 19043.029
159.127, 19110.141
159.609, 19146.100
160.091, 19172.949
160.573, 19231.789
161.055, 19240.650
161.538, 19345.891
162.020, 19399.373
162.502, 19495.148
162.984, 19580.658
163.466, 19656.453
163.948, 19693.438
164.430, 19780.553
164.912, 19852.199
165.394, 19851.609
165.876, 19864.721
166.359, 19842.580
166.841, 19831.199
167.323, 19869.449
167.805, 19951.631
168.287, 20027.529
168.769, 20067.789
169.251, 20084.869
169.733, 20093.920
170.216, 20087.850
170.698, 20085.039
171.180, 20104.080
171.662, 20146.320
172.144, 20191.369
172.626, 20224.520
173.108, 20250.131
173.590, 20276.721
174.072, 20311.650
174.555, 20347.820
175.037, 20372.869
175.519, 20382.670
176.001, 20399.631
176.483, 20454.090
176.965, 20535.609
177.447, 20611.150
177.929, 20653.590
178.412, 20680.029
178.894, 20718.869
179.376, 20775.170
179.858, 20839.311
180.340, 20907.391
180.822, 20976.471
181.304, 21030.900
181.786, 21039.811
182.268, 21025.520
182.751, 21048.119
183.233, 21133.010
183.715, 21240.641
184.197, 21300.080
184.679, 21312.910
185.161, 21315.561
185.643, 21332.949
186.125, 21363.580
186.607, 21404.199
187.090, 21458.590
187.572, 21519.000
188.054, 21570.500
188.536, 21612.699
189.018, 21643.119
189.500, 21649.230
189.982, 21634.830
190.464, 21633.391
190.947, 21660.029
191.429, 21708.539
191.911, 21757.539
192.393, 21810.471
192.875, 21849.990
193.357, 21842.961
193.839, 21789.750
194.321, 21750.740
194.803, 21760.119
195.286, 21812.260
195.768, 21834.480
196.250, 21819.520
196.732, 21793.080
197.214, 21790.070
197.696, 21811.449
198.178, 21852.369
198.661, 21922.410
199.143, 22022.510
199.625, 22097.480
200.107, 22144.270
200.589, 22169.400
201.071, 22179.340
201.553, 22168.961
202.035, 22168.430
202.517, 22196.109
202.999, 22254.150
203.482, 22317.609
203.964, 22389.711
204.446, 22461.570
204.928, 22504.189
205.410, 22507.670
205.892, 22510.080
206.374, 22536.119
206.857, 22588.869
207.339, 22645.580
207.821, 22708.000
208.303, 22771.430
208.785, 22814.881
209.267, 22833.520
209.749, 22843.721
210.231, 22840.430
210.713, 22841.881
211.195, 22892.605
211.678, 22931.367
212.160, 22958.812
212.642, 22941.049
213.124, 22981.664
213.606, 22998.883
214.088, 23015.141
214.570, 23063.975
215.052, 23052.781
215.535, 23101.105
216.017, 23125.666
216.499, 23161.100
216.981, 23172.992
217.463, 23192.154
217.945, 23234.867
218.427, 23264.547
218.909, 23273.727
219.391, 23309.852
219.874, 23297.836
220.356, 23328.064
220.838, 23376.525
221.320, 23386.891
221.802, 23423.445
222.284, 23450.025
222.766, 23431.275
223.248, 23491.361
223.731, 23517.357
224.213, 23508.342
224.695, 23565.725
225.177, 23566.051
225.659, 23591.240
226.141, 23671.789
226.623, 23743.471
227.105, 23782.420
227.587, 23777.820
228.070, 23788.820
228.552, 23819.461
229.034, 23862.551
229.516, 23904.590
229.998, 23940.279
230.480, 23982.539
230.962, 24039.449
231.444, 24121.449
231.926, 24181.141
232.409, 24209.270
232.891, 24218.439
233.373, 24235.289
233.855, 24266.350
234.337, 24295.150
234.819, 24315.100
235.301, 24322.471
235.783, 24330.609
236.266, 24334.830
236.748, 24341.750
237.230, 24367.689
237.712, 24419.789
238.194, 24482.010
238.676, 24552.609
239.158, 24656.039
239.640, 24711.381
240.122, 24694.199
240.605, 24633.410
241.087, 24611.930
241.569, 24642.270
242.051, 24695.029
242.533, 24759.119
243.015, 24846.660
243.497, 24918.240
243.980, 24962.471
244.462, 24990.090
244.944, 25041.039
245.426, 25127.869
245.908, 25219.039
246.390, 25298.689
246.872, 25364.340
247.354, 25418.311
247.836, 25452.480
248.318, 25473.461
248.801, 25511.090
249.283, 25579.711
249.765, 25643.680
250.247, 25680.301
250.729, 25673.820
251.211, 25677.160
251.693, 25698.369
252.176, 25733.600
252.658, 25762.770
253.140, 25784.619
253.622, 25805.359
254.104, 25831.580
254.586, 25872.410
255.068, 25898.471
255.550, 25903.381
256.032, 25892.230
256.514, 25888.260
256.997, 25896.410
257.479, 25904.760
257.961, 25900.510
258.443, 25865.949
258.925, 25865.910
259.407, 25919.789
259.889, 26012.971
260.371, 26070.461
260.854, 26071.070
261.336, 26068.811
261.818, 26103.750
262.300, 26191.510
262.782, 26267.189
263.264, 26321.750
263.746, 26358.119
264.228, 26388.730
264.711, 26411.029
265.193, 26431.961
265.675, 26457.301
266.157, 26488.590
266.639, 26517.721
267.121, 26542.730
267.603, 26564.760
268.085, 26588.811
268.567, 26615.471
269.050, 26643.760
269.532, 26674.301
270.014, 26709.141
270.496, 26738.109
270.978, 26756.900
271.460, 26769.721
271.942, 26793.650
272.424, 26831.039
272.906, 26874.340
273.389, 26924.840
273.871, 26987.520
274.353, 27022.609
274.835, 27010.410
275.317, 26971.670
275.799, 26988.410
276.281, 27072.369
276.763, 27170.801
277.246, 27240.039
277.728, 27275.520
278.210, 27333.029
278.692, 27430.961
279.174, 27549.600
279.656, 27620.961
280.138, 27635.480
280.620, 27648.230
281.103, 27711.109
281.585, 27824.779
282.067, 27901.250
282.549, 27910.801
283.031, 27889.211
283.513, 27945.721
283.995, 28089.461
284.477, 28228.730
284.959, 28288.680
285.441, 28275.180
285.924, 28268.490
286.406, 28277.391
286.888, 28303.330
287.370, 28362.039
287.852, 28455.490
288.334, 28533.830
288.816, 28540.961
289.298, 28492.859
289.781, 28489.039
290.263, 28552.141
290.745, 28652.471
291.227, 28742.721
291.709, 28823.070
292.191, 28884.590
292.673, 28915.850
293.155, 28922.631
293.638, 28924.180
294.120, 28920.141
294.602, 28917.590
295.084, 28930.340
295.566, 28957.020
296.048, 28984.680
296.530, 29013.100
297.012, 29037.539
297.494, 29038.949
297.977, 29006.160
298.459, 28976.330
298.941, 29014.221
299.423, 29105.039
299.905, 29179.051
300.387, 29172.551
300.869, 29128.580
301.351, 29121.180
301.833, 29164.080
302.316, 29224.820
302.798, 29269.480
303.280, 29302.391
303.762, 29339.061
304.244, 29398.221
304.726, 29459.619
305.208, 29491.660
305.690, 29484.480
306.173, 29475.119
306.655, 29504.340
307.137, 29555.141
307.619, 29591.090
308.101, 29580.250
308.583, 29555.020
309.065, 29545.131
309.547, 29554.971
310.030, 29571.600
310.512, 29599.689
310.994, 29628.189
311.476, 29638.170
311.958, 29609.801
312.440, 29569.490
312.922, 29532.330
313.404, 29499.619
313.886, 29470.660
314.369, 29442.711
314.851, 29418.789
315.333, 29403.580
315.815, 29408.760
316.297, 29414.320
316.779, 29407.961
317.261, 29388.859
317.743, 29374.939
318.225, 29383.381
318.708, 29396.779
319.190, 29397.600
319.672, 29373.760
320.154, 29344.801
320.636, 29311.850
321.118, 29275.711
321.600, 29252.359
322.082, 29252.500
322.565, 29263.051
323.047, 29273.680
323.529, 29284.230
324.011, 29291.840
324.493, 29289.619
324.975, 29279.170
325.457, 29282.320
325.939, 29320.061
326.422, 29359.230
326.904, 29380.311
327.386, 29375.279
327.868, 29358.869
328.350, 29310.109
328.832, 29242.359
329.314, 29226.680
329.796, 29309.961
330.278, 29403.320
330.760, 29463.830
331.243, 29478.779
331.725, 29482.471
332.207, 29469.350
332.689, 29446.330
333.171, 29432.539
333.653, 29425.400
334.135, 29431.910
334.617, 29463.391
335.100, 29547.891
335.582, 29574.920
336.064, 29521.619
336.546, 29428.189
337.028, 29373.471
337.510, 29367.029
337.992, 29374.660
338.474, 29384.020
338.957, 29394.250
339.439, 29407.711
339.921, 29421.051
340.403, 29441.211
340.885, 29492.570
341.367, 29584.900
341.849, 29634.740
342.331, 29594.270
342.813, 29476.080
343.296, 29403.090
343.778, 29381.301
344.260, 29382.760
344.742, 29376.119
345.224, 29363.180
345.706, 29365.131
346.188, 29401.910
346.670, 29455.100
347.152, 29461.320
347.635, 29418.971
348.117, 29374.461
348.599, 29376.461
349.081, 29411.439
349.563, 29432.711
350.045, 29422.080
350.527, 29396.609
351.009, 29381.420
351.491, 29374.961
351.974, 29371.990
352.456, 29368.590
352.938, 29365.250
353.420, 29363.170
353.902, 29362.180
354.384, 29362.490
354.866, 29378.900
355.349, 29400.801
355.831, 29393.609
356.313, 29302.189
356.795, 29192.150
357.277, 29133.680
357.759, 29151.199
358.241, 29171.619
358.723, 29146.980
359.205, 29093.410
359.688, 29039.641
360.170, 28991.789
360.652, 28951.750
361.134, 28924.420
361.616, 28912.590
362.098, 28894.051
362.580, 28843.000
363.062, 28785.891
363.544, 28752.869
364.027, 28786.170
364.509, 28810.721
364.991, 28801.789
365.473, 28757.340
365.955, 28702.230
366.437, 28634.160
366.919, 28560.080
367.401, 28486.270
367.884, 28379.811
368.366, 28311.939
368.848, 28320.670
369.330, 28391.051
369.812, 28407.020
370.294, 28332.471
370.776, 28236.750
371.258, 28155.930
371.741, 28086.080
372.223, 28037.660
372.705, 28020.900
373.187, 28023.160
373.669, 28007.381
374.151, 27960.789
374.633, 27919.100
375.115, 27902.170
375.597, 27919.221
376.079, 27909.689
376.562, 27866.711
377.044, 27805.141
377.526, 27743.711
378.008, 27679.029
378.490, 27633.561
378.972, 27625.641
379.454, 27648.670
379.936, 27648.680
380.419, 27626.820
380.901, 27579.609
381.383, 27482.641
381.865, 27345.020
382.347, 27246.670
382.829, 27221.570
383.311, 27241.881
383.793, 27255.680
384.276, 27262.801
384.758, 27253.539
385.240, 27199.961
385.722, 27125.689
386.204, 27083.240
386.686, 27094.061
387.168, 27119.820
387.650, 27115.131
388.132, 27087.801
388.615, 27067.609
389.097, 27086.039
389.579, 27111.340
390.061, 27109.369
390.543, 27071.051
391.025, 27022.490
391.507, 26977.090
391.989, 26933.051
392.471, 26887.721
392.954, 26826.850
393.436, 26776.180
393.918, 26754.289
394.400, 26764.641
394.882, 26775.391
395.364, 26763.240
395.846, 26754.131
396.328, 26771.189
396.810, 26876.240
397.293, 26947.260
397.775, 26950.510
398.257, 26891.221
398.739, 26825.029
399.221, 26729.449
399.703, 26647.250
400.185, 26600.600
400.668, 26620.279
401.150, 26625.500
401.632, 26606.150
402.114, 26573.410
402.596, 26558.180
403.078, 26579.410
403.560, 26584.820
404.042, 26543.490
404.524, 26441.949
405.007, 26395.180
405.489, 26424.119
405.971, 26475.990
406.453, 26473.770
406.935, 26408.520
407.417, 26352.670
407.899, 26327.260
408.381, 26327.900
408.863, 26339.141
409.346, 26362.230
409.828, 26385.430
410.310, 26402.070
410.792, 26411.080
411.274, 26405.539
411.756, 26379.500
412.238, 26346.211
412.720, 26323.070
413.203, 26310.211
413.685, 26306.660
414.167, 26325.350
414.649, 26348.461
415.131, 26341.801
415.613, 26292.811
416.095, 26254.100
416.577, 26292.510
417.060, 26368.330
417.542, 26410.760
418.024, 26348.580
418.506, 26272.289
418.988, 26252.490
419.470, 26290.330
419.952, 26303.311
420.434, 26222.020
420.916, 26118.471
421.398, 26053.529
421.881, 26094.480
422.363, 26120.010
422.845, 26090.641
423.327, 26020.289
423.809, 25970.539
424.291, 25977.619
424.773, 25983.730
425.255, 25962.801
425.738, 25896.930
426.220, 25842.740
426.702, 25801.160
427.184, 25771.711
427.666, 25755.270
428.148, 25763.881
428.630, 25760.840
429.112, 25732.471
429.595, 25678.100
430.077, 25626.789
430.559, 25574.500
431.041, 25533.080
431.523, 25523.211
432.005, 25547.990
432.487, 25542.961
432.969, 25486.650
433.451, 25402.850
433.934, 25346.289
434.416, 25316.939
434.898, 25304.811
435.380, 25320.561
435.862, 25348.920
436.344, 25344.330
436.826, 25298.850
437.308, 25238.420
437.790, 25181.230
438.273, 25130.520
438.755, 25095.020
439.237, 25078.131
439.719, 25077.830
440.201, 25099.961
440.683, 25143.029
441.165, 25180.301
441.647, 25201.990
442.129, 25206.939
442.612, 25193.260
443.094, 25150.869
443.576, 25101.961
444.058, 25043.250
444.540, 24982.160
445.022, 24940.350
445.504, 24971.600
445.987, 24982.811
446.469, 24920.680
446.951, 24725.160
447.433, 24609.141
447.915, 24629.199
448.397, 24704.020
448.879, 24738.180
449.361, 24715.359
449.843, 24679.230
450.326, 24630.090
450.808, 24571.189
451.290, 24538.779
451.772, 24541.830
452.254, 24549.369
452.736, 24538.811
453.218, 24508.789
453.700, 24476.029
454.182, 24443.820
454.665, 24406.359
455.147, 24348.330
455.629, 24270.770
456.111, 24199.770
456.593, 24150.570
457.075, 24117.619
457.557, 24085.920
458.039, 24054.400
458.522, 24035.410
459.004, 24057.881
459.486, 24098.070
459.968, 24111.430
460.450, 24071.270
460.932, 24015.600
461.414, 23971.211
461.896, 23936.480
462.379, 23904.211
462.861, 23880.381
463.343, 23851.471
463.825, 23801.699
464.307, 23714.891
464.789, 23652.510
465.271, 23652.480
465.753, 23680.350
466.235, 23690.199
466.717, 23651.939
467.200, 23619.221
467.682, 23609.029
468.164, 23620.381
468.646, 23614.359
469.128, 23579.010
469.610, 23538.789
470.092, 23508.010
470.574, 23487.180
471.057, 23474.449
471.539, 23474.109
472.021, 23476.631
472.503, 23457.420
472.985, 23411.311
473.467, 23376.381
473.949, 23374.490
474.431, 23398.789
474.914, 23408.641
475.396, 23403.369
475.878, 23393.240
476.360, 23398.270
476.842, 23407.939
477.324, 23386.051
477.806, 23306.910
478.288, 23221.789
478.770, 23195.939
479.253, 23215.869
479.735, 23234.570
480.217, 23212.461
480.699, 23187.080
481.181, 23194.340
481.663, 23242.910
482.145, 23289.789
482.627, 23315.619
483.109, 23328.080
483.592, 23335.100
484.074, 23314.779
484.556, 23312.461
485.038, 23358.430
485.520, 23441.090
486.002, 23474.811
486.484, 23408.680
486.966, 23340.779
487.448, 23319.449
487.931, 23380.189
488.413, 23383.510
488.895, 23304.730
489.377, 23195.180
489.859, 23134.699
490.341, 23135.859
490.823, 23124.100
491.306, 23071.949
491.788, 22994.029
492.270, 22960.029
492.752, 22973.439
493.234, 22976.410
493.716, 22901.609
494.198, 22778.600
494.680, 22709.330
495.162, 22713.820
495.645, 22741.330
496.127, 22745.631
496.609, 22729.891
497.091, 22701.900
497.573, 22648.010
498.055, 22595.551
498.537, 22571.471
499.019, 22573.561
499.501, 22568.340
499.984, 22519.551
500.466, 22470.820
500.948, 22456.811
501.430, 22511.260
501.912, 22557.061
502.394, 22586.400
502.876, 22597.789
503.358, 22586.551
503.841, 22519.070
504.323, 22472.760
504.805, 22475.590
505.287, 22529.461
505.769, 22550.830
506.251, 22525.199
506.733, 22492.551
507.215, 22486.029
507.698, 22508.570
508.180, 22523.930
508.662, 22527.920
509.144, 22523.170
509.626, 22509.230
510.108, 22487.551
510.590, 22475.189
511.072, 22492.730
511.554, 22521.670
512.036, 22522.740
512.519, 22496.820
513.001, 22468.840
513.483, 22460.529
513.965, 22460.850
514.447, 22453.939
514.929, 22427.820
515.411, 22409.961
515.893, 22419.400
516.375, 22446.939
516.858, 22474.260
517.340, 22496.680
517.822, 22516.141
518.304, 22529.631
518.786, 22534.881
519.268, 22553.480
519.750, 22603.289
520.232, 22651.490
520.715, 22676.340
521.197, 22672.100
521.679, 22655.010
522.161, 22616.930
522.643, 22573.900
523.125, 22561.740
523.607, 22584.910
524.089, 22612.820
524.571, 22636.609
525.054, 22655.689
525.536, 22664.279
526.018, 22661.971
526.500, 22657.449
526.982, 22663.949
527.464, 22672.961
527.946, 22662.240
528.429, 22620.490
528.911, 22577.760
529.393, 22562.660
529.875, 22567.240
530.357, 22575.439
530.839, 22589.270
531.321, 22597.109
531.803, 22588.029
532.286, 22562.660
532.768, 22545.131
533.250, 22554.260
533.732, 22564.779
534.214, 22560.561
534.696, 22525.529
535.178, 22502.641
535.660, 22501.061
536.142, 22507.600
536.625, 22498.811
537.107, 22466.189
537.589, 22443.020
538.071, 22440.750
538.553, 22455.381
539.035, 22464.221
539.517, 22466.119
539.999, 22471.150
540.481, 22485.141
540.964, 22507.920
541.446, 22545.801
541.928, 22604.109
542.410, 22651.859
542.892, 22640.570
543.374, 22594.869
543.856, 22564.240
544.338, 22579.279
544.820, 22606.779
545.303, 22624.980
545.785, 22635.779
546.267, 22648.141
546.749, 22672.061
547.231, 22693.189
547.713, 22703.990
548.195, 22702.680
548.677, 22694.949
549.159, 22688.090
549.642, 22671.609
550.124, 22628.619
550.606, 22524.020
551.088, 22474.820
551.570, 22520.230
552.052, 22622.381
552.534, 22656.330
553.016, 22610.369
553.499, 22565.320
553.981, 22572.689
554.463, 22617.391
554.945, 22619.381
555.427, 22575.801
555.909, 22529.539
556.391, 22519.221
556.873, 22535.070
557.356, 22564.119
557.838, 22620.600
558.320, 22653.820
558.802, 22592.461
559.284, 22480.779
559.766, 22408.131
560.248, 22431.160
560.730, 22481.471
561.213, 22541.561
561.695, 22610.391
562.177, 22653.051
562.659, 22627.061
563.141, 22603.580
563.623, 22624.000
564.105, 22731.990
564.587, 22779.711
565.069, 22743.881
565.552, 22672.830
566.034, 22636.789
566.516, 22637.971
566.998, 22651.730
567.480, 22677.711
567.962, 22707.189
568.444, 22711.279
568.926, 22692.010
569.408, 22677.270
569.891, 22696.910
570.373, 22727.529
570.855, 22728.990
571.337, 22696.000
571.819, 22666.350
572.301, 22679.119
572.783, 22704.301
573.265, 22707.711
573.747, 22648.881
574.230, 22608.480
574.712, 22623.740
575.194, 22673.381
575.676, 22704.230
576.158, 22701.641
576.640, 22692.109
577.122, 22679.211
577.604, 22663.170
578.086, 22659.240
578.569, 22672.910
579.051, 22687.320
579.533, 22692.340
580.015, 22688.260
580.497, 22668.990
580.979, 22629.789
581.461, 22590.910
581.943, 22579.199
582.426, 22590.039
582.908, 22609.520
583.390, 22641.180
583.872, 22669.760
584.354, 22672.869
584.836, 22657.211
585.318, 22646.801
585.800, 22653.311
586.282, 22667.990
586.765, 22639.029
587.247, 22678.213
587.729, 22700.854
588.211, 22707.842
588.693, 22652.299
589.175, 22677.504
589.657, 22670.348
590.140, 22661.865
590.622, 22698.436
591.104, 22651.988
591.586, 22687.842
592.068, 22690.844
592.550, 22708.881
593.032, 22694.359
593.514, 22689.893
593.996, 22690.439
594.479, 22726.039
594.961, 22755.070
595.443, 22739.340
595.925, 22705.801
596.407, 22697.330
596.889, 22720.711
597.371, 22743.539
597.853, 22740.400
598.335, 22728.080
598.818, 22724.391
599.300, 22743.881
599.782, 22760.740
600.264, 22763.680
600.746, 22760.510
601.228, 22771.020
601.710, 22816.240
602.192, 22842.480
602.674, 22827.859
603.157, 22776.840
603.639, 22751.740
604.121, 22756.869
604.603, 22770.449
605.085, 22776.551
605.567, 22777.381
606.049, 22783.699
606.531, 22794.971
607.013, 22819.580
607.496, 22889.230
607.978, 22975.580
608.460, 23022.301
608.942, 22993.270
609.424, 22949.051
609.906, 22915.561
610.388, 22896.490
610.870, 22901.061
611.353, 22973.811
611.835, 23029.689
612.317, 23026.881
612.799, 22963.711
613.281, 22930.170
613.763, 22938.480
614.245, 22960.770
614.727, 22986.711
615.209, 23021.330
615.692, 23034.359
616.174, 23023.869
616.656, 22998.070
617.138, 22956.971
617.620, 22905.760
618.102, 22870.449
618.584, 22851.100
619.067, 22861.801
619.549, 22934.859
620.031, 22887.631
620.513, 22953.764
620.995, 22992.379
621.477, 23004.955
621.959, 22913.504
622.441, 22956.383
622.923, 22945.428
623.406, 22932.266
623.888, 22994.051
624.370, 22917.730
624.852, 22978.328
625.334, 22974.260
625.816, 22972.580
626.298, 22986.240
626.780, 23008.580
627.263, 23041.211
627.745, 23066.010
628.227, 23080.080
628.709, 23086.789
629.191, 23092.350
629.673, 23095.840
630.155, 23092.730
630.637, 23075.961
631.119, 23055.881
631.602, 23046.529
632.084, 23044.840
632.566, 23035.801
633.048, 22995.711
633.530, 22959.580
634.012, 22952.980
634.494, 22986.119
634.976, 23004.619
635.458, 22997.420
635.941, 22978.090
636.423, 22953.131
636.905, 22916.449
637.387, 22891.250
637.869, 22878.631
638.351, 22876.689
638.833, 22885.461
639.315, 22904.010
639.797, 22922.461
640.280, 22939.490
640.762, 22952.250
641.244, 22948.449
641.726, 22934.471
642.208, 22933.699
642.690, 22979.859
643.172, 23028.600
643.654, 23046.410
644.137, 23032.770
644.619, 23015.090
645.101, 22979.170
645.583, 22959.869
646.065, 22986.750
646.547, 23095.570
