##NAMES=Opal
##RRUFFID=R060651
##IDEAL CHEMISTRY=SiO_2_&#183;<i>n</i>H_2_O
##LOCALITY=Mexico
##OWNER=RRUFF
##SOURCE=Gemological Institute of America
##DESCRIPTION=Orange-brown glassy fragment, variety is opal-CT, based on its X-ray diffraction pattern
##STATUS=The identification of this mineral has been confirmed by X-ray diffraction and chemical analysis
##URL=rruff.info/R060651
##MEASURED CHEMISTRY=Si_1.00_O_2_ Â· 0.31H_2_O
152.377, 10107.850
152.859, 10124.040
153.342, 10131.560
153.824, 10147.030
154.306, 10180.090
154.788, 10235.550
155.270, 10276.370
155.752, 10284.980
156.234, 10281.810
156.716, 10290.310
157.198, 10331.310
157.680, 10371.370
158.163, 10396.760
158.645, 10400.500
159.127, 10406.620
159.609, 10420.020
160.091, 10439.460
160.573, 10463.060
161.055, 10492.260
161.538, 10522.730
162.020, 10551.890
162.502, 10580.100
162.984, 10603.790
163.466, 10617.880
163.948, 10624.750
164.430, 10633.060
164.912, 10653.210
165.394, 10673.170
165.876, 10681.940
166.359, 10655.810
166.841, 10638.730
167.323, 10668.910
167.805, 10740.280
168.287, 10800.880
168.769, 10808.920
169.251, 10791.490
169.733, 10781.160
170.216, 10797.150
170.698, 10820.820
171.180, 10837.400
171.662, 10846.730
172.144, 10855.410
172.626, 10871.510
173.108, 10890.510
173.590, 10904.260
174.072, 10900.780
174.555, 10893.630
175.037, 10899.020
175.519, 10919.070
176.001, 10945.190
176.483, 10968.830
176.965, 10991.500
177.447, 11017.410
177.929, 11057.160
178.412, 11099.750
178.894, 11126.080
179.376, 11131.250
179.858, 11125.150
180.340, 11110.480
180.822, 11090.510
181.304, 11084.730
181.786, 11116.090
182.268, 11171.610
182.751, 11219.640
183.233, 11253.580
183.715, 11277.720
184.197, 11294.500
184.679, 11304.330
185.161, 11316.690
185.643, 11342.250
186.125, 11377.580
186.607, 11411.800
187.090, 11446.660
187.572, 11475.540
188.054, 11475.910
188.536, 11445.350
189.018, 11413.240
189.500, 11409.980
189.982, 11433.060
190.464, 11462.320
190.947, 11495.970
191.429, 11531.170
191.911, 11554.580
192.393, 11565.860
192.875, 11567.420
193.357, 11551.610
193.839, 11518.830
194.321, 11507.870
194.803, 11556.490
195.286, 11655.100
195.768, 11681.360
196.250, 11618.090
196.732, 11524.540
197.214, 11487.500
197.696, 11511.420
198.178, 11555.220
198.661, 11608.220
199.143, 11670.830
199.625, 11722.950
200.107, 11767.500
200.589, 11797.940
201.071, 11790.950
201.553, 11736.390
202.035, 11692.710
202.517, 11698.380
202.999, 11759.460
203.482, 11804.070
203.964, 11821.070
204.446, 11822.690
204.928, 11844.630
205.410, 11891.820
205.892, 11942.390
206.374, 11983.580
206.857, 12015.500
207.339, 12034.860
207.821, 12035.080
208.303, 12023.160
208.785, 12031.370
209.267, 12066.030
209.749, 12107.260
210.231, 12144.610
210.713, 12182.670
211.195, 12199.410
211.678, 12183.980
212.160, 12142.390
212.642, 12122.010
213.124, 12125.610
213.606, 12146.300
214.088, 12183.350
214.570, 12248.160
215.052, 12295.550
215.535, 12311.450
216.017, 12297.060
216.499, 12296.390
216.981, 12307.150
217.463, 12333.680
217.945, 12387.290
218.427, 12484.230
218.909, 12561.980
219.391, 12597.620
219.874, 12587.510
220.356, 12603.040
220.838, 12658.580
221.320, 12724.230
221.802, 12761.450
222.284, 12759.540
222.766, 12752.660
223.248, 12747.240
223.731, 12741.860
224.213, 12752.570
224.695, 12794.280
225.177, 12840.910
225.659, 12851.900
226.141, 12807.910
226.623, 12764.300
227.105, 12735.930
227.587, 12722.350
228.070, 12727.110
228.552, 12756.820
229.034, 12800.540
229.516, 12840.120
229.998, 12878.240
230.480, 12906.640
230.962, 12918.520
231.444, 12903.190
231.926, 12906.810
232.409, 12941.250
232.891, 12989.170
233.373, 13012.710
233.855, 12990.800
234.337, 12976.910
234.819, 12996.000
235.301, 13073.210
235.783, 13120.090
236.266, 13124.640
236.748, 13102.890
237.230, 13092.610
237.712, 13095.010
238.194, 13107.440
238.676, 13130.040
239.158, 13169.030
239.640, 13203.330
240.122, 13223.250
240.605, 13240.360
241.087, 13293.190
241.569, 13417.700
242.051, 13528.980
242.533, 13580.900
243.015, 13537.840
243.497, 13515.310
243.980, 13522.110
244.462, 13550.970
244.944, 13576.570
245.426, 13594.650
245.908, 13614.380
246.390, 13640.420
246.872, 13673.220
247.354, 13709.720
247.836, 13750.850
248.318, 13794.760
248.801, 13835.060
249.283, 13873.350
249.765, 13905.140
250.247, 13927.150
250.729, 13935.420
251.211, 13943.310
251.693, 13952.580
252.176, 13962.860
252.658, 13968.880
253.140, 13962.290
253.622, 13965.350
254.104, 13997.920
254.586, 14084.780
255.068, 14139.210
255.550, 14143.330
256.032, 14108.960
256.514, 14091.400
256.997, 14092.850
257.479, 14108.070
257.961, 14133.520
258.443, 14168.370
258.925, 14217.610
259.407, 14291.740
259.889, 14381.190
260.371, 14438.300
260.854, 14449.660
261.336, 14449.580
261.818, 14459.170
262.300, 14477.810
262.782, 14507.250
263.264, 14549.210
263.746, 14602.030
264.228, 14656.840
264.711, 14716.190
265.193, 14773.010
265.675, 14826.480
266.157, 14881.600
266.639, 14911.760
267.121, 14904.500
267.603, 14869.990
268.085, 14854.530
268.567, 14860.640
269.050, 14881.220
269.532, 14914.100
270.014, 14962.460
270.496, 15008.910
270.978, 15049.370
271.460, 15086.290
271.942, 15131.640
272.424, 15189.440
272.906, 15244.880
273.389, 15286.240
273.871, 15311.060
274.353, 15335.890
274.835, 15360.300
275.317, 15386.980
275.799, 15425.330
276.281, 15474.890
276.763, 15536.930
277.246, 15625.900
277.728, 15746.960
278.210, 15824.220
278.692, 15836.030
279.174, 15800.890
279.656, 15766.330
280.138, 15725.440
280.620, 15718.540
281.103, 15795.590
281.585, 15957.840
282.067, 16089.700
282.549, 16172.020
283.031, 16215.330
283.513, 16246.700
283.995, 16265.860
284.477, 16275.100
284.959, 16270.560
285.441, 16253.830
285.924, 16244.080
286.406, 16240.690
286.888, 16250.260
287.370, 16299.710
287.852, 16390.869
288.334, 16471.990
288.816, 16493.641
289.298, 16467.311
289.781, 16464.211
290.263, 16498.301
290.745, 16554.000
291.227, 16606.961
291.709, 16657.250
292.191, 16698.189
292.673, 16726.670
293.155, 16742.641
293.638, 16741.480
294.120, 16714.840
294.602, 16686.609
295.084, 16697.670
295.566, 16744.730
296.048, 16799.240
296.530, 16854.820
297.012, 16905.391
297.494, 16930.840
297.977, 16923.020
298.459, 16907.199
298.941, 16922.881
299.423, 16962.660
299.905, 16991.539
300.387, 16969.359
300.869, 16927.789
301.351, 16920.221
301.833, 16955.859
302.316, 17015.141
302.798, 16978.449
303.280, 17066.877
303.762, 17124.938
304.244, 17154.256
304.726, 17068.754
305.208, 17131.518
305.690, 17134.863
306.172, 17135.771
306.655, 17186.689
307.137, 17195.820
307.619, 17225.061
308.101, 17250.109
308.583, 17266.061
309.065, 17260.930
309.547, 17229.650
310.030, 17209.699
310.512, 17248.561
310.994, 17314.131
311.476, 17352.830
311.958, 17320.900
312.440, 17269.801
312.922, 17231.570
313.404, 17209.430
313.886, 17191.471
314.369, 17178.400
314.851, 17163.990
315.333, 17140.619
315.815, 17090.910
316.297, 17043.869
316.779, 17012.770
317.261, 16998.490
317.743, 16994.189
318.225, 17014.100
318.708, 17036.539
319.190, 17039.490
319.672, 16975.660
320.154, 16931.990
320.636, 16955.820
321.118, 16920.494
321.600, 16950.121
322.082, 16963.982
322.565, 16962.924
323.047, 16902.258
323.529, 16918.562
324.011, 16904.020
324.493, 16904.750
324.975, 16868.859
325.457, 16846.211
325.939, 16845.670
326.422, 16854.270
326.904, 16864.369
327.386, 16897.250
327.868, 16905.381
328.350, 16870.750
328.832, 16803.680
329.314, 16757.730
329.796, 16739.641
330.278, 16736.670
330.760, 16744.150
331.243, 16774.311
331.725, 16794.350
332.207, 16800.270
332.689, 16796.340
333.171, 16795.949
333.653, 16806.689
334.135, 16810.160
334.617, 16796.539
335.100, 16757.391
335.582, 16725.869
336.064, 16704.910
336.546, 16689.920
337.028, 16671.631
337.510, 16648.820
337.992, 16626.369
338.474, 16605.930
338.957, 16587.539
339.439, 16568.439
339.921, 16546.561
340.403, 16526.340
340.885, 16519.971
341.367, 16530.850
341.849, 16527.820
342.331, 16494.150
342.813, 16433.939
343.296, 16384.279
343.778, 16345.440
344.260, 16317.560
344.742, 16309.620
345.224, 16319.950
345.706, 16317.210
346.188, 16285.970
346.670, 16237.710
347.152, 16205.120
347.635, 16188.800
348.117, 16179.190
348.599, 16170.230
349.081, 16161.080
349.563, 16148.090
350.045, 16123.890
350.527, 16101.260
351.009, 16110.430
351.491, 16146.300
351.974, 16171.900
352.456, 16159.610
352.938, 16119.240
353.420, 16062.380
353.902, 15979.690
354.384, 15905.230
354.866, 15891.350
355.349, 15919.640
355.831, 15929.140
356.313, 15861.590
356.795, 15771.980
357.277, 15717.430
357.759, 15715.620
358.241, 15715.820
358.723, 15683.140
359.205, 15630.390
359.688, 15580.290
360.170, 15530.300
360.652, 15494.850
361.134, 15489.320
361.616, 15520.070
362.098, 15542.730
362.580, 15546.190
363.062, 15530.210
363.544, 15494.640
364.027, 15414.920
364.509, 15338.460
364.991, 15279.080
365.473, 15237.310
365.955, 15204.850
366.437, 15194.520
366.919, 15184.830
367.401, 15159.600
367.884, 15092.330
368.366, 15038.420
368.848, 15013.680
369.330, 15013.050
369.812, 14994.530
370.294, 14936.810
370.776, 14880.850
371.258, 14851.590
371.741, 14875.210
372.223, 14873.870
372.705, 14834.500
373.187, 14771.160
373.669, 14720.810
374.151, 14685.910
374.633, 14658.350
375.115, 14635.380
375.597, 14618.020
376.079, 14599.630
376.562, 14581.500
377.044, 14559.630
377.526, 14524.930
378.008, 14474.220
378.490, 14429.100
378.972, 14396.320
379.454, 14376.050
379.936, 14368.750
380.419, 14377.980
380.901, 14385.460
381.383, 14370.170
381.865, 14334.240
382.347, 14293.390
382.829, 14249.180
383.311, 14205.060
383.793, 14152.900
384.276, 14105.073
384.758, 14128.384
385.240, 14134.428
385.722, 14124.126
386.204, 14048.547
386.686, 14057.266
387.168, 14032.200
387.650, 14005.752
388.132, 14026.335
388.615, 13960.247
389.097, 13980.084
389.579, 13965.623
390.061, 13966.858
390.543, 13934.104
391.025, 13911.849
391.507, 13923.591
391.989, 13878.690
392.471, 13859.470
392.954, 13879.740
393.436, 13902.810
393.918, 13910.670
394.400, 13902.060
394.882, 13887.220
395.364, 13853.870
395.846, 13824.020
396.328, 13817.180
396.810, 13881.320
397.293, 13922.180
397.775, 13908.420
398.257, 13846.110
398.739, 13797.490
399.221, 13766.650
399.703, 13750.730
400.185, 13750.100
400.668, 13790.410
401.150, 13803.660
401.632, 13770.590
402.114, 13713.760
402.596, 13690.890
403.078, 13720.510
403.560, 13752.030
404.042, 13766.420
404.524, 13761.290
405.007, 13756.100
405.489, 13753.610
405.971, 13747.130
406.453, 13718.740
406.935, 13661.650
407.417, 13633.360
407.899, 13663.600
408.381, 13735.640
408.863, 13768.270
409.346, 13758.000
409.828, 13734.730
410.310, 13727.100
410.792, 13730.330
411.274, 13718.700
411.756, 13681.480
412.238, 13636.570
412.720, 13611.530
413.203, 13604.420
413.685, 13602.620
414.167, 13604.070
414.649, 13603.970
415.131, 13594.110
415.613, 13571.960
416.095, 13546.650
416.577, 13515.290
417.060, 13486.630
417.542, 13475.920
418.024, 13512.860
418.506, 13552.230
418.988, 13565.440
419.470, 13551.640
419.952, 13524.590
420.434, 13470.270
420.916, 13415.120
421.398, 13381.150
421.881, 13407.100
422.363, 13419.430
422.845, 13391.950
423.327, 13334.520
423.809, 13291.090
424.291, 13277.780
424.773, 13270.890
425.255, 13260.090
425.738, 13240.000
426.220, 13228.450
426.702, 13234.170
427.184, 13244.510
427.666, 13240.110
428.148, 13220.790
428.630, 13185.280
429.112, 13122.780
429.595, 13032.330
430.077, 12988.060
430.559, 13001.880
431.041, 13034.200
431.523, 13052.660
432.005, 13057.010
432.487, 13045.080
432.969, 13011.690
433.451, 12966.400
433.934, 12932.540
434.416, 12910.050
434.898, 12890.080
435.380, 12860.330
435.862, 12828.840
436.344, 12823.440
436.826, 12852.290
437.308, 12882.780
437.790, 12875.130
438.273, 12840.630
438.755, 12807.990
439.237, 12791.160
439.719, 12780.990
440.201, 12768.210
440.683, 12752.890
441.165, 12742.040
441.647, 12747.970
442.129, 12756.330
442.612, 12752.280
443.094, 12717.050
443.576, 12688.220
444.058, 12688.720
444.540, 12706.710
445.022, 12708.150
445.504, 12687.620
445.987, 12646.980
446.469, 12577.700
446.951, 12450.030
447.433, 12374.000
447.915, 12380.650
448.397, 12425.130
448.879, 12456.250
449.361, 12475.100
449.843, 12478.290
450.326, 12459.750
450.808, 12422.280
451.290, 12396.680
451.772, 12386.580
452.254, 12379.140
452.736, 12365.420
453.218, 12344.930
453.700, 12322.830
454.182, 12300.690
454.665, 12275.210
455.147, 12239.520
455.629, 12193.860
456.111, 12146.880
456.593, 12094.940
457.075, 12045.720
457.557, 12026.190
458.039, 12038.250
458.522, 12053.470
459.004, 12045.630
459.486, 12023.080
459.968, 12001.090
460.450, 11984.460
460.932, 11969.860
461.414, 11952.060
461.896, 11933.230
462.379, 11921.040
462.861, 11937.600
463.343, 11949.650
463.825, 11929.960
464.307, 11861.370
464.789, 11803.000
465.271, 11777.100
465.753, 11769.000
466.235, 11758.870
466.717, 11738.380
467.200, 11721.300
467.682, 11710.230
468.164, 11705.050
468.646, 11705.200
469.128, 11717.910
469.610, 11727.750
470.092, 11723.490
470.574, 11698.300
471.057, 11676.740
471.539, 11655.860
472.021, 11642.600
472.503, 11660.310
472.985, 11716.190
473.467, 11753.210
473.949, 11734.090
474.431, 11672.100
474.914, 11650.460
475.396, 11671.950
475.878, 11704.530
476.360, 11726.190
476.842, 11735.250
477.324, 11722.540
477.806, 11672.980
478.288, 11622.480
478.770, 11617.530
479.253, 11648.010
479.735, 11679.110
480.217, 11692.040
480.699, 11697.330
481.181, 11702.500
481.663, 11707.940
482.145, 11715.710
482.627, 11727.810
483.109, 11741.830
483.592, 11755.090
484.074, 11763.890
484.556, 11774.040
485.038, 11788.910
485.520, 11806.870
486.002, 11818.070
486.484, 11826.250
486.966, 11822.760
487.448, 11801.920
487.931, 11755.570
488.413, 11715.080
488.895, 11685.070
489.377, 11656.250
489.859, 11612.250
490.341, 11547.850
490.823, 11495.000
491.306, 11465.240
491.788, 11453.430
492.270, 11443.360
492.752, 11435.900
493.234, 11419.570
493.716, 11366.210
494.198, 11295.140
494.680, 11280.280
495.162, 11344.170
495.645, 11413.690
496.127, 11406.280
496.609, 11343.110
497.091, 11272.800
497.573, 11197.890
498.055, 11139.380
498.537, 11125.460
499.019, 11152.230
499.501, 11167.850
499.984, 11138.770
500.466, 11095.540
500.948, 11061.280
501.430, 11049.410
501.912, 11032.080
502.394, 10991.830
502.876, 10970.737
503.358, 10985.674
503.841, 10991.864
504.323, 10989.779
504.805, 10954.631
505.287, 10962.177
505.769, 10952.613
506.251, 10942.348
506.733, 10955.902
507.215, 10925.563
507.698, 10938.739
508.180, 10934.546
508.662, 10938.303
509.144, 10924.844
509.626, 10916.702
510.108, 10925.780
510.590, 10925.324
511.072, 10909.884
511.554, 10914.146
512.036, 10883.206
512.519, 10883.156
513.001, 10896.434
513.483, 10881.859
513.965, 10870.900
514.447, 10854.600
514.929, 10865.550
515.411, 10885.630
515.893, 10916.460
516.375, 10948.630
516.858, 10963.340
517.340, 10930.660
517.822, 10901.420
518.304, 10897.130
518.786, 10921.920
519.268, 10939.880
519.750, 10944.960
520.232, 10946.380
520.715, 10950.330
521.197, 10958.880
521.679, 10964.940
522.161, 10967.130
522.643, 10967.420
523.125, 10968.780
523.607, 10970.660
524.089, 10978.450
524.571, 11001.080
525.054, 11031.740
525.536, 11032.510
526.018, 11001.800
526.500, 10972.960
526.982, 10983.970
527.464, 11016.640
527.946, 11028.170
528.429, 11004.480
528.911, 10975.270
529.393, 10969.070
529.875, 10977.680
530.357, 10984.500
530.839, 10979.090
531.321, 10972.900
531.803, 10974.050
532.286, 10982.290
532.768, 10985.030
533.250, 10974.860
533.732, 10961.200
534.214, 10949.370
534.696, 10936.210
535.178, 10932.000
535.660, 10944.900
536.142, 10962.730
536.625, 10963.680
537.107, 10938.810
537.589, 10922.330
538.071, 10925.550
538.553, 10944.680
539.035, 10943.400
539.517, 10912.900
539.999, 10931.040
540.481, 10911.669
540.964, 10939.916
541.446, 10956.604
541.928, 10962.354
542.410, 10924.408
542.892, 10942.887
543.374, 10938.753
543.856, 10933.691
544.338, 10960.112
544.820, 10928.521
545.303, 10954.442
545.785, 10957.406
546.267, 10970.876
546.749, 10961.595
547.231, 10959.341
547.713, 10979.846
548.195, 10987.749
548.677, 10975.849
549.159, 10989.986
549.642, 10957.602
550.124, 10966.041
550.606, 10992.096
551.088, 10981.339
551.570, 10995.894
552.052, 11000.808
552.534, 10961.913
553.016, 10999.207
553.499, 11003.552
553.981, 10974.064
554.463, 11008.748
554.945, 10983.926
555.427, 10980.343
555.909, 10992.745
556.391, 10993.830
556.873, 10997.710
557.356, 11001.360
557.838, 10994.310
558.320, 10986.660
558.802, 10984.610
559.284, 10988.010
559.766, 10996.590
560.248, 11015.340
560.730, 11034.910
561.213, 11055.300
561.695, 11076.440
562.177, 11081.860
562.659, 11050.260
563.141, 11017.380
563.623, 11000.320
564.105, 11000.150
564.587, 11015.840
565.069, 11057.020
565.552, 11102.760
566.034, 11117.920
566.516, 11098.750
566.998, 11082.320
567.480, 11078.900
567.962, 11084.530
568.444, 11092.140
568.926, 11101.310
569.408, 11104.870
569.891, 11091.690
570.373, 11072.760
570.855, 11063.420
571.337, 11065.090
571.819, 11075.270
572.301, 11105.850
572.783, 11138.320
573.265, 11151.050
573.747, 11108.670
574.230, 11085.060
574.712, 11058.900
575.194, 11017.961
575.676, 11073.530
576.158, 11105.672
576.640, 11115.646
577.122, 11037.060
577.604, 11072.832
578.086, 11062.773
578.569, 11050.837
579.051, 11102.704
579.533, 11036.999
580.015, 11087.854
580.497, 11092.181
580.979, 11117.802
581.461, 11097.312
581.943, 11089.850
582.426, 11105.160
582.908, 11127.220
583.390, 11162.830
583.872, 11189.890
584.354, 11172.190
584.836, 11122.670
585.318, 11087.050
585.800, 11095.620
586.282, 11118.400
586.765, 11138.870
587.247, 11154.910
587.729, 11171.720
588.211, 11193.640
588.693, 11214.410
589.175, 11230.300
589.657, 11245.340
590.140, 11246.260
590.622, 11224.700
591.104, 11195.010
591.586, 11187.130
592.068, 11204.840
592.550, 11219.420
593.032, 11222.130
593.514, 11215.090
593.996, 11196.910
594.479, 11169.120
594.961, 11155.560
595.443, 11188.030
595.925, 11239.390
596.407, 11268.160
596.889, 11268.490
597.371, 11264.190
597.853, 11273.080
598.335, 11284.120
598.818, 11285.370
599.300, 11254.310
599.782, 11236.710
600.264, 11257.500
600.746, 11297.660
601.228, 11311.000
601.710, 11269.290
602.192, 11243.320
602.674, 11258.790
603.157, 11310.950
603.639, 11334.860
604.121, 11325.140
604.603, 11308.770
605.085, 11296.700
605.567, 11291.640
606.049, 11320.360
606.531, 11390.890
607.013, 11454.470
607.496, 11451.590
607.978, 11406.480
608.460, 11364.100
608.942, 11328.140
609.424, 11313.550
609.906, 11348.430
610.388, 11412.070
610.870, 11457.080
611.353, 11452.360
611.835, 11442.620
612.317, 11443.420
612.799, 11455.420
613.281, 11465.270
613.763, 11467.560
614.245, 11475.230
614.727, 11502.330
615.209, 11559.500
615.692, 11575.150
616.174, 11540.740
616.656, 11488.740
617.138, 11455.480
617.620, 11438.990
618.102, 11427.560
618.584, 11417.570
619.067, 11412.990
619.549, 11424.190
620.031, 11445.070
620.513, 11459.920
620.995, 11450.360
621.477, 11441.550
621.959, 11449.200
622.441, 11472.630
622.923, 11500.300
623.406, 11539.550
623.888, 11572.930
624.370, 11591.660
624.852, 11593.730
625.334, 11586.870
625.816, 11565.620
626.298, 11542.610
626.780, 11531.050
627.263, 11531.820
627.745, 11534.060
628.227, 11535.480
628.709, 11539.520
629.191, 11552.600
629.673, 11573.690
630.155, 11598.330
630.637, 11635.980
631.119, 11667.960
631.602, 11673.940
632.084, 11656.850
632.566, 11629.670
633.048, 11569.670
633.530, 11525.070
634.012, 11534.380
634.494, 11615.260
634.976, 11669.030
635.458, 11671.070
635.941, 11653.890
636.423, 11635.050
636.905, 11606.120
637.387, 11603.940
637.869, 11640.430
638.351, 11687.520
638.833, 11694.970
639.315, 11665.560
639.797, 11648.500
640.280, 11662.520
640.762, 11690.660
641.244, 11706.980
641.726, 11714.380
642.208, 11724.200
642.690, 11747.030
643.172, 11771.270
643.654, 11793.470
644.137, 11812.740
644.619, 11815.160
645.101, 11762.500
645.583, 11717.320
646.065, 11723.110
646.547, 11809.300
647.029, 11865.610
647.511, 11881.860
647.994, 11881.600
648.476, 11887.080
