##NAMES=Opal
##RRUFFID=R060653
##IDEAL CHEMISTRY=SiO_2_&#183;<i>n</i>H_2_O
##LOCALITY=Brazil
##OWNER=RRUFF
##SOURCE=Gemological Institute of America
##DESCRIPTION=Colorless to blue tinted glassy amorphous fragment, variety opal-A
##STATUS=The identification of this mineral has been confirmed by X-ray diffraction and chemical analysis
##URL=rruff.info/R060653
##MEASURED CHEMISTRY=(Si_0.99_Al_0.01_)_Σ=2_(O_1.99_(OH)_0.01_)_Σ=2_· 0.17H_2_O
149.484, 13752.360
149.967, 13763.060
150.449, 13806.230
150.931, 13880.680
151.413, 13943.210
151.895, 13979.200
152.377, 14012.100
152.859, 14057.960
153.342, 14171.590
153.824, 14246.190
154.306, 14248.690
154.788, 14168.360
155.270, 14102.370
155.752, 14064.560
156.234, 14047.460
156.716, 14041.970
157.198, 14055.360
157.680, 14073.140
158.163, 14092.320
158.645, 14115.520
159.127, 14130.000
159.609, 14118.980
160.091, 14096.740
160.573, 14089.820
161.055, 14109.160
161.538, 14143.320
162.020, 14189.910
162.502, 14266.850
162.984, 14322.100
163.466, 14314.090
163.948, 14260.910
164.430, 14223.110
164.912, 14242.420
165.394, 14282.490
165.876, 14313.290
166.359, 14318.490
166.841, 14320.680
167.323, 14336.540
167.805, 14364.290
168.287, 14386.710
168.769, 14401.890
169.251, 14404.220
169.733, 14386.910
170.216, 14318.120
170.698, 14248.250
171.180, 14216.490
171.662, 14224.090
172.144, 14256.990
172.626, 14341.140
173.108, 14441.920
173.590, 14496.790
174.072, 14429.850
174.555, 14322.750
175.037, 14271.690
175.519, 14288.940
176.001, 14327.240
176.483, 14347.290
176.965, 14352.130
177.447, 14350.740
177.929, 14345.090
178.412, 14336.910
178.894, 14327.730
179.376, 14316.030
179.858, 14307.720
180.340, 14311.380
180.822, 14325.930
181.304, 14344.690
181.786, 14364.220
182.268, 14384.600
182.751, 14407.460
183.233, 14436.580
183.715, 14463.290
184.197, 14463.930
184.679, 14439.490
185.161, 14422.760
185.643, 14448.920
186.125, 14507.780
186.607, 14560.460
187.090, 14603.150
187.572, 14629.340
188.054, 14610.560
188.536, 14542.840
189.018, 14476.590
189.500, 14468.300
189.982, 14512.100
190.464, 14559.560
190.947, 14601.170
191.429, 14634.810
191.911, 14647.910
192.393, 14638.840
192.875, 14617.120
193.357, 14582.620
193.839, 14536.010
194.321, 14513.870
194.803, 14559.040
195.286, 14659.830
195.768, 14663.460
196.250, 14545.380
196.732, 14390.250
197.214, 14325.910
197.696, 14360.490
198.178, 14417.190
198.661, 14466.850
199.143, 14509.580
199.625, 14552.110
200.107, 14600.890
200.589, 14642.200
201.071, 14638.060
201.553, 14577.260
202.035, 14524.510
202.517, 14521.880
202.999, 14575.800
203.482, 14610.430
203.964, 14615.700
204.446, 14601.530
204.928, 14591.660
205.410, 14582.730
205.892, 14586.950
206.374, 14620.630
206.857, 14693.010
207.339, 14738.270
207.821, 14741.740
208.303, 14713.830
208.785, 14701.160
209.267, 14710.200
209.749, 14720.330
210.231, 14713.400
210.713, 14683.060
211.195, 14665.050
211.678, 14672.160
212.160, 14699.440
212.642, 14699.490
213.124, 14662.990
213.606, 14617.260
214.088, 14586.140
214.570, 14572.190
215.052, 14565.320
215.535, 14564.320
216.017, 14569.060
216.499, 14577.900
216.981, 14594.120
217.463, 14609.050
217.945, 14608.000
218.427, 14574.050
218.909, 14566.340
219.391, 14609.160
219.874, 14706.970
220.356, 14766.220
220.838, 14774.010
221.320, 14755.590
221.802, 14741.100
222.284, 14733.930
222.766, 14723.760
223.248, 14705.100
223.731, 14674.490
224.213, 14661.500
224.695, 14673.160
225.177, 14697.500
225.659, 14718.480
226.141, 14738.020
226.623, 14751.050
227.105, 14754.690
227.587, 14746.390
228.070, 14739.890
228.552, 14735.010
229.034, 14731.640
229.516, 14729.240
229.998, 14725.010
230.480, 14725.560
230.962, 14733.140
231.444, 14748.320
231.926, 14767.860
232.409, 14793.140
232.891, 14821.790
233.373, 14851.630
233.855, 14892.870
234.337, 14919.200
234.819, 14917.540
235.301, 14871.430
235.783, 14838.780
236.266, 14822.060
236.748, 14818.300
237.230, 14821.530
237.712, 14838.090
238.194, 14852.890
238.676, 14854.050
239.158, 14814.550
239.640, 14827.620
240.122, 14928.920
240.605, 14911.383
241.087, 14960.428
241.569, 14993.309
242.051, 15010.896
242.533, 14967.388
243.015, 15002.772
243.497, 15006.540
243.980, 15009.015
244.462, 15055.503
244.944, 15020.881
245.426, 15066.672
245.908, 15080.363
246.390, 15108.748
246.872, 15105.318
247.354, 15111.714
247.836, 15149.933
248.318, 15170.531
248.801, 15163.438
249.283, 15192.758
249.765, 15157.024
250.247, 15178.373
250.729, 15224.350
251.211, 15218.857
251.693, 15248.755
252.176, 15265.178
252.658, 15220.342
253.140, 15282.034
253.622, 15297.657
254.104, 15265.977
254.586, 15324.020
255.068, 15298.862
255.550, 15303.400
256.032, 15330.289
256.514, 15333.879
256.997, 15374.201
257.479, 15379.136
257.961, 15380.912
258.443, 15396.483
258.925, 15372.955
259.407, 15421.964
259.889, 15421.425
260.371, 15445.516
260.854, 15475.188
261.336, 15462.114
261.818, 15474.790
262.300, 15478.760
262.782, 15487.040
263.264, 15494.440
263.746, 15501.510
264.228, 15511.160
264.711, 15523.170
265.193, 15537.820
265.675, 15557.290
266.157, 15584.630
266.639, 15605.000
267.121, 15615.100
267.603, 15616.860
268.085, 15619.690
268.567, 15626.160
269.050, 15628.740
269.532, 15617.880
270.014, 15587.840
270.496, 15573.820
270.978, 15586.060
271.460, 15617.170
271.942, 15636.840
272.424, 15643.580
272.906, 15643.450
273.389, 15639.340
273.871, 15630.420
274.353, 15622.360
274.835, 15611.780
275.317, 15604.140
275.799, 15625.280
276.281, 15682.570
276.763, 15742.510
277.246, 15779.840
277.728, 15792.780
278.210, 15797.790
278.692, 15787.080
279.174, 15774.840
279.656, 15774.930
280.138, 15765.100
280.620, 15755.855
281.103, 15803.262
281.585, 15836.915
282.067, 15857.556
282.549, 15826.209
283.031, 15861.994
283.513, 15870.878
283.995, 15878.657
284.477, 15923.890
284.959, 15900.104
285.441, 15944.743
285.924, 15962.069
286.406, 15991.897
286.888, 15994.655
287.370, 16005.060
287.852, 16042.140
288.334, 16074.190
288.816, 16067.770
289.298, 16032.650
289.781, 16032.390
290.263, 16087.070
290.745, 16163.240
291.227, 16196.480
291.709, 16188.200
292.191, 16168.070
292.673, 16152.160
293.155, 16139.690
293.638, 16126.920
294.120, 16111.390
294.602, 16099.610
295.084, 16104.870
295.566, 16125.640
296.048, 16148.350
296.530, 16166.690
297.012, 16181.340
297.494, 16193.190
297.977, 16202.760
298.459, 16210.560
298.941, 16214.770
299.423, 16217.180
299.905, 16224.350
300.387, 16240.610
300.869, 16264.150
301.351, 16287.380
301.833, 16280.917
302.316, 16336.719
302.798, 16377.406
303.280, 16403.791
303.762, 16373.044
304.244, 16416.074
304.726, 16429.535
305.208, 16441.785
305.690, 16495.197
306.172, 16472.756
306.655, 16525.521
307.137, 16548.264
307.619, 16584.744
308.101, 16585.330
308.583, 16583.539
309.065, 16592.670
309.547, 16615.061
310.030, 16634.820
310.512, 16637.891
310.994, 16632.100
311.476, 16630.061
311.958, 16637.840
312.440, 16651.141
312.922, 16672.740
313.404, 16704.369
313.886, 16723.080
314.369, 16707.170
314.851, 16673.801
315.333, 16645.520
315.815, 16624.490
316.297, 16615.090
316.779, 16617.881
317.261, 16632.750
317.743, 16664.830
318.225, 16740.920
318.708, 16825.789
319.190, 16883.061
319.672, 16891.551
320.154, 16883.529
320.636, 16861.439
321.118, 16826.311
321.600, 16801.400
322.082, 16792.330
322.565, 16795.461
323.047, 16807.920
323.529, 16843.000
324.011, 16871.900
324.493, 16884.600
324.975, 16882.721
325.457, 16887.400
325.939, 16902.760
326.422, 16923.641
326.904, 16947.029
327.386, 16983.369
327.868, 17008.961
328.350, 17013.250
328.832, 17002.340
329.314, 17008.760
329.796, 17052.529
330.278, 17095.711
330.760, 17117.680
331.243, 17088.471
331.725, 17091.039
332.207, 17148.910
332.689, 17237.990
333.171, 17283.711
333.653, 17264.670
334.135, 17234.980
334.617, 17215.301
335.100, 17201.930
335.582, 17212.859
336.064, 17262.240
336.546, 17326.119
337.028, 17349.859
337.510, 17312.961
337.992, 17290.840
338.474, 17322.859
338.957, 17418.529
339.439, 17475.570
339.921, 17479.990
340.403, 17468.070
340.885, 17436.061
341.367, 17500.215
341.849, 17541.025
342.331, 17559.748
342.813, 17490.223
343.296, 17534.654
343.778, 17533.414
344.260, 17530.303
344.742, 17590.770
345.224, 17534.080
345.706, 17593.537
346.188, 17606.635
346.670, 17640.949
347.152, 17629.312
347.635, 17631.871
348.117, 17680.391
348.599, 17703.461
349.081, 17663.180
349.563, 17690.510
350.045, 17727.381
350.527, 17771.881
351.009, 17829.449
351.491, 17896.430
351.974, 17945.561
352.456, 17945.900
352.938, 17917.430
353.420, 17892.920
353.902, 17877.211
354.384, 17870.359
354.866, 17876.631
355.349, 17893.260
355.831, 17911.080
356.313, 17926.420
356.795, 17940.539
357.277, 17956.480
357.759, 17977.811
358.241, 17958.461
358.723, 17999.723
359.205, 18026.273
359.688, 18038.900
360.170, 17995.906
360.652, 18024.736
361.134, 18024.781
361.616, 18023.646
362.098, 18062.586
362.580, 18027.682
363.062, 18065.984
363.544, 18075.064
364.027, 18097.520
364.509, 18091.012
364.991, 18093.449
365.473, 18124.859
365.955, 18140.229
366.437, 18130.387
366.919, 18153.691
367.401, 18130.980
367.884, 18162.461
368.366, 18190.539
368.848, 18210.820
369.330, 18224.141
369.812, 18233.980
370.294, 18213.291
370.776, 18264.455
371.258, 18298.180
371.741, 18315.398
372.223, 18266.678
372.705, 18303.104
373.187, 18305.406
373.669, 18306.311
374.151, 18354.723
374.633, 18315.594
375.115, 18358.590
375.597, 18404.930
376.079, 18453.270
376.562, 18510.869
377.044, 18560.240
377.526, 18565.920
378.008, 18520.420
378.490, 18479.010
378.972, 18460.211
379.454, 18463.029
379.936, 18481.949
380.419, 18521.480
380.901, 18557.490
381.383, 18557.631
381.865, 18526.641
382.347, 18500.570
382.829, 18490.590
383.311, 18491.811
383.793, 18492.039
384.276, 18491.770
384.758, 18498.211
385.240, 18520.010
385.722, 18552.061
386.204, 18584.400
386.686, 18614.869
387.168, 18643.131
387.650, 18672.279
388.132, 18699.609
388.615, 18717.500
389.097, 18718.439
389.579, 18708.471
390.061, 18688.230
390.543, 18651.801
391.025, 18629.580
391.507, 18649.840
391.989, 18695.881
392.471, 18740.439
392.954, 18786.689
393.436, 18818.930
393.918, 18826.090
394.400, 18806.930
394.882, 18783.600
395.364, 18755.449
395.846, 18731.260
396.328, 18718.680
396.810, 18735.090
397.293, 18746.900
397.775, 18738.029
398.257, 18712.410
398.739, 18709.760
399.221, 18753.830
399.703, 18805.080
400.185, 18845.090
400.668, 18879.221
401.150, 18891.789
401.632, 18872.311
402.114, 18833.131
402.596, 18802.529
403.078, 18774.850
403.560, 18766.570
404.042, 18791.510
404.524, 18858.250
405.007, 18900.090
405.489, 18913.160
405.971, 18907.869
406.453, 18892.170
406.935, 18862.869
407.417, 18795.129
407.899, 18892.010
408.381, 18948.928
408.863, 18968.035
409.346, 18836.078
409.828, 18899.188
410.310, 18884.125
410.792, 18865.855
411.274, 18956.422
411.756, 18846.436
412.238, 18935.275
412.720, 18944.748
413.203, 18990.545
413.685, 18957.686
414.167, 18949.119
414.649, 18952.660
415.131, 18999.301
415.613, 19053.480
416.095, 19097.801
416.577, 19117.750
417.060, 19117.990
417.542, 19107.539
418.024, 19074.619
418.506, 19043.680
418.988, 19035.160
419.470, 19049.160
419.952, 19058.801
420.434, 19037.350
420.916, 19001.932
421.398, 19055.066
421.881, 19086.707
422.363, 19098.006
422.845, 19028.043
423.327, 19063.014
423.809, 19055.932
424.291, 19047.125
424.773, 19096.863
425.255, 19077.750
425.738, 19068.449
426.220, 19057.471
426.702, 19034.510
427.184, 19015.199
427.666, 19029.270
428.148, 19103.600
428.630, 19156.439
429.112, 19157.289
429.595, 19105.570
430.077, 19073.090
430.559, 19062.971
431.041, 19064.000
431.523, 19067.240
432.005, 19072.670
432.487, 19078.439
432.969, 19086.279
433.451, 19092.211
433.934, 19087.230
434.416, 19071.439
434.898, 19033.523
435.380, 19092.533
435.862, 19128.014
436.344, 19141.230
436.826, 19065.508
437.308, 19104.633
437.790, 19097.732
438.273, 19088.945
438.755, 19144.236
439.237, 19081.447
439.719, 19135.723
440.201, 19134.711
440.683, 19155.480
441.165, 19180.811
441.647, 19174.170
442.129, 19151.859
442.612, 19129.760
443.094, 19114.631
443.576, 19096.471
444.058, 19056.580
444.540, 19008.859
445.022, 18993.609
445.504, 19088.939
445.987, 19161.561
446.469, 19140.971
446.951, 18958.439
447.433, 18853.650
447.915, 18885.070
448.397, 18968.789
448.879, 19003.711
449.361, 18954.500
449.843, 18918.010
450.326, 18917.240
450.808, 18948.240
451.290, 18968.760
451.772, 18981.369
452.254, 18977.631
452.736, 18943.359
453.218, 18874.789
453.700, 18822.711
454.182, 18793.410
454.665, 18780.850
455.147, 18789.949
455.629, 18817.811
456.111, 18813.930
456.593, 18721.830
457.075, 18582.029
457.557, 18504.340
458.039, 18492.051
458.522, 18503.350
459.004, 18518.471
459.486, 18527.699
459.968, 18511.570
460.450, 18446.369
460.932, 18375.051
461.414, 18333.211
461.896, 18315.090
462.379, 18297.869
462.861, 18275.480
463.343, 18246.750
463.825, 18206.381
464.307, 18145.170
464.789, 18100.090
465.271, 18104.230
465.753, 18123.461
466.235, 18112.391
466.717, 18026.750
467.200, 17949.670
467.682, 17906.650
468.164, 17896.381
468.646, 17863.320
469.128, 17789.539
469.610, 17711.820
470.092, 17654.199
470.574, 17625.131
471.057, 17590.711
471.539, 17549.721
472.021, 17501.359
472.503, 17444.330
472.985, 17379.289
473.467, 17300.311
473.949, 17188.350
474.431, 17055.561
474.914, 16986.400
475.396, 16985.449
475.878, 16998.600
476.360, 16979.840
476.842, 16934.279
477.324, 16874.029
477.806, 16795.750
478.288, 16715.461
478.770, 16645.500
479.253, 16587.430
479.735, 16545.529
480.217, 16538.660
480.699, 16539.119
481.181, 16523.240
481.663, 16487.020
482.145, 16444.789
482.627, 16407.279
483.109, 16365.280
483.592, 16308.990
484.074, 16200.660
484.556, 16113.990
485.038, 16080.120
485.520, 16089.630
486.002, 16071.790
486.484, 16008.410
486.966, 15933.350
487.448, 15862.200
487.931, 15802.530
488.413, 15724.930
488.895, 15627.890
489.377, 15514.360
489.859, 15387.480
490.341, 15243.980
490.823, 15100.280
491.306, 14959.130
491.788, 14821.770
492.270, 14700.670
492.752, 14596.340
493.234, 14494.320
493.716, 14379.630
494.198, 14257.760
494.680, 14154.860
495.162, 14076.100
495.645, 14002.450
496.127, 13911.970
496.609, 13809.720
497.091, 13705.230
497.573, 13593.310
498.055, 13488.700
498.537, 13410.700
499.019, 13357.020
499.501, 13292.360
499.984, 13180.180
500.466, 13064.030
500.948, 12979.290
501.430, 12961.120
501.912, 12928.250
502.394, 12858.320
502.876, 12766.790
503.358, 12682.370
503.841, 12607.770
504.323, 12538.680
504.805, 12473.300
505.287, 12411.740
505.769, 12354.460
506.251, 12300.180
506.733, 12253.010
507.215, 12219.640
507.698, 12202.250
508.180, 12175.800
508.662, 12138.000
509.144, 12089.130
509.626, 12022.950
510.108, 11940.830
510.590, 11868.180
511.072, 11818.200
511.554, 11784.810
512.036, 11760.610
512.519, 11745.400
513.001, 11728.120
513.483, 11697.110
513.965, 11660.500
514.447, 11626.870
514.929, 11595.040
515.411, 11565.463
515.893, 11571.896
516.375, 11569.588
516.858, 11559.005
517.340, 11515.383
517.822, 11514.429
518.304, 11496.375
518.786, 11477.621
519.268, 11482.673
519.750, 11443.852
520.232, 11448.527
520.715, 11435.840
521.197, 11431.099
521.679, 11409.153
522.161, 11392.521
522.643, 11393.096
523.125, 11384.146
523.607, 11360.218
524.089, 11337.940
524.571, 11318.190
525.054, 11299.060
525.536, 11270.920
526.018, 11233.460
526.500, 11196.570
526.982, 11165.030
527.464, 11140.200
527.946, 11128.240
528.429, 11134.980
528.911, 11140.830
529.393, 11124.120
529.875, 11093.200
530.357, 11065.170
530.839, 11045.500
531.321, 11031.930
531.803, 11027.150
532.286, 11030.480
532.768, 11026.620
533.250, 11013.480
533.732, 10990.740
534.214, 10956.210
534.696, 10886.050
535.178, 10846.000
535.660, 10854.790
536.142, 10884.250
536.625, 10887.380
537.107, 10852.490
537.589, 10823.770
538.071, 10814.970
538.553, 10822.040
539.035, 10824.130
539.517, 10821.150
539.999, 10813.660
540.481, 10796.030
540.964, 10773.070
541.446, 10766.660
541.928, 10781.930
542.410, 10798.150
542.892, 10789.830
543.374, 10766.090
543.856, 10745.270
544.338, 10739.560
544.820, 10734.920
545.303, 10716.280
545.785, 10688.490
546.267, 10672.450
546.749, 10694.550
547.231, 10716.780
547.713, 10716.710
548.195, 10683.800
548.677, 10655.480
549.159, 10639.920
549.642, 10627.290
550.124, 10606.150
550.606, 10564.840
551.088, 10542.560
551.570, 10553.350
552.052, 10583.320
552.534, 10583.030
553.016, 10545.290
553.499, 10519.700
553.981, 10545.240
554.463, 10606.940
554.945, 10632.390
555.427, 10620.680
555.909, 10585.580
556.391, 10519.610
556.873, 10442.240
557.356, 10395.810
557.838, 10402.740
558.320, 10415.770
558.802, 10390.760
559.284, 10345.340
559.766, 10315.100
560.248, 10325.730
560.730, 10343.980
561.213, 10357.780
561.695, 10366.680
562.177, 10369.900
562.659, 10364.830
563.141, 10355.800
563.623, 10344.420
564.105, 10328.500
564.587, 10313.790
565.069, 10297.440
565.552, 10285.000
566.034, 10289.150
566.516, 10312.720
566.998, 10326.230
567.480, 10318.890
567.962, 10298.220
568.444, 10282.820
568.926, 10272.340
569.408, 10264.210
569.891, 10253.730
570.373, 10245.570
570.855, 10250.560
571.337, 10270.820
571.819, 10285.600
572.301, 10286.050
572.783, 10270.750
573.265, 10236.610
573.747, 10148.810
574.230, 10086.480
574.712, 10087.600
575.194, 10129.770
575.676, 10156.970
576.158, 10163.770
576.640, 10156.060
577.122, 10131.080
577.604, 10088.920
578.086, 10054.870
578.569, 10029.120
579.051, 10011.660
579.533, 10009.440
580.015, 10022.430
580.497, 10012.050
580.979, 9970.111
581.461, 9923.046
581.943, 9904.025
582.426, 9908.649
582.908, 9923.956
583.390, 9957.201
583.872, 9986.248
584.354, 9978.585
584.836, 9944.365
585.318, 9919.335
585.800, 9938.624
586.282, 9958.372
586.765, 9945.758
587.247, 9890.898
587.729, 9853.827
588.211, 9856.674
588.693, 9875.059
589.175, 9891.377
589.657, 9909.911
590.140, 9917.337
590.622, 9908.448
591.104, 9891.941
591.586, 9887.461
592.068, 9898.435
592.550, 9897.451
593.032, 9870.051
593.514, 9827.280
593.996, 9798.442
594.479, 9783.372
594.961, 9778.581
595.443, 9792.411
595.925, 9810.953
596.407, 9810.367
596.889, 9786.365
597.371, 9764.025
597.853, 9769.238
598.335, 9780.242
598.818, 9773.735
599.300, 9717.523
599.782, 9674.864
600.264, 9665.238
600.746, 9678.606
601.228, 9682.854
601.710, 9662.364
602.192, 9693.720
602.674, 9712.491
603.157, 9719.354
603.639, 9678.638
604.121, 9699.359
604.603, 9695.460
605.085, 9690.550
605.567, 9719.918
606.049, 9686.123
606.531, 9714.947
607.013, 9714.197
607.496, 9717.860
607.978, 9706.984
608.460, 9699.400
608.942, 9704.206
609.424, 9707.951
609.906, 9694.063
610.388, 9672.538
610.870, 9666.208
611.353, 9649.142
611.835, 9619.918
612.317, 9644.638
612.799, 9656.263
613.281, 9655.497
613.763, 9605.231
614.245, 9618.886
614.727, 9606.923
615.209, 9607.645
615.692, 9606.836
616.174, 9603.997
616.656, 9599.553
617.138, 9596.419
617.620, 9593.185
618.102, 9579.171
618.584, 9545.657
619.067, 9512.109
619.549, 9506.906
620.031, 9521.771
620.513, 9535.706
620.995, 9541.170
621.477, 9540.456
621.959, 9529.860
622.441, 9510.978
622.923, 9501.287
623.406, 9510.374
623.888, 9525.664
624.370, 9541.646
624.852, 9559.026
625.334, 9573.932
625.816, 9586.700
626.298, 9596.443
626.780, 9605.232
627.263, 9614.497
627.745, 9601.273
628.227, 9552.187
628.709, 9500.511
629.191, 9478.249
629.673, 9512.293
630.155, 9532.669
630.637, 9540.111
631.119, 9495.886
631.602, 9518.380
632.084, 9514.136
632.566, 9508.795
633.048, 9540.679
633.530, 9503.969
634.012, 9535.262
634.494, 9539.410
634.976, 9537.266
635.458, 9508.286
635.941, 9477.175
636.423, 9467.431
636.905, 9488.742
637.387, 9502.539
637.869, 9505.824
638.351, 9502.968
638.833, 9499.002
639.315, 9494.046
639.797, 9490.670
640.280, 9485.695
640.762, 9487.646
641.244, 9464.248
641.726, 9499.114
642.208, 9519.837
642.690, 9527.177
643.172, 9481.049
643.654, 9503.963
644.137, 9499.209
644.619, 9493.319
645.101, 9525.951
645.583, 9487.600
646.065, 9519.621
646.547, 9523.551
647.029, 9540.337
647.511, 9529.283
647.994, 9526.829
648.476, 9552.223
