##NAMES=Opal
##RRUFFID=R060652
##IDEAL CHEMISTRY=SiO_2_&#183;<i>n</i>H_2_O
##LOCALITY=Ethiopia
##OWNER=RRUFF
##SOURCE=Gemological Institute of America
##DESCRIPTION=Colorless cloudy glassy fragment, variety opal-C
##STATUS=The identification of this mineral has been confirmed by X-ray diffraction and chemical analysis
##URL=rruff.info/R060652
##MEASURED CHEMISTRY=(Si_0.98_Al_0.02_)_Σ=1_(O_1.98_(OH)_0.02_)_Σ=2_·0.57H_2_O; OH estimated by charge balance; H_2_O by difference
149.484, 4038.666
149.967, 4069.068
150.449, 4085.019
150.931, 4086.940
151.413, 4085.658
151.895, 4073.449
152.377, 4062.356
152.859, 4061.229
153.342, 4079.405
153.824, 4098.919
154.306, 4119.019
154.788, 4140.889
155.270, 4155.168
155.752, 4154.095
156.234, 4147.362
156.716, 4146.072
157.198, 4159.876
157.680, 4173.346
158.163, 4180.473
158.645, 4178.625
159.127, 4176.589
159.609, 4173.586
160.091, 4171.826
160.573, 4175.480
161.055, 4185.198
161.538, 4200.723
162.020, 4223.873
162.502, 4264.579
162.984, 4295.659
163.466, 4298.370
163.948, 4280.140
164.430, 4265.710
164.912, 4270.839
165.394, 4282.592
165.876, 4290.070
166.359, 4283.717
166.841, 4278.981
167.323, 4287.396
167.805, 4307.524
168.287, 4326.792
168.769, 4343.570
169.251, 4353.667
169.733, 4352.110
170.216, 4320.461
170.698, 4287.286
171.180, 4278.041
171.662, 4293.766
172.144, 4314.654
172.626, 4330.734
173.108, 4341.459
173.590, 4346.106
174.072, 4333.431
174.555, 4319.216
175.037, 4324.312
175.519, 4352.628
176.001, 4385.566
176.483, 4407.770
176.965, 4420.345
177.447, 4426.037
177.929, 4419.055
178.412, 4407.726
178.894, 4406.798
179.376, 4420.217
179.858, 4439.055
180.340, 4455.226
180.822, 4468.217
181.304, 4475.541
181.786, 4470.279
182.268, 4457.932
182.751, 4452.742
183.233, 4459.577
183.715, 4471.878
184.197, 4475.733
184.679, 4471.587
185.161, 4472.621
185.643, 4497.083
186.125, 4538.011
186.607, 4567.565
187.090, 4575.047
187.572, 4568.335
188.054, 4564.159
188.536, 4562.383
189.018, 4564.719
189.500, 4579.119
189.982, 4602.925
190.464, 4614.151
190.947, 4596.480
191.429, 4560.044
191.911, 4551.697
192.393, 4575.914
192.875, 4608.838
193.357, 4619.266
193.839, 4607.149
194.321, 4600.009
194.803, 4618.211
195.286, 4657.320
195.768, 4659.008
196.250, 4613.293
196.732, 4554.487
197.214, 4536.794
197.696, 4564.470
198.178, 4595.975
198.661, 4612.246
199.143, 4613.114
199.625, 4617.422
200.107, 4627.041
200.589, 4638.627
201.071, 4644.190
201.553, 4642.185
202.035, 4641.656
202.517, 4650.161
202.999, 4669.395
203.482, 4676.947
203.964, 4664.366
204.446, 4643.943
204.928, 4655.081
205.410, 4708.018
205.892, 4759.791
206.374, 4777.753
206.857, 4754.201
207.339, 4742.069
207.821, 4751.224
208.303, 4775.130
208.785, 4784.328
209.267, 4773.443
209.749, 4759.969
210.231, 4758.089
210.713, 4771.467
211.195, 4782.327
211.678, 4788.772
212.160, 4790.958
212.642, 4787.273
213.124, 4773.531
213.606, 4761.694
214.088, 4763.445
214.570, 4782.919
215.052, 4804.289
215.535, 4827.589
216.017, 4852.458
216.499, 4862.786
216.981, 4851.507
217.463, 4835.062
217.945, 4831.012
218.427, 4843.642
218.909, 4857.326
219.391, 4867.845
219.874, 4874.758
220.356, 4885.888
220.838, 4904.291
221.320, 4923.466
221.802, 4935.807
222.284, 4941.745
222.766, 4939.638
223.248, 4924.316
223.731, 4890.717
224.213, 4880.126
224.695, 4903.083
225.177, 4940.664
225.659, 4965.534
226.141, 4971.639
226.623, 4976.244
227.105, 4985.959
227.587, 5003.934
228.070, 5011.752
228.552, 5003.011
229.034, 4987.761
229.516, 4983.781
229.998, 4994.553
230.480, 5010.464
230.962, 5029.435
231.444, 5053.918
231.926, 5072.649
232.409, 5082.750
232.891, 5088.153
233.373, 5098.023
233.855, 5118.499
234.337, 5133.883
234.819, 5136.894
235.301, 5120.050
235.783, 5109.836
236.266, 5108.073
236.748, 5112.467
237.230, 5117.261
237.712, 5120.981
238.194, 5127.523
238.676, 5139.403
239.158, 5161.467
239.640, 5177.981
240.122, 5186.529
240.605, 5189.972
241.087, 5196.851
241.569, 5210.685
242.051, 5223.280
242.533, 5229.396
243.015, 5221.949
243.497, 5224.083
243.980, 5239.442
244.462, 5264.570
244.944, 5287.833
245.426, 5309.839
245.908, 5328.763
246.390, 5342.902
246.872, 5348.547
247.354, 5357.030
247.836, 5370.767
248.318, 5387.480
248.801, 5397.959
249.283, 5399.685
249.765, 5398.494
250.247, 5397.186
250.729, 5394.521
251.211, 5394.989
251.693, 5399.900
252.176, 5408.489
252.658, 5416.854
253.140, 5425.268
253.622, 5433.723
254.104, 5442.268
254.586, 5450.528
255.068, 5460.650
255.550, 5474.250
256.032, 5490.179
256.514, 5501.767
256.997, 5507.434
257.479, 5511.330
257.961, 5514.680
258.443, 5513.504
258.925, 5522.834
259.407, 5548.653
259.889, 5586.273
260.371, 5612.668
260.854, 5623.990
261.336, 5629.951
261.818, 5635.889
262.300, 5639.876
262.782, 5649.312
263.264, 5666.082
263.746, 5688.921
264.228, 5711.790
264.711, 5736.916
265.193, 5757.988
265.675, 5768.964
266.157, 5765.554
266.639, 5767.403
267.121, 5779.396
267.603, 5798.371
268.085, 5808.650
268.567, 5807.463
269.050, 5803.897
269.532, 5804.146
270.014, 5808.555
270.496, 5816.273
270.978, 5829.466
271.460, 5845.526
271.942, 5850.833
272.424, 5840.529
272.906, 5832.803
273.389, 5845.436
273.871, 5883.704
274.353, 5908.662
274.835, 5910.013
275.317, 5895.920
275.799, 5897.184
276.281, 5916.946
276.763, 5941.173
277.246, 5958.125
277.728, 5966.554
278.210, 5981.642
278.692, 6007.452
279.174, 6040.117
279.656, 6069.002
280.138, 6094.122
280.620, 6114.827
281.103, 6130.293
281.585, 6140.424
282.067, 6146.289
282.549, 6146.382
283.031, 6143.571
283.513, 6144.438
283.995, 6148.811
284.477, 6158.303
284.959, 6178.943
285.441, 6209.385
285.924, 6228.932
286.406, 6232.850
286.888, 6226.560
287.370, 6219.667
287.852, 6212.033
288.334, 6208.563
288.816, 6212.402
289.298, 6223.342
289.781, 6241.261
290.263, 6268.125
290.745, 6298.940
291.227, 6322.806
291.709, 6340.199
292.191, 6358.529
292.673, 6391.828
293.155, 6431.942
293.638, 6445.462
294.120, 6419.967
294.602, 6382.291
295.084, 6377.268
295.566, 6401.438
296.048, 6425.408
296.530, 6428.946
297.012, 6419.040
297.494, 6411.206
297.977, 6406.275
298.459, 6407.273
298.941, 6423.827
299.423, 6452.279
299.905, 6475.146
300.387, 6459.480
300.869, 6485.097
301.351, 6500.693
301.833, 6506.807
302.316, 6475.036
302.798, 6492.185
303.280, 6489.729
303.762, 6486.469
304.244, 6510.503
304.726, 6484.242
305.208, 6507.843
305.690, 6511.541
306.172, 6524.347
306.655, 6517.429
307.137, 6516.602
307.619, 6535.508
308.101, 6543.488
308.583, 6534.298
309.065, 6547.684
309.547, 6520.734
310.030, 6529.180
310.512, 6552.896
310.994, 6544.698
311.476, 6558.445
311.958, 6563.833
312.440, 6531.240
312.922, 6564.702
313.404, 6569.596
313.886, 6545.160
314.369, 6576.358
314.851, 6555.965
315.333, 6553.987
315.815, 6565.867
316.297, 6563.301
316.779, 6583.511
317.261, 6581.779
317.743, 6578.086
318.225, 6582.949
318.708, 6563.568
319.190, 6589.164
319.672, 6587.040
320.154, 6597.613
320.636, 6604.272
321.118, 6606.872
321.600, 6606.373
322.082, 6600.869
322.565, 6593.394
323.047, 6586.326
323.529, 6574.807
324.011, 6568.947
324.493, 6573.087
324.975, 6586.166
325.457, 6597.027
325.939, 6605.924
326.422, 6611.229
326.904, 6611.969
327.386, 6602.979
327.868, 6595.200
328.350, 6587.791
328.832, 6581.444
329.314, 6580.335
329.796, 6595.941
330.278, 6606.427
330.760, 6599.348
331.243, 6550.866
331.725, 6526.447
332.207, 6539.380
332.689, 6576.171
333.171, 6595.878
333.653, 6589.790
334.135, 6579.955
334.617, 6577.364
335.100, 6588.905
335.582, 6586.796
336.064, 6564.142
336.546, 6532.993
337.028, 6519.732
337.510, 6532.767
337.992, 6541.143
338.474, 6527.858
338.957, 6488.297
339.439, 6469.487
339.921, 6476.988
340.403, 6495.426
340.885, 6502.369
341.367, 6496.551
341.849, 6488.330
342.331, 6481.094
342.813, 6474.626
343.296, 6466.934
343.778, 6458.511
344.260, 6447.514
344.742, 6428.350
345.224, 6401.960
345.706, 6384.266
346.188, 6383.606
346.670, 6394.020
347.152, 6396.110
347.635, 6389.506
348.117, 6384.878
348.599, 6396.303
349.081, 6418.421
349.563, 6432.265
350.045, 6430.696
350.527, 6420.538
351.009, 6411.137
351.491, 6402.253
351.974, 6393.747
352.456, 6382.841
352.938, 6372.517
353.420, 6368.449
353.902, 6373.469
354.384, 6381.335
354.866, 6392.817
355.349, 6403.719
355.831, 6400.627
356.313, 6359.554
356.795, 6309.630
357.277, 6280.050
357.759, 6278.506
358.241, 6284.877
358.723, 6297.443
359.205, 6308.211
359.688, 6302.631
360.170, 6251.463
360.652, 6199.697
361.134, 6177.081
361.616, 6190.516
362.098, 6201.439
362.580, 6190.354
363.062, 6170.356
363.544, 6156.597
364.027, 6164.838
364.509, 6168.321
364.991, 6154.765
365.473, 6122.973
365.955, 6097.872
366.437, 6083.699
366.919, 6077.450
367.401, 6076.969
367.884, 6092.332
368.366, 6101.983
368.848, 6103.613
369.330, 6097.694
369.812, 6086.524
370.294, 6063.879
370.776, 6041.715
371.258, 6027.310
371.741, 6027.329
372.223, 6021.351
372.705, 6003.055
373.187, 5979.714
373.669, 5973.230
374.151, 5994.388
374.633, 6011.250
375.115, 6008.658
375.597, 5982.310
376.079, 5955.338
376.562, 5924.104
377.044, 5896.629
377.526, 5889.797
378.008, 5907.271
378.490, 5921.365
378.972, 5920.756
379.454, 5907.448
379.936, 5898.017
380.419, 5893.751
380.901, 5888.388
381.383, 5874.508
381.865, 5852.932
382.347, 5829.581
382.829, 5801.195
383.311, 5775.540
383.793, 5774.542
384.276, 5797.080
384.758, 5819.510
385.240, 5819.545
385.722, 5805.926
386.204, 5798.067
386.686, 5803.292
387.168, 5809.214
387.650, 5797.874
388.132, 5774.259
388.615, 5756.393
389.097, 5762.326
389.579, 5774.849
390.061, 5774.428
390.543, 5755.129
391.025, 5736.833
391.507, 5734.051
391.989, 5740.358
392.471, 5745.305
392.954, 5743.119
393.436, 5740.293
393.918, 5739.880
394.400, 5742.249
394.882, 5747.111
395.364, 5766.375
395.846, 5782.622
396.328, 5780.334
396.810, 5721.562
397.293, 5681.252
397.775, 5687.382
398.257, 5733.858
398.739, 5759.806
399.221, 5742.004
399.703, 5716.372
400.185, 5700.381
400.668, 5717.797
401.150, 5727.104
401.632, 5728.738
402.114, 5699.715
402.596, 5710.279
403.078, 5704.978
403.560, 5699.026
404.042, 5706.426
404.524, 5732.150
405.007, 5734.488
405.489, 5705.594
405.971, 5665.658
406.453, 5640.334
406.935, 5630.406
407.417, 5630.420
407.899, 5644.253
408.381, 5666.602
408.863, 5668.113
409.346, 5646.008
409.828, 5624.100
410.310, 5628.846
410.792, 5654.088
411.274, 5668.528
411.756, 5664.419
412.238, 5649.279
412.720, 5627.068
413.203, 5600.787
413.685, 5586.250
414.167, 5604.499
414.649, 5637.107
415.131, 5656.925
415.613, 5659.660
416.095, 5655.511
416.577, 5651.042
417.060, 5645.672
417.542, 5638.275
418.024, 5622.995
418.506, 5609.517
418.988, 5608.869
419.470, 5621.067
419.952, 5623.943
420.434, 5598.612
420.916, 5564.807
421.398, 5539.143
421.881, 5529.120
422.363, 5524.272
422.845, 5524.809
423.327, 5529.678
423.809, 5533.842
424.291, 5546.006
424.773, 5549.869
425.255, 5536.372
425.738, 5490.258
426.220, 5458.525
426.702, 5435.351
427.184, 5414.563
427.666, 5420.021
428.148, 5419.104
428.630, 5412.162
429.112, 5381.135
429.595, 5381.208
430.077, 5368.818
430.559, 5362.598
431.041, 5361.109
431.523, 5351.029
432.005, 5331.478
432.487, 5320.071
432.969, 5323.448
433.451, 5333.560
433.934, 5328.696
434.416, 5309.082
434.898, 5289.827
435.380, 5283.590
435.862, 5285.316
436.344, 5281.239
436.826, 5269.874
437.308, 5253.739
437.790, 5230.817
438.273, 5204.833
438.755, 5185.494
439.237, 5180.845
439.719, 5182.146
440.201, 5181.317
440.683, 5178.344
441.165, 5177.192
441.647, 5188.083
442.129, 5198.211
442.612, 5194.310
443.094, 5159.572
443.576, 5127.869
444.058, 5112.771
444.540, 5109.817
445.022, 5106.184
445.504, 5099.051
445.987, 5090.570
446.469, 5080.679
446.951, 5066.741
447.433, 5059.166
447.915, 5065.934
448.397, 5075.301
448.879, 5072.576
449.361, 5049.114
449.843, 5028.634
450.326, 5017.050
450.808, 5013.244
451.290, 5003.445
451.772, 4985.170
452.254, 4966.422
452.736, 4954.329
453.218, 4949.524
453.700, 4939.134
454.182, 4918.424
454.665, 4897.278
455.147, 4902.968
455.629, 4933.258
456.111, 4950.845
456.593, 4927.998
457.075, 4879.440
457.557, 4840.250
458.039, 4810.403
458.522, 4792.643
459.004, 4798.845
459.486, 4817.048
459.968, 4824.780
460.450, 4808.569
460.932, 4787.467
461.414, 4778.601
461.896, 4778.507
462.379, 4773.930
462.861, 4749.550
463.343, 4724.480
463.825, 4713.333
464.307, 4724.218
464.789, 4730.492
465.271, 4721.803
465.753, 4705.019
466.235, 4689.201
466.717, 4677.326
467.200, 4664.985
467.682, 4648.532
468.164, 4628.263
468.646, 4618.645
469.128, 4626.035
469.610, 4636.931
470.092, 4643.741
470.574, 4647.231
471.057, 4643.512
471.539, 4630.556
472.021, 4611.955
472.503, 4593.455
472.985, 4574.594
473.467, 4559.132
473.949, 4547.667
474.431, 4540.647
474.914, 4544.261
475.396, 4559.800
475.878, 4573.374
476.360, 4568.186
476.842, 4550.074
477.324, 4536.587
477.806, 4535.104
478.288, 4535.346
478.770, 4520.409
479.253, 4495.956
479.735, 4480.811
480.217, 4494.043
480.699, 4515.794
481.181, 4531.203
481.663, 4538.719
482.145, 4538.223
482.627, 4519.172
483.109, 4495.979
483.592, 4484.135
484.074, 4504.566
484.556, 4517.976
485.038, 4509.401
485.520, 4482.367
486.002, 4466.148
486.484, 4474.628
486.966, 4480.899
487.448, 4471.732
487.931, 4437.487
488.413, 4415.569
488.895, 4411.702
489.377, 4414.207
489.859, 4405.380
490.341, 4382.640
490.823, 4362.070
491.306, 4349.324
491.788, 4341.974
492.270, 4330.181
492.752, 4313.792
493.234, 4296.403
493.716, 4277.444
494.198, 4259.390
494.680, 4253.385
495.162, 4263.667
495.645, 4274.709
496.127, 4269.969
496.609, 4252.926
497.091, 4231.508
497.573, 4196.868
498.055, 4168.591
498.537, 4170.542
499.019, 4199.742
499.501, 4216.389
499.984, 4186.065
500.466, 4145.921
500.948, 4124.211
501.430, 4139.124
501.912, 4151.657
502.394, 4152.968
502.876, 4147.915
503.358, 4145.933
503.841, 4151.489
504.323, 4154.776
504.805, 4153.906
505.287, 4148.832
505.769, 4136.510
506.251, 4110.789
506.733, 4089.394
507.215, 4089.620
507.698, 4114.208
508.180, 4131.649
508.662, 4138.273
509.144, 4136.725
509.626, 4127.810
510.108, 4112.471
510.590, 4102.748
511.072, 4113.474
511.554, 4130.938
512.036, 4124.776
512.519, 4095.607
513.001, 4066.697
513.483, 4053.591
513.965, 4052.211
514.447, 4059.373
514.929, 4082.594
515.411, 4098.171
515.893, 4084.895
516.375, 4055.373
516.858, 4035.012
517.340, 4037.256
517.822, 4044.703
518.304, 4051.855
518.786, 4058.357
519.268, 4064.650
519.750, 4072.728
520.232, 4078.860
520.715, 4079.779
521.197, 4070.950
521.679, 4068.371
522.161, 4077.582
522.643, 4089.846
523.125, 4082.998
523.607, 4052.761
524.089, 4031.076
524.571, 4035.582
525.054, 4059.175
525.536, 4069.607
526.018, 4066.353
526.500, 4059.049
526.982, 4057.351
527.464, 4057.427
527.946, 4048.083
528.429, 4021.914
528.911, 4000.681
529.393, 4011.552
529.875, 4042.018
530.357, 4066.693
530.839, 4075.710
531.321, 4075.427
531.803, 4066.294
532.286, 4048.790
532.768, 4032.733
533.250, 4012.324
533.732, 3999.983
534.214, 4004.512
534.696, 4049.465
535.178, 4072.358
535.660, 4062.849
536.142, 4036.843
536.625, 4018.646
537.107, 4009.769
537.589, 4005.536
538.071, 4006.830
538.553, 4011.831
539.035, 4008.357
539.517, 3994.917
539.999, 3984.634
540.481, 3989.430
540.964, 4005.641
541.446, 4020.464
541.928, 4033.246
542.410, 4040.999
542.892, 4037.346
543.374, 4026.461
543.856, 4016.661
544.338, 4010.958
544.820, 4007.763
545.303, 4008.530
545.785, 4011.677
546.267, 4010.555
546.749, 3992.743
547.231, 3977.533
547.713, 3978.245
548.195, 4004.998
548.677, 4019.547
549.159, 4011.359
549.642, 3994.522
550.124, 3981.702
550.606, 3973.364
551.088, 3968.182
551.570, 3966.078
552.052, 3967.060
552.534, 3973.145
553.016, 3985.971
553.499, 3994.381
553.981, 3991.283
554.463, 3978.775
554.945, 3964.354
555.427, 3947.476
555.909, 3936.281
556.391, 3942.699
556.873, 3959.634
557.356, 3973.839
557.838, 3983.577
558.320, 3987.250
558.802, 3978.577
559.284, 3963.239
559.766, 3952.688
560.248, 3956.833
560.730, 3961.841
561.213, 3958.916
561.695, 3947.903
562.177, 3945.583
562.659, 3967.223
563.141, 3987.621
563.623, 3992.329
564.105, 3966.932
564.587, 3959.929
565.069, 3979.460
565.552, 4008.091
566.034, 4019.903
566.516, 4013.657
566.998, 4001.246
567.480, 3982.849
567.962, 3962.600
568.444, 3951.038
568.926, 3947.972
569.408, 3951.980
569.891, 3969.825
570.373, 3991.150
570.855, 3999.634
571.337, 3993.305
571.819, 3983.226
572.301, 3972.633
572.783, 3964.333
573.265, 3961.600
573.747, 3969.912
574.230, 3977.741
574.712, 3981.373
575.194, 3982.212
575.676, 3983.861
576.158, 3988.906
576.640, 3992.069
577.122, 3990.324
577.604, 3983.807
578.086, 3986.678
578.569, 4004.911
579.051, 4019.102
579.533, 4011.899
580.015, 3983.459
580.497, 3958.971
580.979, 3939.735
581.461, 3926.815
581.943, 3923.412
582.426, 3927.776
582.908, 3934.505
583.390, 3943.718
583.872, 3952.170
584.354, 3956.141
584.836, 3956.271
585.318, 3954.816
585.800, 3950.343
586.282, 3946.480
586.765, 3945.940
587.247, 3949.497
587.729, 3952.211
588.211, 3946.728
588.693, 3944.284
589.175, 3954.471
589.657, 3992.308
590.140, 4012.776
590.622, 4007.118
591.104, 3990.521
591.586, 4007.847
592.068, 4016.939
592.550, 4018.239
593.032, 3988.407
593.514, 3998.775
593.996, 3993.032
594.479, 3986.630
594.961, 4002.655
595.443, 3977.352
595.925, 3993.021
596.407, 3989.340
596.889, 3992.749
597.371, 3996.737
597.853, 4004.337
598.335, 4007.645
598.818, 3998.021
599.300, 3953.813
599.782, 3920.025
600.264, 3907.784
600.746, 3912.971
601.228, 3925.689
601.710, 3956.224
602.192, 3978.386
602.674, 3982.710
603.157, 3970.936
603.639, 3966.581
604.121, 3971.096
604.603, 3977.153
605.085, 3979.929
605.567, 3979.831
606.049, 3979.398
606.531, 3978.912
607.013, 3977.155
607.496, 3969.488
607.978, 3960.071
608.460, 3957.387
608.942, 3968.031
609.424, 3979.861
609.906, 3985.137
610.388, 3985.605
610.870, 3985.060
611.353, 3985.804
611.835, 3984.636
612.317, 3977.451
612.799, 3964.209
613.281, 3961.387
613.763, 3976.976
614.245, 3992.653
614.727, 3997.913
615.209, 3990.810
615.692, 3984.152
616.174, 3977.866
616.656, 3972.828
617.138, 3971.211
617.620, 3972.326
618.102, 3971.536
618.584, 3966.185
619.067, 3961.533
619.549, 3968.471
620.031, 3981.752
620.513, 3987.857
620.995, 3965.766
621.477, 3946.845
621.959, 3955.838
622.441, 3990.260
622.923, 4017.281
623.406, 4024.482
623.888, 4024.673
624.370, 4023.687
624.852, 4021.393
625.334, 4018.331
625.816, 4012.913
626.298, 4008.812
626.780, 4010.934
627.263, 4020.097
627.745, 4026.380
628.227, 4027.794
628.709, 4027.171
629.191, 4030.155
629.673, 4035.606
630.155, 4038.491
630.637, 4034.717
631.119, 4028.787
631.602, 4024.236
632.084, 4021.328
632.566, 4021.178
633.048, 4028.661
633.530, 4035.677
634.012, 4038.034
634.494, 4035.324
634.976, 4027.768
635.458, 4005.493
635.941, 3986.846
636.423, 3986.850
636.905, 4016.489
637.387, 4031.007
637.869, 4024.038
638.351, 4008.320
638.833, 4004.016
639.315, 4010.391
639.797, 4015.815
640.280, 4016.271
640.762, 4014.691
641.244, 4015.727
641.726, 4018.773
642.208, 4021.612
642.690, 4026.487
643.172, 4028.100
643.654, 4018.838
644.137, 3999.218
644.619, 3986.922
645.101, 3990.802
645.583, 4001.528
646.065, 4015.222
646.547, 4036.810
647.029, 4046.432
647.511, 4036.743
647.994, 4024.109
648.476, 4028.333
648.958, 4051.705
649.440, 4067.542
649.922, 4070.265
650.404, 4066.381
650.886, 4065.917
651.368, 4068.327
651.851, 4071.829
652.333, 4076.480
652.815, 4081.124
653.297, 4085.865
653.779, 4089.986
654.261, 4090.487
654.743, 4081.391
655.225, 4072.466
655.707, 4068.715
656.190, 4071.061
656.672, 4075.271
657.154, 4080.545
657.636, 4088.278
658.118, 4101.639
658.600, 4124.341
659.082, 4133.332
659.564, 4125.377
660.046, 4110.301
660.529, 4097.432
661.011, 4087.507
661.493, 4086.291
661.975, 4099.177
662.457, 4113.181
662.939, 4109.535
663.421, 4095.707
663.903, 4088.434
664.385, 4106.245
664.868, 4122.008
665.350, 4115.613
665.832, 4092.098
666.314, 4084.733
666.796, 4123.192
667.278, 4153.085
667.760, 4150.492
668.242, 4111.450
668.724, 4098.373
669.207, 4118.517
669.689, 4143.418
670.171, 4148.522
670.653, 4136.716
671.135, 4129.027
671.617, 4127.393
