##NAMES=Opal
##RRUFFID=R070627
##IDEAL CHEMISTRY=SiO_2_&#183;<i>n</i>H_2_O
##LOCALITY=Madagascar
##OWNER=RRUFF
##SOURCE=www.multicolour.com
##DESCRIPTION=Polished iridescent fragment, Opal-CT. There is probably some polymer filler included, based on X-ray diffraction pattern
##STATUS=The identification of this mineral is not yet confirmed.
##URL=rruff.info/R070627
102.1133, 5796.442
102.5954, 5955.044
103.0775, 6083.836
103.5596, 6151.755
104.0418, 6180.487
104.5239, 6246.572
105.0060, 6397.677
105.4881, 6591.282
105.9702, 6754.767
106.4523, 6871.419
106.9345, 6977.697
107.4166, 7114.624
107.8987, 7288.059
108.3808, 7465.868
108.8629, 7628.869
109.3450, 7787.558
109.8272, 7955.432
110.3093, 8147.664
110.7914, 8354.413
111.2735, 8532.289
111.7556, 8676.673
112.2377, 8789.828
112.7199, 8892.005
113.2020, 8969.104
113.6841, 8989.002
114.1662, 8914.287
114.6483, 8723.266
115.1304, 8524.706
115.6126, 8317.485
116.0947, 8103.170
116.5768, 7874.148
117.0589, 7631.788
117.5410, 7394.291
118.0231, 7190.487
118.5053, 7045.098
118.9874, 6902.360
119.4695, 6748.829
119.9516, 6602.690
120.4337, 6488.895
120.9158, 6420.336
121.3980, 6382.362
121.8801, 6325.011
122.3622, 6224.707
122.8443, 6137.706
123.3264, 6093.923
123.8085, 6082.571
124.2907, 6064.283
124.7728, 6011.746
125.2549, 5933.473
125.7370, 5870.104
126.2191, 5826.483
126.7012, 5795.231
127.1834, 5769.158
127.6655, 5747.173
128.1476, 5734.808
128.6297, 5751.516
129.1118, 5781.342
129.5939, 5792.930
130.0761, 5760.890
130.5582, 5699.265
131.0403, 5653.707
131.5224, 5630.668
132.0045, 5619.352
132.4866, 5613.929
132.9688, 5613.653
133.4509, 5616.715
133.9330, 5627.377
134.4151, 5649.271
134.8972, 5650.283
135.3793, 5601.523
135.8615, 5550.997
136.3436, 5520.062
136.8257, 5512.335
137.3078, 5518.458
137.7899, 5526.402
138.2720, 5541.887
138.7542, 5547.411
139.2363, 5534.724
139.7184, 5517.469
140.2005, 5508.183
140.6826, 5511.833
141.1647, 5522.594
141.6469, 5523.304
142.1290, 5496.371
142.6111, 5478.549
143.0932, 5479.070
143.5753, 5490.369
144.0574, 5499.758
144.5396, 5499.122
145.0217, 5490.665
145.5038, 5494.244
145.9859, 5525.450
146.4680, 5551.155
146.9502, 5551.264
147.4323, 5529.838
147.9144, 5511.167
148.3965, 5517.875
148.8786, 5547.669
149.3607, 5555.309
149.8429, 5516.129
150.3250, 5467.551
150.8071, 5450.085
151.2892, 5470.868
151.7713, 5497.116
152.2534, 5492.677
152.7356, 5466.284
153.2177, 5445.889
153.6998, 5446.383
154.1819, 5459.370
154.6640, 5463.353
155.1461, 5448.986
155.6283, 5436.043
156.1104, 5444.157
156.5925, 5470.185
157.0746, 5493.579
157.5567, 5497.013
158.0388, 5481.077
158.5210, 5469.926
159.0031, 5469.938
159.4852, 5474.060
159.9673, 5479.738
160.4494, 5486.326
160.9315, 5491.708
161.4137, 5491.474
161.8958, 5481.475
162.3779, 5479.745
162.8600, 5499.463
163.3421, 5521.024
163.8242, 5530.512
164.3064, 5523.507
164.7885, 5506.788
165.2706, 5493.723
165.7527, 5485.438
166.2348, 5479.843
166.7169, 5480.573
167.1991, 5482.186
167.6812, 5476.926
168.1633, 5460.530
168.6454, 5438.187
169.1275, 5432.069
169.6096, 5457.947
170.0918, 5484.370
170.5739, 5507.017
171.0560, 5527.380
171.5381, 5550.377
172.0202, 5580.762
172.5023, 5617.151
172.9845, 5630.375
173.4666, 5593.292
173.9487, 5564.932
174.4308, 5577.352
174.9129, 5621.733
175.3951, 5661.563
175.8772, 5666.350
176.3593, 5633.830
176.8414, 5618.661
177.3235, 5626.704
177.8056, 5645.964
178.2878, 5671.270
178.7699, 5701.625
179.2520, 5732.631
179.7341, 5762.063
180.2162, 5789.612
180.6983, 5808.562
181.1805, 5813.205
181.6626, 5810.846
182.1447, 5808.699
182.6268, 5807.068
183.1089, 5808.608
183.5910, 5814.888
184.0732, 5825.442
184.5553, 5845.235
185.0374, 5882.228
185.5195, 5929.579
186.0016, 5972.663
186.4837, 6011.105
186.9659, 6040.389
187.4480, 6054.206
187.9301, 6054.058
188.4122, 6054.711
188.8943, 6062.200
189.3764, 6076.911
189.8586, 6103.583
190.3407, 6153.649
190.8228, 6206.110
191.3049, 6242.857
191.7870, 6263.457
192.2691, 6283.928
192.7513, 6324.096
193.2334, 6387.335
193.7155, 6436.005
194.1976, 6447.872
194.6797, 6452.015
195.1618, 6460.539
195.6440, 6476.259
196.1261, 6501.530
196.6082, 6542.135
197.0903, 6604.667
197.5724, 6663.166
198.0546, 6713.052
198.5367, 6758.185
199.0188, 6800.283
199.5009, 6840.205
199.9830, 6878.200
200.4651, 6915.164
200.9473, 6950.843
201.4294, 6985.866
201.9115, 7017.879
202.3936, 7050.597
202.8757, 7086.753
203.3578, 7127.408
203.8400, 7172.879
204.3221, 7225.358
204.8042, 7299.779
205.2863, 7360.607
205.7684, 7386.636
206.2505, 7403.499
206.7327, 7443.095
207.2148, 7522.262
207.6969, 7629.421
208.1790, 7717.850
208.6611, 7761.776
209.1432, 7813.909
209.6254, 7885.813
210.1075, 7969.220
210.5896, 8051.080
211.0717, 8123.853
211.5538, 8189.891
212.0359, 8265.869
212.5181, 8359.229
213.0002, 8453.561
213.4823, 8543.929
213.9644, 8632.350
214.4465, 8720.688
214.9286, 8808.644
215.4108, 8897.884
215.8929, 9014.188
216.3750, 9182.842
216.8571, 9346.640
217.3392, 9477.421
217.8214, 9583.007
218.3035, 9691.783
218.7856, 9824.287
219.2677, 9978.852
219.7498, 10127.35
220.2319, 10263.59
220.7141, 10399.76
221.1962, 10546.58
221.6783, 10701.74
222.1604, 10851.58
222.6425, 10983.55
223.1246, 11099.51
223.6068, 11227.77
224.0889, 11392.52
224.5710, 11551.23
225.0531, 11671.11
225.5352, 11751.73
226.0173, 11817.56
226.4995, 11883.33
226.9816, 11948.68
227.4637, 12009.26
227.9458, 12082.83
228.4279, 12140.55
228.9100, 12150.62
229.3922, 12110.50
229.8743, 12053.27
230.3564, 12008.57
230.8385, 11967.41
231.3206, 11896.22
231.8027, 11782.82
232.2849, 11639.71
232.7670, 11474.47
233.2491, 11283.77
233.7312, 11093.20
234.2133, 10934.56
234.6954, 10792.98
235.1776, 10629.88
235.6597, 10426.11
236.1418, 10198.73
236.6239, 9969.456
237.1060, 9735.040
237.5881, 9510.737
238.0703, 9303.304
238.5524, 9112.802
239.0345, 8947.380
239.5166, 8829.557
239.9987, 8733.465
240.4808, 8605.303
240.9630, 8430.754
241.4451, 8259.809
241.9272, 8121.191
242.4093, 8008.377
242.8914, 7912.439
243.3735, 7841.850
243.8557, 7783.784
244.3378, 7705.612
244.8199, 7598.264
245.3020, 7490.361
245.7841, 7400.904
246.2662, 7322.571
246.7484, 7242.583
247.2305, 7148.362
247.7126, 7048.668
248.1947, 6969.731
248.6768, 6920.348
249.1589, 6876.608
249.6411, 6825.734
250.1232, 6771.087
250.6053, 6718.367
251.0874, 6672.226
251.5695, 6630.164
252.0517, 6583.292
252.5338, 6525.762
253.0159, 6473.698
253.4980, 6434.461
253.9801, 6404.852
254.4622, 6380.390
254.9444, 6362.484
255.4265, 6347.465
255.9086, 6320.376
256.3907, 6271.636
256.8728, 6226.582
257.3549, 6194.037
257.8370, 6171.682
258.3192, 6156.287
258.8013, 6149.108
259.2834, 6146.749
259.7655, 6135.794
260.2476, 6110.425
260.7297, 6085.151
261.2119, 6064.237
261.6940, 6047.227
262.1761, 6034.155
262.6582, 6027.134
263.1403, 6023.107
263.6224, 6009.817
264.1046, 5978.370
264.5867, 5951.635
265.0688, 5942.008
265.5509, 5940.110
266.0330, 5931.892
266.5151, 5907.945
266.9973, 5873.866
267.4794, 5848.340
267.9615, 5830.837
268.4436, 5824.307
268.9258, 5838.897
269.4079, 5860.743
269.8900, 5870.559
270.3721, 5856.475
270.8542, 5827.074
271.3363, 5810.200
271.8185, 5817.011
272.3006, 5817.754
272.7827, 5803.672
273.2648, 5780.416
273.7469, 5753.114
274.2290, 5723.047
274.7112, 5693.477
275.1933, 5674.340
275.6754, 5672.610
276.1575, 5669.215
276.6396, 5650.410
277.1217, 5631.273
277.6039, 5633.183
278.0860, 5668.690
278.5681, 5715.647
279.0502, 5720.016
279.5323, 5654.164
280.0144, 5598.184
280.4966, 5569.074
280.9787, 5555.970
281.4608, 5551.772
281.9429, 5554.532
282.4250, 5558.540
282.9071, 5549.436
283.3893, 5513.838
283.8714, 5496.174
284.3535, 5516.762
284.8356, 5549.311
285.3177, 5574.424
285.7998, 5585.831
286.2820, 5585.911
286.7641, 5578.078
287.2462, 5561.508
287.7283, 5538.563
288.2104, 5498.020
288.6925, 5458.974
289.1747, 5438.377
289.6568, 5439.885
290.1389, 5447.971
290.6210, 5439.466
291.1031, 5407.934
291.5852, 5381.168
292.0674, 5367.729
292.5495, 5356.283
293.0316, 5339.672
293.5137, 5316.827
293.9958, 5292.314
294.4779, 5270.640
294.9601, 5251.460
295.4422, 5236.899
295.9243, 5226.932
296.4064, 5222.110
296.8885, 5226.822
297.3706, 5239.524
297.8528, 5250.532
298.3349, 5249.376
298.8170, 5234.737
299.2991, 5219.434
299.7812, 5207.939
300.2633, 5192.233
300.7455, 5164.068
301.2276, 5126.448
301.7097, 5092.250
302.1918, 5075.368
302.6739, 5076.145
303.1560, 5068.696
303.6382, 5038.668
304.1203, 5015.940
304.6024, 5028.088
305.0845, 5060.423
305.5666, 5072.136
306.0487, 5023.292
306.5309, 4923.671
307.0130, 4851.532
307.4951, 4816.072
307.9772, 4798.605
308.4593, 4799.432
308.9414, 4809.469
309.4236, 4811.459
309.9057, 4792.605
310.3878, 4759.463
310.8699, 4732.973
311.3520, 4712.572
311.8341, 4701.042
312.3163, 4707.308
312.7984, 4720.276
313.2805, 4724.506
313.7626, 4713.096
314.2447, 4689.718
314.7268, 4657.337
315.2090, 4608.297
315.6911, 4572.167
316.1732, 4573.820
316.6553, 4588.875
317.1374, 4592.499
317.6195, 4575.935
318.1017, 4548.259
318.5838, 4516.554
319.0659, 4477.688
319.5480, 4453.955
320.0301, 4474.064
320.5122, 4502.057
320.9944, 4502.704
321.4765, 4465.759
321.9586, 4422.108
322.4407, 4402.273
322.9228, 4406.294
323.4049, 4413.044
323.8871, 4418.598
324.3692, 4423.508
324.8513, 4427.858
325.3334, 4431.570
325.8155, 4436.458
326.2976, 4450.757
326.7798, 4470.176
327.2619, 4467.027
327.7440, 4420.369
328.2261, 4371.526
328.7082, 4362.661
329.1903, 4390.915
329.6725, 4421.547
330.1546, 4439.974
330.6367, 4448.621
331.1188, 4451.387
331.6009, 4445.833
332.0830, 4442.070
332.5652, 4448.382
333.0473, 4463.529
333.5294, 4487.234
334.0115, 4536.712
334.4936, 4587.211
334.9757, 4599.363
335.4579, 4567.316
335.9400, 4528.365
336.4221, 4506.871
336.9042, 4501.376
337.3863, 4505.180
337.8684, 4526.349
338.3506, 4550.200
338.8327, 4563.939
339.3148, 4568.086
339.7969, 4570.840
340.2791, 4578.301
340.7612, 4587.207
341.2433, 4586.759
341.7254, 4565.958
342.2075, 4548.583
342.6896, 4547.439
343.1718, 4559.269
343.6539, 4575.982
344.1360, 4595.788
344.6181, 4615.981
345.1002, 4628.721
345.5823, 4632.395
346.0645, 4634.178
346.5466, 4638.110
347.0287, 4640.738
347.5108, 4633.489
347.9929, 4612.826
348.4750, 4591.141
348.9572, 4589.663
349.4393, 4619.447
349.9214, 4643.080
350.4035, 4655.839
350.8856, 4663.247
351.3677, 4668.624
351.8499, 4673.066
352.3320, 4678.473
352.8141, 4686.179
353.2962, 4695.014
353.7783, 4713.841
354.2604, 4759.571
354.7426, 4799.369
355.2247, 4806.059
355.7068, 4787.559
356.1889, 4776.767
356.6710, 4802.347
357.1531, 4863.502
357.6353, 4896.399
358.1174, 4871.127
358.5995, 4851.600
359.0816, 4855.981
359.5637, 4877.510
360.0458, 4904.705
360.5280, 4932.149
361.0101, 4958.059
361.4922, 4976.567
361.9743, 4985.445
362.4564, 4988.829
362.9385, 4981.311
363.4207, 4971.799
363.9028, 4967.757
364.3849, 4971.923
364.8670, 4984.302
365.3491, 5007.159
365.8312, 5047.907
366.3134, 5079.854
366.7955, 5094.075
367.2776, 5104.920
367.7597, 5122.462
368.2418, 5146.856
368.7239, 5169.311
369.2061, 5177.773
369.6882, 5170.575
370.1703, 5173.506
370.6524, 5197.347
371.1345, 5220.788
371.6166, 5232.523
372.0988, 5235.588
372.5809, 5239.296
373.0630, 5248.859
373.5451, 5263.570
374.0272, 5283.559
374.5093, 5316.347
374.9915, 5337.509
375.4736, 5322.638
375.9557, 5292.786
376.4378, 5278.327
376.9199, 5294.509
377.4020, 5322.023
377.8842, 5337.542
378.3663, 5340.683
378.8484, 5337.445
379.3305, 5323.418
379.8126, 5308.460
380.2947, 5305.255
380.7769, 5316.065
381.2590, 5333.201
381.7411, 5353.589
382.2232, 5376.654
382.7053, 5402.138
383.1874, 5433.608
383.6696, 5460.420
384.1517, 5460.297
384.6338, 5432.092
385.1159, 5422.819
385.5980, 5463.405
386.0801, 5521.226
386.5623, 5553.994
387.0444, 5556.040
387.5265, 5552.923
388.0086, 5566.196
388.4907, 5597.146
388.9728, 5627.865
389.4550, 5662.449
389.9371, 5693.302
390.4192, 5710.389
390.9013, 5718.891
391.3834, 5735.139
391.8655, 5768.891
392.3477, 5817.545
392.8298, 5868.259
393.3119, 5925.673
393.7940, 5979.422
394.2761, 6020.161
394.7582, 6059.466
395.2404, 6113.801
395.7225, 6188.788
396.2046, 6271.793
396.6867, 6340.340
397.1688, 6377.995
397.6509, 6433.869
398.1331, 6511.094
398.6152, 6601.180
399.0973, 6705.583
399.5794, 6819.748
400.0615, 6930.430
400.5436, 7022.181
401.0258, 7093.117
401.5079, 7178.806
401.9900, 7291.261
402.4721, 7406.722
402.9542, 7515.583
403.4363, 7622.746
403.9185, 7740.491
404.4006, 7878.477
404.8827, 8026.110
405.3648, 8152.565
405.8469, 8245.120
406.3290, 8349.868
406.8112, 8482.394
407.2933, 8632.587
407.7754, 8797.333
408.2575, 8979.679
408.7396, 9156.425
409.2217, 9298.880
409.7039, 9409.594
410.1860, 9533.636
410.6681, 9685.679
411.1502, 9847.833
411.6324, 10007.95
412.1145, 10165.29
412.5966, 10307.23
413.0787, 10425.00
413.5608, 10525.40
414.0429, 10619.54
414.5251, 10709.04
415.0072, 10786.10
415.4893, 10846.35
415.9714, 10887.71
416.4535, 10909.15
416.9356, 10911.93
417.4178, 10893.11
417.8999, 10862.75
418.3820, 10811.18
418.8641, 10700.90
419.3462, 10505.52
419.8283, 10259.70
420.3105, 10057.99
420.7926, 9945.321
421.2747, 9800.173
421.7568, 9578.021
422.2389, 9333.653
422.7210, 9133.229
423.2032, 8986.704
423.6853, 8843.319
424.1674, 8636.017
424.6495, 8339.686
425.1316, 8095.583
425.6137, 7938.703
426.0959, 7792.332
426.5780, 7622.376
427.0601, 7436.122
427.5422, 7256.545
428.0243, 7098.590
428.5064, 6959.029
428.9886, 6821.474
429.4707, 6684.306
429.9528, 6550.768
430.4349, 6419.573
430.9170, 6291.905
431.3991, 6168.502
431.8813, 6049.127
432.3634, 5937.021
432.8455, 5838.073
433.3276, 5752.350
433.8097, 5671.979
434.2918, 5608.255
434.7740, 5535.458
435.2561, 5422.494
435.7382, 5278.506
436.2203, 5156.906
436.7024, 5103.518
437.1845, 5084.688
437.6667, 5036.329
438.1488, 4952.750
438.6309, 4862.534
439.1130, 4783.051
439.5951, 4710.976
440.0772, 4635.142
440.5594, 4546.966
441.0415, 4464.754
441.5236, 4401.484
442.0057, 4351.725
442.4878, 4302.456
442.9699, 4248.375
443.4521, 4192.740
443.9342, 4141.063
444.4163, 4094.474
444.8984, 4048.807
445.3805, 4006.114
445.8626, 3962.278
446.3448, 3910.951
446.8269, 3853.542
447.3090, 3799.385
447.7911, 3757.050
448.2732, 3726.406
448.7553, 3695.395
449.2375, 3665.542
449.7196, 3633.542
450.2017, 3595.176
450.6838, 3555.243
451.1659, 3522.166
451.6480, 3499.813
452.1302, 3480.246
452.6123, 3446.469
453.0944, 3392.148
453.5765, 3344.934
454.0586, 3308.565
454.5407, 3281.192
455.0229, 3265.867
455.5050, 3260.897
455.9871, 3255.700
456.4692, 3241.920
456.9513, 3221.875
457.4334, 3205.282
457.9156, 3195.973
458.3977, 3179.966
458.8798, 3136.786
459.3619, 3082.037
459.8440, 3046.565
460.3261, 3047.331
460.8083, 3053.826
461.2904, 3045.293
461.7725, 3023.814
462.2546, 2994.872
462.7367, 2957.744
463.2188, 2920.407
463.7010, 2898.516
464.1831, 2897.667
464.6652, 2891.672
465.1473, 2874.489
465.6294, 2853.116
466.1115, 2832.228
466.5937, 2812.858
467.0758, 2795.592
467.5579, 2781.600
468.0400, 2770.591
468.5221, 2753.991
469.0042, 2722.149
469.4864, 2695.868
469.9685, 2679.601
470.4506, 2670.890
470.9327, 2670.316
471.4148, 2677.690
471.8969, 2682.376
472.3791, 2663.754
472.8612, 2614.157
473.3433, 2574.946
473.8254, 2552.092
474.3075, 2539.060
474.7896, 2538.967
475.2718, 2547.468
475.7539, 2549.848
476.2360, 2531.183
476.7181, 2502.378
477.2002, 2489.623
477.6823, 2495.799
478.1645, 2501.405
478.6466, 2497.654
479.1287, 2486.430
479.6108, 2471.208
480.0929, 2448.931
480.5751, 2429.629
481.0572, 2418.450
481.5393, 2413.796
482.0214, 2415.881
482.5035, 2425.569
482.9857, 2431.086
483.4678, 2416.766
483.9499, 2376.889
484.4320, 2350.211
484.9141, 2347.128
485.3962, 2346.297
485.8784, 2337.672
486.3605, 2322.540
486.8426, 2305.258
487.3247, 2288.061
487.8068, 2271.159
488.2889, 2255.045
488.7711, 2239.152
489.2532, 2225.353
489.7353, 2210.561
490.2174, 2199.878
490.6995, 2201.532
491.1816, 2213.725
491.6638, 2222.031
492.1459, 2208.647
492.6280, 2177.957
493.1101, 2162.556
493.5922, 2169.092
494.0743, 2177.047
494.5565, 2177.674
495.0386, 2171.999
495.5207, 2159.718
496.0028, 2137.056
496.4849, 2114.704
496.9670, 2102.382
497.4492, 2097.607
497.9313, 2091.872
498.4134, 2082.707
498.8955, 2071.939
499.3776, 2061.252
499.8597, 2050.180
500.3419, 2042.570
500.8240, 2045.213
501.3061, 2045.892
501.7882, 2032.692
502.2703, 2009.665
502.7524, 1990.886
503.2346, 1985.153
503.7167, 1988.951
504.1988, 1989.415
504.6809, 1982.567
505.1630, 1978.560
505.6451, 1982.073
506.1273, 1985.786
506.6094, 1985.189
507.0915, 1979.096
507.5736, 1967.151
508.0557, 1943.167
508.5378, 1909.954
509.0200, 1896.556
509.5021, 1911.614
509.9842, 1930.032
510.4663, 1943.139
510.9484, 1950.448
511.4305, 1949.401
511.9127, 1935.811
512.3948, 1921.391
512.8769, 1916.308
513.3590, 1918.087
513.8411, 1918.446
514.3232, 1915.016
514.8054, 1910.550
515.2875, 1909.161
515.7696, 1912.007
516.2517, 1908.950
516.7338, 1895.589
517.2159, 1880.010
517.6981, 1862.837
518.1802, 1847.279
518.6623, 1841.505
519.1444, 1850.317
519.6265, 1867.554
520.1086, 1876.855
520.5908, 1875.932
521.0729, 1870.984
521.5550, 1857.752
522.0371, 1844.902
522.5192, 1838.339
523.0013, 1837.890
523.4835, 1839.428
523.9656, 1841.165
524.4477, 1842.320
524.9298, 1839.882
525.4119, 1833.243
525.8940, 1825.095
526.3762, 1816.149
526.8583, 1806.538
527.3404, 1796.055
527.8225, 1783.689
528.3046, 1773.698
528.7867, 1770.441
529.2689, 1770.423
529.7510, 1766.340
530.2331, 1756.916
530.7152, 1749.676
531.1973, 1753.282
531.6794, 1767.999
532.1616, 1769.871
532.6437, 1741.629
533.1258, 1722.402
533.6079, 1731.888
534.0900, 1754.596
534.5721, 1770.300
535.0543, 1771.806
535.5364, 1763.703
536.0185, 1749.083
536.5006, 1723.942
536.9827, 1713.812
537.4648, 1737.109
537.9470, 1756.228
538.4291, 1753.015
538.9112, 1733.350
539.3933, 1709.437
539.8754, 1680.272
540.3575, 1657.872
540.8397, 1665.619
541.3218, 1699.842
541.8039, 1718.774
542.2860, 1705.600
542.7681, 1679.028
543.2502, 1663.514
543.7324, 1658.990
544.2145, 1659.302
544.6966, 1666.304
545.1787, 1675.598
545.6608, 1689.321
546.1429, 1703.118
546.6251, 1702.914
547.1072, 1679.313
547.5893, 1642.196
548.0714, 1619.592
548.5535, 1616.593
549.0356, 1620.298
549.5178, 1638.752
549.9999, 1655.624
550.4820, 1659.175
550.9641, 1650.340
551.4462, 1638.228
551.9283, 1627.229
552.4105, 1618.539
552.8926, 1616.389
553.3747, 1621.823
553.8568, 1629.133
554.3389, 1641.687
554.8210, 1650.780
555.3032, 1639.867
555.7853, 1601.014
556.2674, 1576.236
556.7495, 1597.318
557.2316, 1633.449
557.7137, 1643.339
558.1959, 1625.064
558.6780, 1605.139
559.1601, 1603.561
559.6422, 1617.217
560.1243, 1624.306
560.6064, 1619.005
561.0886, 1614.079
561.5707, 1612.043
562.0528, 1609.985
562.5349, 1605.044
563.0170, 1596.902
563.4991, 1587.471
563.9813, 1578.303
564.4634, 1569.370
564.9455, 1559.487
565.4276, 1546.417
565.9097, 1537.758
566.3918, 1541.908
566.8740, 1550.790
567.3561, 1553.867
567.8382, 1548.597
568.3203, 1541.471
568.8024, 1531.669
569.2845, 1523.715
569.7667, 1528.254
570.2488, 1546.544
570.7309, 1564.991
571.2130, 1572.012
571.6951, 1568.156
572.1772, 1565.000
572.6594, 1563.436
573.1415, 1561.424
573.6236, 1559.088
574.1057, 1555.839
574.5878, 1550.316
575.0699, 1542.582
575.5521, 1535.179
576.0342, 1530.880
576.5163, 1529.563
576.9984, 1529.125
577.4805, 1530.357
577.9626, 1530.913
578.4448, 1529.928
578.9269, 1527.475
579.4090, 1522.764
579.8911, 1514.049
580.3732, 1507.757
580.8553, 1510.366
581.3375, 1517.345
581.8196, 1521.028
582.3017, 1520.025
582.7838, 1514.158
583.2659, 1501.363
583.7480, 1482.375
584.2302, 1474.645
584.7123, 1491.290
585.1944, 1502.299
585.6765, 1496.344
586.1587, 1485.272
586.6408, 1483.710
587.1229, 1493.710
587.6050, 1502.816
588.0872, 1494.306
588.5693, 1470.706
589.0514, 1462.266
589.5335, 1476.619
590.0156, 1488.326
590.4977, 1479.688
590.9799, 1462.641
591.4620, 1454.378
591.9441, 1459.430
592.4262, 1464.710
592.9083, 1462.386
593.3904, 1456.643
593.8726, 1453.248
594.3547, 1453.102
594.8368, 1455.521
595.3189, 1460.603
595.8010, 1467.715
596.2831, 1471.414
596.7653, 1468.101
597.2474, 1465.791
597.7295, 1465.784
598.2116, 1466.713
598.6937, 1468.767
599.1758, 1471.131
599.6580, 1470.279
