##NAMES=Orientite
##RRUFFID=R060936
##IDEAL CHEMISTRY=Ca_8_Mn^3+^_10_(SiO_4_)_3_(Si_3_O_10_)_3_(OH)_10_&#183;4H_2_O
##LOCALITY=Cerchiara mine, Liguria, Italy
##OWNER=RRUFF
##SOURCE=Michael Scott
##DESCRIPTION=Hexagonal looking chocolate-brown crystals
##STATUS=The identification of this mineral is confirmed by single-crystal X-ray diffraction and chemical analysis.
##URL=rruff.info/R060936
##MEASURED CHEMISTRY=(Ca_7.49_Mg_0.51_)_Σ=8_(Mn^3+^_9.06_Al_0.94_)_Σ=10_(Si_1.00_O_4_)_3_(Si_3.00_O_10_)_3_(OH)_10_·4H_2_O; OH by charge balance; H_2_O assumed by stoichiometry
136.9508, 1180.275
137.4329, 1194.320
137.9150, 1205.179
138.3971, 1221.250
138.8792, 1246.829
139.3613, 1279.110
139.8434, 1299.529
140.3256, 1304.053
140.8077, 1304.471
141.2898, 1312.495
141.7719, 1331.789
142.2540, 1348.724
142.7361, 1359.685
143.2183, 1364.248
143.7004, 1369.514
144.1825, 1374.493
144.6646, 1380.902
145.1467, 1390.643
145.6288, 1402.861
146.1110, 1419.900
146.5931, 1444.915
147.0752, 1486.592
147.5573, 1512.189
148.0394, 1514.521
148.5215, 1501.914
149.0037, 1491.108
149.4858, 1477.641
149.9679, 1470.070
150.4500, 1472.108
150.9321, 1498.217
151.4142, 1513.551
151.8964, 1510.385
152.3785, 1494.609
152.8606, 1486.833
153.3427, 1494.572
153.8248, 1506.284
154.3069, 1516.182
154.7890, 1525.318
155.2712, 1531.183
155.7533, 1533.240
156.2354, 1531.614
156.7175, 1527.472
157.1996, 1518.170
157.6817, 1507.802
158.1639, 1499.456
158.6460, 1487.645
159.1281, 1483.549
159.6102, 1495.368
160.0923, 1523.742
160.5744, 1546.434
161.0566, 1550.770
161.5387, 1546.838
162.0208, 1545.866
162.5029, 1553.846
162.9850, 1563.856
163.4671, 1574.672
163.9493, 1587.221
164.4314, 1592.707
164.9135, 1579.100
165.3956, 1556.457
165.8777, 1541.029
166.3598, 1548.143
166.8420, 1560.144
167.3241, 1563.907
167.8062, 1555.912
168.2883, 1545.258
168.7704, 1536.438
169.2525, 1529.382
169.7346, 1523.836
170.2168, 1520.409
170.6989, 1518.205
171.1810, 1516.340
171.6631, 1514.572
172.1452, 1513.276
172.6273, 1513.608
173.1095, 1515.011
173.5916, 1515.176
174.0737, 1509.006
174.5558, 1501.392
175.0379, 1500.321
175.5201, 1511.633
176.0022, 1525.888
176.4843, 1530.179
176.9664, 1525.594
177.4485, 1522.052
177.9306, 1529.331
178.4128, 1543.283
178.8949, 1554.901
179.3770, 1558.304
179.8591, 1559.604
180.3412, 1570.933
180.8233, 1592.545
181.3055, 1613.193
181.7876, 1618.237
182.2697, 1612.604
182.7518, 1613.197
183.2339, 1631.354
183.7160, 1659.622
184.1982, 1679.641
184.6803, 1690.787
185.1624, 1697.993
185.6445, 1707.496
186.1266, 1718.438
186.6087, 1726.163
187.0908, 1722.654
187.5730, 1712.990
188.0551, 1718.642
188.5372, 1742.252
189.0193, 1773.759
189.5014, 1801.171
189.9835, 1824.787
190.4657, 1845.936
190.9478, 1863.114
191.4299, 1877.485
191.9120, 1898.255
192.3941, 1928.674
192.8762, 1960.027
193.3584, 1973.933
193.8405, 1969.550
194.3226, 1965.607
194.8047, 1973.142
195.2868, 1991.816
195.7689, 2013.656
196.2511, 2040.437
196.7332, 2067.712
197.2153, 2083.167
197.6974, 2085.472
198.1795, 2085.996
198.6616, 2092.004
199.1438, 2103.833
199.6259, 2116.012
200.1080, 2128.084
200.5901, 2140.085
201.0722, 2151.404
201.5543, 2161.626
202.0364, 2172.919
202.5186, 2187.676
203.0007, 2206.512
203.4828, 2223.627
203.9649, 2238.234
204.4470, 2250.394
204.9291, 2260.223
205.4113, 2267.582
205.8934, 2272.899
206.3755, 2276.592
206.8576, 2278.747
207.3397, 2278.079
207.8218, 2271.879
208.3040, 2261.733
208.7861, 2263.561
209.2682, 2282.039
209.7503, 2303.513
210.2324, 2315.331
210.7145, 2315.776
211.1967, 2312.424
211.6788, 2304.821
212.1609, 2293.371
212.6430, 2289.072
213.1251, 2292.740
213.6072, 2302.535
214.0894, 2319.008
214.5715, 2347.370
215.0536, 2367.601
215.5357, 2371.387
216.0178, 2357.620
216.4999, 2354.941
216.9820, 2367.620
217.4642, 2386.232
217.9463, 2399.758
218.4284, 2405.976
218.9105, 2411.903
219.3926, 2420.883
219.8747, 2434.212
220.3569, 2438.007
220.8390, 2429.437
221.3211, 2413.897
221.8032, 2397.097
222.2853, 2376.197
222.7674, 2360.469
223.2496, 2354.265
223.7317, 2360.036
224.2138, 2362.186
224.6959, 2360.257
225.1780, 2355.203
225.6601, 2348.219
226.1423, 2339.229
226.6244, 2328.568
227.1065, 2316.286
227.5886, 2301.970
228.0707, 2287.177
228.5528, 2272.063
229.0350, 2256.055
229.5171, 2238.463
229.9992, 2218.873
230.4813, 2197.659
230.9634, 2173.608
231.4455, 2142.921
231.9276, 2121.737
232.4098, 2114.602
232.8919, 2114.732
233.3740, 2108.491
233.8561, 2090.037
234.3382, 2074.690
234.8203, 2068.439
235.3025, 2074.943
235.7846, 2080.534
236.2667, 2085.735
236.7488, 2089.867
237.2309, 2091.130
237.7130, 2087.868
238.1952, 2084.295
238.6773, 2080.860
239.1594, 2074.002
239.6415, 2077.651
240.1236, 2097.851
240.6057, 2126.616
241.0879, 2145.843
241.5700, 2151.584
242.0521, 2153.452
242.5342, 2154.236
243.0163, 2151.198
243.4984, 2154.013
243.9806, 2165.131
244.4627, 2181.266
244.9448, 2194.928
245.4269, 2206.341
245.9090, 2214.744
246.3911, 2220.545
246.8732, 2226.369
247.3554, 2221.832
247.8375, 2199.614
248.3196, 2169.077
248.8017, 2154.720
249.2838, 2165.090
249.7659, 2178.592
250.2481, 2187.617
250.7302, 2195.137
251.2123, 2190.444
251.6944, 2168.548
252.1765, 2136.384
252.6586, 2109.915
253.1408, 2089.783
253.6229, 2074.463
254.1050, 2064.228
254.5871, 2062.897
255.0692, 2057.070
255.5513, 2045.688
256.0334, 2030.267
256.5156, 2013.978
256.9977, 1996.382
257.4798, 1978.473
257.9619, 1960.008
258.4440, 1938.787
258.9261, 1923.342
259.4083, 1917.030
259.8904, 1914.693
260.3725, 1902.539
260.8546, 1873.606
261.3367, 1848.043
261.8188, 1837.623
262.3010, 1851.176
262.7831, 1849.960
263.2652, 1828.898
263.7473, 1795.757
264.2294, 1766.283
264.7115, 1739.136
265.1937, 1719.280
265.6758, 1711.494
266.1579, 1720.281
266.6400, 1723.111
267.1221, 1719.721
267.6042, 1710.406
268.0864, 1693.931
268.5685, 1666.311
269.0506, 1642.011
269.5327, 1628.547
270.0148, 1628.300
270.4969, 1626.511
270.9791, 1622.581
271.4612, 1617.755
271.9433, 1615.469
272.4254, 1617.271
272.9075, 1616.240
273.3896, 1606.462
273.8718, 1585.675
274.3539, 1577.281
274.8360, 1586.354
275.3181, 1601.026
275.8002, 1597.870
276.2823, 1573.089
276.7645, 1549.211
277.2466, 1534.230
277.7287, 1528.283
278.2108, 1532.638
278.6929, 1550.421
279.1750, 1572.680
279.6572, 1585.190
280.1393, 1587.114
280.6214, 1586.061
281.1035, 1584.656
281.5856, 1582.882
282.0677, 1581.161
282.5499, 1580.148
283.0320, 1577.553
283.5141, 1568.192
283.9962, 1551.702
284.4783, 1537.845
284.9604, 1530.825
285.4425, 1530.133
285.9247, 1532.397
286.4068, 1538.418
286.8889, 1544.394
287.3710, 1541.505
287.8531, 1530.659
288.3352, 1529.327
288.8174, 1550.221
289.2995, 1586.683
289.7816, 1609.720
290.2637, 1617.666
290.7458, 1619.908
291.2279, 1626.524
291.7101, 1636.697
292.1922, 1645.180
292.6743, 1651.267
293.1564, 1654.013
293.6385, 1648.141
294.1206, 1632.953
294.6028, 1618.663
295.0849, 1616.204
295.5670, 1623.300
296.0491, 1631.543
296.5312, 1639.111
297.0133, 1645.619
297.4955, 1650.076
297.9776, 1652.458
298.4597, 1653.777
298.9418, 1652.591
299.4239, 1650.892
299.9060, 1653.972
300.3882, 1666.838
300.8703, 1682.263
301.3524, 1690.015
301.8345, 1690.413
302.3166, 1687.323
302.7987, 1681.003
303.2809, 1673.489
303.7630, 1668.645
304.2451, 1670.103
304.7272, 1671.285
305.2093, 1663.801
305.6914, 1648.865
306.1736, 1633.999
306.6557, 1626.675
307.1378, 1621.094
307.6199, 1608.954
308.1020, 1584.113
308.5841, 1559.666
309.0663, 1545.356
309.5484, 1539.982
310.0305, 1540.048
310.5126, 1550.111
310.9947, 1561.341
311.4768, 1565.106
311.9590, 1557.826
312.4411, 1547.562
312.9232, 1538.517
313.4053, 1530.143
313.8874, 1521.339
314.3695, 1509.642
314.8517, 1498.446
315.3337, 1490.681
315.8159, 1488.209
316.2980, 1484.598
316.7801, 1476.863
317.2622, 1466.141
317.7443, 1454.328
318.2264, 1440.086
318.7086, 1426.697
319.1907, 1415.019
319.6728, 1404.536
320.1549, 1398.766
320.6370, 1403.115
321.1191, 1411.514
321.6013, 1416.264
322.0834, 1412.335
322.5655, 1407.396
323.0476, 1402.985
323.5297, 1398.899
324.0118, 1397.779
324.4940, 1407.108
324.9761, 1416.471
325.4582, 1415.956
325.9403, 1388.545
326.4224, 1367.732
326.9045, 1362.356
327.3867, 1373.267
327.8688, 1380.690
328.3509, 1381.499
328.8330, 1380.326
329.3151, 1380.500
329.7972, 1385.742
330.2794, 1387.256
330.7615, 1380.679
331.2436, 1367.846
331.7257, 1365.149
332.2078, 1382.050
332.6899, 1398.937
333.1721, 1402.941
333.6542, 1383.680
334.1363, 1373.343
334.6184, 1377.757
335.1005, 1391.720
335.5826, 1397.511
336.0648, 1391.163
336.5469, 1383.998
337.0290, 1381.796
337.5111, 1385.885
337.9932, 1389.570
338.4753, 1391.530
338.9575, 1394.003
339.4396, 1402.950
339.9217, 1420.567
340.4038, 1436.087
340.8859, 1444.841
341.3680, 1446.574
341.8502, 1445.300
342.3323, 1439.675
342.8144, 1434.233
343.2965, 1436.958
343.7786, 1448.188
344.2607, 1457.740
344.7429, 1459.650
345.2250, 1456.523
345.7071, 1463.149
346.1892, 1481.114
346.6713, 1499.772
347.1534, 1505.329
347.6355, 1500.556
348.1176, 1501.783
348.5998, 1516.815
349.0819, 1539.063
349.5640, 1555.040
350.0461, 1565.009
350.5282, 1573.256
351.0103, 1581.409
351.4925, 1590.532
351.9746, 1603.531
352.4567, 1622.346
352.9388, 1643.211
353.4209, 1665.419
353.9030, 1687.206
354.3852, 1700.788
354.8673, 1690.697
355.3494, 1673.923
355.8315, 1671.969
356.3136, 1691.839
356.7957, 1717.388
357.2779, 1740.959
357.7600, 1761.113
358.2421, 1774.211
358.7242, 1772.328
359.2063, 1767.222
359.6884, 1765.928
360.1706, 1768.782
360.6527, 1777.950
361.1348, 1801.956
361.6169, 1831.002
362.0990, 1851.840
362.5811, 1850.302
363.0633, 1848.982
363.5454, 1857.173
364.0275, 1875.524
364.5096, 1895.410
364.9917, 1918.720
365.4738, 1940.596
365.9560, 1957.144
366.4381, 1961.435
366.9202, 1967.033
367.4023, 1976.565
367.8844, 1989.722
368.3665, 2003.164
368.8487, 2024.536
369.3308, 2040.406
369.8129, 2042.991
370.2950, 2010.655
370.7771, 1998.781
371.2592, 2019.801
371.7414, 2060.230
372.2235, 2083.854
372.7056, 2079.196
373.1877, 2075.027
373.6698, 2084.467
374.1519, 2112.905
374.6341, 2131.403
375.1162, 2136.052
375.5983, 2134.648
376.0804, 2138.829
376.5625, 2149.572
377.0446, 2161.839
377.5267, 2173.489
378.0089, 2184.905
378.4910, 2202.573
378.9731, 2229.181
379.4552, 2252.469
379.9373, 2255.551
380.4194, 2239.226
380.9016, 2228.632
381.3837, 2230.489
381.8658, 2241.132
382.3479, 2252.193
382.8300, 2263.658
383.3121, 2275.379
383.7943, 2286.980
384.2764, 2298.583
384.7585, 2311.403
385.2406, 2326.527
385.7227, 2340.336
386.2048, 2346.671
386.6870, 2347.002
387.1691, 2346.485
387.6512, 2350.740
388.1333, 2354.371
388.6154, 2349.351
389.0975, 2333.943
389.5797, 2317.696
390.0618, 2309.043
390.5439, 2304.157
391.0260, 2297.479
391.5081, 2284.358
391.9902, 2270.876
392.4724, 2262.327
392.9545, 2258.435
393.4366, 2250.636
393.9187, 2227.729
394.4008, 2203.506
394.8829, 2188.719
395.3651, 2202.883
395.8472, 2208.180
396.3293, 2186.306
396.8114, 2145.998
397.2935, 2119.299
397.7756, 2125.144
398.2578, 2134.980
398.7399, 2135.979
399.2220, 2121.229
399.7041, 2109.585
400.1862, 2105.037
400.6683, 2102.376
401.1505, 2092.475
401.6326, 2064.657
402.1147, 2045.300
402.5968, 2043.736
403.0789, 2061.869
403.5610, 2073.381
404.0432, 2076.279
404.5253, 2075.376
405.0074, 2074.667
405.4895, 2073.718
405.9716, 2075.166
406.4537, 2080.656
406.9359, 2088.461
407.4180, 2090.583
407.9001, 2085.695
408.3822, 2082.733
408.8643, 2088.578
409.3464, 2102.466
409.8285, 2118.724
410.3106, 2138.978
410.7928, 2155.600
411.2749, 2152.423
411.7570, 2132.656
412.2391, 2116.911
412.7212, 2115.930
413.2033, 2125.567
413.6855, 2140.412
414.1676, 2160.515
414.6497, 2179.237
415.1318, 2193.038
415.6139, 2200.956
416.0960, 2200.691
416.5782, 2183.667
417.0603, 2165.667
417.5424, 2159.709
418.0245, 2164.121
418.5066, 2170.881
418.9887, 2179.909
419.4709, 2187.282
419.9530, 2189.780
420.4351, 2185.049
420.9172, 2179.093
421.3993, 2174.568
421.8814, 2170.218
422.3636, 2163.686
422.8457, 2150.167
423.3278, 2138.422
423.8099, 2132.465
424.2920, 2133.929
424.7741, 2133.322
425.2563, 2131.181
425.7384, 2126.249
426.2205, 2117.186
426.7026, 2100.116
427.1847, 2085.143
427.6668, 2073.510
428.1490, 2065.009
428.6311, 2059.194
429.1132, 2057.873
429.5953, 2055.523
430.0774, 2048.561
430.5595, 2036.287
431.0417, 2023.490
431.5238, 2009.408
432.0059, 1996.521
432.4880, 1990.396
432.9701, 1991.281
433.4522, 1991.327
433.9344, 1985.237
434.4165, 1975.812
434.8986, 1976.084
435.3807, 1986.863
435.8628, 1995.110
436.3449, 1984.239
436.8271, 1961.124
437.3092, 1943.462
437.7913, 1936.466
438.2734, 1936.156
438.7555, 1941.359
439.2376, 1950.418
439.7197, 1957.089
440.2018, 1954.320
440.6840, 1949.350
441.1661, 1950.277
441.6482, 1960.157
442.1303, 1966.409
442.6124, 1956.705
443.0945, 1940.870
443.5767, 1932.522
444.0588, 1946.145
444.5409, 1957.822
445.0230, 1958.144
445.5051, 1947.130
445.9872, 1936.619
446.4694, 1925.059
446.9515, 1916.978
447.4336, 1915.359
447.9157, 1928.615
448.3978, 1936.310
448.8799, 1936.473
449.3621, 1931.280
449.8442, 1925.462
450.3263, 1918.320
450.8084, 1911.963
451.2905, 1907.368
451.7726, 1904.706
452.2548, 1901.363
452.7369, 1897.129
453.2190, 1892.580
453.7011, 1888.963
454.1832, 1886.354
454.6653, 1880.532
455.1475, 1868.660
455.6296, 1854.819
456.1117, 1848.876
456.5938, 1850.560
457.0759, 1854.013
457.5580, 1857.938
458.0402, 1860.461
458.5223, 1856.452
459.0044, 1844.396
459.4865, 1831.438
459.9686, 1826.230
460.4507, 1824.753
460.9329, 1819.197
461.4150, 1797.025
461.8971, 1777.118
462.3792, 1775.559
462.8613, 1790.444
463.3434, 1802.840
463.8256, 1804.455
464.3077, 1800.145
464.7898, 1792.730
465.2719, 1778.012
465.7540, 1767.968
466.2361, 1765.799
466.7183, 1769.650
467.2004, 1775.935
467.6825, 1790.591
468.1646, 1800.992
468.6467, 1802.872
469.1288, 1795.065
469.6110, 1788.516
470.0930, 1781.575
470.5752, 1777.808
471.0573, 1780.946
471.5394, 1792.589
472.0215, 1805.426
472.5036, 1820.269
472.9857, 1834.255
473.4679, 1836.682
473.9500, 1826.295
474.4321, 1820.388
474.9142, 1831.066
475.3963, 1854.574
475.8784, 1875.877
476.3606, 1894.812
476.8427, 1910.435
477.3248, 1917.366
477.8069, 1920.183
478.2890, 1929.918
478.7711, 1954.689
479.2533, 1982.754
479.7354, 2004.578
480.2175, 2020.296
480.6996, 2030.419
481.1817, 2027.304
481.6638, 2023.654
482.1460, 2028.719
482.6281, 2044.430
483.1102, 2066.148
483.5923, 2101.010
484.0744, 2137.937
484.5565, 2163.610
485.0387, 2155.312
485.5208, 2156.593
486.0029, 2183.111
486.4850, 2231.447
486.9671, 2267.155
487.4492, 2282.388
487.9314, 2293.793
488.4135, 2310.064
488.8956, 2333.058
489.3777, 2355.358
489.8598, 2377.583
490.3419, 2398.679
490.8241, 2419.491
491.3062, 2441.165
491.7883, 2451.949
492.2704, 2443.180
492.7525, 2422.426
493.2346, 2417.079
493.7168, 2427.296
494.1989, 2437.258
494.6810, 2430.932
495.1631, 2415.651
495.6452, 2409.292
496.1273, 2417.696
496.6095, 2425.209
497.0916, 2415.062
497.5737, 2392.970
498.0558, 2369.878
498.5379, 2350.609
499.0201, 2332.141
499.5022, 2311.544
499.9843, 2289.013
500.4664, 2270.777
500.9485, 2269.461
501.4306, 2266.672
501.9127, 2249.427
502.3948, 2199.628
502.8770, 2160.764
503.3591, 2143.330
503.8412, 2137.131
504.3233, 2125.054
504.8054, 2104.925
505.2875, 2082.097
505.7697, 2056.490
506.2518, 2028.129
506.7339, 2004.025
507.2160, 1984.239
507.6981, 1968.479
508.1802, 1958.841
508.6624, 1955.142
509.1445, 1945.411
509.6266, 1926.640
510.1087, 1905.682
510.5908, 1895.402
511.0729, 1893.381
511.5551, 1887.515
512.0372, 1868.962
512.5193, 1844.813
513.0014, 1822.743
513.4835, 1803.053
513.9656, 1789.979
514.4478, 1791.189
514.9299, 1797.945
515.4120, 1801.508
515.8941, 1798.359
516.3762, 1795.529
516.8583, 1797.048
517.3405, 1800.456
517.8226, 1801.769
518.3047, 1798.668
518.7868, 1794.841
519.2689, 1792.975
519.7510, 1793.041
520.2332, 1784.957
520.7153, 1761.230
521.1974, 1738.648
521.6795, 1728.583
522.1616, 1735.703
522.6437, 1738.561
523.1259, 1735.574
523.6080, 1729.238
524.0901, 1723.554
524.5722, 1718.540
525.0543, 1712.350
525.5364, 1702.430
526.0186, 1691.753
526.5007, 1688.735
526.9828, 1693.058
527.4649, 1699.213
527.9470, 1705.575
528.4291, 1710.344
528.9113, 1710.516
529.3934, 1704.960
529.8755, 1697.815
530.3576, 1691.391
530.8397, 1685.392
531.3218, 1679.255
531.8040, 1673.665
532.2861, 1667.092
532.7682, 1658.464
533.2503, 1648.093
533.7324, 1638.699
534.2145, 1626.407
534.6967, 1618.966
535.1788, 1621.322
535.6609, 1640.061
536.1430, 1648.091
536.6251, 1641.377
537.1072, 1628.237
537.5894, 1618.216
538.0715, 1611.850
538.5536, 1605.422
539.0357, 1596.719
539.5178, 1588.712
539.9999, 1592.040
540.4821, 1606.462
540.9642, 1619.083
541.4463, 1619.923
541.9284, 1613.997
542.4105, 1612.658
542.8926, 1616.572
543.3748, 1620.968
543.8569, 1621.662
544.3390, 1620.379
544.8211, 1619.521
545.3032, 1620.415
545.7853, 1620.852
546.2675, 1619.870
546.7495, 1617.619
547.2316, 1614.444
547.7137, 1606.148
548.1959, 1601.069
548.6780, 1604.686
549.1601, 1618.768
549.6422, 1623.968
550.1243, 1613.483
550.6064, 1601.440
551.0886, 1598.553
551.5707, 1608.997
552.0528, 1612.900
552.5349, 1606.457
553.0170, 1596.772
553.4991, 1596.965
553.9813, 1607.007
554.4634, 1617.312
554.9455, 1624.483
555.4276, 1629.635
555.9097, 1635.037
556.3918, 1640.642
556.8740, 1646.173
557.3561, 1649.302
557.8382, 1653.230
558.3203, 1664.125
558.8024, 1685.189
559.2845, 1700.787
559.7667, 1696.788
560.2488, 1684.418
560.7309, 1676.793
561.2130, 1678.801
561.6951, 1684.315
562.1772, 1693.607
562.6594, 1705.689
563.1415, 1716.985
563.6236, 1731.494
564.1057, 1739.443
564.5878, 1734.121
565.0699, 1713.581
565.5521, 1707.410
566.0342, 1720.056
566.5163, 1736.454
566.9984, 1742.463
567.4805, 1738.540
567.9626, 1734.787
568.4448, 1731.677
568.9269, 1731.704
569.4090, 1738.566
569.8911, 1751.640
570.3732, 1769.074
570.8553, 1796.799
571.3375, 1823.871
571.8196, 1836.094
572.3017, 1835.866
572.7838, 1837.408
573.2659, 1850.030
573.7480, 1865.324
574.2302, 1876.197
574.7123, 1876.272
575.1944, 1887.357
575.6765, 1927.860
576.1586, 1973.611
576.6407, 1998.490
577.1229, 1983.895
577.6050, 1984.081
578.0871, 2010.974
578.5692, 2054.908
579.0513, 2085.914
579.5334, 2102.367
580.0156, 2114.852
580.4977, 2124.703
580.9798, 2134.153
581.4619, 2156.732
581.9440, 2192.688
582.4261, 2227.650
582.9083, 2242.739
583.3904, 2249.523
583.8725, 2270.201
584.3546, 2313.222
584.8367, 2355.648
585.3188, 2378.267
585.8010, 2390.743
586.2831, 2408.219
586.7652, 2444.517
587.2473, 2477.437
587.7294, 2499.964
588.2115, 2512.940
588.6937, 2522.648
589.1758, 2528.352
589.6579, 2532.325
590.1400, 2535.795
590.6221, 2539.229
591.1042, 2538.827
591.5864, 2534.736
592.0685, 2526.566
592.5506, 2511.917
593.0327, 2491.260
593.5148, 2474.641
593.9969, 2464.852
594.4791, 2456.338
594.9612, 2444.041
595.4433, 2426.798
595.9254, 2401.144
596.4075, 2358.016
596.8896, 2311.219
597.3718, 2270.647
597.8539, 2236.473
598.3360, 2210.357
598.8181, 2205.607
599.3002, 2199.411
599.7823, 2175.996
600.2645, 2126.756
600.7466, 2086.792
601.2287, 2065.802
601.7108, 2049.933
602.1929, 2027.536
602.6750, 1995.473
603.1572, 1965.741
603.6393, 1939.446
604.1214, 1915.666
604.6035, 1891.651
605.0856, 1867.250
605.5677, 1845.542
606.0499, 1828.552
606.5320, 1814.267
607.0141, 1795.317
607.4962, 1773.161
607.9783, 1758.253
608.4604, 1769.374
608.9425, 1784.915
609.4246, 1779.960
609.9067, 1749.237
610.3889, 1719.150
610.8710, 1702.097
611.3531, 1690.986
611.8352, 1679.490
612.3173, 1664.771
612.7994, 1651.952
613.2816, 1642.922
613.7637, 1635.304
614.2458, 1623.935
614.7279, 1606.692
615.2100, 1591.546
615.6921, 1580.672
616.1743, 1573.554
616.6564, 1568.851
617.1385, 1566.643
617.6206, 1565.128
618.1027, 1566.617
618.5848, 1567.253
619.0670, 1555.609
619.5491, 1530.541
620.0312, 1507.171
620.5133, 1494.758
620.9954, 1491.287
621.4775, 1496.078
621.9597, 1518.526
622.4418, 1531.142
622.9239, 1516.125
623.4060, 1487.580
623.8881, 1467.879
624.3702, 1467.097
624.8524, 1465.588
625.3345, 1460.932
625.8166, 1453.178
626.2987, 1441.584
626.7808, 1424.131
627.2629, 1409.783
627.7451, 1405.406
628.2272, 1408.960
628.7093, 1404.619
629.1914, 1391.970
