##NAMES=Orientite
##RRUFFID=R060936
##IDEAL CHEMISTRY=Ca_8_Mn^3+^_10_(SiO_4_)_3_(Si_3_O_10_)_3_(OH)_10_&#183;4H_2_O
##LOCALITY=Cerchiara mine, Liguria, Italy
##OWNER=RRUFF
##SOURCE=Michael Scott
##DESCRIPTION=Hexagonal looking chocolate-brown crystals
##STATUS=The identification of this mineral is confirmed by single-crystal X-ray diffraction and chemical analysis.
##URL=rruff.info/R060936
##MEASURED CHEMISTRY=(Ca_7.49_Mg_0.51_)_Σ=8_(Mn^3+^_9.06_Al_0.94_)_Σ=10_(Si_1.00_O_4_)_3_(Si_3.00_O_10_)_3_(OH)_10_·4H_2_O; OH by charge balance; H_2_O assumed by stoichiometry
167.8112, 1492.099
168.2934, 1496.781
168.7755, 1499.304
169.2576, 1498.200
169.7397, 1493.499
170.2218, 1489.324
170.7039, 1486.206
171.1861, 1484.611
171.6682, 1485.742
172.1503, 1490.006
172.6324, 1493.764
173.1145, 1492.046
173.5966, 1484.337
174.0788, 1480.487
174.5609, 1488.549
175.0430, 1497.539
175.5251, 1497.763
176.0072, 1487.362
176.4893, 1476.161
176.9715, 1476.312
177.4536, 1489.493
177.9357, 1497.905
178.4178, 1489.599
178.8999, 1480.011
179.3820, 1481.070
179.8642, 1494.954
180.3463, 1511.361
180.8284, 1517.420
181.3105, 1510.780
181.7926, 1509.685
182.2747, 1523.578
182.7569, 1541.208
183.2390, 1555.948
183.7211, 1566.636
184.2032, 1576.206
184.6853, 1588.392
185.1674, 1603.774
185.6496, 1617.916
186.1317, 1625.827
186.6138, 1634.895
187.0959, 1650.839
187.5780, 1674.518
188.0601, 1699.787
188.5423, 1719.937
189.0244, 1734.680
189.5065, 1746.255
189.9886, 1752.773
190.4707, 1757.533
190.9528, 1760.668
191.4350, 1762.602
191.9171, 1766.898
192.3992, 1778.095
192.8813, 1797.123
193.3634, 1817.972
193.8455, 1842.139
194.3277, 1866.441
194.8098, 1887.919
195.2919, 1906.508
195.7740, 1926.088
196.2561, 1954.635
196.7382, 1996.039
197.2204, 2023.239
197.7025, 2013.514
198.1846, 2001.801
198.6667, 2006.970
199.1488, 2030.578
199.6309, 2060.443
200.1131, 2086.167
200.5952, 2108.382
201.0773, 2122.332
201.5594, 2117.665
202.0415, 2111.464
202.5236, 2111.383
203.0058, 2118.085
203.4879, 2127.830
203.9700, 2139.461
204.4521, 2154.120
204.9342, 2160.151
205.4163, 2144.924
205.8985, 2130.022
206.3806, 2126.662
206.8627, 2134.222
207.3448, 2144.098
207.8269, 2150.701
208.3090, 2154.481
208.7912, 2148.571
209.2733, 2119.885
209.7554, 2092.608
210.2375, 2077.354
210.7196, 2073.654
211.2017, 2075.843
211.6839, 2079.983
212.1660, 2086.059
212.6481, 2094.240
213.1302, 2106.810
213.6123, 2119.215
214.0944, 2128.258
214.5766, 2135.106
215.0587, 2143.345
215.5408, 2156.877
216.0229, 2175.164
216.5050, 2190.138
216.9871, 2197.195
217.4693, 2206.472
217.9514, 2227.206
218.4335, 2253.857
218.9156, 2273.258
219.3977, 2271.731
219.8798, 2254.153
220.3620, 2251.951
220.8441, 2278.294
221.3262, 2301.645
221.8083, 2308.854
222.2904, 2304.116
222.7725, 2295.671
223.2547, 2288.838
223.7368, 2281.613
224.2189, 2265.193
224.7010, 2231.011
225.1831, 2202.901
225.6652, 2197.221
226.1474, 2201.913
226.6295, 2198.604
227.1116, 2176.514
227.5937, 2142.957
228.0758, 2113.892
228.5579, 2087.699
229.0400, 2070.511
229.5222, 2074.312
230.0043, 2084.844
230.4864, 2084.091
230.9685, 2062.575
231.4506, 2031.365
231.9327, 2009.167
232.4149, 1998.272
232.8970, 1988.012
233.3791, 1975.831
233.8612, 1961.503
234.3433, 1942.660
234.8254, 1915.876
235.3076, 1891.790
235.7897, 1887.301
236.2718, 1905.380
236.7539, 1919.775
237.2360, 1914.853
237.7181, 1905.926
238.2003, 1907.937
238.6824, 1924.734
239.1645, 1945.131
239.6466, 1959.119
240.1287, 1966.789
240.6108, 1972.483
241.0930, 1975.222
241.5751, 1978.237
242.0572, 1984.816
242.5393, 1995.360
243.0214, 2007.032
243.5035, 2019.809
243.9857, 2032.827
244.4678, 2040.187
244.9499, 2038.155
245.4320, 2033.022
245.9141, 2031.104
246.3962, 2032.350
246.8784, 2034.587
247.3605, 2037.254
247.8426, 2040.072
248.3247, 2042.377
248.8068, 2044.309
249.2889, 2045.151
249.7711, 2044.525
250.2532, 2042.482
250.7353, 2038.091
251.2174, 2033.638
251.6995, 2025.801
252.1816, 2005.123
252.6638, 1967.389
253.1459, 1933.114
253.6280, 1926.328
254.1101, 1940.480
254.5922, 1945.208
255.0743, 1929.762
255.5565, 1905.302
256.0386, 1882.385
256.5207, 1861.621
257.0028, 1840.544
257.4849, 1814.630
257.9670, 1786.982
258.4492, 1771.385
258.9313, 1781.672
259.4134, 1792.962
259.8955, 1788.986
260.3776, 1771.019
260.8597, 1745.863
261.3419, 1713.761
261.8240, 1678.996
262.3061, 1657.731
262.7882, 1663.185
263.2703, 1665.682
263.7524, 1649.340
264.2346, 1621.495
264.7167, 1599.209
265.1988, 1590.926
265.6809, 1590.169
266.1630, 1579.575
266.6451, 1552.719
267.1273, 1528.283
267.6094, 1509.934
268.0915, 1495.697
268.5736, 1482.980
269.0557, 1470.961
269.5378, 1460.382
270.0200, 1452.604
270.5021, 1450.452
270.9842, 1445.729
271.4663, 1437.649
271.9484, 1427.447
272.4305, 1415.460
272.9127, 1402.002
273.3948, 1388.277
273.8769, 1375.221
274.3590, 1362.115
274.8411, 1353.360
275.3232, 1351.755
275.8054, 1351.307
276.2875, 1347.991
276.7696, 1342.541
277.2517, 1338.854
277.7338, 1340.591
278.2159, 1347.929
278.6981, 1352.292
279.1802, 1352.526
279.6623, 1350.995
280.1444, 1345.025
280.6265, 1338.036
281.1086, 1336.811
281.5908, 1346.204
282.0729, 1362.697
282.5550, 1370.169
283.0371, 1360.679
283.5192, 1352.578
284.0013, 1345.630
284.4835, 1342.820
284.9656, 1350.749
285.4477, 1372.400
285.9298, 1395.937
286.4119, 1396.126
286.8940, 1359.423
287.3762, 1333.845
287.8583, 1334.028
288.3404, 1341.592
288.8225, 1344.356
289.3046, 1340.011
289.7867, 1334.113
290.2688, 1330.312
290.7509, 1327.944
291.2331, 1336.381
291.7152, 1366.996
292.1973, 1399.418
292.6794, 1422.667
293.1615, 1437.127
293.6436, 1448.366
294.1258, 1460.716
294.6079, 1473.147
295.0900, 1480.331
295.5721, 1480.498
296.0542, 1478.184
296.5363, 1472.862
297.0185, 1467.211
297.5006, 1467.677
297.9827, 1482.089
298.4648, 1500.807
298.9469, 1508.843
299.4290, 1505.040
299.9112, 1499.641
300.3933, 1496.428
300.8754, 1495.792
301.3575, 1498.577
301.8396, 1507.212
302.3217, 1515.770
302.8039, 1521.564
303.2860, 1524.154
303.7681, 1520.917
304.2502, 1509.888
304.7323, 1493.764
305.2144, 1476.597
305.6966, 1457.010
306.1787, 1440.780
306.6608, 1432.439
307.1429, 1427.822
307.6250, 1419.722
308.1071, 1406.101
308.5893, 1392.409
309.0714, 1386.190
309.5535, 1390.825
310.0356, 1388.745
310.5177, 1375.973
310.9998, 1358.985
311.4820, 1339.375
311.9641, 1318.933
312.4462, 1303.302
312.9283, 1297.374
313.4104, 1301.346
313.8925, 1305.656
314.3747, 1317.596
314.8568, 1322.170
315.3389, 1309.286
315.8210, 1286.271
316.3031, 1265.929
316.7852, 1255.063
317.2674, 1251.589
317.7495, 1248.839
318.2316, 1247.959
318.7137, 1246.121
319.1958, 1244.596
319.6779, 1241.270
320.1601, 1233.763
320.6422, 1221.580
321.1243, 1206.793
321.6064, 1190.133
322.0885, 1167.482
322.5706, 1157.707
323.0528, 1175.118
323.5349, 1194.651
324.0170, 1203.958
324.4991, 1203.796
324.9812, 1202.641
325.4633, 1209.995
325.9455, 1223.458
326.4276, 1223.262
326.9097, 1200.008
327.3918, 1178.302
327.8739, 1169.823
328.3560, 1170.570
328.8382, 1174.791
329.3203, 1182.855
329.8024, 1190.369
330.2845, 1188.586
330.7666, 1176.239
331.2487, 1168.628
331.7309, 1175.791
332.2130, 1189.042
332.6951, 1195.502
333.1772, 1192.827
333.6593, 1188.754
334.1414, 1188.245
334.6236, 1190.012
335.1057, 1189.573
335.5878, 1184.812
336.0699, 1180.303
336.5520, 1183.209
337.0341, 1194.056
337.5163, 1202.887
337.9984, 1208.515
338.4805, 1211.144
338.9626, 1209.496
339.4447, 1204.062
339.9268, 1198.623
340.4090, 1195.212
340.8911, 1194.040
341.3732, 1202.148
341.8553, 1232.565
342.3374, 1256.753
342.8195, 1259.069
343.3017, 1248.461
343.7838, 1241.600
344.2659, 1246.573
344.7480, 1259.110
345.2301, 1267.695
345.7122, 1264.359
346.1944, 1269.354
346.6765, 1290.209
347.1586, 1314.567
347.6407, 1332.974
348.1228, 1343.614
348.6049, 1350.585
349.0871, 1357.966
349.5692, 1365.669
350.0513, 1374.489
350.5334, 1384.082
351.0155, 1395.281
351.4977, 1408.615
351.9798, 1423.745
352.4619, 1440.523
352.9440, 1460.284
353.4261, 1480.496
353.9082, 1492.389
354.3904, 1491.377
354.8725, 1496.090
355.3546, 1522.628
355.8367, 1555.789
356.3188, 1580.275
356.8009, 1591.990
357.2831, 1598.798
357.7652, 1605.177
358.2473, 1611.613
358.7294, 1620.884
359.2115, 1634.942
359.6936, 1649.853
360.1758, 1659.604
360.6579, 1664.242
361.1400, 1671.862
361.6221, 1688.186
362.1042, 1706.452
362.5863, 1718.331
363.0685, 1723.564
363.5506, 1729.053
364.0327, 1740.557
364.5148, 1757.461
364.9969, 1769.627
365.4790, 1773.489
365.9612, 1777.417
366.4433, 1783.578
366.9254, 1791.748
367.4075, 1802.025
367.8896, 1814.430
368.3717, 1827.437
368.8539, 1837.839
369.3360, 1844.040
369.8181, 1850.222
370.3002, 1854.954
370.7823, 1860.735
371.2644, 1870.072
371.7465, 1882.503
372.2286, 1894.984
372.7108, 1904.797
373.1929, 1911.997
373.6750, 1918.880
374.1571, 1924.363
374.6392, 1931.160
375.1213, 1941.141
375.6035, 1952.682
376.0856, 1963.161
376.5677, 1971.372
377.0498, 1978.801
377.5319, 1988.179
378.0140, 1999.686
378.4962, 2009.155
378.9783, 2013.683
379.4604, 2017.084
379.9425, 2024.429
380.4246, 2036.185
380.9067, 2046.415
381.3889, 2049.433
381.8710, 2049.982
382.3531, 2057.797
382.8352, 2074.696
383.3173, 2090.854
383.7994, 2098.426
384.2816, 2097.139
384.7637, 2093.511
385.2458, 2080.990
385.7279, 2072.754
386.2100, 2079.939
386.6921, 2095.933
387.1743, 2106.530
387.6564, 2105.162
388.1385, 2095.253
388.6206, 2084.222
389.1027, 2068.911
389.5848, 2057.522
390.0670, 2053.991
390.5491, 2051.178
391.0312, 2042.445
391.5133, 2028.358
391.9954, 2015.815
392.4775, 2012.174
392.9597, 2017.076
393.4418, 2015.970
393.9239, 2003.233
394.4060, 1992.104
394.8881, 1988.493
395.3702, 1988.545
395.8524, 1987.404
396.3345, 1983.864
396.8166, 1976.671
397.2987, 1962.249
397.7808, 1940.437
398.2629, 1920.908
398.7451, 1904.168
399.2272, 1893.161
399.7093, 1893.775
400.1914, 1905.875
400.6735, 1912.454
401.1556, 1902.542
401.6378, 1885.755
402.1199, 1874.506
402.6020, 1869.756
403.0841, 1865.778
403.5662, 1857.503
404.0483, 1846.500
404.5305, 1844.521
405.0126, 1859.772
405.4947, 1873.030
405.9768, 1876.681
406.4589, 1875.739
406.9410, 1877.696
407.4232, 1884.926
407.9053, 1893.578
408.3874, 1897.085
408.8695, 1891.127
409.3516, 1893.265
409.8337, 1911.620
410.3159, 1929.723
410.7980, 1939.317
411.2801, 1942.388
411.7622, 1945.400
412.2443, 1952.155
412.7264, 1961.936
413.2086, 1972.986
413.6907, 1985.684
414.1728, 1998.444
414.6549, 2011.407
415.1370, 2023.714
415.6191, 2034.362
416.1013, 2043.248
416.5834, 2051.058
417.0655, 2057.852
417.5476, 2063.972
418.0297, 2071.148
418.5118, 2080.344
418.9940, 2086.819
419.4761, 2085.282
419.9582, 2076.250
420.4403, 2069.243
420.9224, 2062.611
421.4045, 2059.994
421.8867, 2067.802
422.3688, 2080.812
422.8509, 2087.115
423.3330, 2081.409
423.8151, 2069.352
424.2972, 2061.981
424.7794, 2063.368
425.2615, 2061.685
425.7436, 2059.473
426.2257, 2052.501
426.7078, 2035.547
427.1899, 2010.948
427.6721, 1985.871
428.1542, 1964.648
428.6363, 1947.874
429.1184, 1940.249
429.6005, 1948.289
430.0826, 1951.309
430.5648, 1937.823
431.0469, 1918.664
431.5290, 1904.379
432.0111, 1897.502
432.4932, 1890.739
432.9753, 1877.111
433.4575, 1858.973
433.9396, 1844.105
434.4217, 1834.238
434.9038, 1825.176
435.3859, 1811.782
435.8680, 1795.084
436.3502, 1784.745
436.8323, 1787.588
437.3144, 1790.674
437.7965, 1785.193
438.2786, 1774.768
438.7607, 1767.503
439.2429, 1766.810
439.7250, 1770.255
440.2071, 1773.474
440.6892, 1776.606
441.1713, 1779.115
441.6534, 1782.056
442.1356, 1783.530
442.6177, 1780.913
443.0998, 1775.672
443.5819, 1772.288
444.0640, 1774.580
444.5461, 1780.007
445.0283, 1780.065
445.5104, 1773.035
445.9925, 1765.604
446.4746, 1757.151
446.9567, 1750.943
447.4388, 1751.977
447.9210, 1761.348
448.4031, 1768.290
448.8852, 1764.139
449.3673, 1753.473
449.8494, 1745.283
450.3315, 1740.596
450.8137, 1737.808
451.2958, 1737.506
451.7779, 1738.417
452.2600, 1731.266
452.7421, 1707.451
453.2242, 1686.334
453.7064, 1673.058
454.1884, 1666.512
454.6706, 1667.524
455.1527, 1675.563
455.6348, 1683.467
456.1169, 1680.817
456.5990, 1664.693
457.0811, 1652.466
457.5633, 1649.217
458.0454, 1644.778
458.5275, 1634.315
459.0096, 1620.683
459.4917, 1609.143
459.9738, 1602.293
460.4560, 1597.654
460.9381, 1591.287
461.4202, 1583.161
461.9023, 1575.908
462.3844, 1569.405
462.8665, 1565.077
463.3487, 1566.763
463.8308, 1573.785
464.3129, 1575.027
464.7950, 1556.578
465.2771, 1539.026
465.7592, 1548.423
466.2414, 1578.684
466.7235, 1598.216
467.2056, 1589.156
467.6877, 1562.237
468.1698, 1545.322
468.6519, 1546.974
469.1341, 1546.948
469.6162, 1540.994
470.0983, 1536.668
470.5804, 1541.157
471.0625, 1553.097
471.5446, 1564.645
472.0268, 1569.665
472.5089, 1569.545
472.9910, 1569.135
473.4731, 1565.037
473.9552, 1569.108
474.4373, 1594.410
474.9195, 1625.028
475.4016, 1646.117
475.8837, 1655.444
476.3658, 1663.817
476.8479, 1677.068
477.3300, 1694.026
477.8122, 1713.674
478.2943, 1735.925
478.7764, 1757.094
479.2585, 1774.808
479.7406, 1789.092
480.2227, 1800.078
480.7049, 1799.406
481.1870, 1806.324
481.6691, 1828.965
482.1512, 1859.191
482.6333, 1889.187
483.1154, 1916.910
483.5976, 1943.148
484.0797, 1968.692
484.5618, 1993.400
485.0439, 2020.405
485.5260, 2055.170
486.0081, 2084.154
486.4903, 2093.743
486.9724, 2099.427
487.4545, 2123.559
487.9366, 2174.829
488.4187, 2228.779
488.9008, 2263.455
489.3830, 2283.091
489.8651, 2303.677
490.3472, 2328.582
490.8293, 2350.399
491.3114, 2361.333
491.7935, 2361.932
492.2757, 2366.522
492.7578, 2379.171
493.2399, 2391.228
493.7220, 2399.000
494.2041, 2404.217
494.6862, 2411.322
495.1684, 2421.108
495.6505, 2426.619
496.1326, 2418.062
496.6147, 2393.697
497.0968, 2367.927
497.5789, 2335.848
498.0611, 2308.521
498.5432, 2297.879
499.0253, 2291.850
499.5074, 2270.260
499.9895, 2223.372
500.4716, 2171.202
500.9538, 2133.737
501.4359, 2109.177
501.9180, 2089.563
502.4001, 2075.268
502.8822, 2060.218
503.3643, 2039.500
503.8465, 2012.817
504.3286, 1981.231
504.8107, 1938.782
505.2928, 1898.034
505.7749, 1861.987
506.2570, 1832.218
506.7392, 1814.850
507.2213, 1810.949
507.7034, 1807.345
508.1855, 1783.351
508.6676, 1733.401
509.1497, 1697.653
509.6319, 1688.331
510.1140, 1679.383
510.5961, 1660.546
511.0782, 1636.391
511.5603, 1613.400
512.0424, 1592.472
512.5245, 1577.333
513.0067, 1576.907
513.4888, 1586.573
513.9709, 1585.190
514.4530, 1566.961
514.9351, 1545.527
515.4172, 1532.986
515.8994, 1529.406
516.3815, 1525.335
516.8636, 1522.450
517.3457, 1517.195
517.8278, 1506.729
518.3099, 1493.679
518.7921, 1481.575
519.2742, 1471.440
519.7563, 1461.847
520.2384, 1450.600
520.7205, 1437.478
521.2026, 1426.791
521.6848, 1419.506
522.1669, 1413.377
522.6490, 1407.931
523.1311, 1402.792
523.6132, 1396.767
524.0953, 1388.730
524.5775, 1383.614
525.0596, 1388.749
525.5417, 1399.149
526.0238, 1401.941
526.5059, 1394.880
526.9880, 1385.854
527.4702, 1380.832
527.9523, 1379.449
528.4344, 1377.727
528.9165, 1378.055
529.3986, 1375.114
529.8807, 1368.232
530.3629, 1357.448
530.8450, 1339.828
531.3271, 1316.704
531.8092, 1297.100
532.2913, 1290.828
532.7734, 1295.668
533.2556, 1297.651
533.7377, 1297.802
534.2198, 1292.061
534.7019, 1269.802
535.1840, 1245.798
535.6661, 1238.702
536.1483, 1252.295
536.6304, 1266.508
537.1125, 1271.641
537.5946, 1272.883
538.0767, 1276.863
538.5588, 1283.638
539.0410, 1290.254
539.5231, 1295.685
540.0052, 1297.950
540.4873, 1289.656
540.9694, 1255.766
541.4515, 1235.914
541.9337, 1239.371
542.4158, 1249.065
542.8979, 1256.735
543.3800, 1260.994
543.8621, 1261.995
544.3442, 1259.058
544.8264, 1253.916
545.3085, 1249.196
545.7906, 1244.880
546.2727, 1242.656
546.7548, 1244.549
547.2369, 1246.289
547.7191, 1240.602
548.2012, 1227.027
548.6833, 1219.882
549.1654, 1229.878
549.6475, 1237.752
550.1296, 1226.598
550.6118, 1206.196
551.0939, 1197.691
551.5760, 1209.017
552.0581, 1227.852
552.5402, 1235.850
553.0223, 1231.359
553.5045, 1225.168
553.9866, 1210.967
554.4687, 1203.789
554.9508, 1214.585
555.4329, 1234.567
555.9150, 1250.160
556.3972, 1258.031
556.8793, 1261.103
557.3614, 1258.542
557.8435, 1253.353
558.3256, 1251.914
558.8077, 1255.164
559.2899, 1259.730
559.7720, 1263.269
560.2541, 1265.718
560.7362, 1266.719
561.2183, 1264.720
561.7004, 1263.183
562.1826, 1261.563
562.6647, 1261.073
563.1468, 1264.104
563.6289, 1269.796
564.1110, 1273.528
564.5931, 1271.086
565.0753, 1264.805
565.5574, 1260.252
566.0395, 1257.519
566.5216, 1254.564
567.0037, 1249.271
567.4858, 1245.163
567.9680, 1247.550
568.4501, 1256.354
568.9322, 1268.604
569.4143, 1287.193
569.8964, 1306.029
570.3785, 1321.651
570.8607, 1334.578
571.3428, 1345.893
571.8249, 1356.054
572.3070, 1366.807
572.7891, 1382.511
573.2712, 1404.716
573.7534, 1419.042
574.2355, 1420.341
574.7176, 1421.166
575.1997, 1423.703
575.6818, 1431.039
576.1639, 1450.432
576.6461, 1488.538
577.1282, 1524.081
577.6103, 1539.776
578.0924, 1547.477
578.5745, 1564.617
579.0566, 1593.463
579.5388, 1629.825
580.0209, 1672.078
580.5030, 1717.670
580.9851, 1754.760
581.4672, 1782.489
581.9493, 1802.559
582.4315, 1806.256
582.9136, 1810.684
583.3957, 1824.365
583.8778, 1848.827
584.3599, 1885.603
584.8420, 1945.360
585.3242, 2007.086
585.8063, 2037.771
586.2884, 2043.023
586.7705, 2057.861
587.2526, 2094.340
587.7347, 2134.141
588.2169, 2155.775
588.6990, 2157.084
589.1811, 2161.863
589.6632, 2174.829
590.1453, 2185.297
590.6274, 2190.723
591.1096, 2191.630
591.5917, 2189.472
592.0738, 2184.274
592.5559, 2173.601
593.0380, 2154.029
593.5201, 2126.916
594.0023, 2096.233
594.4844, 2060.836
594.9665, 2030.015
595.4486, 2011.839
595.9307, 1997.253
596.4128, 1969.062
596.8950, 1924.961
597.3771, 1880.097
597.8592, 1834.008
598.3413, 1790.230
598.8234, 1752.963
599.3055, 1719.756
599.7877, 1685.853
600.2698, 1648.980
600.7519, 1610.294
601.2340, 1570.751
601.7161, 1530.278
602.1982, 1492.007
602.6804, 1455.715
603.1625, 1422.541
603.6446, 1391.729
604.1267, 1364.857
604.6088, 1345.887
605.0909, 1339.258
605.5731, 1331.253
606.0552, 1316.451
606.5373, 1297.686
607.0194, 1275.832
607.5015, 1252.454
607.9836, 1231.961
608.4658, 1217.632
608.9479, 1206.832
609.4300, 1191.870
609.9121, 1170.771
610.3942, 1152.382
610.8763, 1140.215
611.3585, 1128.236
611.8406, 1109.836
612.3227, 1088.572
612.8048, 1075.304
613.2869, 1079.565
613.7690, 1082.239
614.2512, 1069.459
614.7333, 1047.402
615.2154, 1024.587
615.6975, 1003.217
616.1796, 985.6710
616.6617, 973.8829
617.1439, 967.5059
617.6260, 965.1369
618.1081, 970.8458
618.5902, 972.3584
619.0723, 965.6464
619.5544, 955.7822
620.0366, 944.9297
620.5187, 933.6546
621.0008, 923.1490
621.4829, 913.2557
621.9650, 905.0341
622.4471, 900.2022
622.9293, 897.8029
623.4114, 896.2502
623.8935, 895.0700
624.3756, 891.5728
624.8577, 882.0527
625.3398, 866.8439
625.8220, 858.2174
626.3041, 862.3187
626.7862, 863.7224
627.2683, 858.5948
627.7504, 850.6743
628.2325, 841.3011
628.7147, 831.4401
629.1968, 825.3822
629.6789, 829.8226
630.1610, 835.9571
630.6431, 832.1584
631.1252, 820.8944
631.6074, 810.9843
632.0895, 805.1898
632.5716, 802.1978
633.0537, 801.0957
633.5358, 802.2399
634.0179, 799.2963
634.5001, 783.7927
634.9822, 775.4761
635.4643, 786.7554
635.9464, 801.5600
636.4285, 803.5746
636.9106, 791.3607
637.3928, 776.7022
637.8749, 763.1551
638.3570, 753.2861
638.8391, 751.6255
639.3212, 756.9736
639.8033, 765.5128
640.2855, 776.5274
640.7676, 784.0555
641.2497, 778.9738
641.7318, 759.1326
642.2139, 745.2504
642.6960, 740.1766
643.1782, 737.7632
643.6603, 737.7305
644.1424, 738.9694
644.6245, 741.6423
645.1066, 745.4122
645.5887, 745.8705
646.0709, 735.3875
646.5530, 723.2317
647.0351, 723.7145
647.5172, 734.3105
647.9993, 742.7082
648.4814, 744.2131
648.9636, 743.0320
649.4457, 745.4843
649.9278, 752.7556
650.4099, 753.3726
650.8920, 739.2866
651.3741, 728.9832
651.8563, 729.3569
652.3384, 734.2036
652.8205, 737.6721
653.3026, 738.8399
653.7847, 738.9953
654.2668, 733.7666
654.7490, 731.3787
655.2311, 748.0879
655.7132, 777.3525
656.1953, 794.1713
656.6774, 789.3607
657.1595, 773.6914
657.6417, 759.9038
658.1238, 747.7108
658.6059, 741.9816
659.0880, 746.6249
659.5701, 751.8594
660.0522, 758.0731
