##NAMES=Orpiment
##RRUFFID=R060116
##IDEAL CHEMISTRY=As^3+^_2_S^2-^_3_
##LOCALITY=Quiruvilca, Peru
##OWNER=RRUFF
##SOURCE=University of Arizona Mineral Museum
##DESCRIPTION=Brownish-yellow prismatic crystals
##STATUS=The identification of this mineral has been confirmed by X-ray diffraction and chemical analysis
##URL=rruff.info/R060116
##MEASURED CHEMISTRY=As_1.83_S_3.00_
89.78156, 0.0000000E+00
90.26367, 66.73442
90.74579, 68.58323
91.22791, 67.55647
91.71002, 64.01820
92.19214, 61.19372
92.67426, 62.81575
93.15638, 67.35194
93.63850, 70.68011
94.12061, 70.84647
94.60273, 69.07989
95.08485, 68.40473
95.56696, 68.98875
96.04908, 69.57321
96.53120, 67.93840
97.01331, 64.27414
97.49543, 61.85581
97.97755, 62.87777
98.45966, 67.09153
98.94178, 69.98177
99.42390, 71.37956
99.90602, 71.64301
100.3881, 71.45973
100.8703, 70.85683
101.3524, 69.67958
101.8345, 67.03971
102.3166, 61.82729
102.7987, 60.42857
103.2808, 65.02334
103.7630, 73.71290
104.2451, 77.64561
104.7272, 74.48612
105.2093, 69.70250
105.6914, 66.70501
106.1735, 65.72301
106.6557, 66.26799
107.1378, 69.25884
107.6199, 74.86649
108.1020, 77.78754
108.5841, 75.15332
109.0662, 71.35466
109.5484, 70.29446
110.0305, 73.33517
110.5126, 77.74064
110.9947, 83.15571
111.4768, 89.68335
111.9590, 96.92000
112.4411, 105.2020
112.9232, 114.1459
113.4053, 123.0120
113.8874, 126.6006
114.3695, 134.2520
114.8517, 150.0018
115.3338, 176.3622
115.8159, 205.5029
116.2980, 234.2607
116.7801, 264.4326
117.2622, 299.5655
117.7444, 343.9447
118.2265, 392.2688
118.7086, 440.5192
119.1907, 486.1776
119.6728, 535.0771
120.1549, 591.3126
120.6371, 653.9252
121.1192, 719.3099
121.6013, 784.4587
122.0834, 850.9755
122.5655, 920.4769
123.0476, 995.2509
123.5298, 1071.630
124.0119, 1146.790
124.4940, 1220.736
124.9761, 1293.871
125.4582, 1364.032
125.9404, 1433.126
126.4225, 1504.313
126.9046, 1579.426
127.3867, 1657.198
127.8688, 1732.884
128.3509, 1805.555
128.8331, 1885.201
129.3152, 1977.669
129.7973, 2084.987
130.2794, 2214.290
130.7615, 2361.113
131.2436, 2531.323
131.7258, 2742.499
132.2079, 2994.891
132.6900, 3289.468
133.1721, 3648.709
133.6542, 4072.005
134.1364, 4486.976
134.6185, 4901.036
135.1006, 5309.395
135.5827, 5549.569
136.0648, 5598.585
136.5469, 5489.849
137.0291, 5273.473
137.5112, 4928.139
137.9933, 4569.009
138.4754, 4256.446
138.9575, 3992.932
139.4396, 3778.625
139.9218, 3620.735
140.4039, 3512.921
140.8860, 3429.200
141.3681, 3370.437
141.8502, 3335.554
142.3323, 3325.635
142.8145, 3343.264
143.2966, 3378.625
143.7787, 3431.163
144.2608, 3501.282
144.7429, 3581.637
145.2250, 3666.344
145.7072, 3767.668
146.1893, 3897.738
146.6714, 4061.263
147.1535, 4245.938
147.6356, 4446.771
148.1178, 4660.788
148.5999, 4904.204
149.0820, 5159.402
149.5641, 5450.825
150.0462, 5804.478
150.5283, 6191.630
151.0105, 6664.895
151.4926, 7202.076
151.9747, 7923.396
152.4568, 8521.651
152.9389, 9102.401
153.4210, 9533.756
153.9032, 9633.299
154.3853, 9164.961
154.8674, 8564.708
155.3495, 7987.693
155.8316, 7521.172
156.3137, 6889.827
156.7959, 5884.358
157.2780, 4698.425
157.7601, 3701.583
158.2422, 2980.976
158.7243, 2445.938
159.2065, 2051.799
159.6886, 1833.029
160.1707, 1675.546
160.6528, 1565.056
161.1349, 1492.332
161.6170, 1433.673
162.0992, 1383.984
162.5813, 1343.085
163.0634, 1311.151
163.5455, 1290.986
164.0276, 1275.709
164.5097, 1264.270
164.9919, 1255.782
165.4740, 1246.830
165.9561, 1234.586
166.4382, 1221.681
166.9203, 1210.415
167.4024, 1202.915
167.8846, 1195.721
168.3667, 1185.464
168.8488, 1172.826
169.3309, 1162.285
169.8130, 1157.939
170.2952, 1156.800
170.7773, 1155.170
171.2594, 1149.597
171.7415, 1144.666
172.2236, 1144.060
172.7057, 1147.651
173.1879, 1154.006
173.6700, 1162.621
174.1521, 1173.203
174.6342, 1185.267
175.1163, 1196.686
175.5984, 1210.519
176.0806, 1231.442
176.5627, 1259.549
177.0448, 1289.158
177.5269, 1318.482
178.0090, 1345.626
178.4911, 1366.863
178.9733, 1374.937
179.4554, 1377.632
179.9375, 1384.370
180.4196, 1394.476
180.9017, 1415.581
181.3838, 1455.573
181.8660, 1512.957
182.3481, 1584.359
182.8302, 1675.062
183.3123, 1777.618
183.7944, 1878.917
184.2766, 1981.757
184.7587, 2072.057
185.2408, 2131.676
185.7229, 2162.909
186.2050, 2182.559
186.6871, 2190.028
187.1693, 2190.875
187.6514, 2204.691
188.1335, 2232.790
188.6156, 2272.214
189.0977, 2320.401
189.5798, 2377.069
190.0620, 2440.493
190.5441, 2510.157
191.0262, 2586.335
191.5083, 2668.979
191.9904, 2758.483
192.4725, 2856.515
192.9547, 2965.458
193.4368, 3086.208
193.9189, 3218.757
194.4010, 3358.928
194.8831, 3507.814
195.3652, 3682.415
195.8474, 3882.471
196.3295, 4110.681
196.8116, 4370.564
197.2937, 4660.121
197.7758, 4987.530
198.2579, 5353.462
198.7401, 5757.722
199.2222, 6218.360
199.7043, 6757.363
200.1864, 7321.521
200.6685, 7864.930
201.1507, 8439.053
201.6328, 8733.745
202.1149, 8504.596
202.5970, 7709.216
203.0791, 6801.496
203.5612, 5762.650
204.0434, 4685.290
204.5255, 3836.147
205.0076, 3237.365
205.4897, 2788.084
205.9718, 2445.406
206.4539, 2220.253
206.9361, 2036.878
207.4182, 1893.637
207.9003, 1785.800
208.3824, 1696.250
208.8645, 1627.175
209.3466, 1570.080
209.8288, 1520.091
210.3109, 1477.796
210.7930, 1439.870
211.2751, 1405.668
211.7572, 1375.799
212.2393, 1352.052
212.7215, 1336.418
213.2036, 1323.002
213.6857, 1307.611
214.1678, 1288.465
214.6499, 1273.215
215.1320, 1262.652
215.6142, 1256.323
216.0963, 1253.158
216.5784, 1254.935
217.0605, 1256.504
217.5426, 1253.700
218.0247, 1243.731
218.5069, 1237.943
218.9890, 1238.691
219.4711, 1244.468
219.9532, 1248.081
220.4353, 1248.849
220.9175, 1248.653
221.3996, 1248.805
221.8817, 1249.949
222.3638, 1249.618
222.8459, 1246.711
223.3280, 1242.040
223.8102, 1240.003
224.2923, 1241.420
224.7744, 1244.115
225.2565, 1247.174
225.7386, 1251.930
226.2207, 1253.594
226.7029, 1250.506
227.1850, 1243.777
227.6671, 1239.270
228.1492, 1237.316
228.6313, 1237.095
229.1134, 1238.425
229.5956, 1242.565
230.0777, 1245.445
230.5598, 1246.519
231.0419, 1246.088
231.5240, 1245.428
232.0062, 1243.679
232.4883, 1242.897
232.9704, 1245.134
233.4525, 1254.394
233.9346, 1257.384
234.4167, 1249.149
234.8989, 1233.379
235.3810, 1228.269
235.8631, 1240.641
236.3452, 1254.619
236.8273, 1260.681
237.3094, 1253.668
237.7916, 1249.949
238.2737, 1251.464
238.7558, 1256.983
239.2379, 1261.864
239.7200, 1268.140
240.2021, 1271.009
240.6843, 1266.780
241.1664, 1249.236
241.6485, 1238.396
242.1306, 1237.135
242.6127, 1243.202
243.0948, 1248.078
243.5770, 1250.717
244.0591, 1253.686
244.5412, 1258.374
245.0233, 1265.744
245.5054, 1272.969
245.9876, 1280.925
246.4697, 1288.552
246.9518, 1291.873
247.4339, 1286.549
247.9160, 1283.406
248.3981, 1288.138
248.8803, 1304.461
249.3624, 1319.895
249.8445, 1334.507
250.3266, 1347.989
250.8087, 1359.208
251.2908, 1366.417
251.7730, 1373.971
252.2551, 1383.420
252.7372, 1394.274
253.2193, 1408.801
253.7014, 1428.973
254.1835, 1451.815
254.6657, 1470.109
255.1478, 1482.013
255.6299, 1492.636
256.1120, 1503.726
256.5941, 1514.441
257.0763, 1528.260
257.5584, 1546.026
258.0405, 1566.545
258.5226, 1587.602
259.0047, 1610.585
259.4868, 1631.597
259.9690, 1648.003
260.4511, 1657.834
260.9332, 1671.807
261.4153, 1689.685
261.8974, 1712.076
262.3795, 1741.052
262.8617, 1780.776
263.3438, 1817.514
263.8259, 1845.105
264.3080, 1861.033
264.7901, 1884.622
265.2722, 1915.898
265.7544, 1954.694
266.2365, 1999.772
266.7186, 2049.889
267.2007, 2109.581
267.6828, 2180.643
268.1649, 2264.509
268.6471, 2348.854
269.1292, 2429.240
269.6113, 2519.364
270.0934, 2633.888
270.5755, 2772.729
271.0576, 2940.632
271.5398, 3138.083
272.0219, 3366.744
272.5040, 3625.819
272.9861, 3913.859
273.4682, 4227.849
273.9503, 4575.114
274.4325, 4960.810
274.9146, 5342.461
275.3967, 5713.013
275.8788, 6073.726
276.3610, 6405.804
276.8431, 6701.169
277.3252, 6982.714
277.8073, 7265.555
278.2894, 7548.737
278.7715, 7842.427
279.2537, 8149.132
279.7358, 8470.023
280.2179, 8812.723
280.7000, 9177.534
281.1821, 9569.039
281.6642, 9996.122
282.1464, 10458.90
282.6285, 10947.88
283.1106, 11461.04
283.5927, 11999.95
284.0748, 12566.26
284.5569, 13161.64
285.0391, 13790.01
285.5212, 14455.03
286.0033, 15157.82
286.4854, 15915.92
286.9675, 16735.79
287.4496, 17604.62
287.9318, 18508.71
288.4139, 19456.12
288.8960, 20398.40
289.3781, 21349.16
289.8602, 22294.42
290.3423, 23210.50
290.8245, 24151.55
291.3066, 24921.61
291.7887, 25299.16
292.2708, 25274.21
292.7529, 24697.13
293.2350, 23260.72
293.7172, 21190.23
294.1993, 19149.95
294.6814, 17127.19
295.1635, 15293.02
295.6456, 13880.27
296.1277, 12855.13
296.6099, 12103.33
297.0920, 11646.83
297.5741, 11422.54
298.0562, 11337.42
298.5383, 11393.51
299.0204, 11553.04
299.5026, 11788.07
299.9847, 12097.31
300.4668, 12487.11
300.9489, 12951.84
301.4311, 13496.30
301.9132, 14106.27
302.3953, 14788.03
302.8774, 15565.06
303.3595, 16440.82
303.8416, 17430.73
304.3238, 18587.48
304.8059, 19899.63
305.2880, 21384.80
305.7701, 23052.45
306.2522, 24907.40
306.7343, 26877.89
307.2165, 28968.91
307.6986, 31153.59
308.1807, 33465.20
308.6628, 36210.03
309.1449, 38644.21
309.6270, 40770.13
310.1092, 42287.01
310.5913, 42151.66
311.0734, 39091.20
311.5555, 34509.66
312.0376, 29423.45
312.5197, 23620.56
313.0019, 18384.97
313.4840, 14310.83
313.9661, 11254.66
314.4482, 8875.561
314.9303, 7307.541
315.4124, 6166.609
315.8946, 5280.836
316.3767, 4651.011
316.8588, 4152.758
317.3409, 3770.662
317.8230, 3474.687
318.3051, 3226.277
318.7873, 3025.227
319.2694, 2855.741
319.7515, 2714.021
320.2336, 2600.322
320.7157, 2504.253
321.1978, 2429.590
321.6800, 2369.071
322.1621, 2316.509
322.6442, 2268.926
323.1263, 2230.942
323.6084, 2206.391
324.0905, 2194.524
324.5727, 2183.887
325.0548, 2166.717
325.5369, 2154.347
326.0190, 2153.699
326.5012, 2173.185
326.9833, 2195.318
327.4654, 2218.982
327.9475, 2244.353
328.4296, 2271.608
328.9117, 2290.684
329.3939, 2320.525
329.8760, 2369.061
330.3581, 2440.767
330.8402, 2522.745
331.3223, 2608.329
331.8044, 2706.290
332.2866, 2834.004
332.7687, 2986.333
333.2508, 3173.864
333.7329, 3401.177
334.2150, 3670.686
334.6971, 3972.315
335.1793, 4305.638
335.6614, 4675.013
336.1435, 5083.216
336.6256, 5538.886
337.1077, 6021.101
337.5898, 6520.830
338.0720, 7043.212
338.5541, 7557.501
339.0362, 8062.378
339.5183, 8572.045
340.0004, 9081.682
340.4825, 9587.949
340.9647, 10154.03
341.4468, 10796.77
341.9289, 11501.09
342.4110, 12237.07
342.8931, 12999.34
343.3752, 13788.42
343.8574, 14576.85
344.3395, 15375.90
344.8216, 16249.64
345.3037, 17197.59
345.7858, 18236.40
346.2679, 19384.03
346.7501, 20650.35
347.2322, 22031.12
347.7143, 23521.38
348.1964, 25132.88
348.6785, 26917.77
349.1607, 28905.04
349.6428, 31043.68
350.1249, 33430.35
350.6070, 35964.79
351.0891, 38386.13
351.5713, 40698.14
352.0534, 42749.32
352.5355, 44334.43
353.0176, 45436.55
353.4997, 46187.70
353.9818, 46904.53
354.4640, 47288.55
354.9461, 46837.47
355.4282, 45115.90
355.9103, 42886.16
356.3924, 40537.27
356.8745, 38156.30
357.3567, 36140.75
357.8388, 35133.46
358.3209, 34338.38
358.8030, 33080.88
359.2851, 31242.28
359.7672, 28937.46
360.2494, 25911.68
360.7315, 22473.56
361.2136, 19242.18
361.6957, 16284.61
362.1778, 13688.36
362.6599, 11516.38
363.1421, 9787.637
363.6242, 8364.936
364.1063, 7294.397
364.5884, 6470.718
365.0705, 5795.095
365.5526, 5303.623
366.0348, 4899.844
366.5169, 4576.802
366.9990, 4331.728
367.4811, 4128.801
367.9632, 3979.293
368.4453, 3860.695
368.9275, 3761.388
369.4096, 3681.474
369.8917, 3620.163
370.3738, 3577.815
370.8559, 3554.005
371.3380, 3547.869
371.8202, 3559.704
372.3023, 3588.758
372.7844, 3635.515
373.2665, 3701.393
373.7487, 3777.592
374.2308, 3863.318
374.7129, 3960.182
375.1950, 4071.287
375.6771, 4196.688
376.1592, 4337.465
376.6414, 4495.741
377.1235, 4670.682
377.6056, 4861.664
378.0877, 5073.589
378.5698, 5290.845
379.0519, 5509.574
379.5341, 5728.164
380.0162, 5932.411
380.4983, 6132.660
380.9804, 6300.047
381.4625, 6377.499
381.9446, 6366.085
382.4268, 6240.024
382.9089, 5952.816
383.3910, 5536.598
383.8731, 5067.559
384.3552, 4542.829
384.8373, 4019.566
385.3195, 3549.404
385.8016, 3134.625
386.2837, 2773.762
386.7658, 2479.399
387.2479, 2237.399
387.7300, 2030.688
388.2122, 1859.943
388.6943, 1717.679
389.1764, 1608.570
389.6585, 1522.307
390.1406, 1448.886
390.6227, 1387.969
391.1049, 1335.435
391.5870, 1290.726
392.0691, 1253.052
392.5512, 1220.033
393.0333, 1192.130
393.5154, 1167.452
393.9976, 1144.944
394.4797, 1124.572
394.9618, 1105.954
395.4439, 1089.873
395.9260, 1075.223
396.4081, 1060.598
396.8903, 1045.624
397.3724, 1030.525
397.8545, 1015.196
398.3366, 999.6289
398.8188, 984.0954
399.3009, 969.0716
399.7830, 953.7757
400.2651, 937.7765
400.7472, 921.6410
401.2293, 903.8423
401.7115, 883.5519
402.1936, 861.5275
402.6757, 840.0539
403.1578, 819.3314
403.6399, 798.7194
404.1220, 778.0978
404.6042, 757.2706
405.0863, 736.6733
405.5684, 716.0069
406.0505, 696.4016
406.5326, 679.2996
407.0147, 664.6476
407.4969, 652.7921
407.9790, 644.7597
408.4611, 639.2943
408.9432, 630.6217
409.4253, 618.4318
409.9074, 606.7766
410.3896, 599.1332
410.8717, 594.7786
411.3538, 590.3842
411.8359, 585.3202
412.3180, 580.5395
412.8001, 577.3374
413.2823, 575.6288
413.7644, 574.8307
414.2465, 575.6885
414.7286, 576.8354
415.2107, 576.3835
415.6928, 574.2245
416.1750, 571.3291
416.6571, 567.4073
417.1392, 563.5071
417.6213, 560.9337
418.1034, 560.7900
418.5855, 561.4197
419.0677, 562.6461
419.5498, 564.0806
420.0319, 564.2121
420.5140, 560.6565
420.9961, 556.8721
421.4782, 555.2274
421.9604, 557.1518
422.4425, 558.2346
422.9246, 557.1996
423.4067, 554.8742
423.8889, 552.3716
424.3710, 548.8522
424.8531, 546.2076
425.3352, 545.7360
425.8173, 547.4684
426.2994, 546.5142
426.7816, 541.2144
427.2637, 534.9111
427.7458, 529.5961
428.2279, 524.9490
428.7100, 522.2359
429.1921, 522.7693
429.6743, 524.5138
430.1564, 522.2386
430.6385, 514.9410
431.1206, 507.4899
431.6027, 501.7664
432.0848, 497.6833
432.5670, 494.6441
433.0491, 492.9126
433.5312, 491.1041
434.0133, 487.6102
434.4954, 482.6163
434.9775, 477.2781
435.4597, 471.6733
435.9418, 466.1449
436.4239, 460.9908
436.9060, 456.3862
437.3881, 453.1555
437.8702, 452.8375
438.3524, 453.8629
438.8345, 453.8392
439.3166, 452.3569
439.7987, 450.8798
440.2808, 450.9513
440.7629, 451.7134
441.2451, 451.8315
441.7272, 450.5007
442.2093, 448.6445
442.6914, 446.2651
443.1735, 443.5595
443.6556, 441.7570
444.1378, 443.0919
444.6199, 444.2618
445.1020, 442.8796
445.5841, 436.3118
446.0662, 431.6998
446.5483, 431.3017
447.0305, 433.1649
447.5126, 434.0635
447.9947, 433.6721
448.4768, 432.6220
448.9590, 430.9736
449.4411, 428.7251
449.9232, 426.2002
450.4053, 423.7449
450.8874, 420.4643
451.3695, 415.2369
451.8517, 407.1597
452.3338, 400.9787
452.8159, 397.2861
453.2980, 395.5672
453.7801, 395.0628
454.2622, 395.8380
454.7444, 396.9424
455.2265, 399.1006
455.7086, 401.3804
456.1907, 398.4810
456.6728, 389.9506
457.1549, 381.6470
457.6371, 379.7284
458.1192, 382.0885
458.6013, 383.5479
459.0834, 382.6334
459.5655, 380.7708
460.0476, 378.5946
460.5298, 376.5658
461.0119, 376.1341
461.4940, 379.8634
461.9761, 384.2285
462.4582, 386.3382
462.9403, 385.8530
463.4225, 384.9290
463.9046, 384.3696
464.3867, 383.9287
464.8688, 383.3877
465.3509, 381.1227
465.8330, 380.5078
466.3152, 383.7809
466.7973, 389.5700
467.2794, 392.9092
467.7615, 392.3465
468.2436, 390.4391
468.7257, 387.5419
469.2079, 383.0469
469.6900, 380.5052
470.1721, 380.2361
470.6542, 381.6001
471.1363, 384.2695
471.6184, 388.7341
472.1006, 392.5918
472.5827, 395.4989
473.0648, 397.4833
473.5469, 398.3176
474.0291, 397.8963
474.5112, 397.5830
474.9933, 398.8671
475.4754, 401.0672
475.9575, 400.7883
476.4396, 397.6576
476.9218, 394.0238
477.4039, 392.2579
477.8860, 391.9220
478.3681, 391.9786
478.8502, 391.7185
479.3323, 392.1812
479.8145, 395.3318
480.2966, 400.3650
480.7787, 404.1913
481.2608, 405.3198
481.7429, 404.6829
482.2250, 402.2317
482.7072, 397.4127
483.1893, 394.0957
483.6714, 394.9394
484.1535, 397.3650
484.6356, 398.7637
485.1177, 399.8000
485.5999, 398.5827
486.0820, 393.2383
486.5641, 385.1365
487.0462, 379.0710
487.5283, 375.1247
488.0104, 373.1508
488.4926, 373.6544
488.9747, 377.2996
489.4568, 379.1124
489.9389, 378.8211
490.4210, 377.1594
490.9031, 374.5366
491.3853, 370.8417
491.8674, 367.7274
492.3495, 365.3680
492.8316, 363.9960
493.3137, 364.7356
493.7958, 367.3840
494.2780, 369.6623
494.7601, 370.0596
495.2422, 369.2088
495.7243, 368.2853
496.2064, 367.3367
496.6885, 366.0797
497.1707, 363.5178
497.6528, 360.7167
498.1349, 359.2515
498.6170, 360.6992
499.0992, 361.8885
499.5813, 360.8355
500.0634, 358.1984
500.5455, 355.5951
501.0276, 354.4874
501.5097, 352.6972
501.9919, 348.5942
502.4740, 341.4573
502.9561, 336.7001
503.4382, 338.1482
503.9203, 339.6134
504.4024, 336.4074
504.8846, 324.3646
505.3667, 316.5078
505.8488, 315.0483
506.3309, 317.3275
506.8130, 317.5827
507.2951, 315.3981
507.7773, 313.0842
508.2594, 311.6300
508.7415, 310.8034
509.2236, 308.7190
509.7057, 305.2133
510.1878, 302.5260
510.6700, 303.4966
511.1521, 306.8058
511.6342, 308.6203
512.1163, 308.3295
512.5984, 306.4615
513.0806, 302.0375
513.5627, 296.4928
514.0448, 292.8288
514.5269, 294.0110
515.0090, 296.1566
515.4911, 297.1004
515.9733, 296.8244
516.4554, 295.5095
516.9375, 291.5681
517.4196, 287.8173
517.9017, 286.0305
518.3839, 287.1647
518.8660, 288.4112
519.3481, 290.2171
519.8302, 291.6403
520.3123, 291.4753
520.7944, 288.1955
521.2766, 286.2368
521.7587, 287.0898
522.2408, 289.6562
522.7229, 289.2093
523.2050, 284.8806
523.6871, 280.7755
524.1693, 279.4245
524.6514, 280.5691
525.1335, 280.3655
525.6156, 278.6343
526.0977, 276.7235
526.5798, 276.3161
527.0620, 276.8463
527.5441, 276.4804
528.0262, 274.3178
528.5083, 272.0782
528.9904, 271.7564
529.4725, 272.8214
529.9547, 274.0002
530.4368, 270.4814
530.9189, 270.1871
531.4010, 282.7076
531.8831, 307.8869
532.3652, 323.7995
532.8474, 316.4188
533.3295, 302.5292
533.8116, 292.5616
534.2937, 289.2237
534.7758, 287.3980
535.2579, 287.5168
535.7401, 288.8047
536.2222, 290.3283
536.7043, 292.7247
537.1864, 293.8117
537.6685, 292.4930
538.1506, 289.5889
538.6328, 289.1591
539.1149, 291.5115
539.5970, 294.4217
540.0791, 297.1033
540.5612, 299.3380
541.0433, 299.0961
541.5255, 295.9839
542.0076, 293.5814
542.4897, 296.3704
542.9718, 302.3250
543.4539, 307.5059
543.9360, 310.9218
544.4182, 312.9861
544.9003, 312.9459
545.3824, 311.7485
545.8645, 311.5042
546.3466, 313.8172
546.8287, 316.5929
547.3109, 319.4608
547.7930, 322.3719
548.2751, 323.3710
548.7572, 319.3514
549.2393, 315.5373
549.7214, 314.9356
550.2036, 319.7317
550.6857, 322.6979
551.1678, 322.9778
551.6499, 322.3145
552.1320, 323.6026
552.6141, 327.4459
553.0963, 329.0840
553.5784, 326.3732
554.0605, 321.6526
554.5426, 321.1991
555.0247, 324.8531
555.5068, 329.7601
555.9890, 334.7857
556.4711, 339.7167
556.9532, 343.9854
557.4353, 347.5731
557.9174, 351.2084
558.3995, 355.3567
558.8817, 359.8368
559.3638, 364.3366
559.8459, 368.2289
560.3281, 373.1917
560.8102, 380.2581
561.2923, 388.6970
561.7744, 397.3235
562.2565, 404.8439
562.7386, 413.7526
563.2208, 424.7496
563.7029, 437.5933
564.1850, 451.6649
564.6671, 467.8776
565.1492, 483.4146
565.6313, 495.9738
566.1135, 504.9107
566.5956, 518.4274
567.0777, 536.9290
567.5598, 558.3019
568.0419, 580.7945
568.5240, 604.3270
569.0062, 629.8706
569.4883, 657.7653
569.9704, 686.7512
570.4525, 713.9506
570.9346, 740.8021
571.4167, 769.6643
571.8989, 802.8866
572.3810, 838.0830
572.8631, 874.5788
573.3452, 911.9286
573.8273, 949.6639
574.3094, 987.4182
574.7916, 1025.280
575.2737, 1063.041
575.7558, 1099.869
576.2379, 1139.001
576.7200, 1182.293
577.2021, 1225.919
577.6843, 1267.082
578.1664, 1305.299
578.6485, 1341.496
579.1306, 1375.881
579.6127, 1408.654
580.0948, 1442.131
580.5770, 1476.193
581.0591, 1506.672
581.5412, 1532.125
582.0233, 1552.454
582.5054, 1566.715
582.9875, 1575.087
583.4697, 1580.251
583.9518, 1586.848
584.4339, 1589.515
584.9160, 1582.130
585.3981, 1563.684
585.8802, 1538.711
586.3624, 1505.765
586.8445, 1469.293
