##NAMES=Orpiment
##RRUFFID=R060105
##IDEAL CHEMISTRY=As^3+^_2_S^2-^_3_
##LOCALITY=Mercur, Utah, USA
##OWNER=RRUFF
##SOURCE=University of Arizona Mineral Museum
##DESCRIPTION=Yellowish-orange crystals
##STATUS=The identification of this mineral has been confirmed by X-ray diffraction and chemical analysis
##URL=rruff.info/R060105
##MEASURED CHEMISTRY=As_2.00_S_3.00_
89.78156, 0.0000000E+00
90.26367, 35.60169
90.74579, 34.94741
91.22791, 35.33781
91.71002, 36.63677
92.19214, 37.63564
92.67426, 36.69094
93.15638, 34.58846
93.63850, 33.45811
94.12061, 34.50489
94.60273, 36.85052
95.08485, 38.64050
95.56696, 39.87833
96.04908, 40.42834
96.53120, 39.61672
97.01331, 37.54481
97.49543, 35.97766
97.97755, 35.68127
98.45966, 36.62074
98.94178, 38.46727
99.42390, 41.80989
99.90602, 45.19217
100.3881, 45.41888
100.8703, 41.64196
101.3524, 37.69777
101.8345, 35.59644
102.3166, 35.80124
102.7987, 35.94285
103.2808, 35.82469
103.7630, 35.53357
104.2451, 35.43355
104.7272, 35.47585
105.2093, 35.77315
105.6914, 36.43954
106.1735, 37.70807
106.6557, 38.92896
107.1378, 39.90189
107.6199, 40.61623
108.1020, 41.77190
108.5841, 43.88438
109.0662, 46.17602
109.5484, 47.97541
110.0305, 48.77966
110.5126, 49.61214
110.9947, 50.44239
111.4768, 51.07590
111.9590, 52.66283
112.4411, 55.02840
112.9232, 58.49013
113.4053, 63.38315
113.8874, 70.52944
114.3695, 78.52782
114.8517, 86.27995
115.3338, 92.24979
115.8159, 101.5615
116.2980, 117.6607
116.7801, 138.3697
117.2622, 158.7438
117.7444, 176.5339
118.2265, 193.7863
118.7086, 211.7821
119.1907, 231.2139
119.6728, 251.1400
120.1549, 270.8578
120.6371, 290.5764
121.1192, 311.2326
121.6013, 333.2001
122.0834, 356.2548
122.5655, 380.0924
123.0476, 405.1061
123.5298, 430.4422
124.0119, 455.0578
124.4940, 479.0357
124.9761, 503.6508
125.4582, 531.4683
125.9404, 560.4700
126.4225, 586.4291
126.9046, 604.0300
127.3867, 618.7037
127.8688, 637.9116
128.3509, 661.4820
128.8331, 691.2714
129.3152, 727.6371
129.7973, 771.4767
130.2794, 826.0306
130.7615, 887.2863
131.2436, 959.5633
131.7258, 1058.428
132.2079, 1186.176
132.6900, 1335.498
133.1721, 1501.388
133.6542, 1683.339
134.1364, 1866.361
134.6185, 2062.937
135.1006, 2270.791
135.5827, 2410.509
136.0648, 2471.616
136.5469, 2468.916
137.0291, 2427.144
137.5112, 2338.799
137.9933, 2243.460
138.4754, 2162.618
138.9575, 2097.281
139.4396, 2044.261
139.9218, 2003.089
140.4039, 1974.214
140.8860, 1962.247
141.3681, 1970.565
141.8502, 1990.113
142.3323, 2014.095
142.8145, 2043.214
143.2966, 2075.461
143.7787, 2108.612
144.2608, 2143.130
144.7429, 2187.996
145.2250, 2242.246
145.7072, 2308.336
146.1893, 2387.703
146.6714, 2471.901
147.1535, 2581.252
147.6356, 2713.591
148.1178, 2863.710
148.5999, 3066.583
149.0820, 3318.791
149.5641, 3624.848
150.0462, 3987.962
150.5283, 4406.305
151.0105, 4878.717
151.4926, 5386.114
151.9747, 6029.067
152.4568, 6527.526
152.9389, 6969.490
153.4210, 7246.944
153.9032, 7208.389
154.3853, 6614.628
154.8674, 5911.835
155.3495, 5233.874
155.8316, 4581.765
156.3137, 3956.659
156.7959, 3318.304
157.2780, 2706.591
157.7601, 2200.514
158.2422, 1827.911
158.7243, 1547.297
159.2065, 1338.059
159.6886, 1218.032
160.1707, 1128.953
160.6528, 1062.799
161.1349, 1015.470
161.6170, 976.5114
162.0992, 944.2799
162.5813, 917.6546
163.0634, 896.1710
163.5455, 882.0801
164.0276, 869.7380
164.5097, 855.7010
164.9919, 840.9471
165.4740, 829.3610
165.9561, 825.3425
166.4382, 824.1992
166.9203, 821.6786
167.4024, 816.3992
167.8846, 809.6468
168.3667, 800.4062
168.8488, 789.3782
169.3309, 781.1893
169.8130, 781.2582
170.2952, 785.0052
170.7773, 786.7193
171.2594, 782.2165
171.7415, 776.6761
172.2236, 773.9103
172.7057, 773.8655
173.1879, 776.1092
173.6700, 781.9586
174.1521, 789.6929
174.6342, 796.4222
175.1163, 797.6896
175.5984, 799.0773
176.0806, 807.9783
176.5627, 824.4310
177.0448, 842.9618
177.5269, 859.5231
178.0090, 874.4476
178.4911, 888.9948
178.9733, 900.3373
179.4554, 912.4342
179.9375, 930.1063
180.4196, 952.8088
180.9017, 985.0126
181.3838, 1029.877
181.8660, 1087.372
182.3481, 1159.523
182.8302, 1254.311
183.3123, 1363.287
183.7944, 1470.999
184.2766, 1580.141
184.7587, 1677.208
185.2408, 1746.349
185.7229, 1789.039
186.2050, 1817.582
186.6871, 1830.471
187.1693, 1832.621
187.6514, 1840.328
188.1335, 1853.995
188.6156, 1874.169
189.0977, 1903.009
189.5798, 1940.186
190.0620, 1981.641
190.5441, 2022.819
191.0262, 2065.537
191.5083, 2122.383
191.9904, 2196.911
192.4725, 2281.084
192.9547, 2358.707
193.4368, 2429.939
193.9189, 2510.890
194.4010, 2605.773
194.8831, 2715.333
195.3652, 2850.326
195.8474, 3008.382
196.3295, 3196.787
196.8116, 3431.037
197.2937, 3710.753
197.7758, 4027.852
198.2579, 4380.513
198.7401, 4769.136
199.2222, 5182.757
199.7043, 5634.919
200.1864, 6088.264
200.6685, 6509.004
201.1507, 6931.763
201.6328, 7146.241
202.1149, 6993.076
202.5970, 6446.826
203.0791, 5774.789
203.5612, 4951.155
204.0434, 4058.230
204.5255, 3323.711
205.0076, 2757.835
205.4897, 2313.171
205.9718, 1975.650
206.4539, 1756.143
206.9361, 1579.310
207.4182, 1443.919
207.9003, 1344.658
208.3824, 1262.711
208.8645, 1200.000
209.3466, 1149.036
209.8288, 1105.857
210.3109, 1071.480
210.7930, 1040.269
211.2751, 1011.299
211.7572, 985.3252
212.2393, 964.5654
212.7215, 950.3680
213.2036, 938.8231
213.6857, 927.5485
214.1678, 916.1424
214.6499, 906.2443
215.1320, 897.9980
215.6142, 891.2648
216.0963, 885.4714
216.5784, 880.1816
217.0605, 876.6425
217.5426, 876.6451
218.0247, 882.7917
218.5069, 884.4517
218.9890, 878.7405
219.4711, 867.7295
219.9532, 861.2627
220.4353, 860.5807
220.9175, 862.2986
221.3996, 864.7420
221.8817, 868.7972
222.3638, 871.1307
222.8459, 870.8403
223.3280, 868.5150
223.8102, 866.9980
224.2923, 865.8831
224.7744, 866.1222
225.2565, 868.8643
225.7386, 876.2352
226.2207, 880.7781
226.7029, 880.7982
227.1850, 877.3019
227.6671, 875.7308
228.1492, 877.5933
228.6313, 879.2362
229.1134, 878.1752
229.5956, 872.6226
230.0777, 868.3364
230.5598, 865.6937
231.0419, 864.6385
231.5240, 865.0415
232.0062, 868.0897
232.4883, 871.0043
232.9704, 872.0754
233.4525, 870.6218
233.9346, 868.8221
234.4167, 866.6439
234.8989, 864.2218
235.3810, 862.3167
235.8631, 861.6681
236.3452, 860.5123
236.8273, 857.4255
237.3094, 850.2201
237.7916, 845.9457
238.2737, 846.2552
238.7558, 849.8374
239.2379, 851.0983
239.7200, 848.7838
240.2021, 845.8268
240.6843, 843.8955
241.1664, 843.9855
241.6485, 842.9503
242.1306, 840.6912
242.6127, 837.2117
243.0948, 832.2081
243.5770, 823.6022
244.0591, 816.3653
244.5412, 813.3777
245.0233, 816.7523
245.5054, 819.7383
245.9876, 822.6638
246.4697, 824.9941
246.9518, 824.4952
247.4339, 818.0621
247.9160, 813.4296
248.3981, 815.0724
248.8803, 827.2336
249.3624, 835.2849
249.8445, 837.0480
250.3266, 835.0194
250.8087, 836.0878
251.2908, 841.3060
251.7730, 847.8735
252.2551, 854.7563
252.7372, 862.7158
253.2193, 869.1173
253.7014, 873.6816
254.1835, 876.7604
254.6657, 878.5858
255.1478, 877.2236
255.6299, 878.0468
256.1120, 884.3149
256.5941, 899.2131
257.0763, 908.8441
257.5584, 910.8214
258.0405, 909.1539
258.5226, 912.1428
259.0047, 922.0645
259.4868, 931.9840
259.9690, 938.7142
260.4511, 940.9458
260.9332, 946.0875
261.4153, 954.9201
261.8974, 966.0403
262.3795, 977.1447
262.8617, 988.5818
263.3438, 999.3675
263.8259, 1009.032
264.3080, 1017.246
264.7901, 1025.977
265.2722, 1034.251
265.7544, 1044.157
266.2365, 1058.990
266.7186, 1079.851
267.2007, 1101.936
267.6828, 1122.418
268.1649, 1141.101
268.6471, 1166.621
269.1292, 1199.135
269.6113, 1238.896
270.0934, 1286.067
270.5755, 1341.042
271.0576, 1403.545
271.5398, 1472.218
272.0219, 1547.828
272.5040, 1636.744
272.9861, 1738.527
273.4682, 1851.889
273.9503, 1980.581
274.4325, 2127.617
274.9146, 2269.886
275.3967, 2402.586
275.8788, 2526.698
276.3610, 2640.621
276.8431, 2742.836
277.3252, 2836.201
277.8073, 2920.531
278.2894, 2994.954
278.7715, 3069.280
279.2537, 3142.917
279.7358, 3219.123
280.2179, 3313.230
280.7000, 3426.913
281.1821, 3552.828
281.6642, 3684.296
282.1464, 3821.260
282.6285, 3975.926
283.1106, 4149.503
283.5927, 4342.648
284.0748, 4554.186
284.5569, 4784.020
285.0391, 5041.699
285.5212, 5330.184
286.0033, 5650.931
286.4854, 6026.397
286.9675, 6467.499
287.4496, 6951.806
287.9318, 7444.765
288.4139, 7950.651
288.8960, 8442.142
289.3781, 8924.931
289.8602, 9392.156
290.3423, 9826.089
290.8245, 10245.39
291.3066, 10580.62
291.7887, 10754.76
292.2708, 10763.88
292.7529, 10547.74
293.2350, 9996.665
293.7172, 9188.296
294.1993, 8346.385
294.6814, 7460.841
295.1635, 6619.609
295.6456, 5927.872
296.1277, 5377.150
296.6099, 4944.653
297.0920, 4655.163
297.5741, 4475.392
298.0562, 4355.027
298.5383, 4295.438
299.0204, 4281.340
299.5026, 4308.604
299.9847, 4370.968
300.4668, 4452.947
300.9489, 4536.456
301.4311, 4641.089
301.9132, 4792.070
302.3953, 4990.235
302.8774, 5223.722
303.3595, 5481.708
303.8416, 5769.662
304.3238, 6104.800
304.8059, 6485.509
305.2880, 6914.370
305.7701, 7402.412
306.2522, 7946.250
306.7343, 8495.668
307.2165, 9042.978
307.6986, 9574.454
308.1807, 10087.08
308.6628, 10639.16
309.1449, 11085.96
309.6270, 11412.91
310.1092, 11572.82
310.5913, 11401.84
311.0734, 10698.45
311.5555, 9685.476
312.0376, 8510.413
312.5197, 7102.275
313.0019, 5795.905
313.4840, 4728.045
313.9661, 3881.055
314.4482, 3206.711
314.9303, 2747.036
315.4124, 2407.544
315.8946, 2148.745
316.3767, 1973.024
316.8588, 1837.336
317.3409, 1735.126
317.8230, 1657.916
318.3051, 1594.789
318.7873, 1547.038
319.2694, 1507.756
319.7515, 1474.533
320.2336, 1447.230
320.7157, 1425.330
321.1978, 1409.786
321.6800, 1399.264
322.1621, 1392.651
322.6442, 1391.383
323.1263, 1392.271
323.6084, 1394.849
324.0905, 1399.067
324.5727, 1404.541
325.0548, 1410.525
325.5369, 1418.149
326.0190, 1428.093
326.5012, 1441.638
326.9833, 1456.156
327.4654, 1469.760
327.9475, 1483.713
328.4296, 1502.824
328.9117, 1526.256
329.3939, 1555.575
329.8760, 1591.334
330.3581, 1631.820
330.8402, 1681.933
331.3223, 1740.470
331.8044, 1809.127
332.2866, 1890.728
332.7687, 1978.019
333.2508, 2087.629
333.7329, 2226.662
334.2150, 2398.947
334.6971, 2585.081
335.1793, 2786.469
335.6614, 3002.534
336.1435, 3230.277
336.6256, 3472.410
337.1077, 3724.542
337.5898, 3981.313
338.0720, 4245.954
338.5541, 4514.048
339.0362, 4784.657
339.5183, 5065.926
340.0004, 5358.224
340.4825, 5661.961
340.9647, 5994.325
341.4468, 6360.606
341.9289, 6754.981
342.4110, 7172.701
342.8931, 7613.090
343.3752, 8058.547
343.8574, 8481.179
344.3395, 8887.721
344.8216, 9322.787
345.3037, 9785.621
345.7858, 10289.02
346.2679, 10849.24
346.7501, 11470.99
347.2322, 12150.47
347.7143, 12890.13
348.1964, 13690.54
348.6785, 14564.46
349.1607, 15527.14
349.6428, 16542.37
350.1249, 17643.60
350.6070, 18785.33
351.0891, 19848.45
351.5713, 20824.08
352.0534, 21659.41
352.5355, 22272.22
353.0176, 22657.35
353.4997, 22902.19
353.9818, 23101.13
354.4640, 23197.56
354.9461, 23094.42
355.4282, 22696.86
355.9103, 22176.75
356.3924, 21626.68
356.8745, 21062.95
357.3567, 20562.74
357.8388, 20356.08
358.3209, 20125.54
358.8030, 19605.24
359.2851, 18751.84
359.7672, 17595.08
360.2494, 15978.83
360.7315, 14076.25
361.2136, 12234.15
361.6957, 10450.67
362.1778, 8846.847
362.6599, 7488.557
363.1421, 6388.563
363.6242, 5472.926
364.1063, 4765.002
364.5884, 4209.667
365.0705, 3756.429
365.5526, 3434.764
366.0348, 3172.826
366.5169, 2966.404
366.9990, 2813.193
367.4811, 2682.584
367.9632, 2580.876
368.4453, 2494.479
368.9275, 2416.308
369.4096, 2342.001
369.8917, 2281.880
370.3738, 2238.750
370.8559, 2209.724
371.3380, 2187.337
371.8202, 2170.423
372.3023, 2161.429
372.7844, 2161.681
373.2665, 2171.952
373.7487, 2187.676
374.2308, 2207.466
374.7129, 2234.125
375.1950, 2272.126
375.6771, 2322.882
376.1592, 2381.309
376.6414, 2448.397
377.1235, 2523.055
377.6056, 2596.979
378.0877, 2670.981
378.5698, 2743.708
379.0519, 2819.374
379.5341, 2897.513
380.0162, 2960.870
380.4983, 3009.401
380.9804, 3037.433
381.4625, 3034.966
381.9446, 3001.991
382.4268, 2929.621
382.9089, 2801.724
383.3910, 2629.382
383.8731, 2437.643
384.3552, 2225.408
384.8373, 2013.358
385.3195, 1818.666
385.8016, 1643.496
386.2837, 1490.824
386.7658, 1367.781
387.2479, 1267.331
387.7300, 1181.194
388.2122, 1109.625
388.6943, 1049.095
389.1764, 1000.672
389.6585, 960.9600
390.1406, 926.9733
390.6227, 898.9705
391.1049, 874.8151
391.5870, 854.4699
392.0691, 837.2943
392.5512, 821.3628
393.0333, 806.0519
393.5154, 791.5220
393.9976, 777.6201
394.4797, 763.9060
394.9618, 752.2977
395.4439, 745.2655
395.9260, 740.1727
396.4081, 733.5424
396.8903, 724.0283
397.3724, 713.4174
397.8545, 701.1202
398.3366, 687.0066
398.8188, 675.5593
399.3009, 671.5989
399.7830, 667.3928
400.2651, 657.9827
400.7472, 639.5991
401.2293, 621.4935
401.7115, 603.1074
402.1936, 585.2928
402.6757, 571.0213
403.1578, 562.3879
403.6399, 553.6469
404.1220, 542.3612
404.6042, 527.9818
405.0863, 513.6345
405.5684, 498.9095
406.0505, 485.1164
406.5326, 474.3201
407.0147, 466.7780
407.4969, 460.0518
407.9790, 453.4063
408.4611, 447.0362
408.9432, 441.9171
409.4253, 438.1693
409.9074, 434.7234
410.3896, 430.4510
410.8717, 425.6620
411.3538, 421.8823
411.8359, 419.6285
412.3180, 417.8100
412.8001, 414.6335
413.2823, 410.5086
413.7644, 406.8416
414.2465, 404.7589
414.7286, 403.4108
415.2107, 401.3251
415.6928, 398.4118
416.1750, 396.2443
416.6571, 396.5232
417.1392, 398.1446
417.6213, 399.6559
418.1034, 400.9893
418.5855, 401.6219
419.0677, 400.9556
419.5498, 399.2426
420.0319, 397.4502
420.5140, 395.8245
420.9961, 394.3269
421.4782, 392.9003
421.9604, 391.4570
422.4425, 390.3113
422.9246, 389.9297
423.4067, 389.7863
423.8889, 389.1526
424.3710, 387.0341
424.8531, 385.3807
425.3352, 385.2355
425.8173, 386.6242
426.2994, 385.8886
426.7816, 381.1534
427.2637, 376.1995
427.7458, 373.6436
428.2279, 374.7401
428.7100, 375.1880
429.1921, 374.8469
429.6743, 373.6347
430.1564, 370.9142
430.6385, 366.0573
431.1206, 362.1412
431.6027, 360.9454
432.0848, 362.2985
432.5670, 362.3047
433.0491, 360.8133
433.5312, 358.5846
434.0133, 356.1308
434.4954, 353.5275
434.9775, 351.2040
435.4597, 349.0496
435.9418, 347.5062
436.4239, 348.1240
436.9060, 350.5079
437.3881, 352.1510
437.8702, 350.5208
438.3524, 347.5016
438.8345, 345.9003
439.3166, 346.1557
439.7987, 346.8252
440.2808, 347.0341
440.7629, 346.8513
441.2451, 346.3849
441.7272, 345.3891
442.2093, 344.3775
442.6914, 343.0606
443.1735, 341.6903
443.6556, 341.8757
444.1378, 347.4984
444.6199, 352.6362
445.1020, 352.9922
445.5841, 343.8796
446.0662, 337.9648
446.5483, 339.3912
447.0305, 344.5176
447.5126, 347.2991
447.9947, 345.9744
448.4768, 344.2794
448.9590, 343.1911
449.4411, 342.7468
449.9232, 340.8571
450.4053, 336.4762
450.8874, 332.1183
451.3695, 329.9294
451.8517, 330.5558
452.3338, 330.3583
452.8159, 328.8138
453.2980, 326.5188
453.7801, 324.6299
454.2622, 323.1837
454.7444, 321.7919
455.2265, 319.7672
455.7086, 317.5949
456.1907, 318.0850
456.6728, 321.4659
457.1549, 324.6539
457.6371, 324.2764
458.1192, 321.5598
458.6013, 319.4722
459.0834, 318.8647
459.5655, 318.9294
460.0476, 319.1752
460.5298, 319.4514
461.0119, 319.3077
461.4940, 317.8067
461.9761, 316.2704
462.4582, 315.7768
462.9403, 316.4540
463.4225, 317.5118
463.9046, 318.5653
464.3867, 319.8448
464.8688, 321.5413
465.3509, 325.3435
465.8330, 327.7427
466.3152, 326.6176
466.7973, 323.2313
467.2794, 322.1573
467.7615, 326.6284
468.2436, 330.5285
468.7257, 331.4407
469.2079, 328.3362
469.6900, 327.0219
470.1721, 328.2316
470.6542, 330.4421
471.1363, 332.0573
471.6184, 332.8832
472.1006, 333.9137
472.5827, 335.4495
473.0648, 337.2240
473.5469, 338.4871
474.0291, 339.2409
474.5112, 339.4741
474.9933, 338.8781
475.4754, 337.6944
475.9575, 337.0719
476.4396, 337.1197
476.9218, 337.1983
477.4039, 336.0193
477.8860, 334.3511
478.3681, 334.1371
478.8502, 336.9767
479.3323, 340.3007
479.8145, 341.9877
480.2966, 342.1049
480.7787, 340.9005
481.2608, 336.3755
481.7429, 332.0710
482.2250, 330.9443
482.7072, 333.9417
483.1893, 336.4597
483.6714, 336.3096
484.1535, 335.1646
484.6356, 334.7184
485.1177, 337.4493
485.5999, 338.3835
486.0820, 335.3254
486.5641, 329.6289
487.0462, 326.2493
487.5283, 326.4296
488.0104, 327.2805
488.4926, 327.7294
488.9747, 327.6824
489.4568, 327.9669
489.9389, 328.9395
490.4210, 329.5978
490.9031, 328.2402
491.3853, 324.6460
491.8674, 322.7197
492.3495, 323.6435
492.8316, 326.2259
493.3137, 328.2694
493.7958, 329.7568
494.2780, 330.3751
494.7601, 329.7097
495.2422, 328.0975
495.7243, 325.6671
496.2064, 322.3280
496.6885, 320.0265
497.1707, 321.0733
497.6528, 323.8350
498.1349, 326.2088
498.6170, 328.4232
499.0992, 328.9296
499.5813, 325.6203
500.0634, 319.9152
500.5455, 315.2771
501.0276, 313.5238
501.5097, 312.4580
501.9919, 311.3275
502.4740, 310.1173
502.9561, 308.6155
503.4382, 306.6418
503.9203, 304.4739
504.4024, 302.1989
504.8846, 299.3339
505.3667, 297.4720
505.8488, 297.1005
506.3309, 297.5538
506.8130, 297.4334
507.2951, 296.6935
507.7773, 295.5964
508.2594, 294.1573
508.7415, 292.4422
509.2236, 290.4567
509.7057, 288.1190
510.1878, 286.5487
510.6700, 287.4958
511.1521, 289.9863
511.6342, 290.8889
512.1163, 289.3561
512.5984, 287.4610
513.0806, 287.6362
513.5627, 289.0629
514.0448, 290.0303
514.5269, 289.3287
515.0090, 288.2892
515.4911, 287.7053
515.9733, 287.5529
516.4554, 287.6017
516.9375, 287.9349
517.4196, 288.3073
517.9017, 288.6379
518.3839, 289.1166
518.8660, 289.0511
519.3481, 287.9852
519.8302, 286.5099
520.3123, 285.2407
520.7944, 284.1388
521.2766, 283.3891
521.7587, 283.5365
522.2408, 284.0002
522.7229, 282.0720
523.2050, 277.0349
523.6871, 272.2785
524.1693, 269.6579
524.6514, 269.0624
525.1335, 268.6288
525.6156, 268.3926
526.0977, 268.0829
526.5798, 267.3802
527.0620, 266.3696
527.5441, 265.2448
528.0262, 263.8766
528.5083, 262.7658
528.9904, 262.6537
529.4725, 263.2393
529.9547, 263.8008
530.4368, 264.1199
530.9189, 264.1796
531.4010, 263.6670
531.8831, 262.6043
532.3652, 262.2200
532.8474, 263.6237
533.3295, 265.3319
533.8116, 266.4360
534.2937, 266.7289
534.7758, 266.5553
535.2579, 265.7265
535.7401, 264.5419
536.2222, 263.3609
536.7043, 261.8447
537.1864, 261.1127
537.6685, 261.5283
538.1506, 262.9003
538.6328, 264.4830
539.1149, 266.3823
539.5970, 267.9434
540.0791, 268.6352
540.5612, 268.6224
541.0433, 268.6655
541.5255, 268.8185
542.0076, 268.7538
542.4897, 267.5924
542.9718, 266.0388
543.4539, 265.6205
543.9360, 267.3475
544.4182, 269.2776
544.9003, 269.7239
545.3824, 269.2099
545.8645, 268.9031
546.3466, 269.3471
546.8287, 270.0345
547.3109, 270.8657
547.7930, 271.8268
548.2751, 272.4963
548.7572, 273.3885
549.2393, 273.5020
549.7214, 272.0284
550.2036, 267.0744
550.6857, 264.9794
551.1678, 266.7941
551.6499, 270.4070
552.1320, 273.1774
552.6141, 275.1985
553.0963, 275.8072
553.5784, 274.4570
554.0605, 271.9396
554.5426, 270.2262
555.0247, 269.2929
555.5068, 268.7055
555.9890, 268.3677
556.4711, 268.1570
556.9532, 267.7088
557.4353, 267.0121
557.9174, 266.7112
558.3995, 266.7665
558.8817, 267.7065
559.3638, 270.4720
559.8459, 276.7611
560.3281, 281.7946
560.8102, 282.4213
561.2923, 280.8153
561.7744, 280.3830
562.2565, 282.5909
562.7386, 285.1185
563.2208, 287.6647
563.7029, 290.1765
564.1850, 292.3744
564.6671, 293.8923
565.1492, 295.7059
565.6313, 298.2915
566.1135, 301.6514
566.5956, 305.5965
567.0777, 310.2666
567.5598, 314.9384
568.0419, 318.4558
568.5240, 321.1657
569.0062, 325.0685
569.4883, 330.5977
569.9704, 337.2644
570.4525, 344.8924
570.9346, 353.2004
571.4167, 361.0958
571.8989, 367.5258
572.3810, 374.0066
572.8631, 381.8196
573.3452, 390.7554
573.8273, 399.7880
574.3094, 408.6324
574.7916, 417.3074
575.2737, 425.8480
575.7558, 434.2796
576.2379, 442.4096
576.7200, 450.1855
577.2021, 457.6034
577.6843, 464.3179
578.1664, 469.0627
578.6485, 477.1866
579.1306, 490.7523
579.6127, 506.3958
580.0948, 517.5052
580.5770, 524.0388
581.0591, 529.8474
581.5412, 537.1466
582.0233, 544.2421
582.5054, 546.6996
582.9875, 544.9727
583.4697, 542.7130
583.9518, 542.7620
584.4339, 543.3727
584.9160, 542.6116
585.3981, 540.1835
585.8802, 537.2455
586.3624, 535.2616
586.8445, 532.6023
587.3266, 527.7428
