##NAMES=Orpiment
##RRUFFID=R060116
##IDEAL CHEMISTRY=As^3+^_2_S^2-^_3_
##LOCALITY=Quiruvilca, Peru
##OWNER=RRUFF
##SOURCE=University of Arizona Mineral Museum
##DESCRIPTION=Brownish-yellow prismatic crystals
##STATUS=The identification of this mineral has been confirmed by X-ray diffraction and chemical analysis
##URL=rruff.info/R060116
##MEASURED CHEMISTRY=As_1.83_S_3.00_
92.02539, 2187.280
92.50751, 2163.754
92.98962, 2168.470
93.47174, 2185.318
93.95386, 2214.026
94.43597, 2238.989
94.91809, 2257.643
95.40021, 2272.393
95.88232, 2282.229
96.36444, 2284.891
96.84656, 2285.902
97.32867, 2287.584
97.81078, 2290.363
98.29290, 2294.285
98.77502, 2297.952
99.25713, 2297.755
99.73925, 2298.292
100.2214, 2299.113
100.7035, 2301.739
101.1856, 2305.707
101.6677, 2311.259
102.1498, 2319.599
102.6320, 2331.742
103.1141, 2346.046
103.5962, 2371.186
104.0783, 2419.169
104.5604, 2473.019
105.0425, 2515.409
105.5247, 2542.144
106.0068, 2553.326
106.4889, 2543.900
106.9710, 2511.621
107.4531, 2479.666
107.9352, 2452.650
108.4173, 2432.069
108.8995, 2426.797
109.3816, 2444.219
109.8637, 2477.059
110.3458, 2515.088
110.8279, 2556.487
111.3100, 2606.811
111.7922, 2672.525
112.2743, 2753.702
112.7564, 2850.359
113.2385, 2961.588
113.7206, 3086.480
114.2027, 3227.649
114.6849, 3386.636
115.1670, 3559.459
115.6491, 3729.533
116.1312, 3906.340
116.6133, 4069.666
117.0954, 4214.640
117.5776, 4345.102
118.0597, 4464.935
118.5418, 4575.589
119.0239, 4676.910
119.5060, 4797.908
119.9881, 4933.827
120.4703, 5088.582
120.9524, 5260.026
121.4345, 5449.872
121.9166, 5666.366
122.3987, 5916.190
122.8808, 6205.805
123.3630, 6520.956
123.8451, 6861.182
124.3272, 7227.679
124.8093, 7616.075
125.2914, 8025.940
125.7735, 8463.684
126.2557, 8934.026
126.7378, 9431.986
127.2199, 9974.555
127.7020, 10543.60
128.1841, 11157.09
128.6662, 11853.19
129.1483, 12603.13
129.6305, 13509.83
130.1126, 14576.30
130.5947, 15813.97
131.0768, 17285.34
131.5589, 19002.98
132.0410, 20946.42
132.5232, 23305.09
133.0053, 26242.86
133.4874, 29542.38
133.9695, 33375.52
134.4516, 37691.50
134.9337, 41933.09
135.4159, 45431.71
135.8980, 48757.61
136.3801, 49969.99
136.8622, 48628.64
137.3443, 45741.36
137.8264, 41806.22
138.3086, 37069.51
138.7907, 31919.27
139.2728, 27532.16
139.7549, 24063.53
140.2370, 21221.63
140.7191, 19110.76
141.2013, 17588.54
141.6834, 16482.75
142.1655, 15733.71
142.6476, 15308.09
143.1297, 15065.79
143.6118, 15012.25
144.0939, 15085.00
144.5761, 15260.94
145.0582, 15542.70
145.5403, 15936.87
146.0224, 16426.69
146.5045, 17063.10
146.9866, 17900.67
147.4688, 18894.60
147.9509, 20128.62
148.4330, 21619.90
148.9151, 23340.58
149.3972, 25516.27
149.8793, 28092.65
150.3615, 31271.12
150.8436, 35482.86
151.3257, 40779.90
151.8078, 47246.95
152.2899, 55483.24
152.7720, 67517.16
153.2542, 77729.73
153.7363, 85732.48
154.2184, 90652.86
154.7005, 90934.00
155.1826, 84814.42
155.6647, 72910.38
156.1469, 61604.84
156.6290, 50500.54
157.1111, 40607.17
157.5932, 32186.69
158.0753, 25174.57
158.5574, 19499.44
159.0396, 15153.62
159.5217, 12222.62
160.0038, 9943.932
160.4859, 8518.923
160.9680, 7450.814
161.4501, 6635.470
161.9323, 6020.056
162.4144, 5543.997
162.8965, 5155.271
163.3786, 4867.960
163.8607, 4628.028
164.3428, 4445.872
164.8250, 4299.103
165.3071, 4181.873
165.7892, 4090.959
166.2713, 4010.324
166.7534, 3921.684
167.2355, 3823.929
167.7177, 3727.041
168.1998, 3629.465
168.6819, 3533.750
169.1640, 3442.693
169.6461, 3356.361
170.1282, 3277.032
170.6104, 3208.089
171.0925, 3148.220
171.5746, 3098.032
172.0567, 3058.281
172.5388, 3028.621
173.0209, 3007.718
173.5031, 2994.045
173.9852, 2992.698
174.4673, 3003.523
174.9494, 3026.529
175.4315, 3063.791
175.9136, 3116.012
176.3958, 3183.272
176.8779, 3266.776
177.3600, 3370.488
177.8421, 3490.045
178.3242, 3618.871
178.8063, 3758.493
179.2885, 3916.907
179.7706, 4098.028
180.2527, 4296.755
180.7348, 4545.474
181.2169, 4851.748
181.6990, 5203.068
182.1812, 5613.771
182.6633, 6078.519
183.1454, 6555.365
183.6275, 6996.161
184.1096, 7428.943
184.5917, 7751.925
185.0738, 7975.796
185.5560, 8109.191
186.0381, 8134.728
186.5202, 8056.489
187.0023, 7918.190
187.4844, 7789.916
187.9665, 7625.823
188.4487, 7557.373
188.9308, 7587.071
189.4129, 7705.381
189.8950, 7911.215
190.3771, 8202.659
190.8592, 8566.559
191.3414, 8981.744
191.8235, 9444.808
192.3056, 9964.752
192.7877, 10523.01
193.2698, 11142.05
193.7519, 11842.77
194.2341, 12627.23
194.7162, 13521.00
195.1983, 14585.86
195.6804, 15762.71
196.1625, 17171.52
196.6446, 18767.39
197.1268, 20624.13
197.6089, 22867.43
198.0910, 25454.53
198.5731, 28632.67
199.0552, 32660.90
199.5373, 37509.43
200.0195, 43090.42
200.5016, 50134.68
200.9837, 58215.55
201.4658, 65319.59
201.9479, 72028.23
202.4300, 75997.09
202.9122, 75021.48
203.3943, 68791.10
203.8764, 60242.65
204.3585, 50690.10
204.8406, 40127.14
205.3227, 31052.34
205.8048, 24484.28
206.2870, 19522.71
206.7691, 15758.75
207.2512, 13136.95
207.7333, 11239.76
208.2154, 9745.300
208.6975, 8691.873
209.1797, 7818.526
209.6618, 7173.257
210.1439, 6641.272
210.6260, 6185.886
211.1081, 5795.955
211.5902, 5462.351
212.0724, 5177.762
212.5545, 4952.663
213.0366, 4752.793
213.5187, 4576.713
214.0008, 4421.675
214.4829, 4287.187
214.9651, 4173.169
215.4472, 4076.682
215.9293, 3995.459
216.4114, 3936.607
216.8935, 3879.473
217.3756, 3820.643
217.8578, 3765.057
218.3399, 3716.044
218.8220, 3674.427
219.3041, 3637.850
219.7862, 3602.898
220.2683, 3567.479
220.7505, 3538.925
221.2326, 3519.001
221.7147, 3503.861
222.1968, 3491.763
222.6789, 3481.875
223.1610, 3472.520
223.6432, 3461.214
224.1253, 3446.927
224.6074, 3432.488
225.0895, 3416.314
225.5716, 3400.818
226.0537, 3387.593
226.5358, 3377.066
227.0180, 3370.104
227.5001, 3368.585
227.9822, 3374.624
228.4643, 3379.734
228.9464, 3383.327
229.4285, 3385.799
229.9107, 3387.484
230.3928, 3388.461
230.8749, 3388.632
231.3570, 3387.174
231.8391, 3383.716
232.3212, 3382.610
232.8034, 3386.802
233.2855, 3392.876
233.7676, 3396.713
234.2497, 3397.568
234.7318, 3396.325
235.2139, 3393.088
235.6961, 3388.141
236.1782, 3383.498
236.6603, 3377.529
237.1424, 3372.810
237.6245, 3375.260
238.1066, 3388.017
238.5888, 3399.756
239.0709, 3397.568
239.5530, 3385.224
240.0351, 3373.257
240.5172, 3364.350
240.9993, 3358.253
241.4815, 3355.950
241.9636, 3359.807
242.4457, 3361.211
242.9278, 3351.339
243.4099, 3334.424
243.8920, 3318.885
244.3742, 3307.409
244.8563, 3299.859
245.3384, 3296.406
245.8205, 3298.137
246.3026, 3301.698
246.7847, 3304.946
247.2668, 3308.591
247.7490, 3314.120
248.2311, 3323.450
248.7132, 3334.481
249.1953, 3340.563
249.6774, 3335.895
250.1595, 3338.625
250.6417, 3360.417
251.1238, 3391.908
251.6059, 3420.811
252.0880, 3440.235
252.5701, 3455.387
253.0522, 3480.363
253.5344, 3520.022
254.0165, 3560.107
254.4986, 3595.537
254.9807, 3629.241
255.4628, 3664.292
255.9449, 3701.691
256.4271, 3741.708
256.9092, 3785.976
257.3913, 3837.692
257.8734, 3887.357
258.3555, 3930.163
258.8376, 3971.719
259.3198, 4018.394
259.8019, 4072.577
260.2840, 4130.188
260.7661, 4182.572
261.2482, 4227.144
261.7303, 4271.003
262.2125, 4310.247
262.6946, 4352.194
263.1767, 4404.344
263.6588, 4468.889
264.1409, 4539.242
264.6230, 4603.299
265.1052, 4652.368
265.5873, 4712.817
266.0694, 4781.383
266.5515, 4861.993
267.0336, 4954.618
267.5157, 5060.143
267.9979, 5183.381
268.4800, 5331.368
268.9621, 5504.826
269.4442, 5704.885
269.9263, 5921.870
270.4084, 6166.315
270.8906, 6443.118
271.3727, 6753.465
271.8548, 7096.660
272.3369, 7474.053
272.8190, 7888.733
273.3011, 8323.473
273.7833, 8801.302
274.2654, 9275.502
274.7475, 9720.441
275.2296, 10134.90
275.7117, 10525.65
276.1938, 10894.77
276.6760, 11233.49
277.1581, 11610.79
277.6402, 12006.73
278.1223, 12449.58
278.6044, 12939.88
279.0865, 13488.32
279.5686, 14114.17
280.0508, 14832.58
280.5329, 15641.80
281.0150, 16554.80
281.4971, 17529.84
281.9792, 18627.79
282.4613, 19857.70
282.9435, 21228.71
283.4256, 22743.21
283.9077, 24388.64
284.3898, 26191.35
284.8719, 28308.62
285.3540, 30688.50
285.8362, 33387.33
286.3183, 36390.98
286.8004, 39728.58
287.2825, 43460.13
287.7646, 47631.40
288.2467, 52189.75
288.7289, 57055.73
289.2110, 62600.04
289.6931, 67952.27
290.1752, 73438.70
290.6573, 78512.43
291.1394, 82584.43
291.6216, 85479.09
292.1037, 86823.68
292.5858, 85683.21
293.0679, 81455.28
293.5500, 75897.83
294.0321, 68211.86
294.5143, 59685.16
294.9964, 51480.53
295.4785, 43886.35
295.9606, 37202.41
296.4427, 31874.94
296.9248, 28190.82
297.4070, 25303.54
297.8891, 23378.51
298.3712, 22126.95
298.8533, 21372.21
299.3354, 21069.38
299.8175, 21115.38
300.2997, 21422.51
300.7818, 22028.83
301.2639, 22857.77
301.7460, 23911.29
302.2281, 25170.46
302.7102, 26593.05
303.1924, 28194.49
303.6745, 30073.50
304.1566, 32280.62
304.6387, 34858.62
305.1208, 38006.90
305.6029, 41507.51
306.0851, 45720.33
306.5672, 50758.45
307.0493, 56647.11
307.5314, 63506.86
308.0135, 71490.52
308.4956, 80444.30
308.9778, 89586.95
309.4599, 100479.6
309.9420, 109686.8
310.4241, 117436.8
310.9062, 122641.6
311.3883, 122752.7
311.8705, 116491.3
312.3526, 105365.0
312.8347, 91991.92
313.3168, 74766.17
313.7989, 59296.59
314.2810, 46510.40
314.7632, 36167.89
315.2453, 28085.94
315.7274, 22288.71
316.2095, 18147.52
316.6916, 14983.40
317.1737, 12949.98
317.6559, 11280.85
318.1380, 10026.70
318.6201, 9048.877
319.1022, 8258.287
319.5843, 7631.220
320.0664, 7120.804
320.5485, 6690.106
321.0306, 6350.505
321.5128, 6064.360
321.9949, 5842.231
322.4770, 5660.968
322.9591, 5510.550
323.4412, 5389.226
323.9233, 5292.748
324.4055, 5221.146
324.8876, 5172.752
325.3697, 5135.008
325.8518, 5103.924
326.3339, 5085.415
326.8160, 5079.971
327.2982, 5088.637
327.7803, 5114.138
328.2624, 5158.415
328.7445, 5218.949
329.2266, 5290.230
329.7087, 5367.721
330.1909, 5461.468
330.6730, 5560.758
331.1551, 5681.578
331.6372, 5844.015
332.1193, 6053.895
332.6014, 6305.091
333.0836, 6590.150
333.5657, 6907.442
334.0478, 7276.728
334.5299, 7695.413
335.0120, 8165.904
335.4941, 8694.986
335.9763, 9279.477
336.4584, 9916.521
336.9405, 10600.16
337.4226, 11336.36
337.9047, 12111.86
338.3868, 12913.53
338.8690, 13768.16
339.3511, 14681.32
339.8332, 15660.76
340.3153, 16715.15
340.7974, 17851.07
341.2795, 19065.27
341.7617, 20332.73
342.2438, 21649.82
342.7259, 23011.33
343.2080, 24382.51
343.6901, 25807.75
344.1722, 27316.72
344.6544, 28912.03
345.1365, 30655.92
345.6186, 32668.29
346.1007, 34941.36
346.5828, 37566.13
347.0649, 40417.57
347.5471, 43677.65
348.0292, 47447.46
348.5113, 51747.14
348.9934, 56693.34
349.4755, 62340.54
349.9576, 68699.45
350.4398, 76013.09
350.9219, 84312.46
351.4040, 93354.59
351.8861, 103201.3
352.3682, 113643.3
352.8503, 124330.9
353.3325, 135001.5
353.8146, 145608.8
354.2967, 155745.3
354.7788, 166308.3
355.2609, 175359.5
355.7430, 182247.0
356.2252, 187412.0
356.7073, 191329.3
357.1894, 194192.4
357.6715, 196341.3
358.1536, 198851.3
358.6357, 204517.7
359.1179, 205931.5
359.5999, 203549.2
360.0821, 196804.7
360.5642, 184202.4
361.0463, 165941.1
361.5284, 144897.9
362.0105, 124068.7
362.4926, 102764.9
362.9748, 84466.99
363.4569, 69591.01
363.9390, 57113.55
364.4211, 47079.13
364.9032, 39105.70
365.3853, 32736.26
365.8675, 27696.24
366.3496, 23914.99
366.8317, 20737.07
367.3138, 18394.50
367.7959, 16436.13
368.2780, 14833.44
368.7602, 13517.28
369.2423, 12428.70
369.7244, 11550.75
370.2065, 10846.97
370.6886, 10250.42
371.1707, 9768.013
371.6529, 9386.845
372.1350, 9124.382
372.6171, 8938.776
373.0992, 8806.396
373.5813, 8723.848
374.0634, 8694.683
374.5456, 8723.665
375.0277, 8810.818
375.5098, 8949.223
375.9919, 9133.388
376.4740, 9384.072
376.9561, 9697.014
377.4383, 10079.10
377.9204, 10542.17
378.4025, 11103.32
378.8846, 11747.25
379.3667, 12446.57
379.8488, 13227.50
380.3310, 13995.53
380.8131, 14797.72
381.2952, 15531.87
381.7773, 16114.94
382.2594, 16547.75
382.7415, 16724.54
383.2237, 16516.72
383.7058, 15925.55
384.1879, 15064.84
384.6700, 13830.87
385.1521, 12450.41
385.6342, 11076.27
386.1164, 9726.605
386.5985, 8492.529
387.0806, 7433.841
387.5627, 6538.106
388.0448, 5777.283
388.5269, 5161.107
389.0091, 4649.567
389.4912, 4242.275
389.9733, 3917.521
390.4554, 3639.293
390.9375, 3408.341
391.4196, 3214.192
391.9018, 3052.478
392.3839, 2921.354
392.8660, 2811.062
393.3481, 2720.983
393.8302, 2646.785
394.3123, 2578.521
394.7945, 2515.829
395.2766, 2458.832
395.7587, 2407.543
396.2408, 2362.097
396.7229, 2325.205
397.2050, 2297.822
397.6872, 2272.496
398.1693, 2240.220
398.6514, 2200.210
399.1335, 2163.272
399.6156, 2133.280
400.0977, 2103.373
400.5798, 2069.639
401.0620, 2031.714
401.5441, 1989.348
402.0262, 1941.972
402.5083, 1890.346
402.9904, 1839.222
403.4725, 1790.691
403.9547, 1739.973
404.4368, 1682.262
404.9189, 1623.283
405.4010, 1572.081
405.8831, 1531.313
406.3652, 1493.504
406.8474, 1446.960
407.3295, 1385.668
407.8116, 1334.368
408.2937, 1296.597
408.7758, 1264.498
409.2579, 1234.077
409.7401, 1205.232
410.2222, 1179.457
410.7043, 1157.684
411.1864, 1139.774
411.6685, 1123.647
412.1506, 1109.178
412.6328, 1096.984
413.1149, 1087.070
413.5970, 1079.455
414.0791, 1074.665
414.5612, 1072.769
415.0433, 1072.199
415.5255, 1070.481
416.0076, 1067.153
416.4897, 1064.249
416.9718, 1060.638
417.4539, 1058.594
417.9360, 1059.934
418.4182, 1064.033
418.9003, 1068.738
419.3824, 1073.279
419.8645, 1077.107
420.3466, 1077.449
420.8287, 1072.733
421.3109, 1067.743
421.7930, 1063.654
422.2751, 1060.660
422.7572, 1059.644
423.2393, 1061.323
423.7214, 1062.737
424.2036, 1059.958
424.6857, 1053.190
425.1678, 1047.673
425.6499, 1045.100
426.1320, 1043.500
426.6141, 1041.187
427.0963, 1038.207
427.5784, 1034.763
428.0605, 1031.819
428.5426, 1028.109
429.0247, 1021.140
429.5068, 1010.576
429.9890, 999.8774
430.4711, 992.3467
430.9532, 985.9339
431.4353, 974.3859
431.9174, 952.8361
432.3995, 933.3267
432.8817, 923.8110
433.3638, 920.5536
433.8459, 915.8495
434.3280, 907.3972
434.8101, 896.5582
435.2922, 884.4819
435.7744, 870.0456
436.2565, 859.7184
436.7386, 856.4202
437.2207, 855.1241
437.7028, 853.3152
438.1849, 850.4630
438.6671, 845.6736
439.1492, 837.8883
439.6313, 828.1531
440.1134, 822.8516
440.5955, 826.6405
441.0776, 829.1791
441.5598, 828.5021
442.0418, 826.4951
442.5240, 824.7388
443.0061, 823.8091
443.4882, 823.9692
443.9703, 825.9822
444.4524, 830.7684
444.9345, 833.1126
445.4167, 830.1268
445.8988, 827.5254
446.3809, 828.1569
446.8630, 830.6034
447.3451, 831.9767
447.8272, 830.6222
448.3094, 827.2062
448.7915, 823.5145
449.2736, 819.9963
449.7557, 814.8851
450.2378, 806.3121
450.7199, 796.8892
451.2021, 788.7216
451.6842, 781.9394
452.1663, 774.5426
452.6484, 764.4249
453.1305, 752.2396
453.6126, 741.3058
454.0948, 732.4185
454.5769, 723.4933
455.0590, 711.7671
455.5411, 699.1948
456.0232, 689.5925
456.5053, 685.3844
456.9875, 682.2515
457.4696, 675.9120
457.9517, 667.2747
458.4338, 660.3607
458.9159, 656.5084
459.3980, 654.9276
459.8802, 655.5121
460.3623, 658.7769
460.8444, 659.2761
461.3265, 651.9437
461.8086, 644.2325
462.2907, 644.3795
462.7729, 651.6321
463.2550, 657.8293
463.7371, 656.9236
464.2192, 650.6740
464.7013, 649.3251
465.1834, 658.6718
465.6656, 665.1871
466.1477, 664.7936
466.6298, 661.7571
467.1119, 660.4099
467.5940, 661.8741
468.0761, 665.0380
468.5583, 668.8267
469.0404, 673.5798
469.5225, 676.9335
470.0046, 679.3292
470.4867, 679.8003
470.9688, 675.5234
471.4510, 669.6234
471.9331, 667.5825
472.4152, 672.3209
472.8973, 679.9752
473.3794, 682.7875
473.8615, 679.3423
474.3437, 677.0703
474.8258, 678.0959
475.3079, 680.1156
475.7900, 682.1589
476.2721, 684.0190
476.7542, 685.2950
477.2364, 685.7726
477.7185, 685.4786
478.2006, 684.2609
478.6827, 681.9620
479.1648, 679.6637
479.6469, 677.2307
480.1291, 675.5469
480.6112, 676.4624
481.0933, 681.3556
481.5754, 685.2032
482.0575, 684.8253
482.5396, 681.8231
483.0217, 679.2434
483.5038, 677.7196
483.9860, 675.9015
484.4681, 672.3555
484.9502, 666.9958
485.4323, 662.0771
485.9144, 659.1155
486.3965, 654.9785
486.8787, 647.1913
487.3608, 637.4704
487.8429, 629.1221
488.3250, 623.4410
488.8071, 618.9729
489.2892, 612.9981
489.7714, 603.7631
490.2535, 597.3195
490.7356, 594.6865
491.2177, 593.4026
491.6998, 592.6002
492.1819, 592.1107
492.6641, 591.8575
493.1462, 591.7071
493.6283, 591.9520
494.1104, 593.2485
494.5925, 595.1292
495.0746, 599.3325
495.5568, 610.8114
496.0389, 621.5524
496.5210, 624.9122
497.0031, 620.8483
497.4852, 615.7026
497.9673, 613.5436
498.4495, 613.7123
498.9316, 615.3828
499.4137, 619.4323
499.8958, 620.5754
500.3779, 613.7154
500.8600, 602.4715
501.3422, 594.5933
501.8243, 591.7228
502.3064, 589.4423
502.7885, 586.7089
503.2706, 582.7673
503.7527, 576.0250
504.2349, 566.1374
504.7170, 554.1384
505.1991, 540.4162
505.6812, 524.6845
506.1633, 512.4859
506.6454, 505.2946
507.1276, 499.5592
507.6097, 495.1854
508.0918, 491.0692
508.5739, 485.4537
509.0560, 477.7359
509.5381, 469.2193
510.0203, 461.6901
510.5024, 454.4896
510.9845, 450.5352
511.4666, 453.9055
511.9487, 456.4933
512.4308, 454.8930
512.9130, 450.1843
513.3951, 444.7633
513.8772, 439.6917
514.3593, 434.9184
514.8414, 429.8806
515.3235, 424.2227
515.8057, 420.9888
516.2878, 422.2617
516.7699, 424.8752
517.2520, 426.3710
517.7341, 426.7841
518.2162, 426.6481
518.6984, 425.4300
519.1805, 424.2143
519.6626, 425.1939
520.1447, 428.1183
520.6268, 429.2071
521.1089, 426.1701
521.5911, 420.7966
522.0732, 417.4249
522.5553, 417.1104
523.0374, 415.3402
523.5195, 409.9211
524.0016, 403.7613
524.4838, 400.1835
524.9659, 398.7517
525.4480, 395.7934
525.9301, 388.3604
526.4122, 377.6955
526.8943, 370.1349
527.3765, 368.8560
527.8586, 366.3116
528.3407, 359.7670
528.8228, 353.1991
529.3049, 350.6781
529.7870, 352.0693
530.2692, 353.2984
530.7513, 350.2404
531.2334, 343.8746
531.7155, 340.0984
532.1976, 339.6625
532.6797, 340.1085
533.1619, 341.2172
533.6440, 342.2958
534.1261, 342.4477
534.6082, 341.4107
535.0903, 340.5032
535.5724, 340.7628
536.0546, 341.7248
536.5367, 342.6301
537.0188, 343.4414
537.5009, 343.2733
537.9830, 340.6640
538.4651, 336.5326
538.9473, 335.8403
539.4294, 340.5824
539.9115, 345.8950
540.3936, 351.6913
540.8757, 356.7424
541.3578, 358.6521
541.8400, 357.3853
542.3221, 356.3703
542.8042, 359.4378
543.2863, 366.6929
543.7684, 371.4796
544.2505, 371.0481
544.7326, 371.3418
545.2147, 373.7421
545.6968, 377.2889
546.1790, 381.4326
546.6611, 385.8747
547.1432, 389.2558
547.6253, 389.6943
548.1074, 387.4302
548.5895, 385.0362
549.0717, 382.2125
549.5538, 380.1336
550.0359, 380.2436
550.5180, 381.3694
551.0001, 381.8624
551.4822, 381.5430
551.9644, 380.3523
552.4465, 377.0300
552.9286, 373.0370
553.4107, 371.9404
553.8928, 374.4913
554.3749, 377.2605
554.8571, 376.8969
555.3392, 373.5342
555.8213, 372.3897
556.3034, 376.0953
556.7855, 378.4734
557.2676, 377.1147
557.7498, 373.9680
558.2319, 371.1203
558.7140, 369.1714
559.1961, 367.8828
559.6782, 366.9842
560.1603, 366.4773
560.6425, 366.3713
561.1246, 365.2186
561.6067, 366.7917
562.0888, 374.5671
562.5709, 384.1870
563.0530, 390.2902
563.5352, 391.4779
564.0173, 392.2137
564.4994, 397.0276
564.9815, 404.4823
565.4636, 409.3162
565.9457, 410.4600
566.4279, 412.1315
566.9100, 417.3192
567.3921, 425.2996
567.8742, 432.9864
568.3563, 439.7026
568.8384, 447.2372
569.3206, 456.3960
569.8027, 466.5946
570.2848, 477.2323
570.7669, 488.1428
571.2490, 499.4327
571.7311, 510.7983
572.2133, 522.5550
572.6954, 537.6639
573.1775, 557.7731
573.6596, 579.3069
574.1417, 601.8137
574.6238, 625.5493
575.1060, 650.4639
575.5881, 676.8060
576.0702, 705.2279
576.5523, 737.2109
577.0344, 771.6676
577.5165, 804.6262
577.9987, 835.9165
578.4808, 866.1713
578.9629, 893.6349
579.4450, 921.3027
579.9271, 953.9059
580.4092, 992.4398
580.8914, 1029.282
581.3735, 1062.101
581.8556, 1091.419
582.3377, 1118.213
582.8198, 1142.297
583.3019, 1162.486
583.7841, 1177.670
584.2662, 1189.542
584.7483, 1203.141
585.2304, 1225.928
585.7125, 1237.621
586.1946, 1234.543
586.6768, 1224.446
587.1589, 1210.002
587.6410, 1192.683
588.1231, 1174.465
588.6052, 1156.662
589.0873, 1138.166
