##NAMES=Orpiment
##RRUFFID=R060105
##IDEAL CHEMISTRY=As^3+^_2_S^2-^_3_
##LOCALITY=Mercur, Utah, USA
##OWNER=RRUFF
##SOURCE=University of Arizona Mineral Museum
##DESCRIPTION=Yellowish-orange crystals
##STATUS=The identification of this mineral has been confirmed by X-ray diffraction and chemical analysis
##URL=rruff.info/R060105
##MEASURED CHEMISTRY=As_2.00_S_3.00_
92.02539, 613.7955
92.50751, 620.8098
92.98962, 628.5733
93.47174, 625.3721
93.95386, 619.7932
94.43597, 615.9297
94.91809, 617.0836
95.40021, 621.8366
95.88232, 623.1768
96.36444, 620.2952
96.84656, 615.1874
97.32867, 607.4651
97.81078, 598.6794
98.29290, 590.9791
98.77502, 585.4982
99.25713, 581.1341
99.73925, 579.7805
100.2214, 582.1163
100.7035, 586.1365
101.1856, 589.8052
101.6677, 593.4489
102.1498, 599.5856
102.6320, 610.9876
103.1141, 627.7391
103.5962, 652.3467
104.0783, 693.9310
104.5604, 739.7819
105.0425, 779.0876
105.5247, 810.9376
106.0068, 827.7900
106.4889, 811.1796
106.9710, 759.0472
107.4531, 702.8723
107.9352, 650.6913
108.4173, 603.7117
108.8995, 568.5641
109.3816, 549.9129
109.8637, 544.0509
110.3458, 545.7293
110.8279, 554.4987
111.3100, 570.6778
111.7922, 593.9645
112.2743, 623.0393
112.7564, 664.0437
113.2385, 719.1443
113.7206, 785.1052
114.2027, 861.0207
114.6849, 946.5647
115.1670, 1040.453
115.6491, 1137.062
116.1312, 1249.205
116.6133, 1349.352
117.0954, 1435.428
117.5776, 1507.006
118.0597, 1563.060
118.5418, 1602.094
119.0239, 1623.894
119.5060, 1646.833
119.9881, 1666.009
120.4703, 1690.361
120.9524, 1722.645
121.4345, 1763.173
121.9166, 1811.973
122.3987, 1869.148
122.8808, 1936.328
123.3630, 2009.313
123.8451, 2089.004
124.3272, 2174.162
124.8093, 2263.487
125.2914, 2357.380
125.7735, 2453.569
126.2557, 2547.493
126.7378, 2639.848
127.2199, 2737.969
127.7020, 2842.643
128.1841, 2954.689
128.6662, 3074.637
129.1483, 3201.897
129.6305, 3340.547
130.1126, 3487.499
130.5947, 3644.167
131.0768, 3819.031
131.5589, 4017.994
132.0410, 4240.786
132.5232, 4489.868
133.0053, 4781.079
133.4874, 5090.912
133.9695, 5435.583
134.4516, 5809.188
134.9337, 6154.118
135.4159, 6397.711
135.8980, 6580.178
136.3801, 6552.688
136.8622, 6264.789
137.3443, 5828.569
137.8264, 5305.490
138.3086, 4724.118
138.7907, 4116.774
139.2728, 3585.933
139.7549, 3138.586
140.2370, 2763.727
140.7191, 2472.546
141.2013, 2250.720
141.6834, 2081.721
142.1655, 1961.002
142.6476, 1883.189
143.1297, 1825.856
143.6118, 1795.490
144.0939, 1773.581
144.5761, 1755.557
145.0582, 1740.861
145.5403, 1726.112
146.0224, 1706.662
146.5045, 1687.144
146.9866, 1678.320
147.4688, 1679.162
147.9509, 1692.137
148.4330, 1719.261
148.9151, 1760.610
149.3972, 1816.209
149.8793, 1884.258
150.3615, 1967.625
150.8436, 2074.581
151.3257, 2207.705
151.8078, 2366.209
152.2899, 2555.537
152.7720, 2813.534
153.2542, 3035.585
153.7363, 3213.760
154.2184, 3333.112
154.7005, 3369.449
155.1826, 3299.646
155.6647, 3130.441
156.1469, 2930.118
156.6290, 2683.007
157.1111, 2416.136
157.5932, 2112.905
158.0753, 1793.271
158.5574, 1495.201
159.0396, 1248.595
159.5217, 1054.558
160.0038, 907.9080
160.4859, 825.7573
160.9680, 767.4209
161.4501, 722.5576
161.9323, 687.7800
162.4144, 661.3820
162.8965, 642.3018
163.3786, 632.1652
163.8607, 623.7587
164.3428, 616.5677
164.8250, 611.2540
165.3071, 608.4693
165.7892, 608.2698
166.2713, 610.0947
166.7534, 613.6716
167.2355, 619.2314
167.7177, 625.0023
168.1998, 631.1466
168.6819, 637.3160
169.1640, 642.9345
169.6461, 647.7768
170.1282, 652.4454
170.6104, 657.4229
171.0925, 662.6484
171.5746, 668.6555
172.0567, 674.7341
172.5388, 681.6317
173.0209, 691.3894
173.5031, 703.9902
173.9852, 720.6212
174.4673, 740.0684
174.9494, 762.5872
175.4315, 791.8663
175.9136, 830.6158
176.3958, 878.7791
176.8779, 933.6910
177.3600, 1003.443
177.8421, 1073.101
178.3242, 1140.803
178.8063, 1204.022
179.2885, 1250.175
179.7706, 1262.385
180.2527, 1232.957
180.7348, 1202.338
181.2169, 1161.592
181.6990, 1128.826
182.1812, 1114.544
182.6633, 1120.134
183.1454, 1140.002
183.6275, 1168.753
184.1096, 1216.078
184.5917, 1251.105
185.0738, 1274.048
185.5560, 1287.270
186.0381, 1290.169
186.5202, 1283.401
187.0023, 1270.706
187.4844, 1258.130
187.9665, 1242.347
188.4487, 1232.704
188.9308, 1228.860
189.4129, 1230.977
189.8950, 1239.688
190.3771, 1255.123
190.8592, 1276.208
191.3414, 1301.276
191.8235, 1330.675
192.3056, 1363.351
192.7877, 1398.412
193.2698, 1436.784
193.7519, 1479.673
194.2341, 1527.482
194.7162, 1580.345
195.1983, 1639.072
195.6804, 1701.531
196.1625, 1772.217
196.6446, 1851.133
197.1268, 1939.420
197.6089, 2039.093
198.0910, 2149.260
198.5731, 2274.948
199.0552, 2422.785
199.5373, 2594.240
200.0195, 2776.368
200.5016, 2986.847
200.9837, 3212.907
201.4658, 3393.451
201.9479, 3539.679
202.4300, 3591.531
202.9122, 3497.896
203.3943, 3250.312
203.8764, 2927.884
204.3585, 2559.159
204.8406, 2143.919
205.3227, 1777.852
205.8048, 1492.992
206.2870, 1266.623
206.7691, 1090.656
207.2512, 963.9435
207.7333, 869.1012
208.2154, 792.7834
208.6975, 736.5447
209.1797, 689.8414
209.6618, 655.4417
210.1439, 627.4096
210.6260, 603.9457
211.1081, 584.4725
211.5902, 568.3734
212.0724, 555.2964
212.5545, 546.2168
213.0366, 537.5364
213.5187, 529.2731
214.0008, 521.1127
214.4829, 512.1933
214.9651, 502.6579
215.4472, 493.9626
215.9293, 488.5228
216.4114, 488.3077
216.8935, 487.4323
217.3756, 485.8065
217.8578, 483.6834
218.3399, 480.9275
218.8220, 477.6512
219.3041, 474.4211
219.7862, 472.1512
220.2683, 471.3954
220.7505, 470.6364
221.2326, 470.2488
221.7147, 469.6338
222.1968, 467.8755
222.6789, 464.9133
223.1610, 462.0319
223.6432, 461.1979
224.1253, 463.7728
224.6074, 465.7979
225.0895, 467.4398
225.5716, 468.4607
226.0537, 468.3150
226.5358, 466.9292
227.0180, 465.2811
227.5001, 464.8496
227.9822, 466.2672
228.4643, 466.8674
228.9464, 465.6283
229.4285, 463.8940
229.9107, 463.2181
230.3928, 463.9691
230.8749, 465.1628
231.3570, 465.3541
231.8391, 464.3604
232.3212, 464.3239
232.8034, 466.9017
233.2855, 470.1125
233.7676, 471.0717
234.2497, 468.9912
234.7318, 466.2946
235.2139, 465.9174
235.6961, 467.5477
236.1782, 468.9975
236.6603, 469.8199
237.1424, 470.1061
237.6245, 469.7971
238.1066, 468.6676
238.5888, 467.6736
239.0709, 467.7551
239.5530, 468.6832
240.0351, 469.9926
240.5172, 471.9372
240.9993, 474.0802
241.4815, 475.4169
241.9636, 475.5521
242.4457, 475.7729
242.9278, 476.9256
243.4099, 478.8306
243.8920, 481.2778
244.3742, 484.9799
244.8563, 489.0388
245.3384, 491.0164
245.8205, 489.8090
246.3026, 489.0098
246.7847, 490.7632
247.2668, 494.1847
247.7490, 497.9963
248.2311, 501.7286
248.7132, 505.4172
249.1953, 509.2196
249.6774, 513.1335
250.1595, 517.1663
250.6417, 521.3633
251.1238, 525.6414
251.6059, 529.7796
252.0880, 533.4786
252.5701, 537.2292
253.0522, 542.4958
253.5344, 550.1424
254.0165, 557.5928
254.4986, 563.6934
254.9807, 569.3467
255.4628, 575.6175
255.9449, 582.9822
256.4271, 591.0358
256.9092, 598.9388
257.3913, 606.6995
257.8734, 614.2203
258.3555, 620.5027
258.8376, 627.0267
259.3198, 635.5275
259.8019, 646.6780
260.2840, 659.1888
260.7661, 670.3788
261.2482, 679.7039
261.7303, 688.6199
262.2125, 696.5143
262.6946, 704.6611
263.1767, 714.2734
263.6588, 725.7300
264.1409, 738.1021
264.6230, 749.5121
265.1052, 757.6575
265.5873, 769.6571
266.0694, 785.2053
266.5515, 804.2740
267.0336, 826.9591
267.5157, 853.1501
267.9979, 882.4545
268.4800, 913.6721
268.9621, 943.1238
269.4442, 983.5159
269.9263, 1034.111
270.4084, 1093.700
270.8906, 1160.424
271.3727, 1234.527
271.8548, 1318.529
272.3369, 1416.033
272.8190, 1528.411
273.3011, 1649.283
273.7833, 1787.714
274.2654, 1925.240
274.7475, 2055.280
275.2296, 2175.262
275.7117, 2281.368
276.1938, 2369.280
276.6760, 2437.427
277.1581, 2495.806
277.6402, 2533.237
278.1223, 2573.660
278.6044, 2625.170
279.0865, 2689.397
279.5686, 2765.856
280.0508, 2853.955
280.5329, 2953.379
281.0150, 3070.444
281.4971, 3205.630
281.9792, 3354.109
282.4613, 3516.155
282.9435, 3690.301
283.4256, 3873.097
283.9077, 4061.361
284.3898, 4257.356
284.8719, 4471.424
285.3540, 4691.135
285.8362, 4939.881
286.3183, 5220.906
286.8004, 5535.628
287.2825, 5885.419
287.7646, 6271.528
288.2467, 6693.139
288.7289, 7158.012
289.2110, 7675.477
289.6931, 8218.130
290.1752, 8803.416
290.6573, 9403.999
291.1394, 10004.12
291.6216, 10604.19
292.1037, 11141.31
292.5858, 11489.51
293.0679, 11666.29
293.5500, 11614.34
294.0321, 11247.89
294.5143, 10683.16
294.9964, 9998.015
295.4785, 9212.373
295.9606, 8429.719
296.4427, 7787.343
296.9248, 7301.660
297.4070, 6947.964
297.8891, 6750.540
298.3712, 6670.269
298.8533, 6688.486
299.3354, 6797.959
299.8175, 6971.260
300.2997, 7184.162
300.7818, 7442.421
301.2639, 7733.930
301.7460, 8060.141
302.2281, 8414.845
302.7102, 8789.998
303.1924, 9187.779
303.6745, 9628.762
304.1566, 10130.65
304.6387, 10696.02
305.1208, 11310.42
305.6029, 11973.68
306.0851, 12682.36
306.5672, 13448.70
307.0493, 14262.29
307.5314, 15103.67
308.0135, 15977.16
308.4956, 16857.13
308.9778, 17620.50
309.4599, 18414.29
309.9420, 18947.88
310.4241, 19234.49
310.9062, 19188.95
311.3883, 18600.38
311.8705, 17357.14
312.3526, 15615.41
312.8347, 13651.79
313.3168, 11283.11
313.7989, 9136.639
314.2810, 7301.564
314.7632, 5771.241
315.2453, 4549.005
315.7274, 3645.379
316.2095, 2980.247
316.6916, 2469.776
317.1737, 2137.981
317.6559, 1865.254
318.1380, 1659.935
318.6201, 1499.710
319.1022, 1370.094
319.5843, 1267.281
320.0664, 1184.208
320.5485, 1115.491
321.0306, 1063.130
321.5128, 1019.572
321.9949, 986.6113
322.4770, 960.3491
322.9591, 938.9401
323.4412, 922.1766
323.9233, 909.8210
324.4055, 902.2105
324.8876, 899.0003
325.3697, 897.3272
325.8518, 897.9089
326.3339, 898.9617
326.8160, 898.5566
327.2982, 898.1398
327.7803, 899.9955
328.2624, 904.5457
328.7445, 913.6234
329.2266, 932.6955
329.7087, 959.8063
330.1909, 998.1326
330.6730, 1045.701
331.1551, 1105.698
331.6372, 1180.381
332.1193, 1270.291
332.6014, 1379.348
333.0836, 1514.009
333.5657, 1676.790
334.0478, 1865.413
334.5299, 2086.094
335.0120, 2327.274
335.4941, 2584.347
335.9763, 2853.839
336.4584, 3133.211
336.9405, 3420.399
337.4226, 3717.708
337.9047, 4001.143
338.3868, 4272.616
338.8690, 4533.181
339.3511, 4773.237
339.8332, 5002.051
340.3153, 5240.623
340.7974, 5501.000
341.2795, 5783.094
341.7617, 6086.255
342.2438, 6421.851
342.7259, 6760.764
343.2080, 7096.925
343.6901, 7432.852
344.1722, 7765.250
344.6544, 8090.805
345.1365, 8424.206
345.6186, 8794.327
346.1007, 9210.156
346.5828, 9657.265
347.0649, 10108.96
347.5471, 10604.52
348.0292, 11178.41
348.5113, 11833.43
348.9934, 12561.51
349.4755, 13345.71
349.9576, 14196.48
350.4398, 15083.60
350.9219, 16055.50
351.4040, 17014.16
351.8861, 17955.74
352.3682, 18839.16
352.8503, 19587.49
353.3325, 20142.26
353.8146, 20503.45
354.2967, 20666.57
354.7788, 20646.63
355.2609, 20414.24
355.7430, 19901.39
356.2252, 19186.87
356.7073, 18340.79
357.1894, 17394.68
357.6715, 16408.22
358.1536, 15525.04
358.6357, 14847.37
359.1179, 14121.91
359.5999, 13390.04
360.0821, 12579.52
360.5642, 11606.76
361.0463, 10466.27
361.5284, 9260.692
362.0105, 8092.626
362.4926, 6934.524
362.9748, 5927.475
363.4569, 5084.195
363.9390, 4369.158
364.4211, 3788.176
364.9032, 3323.860
365.3853, 2957.870
365.8675, 2681.338
366.3496, 2488.635
366.8317, 2327.283
367.3138, 2211.969
367.7959, 2112.934
368.2780, 2028.917
368.7602, 1955.010
369.2423, 1885.154
369.7244, 1816.946
370.2065, 1753.578
370.6886, 1700.920
371.1707, 1659.179
371.6529, 1628.821
372.1350, 1608.612
372.6171, 1599.580
373.0992, 1604.629
373.5813, 1623.283
374.0634, 1649.851
374.5456, 1678.203
375.0277, 1708.010
375.5098, 1745.201
375.9919, 1791.396
376.4740, 1844.462
376.9561, 1903.307
377.4383, 1967.860
377.9204, 2037.551
378.4025, 2113.325
378.8846, 2193.754
379.3667, 2277.436
379.8488, 2369.198
380.3310, 2451.367
380.8131, 2528.329
381.2952, 2587.493
381.7773, 2615.423
382.2594, 2609.507
382.7415, 2568.106
383.2237, 2486.863
383.7058, 2365.793
384.1879, 2216.462
384.6700, 2025.559
385.1521, 1822.016
385.6342, 1624.692
386.1164, 1435.864
386.5985, 1264.935
387.0806, 1119.584
387.5627, 997.3358
388.0448, 892.3605
388.5269, 805.5686
389.0091, 732.8045
389.4912, 674.8758
389.9733, 628.6713
390.4554, 589.0007
390.9375, 555.8450
391.4196, 527.9375
391.9018, 504.8521
392.3839, 486.3165
392.8660, 470.8409
393.3481, 458.2444
393.8302, 448.0380
394.3123, 439.0112
394.7945, 431.0955
395.2766, 424.3045
395.7587, 419.3564
396.2408, 415.3754
396.7229, 410.8176
397.2050, 405.2368
397.6872, 399.6835
398.1693, 395.5681
398.6514, 393.0884
399.1335, 389.1723
399.6156, 383.2216
400.0977, 376.1252
400.5798, 368.0316
401.0620, 359.2160
401.5441, 350.5941
402.0262, 342.8047
402.5083, 335.5978
402.9904, 327.8717
403.4725, 318.7319
403.9547, 310.2460
404.4368, 303.1750
404.9189, 296.8207
405.4010, 290.2365
405.8831, 283.1769
406.3652, 276.2492
406.8474, 270.4210
407.3295, 266.2824
407.8116, 261.6635
408.2937, 255.4862
408.7758, 249.8460
409.2579, 245.9888
409.7401, 243.7453
410.2222, 242.2744
410.7043, 241.0254
411.1864, 239.9441
411.6685, 238.5069
412.1506, 236.3870
412.6328, 234.2953
413.1149, 231.8547
413.5970, 229.7080
414.0791, 228.7390
414.5612, 229.2068
415.0433, 230.2546
415.5255, 230.5047
416.0076, 229.6537
416.4897, 229.0562
416.9718, 229.2209
417.4539, 229.2906
417.9360, 228.5796
418.4182, 227.3410
418.9003, 226.5324
419.3824, 227.1328
419.8645, 228.6844
420.3466, 229.0317
420.8287, 227.5904
421.3109, 226.1431
421.7930, 225.2779
422.2751, 224.8475
422.7572, 224.8393
423.2393, 225.3459
423.7214, 225.8145
424.2036, 225.5845
424.6857, 224.6811
425.1678, 223.7252
425.6499, 222.6930
426.1320, 221.8656
426.6141, 221.8485
427.0963, 222.4680
427.5784, 222.2643
428.0605, 219.7884
428.5426, 216.4544
429.0247, 214.7289
429.5068, 214.8333
429.9890, 214.7109
430.4711, 213.0277
430.9532, 210.1139
431.4353, 207.3018
431.9174, 204.4825
432.3995, 201.9275
432.8817, 199.9011
433.3638, 198.2349
433.8459, 196.6239
434.3280, 195.0101
434.8101, 193.2367
435.2922, 190.9535
435.7744, 187.8613
436.2565, 185.6048
436.7386, 184.7375
437.2207, 184.3211
437.7028, 183.9129
438.1849, 183.3952
438.6671, 182.6029
439.1492, 181.4005
439.6313, 179.8582
440.1134, 178.4159
440.5955, 176.7671
441.0776, 175.6073
441.5598, 175.2190
442.0418, 175.2573
442.5240, 175.5386
443.0061, 175.9461
443.4882, 176.1829
443.9703, 175.7884
444.4524, 174.5574
444.9345, 173.6598
445.4167, 173.4529
445.8988, 173.2340
446.3809, 172.6945
446.8630, 171.9671
447.3451, 171.3406
447.8272, 171.0001
448.3094, 170.8215
448.7915, 170.5089
449.2736, 170.0614
449.7557, 169.4766
450.2378, 169.0167
450.7199, 168.2323
451.2021, 166.4991
451.6842, 163.8362
452.1663, 161.3499
452.6484, 160.1257
453.1305, 159.8604
453.6126, 159.1673
454.0948, 157.7201
454.5769, 156.4346
455.0590, 156.5121
455.5411, 157.1135
456.0232, 156.6300
456.5053, 154.0923
456.9875, 151.2316
457.4696, 149.4164
457.9517, 148.5186
458.4338, 147.8773
458.9159, 147.2018
459.3980, 146.8449
459.8802, 147.7258
460.3623, 150.0585
460.8444, 151.3633
461.3265, 150.2567
461.8086, 148.5760
462.2907, 147.9277
462.7729, 148.3533
463.2550, 149.2124
463.7371, 150.2013
464.2192, 151.1876
464.7013, 151.4104
465.1834, 150.0708
465.6656, 149.0411
466.1477, 148.6242
466.6298, 148.6215
467.1119, 148.9668
467.5940, 149.5762
468.0761, 150.1046
468.5583, 150.0891
469.0404, 149.3999
469.5225, 149.0099
470.0046, 149.4751
470.4867, 149.6624
470.9688, 148.9414
471.4510, 147.7685
471.9331, 146.9108
472.4152, 146.7426
472.8973, 146.9773
473.3794, 147.0823
473.8615, 147.0162
474.3437, 146.9957
474.8258, 147.1092
475.3079, 147.2402
475.7900, 147.4182
476.2721, 147.5862
476.7542, 147.4988
477.2364, 146.7802
477.7185, 145.7464
478.2006, 145.1971
478.6827, 145.2371
479.1648, 145.1411
479.6469, 144.2601
480.1291, 143.1481
480.6112, 142.9446
481.0933, 144.2094
481.5754, 144.9475
482.0575, 143.6430
482.5396, 141.2419
483.0217, 139.2937
483.5038, 138.0789
483.9860, 137.8703
484.4681, 139.3776
484.9502, 142.6614
485.4323, 143.9299
485.9144, 141.6851
486.3965, 139.1537
486.8787, 137.5935
487.3608, 136.7191
487.8429, 135.9522
488.3250, 135.0560
488.8071, 134.0722
489.2892, 133.0474
489.7714, 131.7738
490.2535, 130.9772
490.7356, 131.1517
491.2177, 131.2634
491.6998, 130.6108
492.1819, 129.4531
492.6641, 128.4914
493.1462, 128.1629
493.6283, 128.3457
494.1104, 128.8178
494.5925, 129.9068
495.0746, 130.3895
495.5568, 129.3421
496.0389, 128.0251
496.5210, 127.3473
497.0031, 127.3527
497.4852, 127.4164
497.9673, 127.1470
498.4495, 126.6025
498.9316, 125.8751
499.4137, 124.9040
499.8958, 124.0697
500.3779, 123.8940
500.8600, 123.8794
501.3422, 122.9183
501.8243, 120.3700
502.3064, 118.1502
502.7885, 117.5118
503.2706, 117.7608
503.7527, 117.7619
504.2349, 117.2763
504.7170, 116.2330
505.1991, 114.3828
505.6812, 111.6397
506.1633, 109.8515
506.6454, 109.6075
507.1276, 109.5474
507.6097, 109.2387
508.0918, 108.7712
508.5739, 108.3516
509.0560, 108.0522
509.5381, 107.7344
510.0203, 107.1566
510.5024, 106.2119
510.9845, 105.3729
511.4666, 104.7194
511.9487, 104.0952
512.4308, 103.3423
512.9130, 102.5834
513.3951, 102.1027
513.8772, 102.1024
514.3593, 102.2723
514.8414, 101.9845
515.3235, 101.1582
515.8057, 100.5055
516.2878, 100.4656
516.7699, 100.3564
517.2520, 99.41062
517.7341, 97.77412
518.2162, 96.51286
518.6984, 96.30512
519.1805, 96.57914
519.6626, 96.66302
520.1447, 96.54804
520.6268, 96.29652
521.1089, 95.84523
521.5911, 95.38374
522.0732, 95.44278
522.5553, 96.28113
523.0374, 96.79222
523.5195, 96.69518
524.0016, 96.26414
524.4838, 95.57590
524.9659, 94.74260
525.4480, 94.06377
525.9301, 93.76385
526.4122, 93.79151
526.8943, 93.88349
527.3765, 94.04324
527.8586, 94.27014
528.3407, 94.65614
528.8228, 95.04240
529.3049, 95.47351
529.7870, 95.84436
530.2692, 95.70207
530.7513, 94.24322
531.2334, 91.87815
531.7155, 91.23968
532.1976, 93.08585
532.6797, 94.89828
533.1619, 95.62487
533.6440, 95.77212
534.1261, 95.66723
534.6082, 95.28518
535.0903, 95.22995
535.5724, 96.27103
536.0546, 97.84311
536.5367, 98.64259
537.0188, 98.46372
537.5009, 98.17678
537.9830, 98.42735
538.4651, 99.10928
538.9473, 99.58733
539.4294, 99.81789
539.9115, 99.92225
540.3936, 99.79050
540.8757, 99.61849
541.3578, 99.61358
541.8400, 99.83015
542.3221, 100.2986
542.8042, 101.1363
543.2863, 102.3599
543.7684, 102.9122
544.2505, 101.9997
544.7326, 101.3488
545.2147, 100.4619
545.6968, 100.4098
546.1790, 103.4551
546.6611, 109.8281
547.1432, 115.2293
547.6253, 113.7068
548.1074, 106.0344
548.5895, 101.3703
549.0717, 100.8663
549.5538, 101.6707
550.0359, 102.8976
550.5180, 104.1528
551.0001, 104.7507
551.4822, 104.3372
551.9644, 103.8481
552.4465, 104.0788
552.9286, 104.6098
553.4107, 104.3223
553.8928, 102.9738
554.3749, 101.9333
554.8571, 102.5845
555.3392, 104.8674
555.8213, 106.3149
556.3034, 106.4891
556.7855, 106.4976
557.2676, 106.3418
557.7498, 106.3122
558.2319, 106.7853
558.7140, 107.8217
559.1961, 109.1180
559.6782, 110.3382
560.1603, 111.4712
560.6425, 112.8992
561.1246, 114.9861
561.6067, 116.8101
562.0888, 117.5292
562.5709, 118.1392
563.0530, 119.9114
563.5352, 123.1735
564.0173, 126.7846
564.4994, 129.5802
564.9815, 131.9345
565.4636, 135.1639
565.9457, 139.5222
566.4279, 144.1449
566.9100, 148.4284
567.3921, 152.5454
567.8742, 157.0891
568.3563, 162.2223
568.8384, 167.4989
569.3206, 172.7139
569.8027, 178.0123
570.2848, 183.5628
570.7669, 189.3808
571.2490, 195.6035
571.7311, 202.3244
572.2133, 209.5135
572.6954, 216.5391
573.1775, 223.2265
573.6596, 230.0242
574.1417, 236.3794
574.6238, 243.2911
575.1060, 252.1912
575.5881, 262.9264
576.0702, 273.2883
576.5523, 281.0938
577.0344, 287.1004
577.5165, 294.2250
577.9987, 302.7299
578.4808, 311.1799
578.9629, 318.9243
579.4450, 326.2255
579.9271, 333.5969
580.4092, 341.1633
580.8914, 347.9566
581.3735, 353.3316
581.8556, 357.9193
582.3377, 362.6696
582.8198, 367.4452
583.3019, 371.3568
583.7841, 373.9607
584.2662, 375.1643
584.7483, 374.7125
585.2304, 371.8779
585.7125, 368.4400
586.1946, 364.5298
586.6768, 359.9305
587.1589, 354.9328
587.6410, 349.1320
588.1231, 341.2772
588.6052, 330.2720
589.0873, 317.9901
589.5695, 308.7949
