##NAMES=Orthoserpierite
##RRUFFID=R060977
##IDEAL CHEMISTRY=CaCu^2+^_4_(S^6+^O_4_)_2_(OH)_6_&#183;3H_2_O
##LOCALITY=Copper Creek, Galuiro Mountains, Pinal County, Arizona, USA
##OWNER=RRUFF
##SOURCE=Michael Scott
##DESCRIPTION=Blue-green platy crystals in masses with chrysocolla
##STATUS=The identification of this mineral has been confirmed only by X-ray diffraction
##URL=rruff.info/R060977
118.1476, 556.3533
118.6297, 574.6167
119.1119, 592.8622
119.5940, 612.1396
120.0761, 633.1176
120.5582, 657.3186
121.0403, 687.8425
121.5224, 721.1534
122.0046, 753.2123
122.4867, 783.6332
122.9688, 812.2913
123.4509, 840.2896
123.9330, 867.1375
124.4151, 889.6555
124.8973, 901.9860
125.3794, 908.6613
125.8615, 917.9124
126.3436, 933.3953
126.8257, 952.5981
127.3078, 973.4684
127.7900, 996.4280
128.2721, 1016.705
128.7542, 1027.063
129.2363, 1029.709
129.7184, 1034.161
130.2005, 1049.784
130.6826, 1071.310
131.1648, 1080.663
131.6469, 1074.906
132.1290, 1061.873
132.6111, 1052.394
133.0932, 1046.459
133.5753, 1043.598
134.0575, 1042.948
134.5396, 1044.625
135.0217, 1051.893
135.5038, 1067.144
135.9859, 1087.206
136.4680, 1100.231
136.9502, 1104.412
137.4323, 1108.564
137.9144, 1122.512
138.3965, 1149.265
138.8786, 1169.474
139.3607, 1178.604
139.8429, 1177.096
140.3250, 1171.168
140.8071, 1156.863
141.2892, 1143.594
141.7713, 1145.453
142.2534, 1171.180
142.7356, 1192.395
143.2177, 1198.735
143.6998, 1183.621
144.1819, 1180.637
144.6640, 1196.074
145.1461, 1221.004
145.6283, 1237.500
146.1104, 1239.732
146.5925, 1240.276
147.0746, 1244.510
147.5567, 1259.793
148.0388, 1266.739
148.5210, 1260.217
149.0031, 1243.731
149.4852, 1233.932
149.9673, 1235.907
150.4494, 1241.039
150.9315, 1244.621
151.4137, 1250.234
151.8958, 1250.631
152.3779, 1240.598
152.8600, 1220.723
153.3421, 1210.426
153.8242, 1221.068
154.3064, 1237.171
154.7885, 1246.588
155.2706, 1243.277
155.7527, 1237.124
156.2348, 1229.423
156.7169, 1219.830
157.1991, 1211.907
157.6812, 1207.349
158.1633, 1204.609
158.6454, 1201.730
159.1275, 1196.870
159.6096, 1192.717
160.0918, 1190.027
160.5739, 1188.483
161.0560, 1189.506
161.5381, 1194.660
162.0202, 1202.685
162.5023, 1211.053
162.9845, 1218.084
163.4666, 1225.498
163.9487, 1235.767
164.4308, 1255.767
164.9129, 1268.315
165.3950, 1259.998
165.8772, 1235.578
166.3593, 1212.483
166.8414, 1198.674
167.3235, 1191.033
167.8056, 1186.627
168.2877, 1188.097
168.7699, 1189.332
169.2520, 1186.924
169.7341, 1180.861
170.2162, 1171.111
170.6983, 1153.490
171.1804, 1132.994
171.6626, 1116.325
172.1447, 1109.115
172.6268, 1105.141
173.1089, 1099.312
173.5910, 1091.559
174.0731, 1081.326
174.5553, 1063.619
175.0374, 1042.787
175.5195, 1028.330
176.0016, 1029.664
176.4837, 1038.048
176.9658, 1040.995
177.4480, 1037.004
177.9301, 1031.514
178.4122, 1028.617
178.8943, 1028.614
179.3764, 1032.722
179.8585, 1046.151
180.3407, 1063.622
180.8228, 1073.752
181.3049, 1073.350
181.7870, 1069.335
182.2691, 1071.108
182.7512, 1078.154
183.2334, 1086.214
183.7155, 1093.455
184.1976, 1099.534
184.6797, 1103.636
185.1618, 1105.001
185.6439, 1104.971
186.1261, 1105.418
186.6082, 1106.342
187.0903, 1108.660
187.5724, 1113.508
188.0545, 1120.532
188.5366, 1128.275
189.0188, 1136.220
189.5009, 1144.647
189.9830, 1155.175
190.4651, 1168.065
190.9472, 1180.547
191.4293, 1191.248
191.9114, 1199.878
192.3936, 1203.599
192.8757, 1198.322
193.3578, 1187.047
193.8399, 1186.169
194.3220, 1197.687
194.8041, 1212.244
195.2863, 1216.467
195.7684, 1209.815
196.2505, 1207.234
196.7326, 1215.818
197.2147, 1234.769
197.6968, 1252.130
198.1790, 1268.822
198.6611, 1281.972
199.1432, 1285.044
199.6253, 1276.231
200.1074, 1269.128
200.5895, 1270.328
201.0717, 1280.339
201.5538, 1288.939
202.0359, 1295.090
202.5180, 1300.892
203.0001, 1311.542
203.4822, 1328.436
203.9644, 1344.240
204.4465, 1354.996
204.9286, 1360.328
205.4107, 1363.634
205.8928, 1364.797
206.3749, 1364.168
206.8571, 1362.862
207.3392, 1361.218
207.8213, 1357.962
208.3034, 1350.157
208.7855, 1334.874
209.2676, 1330.205
209.7498, 1342.115
210.2319, 1365.056
210.7140, 1375.555
211.1961, 1369.849
211.6782, 1360.270
212.1603, 1355.764
212.6425, 1358.381
213.1246, 1358.817
213.6067, 1355.908
214.0888, 1349.862
214.5709, 1341.849
215.0530, 1331.276
215.5352, 1319.546
216.0173, 1307.274
216.4994, 1293.833
216.9815, 1281.532
217.4636, 1270.041
217.9457, 1259.451
218.4279, 1253.376
218.9100, 1253.694
219.3921, 1255.931
219.8742, 1256.127
220.3563, 1254.474
220.8384, 1250.398
221.3206, 1243.708
221.8027, 1234.342
222.2848, 1222.728
222.7669, 1205.639
223.2490, 1189.733
223.7311, 1182.771
224.2132, 1189.128
224.6954, 1195.744
225.1775, 1199.886
225.6596, 1201.476
226.1417, 1201.412
226.6238, 1198.672
227.1059, 1195.129
227.5881, 1193.208
228.0702, 1193.835
228.5523, 1194.222
229.0344, 1192.208
229.5165, 1185.818
229.9986, 1188.457
230.4808, 1204.884
230.9629, 1226.966
231.4450, 1242.871
231.9271, 1249.389
232.4092, 1254.906
232.8913, 1262.394
233.3735, 1273.236
233.8556, 1280.533
234.3377, 1283.367
234.8198, 1283.211
235.3019, 1282.331
235.7840, 1279.842
236.2662, 1278.061
236.7483, 1277.571
237.2304, 1278.018
237.7125, 1281.887
238.1946, 1295.352
238.6767, 1309.573
239.1589, 1303.964
239.6410, 1260.487
240.1231, 1224.868
240.6052, 1217.901
241.0873, 1255.304
241.5694, 1279.386
242.0516, 1287.361
242.5337, 1282.904
243.0158, 1273.400
243.4979, 1254.812
243.9800, 1237.022
244.4621, 1224.332
244.9443, 1219.261
245.4264, 1213.867
245.9085, 1209.360
246.3906, 1204.166
246.8727, 1193.043
247.3548, 1169.582
247.8370, 1149.588
248.3191, 1142.271
248.8012, 1159.210
249.2833, 1161.624
249.7654, 1142.933
250.2475, 1110.829
250.7297, 1088.312
251.2118, 1080.847
251.6939, 1074.691
252.1760, 1063.302
252.6581, 1044.376
253.1402, 1025.177
253.6223, 1003.175
254.1045, 981.3552
254.5866, 971.5159
255.0687, 982.6297
255.5508, 991.1176
256.0329, 982.7065
256.5150, 947.2789
256.9972, 921.0859
257.4793, 908.2742
257.9614, 905.1120
258.4435, 899.8642
258.9256, 892.5002
259.4077, 883.1207
259.8899, 870.6943
260.3720, 852.4145
260.8541, 839.7206
261.3362, 835.5394
261.8183, 836.8564
262.3004, 832.8098
262.7826, 820.7805
263.2647, 808.4138
263.7468, 801.0558
264.2289, 801.4349
264.7110, 797.5676
265.1931, 787.9595
265.6753, 773.7692
266.1574, 757.8860
266.6395, 738.2022
267.1216, 721.2523
267.6037, 711.9085
268.0858, 712.8509
268.5680, 710.2774
269.0501, 700.9957
269.5322, 688.4745
270.0143, 685.2993
270.4964, 695.6223
270.9785, 704.4017
271.4607, 700.1785
271.9428, 679.0941
272.4249, 666.4957
272.9070, 666.9240
273.3891, 675.6299
273.8712, 678.8439
274.3534, 675.7999
274.8355, 669.9456
275.3176, 662.0603
275.7997, 651.4532
276.2818, 644.8860
276.7639, 643.6782
277.2461, 646.2371
277.7282, 649.1998
278.2103, 653.0354
278.6924, 655.0263
279.1745, 652.8300
279.6566, 646.2399
280.1388, 639.7314
280.6209, 633.3005
281.1030, 627.5892
281.5851, 623.5193
282.0672, 620.9024
282.5493, 621.0984
283.0315, 627.3556
283.5136, 639.3677
283.9957, 645.2545
284.4778, 642.7219
284.9599, 635.3004
285.4420, 629.9796
285.9242, 626.8419
286.4063, 624.3135
286.8884, 620.7976
287.3705, 616.6830
287.8526, 615.3293
288.3347, 617.4117
288.8169, 621.6508
289.2990, 627.1370
289.7811, 633.7977
290.2632, 637.6873
290.7453, 635.4059
291.2274, 628.1494
291.7096, 620.5679
292.1917, 612.4442
292.6738, 605.6122
293.1559, 603.2663
293.6380, 605.0736
294.1201, 608.0303
294.6023, 612.2964
295.0844, 616.4893
295.5665, 616.2105
296.0486, 610.4869
296.5307, 602.3992
297.0128, 593.7193
297.4950, 585.2713
297.9771, 580.7279
298.4592, 586.9268
298.9413, 597.4221
299.4234, 598.1537
299.9055, 586.3024
300.3876, 573.0895
300.8698, 571.6488
301.3519, 579.1213
301.8340, 586.6603
302.3161, 589.7207
302.7982, 590.1511
303.2803, 590.6835
303.7625, 591.6539
304.2446, 591.3013
304.7267, 584.7666
305.2088, 575.6462
305.6909, 571.4575
306.1730, 579.7789
306.6552, 592.6888
307.1373, 601.7587
307.6194, 606.3156
308.1015, 610.8074
308.5836, 621.5069
309.0657, 633.8303
309.5479, 640.7852
310.0300, 631.7006
310.5121, 621.4312
310.9942, 622.6479
311.4763, 635.9438
311.9584, 648.5326
312.4406, 653.5042
312.9227, 653.3400
313.4048, 651.2087
313.8869, 641.9337
314.3690, 636.2250
314.8511, 643.4372
315.3333, 662.9672
315.8154, 678.6196
316.2975, 681.5148
316.7796, 677.7379
317.2617, 673.0240
317.7438, 668.2497
318.2260, 663.6103
318.7081, 656.6558
319.1902, 648.2997
319.6723, 646.9340
320.1544, 662.2613
320.6365, 681.6661
321.1187, 696.0158
321.6008, 702.9382
322.0829, 704.8506
322.5650, 698.5522
323.0471, 686.0497
323.5292, 678.1504
324.0114, 679.5502
324.4935, 684.1750
324.9756, 688.7385
325.4577, 695.2877
325.9398, 698.7874
326.4219, 696.5637
326.9041, 690.4340
327.3862, 687.1114
327.8683, 690.8184
328.3504, 694.2424
328.8325, 694.0875
329.3146, 685.5873
329.7968, 681.3215
330.2789, 683.7228
330.7610, 690.1413
331.2431, 694.2167
331.7252, 695.3214
332.2073, 694.8114
332.6895, 692.6684
333.1716, 687.2200
333.6537, 685.0870
334.1358, 688.5912
334.6179, 693.9922
335.1000, 694.4326
335.5822, 687.9806
336.0643, 680.5592
336.5464, 674.2379
337.0285, 669.2249
337.5106, 663.0597
337.9927, 655.3627
338.4749, 647.0094
338.9570, 638.3061
339.4391, 628.0636
339.9212, 622.6146
340.4033, 625.8474
340.8854, 636.9027
341.3676, 642.7175
341.8497, 642.7405
342.3318, 639.2588
342.8139, 633.6085
343.2960, 625.7839
343.7781, 619.0688
344.2603, 615.0084
344.7424, 612.5314
345.2245, 607.1849
345.7066, 598.7228
346.1887, 591.0679
346.6708, 588.2140
347.1530, 589.4587
347.6351, 591.2725
348.1172, 593.2072
348.5993, 594.8965
349.0814, 595.6922
349.5635, 595.5797
350.0457, 594.6542
350.5278, 592.8455
351.0099, 590.2611
351.4920, 587.4552
351.9741, 585.0043
352.4562, 581.1168
352.9384, 571.7716
353.4205, 558.7293
353.9026, 547.6180
354.3847, 542.0750
354.8668, 540.2958
355.3489, 540.7193
355.8311, 543.6206
356.3132, 546.6740
356.7953, 548.5626
357.2774, 549.3216
357.7595, 549.0795
358.2416, 547.4753
358.7238, 545.1793
359.2059, 541.6484
359.6880, 536.4842
360.1701, 534.1666
360.6522, 540.3533
361.1343, 549.6251
361.6164, 555.3366
362.0985, 554.1747
362.5807, 550.2109
363.0628, 543.6598
363.5449, 534.6606
364.0270, 527.5103
364.5091, 524.6546
364.9912, 523.4434
365.4734, 521.8443
365.9555, 515.3084
366.4376, 512.9641
366.9197, 518.8578
367.4018, 531.4693
367.8839, 541.3049
368.3661, 546.3528
368.8482, 549.4756
369.3303, 552.0980
369.8124, 554.7993
370.2945, 556.0573
370.7766, 555.3096
371.2588, 553.1516
371.7409, 551.0116
372.2230, 547.7767
372.7051, 546.1126
373.1872, 547.6790
373.6693, 554.0049
374.1515, 557.3891
374.6336, 556.5807
375.1157, 553.9785
375.5978, 553.6642
376.0799, 556.7048
376.5620, 558.4214
377.0442, 556.3146
377.5263, 550.7148
378.0084, 549.2051
378.4905, 552.4694
378.9726, 557.9344
379.4547, 563.1042
379.9369, 567.9445
380.4190, 573.4276
380.9011, 580.4153
381.3832, 587.9301
381.8653, 591.4470
382.3474, 590.8696
382.8296, 591.7786
383.3117, 601.0179
383.7938, 615.8346
384.2759, 626.3486
384.7580, 629.6345
385.2401, 630.1130
385.7223, 633.2789
386.2044, 638.9246
386.6865, 646.0845
387.1686, 654.9276
387.6507, 664.7060
388.1328, 674.2361
388.6150, 683.2653
389.0971, 692.9851
389.5792, 704.0908
390.0613, 716.5046
390.5434, 730.2217
391.0255, 744.3594
391.5077, 760.3349
391.9898, 780.5391
392.4719, 805.4507
392.9540, 828.1863
393.4361, 842.3832
393.9182, 853.9086
394.4004, 868.4432
394.8825, 890.6356
395.3646, 913.1957
395.8467, 932.7109
396.3288, 949.8711
396.8109, 970.4629
397.2931, 993.7848
397.7752, 1021.918
398.2573, 1056.224
398.7394, 1107.853
399.2215, 1150.964
399.7036, 1181.781
400.1858, 1203.673
400.6679, 1224.544
401.1500, 1239.055
401.6321, 1259.142
402.1142, 1290.382
402.5963, 1336.431
403.0785, 1379.558
403.5606, 1419.047
404.0427, 1456.330
404.5248, 1494.218
405.0069, 1534.820
405.4890, 1569.744
405.9712, 1596.079
406.4533, 1614.532
406.9354, 1628.837
407.4175, 1637.290
407.8996, 1647.727
408.3817, 1671.100
408.8639, 1706.619
409.3460, 1733.088
409.8281, 1746.012
410.3102, 1747.926
410.7923, 1740.485
411.2744, 1724.272
411.7566, 1708.414
412.2387, 1699.909
412.7208, 1696.216
413.2029, 1692.905
413.6850, 1690.421
414.1671, 1684.300
414.6493, 1667.345
415.1314, 1642.922
415.6135, 1618.781
416.0956, 1597.151
416.5777, 1578.565
417.0598, 1564.514
417.5420, 1555.065
418.0241, 1546.972
418.5062, 1537.830
418.9883, 1529.310
419.4704, 1523.323
419.9525, 1521.777
420.4347, 1521.514
420.9168, 1520.999
421.3989, 1520.676
421.8810, 1522.422
422.3631, 1530.110
422.8452, 1537.555
423.3273, 1540.966
423.8094, 1533.821
424.2916, 1533.393
424.7737, 1549.769
425.2558, 1572.019
425.7379, 1581.221
426.2200, 1566.374
426.7021, 1552.367
427.1843, 1547.039
427.6664, 1552.278
428.1485, 1550.175
428.6306, 1536.539
429.1127, 1520.804
429.5948, 1513.633
430.0770, 1517.546
430.5591, 1518.740
431.0412, 1513.195
431.5233, 1503.696
432.0054, 1501.615
432.4875, 1508.002
432.9697, 1514.923
433.4518, 1517.297
433.9339, 1515.530
434.4160, 1511.060
434.8981, 1502.956
435.3802, 1495.476
435.8624, 1495.915
436.3445, 1502.776
436.8266, 1509.364
437.3087, 1511.642
437.7908, 1512.004
438.2729, 1513.308
438.7551, 1515.609
439.2372, 1519.717
439.7193, 1529.810
440.2014, 1541.020
440.6835, 1546.728
441.1656, 1541.587
441.6478, 1534.080
442.1299, 1527.148
442.6120, 1521.403
443.0941, 1519.056
443.5762, 1524.266
444.0583, 1530.800
444.5405, 1536.132
445.0226, 1542.284
445.5047, 1541.070
445.9868, 1522.966
446.4689, 1498.808
446.9510, 1483.998
447.4332, 1492.093
447.9153, 1495.973
448.3974, 1488.992
448.8795, 1470.797
449.3616, 1455.359
449.8438, 1444.980
450.3259, 1434.365
450.8080, 1419.061
451.2901, 1397.380
451.7722, 1375.390
452.2543, 1350.558
452.7365, 1327.701
453.2186, 1324.751
453.7007, 1344.934
454.1828, 1360.211
454.6649, 1350.466
455.1470, 1320.107
455.6292, 1303.143
456.1113, 1301.337
456.5934, 1306.049
457.0755, 1309.243
457.5576, 1311.032
458.0397, 1312.115
458.5219, 1314.098
459.0040, 1314.317
459.4861, 1306.181
459.9682, 1291.365
460.4503, 1280.615
460.9324, 1283.595
461.4146, 1292.828
461.8967, 1301.734
462.3788, 1310.835
462.8609, 1314.973
463.3430, 1305.911
463.8251, 1290.915
464.3073, 1282.525
464.7894, 1286.380
465.2715, 1295.981
465.7536, 1311.629
466.2357, 1333.959
466.7178, 1351.106
467.2000, 1361.175
467.6821, 1365.637
468.1642, 1365.453
468.6463, 1358.109
469.1284, 1349.609
469.6105, 1337.979
470.0927, 1325.814
470.5748, 1322.072
471.0569, 1331.170
471.5390, 1338.259
472.0211, 1334.968
472.5032, 1320.274
472.9854, 1313.145
473.4675, 1315.153
473.9496, 1319.829
474.4317, 1319.961
474.9138, 1315.820
475.3959, 1310.249
475.8781, 1304.777
476.3602, 1297.722
476.8423, 1282.660
477.3244, 1261.098
477.8065, 1243.863
478.2886, 1241.404
478.7708, 1246.664
479.2529, 1249.681
479.7350, 1248.478
480.2171, 1247.598
480.6992, 1253.031
481.1813, 1260.466
481.6635, 1263.221
482.1456, 1251.819
482.6277, 1241.327
483.1098, 1242.014
483.5919, 1252.860
484.0740, 1255.580
484.5562, 1234.621
485.0382, 1211.538
485.5204, 1199.300
486.0025, 1211.018
486.4846, 1216.193
486.9667, 1213.951
487.4488, 1205.476
487.9309, 1191.867
488.4131, 1168.486
488.8952, 1148.970
489.3773, 1137.874
489.8594, 1135.029
490.3415, 1132.165
490.8236, 1129.826
491.3058, 1125.882
491.7879, 1117.607
492.2700, 1105.122
492.7521, 1093.107
493.2342, 1081.355
493.7163, 1071.727
494.1985, 1070.182
494.6806, 1074.829
495.1627, 1075.125
495.6448, 1060.429
496.1269, 1040.080
496.6090, 1027.224
497.0912, 1022.489
497.5733, 1020.462
498.0554, 1019.306
498.5375, 1018.023
499.0196, 1015.509
499.5017, 1012.477
499.9839, 1006.889
500.4660, 994.1631
500.9481, 977.9158
501.4302, 968.1368
501.9123, 976.3604
502.3944, 983.5900
502.8766, 981.1317
503.3587, 964.5867
503.8408, 953.5713
504.3229, 950.6991
504.8050, 951.1976
505.2871, 950.7516
505.7693, 949.2986
506.2514, 947.2029
506.7335, 945.2485
507.2156, 942.3789
507.6977, 934.0061
508.1798, 919.1118
508.6620, 904.9564
509.1441, 897.7803
509.6262, 895.5336
510.1083, 883.3513
510.5904, 859.3970
511.0725, 835.9680
511.5547, 826.8864
512.0368, 828.5543
512.5189, 832.4980
513.0010, 839.4592
513.4832, 843.5380
513.9653, 836.5961
514.4474, 821.3061
514.9295, 807.1457
515.4116, 802.9098
515.8937, 798.6183
516.3758, 786.2913
516.8579, 762.7923
517.3400, 742.1428
517.8221, 729.2554
518.3043, 720.5703
518.7864, 712.5053
519.2685, 705.7653
519.7506, 698.3026
520.2327, 689.5873
520.7148, 680.0348
521.1970, 671.0282
521.6791, 662.4130
522.1612, 654.6802
522.6433, 648.5278
523.1254, 644.2906
523.6075, 637.6739
524.0897, 627.7155
524.5718, 618.0808
525.0539, 613.5535
525.5360, 613.5264
526.0181, 613.8386
526.5002, 614.4882
526.9824, 613.5604
527.4645, 606.2143
527.9466, 593.8017
528.4287, 582.7095
528.9108, 577.6476
529.3929, 575.1417
529.8751, 571.0816
530.3572, 564.8160
530.8393, 560.5840
531.3214, 563.5757
531.8035, 568.3909
532.2856, 569.6900
532.7678, 561.1697
533.2499, 554.6210
533.7320, 553.8284
534.2141, 557.0485
534.6962, 558.4442
535.1783, 556.0174
535.6605, 554.0388
536.1426, 554.4760
536.6247, 557.9005
537.1068, 558.0790
537.5889, 553.9728
538.0710, 548.5685
538.5532, 544.5847
539.0353, 542.1130
539.5174, 539.3666
539.9995, 536.0069
540.4816, 532.3363
540.9637, 528.4687
541.4459, 524.5457
541.9280, 521.7255
542.4101, 519.8299
542.8922, 519.7233
543.3743, 525.7507
543.8564, 537.4554
544.3386, 543.1562
544.8207, 526.7560
545.3028, 504.6569
545.7849, 493.4116
546.2670, 501.2741
546.7491, 511.6632
547.2313, 520.4693
547.7134, 527.8543
548.1955, 534.2459
548.6776, 540.3720
549.1597, 544.8336
549.6418, 547.0062
550.1240, 546.9670
550.6061, 546.9018
551.0882, 547.3458
551.5703, 546.8839
552.0524, 544.0869
552.5345, 538.4893
553.0167, 534.7362
553.4988, 533.4282
553.9809, 533.0337
554.4630, 531.4246
554.9451, 528.7396
555.4272, 525.9370
555.9094, 523.3166
556.3915, 520.8595
556.8736, 518.0996
557.3557, 515.3120
557.8378, 513.8472
558.3199, 513.7965
558.8021, 515.9140
559.2842, 522.2781
559.7663, 534.3115
560.2484, 543.0348
560.7305, 542.3283
561.2126, 537.6462
561.6948, 534.4825
562.1769, 533.6854
562.6590, 534.5731
563.1411, 538.6967
563.6232, 544.3068
564.1053, 546.6834
564.5875, 544.4709
565.0696, 541.4935
565.5517, 538.4702
566.0338, 535.4351
566.5159, 535.2915
566.9980, 538.3256
567.4802, 543.0992
567.9623, 548.9431
568.4444, 555.6653
568.9265, 562.4581
569.4086, 569.6949
569.8907, 575.6501
570.3729, 577.1280
570.8550, 575.7233
571.3371, 575.3560
571.8192, 579.1472
572.3013, 583.4718
572.7834, 586.8330
573.2656, 588.9297
573.7477, 587.8535
574.2298, 575.6522
574.7119, 565.5373
575.1940, 565.9670
575.6761, 582.9114
576.1583, 596.9230
576.6404, 607.7670
577.1225, 615.3128
577.6046, 618.2466
578.0867, 613.4336
578.5688, 613.4509
579.0510, 621.9772
579.5331, 635.2039
580.0152, 642.3701
580.4973, 643.1095
580.9794, 644.7498
581.4615, 652.2776
581.9437, 663.2974
582.4258, 671.1508
582.9079, 675.7143
583.3900, 680.6050
583.8721, 687.9648
584.3542, 697.6003
584.8364, 709.6246
585.3185, 725.1902
585.8006, 740.5299
586.2827, 755.6620
586.7648, 768.8235
587.2469, 777.6060
587.7291, 771.8913
588.2112, 772.0125
588.6933, 786.1774
589.1754, 811.6591
589.6575, 832.4221
590.1396, 846.5682
590.6218, 859.0660
591.1039, 871.7877
591.5860, 884.7746
592.0681, 898.5413
592.5502, 913.4749
593.0323, 927.8734
593.5145, 939.8062
593.9966, 949.6064
594.4787, 958.7717
594.9608, 967.6497
595.4429, 975.8625
595.9250, 982.8118
596.4072, 988.6926
596.8893, 994.0123
597.3714, 998.7009
597.8535, 1003.121
598.3356, 1006.357
598.8177, 1008.834
599.2999, 1014.281
599.7820, 1026.458
600.2641, 1039.808
600.7462, 1052.208
601.2283, 1065.717
601.7104, 1071.587
602.1926, 1066.156
602.6747, 1056.596
603.1568, 1049.313
603.6389, 1043.808
604.1210, 1043.813
604.6031, 1051.873
605.0853, 1063.204
605.5674, 1066.675
606.0495, 1062.932
606.5316, 1059.154
607.0137, 1059.164
607.4958, 1061.075
607.9780, 1061.289
608.4601, 1060.149
608.9422, 1061.143
609.4243, 1070.444
609.9064, 1080.484
610.3885, 1084.624
610.8707, 1081.124
611.3528, 1074.548
611.8349, 1062.443
612.3170, 1049.536
612.7991, 1041.409
613.2813, 1041.968
613.7634, 1041.661
614.2455, 1041.911
614.7276, 1039.829
