##NAMES=Orthoclase
##RRUFFID=R050185
##IDEAL CHEMISTRY=KAlSi_3_O_8_
##LOCALITY=Silica Bell Property, west of Hope, British Columbia, Canada
##OWNER=RRUFF
##SOURCE=Bob Downs
##DESCRIPTION=Cluster of white wedge-shaped crystals, variety adularia
##STATUS=The identification of this mineral is confirmed by single-crystal X-ray diffraction and chemical analysis.
##URL=rruff.info/R050185
##MEASURED CHEMISTRY=(K_0.96_Na_0.04_)Al_1.00_Si_3.00_O_8_
93.77539, 2.409961
94.25751, 2.305446
94.73962, 2.370015
95.22174, 2.569198
95.70386, 2.778520
96.18597, 2.943442
96.66809, 3.081222
97.15021, 3.247079
97.63232, 3.441055
98.11444, 3.666746
98.59656, 3.937323
99.07867, 4.254914
99.56079, 4.574636
100.0429, 4.858397
100.5250, 5.103676
101.0071, 5.405401
101.4893, 5.766965
101.9714, 6.182749
102.4535, 6.640978
102.9356, 7.160484
103.4177, 7.679269
103.8998, 8.145595
104.3820, 8.532157
104.8641, 8.968424
105.3462, 9.475904
105.8283, 10.04333
106.3104, 10.64896
106.7925, 11.34724
107.2747, 12.01853
107.7568, 12.56710
108.2389, 12.92739
108.7210, 13.26745
109.2031, 13.59518
109.6852, 13.91136
110.1674, 14.25591
110.6495, 14.63635
111.1316, 15.04487
111.6137, 15.47469
112.0958, 16.03327
112.5779, 16.51409
113.0601, 16.93156
113.5422, 17.33751
114.0243, 17.43309
114.5064, 16.45574
114.9885, 15.33505
115.4706, 15.22102
115.9528, 17.47683
116.4349, 19.94253
116.9170, 21.68970
117.3991, 22.47963
117.8812, 23.04105
118.3633, 23.53263
118.8455, 23.97532
119.3276, 24.40831
119.8097, 24.91710
120.2918, 25.38879
120.7739, 25.71455
121.2560, 25.78823
121.7382, 25.88323
122.2203, 26.28857
122.7024, 26.89054
123.1845, 27.30907
123.6666, 27.25516
124.1487, 26.91884
124.6309, 26.50446
125.1130, 26.01744
125.5951, 25.53801
126.0772, 25.11465
126.5593, 24.75382
127.0414, 24.51329
127.5236, 24.48430
128.0057, 24.61010
128.4878, 24.76765
128.9699, 24.90113
129.4520, 25.04887
129.9341, 25.28255
130.4162, 25.60400
130.8984, 25.96929
131.3805, 26.29513
131.8626, 26.60738
132.3447, 27.04583
132.8268, 27.69873
133.3089, 28.52746
133.7911, 29.30595
134.2732, 29.94403
134.7553, 30.49643
135.2374, 31.07098
135.7195, 31.66883
136.2016, 32.33259
136.6838, 33.09354
137.1659, 33.94693
137.6480, 34.84490
138.1301, 35.82891
138.6122, 36.80497
139.0943, 37.65556
139.5765, 38.40901
140.0586, 38.95005
140.5407, 39.19165
141.0228, 39.08067
141.5049, 38.95520
141.9870, 38.80938
142.4692, 38.66140
142.9513, 38.54906
143.4334, 38.42527
143.9155, 38.41772
144.3976, 38.60183
144.8797, 39.01791
145.3619, 39.52174
145.8440, 40.12687
146.3261, 40.81535
146.8082, 41.43677
147.2903, 41.86852
147.7724, 42.36892
148.2546, 43.11041
148.7367, 44.23003
149.2188, 45.37804
149.7009, 46.50476
150.1830, 47.61309
150.6651, 48.76715
151.1473, 50.09231
151.6294, 51.38210
152.1115, 52.47547
152.5936, 53.21316
153.0757, 53.93599
153.5578, 54.74878
154.0400, 55.66286
154.5221, 56.32205
155.0042, 56.74287
155.4863, 56.89197
155.9684, 56.74476
156.4505, 56.09238
156.9327, 55.34210
157.4148, 54.60137
157.8969, 53.89585
158.3790, 53.08201
158.8611, 52.11775
159.3432, 51.03171
159.8254, 49.85228
160.3075, 48.58054
160.7896, 47.22475
161.2717, 45.71886
161.7538, 44.00058
162.2359, 42.46764
162.7181, 41.41973
163.2002, 40.60460
163.6823, 39.67190
164.1644, 38.36770
164.6465, 37.00763
165.1286, 35.72758
165.6108, 34.51247
166.0929, 33.48570
166.5750, 32.77635
167.0571, 32.28209
167.5392, 31.81803
168.0213, 31.23832
168.5035, 30.69213
168.9856, 30.29032
169.4677, 30.05578
169.9498, 29.94030
170.4319, 29.96155
170.9140, 30.08028
171.3962, 30.20526
171.8783, 30.23911
172.3604, 30.27664
172.8425, 30.42067
173.3246, 30.71001
173.8067, 31.06185
174.2889, 31.43246
174.7710, 31.81410
175.2531, 32.17722
175.7352, 32.51671
176.2173, 32.82073
176.6994, 33.09283
177.1816, 33.38632
177.6637, 33.55148
178.1458, 33.38843
178.6279, 32.93229
179.1100, 32.36259
179.5921, 31.76867
180.0743, 31.14212
180.5564, 30.47474
181.0385, 29.75249
181.5206, 28.99411
182.0027, 28.20913
182.4848, 27.40367
182.9670, 26.63873
183.4491, 25.97671
183.9312, 25.38488
184.4133, 24.77559
184.8954, 24.09166
185.3775, 23.41371
185.8597, 22.86415
186.3418, 22.44512
186.8239, 22.12555
187.3060, 21.91298
187.7881, 21.78745
188.2702, 21.66590
188.7523, 21.50472
189.2345, 21.35093
189.7166, 21.34445
190.1987, 21.49288
190.6808, 21.65386
191.1629, 21.64747
191.6451, 21.50582
192.1272, 21.49204
192.6093, 21.67974
193.0914, 22.03588
193.5735, 22.48963
194.0556, 23.05777
194.5378, 23.63895
195.0199, 24.13092
195.5020, 24.53717
195.9841, 24.93808
196.4662, 25.39654
196.9483, 25.85759
197.4305, 26.08899
197.9126, 26.08391
198.3947, 25.87826
198.8768, 25.48079
199.3589, 24.88512
199.8410, 24.20201
200.3232, 23.43483
200.8053, 22.60248
201.2874, 21.78238
201.7695, 20.97122
202.2516, 20.19718
202.7337, 19.48876
203.2159, 18.85550
203.6980, 18.26184
204.1801, 17.69065
204.6622, 17.14818
205.1443, 16.70165
205.6264, 16.36559
206.1086, 16.09134
206.5907, 15.82937
207.0728, 15.57976
207.5549, 15.35538
208.0370, 15.16112
208.5191, 14.99622
209.0013, 14.84623
209.4834, 14.70683
209.9655, 14.59026
210.4476, 14.51559
210.9297, 14.49422
211.4118, 14.47351
211.8940, 14.43851
212.3761, 14.38999
212.8582, 14.35815
213.3403, 14.34585
213.8224, 14.34600
214.3045, 14.34616
214.7867, 14.33548
215.2688, 14.36177
215.7509, 14.45949
216.2330, 14.62686
216.7151, 14.69880
217.1972, 14.63947
217.6794, 14.53330
218.1615, 14.46634
218.6436, 14.44108
219.1257, 14.44961
219.6078, 14.51011
220.0899, 14.62374
220.5721, 14.65103
221.0542, 14.54388
221.5363, 14.40959
222.0184, 14.36818
222.5005, 14.46554
222.9826, 14.54608
223.4648, 14.56195
223.9469, 14.51178
224.4290, 14.53090
224.9111, 14.66344
225.3932, 14.81444
225.8753, 14.88405
226.3575, 14.82696
226.8396, 14.78482
227.3217, 14.78769
227.8038, 14.83607
228.2859, 14.88767
228.7680, 14.93650
229.2502, 14.99535
229.7323, 15.08325
230.2144, 15.23841
230.6965, 15.34556
231.1786, 15.36850
231.6607, 15.30744
232.1429, 15.27432
232.6250, 15.25865
233.1071, 15.28233
233.5892, 15.37725
234.0713, 15.60269
234.5534, 15.77782
235.0356, 15.85219
235.5177, 15.82970
235.9998, 15.84955
236.4819, 15.92445
236.9640, 16.02791
237.4461, 16.14463
237.9283, 16.30205
238.4104, 16.41463
238.8925, 16.44504
239.3746, 16.40008
239.8567, 16.42282
240.3388, 16.53612
240.8210, 16.68988
241.3031, 16.85010
241.7852, 17.02864
242.2673, 17.18725
242.7494, 17.30812
243.2315, 17.39743
243.7137, 17.51871
244.1958, 17.67527
244.6779, 17.86059
245.1600, 18.07598
245.6421, 18.34830
246.1242, 18.59302
246.6064, 18.78524
247.0885, 18.93695
247.5706, 19.12954
248.0527, 19.35720
248.5348, 19.63160
249.0169, 19.96879
249.4990, 20.42414
249.9812, 20.82034
250.4633, 21.12393
250.9454, 21.35528
251.4275, 21.60408
251.9096, 21.84011
252.3917, 22.13491
252.8739, 22.53795
253.3560, 23.10795
253.8381, 23.64872
254.3202, 24.14380
254.8023, 24.60402
255.2844, 25.05083
255.7666, 25.45131
256.2487, 25.89114
256.7308, 26.41964
257.2129, 27.08361
257.6950, 27.71514
258.1772, 28.30303
258.6593, 28.85482
259.1414, 29.39961
259.6235, 29.92084
260.1056, 30.46918
260.5877, 31.07739
261.0699, 31.74253
261.5520, 32.46898
262.0341, 33.30850
262.5162, 34.17622
262.9983, 34.90274
263.4804, 35.43792
263.9626, 35.93275
264.4447, 36.45090
264.9268, 37.01492
265.4089, 37.51548
265.8910, 37.93165
266.3731, 38.30922
266.8553, 38.75163
267.3374, 39.29572
267.8195, 39.79730
268.3016, 40.21059
268.7837, 40.54786
269.2658, 40.71961
269.7480, 40.65972
270.2301, 40.52518
270.7122, 40.54226
271.1943, 40.73632
271.6764, 40.98548
272.1585, 41.23869
272.6407, 41.49475
273.1228, 41.85530
273.6049, 42.33944
274.0870, 42.88442
274.5691, 43.42580
275.0512, 43.95623
275.5334, 44.50378
276.0155, 45.08260
276.4976, 45.68805
276.9797, 46.27838
277.4618, 46.85931
277.9439, 47.40936
278.4261, 47.89222
278.9081, 48.29790
279.3903, 48.73949
279.8724, 49.30828
280.3545, 49.92274
280.8366, 50.19716
281.3187, 50.09254
281.8008, 49.82450
282.2830, 49.60712
282.7651, 49.44544
283.2472, 49.06825
283.7293, 48.41080
284.2114, 47.51551
284.6935, 46.51238
285.1757, 45.39643
285.6578, 44.17898
286.1399, 42.81977
286.6220, 41.33231
287.1041, 39.91349
287.5862, 38.61047
288.0684, 37.34875
288.5505, 35.96925
289.0326, 34.46520
289.5147, 32.99915
289.9968, 31.67987
290.4789, 30.48486
290.9611, 29.31771
291.4432, 28.15381
291.9253, 27.03356
292.4074, 26.03522
292.8895, 25.14721
293.3716, 24.34485
293.8538, 23.66191
294.3359, 23.05209
294.8180, 22.32769
295.3001, 21.45901
295.7822, 20.62133
296.2643, 20.08148
296.7465, 19.78493
297.2286, 19.47076
297.7107, 18.98397
298.1928, 18.40373
298.6749, 17.89410
299.1570, 17.45340
299.6392, 17.07424
300.1213, 16.80032
300.6034, 16.59064
301.0855, 16.34979
301.5676, 16.01242
302.0497, 15.64056
302.5319, 15.31529
303.0140, 15.03412
303.4961, 14.80567
303.9782, 14.66170
304.4603, 14.56963
304.9424, 14.46413
305.4246, 14.31084
305.9067, 14.15716
306.3888, 14.07911
306.8709, 14.05841
307.3530, 14.00396
307.8351, 13.82239
308.3173, 13.58636
308.7994, 13.38230
309.2815, 13.22830
309.7636, 13.10503
310.2457, 13.00821
310.7278, 12.93072
311.2100, 12.85600
311.6921, 12.75863
312.1742, 12.66905
312.6563, 12.62381
313.1384, 12.63982
313.6205, 12.65160
314.1027, 12.62235
314.5848, 12.56298
315.0669, 12.49239
315.5490, 12.37482
316.0311, 12.28059
316.5132, 12.27558
316.9954, 12.37585
317.4775, 12.44681
317.9596, 12.40024
318.4417, 12.30344
318.9238, 12.23173
319.4059, 12.19529
319.8881, 12.20106
320.3702, 12.29348
320.8523, 12.46645
321.3344, 12.55740
321.8165, 12.42507
322.2986, 12.24324
322.7808, 12.14398
323.2629, 12.23256
323.7450, 12.32060
324.2271, 12.36059
324.7092, 12.36416
325.1913, 12.39367
325.6735, 12.49821
326.1556, 12.60239
326.6377, 12.66752
327.1198, 12.66095
327.6019, 12.65881
328.0840, 12.66489
328.5662, 12.67871
329.0483, 12.69915
329.5304, 12.73563
330.0125, 12.76951
330.4946, 12.79398
330.9767, 12.80429
331.4589, 12.81921
331.9410, 12.85639
332.4231, 12.88980
332.9052, 12.88452
333.3873, 12.83832
333.8694, 12.75391
334.3516, 12.60887
334.8337, 12.39208
335.3158, 12.27278
335.7979, 12.30236
336.2800, 12.37116
336.7621, 12.36573
337.2443, 12.23551
337.7264, 12.17254
338.2085, 12.23852
338.6906, 12.40116
339.1727, 12.46550
339.6548, 12.40445
340.1370, 12.30961
340.6191, 12.23156
341.1012, 12.16850
341.5833, 12.15155
342.0654, 12.19804
342.5475, 12.27707
343.0297, 12.31006
343.5118, 12.28930
343.9939, 12.27842
344.4760, 12.32917
344.9581, 12.43325
345.4402, 12.48073
345.9224, 12.45821
346.4045, 12.41028
346.8866, 12.39268
347.3687, 12.40431
347.8508, 12.43460
348.3329, 12.47850
348.8151, 12.53811
349.2972, 12.63015
349.7793, 12.75589
350.2614, 12.87681
350.7435, 12.95888
351.2256, 13.00590
351.7078, 13.02627
352.1899, 13.00764
352.6720, 12.97995
353.1541, 12.97781
353.6362, 13.00133
354.1183, 13.05164
354.6005, 13.14594
355.0826, 13.26188
355.5647, 13.37251
356.0468, 13.47632
356.5289, 13.56306
357.0110, 13.61586
357.4932, 13.64510
357.9753, 13.67511
358.4574, 13.67837
358.9395, 13.71256
359.4216, 13.85601
359.9037, 14.12956
360.3859, 14.35999
360.8680, 14.44406
361.3501, 14.42903
361.8322, 14.37119
362.3143, 14.20421
362.7964, 14.07662
363.2786, 14.06032
363.7607, 14.15003
364.2428, 14.27534
364.7249, 14.48918
365.2070, 14.68322
365.6891, 14.78162
366.1713, 14.71292
366.6534, 14.62034
367.1355, 14.50453
367.6176, 14.38079
368.0997, 14.29392
368.5818, 14.28176
369.0640, 14.27976
369.5461, 14.26171
370.0282, 14.21199
370.5103, 14.18367
370.9924, 14.19897
371.4745, 14.22615
371.9567, 14.22493
372.4388, 14.20157
372.9209, 14.13877
373.4030, 14.01250
373.8851, 13.81956
374.3672, 13.69749
374.8494, 13.69400
375.3315, 13.69466
375.8136, 13.58947
376.2957, 13.32586
376.7778, 13.13019
377.2599, 13.04050
377.7421, 13.03203
378.2242, 13.03534
378.7063, 13.05455
379.1884, 13.06773
379.6705, 13.07012
380.1526, 13.06184
380.6348, 13.00025
381.1169, 12.86737
381.5990, 12.72409
382.0811, 12.65582
382.5632, 12.66075
383.0453, 12.70101
383.5275, 12.78133
384.0096, 12.88283
384.4917, 12.94759
384.9738, 12.97528
385.4559, 12.98460
385.9380, 12.96583
386.4202, 12.94117
386.9023, 12.97444
387.3844, 13.11127
387.8665, 13.26806
388.3486, 13.32069
388.8307, 13.29574
389.3129, 13.30000
389.7950, 13.42238
390.2771, 13.59583
390.7592, 13.74925
391.2413, 13.87213
391.7234, 13.97812
392.2056, 14.04852
392.6877, 14.11137
393.1698, 14.21172
393.6519, 14.38448
394.1340, 14.58440
394.6161, 14.79812
395.0983, 15.02367
395.5804, 15.23271
396.0625, 15.40614
396.5446, 15.56416
397.0267, 15.72198
397.5089, 15.88917
397.9910, 16.04860
398.4731, 16.16560
398.9552, 16.26831
399.4373, 16.44121
399.9194, 16.79803
400.4016, 17.13375
400.8837, 17.35874
401.3658, 17.41408
401.8479, 17.54581
402.3300, 17.82985
402.8121, 18.14289
403.2942, 18.33428
403.7763, 18.35645
404.2585, 18.34939
404.7406, 18.35246
405.2227, 18.35734
405.7048, 18.26112
406.1869, 18.03473
406.6690, 17.77540
407.1512, 17.54384
407.6333, 17.33952
408.1154, 17.17825
408.5975, 17.08286
409.0796, 17.00066
409.5617, 16.82080
410.0439, 16.54171
410.5260, 16.22552
411.0081, 15.86641
411.4902, 15.48924
411.9723, 15.21201
412.4544, 15.04501
412.9366, 14.87336
413.4187, 14.54345
413.9008, 14.10638
414.3829, 13.71707
414.8650, 13.42237
415.3471, 13.18713
415.8293, 12.98063
416.3114, 12.79929
416.7935, 12.63531
417.2756, 12.46767
417.7577, 12.32200
418.2398, 12.24265
418.7220, 12.25321
419.2041, 12.25068
419.6862, 12.13842
420.1683, 11.97832
420.6504, 11.86852
421.1325, 11.87826
421.6147, 11.91213
422.0968, 11.93835
422.5789, 11.95518
423.0610, 11.95206
423.5431, 11.88136
424.0252, 11.81847
424.5074, 11.81288
424.9895, 11.93698
425.4716, 12.03291
425.9537, 12.05941
426.4358, 12.05301
426.9179, 12.09560
427.4001, 12.21075
427.8822, 12.34668
428.3643, 12.49471
428.8464, 12.65961
429.3285, 12.79499
429.8106, 12.86947
430.2928, 12.95519
430.7749, 13.14258
431.2570, 13.46551
431.7391, 13.73982
432.2212, 13.91848
432.7033, 14.03681
433.1855, 14.20576
433.6676, 14.42878
434.1497, 14.67295
434.6318, 14.91551
435.1139, 15.16066
435.5960, 15.42221
436.0782, 15.69619
436.5603, 16.02281
437.0424, 16.49742
437.5245, 17.07467
438.0066, 17.58970
438.4887, 17.92722
438.9709, 18.21369
439.4530, 18.62041
439.9351, 19.13798
440.4172, 19.68361
440.8993, 20.22485
441.3814, 20.76107
441.8636, 21.28379
442.3457, 21.77717
442.8278, 22.30111
443.3099, 22.89211
443.7920, 23.53431
444.2741, 24.21476
444.7563, 24.93077
445.2384, 25.67256
445.7205, 26.43122
446.2026, 27.20657
446.6847, 28.02291
447.1668, 28.93374
447.6490, 29.84659
448.1311, 30.70392
448.6132, 31.43711
449.0953, 32.19280
449.5774, 32.97295
450.0595, 33.77103
450.5417, 34.57309
451.0238, 35.38786
451.5059, 36.18008
451.9880, 36.97164
452.4701, 37.77697
452.9522, 38.34127
453.4344, 38.62830
453.9165, 38.78075
454.3986, 38.92936
454.8807, 39.07708
455.3628, 39.17005
455.8449, 39.21783
456.3271, 39.18139
456.8092, 38.95863
457.2913, 38.55668
457.7734, 38.10042
458.2555, 37.59492
458.7376, 37.09230
459.2198, 36.71499
459.7019, 36.47406
460.1840, 36.26003
460.6661, 35.98619
461.1482, 35.67201
461.6303, 35.34579
462.1125, 34.96525
462.5946, 34.64525
463.0767, 34.50060
463.5588, 34.49120
464.0409, 34.50531
464.5230, 34.38479
465.0052, 34.35498
465.4873, 34.58403
465.9694, 35.13248
466.4515, 35.66947
466.9336, 36.02845
467.4157, 36.37469
467.8979, 36.86395
468.3800, 37.59510
468.8621, 38.37481
469.3442, 39.22429
469.8263, 40.10998
470.3084, 40.90707
470.7906, 41.52164
471.2727, 42.18358
471.7548, 43.01982
472.2369, 44.08319
472.7190, 45.00069
473.2011, 45.76490
473.6833, 46.43005
474.1654, 47.10210
474.6475, 47.79088
475.1296, 48.27758
475.6117, 48.53979
476.0938, 48.54311
476.5760, 48.17839
477.0581, 47.45545
477.5402, 46.50715
478.0223, 45.38338
478.5044, 44.09799
478.9865, 42.59713
479.4687, 40.85207
479.9508, 39.19098
480.4329, 37.97558
480.9150, 37.02834
481.3971, 36.09237
481.8792, 35.03410
482.3614, 34.01326
482.8435, 33.13112
483.3256, 32.37034
483.8077, 31.68699
484.2898, 31.04809
484.7719, 30.50470
485.2541, 30.11943
485.7362, 29.95836
486.2183, 29.71007
486.7004, 29.20582
487.1825, 28.66369
487.6646, 28.28145
488.1468, 28.12506
488.6289, 28.03618
489.1110, 28.00156
489.5931, 28.02282
490.0752, 28.10547
490.5573, 28.25061
491.0395, 28.45469
491.5216, 28.70110
492.0037, 28.99119
492.4858, 29.41394
492.9679, 29.96809
493.4500, 30.67328
493.9322, 31.56520
494.4143, 32.63654
494.8964, 33.77303
495.3785, 34.93364
495.8606, 36.20272
496.3427, 37.75282
496.8249, 39.53248
497.3070, 41.38794
497.7891, 43.17620
498.2712, 45.01249
498.7533, 47.02009
499.2354, 49.22226
499.7176, 51.42640
500.1997, 53.35390
500.6818, 55.31514
501.1639, 57.59650
501.6460, 60.41356
502.1281, 63.37999
502.6103, 66.36652
503.0924, 69.44333
503.5745, 72.70892
504.0566, 75.99482
504.5387, 79.62610
505.0208, 83.69865
505.5030, 88.20790
505.9851, 92.84455
506.4672, 97.53077
506.9493, 102.4078
507.4314, 107.6098
507.9135, 113.3052
508.3957, 118.8686
508.8778, 124.3060
509.3599, 129.5864
509.8420, 134.7733
510.3241, 139.8386
510.8062, 144.3881
511.2884, 148.3935
511.7705, 151.6883
512.2526, 153.9353
512.7347, 155.1320
513.2168, 155.0483
513.6989, 153.4588
514.1810, 150.5094
514.6631, 146.3412
515.1453, 140.9027
515.6274, 134.5219
516.1095, 126.7762
516.5916, 118.3622
517.0737, 110.2103
517.5558, 102.6802
518.0380, 95.41351
518.5201, 88.13609
519.0022, 80.96208
519.4843, 74.41325
519.9664, 68.66870
520.4485, 63.56559
520.9307, 59.14043
521.4128, 55.50412
521.8949, 51.98895
522.3770, 48.50202
522.8591, 45.23819
523.3412, 42.38506
523.8234, 40.03801
524.3055, 37.89372
524.7876, 35.90825
525.2697, 34.10273
525.7518, 32.59747
526.2339, 31.38437
526.7161, 30.26886
527.1982, 29.17074
527.6803, 28.09805
528.1624, 27.04600
528.6445, 26.00748
529.1266, 25.05075
529.6088, 24.23954
530.0909, 23.52481
530.5730, 22.84989
531.0551, 22.19295
531.5372, 21.57879
532.0193, 21.00991
532.5015, 20.48166
532.9836, 19.99469
533.4657, 19.53206
533.9478, 19.12163
534.4299, 18.77934
534.9120, 18.50305
535.3942, 18.24109
535.8763, 18.02119
536.3584, 17.78869
536.8405, 17.51488
537.3226, 17.17849
537.8047, 16.88776
538.2869, 16.64962
538.7690, 16.45119
539.2511, 16.30551
539.7332, 16.22738
540.2153, 16.05760
540.6974, 15.72996
541.1796, 15.34902
541.6617, 15.14947
542.1438, 15.11531
542.6259, 15.07286
543.1080, 14.90737
543.5901, 14.68431
544.0723, 14.52197
544.5544, 14.41823
545.0365, 14.29545
545.5186, 14.05747
546.0007, 13.79386
546.4828, 13.59891
546.9650, 13.50575
547.4471, 13.44465
547.9292, 13.41796
548.4113, 13.39736
548.8934, 13.34377
549.3755, 13.19540
549.8577, 13.07451
550.3398, 13.03137
550.8219, 13.04359
551.3040, 12.99067
551.7861, 12.83593
552.2682, 12.67404
552.7504, 12.54225
553.2325, 12.44105
553.7146, 12.35993
554.1967, 12.29432
554.6788, 12.26239
555.1609, 12.31921
555.6431, 12.44457
556.1252, 12.48281
556.6073, 12.38501
557.0894, 12.24164
557.5715, 12.18148
558.0536, 12.17953
558.5358, 12.16241
559.0179, 12.03200
559.5000, 11.91861
559.9821, 11.97828
560.4642, 12.18048
560.9464, 12.32302
561.4285, 12.25104
561.9106, 12.13569
562.3927, 12.08469
562.8748, 12.12999
563.3569, 12.17672
563.8391, 12.23166
564.3212, 12.27208
564.8033, 12.27395
565.2854, 12.20474
565.7675, 12.16197
566.2496, 12.15825
566.7318, 12.18519
567.2139, 12.23334
567.6960, 12.31109
568.1781, 12.35213
568.6602, 12.29443
569.1423, 12.18455
569.6245, 12.22266
570.1066, 12.40730
570.5887, 12.58464
571.0708, 12.61185
571.5529, 12.56764
572.0350, 12.58503
572.5172, 12.68880
572.9993, 12.80504
573.4814, 12.90240
573.9635, 12.97358
574.4456, 13.00796
574.9277, 12.95270
575.4099, 12.91560
575.8920, 12.92687
576.3741, 12.97833
576.8562, 13.04771
577.3383, 13.16834
577.8204, 13.26609
578.3026, 13.31990
578.7847, 13.32991
579.2668, 13.33152
579.7489, 13.32133
580.2310, 13.31125
580.7131, 13.31307
581.1953, 13.32651
581.6774, 13.32737
582.1595, 13.31443
582.6416, 13.28839
583.1237, 13.25730
583.6058, 13.21478
584.0880, 13.13597
584.5701, 12.99387
585.0522, 12.84808
585.5343, 12.76727
586.0164, 12.72940
586.4985, 12.68222
586.9807, 12.60941
587.4628, 12.51484
587.9449, 12.38061
588.4270, 12.21092
588.9091, 12.08693
589.3912, 12.07630
