##NAMES=Orthoclase
##RRUFFID=R040055
##IDEAL CHEMISTRY=KAlSi_3_O_8_
##LOCALITY=Madagascar
##OWNER=RRUFF
##SOURCE=Bob Downs
##DESCRIPTION=Pale yellow fragments
##STATUS=The identification of this mineral has been confirmed by X-ray diffraction and chemical analysis
##URL=rruff.info/R040055
##MEASURED CHEMISTRY=K_0.96_(Al_0.96_Si_0.03_Fe_0.02_)Si_3.00_O_8_; = light material. (K_0.90_Na_0.02_)(Al_0.91_Si_0.08_Fe_0.02_)Si_3.00_O_8_ = dark
127.3135, 508.4446
127.7956, 521.7052
128.2778, 529.5729
128.7599, 536.9528
129.2420, 549.2302
129.7241, 568.4525
130.2062, 582.4442
130.6883, 586.1443
131.1705, 589.4282
131.6526, 598.9379
132.1347, 613.9338
132.6168, 627.8380
133.0989, 632.3680
133.5810, 623.5259
134.0632, 615.3311
134.5453, 604.2415
135.0274, 596.0471
135.5095, 594.0179
135.9916, 598.8944
136.4737, 609.8481
136.9559, 625.7911
137.4380, 647.6667
137.9201, 673.7422
138.4022, 706.3787
138.8843, 741.4961
139.3664, 772.0975
139.8486, 796.8297
140.3307, 825.6627
140.8128, 875.2606
141.2949, 954.2524
141.7770, 1044.542
142.2591, 1149.997
142.7413, 1264.509
143.2234, 1381.101
143.7055, 1496.823
144.1876, 1616.203
144.6697, 1750.373
145.1518, 1902.731
145.6340, 2062.595
146.1161, 2234.517
146.5982, 2411.850
147.0803, 2585.956
147.5624, 2754.876
148.0445, 2917.696
148.5267, 3072.754
149.0088, 3225.297
149.4909, 3363.213
149.9730, 3486.242
150.4551, 3593.020
150.9372, 3683.297
151.4194, 3760.789
151.9015, 3815.763
152.3836, 3822.323
152.8657, 3774.087
153.3478, 3701.931
153.8299, 3609.540
154.3121, 3501.422
154.7942, 3390.790
155.2763, 3287.765
155.7584, 3181.232
156.2405, 3044.498
156.7226, 2855.809
157.2048, 2674.111
157.6869, 2527.600
158.1690, 2413.029
158.6511, 2314.214
159.1332, 2227.802
159.6153, 2152.398
160.0975, 2081.374
160.5796, 2011.770
161.0617, 1949.908
161.5438, 1900.309
162.0259, 1862.615
162.5080, 1832.829
162.9902, 1811.762
163.4723, 1796.844
163.9544, 1781.074
164.4365, 1761.687
164.9186, 1745.045
165.4007, 1736.593
165.8829, 1736.115
166.3650, 1739.235
166.8471, 1744.328
167.3292, 1751.956
167.8113, 1763.662
168.2934, 1784.589
168.7756, 1802.867
169.2577, 1803.663
169.7398, 1786.389
170.2219, 1773.286
170.7040, 1779.434
171.1861, 1794.541
171.6683, 1803.999
172.1504, 1805.470
172.6325, 1801.037
173.1146, 1790.662
173.5967, 1773.610
174.0788, 1758.480
174.5610, 1752.424
175.0431, 1749.401
175.5252, 1742.228
176.0073, 1730.083
176.4894, 1712.460
176.9715, 1686.605
177.4537, 1651.175
177.9358, 1616.579
178.4179, 1590.361
178.9000, 1566.842
179.3821, 1539.178
179.8642, 1503.959
180.3464, 1466.719
180.8285, 1434.583
181.3106, 1408.302
181.7927, 1383.004
182.2748, 1353.965
182.7569, 1325.592
183.2391, 1302.833
183.7212, 1287.431
184.2033, 1277.508
184.6854, 1272.383
185.1675, 1273.475
185.6496, 1272.585
186.1318, 1265.314
186.6139, 1254.537
187.0960, 1242.201
187.5781, 1228.265
188.0602, 1214.103
188.5423, 1202.091
189.0245, 1193.264
189.5066, 1182.378
189.9887, 1159.592
190.4708, 1137.029
190.9529, 1127.427
191.4350, 1137.094
191.9172, 1154.670
192.3993, 1165.285
192.8814, 1167.804
193.3635, 1168.269
193.8456, 1168.529
194.3277, 1167.906
194.8099, 1165.603
195.2920, 1161.310
195.7741, 1155.593
196.2562, 1149.134
196.7383, 1141.908
197.2204, 1133.925
197.7026, 1123.459
198.1847, 1113.039
198.6668, 1104.344
199.1489, 1097.463
199.6310, 1093.500
200.1131, 1095.551
200.5953, 1105.308
201.0774, 1111.907
201.5595, 1111.045
202.0416, 1105.639
202.5237, 1096.224
203.0058, 1082.225
203.4880, 1067.890
203.9701, 1058.571
204.4522, 1054.902
204.9343, 1051.753
205.4164, 1044.796
205.8985, 1039.581
206.3807, 1042.509
206.8628, 1055.675
207.3449, 1069.012
207.8270, 1069.486
208.3091, 1055.397
208.7912, 1044.981
209.2734, 1046.046
209.7555, 1050.626
210.2376, 1052.854
210.7197, 1051.797
211.2018, 1050.415
211.6839, 1052.247
212.1660, 1057.497
212.6482, 1061.126
213.1303, 1061.380
213.6124, 1059.970
214.0945, 1058.361
214.5766, 1056.702
215.0587, 1053.825
215.5409, 1046.420
216.0230, 1034.716
216.5051, 1029.548
216.9872, 1036.724
217.4693, 1048.003
217.9514, 1057.722
218.4336, 1065.589
218.9157, 1072.627
219.3978, 1080.462
219.8799, 1088.722
220.3620, 1093.759
220.8441, 1095.546
221.3263, 1092.840
221.8084, 1082.553
222.2905, 1065.768
222.7726, 1052.075
223.2547, 1048.957
223.7368, 1054.666
224.2190, 1060.042
224.7011, 1064.491
225.1832, 1067.860
225.6653, 1071.283
226.1474, 1074.195
226.6295, 1073.738
227.1117, 1064.068
227.5938, 1049.482
228.0759, 1044.417
228.5580, 1053.947
229.0401, 1065.432
229.5222, 1067.740
230.0044, 1064.004
230.4865, 1063.621
230.9686, 1077.297
231.4507, 1095.935
231.9328, 1097.916
232.4149, 1076.644
232.8971, 1054.941
233.3792, 1048.030
233.8613, 1052.372
234.3434, 1062.772
234.8255, 1085.696
235.3076, 1110.454
235.7898, 1119.421
236.2719, 1109.930
236.7540, 1098.511
237.2361, 1095.119
237.7182, 1097.268
238.2003, 1100.337
238.6825, 1102.541
239.1646, 1105.978
239.6467, 1113.797
240.1288, 1126.173
240.6109, 1138.083
241.0930, 1146.204
241.5752, 1152.217
242.0573, 1160.139
242.5394, 1172.726
243.0215, 1184.425
243.5036, 1189.696
243.9857, 1189.366
244.4679, 1189.920
244.9500, 1193.598
245.4321, 1200.751
245.9142, 1211.444
246.3963, 1227.770
246.8784, 1243.661
247.3606, 1253.892
247.8427, 1260.600
248.3248, 1271.720
248.8069, 1291.830
249.2890, 1315.566
249.7711, 1332.875
250.2533, 1343.087
250.7354, 1350.383
251.2175, 1352.725
251.6996, 1353.502
252.1817, 1358.196
252.6638, 1367.851
253.1460, 1383.945
253.6281, 1411.819
254.1102, 1454.898
254.5923, 1492.926
255.0744, 1521.255
255.5565, 1543.171
256.0387, 1560.457
256.5208, 1573.334
257.0029, 1587.204
257.4850, 1608.940
257.9671, 1640.967
258.4492, 1671.123
258.9314, 1701.483
259.4135, 1728.158
259.8956, 1744.783
260.3777, 1752.188
260.8598, 1761.556
261.3419, 1784.775
261.8241, 1824.142
262.3062, 1852.550
262.7883, 1860.240
263.2704, 1866.845
263.7525, 1883.747
264.2346, 1909.232
264.7168, 1933.823
265.1989, 1949.419
265.6810, 1957.158
266.1631, 1980.778
266.6452, 2041.832
267.1273, 2093.255
267.6095, 2115.198
268.0916, 2118.375
268.5737, 2121.233
269.0558, 2133.252
269.5379, 2154.412
270.0201, 2184.063
270.5022, 2233.872
270.9843, 2279.478
271.4664, 2313.027
271.9485, 2343.762
272.4306, 2384.772
272.9128, 2440.684
273.3949, 2501.794
273.8770, 2545.955
274.3591, 2554.288
274.8412, 2579.237
275.3233, 2637.501
275.8055, 2701.380
276.2876, 2748.917
276.7697, 2776.408
277.2518, 2796.016
277.7339, 2825.341
278.2160, 2870.948
278.6982, 2904.116
279.1803, 2920.289
279.6624, 2927.997
280.1445, 2930.261
280.6266, 2927.448
281.1087, 2918.931
281.5909, 2904.098
282.0730, 2882.898
282.5551, 2856.181
283.0372, 2820.941
283.5193, 2782.724
284.0014, 2747.483
284.4836, 2711.148
284.9657, 2664.757
285.4478, 2599.955
285.9299, 2522.708
286.4120, 2454.295
286.8941, 2397.349
287.3763, 2344.168
287.8584, 2292.634
288.3405, 2242.580
288.8226, 2193.646
289.3047, 2145.272
289.7868, 2099.212
290.2690, 2059.764
290.7511, 2028.195
291.2332, 1993.213
291.7153, 1947.142
292.1974, 1897.844
292.6795, 1854.052
293.1617, 1817.578
293.6438, 1782.782
294.1259, 1744.301
294.6080, 1703.428
295.0901, 1666.777
295.5722, 1636.695
296.0544, 1610.684
296.5365, 1585.345
297.0186, 1560.577
297.5007, 1537.166
297.9828, 1517.315
298.4649, 1498.400
298.9471, 1472.930
299.4292, 1437.706
299.9113, 1407.563
300.3934, 1401.054
300.8755, 1417.201
301.3576, 1425.369
301.8398, 1425.706
302.3219, 1414.502
302.8040, 1378.120
303.2861, 1321.078
303.7682, 1277.217
304.2503, 1273.730
304.7325, 1305.144
305.2146, 1315.727
305.6967, 1289.619
306.1788, 1263.074
306.6609, 1248.033
307.1430, 1242.130
307.6252, 1241.202
308.1073, 1243.905
308.5894, 1247.539
309.0715, 1244.703
309.5536, 1228.099
310.0357, 1213.765
310.5179, 1201.414
311.0000, 1191.895
311.4821, 1186.938
311.9642, 1186.621
312.4463, 1188.274
312.9284, 1188.535
313.4106, 1188.364
313.8927, 1183.814
314.3748, 1170.569
314.8569, 1157.347
315.3390, 1148.872
315.8211, 1144.920
316.3033, 1142.704
316.7854, 1140.310
317.2675, 1137.696
317.7496, 1132.979
318.2317, 1122.750
318.7138, 1114.460
319.1960, 1112.425
319.6781, 1113.286
320.1602, 1110.966
320.6423, 1101.106
321.1244, 1088.855
321.6065, 1086.972
322.0887, 1098.893
322.5708, 1110.995
323.0529, 1118.887
323.5350, 1125.113
324.0171, 1132.592
324.4992, 1142.386
324.9814, 1149.647
325.4635, 1147.833
325.9456, 1137.679
326.4277, 1130.406
326.9098, 1130.794
327.3919, 1131.685
327.8741, 1123.319
328.3562, 1106.531
328.8383, 1096.538
329.3204, 1107.178
329.8025, 1126.806
330.2846, 1134.730
330.7668, 1128.021
331.2489, 1116.217
331.7310, 1104.794
332.2131, 1094.339
332.6952, 1087.624
333.1773, 1086.037
333.6595, 1087.278
334.1415, 1092.354
334.6237, 1099.678
335.1058, 1102.620
335.5879, 1096.582
336.0700, 1085.138
336.5521, 1081.039
337.0342, 1094.050
337.5164, 1100.362
337.9985, 1090.439
338.4806, 1073.916
338.9627, 1061.530
339.4448, 1056.573
339.9269, 1056.756
340.4091, 1059.258
340.8912, 1066.123
341.3733, 1069.688
341.8554, 1069.768
342.3375, 1067.255
342.8196, 1059.499
343.3018, 1048.906
343.7839, 1042.644
344.2660, 1047.754
344.7481, 1063.202
345.2302, 1072.001
345.7123, 1068.942
346.1945, 1065.284
346.6766, 1064.606
347.1587, 1064.808
347.6408, 1061.725
348.1229, 1052.697
348.6050, 1043.788
349.0872, 1048.500
349.5693, 1071.717
350.0514, 1086.572
350.5335, 1075.612
351.0156, 1061.295
351.4977, 1062.183
351.9799, 1079.860
352.4620, 1097.549
352.9441, 1102.198
353.4262, 1096.802
353.9083, 1093.323
354.3904, 1094.895
354.8726, 1094.389
355.3547, 1078.059
355.8368, 1052.356
356.3189, 1041.993
356.8010, 1067.313
357.2831, 1099.863
357.7653, 1112.781
358.2474, 1107.165
358.7295, 1097.492
359.2116, 1090.879
359.6937, 1086.339
360.1758, 1080.115
360.6580, 1070.059
361.1401, 1061.655
361.6222, 1058.397
362.1043, 1056.915
362.5864, 1052.331
363.0685, 1043.248
363.5507, 1032.236
364.0328, 1022.707
364.5149, 1014.190
364.9970, 1008.886
365.4791, 1010.392
365.9612, 1011.441
366.4434, 1007.233
366.9255, 998.8186
367.4076, 990.4614
367.8897, 985.3220
368.3718, 982.8840
368.8539, 979.3473
369.3361, 972.6072
369.8182, 967.9865
370.3003, 966.8818
370.7824, 968.1858
371.2645, 972.2992
371.7466, 979.7087
372.2288, 984.8021
372.7109, 977.7512
373.1930, 957.4384
373.6751, 941.6743
374.1572, 933.4451
374.6393, 931.4039
375.1215, 936.3652
375.6036, 947.2649
376.0857, 956.1049
376.5678, 957.1417
377.0499, 954.0125
377.5320, 953.9489
378.0142, 957.8015
378.4963, 960.1249
378.9784, 956.4664
379.4605, 948.2634
379.9426, 942.1857
380.4247, 937.1408
380.9069, 935.4968
381.3890, 942.0988
381.8711, 952.6755
382.3532, 957.0685
382.8353, 951.1333
383.3174, 940.9305
383.7996, 936.6160
384.2817, 940.3421
384.7638, 946.3339
385.2459, 957.3460
385.7280, 968.4445
386.2101, 976.1257
386.6923, 980.5112
387.1744, 983.9453
387.6565, 988.6808
388.1386, 994.3637
388.6207, 995.3091
389.1028, 981.4923
389.5850, 976.1136
390.0671, 988.2937
390.5492, 1009.425
391.0313, 1030.881
391.5134, 1049.716
391.9955, 1064.434
392.4777, 1070.690
392.9598, 1067.257
393.4419, 1068.178
393.9240, 1076.163
394.4061, 1089.062
394.8882, 1107.244
395.3704, 1129.535
395.8525, 1148.699
396.3346, 1155.751
396.8167, 1159.607
397.2988, 1177.527
397.7809, 1211.018
398.2631, 1242.811
398.7452, 1263.364
399.2273, 1273.757
399.7094, 1280.106
400.1915, 1276.446
400.6736, 1276.964
401.1558, 1291.142
401.6379, 1312.022
402.1200, 1328.385
402.6021, 1337.054
403.0842, 1341.285
403.5663, 1345.555
404.0485, 1350.774
404.5306, 1352.782
405.0127, 1353.321
405.4948, 1349.602
405.9769, 1339.070
406.4590, 1323.097
406.9412, 1304.756
407.4233, 1285.838
407.9054, 1266.366
408.3875, 1247.317
408.8696, 1230.290
409.3517, 1210.331
409.8339, 1181.883
410.3160, 1153.056
410.7981, 1131.056
411.2802, 1117.013
411.7623, 1106.441
412.2444, 1096.911
412.7266, 1087.958
413.2087, 1075.762
413.6908, 1044.425
414.1729, 1053.304
414.6550, 1055.145
415.1371, 1050.327
415.6193, 1018.904
416.1014, 1021.835
416.5835, 1011.000
417.0656, 999.5996
417.5477, 1007.366
418.0298, 979.8145
418.5120, 987.2756
418.9941, 980.7607
419.4762, 980.6434
419.9583, 966.6733
420.4404, 956.9823
420.9225, 961.1479
421.4047, 957.6392
421.8868, 955.2455
422.3689, 970.2092
422.8510, 978.0291
423.3331, 969.8129
423.8152, 948.1870
424.2974, 937.3191
424.7795, 944.6523
425.2616, 952.6245
425.7437, 960.1116
426.2258, 965.1946
426.7079, 964.5427
427.1901, 957.2809
427.6722, 949.7021
428.1543, 949.3015
428.6364, 955.5693
429.1185, 960.9470
429.6006, 964.9646
430.0828, 967.2733
430.5649, 966.7831
431.0470, 964.3262
431.5291, 962.3416
432.0112, 958.8762
432.4933, 958.1981
432.9755, 965.0060
433.4576, 978.2001
433.9397, 994.2738
434.4218, 1013.359
434.9039, 1030.944
435.3860, 1036.681
435.8682, 1020.937
436.3503, 1014.141
436.8324, 1022.972
437.3145, 1037.595
437.7966, 1051.418
438.2787, 1063.735
438.7609, 1075.946
439.2430, 1088.980
439.7251, 1103.092
440.2072, 1121.190
440.6893, 1150.192
441.1714, 1172.343
441.6536, 1177.416
442.1357, 1178.461
442.6178, 1189.893
443.0999, 1214.926
443.5820, 1241.159
444.0641, 1251.535
444.5463, 1250.138
445.0284, 1267.324
445.5105, 1313.801
445.9926, 1361.800
446.4747, 1388.117
446.9568, 1399.191
447.4390, 1411.218
447.9211, 1429.171
448.4032, 1446.751
448.8853, 1455.784
449.3674, 1461.179
449.8495, 1479.034
450.3317, 1516.607
450.8138, 1557.989
451.2959, 1576.759
451.7780, 1561.261
452.2601, 1553.877
452.7422, 1556.271
453.2244, 1564.735
453.7065, 1582.027
454.1886, 1603.671
454.6707, 1620.330
455.1528, 1625.938
455.6349, 1623.312
456.1171, 1620.329
456.5992, 1617.136
457.0813, 1613.119
457.5634, 1600.626
458.0455, 1592.522
458.5276, 1599.906
459.0098, 1622.830
459.4919, 1649.499
459.9740, 1674.393
460.4561, 1697.610
460.9382, 1716.874
461.4203, 1731.474
461.9025, 1752.438
462.3846, 1789.070
462.8667, 1836.373
463.3488, 1876.012
463.8309, 1900.129
464.3130, 1929.389
464.7952, 1964.927
465.2773, 2010.835
465.7594, 2076.984
466.2415, 2162.828
466.7236, 2250.669
467.2057, 2321.156
467.6879, 2373.152
468.1700, 2437.439
468.6521, 2529.267
469.1342, 2616.026
469.6163, 2690.453
470.0984, 2756.039
470.5806, 2817.589
471.0627, 2876.158
471.5448, 2931.375
472.0269, 2987.717
472.5090, 3043.670
472.9911, 3075.095
473.4733, 3074.927
473.9554, 3057.772
474.4375, 3029.316
474.9196, 2992.533
475.4017, 2955.725
475.8839, 2927.024
476.3660, 2892.312
476.8481, 2846.428
477.3302, 2787.198
477.8123, 2704.858
478.2944, 2594.840
478.7766, 2476.055
479.2587, 2378.671
479.7408, 2308.148
480.2229, 2242.065
480.7050, 2180.309
481.1871, 2122.318
481.6693, 2069.570
482.1514, 2020.582
482.6335, 1972.174
483.1156, 1922.492
483.5977, 1874.753
484.0798, 1835.358
484.5620, 1804.803
485.0441, 1779.558
485.5262, 1763.584
486.0083, 1747.942
486.4904, 1722.369
486.9725, 1689.060
487.4547, 1663.462
487.9368, 1657.547
488.4189, 1657.556
488.9010, 1649.249
489.3831, 1633.640
489.8652, 1617.169
490.3474, 1602.028
490.8295, 1589.425
491.3116, 1581.267
491.7937, 1574.653
492.2758, 1579.596
492.7579, 1604.644
493.2401, 1633.764
493.7222, 1657.710
494.2043, 1676.747
494.6864, 1694.336
495.1685, 1711.269
495.6506, 1731.388
496.1328, 1766.587
496.6149, 1820.751
497.0970, 1877.576
497.5791, 1932.462
498.0612, 1989.703
498.5433, 2048.188
499.0254, 2109.289
499.5075, 2185.708
499.9897, 2284.464
500.4718, 2401.074
500.9539, 2533.545
501.4360, 2680.107
501.9181, 2829.989
502.4002, 2975.021
502.8824, 3123.308
503.3645, 3295.289
503.8466, 3500.787
504.3287, 3713.120
504.8108, 3926.858
505.2929, 4150.581
505.7751, 4397.928
506.2572, 4661.782
506.7393, 4924.677
507.2214, 5170.962
507.7035, 5408.465
508.1856, 5663.363
508.6678, 5948.130
509.1499, 6205.708
509.6320, 6415.012
510.1141, 6595.240
510.5962, 6773.194
511.0783, 6946.846
511.5605, 7067.348
512.0426, 7116.619
512.5247, 7099.836
513.0068, 7016.870
513.4890, 6870.921
513.9711, 6678.836
514.4532, 6447.440
514.9353, 6178.208
515.4174, 5877.845
515.8995, 5519.253
516.3817, 5174.147
516.8638, 4839.405
517.3459, 4521.714
517.8280, 4229.723
518.3101, 3960.795
518.7922, 3710.090
519.2744, 3473.050
519.7565, 3252.037
520.2386, 3050.357
520.7207, 2869.631
521.2028, 2703.312
521.6849, 2550.229
522.1671, 2413.157
522.6492, 2292.232
523.1313, 2187.411
523.6134, 2095.050
524.0955, 2020.791
524.5776, 1953.316
525.0598, 1880.517
525.5419, 1805.054
526.0240, 1737.619
526.5061, 1682.735
526.9882, 1636.602
527.4703, 1592.588
527.9525, 1548.505
528.4346, 1511.783
528.9167, 1490.469
529.3988, 1467.728
529.8809, 1435.086
530.3630, 1395.417
530.8452, 1353.077
531.3273, 1308.218
531.8094, 1269.447
532.2915, 1256.200
532.7736, 1267.061
533.2557, 1258.769
533.7379, 1213.410
534.2200, 1166.030
534.7021, 1153.904
535.1842, 1171.400
535.6663, 1180.686
536.1484, 1173.293
536.6306, 1161.439
537.1127, 1149.033
537.5948, 1137.068
538.0769, 1127.515
538.5590, 1120.821
539.0411, 1114.886
539.5233, 1107.030
540.0054, 1097.144
540.4875, 1086.825
540.9696, 1073.238
541.4517, 1063.231
541.9338, 1062.599
542.4160, 1065.057
542.8981, 1062.038
543.3802, 1050.811
543.8623, 1038.603
544.3444, 1031.652
544.8265, 1028.019
545.3087, 1022.590
545.7908, 1014.627
546.2729, 1007.393
546.7550, 1003.303
547.2371, 1001.806
547.7192, 1000.001
548.2014, 998.3109
548.6835, 995.7558
549.1656, 992.1857
549.6477, 987.7184
550.1298, 982.4374
550.6119, 976.3591
551.0941, 969.4919
551.5762, 961.9540
552.0583, 953.5759
552.5404, 942.5107
553.0225, 926.8252
553.5046, 917.1624
553.9868, 919.2860
554.4689, 927.0964
554.9510, 935.1947
555.4331, 943.6094
555.9152, 947.3061
556.3973, 938.7130
556.8795, 929.5661
557.3616, 934.1994
557.8437, 947.3806
558.3258, 950.2010
558.8079, 933.5976
559.2900, 910.5839
559.7722, 905.9136
560.2543, 928.9044
560.7364, 941.3450
561.2185, 933.9494
561.7006, 924.9229
562.1827, 920.7484
562.6649, 919.5009
563.1470, 917.2202
563.6291, 912.3171
564.1112, 906.7702
564.5933, 903.9868
565.0754, 902.2616
565.5576, 894.0229
566.0397, 877.1049
566.5218, 862.5876
567.0039, 861.3536
567.4860, 871.4456
567.9681, 871.7442
568.4503, 845.4163
568.9324, 832.4450
569.4145, 852.8586
569.8966, 881.4923
570.3787, 893.1369
570.8608, 886.5909
571.3430, 879.1630
571.8251, 886.5853
572.3072, 903.0125
572.7893, 907.9050
573.2714, 899.3624
573.7535, 889.0279
574.2357, 875.4943
574.7178, 867.0367
575.1999, 879.8778
575.6820, 915.2801
576.1641, 934.2849
576.6462, 913.3417
577.1284, 886.0477
577.6105, 874.3815
578.0926, 875.8581
578.5747, 883.5477
579.0568, 894.6027
579.5389, 905.1599
580.0211, 909.0333
580.5032, 905.3620
580.9852, 899.4926
581.4673, 886.4799
581.9495, 878.0269
582.4316, 880.7144
582.9137, 889.9193
583.3958, 899.5178
583.8779, 909.0593
584.3600, 915.4973
584.8422, 915.3513
585.3243, 911.3533
585.8064, 907.7876
586.2885, 905.1751
586.7706, 903.1481
587.2527, 901.9670
587.7349, 900.5043
588.2170, 893.7801
588.6991, 872.2693
589.1812, 861.7531
589.6633, 872.7356
590.1454, 885.9146
590.6276, 889.2707
591.1097, 884.2177
591.5918, 878.0536
592.0739, 873.3840
592.5560, 871.1248
593.0381, 873.6768
593.5203, 880.1667
594.0024, 885.6029
594.4845, 888.6632
594.9666, 891.2502
595.4487, 895.8075
595.9308, 902.3874
596.4130, 905.0926
596.8951, 904.6802
597.3772, 900.0046
597.8593, 883.1325
598.3414, 866.3700
598.8235, 864.9060
599.3057, 879.4337
599.7878, 895.3423
600.2699, 899.7828
600.7520, 896.2740
601.2341, 895.6904
601.7162, 898.3380
602.1984, 901.1644
602.6805, 904.2741
603.1626, 905.5860
603.6447, 900.3691
604.1268, 887.4122
604.6089, 879.4692
605.0911, 884.4913
605.5732, 888.1099
606.0553, 878.4874
606.5374, 863.0463
607.0195, 855.3423
607.5016, 859.8890
607.9838, 869.4017
608.4659, 876.3906
608.9480, 880.7487
609.4301, 878.9551
609.9122, 868.0819
610.3943, 858.7612
610.8765, 856.1294
611.3586, 858.2769
611.8407, 862.1977
612.3228, 868.6440
612.8049, 873.8055
613.2870, 876.2488
613.7692, 877.2312
614.2513, 878.5207
614.7334, 879.3386
615.2155, 876.3620
615.6976, 867.7639
616.1797, 857.8318
616.6619, 854.1244
617.1440, 856.9590
617.6261, 864.6418
618.1082, 883.8788
618.5903, 897.5020
619.0724, 888.9721
619.5546, 870.0986
620.0367, 861.6102
620.5188, 869.6625
621.0009, 879.9901
621.4830, 888.1500
621.9651, 893.8683
622.4473, 897.2856
622.9294, 898.0010
