##NAMES=Orthoclase
##RRUFFID=R060077
##IDEAL CHEMISTRY=KAlSi_3_O_8_
##LOCALITY=pegmatite near Minh Tien, 15 km south of Luc Yen, Vietnam
##OWNER=RRUFF
##SOURCE=Marcus Origlieri
##DESCRIPTION=Green fragment. Crystal structure determined to demonstrate that it is orthoclase
##STATUS=The identification of this mineral has been confirmed by X-ray diffraction and chemical analysis
##URL=rruff.info/R060077
##MEASURED CHEMISTRY=(K_0.88_Na_0.12_)AlSi_3_O_8_
93.74609, 112.4518
94.22821, 107.1926
94.71033, 109.8510
95.19244, 119.1041
95.67456, 130.1829
96.15668, 141.2011
96.63879, 152.6381
97.12091, 165.9754
97.60303, 181.1819
98.08514, 198.7048
98.56726, 219.4261
99.04938, 243.4853
99.53149, 268.7260
100.0136, 294.0598
100.4957, 319.3690
100.9778, 345.2809
101.4600, 371.5679
101.9421, 398.4859
102.4242, 426.0581
102.9063, 454.7239
103.3884, 483.4159
103.8705, 511.4789
104.3527, 539.7894
104.8348, 565.6260
105.3169, 588.4064
105.7990, 608.4437
106.2811, 629.5134
106.7632, 651.3522
107.2454, 674.3135
107.7275, 698.2073
108.2096, 722.2158
108.6917, 748.7975
109.1738, 778.6848
109.6559, 812.4140
110.1381, 846.9203
110.6202, 881.8436
111.1023, 917.9701
111.5844, 956.0935
112.0665, 997.6170
112.5486, 1040.298
113.0308, 1083.903
113.5129, 1128.981
113.9950, 1174.462
114.4771, 1221.043
114.9592, 1267.612
115.4413, 1313.250
115.9235, 1355.071
116.4056, 1397.663
116.8877, 1442.970
117.3698, 1493.816
117.8519, 1543.393
118.3340, 1590.709
118.8162, 1635.196
119.2983, 1675.326
119.7804, 1708.548
120.2625, 1738.715
120.7446, 1768.858
121.2267, 1801.961
121.7089, 1832.404
122.1910, 1856.304
122.6731, 1874.323
123.1552, 1889.559
123.6373, 1904.310
124.1194, 1917.218
124.6016, 1926.604
125.0837, 1928.830
125.5658, 1929.395
126.0479, 1933.463
126.5300, 1940.992
127.0121, 1950.986
127.4943, 1963.026
127.9764, 1976.880
128.4585, 1992.350
128.9406, 2007.820
129.4227, 2025.061
129.9048, 2047.219
130.3869, 2074.376
130.8691, 2105.773
131.3512, 2140.145
131.8333, 2170.626
132.3154, 2194.595
132.7975, 2220.767
133.2796, 2252.191
133.7618, 2289.007
134.2439, 2331.850
134.7260, 2378.837
135.2081, 2426.252
135.6902, 2474.284
136.1723, 2524.901
136.6545, 2579.715
137.1366, 2638.524
137.6187, 2699.602
138.1008, 2765.238
138.5829, 2831.181
139.0650, 2889.364
139.5472, 2939.854
140.0293, 2983.258
140.5114, 3019.787
140.9935, 3048.960
141.4756, 3074.127
141.9577, 3095.519
142.4399, 3113.420
142.9220, 3128.694
143.4041, 3140.941
143.8862, 3151.370
144.3683, 3160.687
144.8504, 3167.813
145.3326, 3176.021
145.8147, 3184.612
146.2968, 3193.929
146.7789, 3208.678
147.2610, 3229.557
147.7431, 3255.359
148.2253, 3285.630
148.7074, 3321.783
149.1895, 3360.260
149.6716, 3398.642
150.1537, 3435.976
150.6358, 3481.384
151.1180, 3537.083
151.6001, 3599.597
152.0822, 3664.481
152.5643, 3734.179
153.0464, 3803.683
153.5285, 3871.541
154.0107, 3936.420
154.4928, 4001.730
154.9749, 4073.360
155.4570, 4144.330
155.9391, 4205.963
156.4212, 4259.653
156.9034, 4302.757
157.3855, 4334.808
157.8676, 4355.568
158.3497, 4365.455
158.8318, 4364.788
159.3139, 4353.631
159.7961, 4332.112
160.2782, 4302.534
160.7603, 4261.237
161.2424, 4205.671
161.7245, 4132.540
162.2066, 4052.070
162.6888, 3965.963
163.1709, 3874.856
163.6530, 3780.175
164.1351, 3678.480
164.6172, 3575.668
165.0993, 3475.091
165.5815, 3375.558
166.0636, 3281.035
166.5457, 3192.254
167.0278, 3109.068
167.5099, 3031.209
167.9921, 2958.577
168.4742, 2891.112
168.9563, 2828.630
169.4384, 2769.956
169.9205, 2717.470
170.4026, 2674.091
170.8848, 2638.625
171.3669, 2606.947
171.8490, 2576.416
172.3311, 2548.378
172.8132, 2524.750
173.2953, 2508.775
173.7775, 2494.622
174.2596, 2478.506
174.7417, 2460.177
175.2238, 2437.767
175.7059, 2409.083
176.1880, 2375.770
176.6702, 2340.676
177.1523, 2305.787
177.6344, 2268.660
178.1165, 2225.097
178.5986, 2174.961
179.0807, 2123.677
179.5629, 2073.755
180.0450, 2025.289
180.5271, 1979.449
181.0092, 1936.782
181.4913, 1896.219
181.9734, 1856.074
182.4556, 1816.265
182.9377, 1778.692
183.4198, 1744.254
183.9019, 1712.957
184.3840, 1685.612
184.8661, 1662.847
185.3483, 1644.001
185.8304, 1627.024
186.3125, 1611.986
186.7946, 1598.984
187.2767, 1588.333
187.7588, 1579.853
188.2409, 1573.080
188.7231, 1567.694
189.2052, 1563.836
189.6873, 1561.420
190.1694, 1560.155
190.6515, 1561.714
191.1336, 1569.208
191.6158, 1582.315
192.0979, 1596.313
192.5800, 1608.787
193.0621, 1620.259
193.5442, 1634.854
194.0263, 1653.278
194.5085, 1673.174
194.9906, 1692.693
195.4727, 1711.906
195.9548, 1726.228
196.4369, 1732.828
196.9190, 1731.979
197.4012, 1728.988
197.8833, 1724.867
198.3654, 1716.320
198.8475, 1697.830
199.3296, 1668.932
199.8117, 1634.683
200.2939, 1595.860
200.7760, 1552.570
201.2581, 1509.500
201.7402, 1466.337
202.2223, 1424.455
202.7044, 1385.996
203.1866, 1351.375
203.6687, 1319.827
204.1508, 1291.488
204.6329, 1266.535
205.1150, 1242.680
205.5971, 1219.501
206.0793, 1197.911
206.5614, 1179.965
207.0435, 1166.393
207.5256, 1154.256
208.0077, 1142.242
208.4898, 1130.170
208.9720, 1119.305
209.4541, 1109.608
209.9362, 1101.143
210.4183, 1094.085
210.9004, 1088.564
211.3825, 1084.162
211.8647, 1080.816
212.3468, 1078.712
212.8289, 1076.866
213.3110, 1075.608
213.7931, 1074.333
214.2752, 1071.536
214.7574, 1066.615
215.2395, 1061.572
215.7216, 1057.125
216.2037, 1053.238
216.6858, 1050.308
217.1679, 1048.556
217.6501, 1047.644
218.1322, 1046.778
218.6143, 1045.819
219.0964, 1045.200
219.5785, 1045.327
220.0606, 1046.762
220.5428, 1047.112
221.0249, 1045.993
221.5070, 1043.958
221.9891, 1042.381
222.4712, 1041.505
222.9533, 1040.586
223.4355, 1039.201
223.9176, 1036.878
224.3997, 1035.369
224.8818, 1034.785
225.3639, 1034.949
225.8460, 1035.458
226.3282, 1036.296
226.8103, 1037.516
227.2924, 1039.331
227.7745, 1042.528
228.2566, 1044.168
228.7387, 1043.478
229.2209, 1041.568
229.7030, 1041.078
230.1851, 1042.660
230.6672, 1044.623
231.1493, 1046.310
231.6314, 1047.631
232.1136, 1048.866
232.5957, 1049.588
233.0778, 1050.417
233.5599, 1052.852
234.0420, 1057.960
234.5241, 1062.928
235.0063, 1066.407
235.4884, 1067.346
235.9705, 1069.697
236.4526, 1073.724
236.9347, 1079.051
237.4168, 1085.087
237.8990, 1092.468
238.3811, 1099.481
238.8632, 1105.183
239.3453, 1108.698
239.8274, 1113.611
240.3095, 1120.381
240.7917, 1128.335
241.2738, 1136.179
241.7559, 1143.518
242.2380, 1151.387
242.7201, 1160.076
243.2022, 1169.663
243.6844, 1179.969
244.1665, 1191.082
244.6486, 1202.950
245.1307, 1215.556
245.6128, 1229.285
246.0949, 1243.117
246.5771, 1256.612
247.0592, 1269.470
247.5413, 1283.104
248.0234, 1296.807
248.5055, 1311.671
248.9876, 1329.327
249.4697, 1351.292
249.9519, 1373.450
250.4340, 1394.601
250.9161, 1414.547
251.3982, 1434.471
251.8803, 1453.661
252.3624, 1473.291
252.8446, 1494.402
253.3267, 1516.638
253.8088, 1541.410
254.2909, 1569.859
254.7730, 1602.820
255.2551, 1633.717
255.7373, 1661.146
256.2194, 1687.947
256.7015, 1717.012
257.1836, 1748.997
257.6657, 1782.092
258.1479, 1815.834
258.6300, 1849.825
259.1121, 1885.821
259.5942, 1924.714
260.0763, 1964.555
260.5584, 2004.350
261.0406, 2043.209
261.5227, 2083.260
262.0048, 2125.601
262.4869, 2169.810
262.9690, 2212.821
263.4511, 2254.314
263.9333, 2294.674
264.4154, 2333.784
264.8975, 2371.358
265.3796, 2409.724
265.8617, 2449.884
266.3438, 2491.400
266.8260, 2533.375
267.3081, 2575.612
267.7902, 2618.307
268.2723, 2660.465
268.7544, 2702.616
269.2365, 2744.558
269.7187, 2785.448
270.2008, 2826.274
270.6829, 2870.914
271.1650, 2920.359
271.6471, 2971.134
272.1292, 3018.653
272.6114, 3061.648
273.0935, 3108.841
273.5756, 3161.849
274.0577, 3218.946
274.5398, 3275.463
275.0219, 3330.727
275.5041, 3386.257
275.9862, 3444.104
276.4683, 3504.979
276.9504, 3561.913
277.4325, 3615.106
277.9146, 3663.201
278.3968, 3702.801
278.8788, 3733.611
279.3610, 3757.244
279.8431, 3775.507
280.3252, 3788.551
280.8073, 3790.727
281.2894, 3782.195
281.7715, 3762.253
282.2537, 3728.889
282.7358, 3681.874
283.2179, 3624.466
283.7000, 3556.741
284.1821, 3478.597
284.6642, 3395.884
285.1464, 3307.979
285.6285, 3216.062
286.1106, 3120.832
286.5927, 3022.203
287.0748, 2923.540
287.5569, 2826.034
288.0391, 2729.208
288.5212, 2632.994
289.0033, 2536.454
289.4854, 2442.289
289.9675, 2354.175
290.4496, 2271.524
290.9318, 2192.027
291.4139, 2113.295
291.8960, 2036.323
292.3781, 1966.328
292.8602, 1902.939
293.3423, 1844.499
293.8245, 1788.949
294.3066, 1736.285
294.7887, 1686.295
295.2708, 1639.538
295.7529, 1595.563
296.2350, 1553.777
296.7172, 1514.364
297.1993, 1477.393
297.6814, 1442.700
298.1635, 1410.093
298.6456, 1379.690
299.1277, 1351.289
299.6099, 1324.761
300.0920, 1301.141
300.5741, 1279.935
301.0562, 1259.953
301.5383, 1239.916
302.0204, 1220.312
302.5026, 1202.423
302.9847, 1186.502
303.4668, 1171.948
303.9489, 1157.439
304.4310, 1143.523
304.9131, 1131.165
305.3953, 1122.601
305.8774, 1115.451
306.3595, 1106.394
306.8416, 1094.463
307.3237, 1082.677
307.8058, 1074.319
308.2880, 1068.241
308.7701, 1061.901
309.2522, 1052.789
309.7343, 1043.488
310.2164, 1036.797
310.6985, 1033.146
311.1807, 1029.603
311.6628, 1023.805
312.1449, 1016.855
312.6270, 1010.611
313.1091, 1005.708
313.5912, 1001.802
314.0734, 998.9567
314.5555, 997.1775
315.0376, 995.3776
315.5197, 992.9238
316.0018, 990.1677
316.4839, 987.5358
316.9661, 984.8397
317.4482, 982.5401
317.9303, 980.9716
318.4124, 980.0368
318.8945, 979.1336
319.3766, 977.9333
319.8588, 976.7149
320.3409, 975.6771
320.8230, 974.6609
321.3051, 974.0551
321.7872, 974.2839
322.2693, 975.0564
322.7515, 975.4883
323.2336, 975.3339
323.7157, 974.8192
324.1978, 974.0068
324.6799, 972.7177
325.1620, 971.5327
325.6442, 970.4584
326.1263, 969.5526
326.6084, 968.9146
327.0905, 968.4766
327.5726, 968.3866
328.0547, 968.7900
328.5369, 969.9117
329.0190, 970.8110
329.5011, 971.5160
329.9832, 971.9860
330.4653, 972.1549
330.9474, 971.6547
331.4296, 971.3305
331.9117, 971.4062
332.3938, 971.9139
332.8759, 972.3354
333.3580, 972.7362
333.8401, 973.0104
334.3223, 973.0664
334.8044, 972.8640
335.2865, 972.5019
335.7686, 971.8682
336.2507, 971.0482
336.7328, 970.5245
337.2150, 970.1453
337.6971, 970.2759
338.1792, 971.4719
338.6613, 974.3412
339.1434, 975.6182
339.6255, 974.6674
340.1077, 972.3649
340.5898, 970.6289
341.0719, 969.5734
341.5540, 968.7341
342.0361, 967.9346
342.5182, 967.1766
343.0004, 966.5516
343.4825, 966.1022
343.9646, 965.7505
344.4467, 965.4361
344.9288, 965.1762
345.4109, 964.8312
345.8931, 964.3083
346.3752, 963.6711
346.8573, 963.1039
347.3394, 962.5717
347.8215, 962.3434
348.3036, 962.9244
348.7858, 964.1148
349.2679, 964.9086
349.7500, 964.7463
350.2321, 964.3436
350.7142, 965.2373
351.1964, 967.2902
351.6785, 969.2822
352.1606, 970.1423
352.6427, 970.3201
353.1248, 970.6407
353.6069, 971.1700
354.0891, 972.0901
354.5712, 974.0598
355.0533, 976.6699
355.5354, 978.7714
356.0175, 979.2822
356.4996, 979.1927
356.9818, 979.5002
357.4639, 980.2997
357.9460, 981.4225
358.4281, 983.3664
358.9102, 985.4352
359.3923, 986.5794
359.8745, 984.8658
360.3566, 983.3020
360.8387, 984.1171
361.3208, 987.1482
361.8029, 989.9534
362.2850, 991.6036
362.7672, 992.4427
363.2493, 992.7313
363.7314, 992.0560
364.2135, 991.4095
364.6956, 991.2394
365.1777, 991.3670
365.6599, 991.2411
366.1420, 990.7979
366.6241, 990.0177
367.1062, 988.8756
367.5883, 987.2709
368.0704, 985.5137
368.5526, 983.3887
369.0347, 981.1806
369.5168, 979.2961
369.9989, 978.6284
370.4810, 977.3405
370.9631, 974.8649
371.4453, 971.0276
371.9274, 967.2186
372.4095, 963.0432
372.8916, 959.2596
373.3737, 956.6031
373.8558, 955.8354
374.3380, 954.6448
374.8201, 952.6215
375.3022, 949.9077
375.7843, 947.3220
376.2664, 944.8062
376.7485, 942.5175
377.2307, 940.6201
377.7128, 939.1923
378.1949, 937.7194
378.6770, 936.2372
379.1591, 934.6746
379.6412, 932.9494
380.1234, 931.0639
380.6055, 928.9522
381.0876, 925.9833
381.5697, 922.5458
382.0518, 921.5224
382.5339, 923.1702
383.0161, 925.8077
383.4982, 927.8967
383.9803, 929.4498
384.4624, 930.3815
384.9445, 930.2842
385.4266, 929.8829
385.9088, 930.4430
386.3909, 931.9124
386.8730, 933.8495
387.3551, 936.1631
387.8372, 938.6830
388.3193, 941.0516
388.8015, 943.0644
389.2836, 945.3425
389.7657, 948.5162
390.2478, 952.4254
390.7299, 956.6209
391.2120, 961.6036
391.6942, 966.3391
392.1763, 969.5793
392.6584, 971.1357
393.1405, 973.0950
393.6226, 976.2197
394.1047, 980.4690
394.5869, 985.7634
395.0690, 994.1360
395.5511, 1001.524
396.0332, 1005.597
396.5153, 1007.050
396.9974, 1009.629
397.4796, 1013.871
397.9617, 1019.816
398.4438, 1027.706
398.9259, 1039.247
399.4080, 1049.747
399.8901, 1058.439
400.3723, 1065.915
400.8544, 1073.173
401.3365, 1080.501
401.8186, 1087.359
402.3007, 1093.467
402.7828, 1098.710
403.2649, 1104.363
403.7470, 1111.103
404.2292, 1117.538
404.7113, 1122.432
405.1934, 1125.806
405.6755, 1127.697
406.1576, 1128.255
406.6397, 1127.265
407.1219, 1123.797
407.6040, 1117.620
408.0861, 1109.799
408.5682, 1100.867
409.0503, 1090.959
409.5324, 1079.149
410.0146, 1064.980
410.4967, 1050.089
410.9788, 1036.587
411.4609, 1024.522
411.9430, 1013.220
412.4251, 1002.505
412.9073, 992.4376
413.3894, 982.5876
413.8715, 972.9296
414.3536, 963.8737
414.8357, 955.3264
415.3178, 947.5522
415.8000, 941.2604
416.2821, 936.8435
416.7642, 933.3349
417.2463, 930.0685
417.7284, 926.9747
418.2105, 923.9603
418.6927, 920.6791
419.1748, 917.6315
419.6569, 915.1819
420.1390, 913.3773
420.6211, 911.9542
421.1032, 910.7820
421.5854, 909.8983
422.0675, 909.3378
422.5496, 908.8238
423.0317, 908.9311
423.5138, 909.7294
423.9959, 911.2447
424.4781, 913.6702
424.9602, 917.7396
425.4423, 922.1199
425.9244, 926.2560
426.4065, 930.3220
426.8886, 933.6298
427.3708, 934.9936
427.8529, 936.1080
428.3350, 939.7424
428.8171, 947.0085
429.2992, 954.7408
429.7813, 962.0720
430.2635, 969.0002
430.7456, 976.7337
431.2277, 985.2307
431.7098, 994.5316
432.1919, 1004.973
432.6740, 1016.690
433.1562, 1027.683
433.6383, 1037.218
434.1204, 1046.634
434.6025, 1058.807
435.0846, 1073.692
435.5667, 1089.403
436.0489, 1105.065
436.5310, 1120.950
437.0131, 1137.656
437.4952, 1155.246
437.9773, 1173.923
438.4594, 1194.048
438.9416, 1215.408
439.4237, 1237.541
439.9058, 1260.359
440.3879, 1283.887
440.8700, 1308.541
441.3521, 1334.217
441.8343, 1360.525
442.3164, 1385.993
442.7985, 1412.824
443.2806, 1443.182
443.7627, 1477.615
444.2448, 1513.176
444.7270, 1548.423
445.2091, 1583.844
445.6912, 1619.842
446.1733, 1656.124
446.6554, 1693.496
447.1375, 1732.784
447.6197, 1773.791
448.1018, 1812.752
448.5839, 1846.041
449.0660, 1879.807
449.5481, 1917.066
450.0302, 1963.039
450.5124, 2002.305
450.9945, 2033.347
451.4766, 2058.412
451.9587, 2080.786
452.4408, 2100.849
452.9229, 2117.532
453.4051, 2130.987
453.8872, 2141.064
454.3693, 2147.167
454.8514, 2149.142
455.3335, 2147.860
455.8156, 2143.726
456.2978, 2136.807
456.7799, 2127.570
457.2620, 2115.611
457.7441, 2102.240
458.2262, 2088.595
458.7083, 2074.919
459.1905, 2061.787
459.6726, 2048.823
460.1547, 2036.975
460.6368, 2027.164
461.1189, 2019.362
461.6010, 2014.671
462.0832, 2014.590
462.5653, 2017.729
463.0474, 2022.302
463.5295, 2026.778
464.0116, 2034.710
464.4937, 2047.646
464.9759, 2065.404
465.4580, 2087.312
465.9401, 2112.830
466.4222, 2142.813
466.9043, 2177.115
467.3864, 2215.551
467.8686, 2259.903
468.3507, 2314.184
468.8328, 2372.122
469.3149, 2428.974
469.7970, 2481.271
470.2791, 2538.231
470.7613, 2602.515
471.2434, 2670.933
471.7255, 2735.464
472.2076, 2796.939
472.6897, 2852.520
473.1718, 2903.050
473.6540, 2948.270
474.1361, 2983.811
474.6182, 3010.548
475.1003, 3024.527
475.5824, 3020.708
476.0645, 2999.719
476.5467, 2967.602
477.0288, 2924.863
477.5109, 2872.637
477.9930, 2810.621
478.4751, 2739.901
478.9572, 2665.607
479.4394, 2587.108
479.9215, 2507.997
480.4036, 2433.132
480.8857, 2362.367
481.3678, 2296.568
481.8499, 2235.777
482.3321, 2180.220
482.8142, 2130.892
483.2963, 2088.086
483.7784, 2050.576
484.2605, 2019.543
484.7426, 1993.709
485.2248, 1970.205
485.7069, 1948.815
486.1890, 1929.565
486.6711, 1912.276
487.1532, 1896.732
487.6353, 1884.634
488.1175, 1877.332
488.5996, 1872.598
489.0817, 1868.582
489.5638, 1864.393
490.0459, 1863.080
490.5280, 1864.524
491.0102, 1869.246
491.4923, 1878.959
491.9744, 1894.177
492.4565, 1912.174
492.9386, 1931.159
493.4207, 1951.905
493.9029, 1978.533
494.3850, 2011.247
494.8671, 2049.888
495.3492, 2094.516
495.8313, 2145.317
496.3134, 2203.243
496.7956, 2268.260
497.2777, 2340.640
497.7598, 2419.712
498.2419, 2506.023
498.7240, 2598.574
499.2061, 2698.137
499.6883, 2804.217
500.1704, 2916.013
500.6525, 3033.605
501.1346, 3159.382
501.6167, 3295.183
502.0988, 3440.380
502.5810, 3594.031
503.0631, 3754.760
503.5452, 3929.258
504.0273, 4115.011
504.5094, 4315.559
504.9915, 4531.927
505.4737, 4764.506
505.9558, 5011.673
506.4379, 5271.334
506.9200, 5543.577
507.4021, 5830.638
507.8842, 6139.056
508.3664, 6455.375
508.8485, 6777.444
509.3306, 7105.472
509.8127, 7429.662
510.2948, 7752.060
510.7769, 8060.009
511.2591, 8339.339
511.7412, 8587.781
512.2233, 8787.027
512.7054, 8942.810
513.1875, 9038.728
513.6696, 9053.266
514.1517, 8987.149
514.6339, 8843.732
515.1160, 8608.778
515.5981, 8307.396
516.0802, 7951.249
516.5623, 7534.786
517.0444, 7104.617
517.5266, 6667.787
518.0087, 6234.581
518.4908, 5816.200
518.9729, 5402.881
519.4550, 5016.718
519.9371, 4666.544
520.4193, 4348.798
520.9014, 4058.124
521.3835, 3794.923
521.8656, 3555.614
522.3477, 3340.446
522.8298, 3150.630
523.3120, 2973.472
523.7941, 2811.627
524.2762, 2664.046
524.7583, 2532.082
525.2404, 2415.426
525.7225, 2310.386
526.2047, 2216.791
526.6868, 2132.025
527.1689, 2050.718
527.6510, 1973.782
528.1331, 1904.980
528.6152, 1848.530
529.0974, 1799.678
529.5795, 1750.470
530.0616, 1700.973
530.5437, 1655.195
531.0258, 1616.736
531.5079, 1582.357
531.9901, 1547.789
532.4722, 1511.176
532.9543, 1477.272
533.4364, 1448.005
533.9185, 1422.311
534.4006, 1398.170
534.8828, 1376.044
535.3649, 1354.744
535.8470, 1334.473
536.3291, 1314.961
536.8112, 1296.184
537.2933, 1277.818
537.7755, 1260.717
538.2576, 1245.741
538.7397, 1233.050
539.2218, 1220.072
539.7039, 1206.980
540.1860, 1193.547
540.6682, 1179.053
541.1503, 1163.805
541.6324, 1150.709
542.1145, 1140.890
542.5966, 1132.690
543.0787, 1123.958
543.5609, 1114.724
544.0430, 1105.077
544.5251, 1093.704
545.0072, 1082.794
545.4893, 1075.561
545.9714, 1071.739
546.4536, 1067.097
546.9357, 1057.916
547.4178, 1047.937
547.8999, 1040.103
548.3820, 1035.814
548.8641, 1031.543
549.3463, 1026.442
549.8284, 1021.018
550.3105, 1015.930
550.7926, 1011.320
551.2747, 1006.819
551.7568, 1002.067
552.2390, 997.3402
552.7211, 994.0184
553.2032, 992.7232
553.6853, 990.9311
554.1674, 986.9438
554.6495, 980.9993
555.1317, 976.8375
555.6138, 974.7186
556.0959, 973.0099
556.5780, 969.9674
557.0601, 966.1338
557.5422, 963.0284
558.0244, 961.0997
558.5065, 959.5677
558.9886, 957.3997
559.4707, 955.0696
559.9528, 953.5754
560.4349, 954.3672
560.9171, 955.1365
561.3992, 954.3047
561.8813, 952.1252
562.3634, 950.5871
562.8455, 950.9531
563.3276, 951.4346
563.8098, 950.8232
564.2919, 948.1360
564.7740, 947.7322
565.2561, 950.9930
565.7382, 955.1409
566.2203, 957.4905
566.7025, 957.5912
567.1846, 957.7383
567.6667, 958.2787
568.1488, 958.9509
568.6309, 958.9402
569.1130, 958.3091
569.5952, 958.3837
570.0773, 960.3378
570.5594, 963.0917
571.0415, 964.2215
571.5236, 963.9745
572.0057, 964.4800
572.4879, 968.0580
572.9700, 972.6891
573.4521, 976.2936
573.9342, 978.5090
574.4163, 980.3531
574.8984, 981.5580
575.3806, 982.9575
575.8627, 985.4182
576.3448, 990.3826
576.8269, 994.8317
577.3090, 998.5519
577.7911, 1001.515
578.2733, 1003.643
578.7554, 1004.470
579.2375, 1005.343
579.7196, 1006.968
580.2017, 1009.112
580.6838, 1009.477
581.1660, 1007.952
581.6481, 1005.355
582.1302, 1001.918
582.6123, 997.8414
583.0944, 994.2277
583.5765, 991.2617
584.0587, 987.8624
584.5408, 982.5467
585.0229, 976.1823
585.5050, 970.2203
585.9871, 965.0220
586.4692, 960.4475
586.9514, 956.6442
587.4335, 953.3305
587.9156, 950.0026
588.3977, 946.7838
588.8798, 943.2405
