##NAMES=Orthoserpierite
##RRUFFID=R060793
##IDEAL CHEMISTRY=CaCu^2+^_4_(S^6+^O_4_)_2_(OH)_6_&#183;3H_2_O
##LOCALITY=Mi Fiel Rosita mine, Bolsico District, Copiapo, Chile
##OWNER=RRUFF
##SOURCE=Bob Jenkins
##DESCRIPTION=Light blue aggregate of lathlike crystals
##STATUS=The identification of this mineral has been confirmed by single-crystal X-ray diffraction.
##URL=rruff.info/R060793
124.898, 1206.053
125.380, 1217.224
125.862, 1228.444
126.344, 1238.756
126.826, 1245.648
127.308, 1250.112
127.790, 1256.539
128.273, 1269.156
128.755, 1285.667
129.237, 1300.971
129.719, 1315.128
130.201, 1326.531
130.683, 1327.936
131.165, 1319.392
131.648, 1316.527
132.130, 1338.926
132.612, 1382.343
133.094, 1413.120
133.576, 1419.927
134.058, 1409.568
134.540, 1405.628
135.022, 1407.938
135.504, 1417.057
135.986, 1436.791
136.469, 1468.308
136.951, 1495.833
137.433, 1512.079
137.915, 1517.119
138.397, 1531.857
138.879, 1559.929
139.361, 1592.702
139.843, 1617.859
140.326, 1635.135
140.808, 1646.305
141.290, 1649.802
141.772, 1641.152
142.254, 1641.988
142.736, 1655.013
143.218, 1676.572
143.700, 1697.722
144.182, 1720.271
144.665, 1739.682
145.147, 1753.759
145.629, 1763.427
146.111, 1765.687
146.593, 1756.258
147.075, 1737.498
147.557, 1726.150
148.039, 1730.248
148.521, 1735.228
149.004, 1731.659
149.486, 1705.475
149.968, 1687.491
150.450, 1685.399
150.932, 1700.101
151.414, 1705.858
151.896, 1692.850
152.378, 1675.588
152.861, 1666.260
153.343, 1672.372
153.825, 1679.856
154.307, 1685.610
154.789, 1689.068
155.271, 1694.104
155.753, 1704.522
156.235, 1716.042
156.717, 1723.329
157.200, 1715.514
157.682, 1711.405
158.164, 1720.362
158.646, 1749.491
159.128, 1774.011
159.610, 1781.573
160.092, 1779.957
160.574, 1784.026
161.057, 1804.945
161.539, 1828.726
162.021, 1847.075
162.503, 1855.867
162.985, 1863.420
163.467, 1872.177
163.949, 1882.152
164.431, 1893.715
164.913, 1910.489
165.396, 1927.225
165.878, 1939.321
166.360, 1941.528
166.842, 1943.567
167.324, 1954.107
167.806, 1971.395
168.288, 1983.950
168.770, 1985.048
169.253, 1977.992
169.735, 1966.500
170.217, 1949.709
170.699, 1930.728
171.181, 1911.395
171.663, 1891.682
172.145, 1872.813
172.627, 1853.087
173.109, 1834.920
173.592, 1822.027
174.074, 1820.132
174.556, 1822.372
175.038, 1821.283
175.520, 1816.600
176.002, 1809.616
176.484, 1798.544
176.966, 1785.755
177.449, 1777.093
177.931, 1779.847
178.413, 1787.356
178.895, 1788.714
179.377, 1782.625
179.859, 1772.880
180.341, 1760.292
180.823, 1746.351
181.305, 1738.076
181.788, 1744.500
182.270, 1759.250
182.752, 1766.473
183.234, 1762.808
183.716, 1755.198
184.198, 1752.953
184.680, 1755.826
185.162, 1761.464
185.645, 1774.780
186.127, 1791.066
186.609, 1789.984
187.091, 1761.844
187.573, 1724.285
188.055, 1713.507
188.537, 1729.744
189.019, 1753.186
189.501, 1771.872
189.984, 1786.025
190.466, 1795.737
190.948, 1800.280
191.430, 1801.010
191.912, 1799.141
192.394, 1793.937
192.876, 1792.800
193.358, 1805.627
193.840, 1831.623
194.323, 1853.225
194.805, 1866.667
195.287, 1872.532
195.769, 1870.859
196.251, 1859.879
196.733, 1848.714
197.215, 1847.935
197.697, 1858.063
198.180, 1867.589
198.662, 1872.419
199.144, 1873.573
199.626, 1880.205
200.108, 1893.859
200.590, 1909.114
201.072, 1918.815
201.554, 1922.227
202.036, 1925.614
202.519, 1929.686
203.001, 1934.491
203.483, 1946.443
203.965, 1968.444
204.447, 1992.364
204.929, 2004.051
205.411, 1999.693
205.893, 2000.228
206.376, 2014.883
206.858, 2045.165
207.340, 2071.904
207.822, 2096.654
208.304, 2115.916
208.786, 2121.200
209.268, 2107.276
209.750, 2095.780
210.232, 2095.233
210.714, 2106.949
211.197, 2123.030
211.679, 2144.712
212.161, 2169.896
212.643, 2196.260
213.125, 2227.367
213.607, 2250.770
214.089, 2258.070
214.572, 2241.393
215.054, 2237.788
215.536, 2253.004
216.018, 2278.323
216.500, 2292.103
216.982, 2290.331
217.464, 2284.436
217.946, 2279.228
218.428, 2274.663
218.911, 2270.739
219.393, 2267.271
219.875, 2264.434
220.357, 2262.781
220.839, 2262.690
221.321, 2263.201
221.803, 2264.120
222.285, 2266.239
222.767, 2266.821
223.250, 2265.490
223.732, 2262.651
224.214, 2259.262
224.696, 2253.575
225.178, 2250.063
225.660, 2251.844
226.142, 2262.258
226.624, 2269.995
227.107, 2273.337
227.589, 2273.280
228.071, 2273.921
228.553, 2273.008
229.035, 2275.726
229.517, 2286.302
229.999, 2311.133
230.481, 2329.924
230.963, 2338.588
231.445, 2339.238
231.928, 2344.001
232.410, 2353.681
232.892, 2366.510
233.374, 2380.971
233.856, 2396.219
234.338, 2415.312
234.820, 2441.318
235.303, 2472.574
235.785, 2496.586
236.267, 2509.382
236.749, 2519.732
237.231, 2533.490
237.713, 2551.302
238.195, 2571.057
238.677, 2592.966
239.159, 2616.867
239.641, 2640.898
240.124, 2665.072
240.606, 2689.765
241.088, 2715.259
241.570, 2740.528
242.052, 2768.372
242.534, 2800.935
243.016, 2837.432
243.498, 2868.504
243.981, 2893.353
244.463, 2913.511
244.945, 2929.134
245.427, 2935.587
245.909, 2946.646
246.391, 2966.828
246.873, 2994.951
247.355, 3014.411
247.837, 3021.552
248.320, 3024.020
248.802, 3028.099
249.284, 3036.625
249.766, 3041.098
250.248, 3041.760
250.730, 3038.307
251.212, 3024.954
251.694, 2999.051
252.176, 2966.803
252.659, 2931.306
253.141, 2887.478
253.623, 2852.302
254.105, 2832.567
254.587, 2826.328
255.069, 2806.021
255.551, 2766.640
256.033, 2719.722
256.516, 2673.530
256.998, 2628.275
257.480, 2582.124
257.962, 2531.981
258.444, 2478.775
258.926, 2440.059
259.408, 2421.184
259.890, 2408.361
260.372, 2390.715
260.855, 2366.278
261.337, 2341.767
261.819, 2319.991
262.301, 2299.570
262.783, 2268.140
263.265, 2217.854
263.747, 2168.791
264.229, 2137.839
264.711, 2131.300
265.194, 2124.838
265.676, 2117.058
266.158, 2106.970
266.640, 2085.406
267.122, 2048.709
267.604, 2008.123
268.086, 1971.870
268.569, 1939.089
269.051, 1912.956
269.533, 1894.620
270.015, 1883.351
270.497, 1875.055
270.979, 1869.444
271.461, 1867.590
271.943, 1873.922
272.425, 1892.351
272.908, 1897.240
273.390, 1880.195
273.872, 1847.773
274.354, 1827.479
274.836, 1822.209
275.318, 1819.643
275.800, 1809.321
276.282, 1789.694
276.764, 1775.243
277.247, 1768.599
277.729, 1768.054
278.211, 1769.461
278.693, 1774.235
279.175, 1774.663
279.657, 1760.798
280.139, 1731.526
280.621, 1714.557
281.103, 1717.193
281.586, 1730.917
282.068, 1731.561
282.550, 1717.361
283.032, 1702.469
283.514, 1695.890
283.996, 1697.492
284.478, 1704.824
284.960, 1721.778
285.443, 1739.092
285.925, 1729.496
286.407, 1691.706
286.889, 1658.967
287.371, 1658.828
287.853, 1686.332
288.335, 1701.698
288.817, 1698.007
289.299, 1685.918
289.782, 1685.508
290.264, 1696.338
290.746, 1707.212
291.228, 1711.047
291.710, 1709.277
292.192, 1707.082
292.674, 1704.105
293.156, 1703.024
293.638, 1709.733
294.121, 1723.264
294.603, 1735.915
295.085, 1743.394
295.567, 1746.931
296.049, 1749.329
296.531, 1750.554
297.013, 1751.744
297.496, 1752.538
297.978, 1753.917
298.460, 1759.902
298.942, 1779.718
299.424, 1803.882
299.906, 1812.651
300.388, 1803.105
300.870, 1790.014
301.352, 1786.105
301.835, 1790.534
302.317, 1801.021
302.799, 1824.200
303.281, 1849.496
303.763, 1862.168
304.245, 1860.952
304.727, 1855.802
305.209, 1851.649
305.691, 1849.759
306.174, 1852.671
306.656, 1863.896
307.138, 1878.933
307.620, 1893.686
308.102, 1908.238
308.584, 1923.570
309.066, 1943.040
309.548, 1963.344
310.030, 1979.349
310.513, 1982.989
310.995, 1986.764
311.477, 1998.328
311.959, 2017.437
312.441, 2042.306
312.923, 2080.798
313.405, 2120.979
313.887, 2149.868
314.370, 2153.338
314.852, 2155.757
315.334, 2168.674
315.816, 2190.923
316.298, 2216.189
316.780, 2247.260
317.262, 2277.569
317.744, 2301.784
318.226, 2309.861
318.709, 2322.675
319.191, 2350.821
319.673, 2390.102
320.155, 2426.044
320.637, 2456.652
321.119, 2481.171
321.601, 2498.903
322.083, 2506.917
322.565, 2512.384
323.048, 2511.805
323.530, 2509.361
324.012, 2514.977
324.494, 2541.237
324.976, 2566.735
325.458, 2582.287
325.940, 2580.915
326.422, 2583.137
326.905, 2598.907
327.387, 2617.648
327.869, 2621.565
328.351, 2594.428
328.833, 2567.790
329.315, 2549.445
329.797, 2541.065
330.279, 2535.054
330.762, 2531.740
331.244, 2530.623
331.726, 2531.481
332.208, 2537.708
332.690, 2540.863
333.172, 2538.476
333.654, 2530.116
334.136, 2522.174
334.618, 2515.581
335.100, 2508.386
335.583, 2497.852
336.065, 2481.250
336.547, 2468.694
337.029, 2464.787
337.511, 2467.586
337.993, 2457.433
338.475, 2429.302
338.957, 2399.153
339.440, 2381.064
339.922, 2378.003
340.404, 2367.921
340.886, 2344.640
341.368, 2313.879
341.850, 2294.964
342.332, 2290.319
342.814, 2285.782
343.297, 2271.094
343.779, 2246.602
344.261, 2223.550
344.743, 2202.309
345.225, 2183.963
345.707, 2172.094
346.189, 2166.444
346.671, 2160.039
347.153, 2150.937
347.635, 2138.175
348.118, 2113.588
348.600, 2072.746
349.082, 2036.076
349.564, 2039.153
350.046, 2072.326
350.528, 2093.902
351.010, 2071.882
351.492, 2030.290
351.975, 2011.239
352.457, 2016.484
352.939, 2025.761
353.421, 2023.260
353.903, 2011.705
354.385, 1996.114
354.867, 1971.076
355.349, 1948.217
355.832, 1941.199
356.314, 1948.554
356.796, 1957.407
357.278, 1960.981
357.760, 1960.977
358.242, 1959.422
358.724, 1958.276
359.206, 1953.901
359.688, 1941.841
360.171, 1924.184
360.653, 1908.235
361.135, 1897.401
361.617, 1889.201
362.099, 1882.480
362.581, 1878.242
363.063, 1872.615
363.545, 1858.142
364.027, 1841.815
364.510, 1837.200
364.992, 1863.399
365.474, 1888.462
365.956, 1899.080
366.438, 1890.208
366.920, 1880.662
367.402, 1870.234
367.884, 1861.022
368.366, 1855.482
368.849, 1856.846
369.331, 1858.676
369.813, 1859.616
370.295, 1859.545
370.777, 1861.266
371.259, 1867.599
371.741, 1873.264
372.224, 1873.367
372.706, 1862.037
373.188, 1857.064
373.670, 1863.775
374.152, 1878.751
374.634, 1883.675
375.116, 1872.459
375.598, 1863.536
376.080, 1871.319
376.562, 1900.827
377.045, 1917.405
377.527, 1914.621
378.009, 1902.612
378.491, 1904.146
378.973, 1920.915
379.455, 1937.078
379.937, 1944.998
380.419, 1945.292
380.902, 1940.744
381.384, 1928.989
381.866, 1921.843
382.348, 1939.997
382.830, 1979.162
383.312, 2012.789
383.794, 2029.413
384.276, 2034.251
384.759, 2033.837
385.241, 2028.284
385.723, 2029.203
386.205, 2053.184
386.687, 2089.885
387.169, 2119.666
387.651, 2134.978
388.133, 2143.797
388.615, 2154.176
389.098, 2165.118
389.580, 2172.915
390.062, 2169.057
390.544, 2164.197
391.026, 2169.828
391.508, 2191.395
391.990, 2212.719
392.472, 2225.028
392.954, 2231.186
393.437, 2236.442
393.919, 2237.850
394.401, 2243.045
394.883, 2257.361
395.365, 2282.333
395.847, 2306.368
396.329, 2331.855
396.811, 2352.597
397.293, 2362.702
397.776, 2340.399
398.258, 2329.740
398.740, 2342.237
399.222, 2376.680
399.704, 2410.371
400.186, 2446.225
400.668, 2478.566
401.151, 2503.215
401.633, 2508.592
402.115, 2527.873
402.597, 2568.320
403.079, 2621.202
403.561, 2664.782
404.043, 2696.294
404.525, 2724.307
405.007, 2747.901
405.490, 2764.144
405.972, 2806.215
406.454, 2881.518
406.936, 2967.106
407.418, 3031.201
407.900, 3072.339
408.382, 3117.629
408.864, 3176.836
409.346, 3245.919
409.828, 3309.862
410.311, 3367.963
410.793, 3426.964
411.275, 3492.731
411.757, 3564.750
412.239, 3640.199
412.721, 3720.246
413.203, 3801.700
413.685, 3876.727
414.168, 3947.346
414.650, 4023.518
415.132, 4115.833
415.614, 4214.093
416.096, 4305.263
416.578, 4388.441
417.060, 4465.790
417.542, 4538.075
418.025, 4604.961
418.507, 4665.742
418.989, 4717.030
419.471, 4765.371
419.953, 4818.837
420.435, 4875.832
420.917, 4919.877
421.399, 4938.230
421.881, 4945.272
422.364, 4951.087
422.846, 4960.482
423.328, 4965.167
423.810, 4969.288
424.292, 4968.566
424.774, 4949.891
425.256, 4894.725
425.738, 4839.429
426.220, 4799.674
426.703, 4784.955
427.185, 4749.739
427.667, 4687.403
428.149, 4610.142
428.631, 4532.127
429.113, 4452.512
429.595, 4371.587
430.077, 4289.568
430.560, 4206.797
431.042, 4123.926
431.524, 4040.085
432.006, 3960.923
432.488, 3891.328
432.970, 3831.095
433.452, 3773.709
433.934, 3715.558
434.417, 3664.211
434.899, 3638.108
435.381, 3633.846
435.863, 3623.711
436.345, 3584.870
436.827, 3532.153
437.309, 3491.270
437.791, 3463.249
438.273, 3451.339
438.755, 3470.420
439.238, 3505.627
439.720, 3532.595
440.202, 3543.335
440.684, 3542.502
441.166, 3524.345
441.648, 3494.191
442.130, 3475.447
442.612, 3492.583
443.095, 3516.542
443.577, 3526.391
444.059, 3513.317
444.541, 3499.459
445.023, 3488.602
445.505, 3481.054
445.987, 3477.405
446.469, 3490.754
446.952, 3495.005
447.434, 3478.348
447.916, 3438.583
448.398, 3411.903
448.880, 3408.839
449.362, 3409.348
449.844, 3397.931
450.326, 3369.078
450.808, 3342.017
451.290, 3317.426
451.773, 3296.234
452.255, 3280.245
452.737, 3269.308
453.219, 3263.918
453.701, 3267.613
454.183, 3279.790
454.665, 3283.002
455.147, 3276.125
455.630, 3264.745
456.112, 3253.978
456.594, 3244.043
457.076, 3234.933
457.558, 3223.375
458.040, 3215.818
458.522, 3229.359
459.004, 3260.396
459.487, 3283.802
459.969, 3271.803
460.451, 3247.507
460.933, 3240.152
461.415, 3258.950
461.897, 3280.824
462.379, 3293.634
462.861, 3299.542
463.343, 3302.340
463.826, 3296.181
464.308, 3293.656
464.790, 3304.099
465.272, 3327.984
465.754, 3343.705
466.236, 3337.995
466.718, 3328.294
467.200, 3326.208
467.682, 3337.397
468.165, 3349.731
468.647, 3363.698
469.129, 3378.628
469.611, 3393.021
470.093, 3407.648
470.575, 3420.164
471.057, 3428.702
471.539, 3432.643
472.022, 3441.175
472.504, 3455.247
472.986, 3471.503
473.468, 3487.365
473.950, 3502.693
474.432, 3515.647
474.914, 3525.519
475.396, 3533.314
475.878, 3541.328
476.361, 3549.467
476.843, 3556.159
477.325, 3559.061
477.807, 3560.391
478.289, 3564.425
478.771, 3571.933
479.253, 3578.930
479.735, 3581.618
480.217, 3581.781
480.700, 3582.075
481.182, 3582.781
481.664, 3584.432
482.146, 3589.547
482.628, 3596.553
483.110, 3598.483
483.592, 3590.532
484.074, 3578.285
484.556, 3563.814
485.039, 3544.099
485.521, 3529.269
486.003, 3524.011
486.485, 3522.456
486.967, 3517.366
487.449, 3507.394
487.931, 3496.411
488.414, 3486.590
488.896, 3477.254
489.378, 3460.505
489.860, 3435.848
490.342, 3405.183
490.824, 3367.491
491.306, 3322.270
491.788, 3280.192
492.270, 3241.307
492.753, 3206.702
493.235, 3181.780
493.717, 3164.660
494.199, 3139.214
494.681, 3091.689
495.163, 3035.401
495.645, 2993.014
496.127, 2963.893
496.609, 2936.512
497.092, 2900.544
497.574, 2863.274
498.056, 2834.053
498.538, 2819.123
499.020, 2802.513
499.502, 2775.153
499.984, 2740.344
500.466, 2703.979
500.948, 2667.482
501.431, 2630.678
501.913, 2591.056
502.395, 2548.445
502.877, 2515.851
503.359, 2508.407
503.841, 2500.698
504.323, 2476.844
504.805, 2422.621
505.288, 2381.287
505.770, 2359.769
506.252, 2346.912
506.734, 2318.066
507.216, 2267.003
507.698, 2226.999
508.180, 2214.383
508.662, 2223.266
509.145, 2218.500
509.627, 2199.196
510.109, 2176.137
510.591, 2159.576
511.073, 2146.719
511.555, 2127.332
512.037, 2096.849
512.519, 2068.113
513.001, 2059.284
513.484, 2063.354
513.966, 2064.609
514.448, 2049.420
514.930, 2033.693
515.412, 2033.079
515.894, 2046.536
516.376, 2050.463
516.858, 2025.695
517.341, 1993.989
517.823, 1970.005
518.305, 1957.787
518.787, 1950.371
519.269, 1952.256
519.751, 1957.286
520.233, 1955.014
520.715, 1940.466
521.197, 1927.084
521.680, 1918.939
522.162, 1915.462
522.644, 1906.447
523.126, 1888.110
523.608, 1875.651
524.090, 1885.728
524.572, 1917.464
525.054, 1935.256
525.536, 1934.771
526.019, 1924.903
526.501, 1915.172
526.983, 1906.057
527.465, 1899.255
527.947, 1898.809
528.429, 1898.665
528.911, 1889.171
529.393, 1872.066
529.875, 1857.688
530.358, 1853.756
530.840, 1854.209
531.322, 1853.068
531.804, 1846.885
532.286, 1847.130
532.768, 1869.320
533.250, 1896.098
533.732, 1905.878
534.214, 1874.620
534.697, 1850.749
535.179, 1844.753
535.661, 1853.234
536.143, 1855.541
536.625, 1847.647
537.107, 1840.713
537.589, 1841.394
538.071, 1850.956
538.554, 1856.929
539.036, 1859.228
539.518, 1858.010
540.000, 1850.831
540.482, 1838.899
540.964, 1831.317
541.446, 1830.464
541.928, 1834.803
542.411, 1846.113
542.893, 1861.800
543.375, 1871.563
543.857, 1862.092
544.339, 1848.122
544.821, 1843.908
545.303, 1850.778
545.785, 1859.518
546.268, 1869.433
546.750, 1877.135
547.232, 1879.617
547.714, 1872.780
548.196, 1865.116
548.678, 1855.249
549.160, 1845.543
549.642, 1841.542
550.124, 1848.560
550.606, 1853.055
551.089, 1849.095
551.571, 1837.078
552.053, 1836.456
552.535, 1851.072
553.017, 1865.435
553.499, 1866.219
553.981, 1854.444
554.463, 1843.693
554.945, 1834.885
555.428, 1828.810
555.910, 1828.328
556.392, 1831.772
556.874, 1834.002
557.356, 1829.055
557.838, 1825.225
558.320, 1834.280
558.802, 1853.211
559.284, 1866.991
559.767, 1862.852
560.249, 1854.983
560.731, 1852.988
561.213, 1860.034
561.695, 1865.171
562.177, 1860.613
562.659, 1856.093
563.141, 1861.912
563.624, 1891.248
564.106, 1908.779
564.588, 1908.027
565.070, 1894.362
565.552, 1880.643
566.034, 1864.820
566.516, 1857.148
566.998, 1866.581
567.481, 1889.186
567.963, 1897.934
568.445, 1892.093
568.927, 1884.503
569.409, 1887.648
569.891, 1897.071
570.373, 1902.972
570.855, 1902.771
571.338, 1901.378
571.820, 1904.838
572.302, 1909.752
572.784, 1910.268
573.266, 1892.472
573.748, 1881.109
574.230, 1891.034
574.712, 1919.257
575.194, 1942.697
575.677, 1952.827
576.159, 1961.501
576.641, 1973.938
577.123, 1992.108
577.605, 2006.905
578.087, 2017.842
578.569, 2026.177
579.051, 2032.555
579.533, 2036.756
580.016, 2041.305
580.498, 2046.499
580.980, 2052.417
581.462, 2059.325
581.944, 2067.113
582.426, 2075.385
582.908, 2083.094
583.390, 2091.470
583.872, 2102.494
584.355, 2116.006
584.837, 2130.483
585.319, 2142.997
585.801, 2157.418
586.283, 2178.380
586.765, 2210.758
587.247, 2238.112
587.729, 2253.216
588.211, 2262.397
588.694, 2273.011
589.176, 2281.540
589.658, 2297.405
590.140, 2324.104
590.622, 2358.535
591.104, 2391.452
591.586, 2423.362
592.068, 2450.468
592.551, 2465.045
593.033, 2471.502
593.515, 2503.786
593.997, 2563.674
594.479, 2625.627
594.961, 2668.746
595.443, 2698.202
595.925, 2722.116
596.407, 2740.444
596.890, 2758.983
597.372, 2783.634
597.854, 2810.982
598.336, 2835.820
598.818, 2850.174
599.300, 2868.221
599.782, 2899.021
600.265, 2939.079
600.747, 2970.688
601.229, 2988.521
601.711, 3002.050
602.193, 3014.414
602.675, 3025.767
603.157, 3034.258
603.639, 3041.670
604.121, 3042.174
604.604, 3024.850
605.086, 2991.058
605.568, 2973.236
606.050, 2977.910
606.532, 2990.421
607.014, 2990.851
607.496, 2983.187
607.978, 2978.313
608.460, 2984.912
608.943, 2991.740
609.425, 2990.822
609.907, 2982.571
610.389, 2968.459
610.871, 2941.604
611.353, 2915.422
611.835, 2898.642
612.317, 2894.348
612.799, 2881.804
613.282, 2852.372
613.764, 2821.869
614.246, 2802.085
614.728, 2798.154
615.210, 2787.188
615.692, 2767.288
616.174, 2741.750
616.656, 2716.564
617.138, 2691.413
617.621, 2660.149
618.103, 2615.572
618.585, 2569.653
619.067, 2544.296
619.549, 2534.835
620.031, 2522.975
620.513, 2494.608
620.995, 2462.271
621.477, 2436.968
621.960, 2419.189
622.442, 2398.221
622.924, 2357.952
623.406, 2321.770
623.888, 2305.912
624.370, 2326.175
624.852, 2337.938
625.334, 2340.978
625.817, 2335.649
626.299, 2319.278
626.781, 2287.844
627.263, 2266.971
627.745, 2264.906
628.227, 2271.733
628.709, 2262.281
629.191, 2238.973
629.674, 2222.858
630.156, 2233.188
630.638, 2252.520
631.120, 2256.615
631.602, 2247.084
632.084, 2237.480
632.566, 2233.305
633.048, 2233.674
633.531, 2238.831
634.013, 2250.058
634.495, 2260.818
634.977, 2269.537
635.459, 2277.508
635.941, 2286.089
636.423, 2297.734
636.905, 2304.049
637.387, 2301.460
637.870, 2296.038
638.352, 2300.349
638.834, 2314.861
639.316, 2328.923
639.798, 2338.725
640.280, 2346.268
640.762, 2357.634
641.244, 2371.581
641.726, 2380.224
642.209, 2371.532
642.691, 2360.076
643.173, 2359.700
643.655, 2371.451
644.137, 2387.223
644.619, 2411.267
645.101, 2433.321
645.583, 2446.633
646.065, 2452.179
646.548, 2443.689
647.030, 2408.382
647.512, 2369.554
647.994, 2359.776
648.476, 2387.579
648.958, 2404.000
649.440, 2401.328
