##NAMES=Orthoclase
##RRUFFID=R040055
##IDEAL CHEMISTRY=KAlSi_3_O_8_
##LOCALITY=Madagascar
##OWNER=RRUFF
##SOURCE=Bob Downs
##DESCRIPTION=Pale yellow fragments
##STATUS=The identification of this mineral has been confirmed by X-ray diffraction and chemical analysis
##URL=rruff.info/R040055
##MEASURED CHEMISTRY=K_0.96_(Al_0.96_Si_0.03_Fe_0.02_)Si_3.00_O_8_; = light material. (K_0.90_Na_0.02_)(Al_0.91_Si_0.08_Fe_0.02_)Si_3.00_O_8_ = dark
120.5579, 718.5219
121.0401, 739.0848
121.5222, 764.6745
122.0043, 796.6140
122.4864, 825.8666
122.9685, 845.8210
123.4506, 858.1336
123.9328, 866.4854
124.4149, 869.0106
124.8970, 869.9207
125.3791, 875.2694
125.8612, 887.1796
126.3433, 900.8448
126.8255, 910.7839
127.3076, 917.4485
127.7897, 923.5431
128.2718, 932.1693
128.7539, 941.8521
129.2360, 948.5992
129.7182, 951.2472
130.2003, 950.5416
130.6824, 947.0741
131.1645, 940.6689
131.6466, 934.1727
132.1287, 929.6743
132.6109, 927.2216
133.0930, 927.4872
133.5751, 931.0645
134.0572, 937.6932
134.5393, 945.4148
135.0215, 954.0760
135.5036, 964.3848
135.9857, 976.2007
136.4678, 988.9797
136.9499, 1008.016
137.4320, 1037.756
137.9142, 1079.626
138.3963, 1120.460
138.8784, 1161.240
139.3605, 1199.952
139.8426, 1227.833
140.3247, 1239.710
140.8069, 1254.104
141.2890, 1282.036
141.7711, 1327.088
142.2532, 1376.108
142.7353, 1428.754
143.2174, 1485.160
143.6996, 1544.035
144.1817, 1605.910
144.6638, 1670.083
145.1459, 1737.149
145.6280, 1807.616
146.1101, 1879.389
146.5923, 1952.533
147.0744, 2027.781
147.5565, 2096.332
148.0386, 2153.763
148.5207, 2206.282
149.0028, 2260.091
149.4850, 2318.024
149.9671, 2375.361
150.4492, 2431.536
150.9313, 2490.691
151.4134, 2540.857
151.8955, 2586.716
152.3777, 2623.619
152.8598, 2642.364
153.3419, 2639.208
153.8240, 2620.940
154.3061, 2589.217
154.7882, 2541.087
155.2704, 2485.133
155.7525, 2418.853
156.2346, 2344.402
156.7167, 2270.422
157.1988, 2196.769
157.6809, 2124.915
158.1631, 2055.641
158.6452, 1988.782
159.1273, 1924.555
159.6094, 1857.879
160.0915, 1790.801
160.5736, 1738.911
161.0558, 1716.810
161.5379, 1708.077
162.0200, 1698.556
162.5021, 1681.239
162.9842, 1664.695
163.4663, 1653.068
163.9485, 1646.565
164.4306, 1641.577
164.9127, 1635.091
165.3948, 1629.482
165.8769, 1627.817
166.3591, 1638.093
166.8412, 1648.309
167.3233, 1646.801
167.8054, 1629.717
168.2875, 1619.537
168.7696, 1635.153
169.2518, 1667.777
169.7339, 1700.359
170.2160, 1726.322
170.6981, 1747.396
171.1802, 1765.624
171.6623, 1781.272
172.1445, 1793.604
172.6266, 1801.405
173.1087, 1805.169
173.5908, 1806.484
174.0729, 1807.676
174.5550, 1806.567
175.0372, 1800.060
175.5193, 1786.789
176.0014, 1768.959
176.4835, 1748.013
176.9656, 1724.098
177.4477, 1698.147
177.9299, 1672.152
178.4120, 1644.619
178.8941, 1612.704
179.3762, 1573.172
179.8583, 1530.741
180.3404, 1492.031
180.8226, 1456.872
181.3047, 1426.141
181.7868, 1403.011
182.2689, 1385.539
182.7510, 1368.194
183.2331, 1347.329
183.7153, 1325.818
184.1974, 1311.454
184.6795, 1305.126
185.1616, 1298.427
185.6437, 1278.401
186.1258, 1247.770
186.6080, 1223.439
187.0901, 1216.914
187.5722, 1222.922
188.0543, 1220.867
188.5364, 1209.028
189.0185, 1195.012
189.5007, 1190.659
189.9828, 1195.396
190.4649, 1198.041
190.9470, 1189.717
191.4291, 1173.009
191.9112, 1157.567
192.3934, 1159.670
192.8755, 1158.190
193.3576, 1153.318
193.8397, 1134.898
194.3218, 1133.973
194.8039, 1126.037
195.2861, 1117.812
195.7682, 1119.350
196.2503, 1102.900
196.7324, 1104.283
197.2145, 1098.548
197.6967, 1096.069
198.1788, 1086.537
198.6609, 1079.184
199.1430, 1078.887
199.6251, 1074.684
200.1072, 1064.339
200.5894, 1061.470
201.0715, 1057.265
201.5536, 1046.302
202.0357, 1035.122
202.5178, 1029.484
202.9999, 1030.202
203.4821, 1030.219
203.9642, 1028.356
204.4463, 1024.782
204.9284, 1019.664
205.4105, 1011.640
205.8926, 1005.368
206.3748, 1006.449
206.8569, 1016.949
207.3390, 1025.313
207.8211, 1029.090
208.3032, 1028.517
208.7853, 1025.429
209.2675, 1018.497
209.7496, 1011.556
210.2317, 1009.763
210.7138, 1015.416
211.1959, 1018.329
211.6780, 1014.230
212.1602, 1002.930
212.6423, 998.9600
213.1244, 1005.319
213.6065, 1015.054
214.0886, 1019.001
214.5707, 1015.031
215.0529, 1010.746
215.5350, 1008.016
216.0171, 1006.831
216.4992, 1007.337
216.9813, 1010.096
217.4634, 1013.934
217.9456, 1017.264
218.4277, 1020.539
218.9098, 1022.308
219.3919, 1021.929
219.8740, 1019.094
220.3561, 1015.702
220.8383, 1012.044
221.3204, 1007.640
221.8025, 1000.465
222.2846, 986.0370
222.7667, 977.3448
223.2488, 980.7487
223.7310, 1001.155
224.2131, 1017.456
224.6952, 1029.288
225.1773, 1037.114
225.6594, 1041.024
226.1415, 1038.430
226.6237, 1036.274
227.1058, 1038.246
227.5879, 1048.308
228.0700, 1052.274
228.5521, 1047.419
229.0343, 1037.224
229.5164, 1030.422
229.9985, 1026.304
230.4806, 1026.746
230.9627, 1033.847
231.4448, 1053.167
231.9270, 1066.532
232.4091, 1072.720
232.8912, 1072.801
233.3733, 1069.645
233.8554, 1060.260
234.3375, 1051.787
234.8197, 1048.042
235.3018, 1050.806
235.7839, 1054.583
236.2660, 1059.709
236.7481, 1065.677
237.2302, 1069.969
237.7124, 1070.188
238.1945, 1071.971
238.6766, 1079.374
239.1587, 1097.803
239.6408, 1110.534
240.1229, 1114.857
240.6051, 1112.379
241.0872, 1110.432
241.5693, 1108.429
242.0514, 1107.689
242.5335, 1109.013
243.0156, 1112.746
243.4978, 1117.653
243.9799, 1122.517
244.4620, 1128.071
244.9441, 1139.730
245.4262, 1160.561
245.9083, 1183.569
246.3905, 1205.432
246.8726, 1229.338
247.3547, 1244.769
247.8368, 1247.349
248.3189, 1239.423
248.8010, 1237.162
249.2832, 1240.915
249.7653, 1249.942
250.2474, 1264.575
250.7295, 1287.683
251.2116, 1309.991
251.6937, 1331.524
252.1759, 1351.752
252.6580, 1366.785
253.1401, 1372.900
253.6222, 1378.821
254.1043, 1390.995
254.5864, 1411.657
255.0686, 1433.777
255.5507, 1457.456
256.0328, 1482.326
256.5149, 1502.667
256.9970, 1515.366
257.4792, 1527.859
257.9613, 1546.618
258.4434, 1574.931
258.9255, 1600.273
259.4076, 1619.901
259.8897, 1634.553
260.3719, 1651.505
260.8540, 1670.871
261.3361, 1692.213
261.8182, 1715.723
262.3003, 1743.469
262.7824, 1767.431
263.2646, 1784.606
263.7467, 1796.361
264.2288, 1813.231
264.7109, 1837.998
265.1930, 1862.832
265.6751, 1880.478
266.1573, 1887.311
266.6394, 1899.550
267.1215, 1921.944
267.6036, 1952.160
268.0857, 1975.506
268.5678, 1988.820
269.0500, 2001.178
269.5321, 2020.649
270.0142, 2049.104
270.4963, 2075.712
270.9784, 2098.007
271.4605, 2117.007
271.9427, 2137.758
272.4248, 2160.119
272.9069, 2184.660
273.3890, 2212.258
273.8711, 2243.687
274.3532, 2274.914
274.8354, 2304.907
275.3175, 2334.263
275.7996, 2367.837
276.2817, 2409.061
276.7638, 2444.585
277.2459, 2460.549
277.7281, 2454.587
278.2102, 2456.577
278.6923, 2475.294
279.1744, 2503.534
279.6565, 2512.759
280.1386, 2499.860
280.6208, 2481.785
281.1029, 2473.676
281.5850, 2475.816
282.0671, 2467.408
282.5492, 2443.223
283.0313, 2408.028
283.5135, 2375.921
283.9956, 2347.765
284.4777, 2315.950
284.9598, 2271.670
285.4419, 2216.030
285.9240, 2168.020
286.4062, 2133.278
286.8883, 2104.678
287.3704, 2063.633
287.8525, 2009.558
288.3346, 1955.864
288.8167, 1915.212
289.2989, 1884.908
289.7810, 1851.631
290.2631, 1812.790
290.7452, 1771.163
291.2273, 1730.469
291.7094, 1691.142
292.1916, 1655.217
292.6737, 1626.364
293.1558, 1602.604
293.6379, 1577.744
294.1200, 1550.353
294.6021, 1522.629
295.0843, 1498.135
295.5664, 1476.790
296.0485, 1456.062
296.5306, 1434.915
297.0127, 1413.452
297.4948, 1389.559
297.9770, 1361.236
298.4591, 1335.280
298.9412, 1321.986
299.4233, 1319.100
299.9054, 1316.709
300.3875, 1308.387
300.8697, 1296.899
301.3518, 1286.916
301.8339, 1279.376
302.3160, 1271.790
302.7981, 1262.129
303.2803, 1250.391
303.7624, 1236.983
304.2445, 1216.577
304.7266, 1196.911
305.2087, 1188.828
305.6909, 1195.104
306.1730, 1202.824
306.6551, 1200.500
307.1372, 1191.602
307.6193, 1183.096
308.1014, 1179.585
308.5836, 1177.368
309.0657, 1172.950
309.5478, 1165.958
310.0299, 1158.598
310.5120, 1151.364
310.9941, 1144.973
311.4763, 1140.430
311.9584, 1140.479
312.4405, 1140.900
312.9226, 1138.325
313.4047, 1132.432
313.8868, 1127.400
314.3690, 1126.844
314.8511, 1127.899
315.3332, 1127.248
315.8153, 1120.138
316.2974, 1114.139
316.7795, 1115.102
317.2617, 1122.891
317.7438, 1126.500
318.2259, 1117.132
318.7080, 1103.873
319.1901, 1094.893
319.6722, 1097.699
320.1544, 1099.796
320.6365, 1093.403
321.1186, 1080.068
321.6007, 1076.368
322.0828, 1098.684
322.5649, 1124.774
323.0471, 1139.436
323.5292, 1125.014
324.0113, 1115.592
324.4934, 1122.692
324.9755, 1142.204
325.4576, 1149.931
325.9398, 1129.784
326.4219, 1106.826
326.9040, 1093.667
327.3861, 1103.496
327.8682, 1108.159
328.3503, 1101.933
328.8325, 1089.480
329.3146, 1086.336
329.7967, 1104.080
330.2788, 1119.833
330.7609, 1123.733
331.2430, 1107.203
331.7252, 1095.694
332.2073, 1090.907
332.6894, 1090.697
333.1715, 1090.551
333.6536, 1090.674
334.1357, 1090.572
334.6179, 1090.008
335.1000, 1088.810
335.5821, 1087.516
336.0642, 1085.005
336.5463, 1083.394
337.0284, 1087.627
337.5106, 1101.367
337.9927, 1109.922
338.4748, 1106.842
338.9569, 1091.669
339.4390, 1079.818
339.9211, 1071.908
340.4033, 1066.283
340.8854, 1059.666
341.3675, 1051.056
341.8496, 1050.115
342.3317, 1062.873
342.8138, 1085.814
343.2960, 1100.841
343.7781, 1107.673
344.2602, 1107.622
344.7423, 1097.752
345.2244, 1079.261
345.7065, 1067.153
346.1887, 1066.056
346.6708, 1072.511
347.1529, 1079.400
347.6350, 1086.661
348.1171, 1093.676
348.5992, 1098.990
349.0814, 1103.436
349.5635, 1110.805
350.0456, 1124.226
350.5277, 1136.252
351.0098, 1133.150
351.4919, 1117.572
351.9741, 1103.958
352.4562, 1102.540
352.9383, 1108.610
353.4204, 1115.749
353.9025, 1123.500
354.3846, 1130.875
354.8668, 1137.222
355.3489, 1142.581
355.8310, 1146.842
356.3131, 1150.821
356.7952, 1153.212
357.2773, 1153.105
357.7595, 1150.479
358.2416, 1144.938
358.7237, 1130.677
359.2058, 1114.512
359.6879, 1106.233
360.1700, 1113.983
360.6522, 1126.950
361.1343, 1143.916
361.6164, 1164.685
362.0985, 1175.243
362.5806, 1159.275
363.0627, 1135.832
363.5449, 1121.698
364.0270, 1128.828
364.5091, 1137.666
364.9912, 1144.907
365.4734, 1150.280
365.9555, 1151.943
366.4376, 1149.917
366.9197, 1143.918
367.4018, 1133.747
367.8839, 1109.585
368.3661, 1093.294
368.8482, 1088.670
369.3303, 1092.601
369.8124, 1096.715
370.2945, 1103.196
370.7766, 1107.485
371.2588, 1107.359
371.7409, 1100.184
372.2230, 1095.231
372.7051, 1092.165
373.1872, 1091.545
373.6693, 1095.140
374.1515, 1105.361
374.6336, 1114.334
375.1157, 1120.631
375.5978, 1124.385
376.0799, 1119.572
376.5620, 1102.129
377.0442, 1083.575
377.5263, 1078.108
378.0084, 1087.598
378.4905, 1094.199
378.9726, 1091.889
379.4547, 1083.761
379.9369, 1083.766
380.4190, 1093.010
380.9011, 1102.456
381.3832, 1104.552
381.8653, 1100.140
382.3474, 1093.336
382.8296, 1082.524
383.3117, 1073.306
383.7938, 1077.129
384.2759, 1092.844
384.7580, 1109.895
385.2401, 1123.779
385.7223, 1134.312
386.2044, 1140.377
386.6865, 1141.068
387.1686, 1140.859
387.6507, 1144.130
388.1328, 1149.982
388.6150, 1156.186
389.0971, 1161.839
389.5792, 1167.351
390.0613, 1173.156
390.5434, 1179.306
391.0255, 1185.156
391.5077, 1191.527
391.9898, 1197.087
392.4719, 1200.336
392.9540, 1193.641
393.4361, 1191.208
393.9182, 1201.913
394.4004, 1223.900
394.8825, 1244.224
395.3646, 1257.806
395.8467, 1268.903
396.3288, 1280.008
396.8109, 1288.538
397.2931, 1301.031
397.7752, 1323.810
398.2573, 1351.443
398.7394, 1369.957
399.2215, 1371.243
399.7036, 1369.644
400.1858, 1368.938
400.6679, 1368.100
401.1500, 1371.591
401.6321, 1382.039
402.1142, 1395.161
402.5963, 1405.760
403.0785, 1414.250
403.5606, 1419.479
404.0427, 1421.483
404.5248, 1420.200
405.0069, 1413.698
405.4890, 1400.474
405.9712, 1385.357
406.4533, 1372.797
406.9354, 1363.162
407.4175, 1352.018
407.8996, 1338.581
408.3817, 1323.115
408.8639, 1305.033
409.3460, 1283.958
409.8281, 1266.030
410.3102, 1257.150
410.7923, 1254.927
411.2744, 1249.670
411.7566, 1240.303
412.2387, 1228.839
412.7208, 1217.430
413.2029, 1206.080
413.6850, 1194.611
414.1671, 1179.959
414.6493, 1166.572
415.1314, 1162.072
415.6135, 1166.521
416.0956, 1170.116
416.5777, 1165.252
417.0598, 1155.355
417.5420, 1144.239
418.0241, 1127.368
418.5062, 1105.902
418.9883, 1112.969
419.4704, 1116.452
419.9525, 1116.543
420.4347, 1103.085
420.9168, 1107.123
421.3989, 1104.150
421.8810, 1100.889
422.3631, 1113.442
422.8452, 1123.967
423.3274, 1136.445
423.8095, 1145.131
424.2916, 1145.212
424.7737, 1145.439
425.2558, 1148.240
425.7379, 1153.980
426.2201, 1159.104
426.7022, 1163.902
427.1843, 1167.755
427.6664, 1169.420
428.1486, 1165.756
428.6307, 1167.406
429.1128, 1177.859
429.5949, 1194.266
430.0770, 1205.058
430.5591, 1208.969
431.0413, 1210.952
431.5234, 1212.964
432.0055, 1214.942
432.4876, 1219.850
432.9697, 1228.047
433.4518, 1238.562
433.9340, 1249.693
434.4161, 1261.588
434.8982, 1275.787
435.3803, 1295.200
435.8624, 1316.758
436.3445, 1332.310
436.8267, 1341.593
437.3088, 1351.973
437.7909, 1371.108
438.2730, 1395.431
438.7551, 1418.288
439.2372, 1436.059
439.7194, 1454.568
440.2015, 1479.154
440.6836, 1508.767
441.1657, 1539.279
441.6478, 1569.661
442.1299, 1599.769
442.6121, 1628.987
443.0942, 1656.531
443.5763, 1686.074
444.0584, 1721.891
444.5405, 1759.482
445.0226, 1793.791
445.5048, 1820.158
445.9869, 1846.345
446.4690, 1874.594
446.9511, 1904.990
447.4332, 1934.213
447.9153, 1961.025
448.3975, 1987.301
448.8796, 2014.233
449.3617, 2040.805
449.8438, 2070.332
450.3259, 2107.626
450.8080, 2145.878
451.2902, 2166.191
451.7723, 2163.072
452.2544, 2159.005
452.7365, 2164.224
453.2186, 2178.515
453.7007, 2187.087
454.1829, 2189.621
454.6650, 2187.871
455.1471, 2181.901
455.6292, 2172.359
456.1113, 2165.625
456.5934, 2165.181
457.0756, 2166.493
457.5577, 2158.894
458.0398, 2143.967
458.5219, 2132.773
459.0040, 2133.670
459.4861, 2142.760
459.9683, 2155.589
460.4504, 2172.784
460.9325, 2189.035
461.4146, 2196.736
461.8967, 2201.406
462.3788, 2211.890
462.8610, 2238.220
463.3431, 2265.767
463.8252, 2284.176
464.3073, 2294.030
464.7894, 2311.556
465.2715, 2346.143
465.7537, 2387.144
466.2358, 2427.326
466.7179, 2463.448
467.2000, 2501.611
467.6821, 2543.448
468.1642, 2587.411
468.6464, 2632.094
469.1285, 2681.347
469.6106, 2725.291
470.0927, 2760.709
470.5748, 2786.807
471.0569, 2809.193
471.5391, 2824.787
472.0212, 2842.308
472.5033, 2878.139
472.9854, 2935.713
473.4675, 2964.410
473.9496, 2948.186
474.4318, 2904.024
474.9139, 2872.933
475.3960, 2854.455
475.8781, 2831.089
476.3602, 2788.909
476.8423, 2734.685
477.3245, 2685.803
477.8066, 2644.660
478.2887, 2599.411
478.7708, 2532.312
479.2529, 2453.592
479.7350, 2382.997
480.2172, 2327.448
480.6993, 2282.085
481.1814, 2247.387
481.6635, 2221.131
482.1456, 2192.526
482.6277, 2150.563
483.1099, 2108.848
483.5920, 2076.477
484.0741, 2059.672
484.5562, 2042.513
485.0383, 2022.330
485.5204, 2000.267
486.0026, 1977.681
486.4847, 1947.761
486.9668, 1926.459
487.4489, 1919.130
487.9310, 1925.126
488.4131, 1929.523
488.8953, 1931.307
489.3774, 1933.457
489.8595, 1937.052
490.3416, 1941.509
490.8238, 1952.545
491.3059, 1971.918
491.7880, 1996.016
492.2701, 2014.826
492.7522, 2029.204
493.2343, 2053.330
493.7165, 2095.825
494.1986, 2151.875
494.6807, 2209.663
495.1628, 2269.912
495.6449, 2332.635
496.1270, 2396.497
496.6092, 2464.374
497.0913, 2541.519
497.5734, 2627.871
498.0555, 2724.986
498.5376, 2839.390
499.0197, 2965.879
499.5019, 3094.463
499.9840, 3213.352
500.4661, 3339.869
500.9482, 3483.500
501.4303, 3644.113
501.9124, 3815.370
502.3946, 4003.996
502.8767, 4196.741
503.3588, 4383.744
503.8409, 4554.205
504.3230, 4734.750
504.8051, 4926.387
505.2873, 5129.168
505.7694, 5340.291
506.2515, 5563.569
506.7336, 5785.165
507.2157, 6000.796
507.6978, 6210.467
508.1800, 6414.442
508.6621, 6613.233
509.1442, 6804.372
509.6263, 6995.090
510.1084, 7179.694
510.5905, 7327.961
511.0727, 7436.865
511.5548, 7504.958
512.0369, 7540.572
512.5190, 7537.960
513.0011, 7477.169
513.4832, 7334.272
513.9653, 7136.145
514.4474, 6901.542
514.9296, 6630.258
515.4117, 6338.109
515.8938, 6017.424
516.3759, 5684.914
516.8580, 5354.641
517.3401, 5011.272
517.8223, 4694.477
518.3044, 4417.352
518.7865, 4173.208
519.2687, 3941.669
519.7508, 3716.267
520.2329, 3507.392
520.7150, 3318.976
521.1971, 3151.801
521.6793, 2995.802
522.1614, 2853.012
522.6435, 2720.777
523.1256, 2595.340
523.6077, 2476.431
524.0898, 2375.874
524.5720, 2296.785
525.0541, 2232.428
525.5362, 2170.845
526.0183, 2112.872
526.5004, 2061.366
526.9825, 2023.257
527.4647, 1990.924
527.9468, 1948.632
528.4289, 1896.403
528.9110, 1843.996
529.3931, 1790.904
529.8752, 1744.002
530.3574, 1714.105
530.8395, 1713.421
531.3216, 1708.696
531.8037, 1677.947
532.2858, 1633.913
532.7679, 1598.490
533.2501, 1582.806
533.7322, 1571.129
534.2143, 1559.475
534.6964, 1547.570
535.1785, 1537.700
535.6606, 1531.344
536.1428, 1525.177
536.6249, 1517.594
537.1070, 1509.396
537.5891, 1496.468
538.0712, 1476.762
538.5533, 1454.755
539.0355, 1437.133
539.5176, 1423.903
539.9997, 1413.663
540.4818, 1406.347
540.9639, 1401.332
541.4460, 1398.840
541.9282, 1398.392
542.4103, 1394.681
542.8924, 1378.641
543.3745, 1359.183
543.8566, 1349.972
544.3387, 1354.671
544.8209, 1359.191
545.3030, 1352.524
545.7851, 1340.738
546.2672, 1331.603
546.7493, 1329.571
547.2314, 1328.535
547.7136, 1329.836
548.1957, 1331.800
548.6778, 1325.658
549.1599, 1298.725
549.6420, 1276.001
550.1241, 1268.619
550.6063, 1281.403
551.0884, 1283.951
551.5705, 1271.077
552.0526, 1256.438
552.5347, 1255.898
553.0168, 1270.706
553.4990, 1282.799
553.9811, 1290.074
554.4632, 1291.567
554.9453, 1281.167
555.4274, 1260.921
555.9095, 1245.099
556.3917, 1243.676
556.8738, 1250.150
557.3559, 1257.162
557.8380, 1264.305
558.3201, 1268.029
558.8022, 1262.672
559.2844, 1254.382
559.7665, 1249.100
560.2486, 1249.546
560.7307, 1250.195
561.2128, 1247.675
561.6949, 1244.538
562.1771, 1244.986
562.6592, 1255.279
563.1413, 1262.768
563.6234, 1264.818
564.1055, 1261.806
564.5876, 1257.472
565.0698, 1251.201
565.5519, 1244.794
566.0340, 1238.649
566.5161, 1232.676
566.9982, 1229.706
567.4803, 1230.067
567.9625, 1232.394
568.4446, 1234.682
568.9267, 1237.391
569.4088, 1242.994
569.8909, 1255.136
570.3730, 1266.388
570.8552, 1266.482
571.3373, 1258.110
571.8194, 1249.805
572.3015, 1243.372
572.7836, 1240.649
573.2657, 1245.674
573.7479, 1259.271
574.2300, 1267.397
574.7121, 1260.271
575.1942, 1249.790
575.6763, 1244.593
576.1584, 1250.602
576.6406, 1253.802
577.1227, 1251.026
577.6048, 1247.254
578.0869, 1253.582
578.5690, 1275.623
579.0511, 1287.170
579.5333, 1277.023
580.0154, 1252.074
580.4975, 1241.352
580.9796, 1245.193
581.4617, 1250.523
581.9438, 1246.578
582.4260, 1237.858
582.9081, 1234.742
583.3902, 1238.317
583.8723, 1243.687
584.3544, 1247.479
584.8365, 1250.288
585.3187, 1253.087
585.8008, 1258.598
586.2829, 1260.822
586.7650, 1252.213
587.2471, 1238.707
587.7292, 1233.662
588.2114, 1250.624
588.6935, 1265.103
589.1756, 1269.275
589.6577, 1263.028
590.1398, 1259.721
590.6219, 1260.392
591.1041, 1262.109
591.5862, 1262.523
592.0683, 1261.388
592.5504, 1264.427
593.0325, 1273.824
593.5146, 1281.341
593.9968, 1272.199
594.4789, 1250.840
594.9610, 1234.684
595.4431, 1229.331
595.9252, 1231.231
596.4073, 1240.141
596.8895, 1253.539
597.3716, 1263.677
597.8537, 1264.580
598.3358, 1262.551
598.8179, 1260.374
599.3000, 1258.170
599.7822, 1258.050
600.2643, 1266.290
600.7464, 1272.564
601.2285, 1269.582
601.7106, 1247.846
602.1927, 1236.454
602.6749, 1239.540
603.1570, 1248.739
603.6391, 1251.444
604.1212, 1246.598
604.6033, 1243.278
605.0854, 1243.809
605.5676, 1247.151
606.0497, 1252.797
606.5318, 1260.125
607.0139, 1263.472
607.4960, 1253.873
607.9781, 1241.220
608.4603, 1240.692
608.9424, 1252.760
609.4245, 1262.448
609.9066, 1257.387
610.3887, 1248.063
610.8708, 1243.554
611.3530, 1248.182
611.8351, 1252.393
612.3172, 1254.902
612.7993, 1255.822
613.2814, 1254.991
613.7635, 1249.997
614.2457, 1248.330
614.7278, 1253.732
615.2099, 1262.571
615.6920, 1259.768
616.1741, 1243.053
