##NAMES=Orthoserpierite
##RRUFFID=R050292
##IDEAL CHEMISTRY=CaCu^2+^_4_(S^6+^O_4_)_2_(OH)_6_&#183;3H_2_O
##LOCALITY=Platosa mine, Bermijillo, Durango, Mexico
##OWNER=RRUFF
##SOURCE=Peter Megaw
##DESCRIPTION=Turquoise-blue bladed crystals
##STATUS=The identification of this mineral is confirmed by single-crystal X-ray diffraction and chemical analysis.
##URL=rruff.info/R050292
##MEASURED CHEMISTRY=Ca_1.00_(Cu_3.19_Zn_0.81_)_Σ=4_(S_1.00_O_4_)_2_(OH)_6_·3H_2_O
145.8685, 124.5745
146.3506, 125.9053
146.8327, 127.0754
147.3148, 127.6917
147.7969, 127.3878
148.2791, 127.3598
148.7612, 127.8748
149.2433, 128.6402
149.7254, 128.9778
150.2075, 128.2578
150.6896, 127.6612
151.1718, 127.6488
151.6539, 128.9536
152.1360, 129.7722
152.6181, 129.7602
153.1002, 129.1948
153.5823, 128.9019
154.0645, 129.2908
154.5466, 129.7041
155.0287, 129.8322
155.5108, 129.3231
155.9929, 128.9117
156.4750, 128.7036
156.9572, 128.6759
157.4393, 128.7519
157.9214, 129.1589
158.4035, 129.5164
158.8856, 129.5892
159.3677, 128.7254
159.8499, 128.1725
160.3320, 128.4337
160.8141, 129.3870
161.2962, 130.3204
161.7783, 131.0824
162.2604, 131.6674
162.7426, 132.0710
163.2247, 132.0376
163.7068, 132.0470
164.1889, 132.2815
164.6710, 132.7385
165.1531, 133.3862
165.6353, 134.5422
166.1174, 135.7680
166.5995, 136.5912
167.0816, 136.4265
167.5637, 136.1127
168.0458, 136.3014
168.5280, 136.9957
169.0101, 137.5026
169.4922, 137.2802
169.9743, 136.6126
170.4564, 135.8959
170.9385, 135.3205
171.4207, 134.7483
171.9028, 134.0030
172.3849, 133.0716
172.8670, 132.2033
173.3491, 131.6794
173.8312, 131.3481
174.3134, 130.9160
174.7955, 130.0520
175.2776, 129.1075
175.7597, 128.6051
176.2418, 128.6232
176.7239, 128.6140
177.2061, 127.8478
177.6882, 126.6043
178.1703, 125.6564
178.6524, 125.5333
179.1345, 125.8959
179.6166, 126.2444
180.0988, 126.5798
180.5809, 126.7649
181.0630, 126.4853
181.5451, 125.8626
182.0272, 125.3968
182.5093, 125.4972
182.9915, 125.9340
183.4736, 126.1193
183.9557, 125.9713
184.4378, 125.7271
184.9199, 125.7499
185.4020, 125.9966
185.8842, 126.1687
186.3663, 126.0037
186.8484, 125.6106
187.3305, 125.3550
187.8126, 125.2309
188.2947, 125.3310
188.7769, 125.9707
189.2590, 127.1198
189.7411, 128.1363
190.2232, 128.4759
190.7053, 128.2805
191.1874, 128.5435
191.6696, 129.4731
192.1517, 130.6516
192.6338, 131.2365
193.1159, 131.2060
193.5980, 131.1824
194.0801, 131.5680
194.5623, 132.3314
195.0444, 133.0853
195.5265, 133.8126
196.0086, 134.4807
196.4907, 134.9698
196.9728, 135.2529
197.4550, 135.5764
197.9371, 136.0829
198.4192, 136.7733
198.9013, 137.6188
199.3834, 138.7391
199.8655, 139.8848
200.3477, 140.2995
200.8298, 139.7986
201.3119, 139.4004
201.7940, 139.8434
202.2761, 141.2236
202.7582, 142.3564
203.2404, 143.0974
203.7225, 143.5613
204.2046, 144.0218
204.6867, 144.4499
205.1688, 144.9804
205.6509, 145.7720
206.1331, 146.9074
206.6152, 147.7583
207.0973, 148.1614
207.5794, 148.3037
208.0615, 148.7970
208.5436, 149.7492
209.0258, 150.7711
209.5079, 151.6010
209.9900, 152.1813
210.4721, 152.8269
210.9542, 153.5842
211.4363, 154.4146
211.9185, 155.1676
212.4006, 155.7825
212.8827, 156.4545
213.3648, 157.3701
213.8469, 158.7140
214.3290, 159.6342
214.8112, 159.9466
215.2933, 159.8127
215.7754, 159.8502
216.2575, 160.1958
216.7396, 160.4528
217.2217, 160.3487
217.7038, 159.7475
218.1860, 159.2096
218.6681, 158.8099
219.1502, 158.4975
219.6323, 158.1072
220.1144, 157.6843
220.5965, 157.1152
221.0787, 156.2540
221.5608, 154.8284
222.0429, 153.8825
222.5250, 153.6249
223.0071, 153.8799
223.4892, 153.9729
223.9714, 153.6944
224.4535, 153.5882
224.9356, 154.0516
225.4177, 155.5484
225.8998, 156.4574
226.3819, 156.4794
226.8641, 155.8882
227.3462, 155.6049
227.8283, 155.6398
228.3104, 155.9614
228.7925, 156.6081
229.2746, 157.8484
229.7568, 158.8230
230.2389, 159.4846
230.7210, 159.8716
231.2031, 160.0081
231.6852, 159.5184
232.1673, 159.3300
232.6495, 159.9555
233.1316, 161.8111
233.6137, 163.5719
234.0958, 165.2902
234.5779, 166.8613
235.0600, 167.8999
235.5422, 168.0286
236.0243, 168.1897
236.5064, 168.8560
236.9885, 170.4223
237.4706, 171.5919
237.9527, 172.1224
238.4349, 172.3067
238.9170, 172.8925
239.3991, 174.1234
239.8812, 175.3916
240.3633, 176.4571
240.8454, 177.2954
241.3276, 177.9807
241.8097, 178.4482
242.2918, 178.7776
242.7739, 179.1220
243.2560, 179.4233
243.7381, 179.8325
244.2203, 180.4707
244.7024, 181.5646
245.1845, 182.2316
245.6666, 182.3053
246.1487, 182.0318
246.6308, 181.8904
247.1130, 181.9876
247.5951, 182.0456
248.0772, 182.0164
248.5593, 181.9900
249.0414, 181.5186
249.5235, 180.3928
250.0057, 178.9531
250.4878, 177.7732
250.9699, 177.0912
251.4520, 176.2320
251.9341, 174.9156
252.4162, 172.9828
252.8984, 171.3944
253.3805, 170.4277
253.8626, 169.5798
254.3447, 168.0713
254.8268, 165.4642
255.3089, 163.0486
255.7911, 161.2519
256.2732, 160.1385
256.7553, 159.0599
257.2374, 158.1837
257.7195, 157.1712
258.2017, 155.4827
258.6838, 152.6150
259.1659, 150.2066
259.6480, 148.8099
260.1301, 148.4922
260.6122, 147.6498
261.0944, 146.0492
261.5765, 144.2066
262.0586, 142.6652
262.5407, 141.5194
263.0228, 140.4239
263.5049, 139.3097
263.9871, 138.1726
264.4692, 137.1335
264.9513, 136.1568
265.4334, 135.3210
265.9155, 134.7602
266.3976, 134.6405
266.8798, 134.2567
267.3619, 133.4200
267.8440, 132.1870
268.3261, 131.0493
268.8082, 129.9678
269.2903, 129.0648
269.7725, 128.5632
270.2546, 128.6320
270.7367, 128.3073
271.2188, 127.2751
271.7009, 125.7838
272.1830, 124.9289
272.6652, 124.8904
273.1473, 125.0125
273.6294, 124.8549
274.1115, 124.3759
274.5936, 123.8332
275.0757, 123.1792
275.5579, 122.5216
276.0400, 122.2248
276.5221, 122.3495
277.0042, 122.5857
277.4863, 122.7994
277.9684, 122.9989
278.4506, 123.0306
278.9327, 122.8347
279.4148, 122.5293
279.8969, 122.4172
280.3790, 122.5434
280.8611, 122.5516
281.3433, 122.0814
281.8254, 121.1400
282.3075, 120.8266
282.7896, 121.3160
283.2717, 122.1191
283.7538, 122.4697
284.2360, 122.3560
284.7181, 122.1139
285.2002, 121.8025
285.6823, 121.4489
286.1644, 121.3403
286.6465, 121.5200
287.1287, 121.7875
287.6108, 121.8274
288.0929, 121.6584
288.5750, 121.6415
289.0571, 122.0075
289.5392, 122.6361
290.0214, 123.0372
290.5035, 123.1958
290.9856, 123.2457
291.4677, 123.2359
291.9498, 123.1998
292.4319, 123.3652
292.9141, 123.9587
293.3962, 124.7142
293.8783, 124.9007
294.3604, 124.5095
294.8425, 124.1182
295.3246, 124.2436
295.8068, 124.7801
296.2889, 125.3941
296.7710, 126.0924
297.2531, 126.7381
297.7352, 127.0882
298.2173, 127.1566
298.6995, 127.0680
299.1816, 126.7594
299.6637, 126.3680
300.1458, 126.2225
300.6279, 126.4525
301.1100, 126.7817
301.5922, 126.8236
302.0743, 126.6455
302.5564, 126.5242
303.0385, 126.5574
303.5206, 126.7653
304.0027, 127.2574
304.4849, 128.1180
304.9670, 128.9468
305.4491, 129.3613
305.9312, 129.4414
306.4133, 129.3792
306.8954, 128.9800
307.3776, 128.6434
307.8597, 128.9500
308.3418, 130.0070
308.8239, 130.9091
309.3060, 130.6029
309.7881, 129.7638
310.2703, 129.4654
310.7524, 130.7018
311.2345, 132.2215
311.7166, 133.0387
312.1987, 133.1636
312.6808, 133.3694
313.1630, 134.1597
313.6451, 135.2367
314.1272, 136.2878
314.6093, 137.1748
315.0914, 138.0293
315.5735, 138.9707
316.0557, 139.9547
316.5378, 140.7515
317.0199, 141.0953
317.5020, 141.3097
317.9841, 141.6457
318.4662, 142.2747
318.9484, 142.8477
319.4305, 143.1391
319.9126, 143.2765
320.3947, 143.5938
320.8768, 144.4106
321.3589, 145.2639
321.8411, 145.8892
322.3232, 146.0847
322.8053, 146.4513
323.2874, 147.5015
323.7695, 148.7199
324.2516, 149.2895
324.7338, 148.3146
325.2159, 147.3820
325.6980, 147.0292
326.1801, 147.4273
326.6622, 147.7425
327.1443, 147.9668
327.6265, 148.0638
328.1086, 147.9921
328.5907, 147.3515
329.0728, 146.9976
329.5549, 147.1975
330.0370, 147.9605
330.5192, 148.4601
331.0013, 148.6702
331.4834, 148.6454
331.9655, 148.3925
332.4476, 147.6443
332.9297, 147.1346
333.4119, 147.0322
333.8940, 147.2273
334.3761, 147.2254
334.8582, 146.8991
335.3403, 146.5754
335.8224, 146.4859
336.3046, 146.8563
336.7867, 146.7345
337.2688, 145.9058
337.7509, 144.7233
338.2330, 143.8981
338.7151, 143.5259
339.1973, 143.2336
339.6794, 142.9121
340.1615, 142.5703
340.6436, 142.0635
341.1257, 141.3504
341.6078, 140.5816
342.0899, 139.9486
342.5721, 139.4717
343.0542, 139.0522
343.5363, 138.7954
344.0184, 138.5728
344.5005, 137.5961
344.9826, 135.7591
345.4648, 134.0068
345.9469, 133.3666
346.4290, 133.6917
346.9111, 133.8965
347.3932, 133.7523
347.8753, 133.4020
348.3575, 133.1289
348.8396, 132.9202
349.3217, 132.6347
349.8038, 132.0813
350.2859, 131.3838
350.7680, 130.9002
351.2502, 130.7313
351.7323, 130.5453
352.2144, 129.7449
352.6965, 128.5653
353.1786, 127.7420
353.6607, 127.9758
354.1429, 128.6166
354.6250, 128.8792
355.1071, 128.7265
355.5892, 128.3832
356.0713, 127.8461
356.5534, 127.2701
357.0356, 126.8855
357.5177, 126.9401
357.9998, 127.0784
358.4819, 127.0416
358.9640, 126.8574
359.4461, 126.6799
359.9283, 126.6553
360.4104, 126.6354
360.8925, 126.5005
361.3746, 126.2287
361.8567, 125.8264
362.3388, 125.0423
362.8210, 124.1244
363.3031, 123.6178
363.7852, 124.0770
364.2673, 124.6773
364.7494, 125.0128
365.2315, 124.9477
365.7137, 124.9616
366.1958, 125.2444
366.6779, 125.6206
367.1600, 125.8866
367.6421, 125.9493
368.1242, 125.9735
368.6064, 126.0496
369.0885, 126.1896
369.5706, 126.0656
370.0527, 125.2926
370.5348, 124.5540
371.0169, 124.3056
371.4991, 124.8813
371.9812, 125.3855
372.4633, 125.7269
372.9454, 125.9596
373.4275, 126.2716
373.9096, 126.7152
374.3918, 127.1541
374.8739, 127.4914
375.3560, 127.6739
375.8381, 128.0378
376.3202, 128.6618
376.8023, 129.3581
377.2845, 129.8091
377.7666, 129.9615
378.2487, 130.1358
378.7308, 130.4420
379.2129, 130.8599
379.6950, 131.1942
380.1772, 131.4172
380.6593, 131.7101
381.1414, 132.3166
381.6235, 133.1928
382.1056, 133.9787
382.5877, 134.5833
383.0699, 135.0748
383.5520, 135.5018
384.0341, 135.8870
384.5162, 136.4186
384.9983, 137.3986
385.4804, 138.5928
385.9626, 139.4602
386.4447, 139.9042
386.9268, 140.2537
387.4089, 140.7310
387.8910, 141.3678
388.3731, 142.2271
388.8553, 143.6305
389.3374, 145.0851
389.8195, 145.9564
390.3016, 146.2734
390.7837, 146.7785
391.2658, 148.1750
391.7480, 149.8890
392.2301, 151.2975
392.7122, 151.8970
393.1943, 152.6223
393.6764, 154.0174
394.1585, 155.9029
394.6407, 157.7361
395.1228, 159.3554
395.6049, 160.8704
396.0870, 162.2847
396.5691, 163.4680
397.0512, 164.9603
397.5334, 167.0821
398.0155, 169.5072
398.4976, 171.7978
398.9797, 173.7926
399.4618, 175.7919
399.9439, 177.7645
400.4261, 179.7089
400.9082, 181.9980
401.3903, 184.8162
401.8724, 187.7986
402.3545, 190.7300
402.8366, 193.5459
403.3188, 196.4020
403.8009, 199.4134
404.2830, 202.4223
404.7651, 204.9165
405.2472, 206.5914
405.7293, 208.5546
406.2115, 211.3517
406.6936, 214.9838
407.1757, 218.6214
407.6578, 222.3481
408.1399, 225.8818
408.6220, 228.7473
409.1042, 230.9672
409.5863, 233.5789
410.0684, 236.9978
410.5505, 240.8665
411.0326, 244.6223
411.5147, 248.2735
411.9969, 251.6054
412.4790, 254.2137
412.9611, 256.4492
413.4432, 259.2582
413.9253, 262.9759
414.4074, 266.5732
414.8896, 268.7450
415.3717, 269.9430
415.8538, 271.2087
416.3359, 273.2302
416.8180, 275.4071
417.3001, 277.3651
417.7823, 279.0929
418.2644, 280.1188
418.7465, 279.8590
419.2286, 278.9415
419.7107, 277.9731
420.1928, 277.1317
420.6750, 276.2148
421.1571, 275.2245
421.6392, 274.0992
422.1213, 272.7047
422.6034, 270.8212
423.0855, 268.8266
423.5677, 266.9815
424.0498, 265.5671
424.5319, 263.4034
425.0140, 259.8464
425.4961, 255.7467
425.9782, 251.9471
426.4604, 248.6088
426.9425, 245.3483
427.4246, 242.1592
427.9067, 239.0036
428.3888, 235.7857
428.8709, 232.4126
429.3531, 229.1530
429.8352, 226.1810
430.3173, 223.6455
430.7994, 220.7753
431.2815, 217.4124
431.7636, 213.9307
432.2458, 210.9849
432.7279, 208.5885
433.2100, 206.4569
433.6921, 204.4962
434.1742, 202.7119
434.6563, 201.2062
435.1385, 199.9630
435.6206, 198.8576
436.1027, 197.8617
436.5848, 196.9201
437.0669, 195.8358
437.5490, 194.4868
438.0312, 193.2000
438.5133, 192.2734
438.9954, 191.6909
439.4775, 191.4043
439.9596, 191.7551
440.4417, 192.1634
440.9239, 192.0634
441.4060, 191.4241
441.8881, 190.6822
442.3702, 189.9831
442.8523, 189.3589
443.3344, 188.8452
443.8166, 188.8464
444.2987, 188.4930
444.7808, 187.2097
445.2629, 185.3247
445.7450, 183.7918
446.2271, 183.1911
446.7093, 182.6709
447.1914, 181.8619
447.6735, 180.5647
448.1556, 179.5987
448.6377, 179.2054
449.1198, 178.9886
449.6020, 178.5358
450.0841, 177.7058
450.5662, 176.9539
451.0483, 176.3372
451.5304, 175.8502
452.0125, 175.5119
452.4947, 175.3741
452.9768, 175.2164
453.4589, 174.8124
453.9410, 174.1458
454.4231, 173.9376
454.9052, 174.2851
455.3874, 174.8058
455.8695, 175.0477
456.3516, 175.0300
456.8337, 174.8721
457.3158, 174.4630
457.7979, 174.0604
458.2801, 174.2961
458.7622, 175.0710
459.2443, 175.6915
459.7264, 175.3413
460.2085, 174.6844
460.6906, 174.7544
461.1728, 175.8950
461.6549, 176.8466
462.1370, 176.4407
462.6191, 175.3186
463.1012, 174.4244
463.5833, 174.2239
464.0655, 174.2175
464.5476, 174.3121
465.0297, 174.4670
465.5118, 174.4056
465.9939, 173.7473
466.4760, 173.0725
466.9582, 172.7034
467.4403, 172.7988
467.9224, 172.9630
468.4045, 173.4336
468.8866, 173.8617
469.3687, 173.6950
469.8509, 172.5174
470.3330, 171.5086
470.8151, 170.9607
471.2972, 170.8341
471.7793, 170.6909
472.2614, 170.4884
472.7436, 170.3865
473.2257, 170.6363
473.7078, 171.2512
474.1899, 171.3679
474.6720, 170.8538
475.1541, 170.0205
475.6363, 169.2063
476.1184, 168.4344
476.6005, 167.8625
477.0826, 167.6332
477.5647, 167.5937
478.0468, 167.6549
478.5290, 167.7688
479.0111, 167.4984
479.4932, 166.1066
479.9753, 164.3421
480.4574, 163.0810
480.9395, 162.5259
481.4217, 162.3279
481.9038, 162.6914
482.3859, 163.1887
482.8680, 163.1824
483.3501, 162.1282
483.8322, 160.8582
484.3144, 159.5547
484.7965, 158.2519
485.2786, 157.1274
485.7607, 156.3356
486.2428, 155.6409
486.7249, 154.9265
487.2071, 154.1932
487.6892, 153.4610
488.1713, 152.7763
488.6534, 152.0640
489.1355, 151.1739
489.6176, 150.0141
490.0998, 148.9427
490.5819, 148.0397
491.0640, 147.2813
491.5461, 146.5813
492.0282, 145.9469
492.5103, 145.3083
492.9925, 144.6156
493.4746, 143.8730
493.9567, 143.1401
494.4388, 142.3992
494.9209, 141.7216
495.4030, 141.1705
495.8852, 140.7374
496.3673, 140.4012
496.8494, 140.3208
497.3315, 140.1722
497.8136, 139.5505
498.2957, 138.5531
498.7779, 137.6125
499.2600, 136.9122
499.7421, 136.3675
500.2242, 136.0098
500.7063, 135.9457
501.1884, 135.5759
501.6706, 134.3464
502.1527, 132.8953
502.6348, 131.8873
503.1169, 131.5565
503.5990, 131.5134
504.0811, 131.9765
504.5633, 132.7240
505.0454, 132.9253
505.5275, 132.4395
506.0096, 131.6389
506.4917, 130.6073
506.9738, 129.3069
507.4560, 128.0576
507.9381, 126.7750
508.4202, 125.7671
508.9023, 125.5412
509.3844, 126.0400
509.8665, 126.2485
510.3487, 125.9233
510.8308, 125.3285
511.3129, 124.8412
511.7950, 124.4566
512.2772, 124.1506
512.7593, 123.9886
513.2414, 123.8577
513.7235, 123.5795
514.2056, 123.1598
514.6877, 122.7948
515.1699, 122.7655
515.6520, 122.7663
516.1341, 122.4960
516.6162, 121.7562
517.0983, 120.9963
517.5804, 120.2791
518.0626, 119.6462
518.5447, 119.1669
519.0268, 118.7764
519.5089, 118.6277
519.9910, 118.8589
520.4731, 119.4359
520.9553, 119.8207
521.4374, 119.9678
521.9195, 119.9872
522.4016, 119.9273
522.8837, 119.7817
523.3658, 119.5918
523.8480, 119.3423
524.3301, 119.0853
524.8122, 118.9201
525.2943, 118.8396
525.7764, 118.6677
526.2585, 118.2654
526.7407, 117.8532
527.2228, 117.9552
527.7049, 118.4771
528.1870, 118.8628
528.6691, 118.6008
529.1512, 118.1117
529.6334, 117.9317
530.1155, 118.1066
530.5976, 118.2321
531.0797, 118.1033
531.5618, 117.7849
532.0439, 117.3033
532.5261, 116.0973
533.0082, 115.5340
533.4903, 116.6350
533.9724, 118.5488
534.4545, 119.4676
534.9366, 118.0828
535.4188, 117.0104
535.9009, 117.0214
536.3830, 118.0805
536.8651, 118.5432
537.3472, 118.1905
537.8293, 117.6793
538.3115, 117.4206
538.7936, 117.4274
539.2757, 117.5607
539.7578, 117.8667
540.2399, 118.1504
540.7220, 118.0932
541.2042, 117.7529
541.6863, 117.4476
542.1684, 117.2205
542.6505, 117.1377
543.1326, 117.4752
543.6147, 118.0913
544.0969, 118.4517
544.5790, 117.8935
545.0611, 117.1722
545.5432, 116.9943
546.0253, 117.4466
546.5074, 117.7866
546.9896, 117.6233
547.4717, 117.2595
547.9538, 116.9349
548.4359, 116.5771
548.9180, 116.4184
549.4001, 116.5782
549.8823, 116.9141
550.3644, 117.1940
550.8465, 117.4244
551.3286, 117.5896
551.8107, 117.6607
552.2928, 117.6582
552.7750, 117.7482
553.2571, 117.9561
553.7392, 118.1347
554.2213, 118.2033
554.7034, 118.1627
555.1855, 117.9692
555.6677, 117.5940
556.1498, 117.2605
556.6319, 117.2927
557.1140, 117.5339
557.5961, 117.6452
558.0782, 117.4336
558.5604, 117.2235
559.0425, 117.4207
559.5246, 117.8191
560.0067, 117.9572
560.4888, 117.2081
560.9709, 116.5536
561.4531, 116.6454
561.9352, 117.4956
562.4173, 117.8494
562.8994, 116.8192
563.3815, 115.8395
563.8636, 115.6868
564.3458, 116.8212
564.8279, 117.5144
565.3100, 117.5741
565.7921, 117.4459
566.2742, 117.8340
566.7563, 118.8454
567.2385, 119.2914
567.7206, 118.7318
568.2027, 117.6945
568.6848, 117.2594
569.1669, 117.3900
569.6490, 117.8737
570.1312, 119.0538
570.6133, 120.3135
571.0954, 120.5338
571.5775, 119.7673
572.0596, 119.1264
572.5417, 119.4556
573.0239, 120.1472
573.5060, 120.6954
573.9881, 121.0225
574.4702, 121.1847
574.9523, 121.1056
575.4344, 120.9076
575.9166, 120.7414
576.3987, 120.3903
576.8808, 120.3893
577.3629, 120.9900
577.8450, 121.9616
578.3271, 122.5559
578.8093, 122.7220
579.2914, 122.6296
579.7735, 122.0531
580.2556, 121.1785
580.7377, 121.7652
581.2198, 123.9501
581.7020, 126.0638
582.1841, 126.4483
582.6662, 125.7338
583.1483, 125.4414
583.6304, 125.8155
584.1125, 126.3914
584.5947, 126.8317
585.0768, 127.1935
585.5589, 127.5578
586.0410, 127.8517
586.5231, 128.2716
587.0052, 128.9373
587.4873, 129.7984
587.9694, 130.7015
588.4515, 131.8425
588.9337, 132.8007
589.4158, 133.4571
589.8979, 133.8118
590.3800, 133.9546
590.8621, 133.6815
591.3442, 133.5542
591.8264, 133.9485
592.3085, 134.8877
592.7906, 136.0519
593.2727, 137.5391
593.7548, 138.8535
594.2369, 139.0977
594.7191, 138.6164
595.2012, 138.7925
595.6833, 140.1772
596.1654, 141.9242
596.6475, 143.3515
597.1296, 144.4158
597.6118, 145.0528
598.0939, 144.8841
598.5760, 144.5921
599.0581, 144.4899
599.5402, 144.5913
600.0223, 144.8594
600.5045, 145.4622
600.9866, 146.0844
601.4687, 146.6151
601.9508, 147.0796
602.4329, 147.3326
602.9150, 147.2876
603.3972, 147.1483
603.8793, 147.1408
604.3614, 147.2988
604.8435, 147.1837
605.3256, 146.6857
605.8077, 146.0314
606.2899, 145.4707
606.7720, 145.0342
607.2541, 144.9231
607.7362, 145.4380
608.2183, 146.0734
608.7004, 146.3076
609.1826, 146.1686
609.6647, 145.7471
610.1468, 144.5118
610.6289, 143.4738
611.1110, 143.4927
611.5931, 144.6524
612.0753, 145.3606
612.5574, 144.7930
613.0395, 144.0890
613.5216, 143.9787
614.0037, 145.0135
614.4858, 145.1461
614.9680, 144.0064
615.4501, 142.4626
615.9322, 141.5899
616.4143, 141.4298
616.8964, 141.1803
617.3785, 140.7023
617.8607, 140.0536
618.3428, 139.2435
618.8249, 138.3235
619.3070, 137.5106
619.7891, 137.0396
620.2712, 136.6306
620.7534, 135.8740
621.2355, 134.8786
621.7176, 134.1779
622.1997, 134.4672
622.6818, 134.7724
623.1639, 134.4147
623.6461, 133.1897
624.1282, 132.3873
624.6103, 132.6227
625.0924, 132.8949
625.5745, 132.5012
626.0566, 130.9945
626.5388, 130.1133
627.0209, 130.0266
627.5030, 130.3512
627.9851, 130.6908
628.4672, 131.0296
628.9493, 131.0974
629.4315, 130.7457
629.9136, 130.2434
630.3957, 130.0316
630.8778, 130.0230
631.3599, 129.9606
631.8420, 129.7124
632.3242, 129.3712
632.8063, 128.8381
633.2884, 128.2107
633.7705, 127.9708
634.2526, 128.6873
634.7347, 129.4898
635.2169, 129.9668
635.6990, 130.0482
636.1811, 130.0736
636.6632, 129.8968
637.1453, 129.8482
637.6274, 130.2616
638.1096, 131.2606
638.5917, 131.8401
639.0738, 131.8813
639.5559, 131.7215
640.0380, 131.6901
640.5201, 131.8064
641.0023, 132.2132
