##NAMES=Orthoclase
##RRUFFID=R150014
##IDEAL CHEMISTRY=KAlSi_3_O_8_
##LOCALITY=Locality: Cathedral Peak granite, near Toulumne meadows, Yosemite National Park, California, USA
##OWNER=RRUFF
##SOURCE=Jennifer Schmidt (LDP12-02)
##DESCRIPTION=White to colorless, massive, in a granitic rock
##STATUS=The identification of this mineral is confirmed by single-crystal X-ray diffraction and chemical analysis.
##URL=rruff.info/R150014
##MEASURED CHEMISTRY=(K_0.86_Na_0.14_)Al_1.01_Si_2.98_O_8_
8.930109e+001, 0.000000e+000
8.978320e+001, 2.495785e+002
9.026532e+001, 2.481251e+002
9.074744e+001, 2.480551e+002
9.122955e+001, 2.496557e+002
9.171167e+001, 2.525636e+002
9.219379e+001, 2.568103e+002
9.267590e+001, 2.622612e+002
9.315802e+001, 2.669184e+002
9.364014e+001, 2.694472e+002
9.412225e+001, 2.701127e+002
9.460437e+001, 2.692039e+002
9.508649e+001, 2.659088e+002
9.556860e+001, 2.615710e+002
9.605072e+001, 2.600898e+002
9.653284e+001, 2.619311e+002
9.701495e+001, 2.639822e+002
9.749707e+001, 2.626142e+002
9.797919e+001, 2.579355e+002
9.846130e+001, 2.538487e+002
9.894342e+001, 2.514558e+002
9.942554e+001, 2.506401e+002
9.990765e+001, 2.505733e+002
1.003898e+002, 2.514017e+002
1.008719e+002, 2.526172e+002
1.013540e+002, 2.536130e+002
1.018361e+002, 2.545049e+002
1.023182e+002, 2.548696e+002
1.028004e+002, 2.544015e+002
1.032825e+002, 2.527960e+002
1.037646e+002, 2.517149e+002
1.042467e+002, 2.509302e+002
1.047288e+002, 2.507366e+002
1.052109e+002, 2.519314e+002
1.056931e+002, 2.550090e+002
1.061752e+002, 2.586770e+002
1.066573e+002, 2.623583e+002
1.071394e+002, 2.653058e+002
1.076215e+002, 2.695030e+002
1.081036e+002, 2.760767e+002
1.085858e+002, 2.843234e+002
1.090679e+002, 2.903199e+002
1.095500e+002, 2.940359e+002
1.100321e+002, 2.957419e+002
1.105142e+002, 2.955880e+002
1.109963e+002, 2.921036e+002
1.114785e+002, 2.885250e+002
1.119606e+002, 2.850760e+002
1.124427e+002, 2.817645e+002
1.129248e+002, 2.788051e+002
1.134069e+002, 2.763687e+002
1.138890e+002, 2.742152e+002
1.143712e+002, 2.721227e+002
1.148533e+002, 2.695115e+002
1.153354e+002, 2.674483e+002
1.158175e+002, 2.663048e+002
1.162996e+002, 2.661036e+002
1.167817e+002, 2.664334e+002
1.172639e+002, 2.678561e+002
1.177460e+002, 2.695443e+002
1.182281e+002, 2.704464e+002
1.187102e+002, 2.696645e+002
1.191923e+002, 2.683467e+002
1.196744e+002, 2.671421e+002
1.201566e+002, 2.661333e+002
1.206387e+002, 2.651445e+002
1.211208e+002, 2.636087e+002
1.216029e+002, 2.619918e+002
1.220850e+002, 2.612642e+002
1.225671e+002, 2.623264e+002
1.230493e+002, 2.643298e+002
1.235314e+002, 2.664161e+002
1.240135e+002, 2.683973e+002
1.244956e+002, 2.705546e+002
1.249777e+002, 2.740536e+002
1.254598e+002, 2.782826e+002
1.259420e+002, 2.808610e+002
1.264241e+002, 2.791194e+002
1.269062e+002, 2.747896e+002
1.273883e+002, 2.710057e+002
1.278704e+002, 2.684376e+002
1.283525e+002, 2.666609e+002
1.288347e+002, 2.650073e+002
1.293168e+002, 2.634917e+002
1.297989e+002, 2.624897e+002
1.302810e+002, 2.628026e+002
1.307631e+002, 2.640318e+002
1.312452e+002, 2.644890e+002
1.317274e+002, 2.634212e+002
1.322095e+002, 2.614659e+002
1.326916e+002, 2.604382e+002
1.331737e+002, 2.604428e+002
1.336558e+002, 2.606307e+002
1.341379e+002, 2.598870e+002
1.346201e+002, 2.582373e+002
1.351022e+002, 2.572727e+002
1.355843e+002, 2.575558e+002
1.360664e+002, 2.589659e+002
1.365485e+002, 2.606238e+002
1.370306e+002, 2.625385e+002
1.375128e+002, 2.647094e+002
1.379949e+002, 2.671665e+002
1.384770e+002, 2.699020e+002
1.389591e+002, 2.730098e+002
1.394412e+002, 2.765128e+002
1.399233e+002, 2.803614e+002
1.404055e+002, 2.849560e+002
1.408876e+002, 2.907359e+002
1.413697e+002, 2.968214e+002
1.418518e+002, 3.018281e+002
1.423339e+002, 3.055824e+002
1.428160e+002, 3.085977e+002
1.432982e+002, 3.108727e+002
1.437803e+002, 3.119619e+002
1.442624e+002, 3.136628e+002
1.447445e+002, 3.159780e+002
1.452266e+002, 3.189199e+002
1.457087e+002, 3.223493e+002
1.461909e+002, 3.260829e+002
1.466730e+002, 3.306031e+002
1.471551e+002, 3.361504e+002
1.476372e+002, 3.427181e+002
1.481193e+002, 3.502722e+002
1.486014e+002, 3.594164e+002
1.490836e+002, 3.696227e+002
1.495657e+002, 3.794409e+002
1.500478e+002, 3.879150e+002
1.505299e+002, 3.965510e+002
1.510120e+002, 4.060758e+002
1.514941e+002, 4.174846e+002
1.519763e+002, 4.284792e+002
1.524584e+002, 4.395118e+002
1.529405e+002, 4.502941e+002
1.534226e+002, 4.596594e+002
1.539047e+002, 4.677832e+002
1.543868e+002, 4.742910e+002
1.548690e+002, 4.789781e+002
1.553511e+002, 4.819871e+002
1.558332e+002, 4.829991e+002
1.563153e+002, 4.822532e+002
1.567974e+002, 4.796278e+002
1.572795e+002, 4.741483e+002
1.577617e+002, 4.639798e+002
1.582438e+002, 4.517490e+002
1.587259e+002, 4.393534e+002
1.592080e+002, 4.269137e+002
1.596901e+002, 4.146670e+002
1.601722e+002, 4.026085e+002
1.606544e+002, 3.907535e+002
1.611365e+002, 3.793260e+002
1.616186e+002, 3.679993e+002
1.621007e+002, 3.573741e+002
1.625828e+002, 3.477287e+002
1.630649e+002, 3.394689e+002
1.635471e+002, 3.320731e+002
1.640292e+002, 3.254415e+002
1.645113e+002, 3.195663e+002
1.649934e+002, 3.140611e+002
1.654755e+002, 3.087984e+002
1.659576e+002, 3.037536e+002
1.664398e+002, 2.989675e+002
1.669219e+002, 2.943721e+002
1.674040e+002, 2.900224e+002
1.678861e+002, 2.859463e+002
1.683682e+002, 2.821135e+002
1.688503e+002, 2.787322e+002
1.693325e+002, 2.760074e+002
1.698146e+002, 2.738079e+002
1.702967e+002, 2.719572e+002
1.707788e+002, 2.703319e+002
1.712609e+002, 2.690206e+002
1.717430e+002, 2.681796e+002
1.722252e+002, 2.678406e+002
1.727073e+002, 2.677181e+002
1.731894e+002, 2.677079e+002
1.736715e+002, 2.677510e+002
1.741536e+002, 2.677173e+002
1.746357e+002, 2.674921e+002
1.751179e+002, 2.671771e+002
1.756000e+002, 2.668478e+002
1.760821e+002, 2.664883e+002
1.765642e+002, 2.662541e+002
1.770463e+002, 2.666037e+002
1.775284e+002, 2.672791e+002
1.780106e+002, 2.674865e+002
1.784927e+002, 2.665947e+002
1.789748e+002, 2.650079e+002
1.794569e+002, 2.634770e+002
1.799390e+002, 2.621270e+002
1.804211e+002, 2.605826e+002
1.809033e+002, 2.581882e+002
1.813854e+002, 2.550913e+002
1.818675e+002, 2.520603e+002
1.823496e+002, 2.495934e+002
1.828317e+002, 2.475135e+002
1.833138e+002, 2.451660e+002
1.837960e+002, 2.423803e+002
1.842781e+002, 2.396711e+002
1.847602e+002, 2.379524e+002
1.852423e+002, 2.371173e+002
1.857244e+002, 2.364150e+002
1.862065e+002, 2.352771e+002
1.866887e+002, 2.338662e+002
1.871708e+002, 2.328072e+002
1.876529e+002, 2.322225e+002
1.881350e+002, 2.318925e+002
1.886171e+002, 2.314864e+002
1.890992e+002, 2.310017e+002
1.895814e+002, 2.305103e+002
1.900635e+002, 2.300327e+002
1.905456e+002, 2.295727e+002
1.910277e+002, 2.292146e+002
1.915098e+002, 2.289979e+002
1.919919e+002, 2.288375e+002
1.924741e+002, 2.285115e+002
1.929562e+002, 2.280096e+002
1.934383e+002, 2.275934e+002
1.939204e+002, 2.273425e+002
1.944025e+002, 2.272725e+002
1.948846e+002, 2.277260e+002
1.953668e+002, 2.288806e+002
1.958489e+002, 2.304258e+002
1.963310e+002, 2.317106e+002
1.968131e+002, 2.327463e+002
1.972952e+002, 2.334249e+002
1.977773e+002, 2.335126e+002
1.982595e+002, 2.329858e+002
1.987416e+002, 2.327332e+002
1.992237e+002, 2.329712e+002
1.997058e+002, 2.334606e+002
2.001879e+002, 2.335618e+002
2.006700e+002, 2.332574e+002
2.011522e+002, 2.326533e+002
2.016343e+002, 2.317888e+002
2.021164e+002, 2.306531e+002
2.025985e+002, 2.293140e+002
2.030806e+002, 2.276329e+002
2.035627e+002, 2.258440e+002
2.040449e+002, 2.247948e+002
2.045270e+002, 2.246266e+002
2.050091e+002, 2.247286e+002
2.054912e+002, 2.248243e+002
2.059733e+002, 2.249997e+002
2.064554e+002, 2.245775e+002
2.069376e+002, 2.232528e+002
2.074197e+002, 2.213421e+002
2.079018e+002, 2.200151e+002
2.083839e+002, 2.193813e+002
2.088660e+002, 2.190556e+002
2.093481e+002, 2.188252e+002
2.098303e+002, 2.187176e+002
2.103124e+002, 2.185827e+002
2.107945e+002, 2.183843e+002
2.112766e+002, 2.181542e+002
2.117587e+002, 2.180266e+002
2.122408e+002, 2.180486e+002
2.127230e+002, 2.180762e+002
2.132051e+002, 2.179754e+002
2.136872e+002, 2.176549e+002
2.141693e+002, 2.175325e+002
2.146514e+002, 2.177354e+002
2.151335e+002, 2.181643e+002
2.156157e+002, 2.183206e+002
2.160978e+002, 2.180484e+002
2.165799e+002, 2.177809e+002
2.170620e+002, 2.178074e+002
2.175441e+002, 2.182076e+002
2.180262e+002, 2.186982e+002
2.185084e+002, 2.193980e+002
2.189905e+002, 2.201800e+002
2.194726e+002, 2.203226e+002
2.199547e+002, 2.195178e+002
2.204368e+002, 2.186080e+002
2.209189e+002, 2.181845e+002
2.214011e+002, 2.185069e+002
2.218832e+002, 2.186125e+002
2.223653e+002, 2.182965e+002
2.228474e+002, 2.177059e+002
2.233295e+002, 2.175153e+002
2.238116e+002, 2.179050e+002
2.242938e+002, 2.184177e+002
2.247759e+002, 2.187704e+002
2.252580e+002, 2.188566e+002
2.257401e+002, 2.190477e+002
2.262222e+002, 2.194782e+002
2.267043e+002, 2.200320e+002
2.271865e+002, 2.202092e+002
2.276686e+002, 2.198165e+002
2.281507e+002, 2.193260e+002
2.286328e+002, 2.189976e+002
2.291149e+002, 2.188569e+002
2.295970e+002, 2.188340e+002
2.300792e+002, 2.190207e+002
2.305613e+002, 2.193246e+002
2.310434e+002, 2.193214e+002
2.315255e+002, 2.187218e+002
2.320076e+002, 2.182473e+002
2.324897e+002, 2.183637e+002
2.329719e+002, 2.195120e+002
2.334540e+002, 2.202438e+002
2.339361e+002, 2.203184e+002
2.344182e+002, 2.199563e+002
2.349003e+002, 2.199445e+002
2.353824e+002, 2.204755e+002
2.358646e+002, 2.210820e+002
2.363467e+002, 2.215169e+002
2.368288e+002, 2.216293e+002
2.373109e+002, 2.219028e+002
2.377930e+002, 2.223909e+002
2.382751e+002, 2.230377e+002
2.387573e+002, 2.236764e+002
2.392394e+002, 2.243544e+002
2.397215e+002, 2.249461e+002
2.402036e+002, 2.253509e+002
2.406857e+002, 2.253263e+002
2.411678e+002, 2.256767e+002
2.416500e+002, 2.265802e+002
2.421321e+002, 2.278029e+002
2.426142e+002, 2.287660e+002
2.430963e+002, 2.293576e+002
2.435784e+002, 2.298429e+002
2.440605e+002, 2.302854e+002
2.445427e+002, 2.305541e+002
2.450248e+002, 2.311459e+002
2.455069e+002, 2.322240e+002
2.459890e+002, 2.335674e+002
2.464711e+002, 2.346453e+002
2.469532e+002, 2.352596e+002
2.474354e+002, 2.359592e+002
2.479175e+002, 2.369721e+002
2.483996e+002, 2.384268e+002
2.488817e+002, 2.398037e+002
2.493638e+002, 2.410718e+002
2.498459e+002, 2.422858e+002
2.503281e+002, 2.435397e+002
2.508102e+002, 2.448341e+002
2.512923e+002, 2.461814e+002
2.517744e+002, 2.476290e+002
2.522565e+002, 2.492165e+002
2.527386e+002, 2.506671e+002
2.532208e+002, 2.518641e+002
2.537029e+002, 2.530100e+002
2.541850e+002, 2.544518e+002
2.546671e+002, 2.562762e+002
2.551492e+002, 2.582329e+002
2.556313e+002, 2.602597e+002
2.561135e+002, 2.623624e+002
2.565956e+002, 2.644152e+002
2.570777e+002, 2.663643e+002
2.575598e+002, 2.682801e+002
2.580419e+002, 2.702427e+002
2.585240e+002, 2.722064e+002
2.590062e+002, 2.742641e+002
2.594883e+002, 2.764764e+002
2.599704e+002, 2.788145e+002
2.604525e+002, 2.811584e+002
2.609346e+002, 2.835270e+002
2.614167e+002, 2.858444e+002
2.618989e+002, 2.879779e+002
2.623810e+002, 2.897875e+002
2.628631e+002, 2.917590e+002
2.633452e+002, 2.940493e+002
2.638273e+002, 2.966894e+002
2.643094e+002, 2.991372e+002
2.647916e+002, 3.014416e+002
2.652737e+002, 3.035551e+002
2.657558e+002, 3.054222e+002
2.662379e+002, 3.069471e+002
2.667200e+002, 3.085284e+002
2.672021e+002, 3.103436e+002
2.676843e+002, 3.123287e+002
2.681664e+002, 3.139169e+002
2.686485e+002, 3.150373e+002
2.691306e+002, 3.158981e+002
2.696127e+002, 3.166096e+002
2.700948e+002, 3.171197e+002
2.705770e+002, 3.176701e+002
2.710591e+002, 3.182555e+002
2.715412e+002, 3.188994e+002
2.720233e+002, 3.198013e+002
2.725054e+002, 3.210235e+002
2.729875e+002, 3.222798e+002
2.734697e+002, 3.232415e+002
2.739518e+002, 3.237993e+002
2.744339e+002, 3.248681e+002
2.749160e+002, 3.266600e+002
2.753981e+002, 3.289629e+002
2.758802e+002, 3.311558e+002
2.763624e+002, 3.331424e+002
2.768445e+002, 3.352822e+002
2.773266e+002, 3.379478e+002
2.778087e+002, 3.412033e+002
2.782908e+002, 3.439982e+002
2.787729e+002, 3.461063e+002
2.792551e+002, 3.478791e+002
2.797372e+002, 3.501479e+002
2.802193e+002, 3.530194e+002
2.807014e+002, 3.557539e+002
2.811835e+002, 3.581086e+002
2.816656e+002, 3.600793e+002
2.821478e+002, 3.612885e+002
2.826299e+002, 3.616298e+002
2.831120e+002, 3.613884e+002
2.835941e+002, 3.611392e+002
2.840762e+002, 3.609071e+002
2.845583e+002, 3.600649e+002
2.850405e+002, 3.582744e+002
2.855226e+002, 3.555807e+002
2.860047e+002, 3.523143e+002
2.864868e+002, 3.484008e+002
2.869689e+002, 3.441662e+002
2.874510e+002, 3.400047e+002
2.879332e+002, 3.359113e+002
2.884153e+002, 3.317729e+002
2.888974e+002, 3.276312e+002
2.893795e+002, 3.234531e+002
2.898616e+002, 3.191353e+002
2.903438e+002, 3.146236e+002
2.908259e+002, 3.103446e+002
2.913080e+002, 3.070664e+002
2.917901e+002, 3.046073e+002
2.922722e+002, 3.016468e+002
2.927543e+002, 2.974922e+002
2.932365e+002, 2.927138e+002
2.937186e+002, 2.886238e+002
2.942007e+002, 2.852613e+002
2.946828e+002, 2.823472e+002
2.951649e+002, 2.797641e+002
2.956470e+002, 2.774745e+002
2.961292e+002, 2.752106e+002
2.966113e+002, 2.727252e+002
2.970934e+002, 2.704697e+002
2.975755e+002, 2.695530e+002
2.980576e+002, 2.698273e+002
2.985397e+002, 2.697658e+002
2.990219e+002, 2.677713e+002
2.995040e+002, 2.646476e+002
2.999861e+002, 2.621696e+002
3.004682e+002, 2.607836e+002
3.009503e+002, 2.599430e+002
3.014324e+002, 2.592053e+002
3.019146e+002, 2.585166e+002
3.023967e+002, 2.576112e+002
3.028788e+002, 2.561554e+002
3.033609e+002, 2.544395e+002
3.038430e+002, 2.528692e+002
3.043251e+002, 2.514792e+002
3.048073e+002, 2.503155e+002
3.052894e+002, 2.494648e+002
3.057715e+002, 2.488714e+002
3.062536e+002, 2.483779e+002
3.067357e+002, 2.478890e+002
3.072178e+002, 2.474672e+002
3.077000e+002, 2.472466e+002
3.081821e+002, 2.472612e+002
3.086642e+002, 2.471981e+002
3.091463e+002, 2.468194e+002
3.096284e+002, 2.462116e+002
3.101105e+002, 2.455035e+002
3.105927e+002, 2.446123e+002
3.110748e+002, 2.437468e+002
3.115569e+002, 2.430341e+002
3.120390e+002, 2.424804e+002
3.125211e+002, 2.420557e+002
3.130032e+002, 2.418128e+002
3.134854e+002, 2.416607e+002
3.139675e+002, 2.415062e+002
3.144496e+002, 2.411429e+002
3.149317e+002, 2.409341e+002
3.154138e+002, 2.412706e+002
3.158959e+002, 2.420282e+002
3.163781e+002, 2.424475e+002
3.168602e+002, 2.419462e+002
3.173423e+002, 2.411275e+002
3.178244e+002, 2.404233e+002
3.183065e+002, 2.399407e+002
3.187886e+002, 2.395679e+002
3.192708e+002, 2.392462e+002
3.197529e+002, 2.390054e+002
3.202350e+002, 2.389304e+002
3.207171e+002, 2.392359e+002
3.211992e+002, 2.395679e+002
3.216813e+002, 2.397129e+002
3.221635e+002, 2.394692e+002
3.226456e+002, 2.394289e+002
3.231277e+002, 2.398537e+002
3.236098e+002, 2.405250e+002
3.240919e+002, 2.410808e+002
3.245740e+002, 2.413433e+002
3.250562e+002, 2.415831e+002
3.255383e+002, 2.419107e+002
3.260204e+002, 2.423896e+002
3.265025e+002, 2.427183e+002
3.269846e+002, 2.427393e+002
3.274667e+002, 2.426607e+002
3.279489e+002, 2.427053e+002
3.284310e+002, 2.431158e+002
3.289131e+002, 2.433879e+002
3.293952e+002, 2.434154e+002
3.298773e+002, 2.431943e+002
3.303594e+002, 2.429726e+002
3.308416e+002, 2.426155e+002
3.313237e+002, 2.423757e+002
3.318058e+002, 2.424831e+002
3.322879e+002, 2.434386e+002
3.327700e+002, 2.438640e+002
3.332521e+002, 2.434407e+002
3.337343e+002, 2.423673e+002
3.342164e+002, 2.415898e+002
3.346985e+002, 2.411310e+002
3.351806e+002, 2.409383e+002
3.356627e+002, 2.410563e+002
3.361448e+002, 2.416663e+002
3.366270e+002, 2.420241e+002
3.371091e+002, 2.420974e+002
3.375912e+002, 2.419156e+002
3.380733e+002, 2.414682e+002
3.385554e+002, 2.406541e+002
3.390375e+002, 2.399215e+002
3.395197e+002, 2.395014e+002
3.400018e+002, 2.394226e+002
3.404839e+002, 2.391559e+002
3.409660e+002, 2.386305e+002
3.414481e+002, 2.380827e+002
3.419302e+002, 2.378311e+002
3.424124e+002, 2.378863e+002
3.428945e+002, 2.380732e+002
3.433766e+002, 2.384554e+002
3.438587e+002, 2.389226e+002
3.443408e+002, 2.389016e+002
3.448229e+002, 2.383337e+002
3.453051e+002, 2.376708e+002
3.457872e+002, 2.372051e+002
3.462693e+002, 2.369592e+002
3.467514e+002, 2.371541e+002
3.472335e+002, 2.380063e+002
3.477156e+002, 2.391028e+002
3.481978e+002, 2.396046e+002
3.486799e+002, 2.395467e+002
3.491620e+002, 2.393443e+002
3.496441e+002, 2.391551e+002
3.501262e+002, 2.390378e+002
3.506083e+002, 2.391667e+002
3.510905e+002, 2.396082e+002
3.515726e+002, 2.401385e+002
3.520547e+002, 2.404256e+002
3.525368e+002, 2.405715e+002
3.530189e+002, 2.408857e+002
3.535010e+002, 2.416617e+002
3.539832e+002, 2.426251e+002
3.544653e+002, 2.434687e+002
3.549474e+002, 2.441856e+002
3.554295e+002, 2.447846e+002
3.559116e+002, 2.452268e+002
3.563937e+002, 2.455675e+002
3.568759e+002, 2.458821e+002
3.573580e+002, 2.459566e+002
3.578401e+002, 2.462175e+002
3.583222e+002, 2.471212e+002
3.588043e+002, 2.485658e+002
3.592864e+002, 2.498914e+002
3.597686e+002, 2.507582e+002
3.602507e+002, 2.513550e+002
3.607328e+002, 2.517953e+002
3.612149e+002, 2.519031e+002
3.616970e+002, 2.522051e+002
3.621791e+002, 2.532162e+002
3.626613e+002, 2.545821e+002
3.631434e+002, 2.554902e+002
3.636255e+002, 2.551548e+002
3.641076e+002, 2.547202e+002
3.645897e+002, 2.547549e+002
3.650718e+002, 2.554712e+002
3.655540e+002, 2.561271e+002
3.660361e+002, 2.565782e+002
3.665182e+002, 2.569058e+002
3.670003e+002, 2.572082e+002
3.674824e+002, 2.573773e+002
3.679645e+002, 2.576497e+002
3.684467e+002, 2.581582e+002
3.689288e+002, 2.589150e+002
3.694109e+002, 2.595002e+002
3.698930e+002, 2.600422e+002
3.703751e+002, 2.603226e+002
3.708572e+002, 2.601363e+002
3.713394e+002, 2.588630e+002
3.718215e+002, 2.582157e+002
3.723036e+002, 2.587022e+002
3.727857e+002, 2.598921e+002
3.732678e+002, 2.602226e+002
3.737499e+002, 2.593865e+002
3.742321e+002, 2.582325e+002
3.747142e+002, 2.571154e+002
3.751963e+002, 2.560134e+002
3.756784e+002, 2.550223e+002
3.761605e+002, 2.542110e+002
3.766426e+002, 2.534231e+002
3.771248e+002, 2.524102e+002
3.776069e+002, 2.511128e+002
3.780890e+002, 2.498768e+002
3.785711e+002, 2.488177e+002
3.790532e+002, 2.479182e+002
3.795353e+002, 2.471184e+002
3.800175e+002, 2.464080e+002
3.804996e+002, 2.458189e+002
3.809817e+002, 2.454170e+002
3.814638e+002, 2.451854e+002
3.819459e+002, 2.449799e+002
3.824280e+002, 2.448079e+002
3.829102e+002, 2.445994e+002
3.833923e+002, 2.441769e+002
3.838744e+002, 2.435557e+002
3.843565e+002, 2.429431e+002
3.848386e+002, 2.423266e+002
3.853207e+002, 2.418342e+002
3.858029e+002, 2.418454e+002
3.862850e+002, 2.424702e+002
3.867671e+002, 2.432001e+002
3.872492e+002, 2.434937e+002
3.877313e+002, 2.434944e+002
3.882134e+002, 2.435228e+002
3.886956e+002, 2.436190e+002
3.891777e+002, 2.438780e+002
3.896598e+002, 2.445116e+002
3.901419e+002, 2.454939e+002
3.906240e+002, 2.463754e+002
3.911061e+002, 2.468404e+002
3.915883e+002, 2.470929e+002
3.920704e+002, 2.473274e+002
3.925525e+002, 2.474176e+002
3.930346e+002, 2.477531e+002
3.935167e+002, 2.487307e+002
3.939988e+002, 2.501248e+002
3.944810e+002, 2.513093e+002
3.949631e+002, 2.517321e+002
3.954452e+002, 2.521515e+002
3.959273e+002, 2.529718e+002
3.964094e+002, 2.543514e+002
3.968915e+002, 2.557719e+002
3.973737e+002, 2.570770e+002
3.978558e+002, 2.583896e+002
3.983379e+002, 2.598612e+002
3.988200e+002, 2.614983e+002
3.993021e+002, 2.632989e+002
3.997842e+002, 2.653648e+002
4.002664e+002, 2.676904e+002
4.007485e+002, 2.697715e+002
4.012306e+002, 2.713810e+002
4.017127e+002, 2.729347e+002
4.021948e+002, 2.747167e+002
4.026769e+002, 2.769365e+002
4.031591e+002, 2.789214e+002
4.036412e+002, 2.806154e+002
4.041233e+002, 2.820543e+002
4.046054e+002, 2.834133e+002
4.050875e+002, 2.847656e+002
4.055696e+002, 2.857886e+002
4.060518e+002, 2.863394e+002
4.065339e+002, 2.864156e+002
4.070160e+002, 2.862126e+002
4.074981e+002, 2.857575e+002
4.079802e+002, 2.849718e+002
4.084623e+002, 2.836140e+002
4.089445e+002, 2.816943e+002
4.094266e+002, 2.799499e+002
4.099087e+002, 2.787130e+002
4.103908e+002, 2.776678e+002
4.108729e+002, 2.760325e+002
4.113550e+002, 2.738143e+002
4.118372e+002, 2.714463e+002
4.123193e+002, 2.690533e+002
4.128014e+002, 2.667334e+002
