##NAMES=Orthoserpierite
##RRUFFID=R060793
##IDEAL CHEMISTRY=CaCu^2+^_4_(S^6+^O_4_)_2_(OH)_6_&#183;3H_2_O
##LOCALITY=Mi Fiel Rosita mine, Bolsico District, Copiapo, Chile
##OWNER=RRUFF
##SOURCE=Bob Jenkins
##DESCRIPTION=Light blue aggregate of lathlike crystals
##STATUS=The identification of this mineral has been confirmed by single-crystal X-ray diffraction.
##URL=rruff.info/R060793
89.708, 91.442
90.190, 92.045
90.672, 90.386
91.154, 84.080
91.636, 78.399
92.119, 75.249
92.601, 74.203
93.083, 74.233
93.565, 74.613
94.047, 75.322
94.529, 76.736
95.011, 80.339
95.493, 83.391
95.976, 84.769
96.458, 84.604
96.940, 83.855
97.422, 83.676
97.904, 84.726
98.386, 84.015
98.868, 80.569
99.350, 76.480
99.832, 72.469
100.315, 68.869
100.797, 66.123
101.279, 65.039
101.761, 67.567
102.243, 68.046
102.725, 64.399
103.207, 59.933
103.689, 57.580
104.172, 58.286
104.654, 60.962
105.136, 63.657
105.618, 68.095
106.100, 69.716
106.582, 65.404
107.064, 58.527
107.546, 54.136
108.028, 54.495
108.511, 57.904
108.993, 59.819
109.475, 60.051
109.957, 59.622
110.439, 58.783
110.921, 57.543
111.403, 55.690
111.885, 52.627
112.368, 49.331
112.850, 48.279
113.332, 51.069
113.814, 53.814
114.296, 53.434
114.778, 50.211
115.260, 47.685
115.742, 48.556
116.224, 51.034
116.706, 51.415
117.189, 47.457
117.671, 43.141
118.153, 43.254
118.635, 48.478
119.117, 53.617
119.599, 55.431
120.081, 55.380
120.563, 54.966
121.046, 54.345
121.528, 53.802
122.010, 53.968
122.492, 55.200
122.974, 56.264
123.456, 56.512
123.938, 56.240
124.420, 55.750
124.902, 54.739
125.385, 53.707
125.867, 54.565
126.349, 58.699
126.831, 62.682
127.313, 64.852
127.795, 65.948
128.277, 67.409
128.760, 70.544
129.242, 75.047
129.724, 77.687
130.206, 76.692
130.688, 75.608
131.170, 75.600
131.652, 76.443
132.134, 77.506
132.616, 78.455
133.098, 79.335
133.581, 79.250
134.063, 76.704
134.545, 74.483
135.027, 73.954
135.509, 74.685
135.991, 75.099
136.473, 73.187
136.955, 67.838
137.438, 66.695
137.920, 73.795
138.402, 81.196
138.884, 85.653
139.366, 86.951
139.848, 86.528
140.330, 85.643
140.812, 83.602
141.294, 83.775
141.777, 87.518
142.259, 91.921
142.741, 95.222
143.223, 97.274
143.705, 99.137
144.187, 102.139
144.669, 106.944
145.151, 111.141
145.633, 114.779
146.116, 117.854
146.598, 120.350
147.080, 122.268
147.562, 123.687
148.044, 124.757
148.526, 125.636
149.008, 125.543
149.490, 123.406
149.973, 120.919
150.455, 119.631
150.937, 119.897
151.419, 120.921
151.901, 121.586
152.383, 121.622
152.865, 122.033
153.347, 123.814
153.829, 125.599
154.312, 125.760
154.794, 123.833
155.276, 120.802
155.758, 117.948
156.240, 114.971
156.722, 113.086
157.204, 113.253
157.686, 114.388
158.169, 114.755
158.651, 113.695
159.133, 112.615
159.615, 114.283
160.097, 119.301
160.579, 123.417
161.061, 125.021
161.543, 125.165
162.025, 125.388
162.508, 125.921
162.990, 127.173
163.472, 130.275
163.954, 135.460
164.436, 140.067
164.918, 143.964
165.400, 146.601
165.882, 146.121
166.365, 140.913
166.847, 134.642
167.329, 132.870
167.811, 135.835
168.293, 138.861
168.775, 139.964
169.257, 139.664
169.739, 139.348
170.221, 139.487
170.704, 139.505
171.186, 138.439
171.668, 136.183
172.150, 134.408
172.632, 134.527
173.114, 135.879
173.596, 136.212
174.078, 134.697
174.561, 132.373
175.043, 130.572
175.525, 129.332
176.007, 127.703
176.489, 124.632
176.971, 120.581
177.453, 117.356
177.935, 115.221
178.417, 114.334
178.900, 115.010
179.382, 117.246
179.864, 119.335
180.346, 120.262
180.828, 120.168
181.310, 119.538
181.792, 117.592
182.274, 116.288
182.757, 117.982
183.239, 122.527
183.721, 126.202
184.203, 125.775
184.685, 122.025
185.167, 119.637
185.649, 120.046
186.131, 121.243
186.613, 121.352
187.096, 120.484
187.578, 119.907
188.060, 121.394
188.542, 124.351
189.024, 124.483
189.506, 118.531
189.988, 112.996
190.470, 113.655
190.952, 119.634
191.435, 124.738
191.917, 123.554
192.399, 117.267
192.881, 113.699
193.363, 114.967
193.845, 117.519
194.327, 118.936
194.809, 119.387
195.292, 119.785
195.774, 120.810
196.256, 122.337
196.738, 123.659
197.220, 124.929
197.702, 125.655
198.184, 125.295
198.666, 124.138
199.148, 123.183
199.631, 123.089
200.113, 123.743
200.595, 124.688
201.077, 126.581
201.559, 127.707
202.041, 126.944
202.523, 124.731
203.005, 122.246
203.488, 118.993
203.970, 115.753
204.452, 116.614
204.934, 124.619
205.416, 131.959
205.898, 133.564
206.380, 131.536
206.862, 130.274
207.344, 133.016
207.827, 138.283
208.309, 141.095
208.791, 140.512
209.273, 139.060
209.755, 137.273
210.237, 135.648
210.719, 135.137
211.201, 136.529
211.684, 139.186
212.166, 141.544
212.648, 143.557
213.130, 145.353
213.612, 148.021
214.094, 150.333
214.576, 150.198
215.058, 145.515
215.540, 139.039
216.023, 136.855
216.505, 140.687
216.987, 144.055
217.469, 143.497
217.951, 141.238
218.433, 139.575
218.915, 139.100
219.397, 139.890
219.880, 142.897
220.362, 149.283
220.844, 153.551
221.326, 151.611
221.808, 147.282
222.290, 143.551
222.772, 140.890
223.254, 139.903
223.736, 142.186
224.219, 148.433
224.701, 153.525
225.183, 155.251
225.665, 155.240
226.147, 154.481
226.629, 153.006
227.111, 151.566
227.593, 151.144
228.076, 151.802
228.558, 152.018
229.040, 151.352
229.522, 150.037
230.004, 147.851
230.486, 144.668
230.968, 142.223
231.450, 142.318
231.932, 144.791
232.415, 147.254
232.897, 149.157
233.379, 150.971
233.861, 153.274
234.343, 156.045
234.825, 158.515
235.307, 160.205
235.789, 161.169
236.271, 161.569
236.754, 160.969
237.236, 160.487
237.718, 160.858
238.200, 162.050
238.682, 164.061
239.164, 167.663
239.646, 172.070
240.128, 175.568
240.611, 178.449
241.093, 179.279
241.575, 174.605
242.057, 166.497
242.539, 161.555
243.021, 164.565
243.503, 171.377
243.985, 175.199
244.467, 175.321
244.950, 174.550
245.432, 175.353
245.914, 176.777
246.396, 176.487
246.878, 171.078
247.360, 165.419
247.842, 166.133
248.324, 173.492
248.807, 179.750
249.289, 179.442
249.771, 174.896
250.253, 172.290
250.735, 173.744
251.217, 175.435
251.699, 174.195
252.181, 170.408
252.663, 166.478
253.146, 162.627
253.628, 160.141
254.110, 162.051
254.592, 171.892
255.074, 179.360
255.556, 177.615
256.038, 169.290
256.520, 161.519
257.003, 156.643
257.485, 153.864
257.967, 151.899
258.449, 150.739
258.931, 150.055
259.413, 150.639
259.895, 151.414
260.377, 150.572
260.859, 147.566
261.341, 143.406
261.824, 139.063
262.306, 134.114
262.788, 131.085
263.270, 132.331
263.752, 134.444
264.234, 133.752
264.716, 129.798
265.198, 125.003
265.681, 121.686
266.163, 120.104
266.645, 118.668
267.127, 116.910
267.609, 115.670
268.091, 115.704
268.573, 116.842
269.055, 118.297
269.538, 119.572
270.020, 120.658
270.502, 120.954
270.984, 121.092
271.466, 119.995
271.948, 115.813
272.430, 110.173
272.912, 106.378
273.394, 106.419
273.877, 109.368
274.359, 111.315
274.841, 111.175
275.323, 111.290
275.805, 112.597
276.287, 114.030
276.769, 114.208
277.251, 112.609
277.733, 109.975
278.216, 107.836
278.698, 107.007
279.180, 105.283
279.662, 101.258
280.144, 97.322
280.626, 95.666
281.108, 96.490
281.590, 97.953
282.073, 97.661
282.555, 94.883
283.037, 93.000
283.519, 92.106
284.001, 91.974
284.483, 92.925
284.965, 94.657
285.447, 96.424
285.930, 97.785
286.412, 98.711
286.894, 98.275
287.376, 94.970
287.858, 92.045
288.340, 91.035
288.822, 91.028
289.304, 90.220
289.786, 87.166
290.268, 83.324
290.751, 83.209
291.233, 88.904
291.715, 93.742
292.197, 94.572
292.679, 94.090
293.161, 95.228
293.643, 99.146
294.125, 103.413
294.608, 104.661
295.090, 102.571
295.572, 100.497
296.054, 98.528
296.536, 97.524
297.018, 98.510
297.500, 101.589
297.982, 104.890
298.465, 106.894
298.947, 107.925
299.429, 109.660
299.911, 113.043
300.393, 115.900
300.875, 115.941
301.357, 113.641
301.839, 111.203
302.321, 108.519
302.804, 106.520
303.286, 107.359
303.768, 111.517
304.250, 114.979
304.732, 114.172
305.214, 110.171
305.696, 107.820
306.178, 108.142
306.660, 109.594
307.143, 111.419
307.625, 113.553
308.107, 115.962
308.589, 118.954
309.071, 121.864
309.553, 122.356
310.035, 118.843
310.517, 116.034
311.000, 115.546
311.482, 116.400
311.964, 117.013
312.446, 116.876
312.928, 117.035
313.410, 119.190
313.892, 124.650
314.374, 129.109
314.857, 132.274
315.339, 134.660
315.821, 136.485
316.303, 137.855
316.785, 138.984
317.267, 140.147
317.749, 141.411
318.231, 141.615
318.713, 138.180
319.195, 136.452
319.678, 140.316
320.160, 146.858
320.642, 150.484
321.124, 147.779
321.606, 140.760
322.088, 136.389
322.570, 135.483
323.052, 136.210
323.535, 140.636
324.017, 145.079
324.499, 145.201
324.981, 139.953
325.463, 133.831
325.945, 133.867
326.427, 141.663
326.909, 146.423
327.392, 144.477
327.874, 141.181
328.356, 139.042
328.838, 138.154
329.320, 137.796
329.802, 137.946
330.284, 138.305
330.766, 137.321
331.248, 134.105
331.731, 131.453
332.213, 132.160
332.695, 134.452
333.177, 135.060
333.659, 131.761
334.141, 127.644
334.623, 126.508
335.105, 128.233
335.587, 129.633
336.070, 129.022
336.552, 127.534
337.034, 127.599
337.516, 130.109
337.998, 131.684
338.480, 129.952
338.962, 126.449
339.444, 124.034
339.927, 123.451
340.409, 123.845
340.891, 124.344
341.373, 125.060
341.855, 125.226
342.337, 124.293
342.819, 123.196
343.301, 122.687
343.784, 122.701
344.266, 122.667
344.748, 122.200
345.230, 121.299
345.712, 119.940
346.194, 116.647
346.676, 114.612
347.158, 115.608
347.640, 117.905
348.122, 119.053
348.605, 118.071
349.087, 116.055
349.569, 115.248
350.051, 116.685
350.533, 117.096
351.015, 114.536
351.497, 112.424
351.979, 114.296
352.462, 119.451
352.944, 123.102
353.426, 119.546
353.908, 109.280
354.390, 103.585
354.872, 104.996
355.354, 107.570
355.836, 108.882
356.319, 109.385
356.801, 109.940
357.283, 111.258
357.765, 112.255
358.247, 110.295
358.729, 104.960
359.211, 102.481
359.693, 107.645
360.175, 114.996
360.658, 116.757
361.140, 111.577
361.622, 106.780
362.104, 107.099
362.586, 110.334
363.068, 111.892
363.550, 110.834
364.032, 108.541
364.514, 105.985
364.997, 103.153
365.479, 101.443
365.961, 101.287
366.443, 101.967
366.925, 103.297
367.407, 105.101
367.889, 107.187
368.371, 109.663
368.853, 111.974
369.336, 111.888
369.818, 106.038
370.300, 101.977
370.782, 100.667
371.264, 101.234
371.746, 103.897
372.228, 108.226
372.711, 111.562
373.193, 109.619
373.675, 100.172
374.157, 95.213
374.639, 99.233
375.121, 103.610
375.603, 105.079
376.085, 104.344
376.567, 103.628
377.049, 104.256
377.532, 105.820
378.014, 107.187
378.496, 108.277
378.978, 109.436
379.460, 111.112
379.942, 112.746
380.424, 113.992
380.906, 114.896
381.389, 114.758
381.871, 112.137
382.353, 107.822
382.835, 104.779
383.317, 103.286
383.799, 103.798
384.281, 108.334
384.763, 116.196
385.246, 121.759
385.728, 122.558
386.210, 121.805
386.692, 121.765
387.174, 122.511
387.656, 123.874
388.138, 125.991
388.620, 128.390
389.102, 129.227
389.585, 125.990
390.067, 124.539
390.549, 127.021
391.031, 130.810
391.513, 133.204
391.995, 133.624
392.477, 133.306
392.959, 133.681
393.441, 134.858
393.924, 136.041
394.406, 137.416
394.888, 138.597
395.370, 139.493
395.852, 140.094
396.334, 140.218
396.816, 139.550
397.298, 138.887
397.780, 138.868
398.263, 138.326
398.745, 145.810
399.227, 151.345
399.709, 155.037
400.191, 151.363
400.673, 157.200
401.155, 159.227
401.638, 161.096
402.120, 168.272
402.602, 165.669
403.084, 172.761
403.566, 175.983
404.048, 178.309
404.530, 175.048
405.012, 175.524
405.494, 171.408
405.977, 168.289
406.459, 169.493
406.941, 173.925
407.423, 179.695
407.905, 186.288
408.387, 192.091
408.869, 193.788
409.351, 186.976
409.833, 185.411
410.316, 194.027
410.798, 203.568
411.280, 207.709
411.762, 207.000
412.244, 205.794
412.726, 207.292
413.208, 211.161
413.690, 215.138
414.172, 218.920
414.655, 223.370
415.137, 229.212
415.619, 235.471
416.101, 241.651
416.583, 247.635
417.065, 252.206
417.547, 252.941
418.029, 250.485
418.512, 250.666
418.994, 254.879
419.476, 260.681
419.958, 267.316
420.440, 274.176
420.922, 278.713
421.404, 278.333
421.886, 277.009
422.368, 278.303
422.851, 281.644
423.333, 284.794
423.815, 286.982
424.297, 287.825
424.779, 286.276
425.261, 280.680
425.743, 275.963
426.225, 272.215
426.708, 269.576
427.190, 268.518
427.672, 268.802
428.154, 269.621
428.636, 270.591
429.118, 271.498
429.600, 269.853
430.082, 263.699
430.565, 257.673
431.047, 250.728
431.529, 245.331
432.011, 245.412
432.493, 252.020
432.975, 258.732
433.457, 257.640
433.939, 249.353
434.421, 242.021
434.904, 236.462
435.386, 232.168
435.868, 228.603
436.350, 225.904
436.832, 224.749
437.314, 226.360
437.796, 228.726
438.278, 230.411
438.760, 231.478
439.243, 232.008
439.725, 231.870
440.207, 231.723
440.689, 233.010
441.171, 237.534
441.653, 239.283
442.135, 235.580
442.617, 231.049
443.099, 229.276
443.582, 229.842
444.064, 230.155
444.546, 228.413
445.028, 224.825
445.510, 220.114
445.992, 211.718
446.474, 206.882
446.957, 209.978
447.439, 214.806
447.921, 215.814
448.403, 212.194
448.885, 207.776
449.367, 205.816
449.849, 205.803
450.331, 205.408
450.813, 204.256
451.296, 203.470
451.778, 203.752
452.260, 204.987
452.742, 206.961
453.224, 211.036
453.706, 213.982
454.188, 213.206
454.670, 210.230
455.152, 207.784
455.635, 206.633
456.117, 206.723
456.599, 208.434
457.081, 212.847
457.563, 213.432
458.045, 205.385
458.527, 199.082
459.009, 200.359
459.491, 206.088
459.974, 210.480
460.456, 210.712
460.938, 208.682
461.420, 208.044
461.902, 209.253
462.384, 209.762
462.866, 209.545
463.348, 208.130
463.831, 203.166
464.313, 196.132
464.795, 193.265
465.277, 202.019
465.759, 214.092
466.241, 217.942
466.723, 213.928
467.205, 207.840
467.687, 200.809
468.170, 194.827
468.652, 195.087
469.134, 204.493
469.616, 211.154
470.098, 210.430
470.580, 208.420
471.062, 210.556
471.544, 216.637
472.026, 223.311
472.509, 228.281
472.991, 231.580
473.473, 233.144
473.955, 232.624
474.437, 230.813
474.919, 226.475
475.401, 222.007
475.883, 219.159
476.366, 218.250
476.848, 218.844
477.330, 221.197
477.812, 224.808
478.294, 228.605
478.776, 233.224
479.258, 234.746
479.740, 228.402
480.223, 218.075
480.705, 213.780
481.187, 218.768
481.669, 223.860
482.151, 226.229
482.633, 226.254
483.115, 223.343
483.597, 217.801
484.079, 212.861
484.561, 211.919
485.044, 214.936
485.526, 215.643
486.008, 209.955
486.490, 206.638
486.972, 209.373
487.454, 214.164
487.936, 216.887
488.418, 216.352
488.901, 213.611
489.383, 208.939
489.865, 202.604
490.347, 197.658
490.829, 194.486
491.311, 192.208
491.793, 191.644
492.275, 191.396
492.758, 188.348
493.240, 180.224
493.722, 172.122
494.204, 165.901
494.686, 161.931
495.168, 162.054
495.650, 166.599
496.132, 171.026
496.614, 170.111
497.097, 163.238
497.579, 158.343
498.061, 157.402
498.543, 156.032
499.025, 152.552
499.507, 148.208
499.989, 145.032
500.471, 143.615
500.953, 141.969
501.436, 136.362
501.918, 126.953
502.400, 122.370
502.882, 125.170
503.364, 129.078
503.846, 131.139
504.328, 131.309
504.810, 128.948
505.293, 122.155
505.775, 115.583
506.257, 111.662
506.739, 110.031
507.221, 110.608
507.703, 113.348
508.185, 115.981
508.667, 115.963
509.150, 113.059
509.632, 110.493
510.114, 108.650
510.596, 106.658
511.078, 102.829
511.560, 99.351
512.042, 99.616
512.524, 104.487
513.006, 110.299
513.489, 113.099
513.971, 112.991
514.453, 111.395
514.935, 107.881
515.417, 103.955
515.899, 99.493
516.381, 95.487
516.863, 94.235
517.346, 97.568
517.828, 101.020
518.310, 101.933
518.792, 101.589
519.274, 102.404
519.756, 104.726
520.238, 106.417
520.720, 105.253
521.202, 101.299
521.685, 98.285
522.167, 96.191
522.649, 95.186
523.131, 95.924
523.613, 97.409
524.095, 98.801
524.577, 99.871
525.059, 100.621
525.541, 100.860
526.024, 100.749
526.506, 101.203
526.988, 102.556
527.470, 103.063
527.952, 101.291
528.434, 98.203
528.916, 96.159
529.398, 95.498
529.880, 95.079
530.363, 94.869
530.845, 94.537
531.327, 93.866
531.809, 92.758
532.291, 90.809
532.773, 87.517
533.255, 83.419
533.737, 81.252
534.219, 82.224
534.702, 82.867
535.184, 81.704
535.666, 80.778
536.148, 82.265
536.630, 85.796
537.112, 88.319
537.594, 87.114
538.076, 84.123
538.559, 82.352
539.041, 81.781
539.523, 82.074
540.005, 83.299
540.487, 84.978
540.969, 86.384
541.451, 87.662
541.933, 88.149
542.416, 87.664
542.898, 86.531
543.380, 83.896
543.862, 80.883
544.344, 79.777
544.826, 81.748
545.308, 85.714
545.790, 90.519
546.273, 96.769
546.755, 99.347
547.237, 95.600
547.719, 90.764
548.201, 88.042
548.683, 86.945
549.165, 86.202
549.647, 85.338
550.129, 84.951
550.612, 85.314
551.094, 86.488
551.576, 89.440
552.058, 94.319
552.540, 97.906
553.022, 96.262
553.504, 89.137
553.986, 85.376
554.468, 89.249
554.951, 91.607
555.433, 88.850
555.915, 84.980
556.397, 84.736
556.879, 88.853
557.361, 93.276
557.843, 94.104
558.325, 92.590
558.807, 92.618
559.290, 94.465
559.772, 96.359
560.254, 97.553
560.736, 98.118
561.218, 98.162
561.700, 97.721
562.182, 96.794
562.664, 95.545
563.146, 93.676
563.629, 89.308
564.111, 84.021
564.593, 82.842
565.075, 89.116
565.557, 98.473
566.039, 100.476
566.521, 93.282
567.003, 87.932
567.486, 86.743
567.968, 86.753
568.450, 85.860
568.932, 84.426
569.414, 83.576
569.896, 83.163
570.378, 83.957
570.860, 88.261
571.343, 93.826
571.825, 95.157
572.307, 91.079
572.789, 86.592
573.271, 86.906
573.753, 92.036
574.235, 97.428
574.717, 105.585
575.200, 110.468
575.682, 109.201
576.164, 105.456
576.646, 102.736
577.128, 101.552
577.610, 100.067
578.092, 95.606
578.574, 90.420
579.056, 89.637
579.539, 93.230
580.021, 96.649
580.503, 97.827
580.985, 97.761
581.467, 98.330
581.949, 100.149
582.431, 100.990
582.913, 99.689
583.395, 98.548
583.878, 98.929
584.360, 100.349
584.842, 101.972
585.324, 103.478
585.806, 104.326
586.288, 103.018
586.770, 99.764
587.252, 98.852
587.734, 101.277
588.217, 104.497
588.699, 107.226
589.181, 109.432
589.663, 111.077
590.145, 111.473
590.627, 112.467
591.109, 115.305
591.591, 118.585
592.073, 120.675
592.556, 121.638
593.038, 122.658
593.520, 124.494
594.002, 127.160
594.484, 130.936
594.966, 136.415
595.448, 140.879
595.930, 144.100
596.413, 145.841
596.895, 145.152
597.377, 142.701
597.859, 141.508
598.341, 142.852
598.823, 145.282
599.305, 148.211
599.787, 151.421
600.269, 154.721
600.752, 158.000
601.234, 160.757
601.716, 162.529
602.198, 163.311
602.680, 162.927
603.162, 159.731
603.644, 158.139
604.127, 159.682
604.609, 162.739
605.091, 166.831
605.573, 171.592
606.055, 174.384
606.537, 172.033
607.019, 168.153
607.501, 167.917
607.983, 170.372
608.466, 170.433
608.948, 165.888
609.430, 160.480
609.912, 160.109
610.394, 166.326
610.876, 169.344
611.358, 165.562
611.840, 162.639
612.322, 163.995
612.805, 166.686
613.287, 166.992
613.769, 164.053
614.251, 160.001
614.733, 155.820
615.215, 151.895
615.697, 149.354
616.179, 148.163
616.661, 146.454
617.144, 143.130
617.626, 139.218
618.108, 137.015
618.590, 138.267
619.072, 136.724
619.554, 128.305
620.036, 121.572
620.518, 122.892
621.000, 127.777
621.483, 127.710
621.965, 119.302
622.447, 110.777
622.929, 112.435
623.411, 120.787
623.893, 124.124
624.375, 121.195
624.857, 116.842
625.340, 113.397
625.822, 110.978
626.304, 110.010
626.786, 111.863
627.268, 112.741
627.750, 112.787
628.232, 111.664
628.714, 107.348
629.196, 101.975
629.679, 100.269
630.161, 104.743
630.643, 110.879
631.125, 112.817
631.607, 111.428
632.089, 111.235
632.571, 112.906
633.054, 114.907
633.536, 116.366
634.018, 117.323
634.500, 117.943
634.982, 118.429
635.464, 118.267
635.946, 115.891
636.428, 114.186
636.910, 116.506
637.393, 121.088
637.875, 123.010
638.357, 119.422
638.839, 114.007
639.321, 111.480
639.803, 111.615
640.285, 113.082
640.767, 115.732
641.250, 119.828
641.732, 126.751
642.214, 135.117
642.696, 138.295
643.178, 132.743
643.660, 127.585
644.142, 122.856
644.624, 119.316
645.106, 118.410
645.589, 119.187
646.071, 118.825
646.553, 115.441
647.035, 111.965
647.517, 113.688
647.999, 119.451
648.481, 121.785
648.963, 119.144
649.445, 115.666
649.928, 114.384
650.410, 114.738
650.892, 114.053
651.374, 111.314
651.856, 108.999
652.338, 108.744
652.820, 107.672
653.302, 101.976
