##NAMES=Orthoclase
##RRUFFID=R070001
##IDEAL CHEMISTRY=KAlSi_3_O_8_
##LOCALITY=Lengenbach Quarry, Binnental, Valais, Switzerland
##OWNER=RRUFF
##SOURCE=Michael Scott
##DESCRIPTION=Colorless single crystal with a habit similar to adularia
##STATUS=The identification of this mineral has been confirmed by X-ray diffraction and chemical analysis
##URL=rruff.info/R070001
##MEASURED CHEMISTRY= (K_0.92_Na_0.07_Ba_0.01_)_Σ=1_Al_1.01_Si_2.99_O_8_; darker core :  (K_0.91_Na_0.07_Ba_0.02_)_Σ=1_Al_1.02_Si_2.98_O_8_ ; lighter rim
120.7718, 544.9137
121.2539, 582.5374
121.7360, 617.5256
122.2181, 650.2681
122.7003, 681.4270
123.1824, 714.7882
123.6645, 745.2745
124.1466, 765.4373
124.6287, 772.9942
125.1108, 777.2814
125.5930, 786.5848
126.0751, 800.2927
126.5572, 816.1202
127.0393, 834.1697
127.5214, 853.2088
128.0035, 869.9133
128.4857, 882.7396
128.9678, 894.5519
129.4499, 909.5612
129.9320, 927.8014
130.4141, 948.7254
130.8962, 974.5469
131.3784, 1004.019
131.8605, 1027.786
132.3426, 1041.087
132.8247, 1047.320
133.3068, 1058.960
133.7889, 1076.611
134.2711, 1097.330
134.7532, 1118.285
135.2353, 1139.300
135.7174, 1160.443
136.1995, 1181.792
136.6816, 1203.450
137.1638, 1224.140
137.6459, 1242.336
138.1280, 1261.534
138.6101, 1289.211
139.0922, 1329.038
139.5743, 1367.218
140.0565, 1397.797
140.5386, 1419.567
141.0207, 1437.393
141.5028, 1448.360
141.9849, 1455.936
142.4670, 1472.828
142.9492, 1500.833
143.4313, 1535.450
143.9134, 1573.627
144.3955, 1615.715
144.8776, 1661.307
145.3597, 1710.970
145.8419, 1763.838
146.3240, 1820.685
146.8061, 1878.245
147.2882, 1941.759
147.7703, 2015.219
148.2524, 2115.793
148.7346, 2207.747
149.2167, 2281.956
149.6988, 2332.533
150.1809, 2391.107
150.6630, 2459.559
151.1452, 2535.596
151.6273, 2615.437
152.1094, 2708.739
152.5915, 2797.281
153.0736, 2876.651
153.5557, 2947.769
154.0379, 3004.717
154.5200, 3049.290
155.0021, 3079.488
155.4842, 3091.823
155.9663, 3073.881
156.4484, 3046.308
156.9306, 3018.965
157.4127, 2997.294
157.8948, 2970.565
158.3769, 2936.000
158.8590, 2894.144
159.3411, 2847.237
159.8233, 2794.615
160.3054, 2737.453
160.7875, 2676.454
161.2696, 2605.328
161.7517, 2536.292
162.2338, 2474.755
162.7160, 2420.157
163.1981, 2365.451
163.6802, 2307.973
164.1623, 2248.539
164.6444, 2188.015
165.1265, 2117.485
165.6087, 2052.419
166.0908, 2004.905
166.5729, 1975.863
167.0550, 1951.851
167.5371, 1927.167
168.0192, 1901.856
168.5014, 1875.879
168.9835, 1841.064
169.4656, 1810.184
169.9477, 1798.201
170.4298, 1809.968
170.9119, 1823.973
171.3941, 1820.890
171.8762, 1806.368
172.3583, 1794.590
172.8404, 1795.899
173.3225, 1803.509
173.8046, 1810.422
174.2868, 1817.989
174.7689, 1819.001
175.2510, 1802.525
175.7331, 1771.192
176.2152, 1737.936
176.6973, 1709.284
177.1795, 1684.439
177.6616, 1662.589
178.1437, 1644.808
178.6258, 1628.391
179.1079, 1611.837
179.5900, 1594.692
180.0722, 1573.166
180.5543, 1539.357
181.0364, 1497.721
181.5185, 1461.882
182.0006, 1436.423
182.4827, 1418.546
182.9649, 1402.170
183.4470, 1387.419
183.9291, 1374.529
184.4112, 1366.102
184.8933, 1360.785
185.3754, 1352.164
185.8576, 1332.828
186.3397, 1308.394
186.8218, 1298.690
187.3039, 1305.587
187.7860, 1317.402
188.2681, 1318.948
188.7503, 1311.136
189.2324, 1305.547
189.7145, 1308.305
190.1966, 1318.186
190.6787, 1327.629
191.1608, 1336.143
191.6430, 1345.209
192.1251, 1360.041
192.6072, 1380.907
193.0893, 1395.993
193.5714, 1394.357
194.0535, 1377.374
194.5357, 1371.432
195.0178, 1380.359
195.4999, 1397.210
195.9820, 1410.152
196.4641, 1419.262
196.9462, 1423.187
197.4284, 1420.846
197.9105, 1412.183
198.3926, 1398.794
198.8747, 1380.157
199.3568, 1357.388
199.8389, 1333.258
200.3211, 1307.595
200.8032, 1281.278
201.2853, 1252.839
201.7674, 1221.113
202.2495, 1198.210
202.7316, 1189.108
203.2138, 1189.567
203.6959, 1180.754
204.1780, 1160.079
204.6601, 1137.258
205.1422, 1119.187
205.6243, 1105.630
206.1065, 1098.484
206.5886, 1100.160
207.0707, 1109.313
207.5528, 1114.365
208.0349, 1114.701
208.5170, 1112.121
208.9992, 1108.145
209.4813, 1102.602
209.9634, 1096.039
210.4455, 1087.656
210.9276, 1077.607
211.4097, 1070.791
211.8919, 1067.098
212.3740, 1066.813
212.8561, 1071.051
213.3382, 1081.700
213.8203, 1091.715
214.3024, 1099.671
214.7846, 1105.589
215.2667, 1108.311
215.7488, 1106.894
216.2309, 1103.333
216.7130, 1099.982
217.1951, 1096.307
217.6773, 1094.068
218.1594, 1094.064
218.6415, 1096.769
219.1236, 1099.178
219.6057, 1101.277
220.0878, 1103.142
220.5700, 1104.648
221.0521, 1105.034
221.5342, 1106.634
222.0163, 1111.562
222.4984, 1122.759
222.9805, 1125.731
223.4627, 1116.526
223.9448, 1101.287
224.4269, 1092.129
224.9090, 1090.505
225.3911, 1092.326
225.8732, 1096.453
226.3554, 1103.833
226.8375, 1110.969
227.3196, 1118.251
227.8017, 1125.028
228.2838, 1129.869
228.7659, 1132.850
229.2481, 1133.704
229.7302, 1132.084
230.2123, 1127.046
230.6944, 1121.294
231.1765, 1112.598
231.6587, 1103.708
232.1408, 1103.209
232.6229, 1115.630
233.1050, 1130.087
233.5871, 1141.031
234.0692, 1145.800
234.5514, 1153.034
235.0335, 1163.867
235.5156, 1177.290
235.9977, 1190.129
236.4798, 1202.495
236.9619, 1214.329
237.4441, 1226.027
237.9262, 1239.594
238.4083, 1248.433
238.8904, 1249.297
239.3725, 1244.793
239.8546, 1247.335
240.3368, 1260.576
240.8189, 1276.173
241.3010, 1288.781
241.7831, 1294.743
242.2652, 1305.361
242.7473, 1322.701
243.2295, 1345.794
243.7116, 1368.707
244.1937, 1393.127
244.6758, 1415.440
245.1579, 1432.880
245.6400, 1442.584
246.1222, 1453.280
246.6043, 1465.376
247.0864, 1479.051
247.5685, 1494.749
248.0506, 1511.130
248.5327, 1531.144
249.0149, 1557.768
249.4970, 1595.945
249.9791, 1629.931
250.4612, 1656.620
250.9433, 1677.125
251.4254, 1698.943
251.9076, 1717.742
252.3897, 1743.448
252.8718, 1786.603
253.3539, 1860.514
253.8360, 1919.156
254.3181, 1950.954
254.8003, 1960.036
255.2824, 1982.673
255.7645, 2023.676
256.2466, 2071.309
256.7287, 2117.371
257.2108, 2164.126
257.6930, 2203.958
258.1751, 2232.386
258.6572, 2251.465
259.1393, 2279.851
259.6214, 2321.740
260.1035, 2365.603
260.5857, 2400.357
261.0678, 2420.817
261.5499, 2447.942
262.0320, 2486.965
262.5141, 2536.448
262.9962, 2582.376
263.4784, 2626.445
263.9605, 2665.011
264.4426, 2693.498
264.9247, 2707.370
265.4068, 2727.514
265.8889, 2759.852
266.3711, 2801.829
266.8532, 2837.312
267.3353, 2866.359
267.8174, 2888.240
268.2995, 2899.508
268.7816, 2895.194
269.2638, 2900.711
269.7459, 2921.329
270.2280, 2955.142
270.7101, 2992.323
271.1922, 3032.698
271.6743, 3076.569
272.1565, 3125.813
272.6386, 3183.329
273.1207, 3232.829
273.6028, 3268.709
274.0849, 3294.585
274.5670, 3327.610
275.0492, 3367.172
275.5313, 3415.557
276.0134, 3478.193
276.4955, 3557.129
276.9776, 3628.830
277.4597, 3687.804
277.9419, 3736.527
278.4240, 3785.199
278.9061, 3834.868
279.3882, 3880.215
279.8703, 3915.036
280.3524, 3939.277
280.8346, 3963.467
281.3167, 3991.397
281.7988, 4019.188
282.2809, 4036.182
282.7630, 4042.528
283.2451, 4037.034
283.7273, 4019.728
284.2094, 3990.583
284.6915, 3945.196
285.1736, 3881.049
285.6557, 3801.898
286.1378, 3713.425
286.6200, 3614.994
287.1021, 3517.018
287.5842, 3431.075
288.0663, 3355.162
288.5484, 3268.592
289.0305, 3165.766
289.5127, 3053.595
289.9948, 2939.324
290.4769, 2823.100
290.9590, 2714.971
291.4411, 2625.347
291.9232, 2550.860
292.4054, 2475.775
292.8875, 2396.102
293.3696, 2316.503
293.8517, 2247.282
294.3338, 2187.302
294.8159, 2128.369
295.2981, 2064.228
295.7802, 1997.006
296.2623, 1932.860
296.7444, 1871.389
297.2265, 1816.669
297.7086, 1778.347
298.1908, 1754.114
298.6729, 1730.236
299.1550, 1698.828
299.6371, 1661.963
300.1192, 1621.838
300.6013, 1577.265
301.0835, 1534.476
301.5656, 1500.634
302.0477, 1474.610
302.5298, 1453.863
303.0119, 1441.304
303.4940, 1431.333
303.9762, 1414.599
304.4583, 1388.071
304.9404, 1363.470
305.4225, 1357.084
305.9046, 1361.376
306.3867, 1358.725
306.8689, 1330.057
307.3510, 1295.259
307.8331, 1275.765
308.3152, 1275.111
308.7973, 1278.182
309.2794, 1277.073
309.7616, 1272.170
310.2437, 1264.065
310.7258, 1249.139
311.2079, 1233.846
311.6900, 1222.681
312.1721, 1216.411
312.6543, 1211.842
313.1364, 1209.647
313.6185, 1207.562
314.1006, 1202.577
314.5827, 1185.237
315.0648, 1171.465
315.5470, 1173.267
316.0291, 1191.995
316.5112, 1205.669
316.9933, 1200.964
317.4754, 1188.428
317.9576, 1178.951
318.4397, 1178.519
318.9218, 1178.937
319.4039, 1176.739
319.8860, 1171.890
320.3681, 1169.212
320.8503, 1170.479
321.3324, 1174.095
321.8145, 1178.801
322.2966, 1188.190
322.7787, 1194.621
323.2608, 1194.482
323.7430, 1188.547
324.2251, 1185.739
324.7072, 1191.951
325.1893, 1198.500
325.6714, 1200.138
326.1535, 1189.122
326.6357, 1181.734
327.1178, 1179.952
327.5999, 1183.109
328.0820, 1187.497
328.5641, 1196.840
329.0462, 1204.154
329.5284, 1206.009
330.0105, 1199.052
330.4926, 1191.610
330.9747, 1181.796
331.4568, 1171.617
331.9389, 1167.778
332.4211, 1175.777
332.9032, 1182.566
333.3853, 1181.729
333.8674, 1168.436
334.3495, 1160.932
334.8316, 1161.399
335.3138, 1166.218
335.7959, 1167.628
336.2780, 1163.432
336.7601, 1161.396
337.2422, 1166.273
337.7243, 1179.865
338.2065, 1185.105
338.6886, 1179.636
339.1707, 1169.546
339.6528, 1163.986
340.1349, 1163.774
340.6170, 1162.940
341.0992, 1158.395
341.5813, 1150.834
342.0634, 1148.191
342.5455, 1151.364
343.0276, 1156.331
343.5097, 1158.710
343.9919, 1158.577
344.4740, 1157.691
344.9561, 1155.493
345.4382, 1153.275
345.9203, 1155.750
346.4024, 1163.167
346.8846, 1171.573
347.3667, 1178.409
347.8488, 1183.532
348.3309, 1185.445
348.8130, 1181.428
349.2951, 1176.802
349.7773, 1182.399
350.2594, 1197.068
350.7415, 1210.668
351.2236, 1214.218
351.7057, 1212.105
352.1878, 1212.488
352.6700, 1217.318
353.1521, 1224.004
353.6342, 1229.596
354.1163, 1234.710
354.5984, 1241.320
355.0806, 1251.877
355.5627, 1263.826
356.0448, 1274.602
356.5269, 1283.728
357.0090, 1292.225
357.4911, 1298.972
357.9733, 1305.712
358.4554, 1315.563
358.9375, 1335.950
359.4196, 1355.317
359.9017, 1365.404
360.3839, 1364.472
360.8660, 1363.680
361.3481, 1368.108
361.8302, 1374.876
362.3123, 1380.752
362.7944, 1381.842
363.2766, 1384.757
363.7587, 1394.228
364.2408, 1410.216
364.7229, 1420.337
365.2050, 1416.319
365.6871, 1408.904
366.1693, 1405.802
366.6514, 1412.537
367.1335, 1418.296
367.6156, 1421.957
368.0977, 1423.637
368.5798, 1424.366
369.0620, 1425.201
369.5441, 1424.142
370.0262, 1420.046
370.5083, 1410.368
370.9904, 1401.567
371.4725, 1390.450
371.9547, 1380.978
372.4368, 1386.168
372.9189, 1419.064
373.4010, 1442.042
373.8831, 1436.098
374.3652, 1393.733
374.8474, 1364.648
375.3295, 1353.268
375.8116, 1349.435
376.2937, 1337.107
376.7758, 1314.667
377.2579, 1293.969
377.7401, 1278.898
378.2222, 1269.047
378.7043, 1261.880
379.1864, 1257.602
379.6685, 1255.396
380.1506, 1256.269
380.6328, 1259.651
381.1149, 1258.620
381.5970, 1248.240
382.0791, 1235.046
382.5612, 1236.792
383.0433, 1252.789
383.5255, 1266.412
384.0076, 1260.404
384.4897, 1243.059
384.9718, 1233.483
385.4539, 1236.290
385.9360, 1245.166
386.4182, 1255.451
386.9003, 1266.405
387.3824, 1275.654
387.8645, 1281.322
388.3466, 1284.950
388.8287, 1287.235
389.3109, 1287.580
389.7930, 1290.673
390.2751, 1301.444
390.7572, 1316.720
391.2393, 1331.536
391.7214, 1344.149
392.2036, 1355.771
392.6857, 1367.326
393.1678, 1378.850
393.6499, 1389.328
394.1320, 1397.026
394.6141, 1404.218
395.0963, 1412.740
395.5784, 1420.688
396.0605, 1432.550
396.5426, 1450.707
397.0247, 1474.199
397.5068, 1497.315
397.9890, 1521.385
398.4711, 1543.457
398.9532, 1562.254
399.4353, 1577.854
399.9174, 1590.012
400.3995, 1597.763
400.8817, 1602.277
401.3638, 1605.278
401.8459, 1603.889
402.3280, 1605.912
402.8101, 1615.793
403.2922, 1635.680
403.7744, 1647.521
404.2565, 1649.936
404.7386, 1646.297
405.2207, 1640.214
405.7028, 1631.668
406.1849, 1620.605
406.6671, 1606.111
407.1492, 1589.109
407.6313, 1575.926
408.1134, 1567.417
408.5955, 1555.573
409.0776, 1530.717
409.5598, 1495.530
410.0419, 1463.619
410.5240, 1436.583
411.0061, 1414.828
411.4882, 1402.691
411.9703, 1398.325
412.4525, 1391.469
412.9346, 1372.665
413.4167, 1348.823
413.8988, 1331.531
414.3809, 1322.713
414.8630, 1314.321
415.3452, 1299.165
415.8273, 1279.768
416.3094, 1260.761
416.7915, 1240.447
417.2736, 1223.939
417.7557, 1216.485
418.2379, 1217.524
418.7200, 1219.479
419.2021, 1221.932
419.6842, 1222.142
420.1663, 1217.620
420.6484, 1200.783
421.1306, 1187.894
421.6127, 1184.418
422.0948, 1188.254
422.5769, 1192.947
423.0590, 1198.281
423.5411, 1203.605
424.0233, 1208.886
424.5054, 1214.902
424.9875, 1218.582
425.4696, 1216.708
425.9517, 1214.112
426.4338, 1218.220
426.9160, 1236.148
427.3981, 1247.405
427.8802, 1243.437
428.3623, 1225.295
428.8444, 1222.679
429.3265, 1240.089
429.8087, 1263.137
430.2908, 1280.871
430.7729, 1292.782
431.2550, 1302.686
431.7371, 1309.172
432.2192, 1316.248
432.7014, 1334.411
433.1835, 1363.516
433.6656, 1394.205
434.1477, 1421.850
434.6298, 1446.591
435.1119, 1467.063
435.5941, 1482.217
436.0762, 1499.553
436.5583, 1529.240
437.0404, 1567.663
437.5225, 1606.040
438.0046, 1638.812
438.4868, 1671.180
438.9689, 1707.764
439.4510, 1748.684
439.9331, 1793.120
440.4152, 1842.953
440.8973, 1895.328
441.3795, 1947.023
441.8616, 1993.803
442.3437, 2046.045
442.8258, 2109.658
443.3079, 2181.540
443.7900, 2254.704
444.2722, 2327.520
444.7543, 2400.117
445.2364, 2470.979
445.7185, 2536.639
446.2006, 2611.517
446.6827, 2706.212
447.1649, 2805.965
447.6470, 2895.774
448.1291, 2967.526
448.6112, 3042.164
449.0933, 3125.121
449.5754, 3213.650
450.0576, 3296.114
450.5397, 3374.077
451.0218, 3443.023
451.5039, 3498.407
451.9860, 3538.449
452.4681, 3583.400
452.9503, 3638.691
453.4324, 3692.302
453.9145, 3726.516
454.3966, 3741.453
454.8787, 3741.412
455.3608, 3720.809
455.8430, 3687.670
456.3251, 3669.198
456.8072, 3665.698
457.2893, 3654.718
457.7714, 3602.201
458.2535, 3530.033
458.7357, 3482.763
459.2178, 3479.074
459.6999, 3490.462
460.1820, 3493.169
460.6641, 3490.249
461.1462, 3490.814
461.6284, 3497.776
462.1105, 3510.994
462.5926, 3528.024
463.0747, 3546.740
463.5568, 3581.104
464.0389, 3640.094
464.5211, 3715.494
465.0032, 3797.620
465.4853, 3881.118
465.9674, 3975.018
466.4495, 4085.321
466.9316, 4210.206
467.4138, 4329.702
467.8959, 4435.956
468.3780, 4545.208
468.8601, 4665.568
469.3422, 4799.721
469.8243, 4939.267
470.3065, 5087.576
470.7886, 5237.946
471.2707, 5376.890
471.7528, 5504.349
472.2349, 5623.565
472.7170, 5742.165
473.1992, 5854.587
473.6813, 5930.812
474.1634, 5969.724
474.6455, 5983.839
475.1276, 5994.530
475.6097, 5990.808
476.0919, 5931.345
476.5740, 5798.738
477.0561, 5630.750
477.5382, 5463.925
478.0203, 5297.936
478.5024, 5131.791
478.9846, 4969.430
479.4667, 4803.157
479.9488, 4619.666
480.4309, 4416.238
480.9130, 4231.861
481.3951, 4096.291
481.8773, 3986.969
482.3594, 3883.251
482.8415, 3777.081
483.3236, 3678.574
483.8057, 3593.987
484.2878, 3520.492
484.7700, 3446.418
485.2521, 3363.269
485.7342, 3286.123
486.2163, 3221.416
486.6984, 3171.402
487.1805, 3123.283
487.6627, 3074.900
488.1448, 3031.277
488.6269, 2998.239
489.1090, 2977.352
489.5911, 2960.124
490.0732, 2942.593
490.5554, 2928.416
491.0375, 2930.805
491.5196, 2950.693
492.0017, 2978.633
492.4838, 3009.017
492.9659, 3042.676
493.4481, 3082.622
493.9302, 3127.983
494.4123, 3183.616
494.8944, 3252.935
495.3765, 3336.333
495.8586, 3436.199
496.3408, 3552.929
496.8229, 3687.566
497.3050, 3842.790
497.7871, 4017.233
498.2692, 4211.666
498.7513, 4420.578
499.2335, 4651.677
499.7156, 4910.992
500.1977, 5201.203
500.6798, 5513.384
501.1619, 5842.217
501.6440, 6189.438
502.1262, 6562.345
502.6083, 6961.401
503.0904, 7385.986
503.5725, 7833.675
504.0546, 8308.932
504.5367, 8793.108
505.0189, 9283.548
505.5010, 9785.292
505.9831, 10304.67
506.4652, 10837.85
506.9473, 11401.71
507.4294, 12005.57
507.9116, 12623.80
508.3937, 13239.29
508.8758, 13849.54
509.3579, 14457.58
509.8400, 15078.71
510.3221, 15691.41
510.8043, 16273.67
511.2864, 16816.51
511.7685, 17270.65
512.2506, 17623.78
512.7327, 17856.04
513.2148, 17948.82
513.6970, 17909.16
514.1791, 17696.61
514.6612, 17247.57
515.1433, 16617.05
515.6254, 15886.47
516.1075, 15030.76
516.5897, 14130.10
517.0718, 13183.89
517.5539, 12195.86
518.0360, 11265.32
518.5181, 10397.76
519.0002, 9590.003
519.4824, 8858.957
519.9645, 8208.064
520.4466, 7605.425
520.9287, 7048.199
521.4108, 6541.682
521.8929, 6097.650
522.3751, 5726.212
522.8572, 5387.171
523.3393, 5076.158
523.8214, 4788.538
524.3035, 4517.513
524.7856, 4261.688
525.2678, 4025.030
525.7499, 3811.488
526.2320, 3620.949
526.7141, 3457.958
527.1962, 3329.220
527.6783, 3214.247
528.1605, 3092.658
528.6426, 2972.573
529.1247, 2866.449
529.6068, 2787.993
530.0889, 2717.831
530.5710, 2642.951
531.0532, 2565.842
531.5353, 2494.428
532.0174, 2437.846
532.4995, 2383.532
532.9816, 2323.864
533.4637, 2248.176
533.9459, 2189.087
534.4280, 2157.988
534.9101, 2137.008
535.3922, 2103.976
535.8743, 2051.488
536.3564, 2004.771
536.8386, 1969.524
537.3207, 1943.155
537.8028, 1912.625
538.2849, 1876.982
538.7670, 1843.874
539.2491, 1818.534
539.7313, 1799.813
540.2134, 1783.059
540.6955, 1768.267
541.1776, 1752.834
541.6597, 1733.054
542.1418, 1710.643
542.6240, 1689.262
543.1061, 1670.660
543.5882, 1652.643
544.0703, 1632.978
544.5524, 1612.497
545.0345, 1593.196
545.5167, 1574.124
545.9988, 1558.187
546.4809, 1548.782
546.9630, 1547.884
547.4451, 1542.211
547.9272, 1527.089
548.4094, 1508.119
548.8915, 1489.023
549.3736, 1464.453
549.8557, 1450.438
550.3378, 1453.306
550.8199, 1464.312
551.3021, 1462.270
551.7842, 1443.972
552.2663, 1427.953
552.7484, 1422.849
553.2305, 1425.992
553.7126, 1423.727
554.1948, 1415.808
554.6769, 1406.735
555.1590, 1399.717
555.6411, 1394.327
556.1232, 1389.316
556.6053, 1383.879
557.0875, 1380.984
557.5696, 1387.691
558.0517, 1398.149
558.5338, 1401.890
559.0159, 1389.053
559.4980, 1374.411
559.9802, 1362.323
560.4623, 1353.292
560.9444, 1350.107
561.4265, 1361.570
561.9086, 1372.022
562.3907, 1373.291
562.8729, 1361.188
563.3550, 1353.364
563.8371, 1351.433
564.3192, 1352.034
564.8013, 1350.923
565.2834, 1347.207
565.7656, 1346.722
566.2477, 1350.946
566.7298, 1358.581
567.2119, 1368.607
567.6940, 1380.736
568.1761, 1389.598
568.6583, 1389.517
569.1404, 1385.247
569.6225, 1385.232
570.1046, 1389.669
570.5867, 1395.585
571.0688, 1402.604
571.5510, 1409.140
572.0331, 1413.186
572.5152, 1413.194
572.9973, 1412.966
573.4794, 1412.389
573.9615, 1412.798
574.4437, 1416.400
574.9258, 1428.830
575.4079, 1438.575
575.8900, 1441.883
576.3721, 1439.668
576.8542, 1441.606
577.3364, 1450.265
577.8185, 1458.054
578.3006, 1459.066
578.7827, 1452.670
579.2648, 1452.899
579.7469, 1461.272
580.2291, 1471.242
580.7112, 1476.261
581.1933, 1476.582
581.6754, 1472.603
582.1575, 1462.569
582.6396, 1451.411
583.1218, 1443.854
583.6039, 1439.723
584.0860, 1438.533
584.5681, 1448.667
585.0502, 1454.733
585.5323, 1442.496
586.0145, 1411.449
586.4966, 1387.573
586.9787, 1380.997
587.4608, 1381.529
587.9429, 1381.918
588.4250, 1371.638
588.9072, 1383.781
589.3893, 1440.082
589.8714, 1500.890
590.3535, 1503.002
590.8356, 1431.079
591.3177, 1376.410
591.7999, 1365.131
592.2820, 1381.652
592.7641, 1383.902
593.2462, 1372.405
593.7283, 1359.708
594.2104, 1352.526
594.6926, 1349.281
595.1747, 1348.058
595.6568, 1348.763
596.1389, 1349.986
596.6210, 1349.470
597.1031, 1349.563
597.5853, 1353.524
598.0674, 1367.560
598.5495, 1375.319
599.0316, 1367.137
599.5137, 1350.819
599.9958, 1339.572
600.4780, 1338.112
600.9601, 1336.795
601.4423, 1333.628
601.9244, 1329.184
602.4065, 1326.149
602.8886, 1324.274
603.3707, 1324.589
603.8528, 1329.985
604.3350, 1339.428
604.8171, 1340.680
605.2992, 1332.768
605.7813, 1323.261
606.2634, 1319.834
606.7455, 1320.041
607.2277, 1318.781
607.7098, 1314.820
608.1919, 1309.355
608.6740, 1301.088
609.1561, 1292.259
609.6382, 1287.175
610.1204, 1292.162
610.6025, 1296.091
611.0846, 1292.751
611.5667, 1283.341
612.0488, 1280.104
612.5309, 1288.154
613.0131, 1296.891
613.4952, 1301.789
613.9773, 1302.323
614.4594, 1303.103
