##NAMES=Orthoclase
##RRUFFID=R060077
##IDEAL CHEMISTRY=KAlSi_3_O_8_
##LOCALITY=pegmatite near Minh Tien, 15 km south of Luc Yen, Vietnam
##OWNER=RRUFF
##SOURCE=Marcus Origlieri
##DESCRIPTION=Green fragment. Crystal structure determined to demonstrate that it is orthoclase
##STATUS=The identification of this mineral has been confirmed by X-ray diffraction and chemical analysis
##URL=rruff.info/R060077
##MEASURED CHEMISTRY=(K_0.88_Na_0.12_)AlSi_3_O_8_
93.46680, 5331.961
93.94891, 5212.625
94.43103, 5229.358
94.91315, 5349.289
95.39526, 5471.180
95.87738, 5569.634
96.35950, 5654.601
96.84161, 5725.708
97.32373, 5786.869
97.80585, 5836.200
98.28796, 5875.933
98.77008, 5907.509
99.25220, 5933.463
99.73431, 5955.988
100.2164, 5974.680
100.6985, 5978.551
101.1807, 5981.328
101.6628, 5987.079
102.1449, 5997.539
102.6270, 6013.240
103.1091, 6032.666
103.5912, 6050.062
104.0734, 6060.535
104.5555, 6073.041
105.0376, 6089.350
105.5197, 6108.553
106.0018, 6128.564
106.4839, 6147.541
106.9661, 6165.156
107.4482, 6183.460
107.9303, 6200.595
108.4124, 6217.779
108.8945, 6235.192
109.3766, 6252.952
109.8588, 6272.108
110.3409, 6294.438
110.8230, 6320.455
111.3051, 6344.816
111.7872, 6365.742
112.2693, 6384.732
112.7515, 6403.751
113.2336, 6422.348
113.7157, 6442.690
114.1978, 6467.536
114.6799, 6496.577
115.1620, 6527.067
115.6442, 6556.839
116.1263, 6586.079
116.6084, 6616.787
117.0905, 6652.844
117.5726, 6688.110
118.0547, 6718.580
118.5369, 6743.306
119.0190, 6764.766
119.5011, 6786.239
119.9832, 6807.563
120.4653, 6828.903
120.9474, 6852.444
121.4296, 6874.977
121.9117, 6893.576
122.3938, 6906.933
122.8759, 6916.208
123.3580, 6925.390
123.8401, 6936.282
124.3223, 6944.768
124.8044, 6949.567
125.2865, 6951.777
125.7686, 6952.167
126.2507, 6950.632
126.7328, 6947.847
127.2150, 6953.480
127.6971, 6968.967
128.1792, 6989.000
128.6613, 7010.888
129.1434, 7035.045
129.6255, 7063.967
130.1077, 7100.502
130.5898, 7144.775
131.0719, 7190.677
131.5540, 7236.711
132.0361, 7285.335
132.5182, 7339.462
133.0004, 7399.602
133.4825, 7463.898
133.9646, 7532.058
134.4467, 7603.506
134.9288, 7676.313
135.4109, 7747.929
135.8931, 7819.852
136.3752, 7899.533
136.8573, 7993.453
137.3394, 8087.190
137.8215, 8174.266
138.3036, 8254.889
138.7858, 8329.575
139.2679, 8399.898
139.7500, 8466.411
140.2321, 8523.983
140.7142, 8569.282
141.1963, 8607.970
141.6785, 8640.639
142.1606, 8668.076
142.6427, 8692.407
143.1248, 8716.439
143.6069, 8742.135
144.0890, 8762.454
144.5712, 8771.802
145.0533, 8780.354
145.5354, 8794.522
146.0175, 8816.220
146.4996, 8844.077
146.9817, 8875.841
147.4639, 8912.256
147.9460, 8952.104
148.4281, 8992.755
148.9102, 9037.693
149.3923, 9092.438
149.8744, 9159.955
150.3566, 9235.658
150.8387, 9310.056
151.3208, 9382.030
151.8029, 9456.232
152.2850, 9533.468
152.7671, 9614.149
153.2493, 9698.837
153.7314, 9789.888
154.2135, 9883.901
154.6956, 9976.314
155.1777, 10068.76
155.6598, 10154.78
156.1420, 10230.38
156.6241, 10295.50
157.1062, 10347.12
157.5883, 10379.60
158.0704, 10398.01
158.5525, 10406.30
159.0347, 10406.29
159.5168, 10393.73
159.9989, 10361.29
160.4810, 10306.10
160.9631, 10236.15
161.4452, 10150.43
161.9274, 10055.18
162.4095, 9954.074
162.8916, 9848.610
163.3737, 9740.304
163.8558, 9634.816
164.3379, 9530.253
164.8201, 9431.615
165.3022, 9343.750
165.7843, 9260.878
166.2664, 9174.233
166.7485, 9076.987
167.2306, 8972.725
167.7128, 8889.454
168.1949, 8847.705
168.6770, 8804.845
169.1591, 8746.592
169.6412, 8679.714
170.1233, 8619.429
170.6055, 8577.084
171.0876, 8552.044
171.5697, 8524.022
172.0518, 8486.368
172.5339, 8452.392
173.0160, 8430.636
173.4982, 8419.421
173.9803, 8409.434
174.4624, 8394.108
174.9445, 8373.184
175.4266, 8350.999
175.9087, 8325.362
176.3909, 8299.822
176.8730, 8278.226
177.3551, 8260.871
177.8372, 8243.335
178.3193, 8221.951
178.8014, 8197.494
179.2836, 8172.759
179.7657, 8147.355
180.2478, 8122.260
180.7299, 8098.161
181.2120, 8074.502
181.6941, 8053.959
182.1763, 8038.270
182.6584, 8026.649
183.1405, 8018.679
183.6226, 8015.302
184.1047, 8015.424
184.5868, 8015.502
185.0690, 8015.284
185.5511, 8015.331
186.0332, 8016.193
186.5153, 8017.435
186.9974, 8018.148
187.4795, 8017.170
187.9617, 8014.760
188.4438, 8014.731
188.9259, 8018.455
189.4080, 8023.486
189.8901, 8028.825
190.3722, 8034.820
190.8544, 8042.265
191.3365, 8051.619
191.8186, 8062.891
192.3007, 8077.221
192.7828, 8097.171
193.2649, 8117.967
193.7471, 8138.821
194.2292, 8159.224
194.7113, 8178.900
195.1934, 8197.757
195.6755, 8216.521
196.1576, 8229.782
196.6398, 8236.383
197.1219, 8239.966
197.6040, 8242.351
198.0861, 8243.479
198.5682, 8242.095
199.0503, 8236.867
199.5325, 8227.111
200.0146, 8215.411
200.4967, 8198.315
200.9788, 8181.852
201.4609, 8170.569
201.9430, 8164.669
202.4252, 8160.497
202.9073, 8153.969
203.3894, 8144.695
203.8715, 8139.920
204.3536, 8141.649
204.8357, 8147.063
205.3179, 8154.745
205.8000, 8164.743
206.2821, 8173.837
206.7642, 8177.178
207.2463, 8176.077
207.7284, 8178.904
208.2106, 8192.624
208.6927, 8209.331
209.1748, 8216.941
209.6569, 8212.577
210.1390, 8205.980
210.6211, 8204.405
211.1033, 8206.841
211.5854, 8211.949
212.0675, 8219.697
212.5496, 8229.734
213.0317, 8241.741
213.5138, 8256.612
213.9960, 8271.395
214.4781, 8284.021
214.9602, 8295.152
215.4423, 8306.105
215.9244, 8317.019
216.4065, 8328.200
216.8886, 8340.877
217.3708, 8356.167
217.8529, 8371.322
218.3350, 8385.728
218.8171, 8399.102
219.2992, 8410.851
219.7813, 8419.876
220.2635, 8426.823
220.7456, 8435.995
221.2277, 8448.186
221.7098, 8461.982
222.1919, 8478.464
222.6740, 8495.983
223.1562, 8511.953
223.6383, 8524.418
224.1204, 8533.638
224.6025, 8542.559
225.0846, 8548.413
225.5667, 8557.026
226.0489, 8571.225
226.5310, 8589.123
227.0131, 8607.323
227.4952, 8623.624
227.9773, 8638.053
228.4594, 8652.590
228.9416, 8667.399
229.4237, 8682.018
229.9058, 8695.568
230.3879, 8708.833
230.8700, 8722.867
231.3521, 8738.338
231.8343, 8755.311
232.3164, 8774.728
232.7985, 8803.179
233.2806, 8826.792
233.7627, 8837.730
234.2448, 8841.057
234.7270, 8847.541
235.2091, 8864.488
235.6912, 8890.418
236.1733, 8911.067
236.6554, 8920.129
237.1375, 8931.920
237.6197, 8952.285
238.1018, 8978.856
238.5839, 9006.786
239.0660, 9033.890
239.5481, 9059.568
240.0302, 9080.496
240.5124, 9095.345
240.9945, 9108.002
241.4766, 9117.907
241.9587, 9126.407
242.4408, 9136.237
242.9229, 9148.025
243.4051, 9163.154
243.8872, 9186.116
244.3693, 9222.002
244.8514, 9257.021
245.3335, 9284.627
245.8156, 9306.371
246.2978, 9326.637
246.7799, 9346.558
247.2620, 9366.927
247.7441, 9389.405
248.2262, 9413.881
248.7083, 9440.134
249.1905, 9468.406
249.6726, 9498.401
250.1547, 9529.470
250.6368, 9561.676
251.1189, 9594.900
251.6010, 9629.311
252.0832, 9665.712
252.5653, 9700.238
253.0474, 9729.622
253.5295, 9754.998
254.0116, 9782.077
254.4937, 9811.760
254.9759, 9844.698
255.4580, 9880.892
255.9401, 9920.394
256.4222, 9961.970
256.9043, 10006.26
257.3864, 10052.44
257.8686, 10095.61
258.3507, 10131.94
258.8328, 10168.77
259.3149, 10212.31
259.7970, 10261.98
260.2791, 10313.26
260.7613, 10363.16
261.2434, 10411.99
261.7255, 10462.50
262.2076, 10515.63
262.6897, 10569.37
263.1718, 10622.92
263.6540, 10676.11
264.1361, 10728.43
264.6182, 10779.86
265.1003, 10830.13
265.5824, 10878.87
266.0645, 10925.29
266.5467, 10970.83
267.0288, 11015.08
267.5109, 11059.17
267.9930, 11105.17
268.4751, 11154.19
268.9572, 11206.11
269.4394, 11260.61
269.9215, 11316.50
270.4036, 11377.75
270.8857, 11449.49
271.3678, 11526.13
271.8499, 11598.90
272.3321, 11662.51
272.8142, 11719.46
273.2963, 11776.88
273.7784, 11832.78
274.2605, 11892.26
274.7426, 11959.17
275.2248, 12029.09
275.7069, 12096.19
276.1890, 12158.17
276.6711, 12215.86
277.1532, 12271.68
277.6353, 12329.45
278.1175, 12377.47
278.5996, 12414.78
279.0817, 12442.84
279.5638, 12462.20
280.0459, 12473.17
280.5280, 12477.73
281.0102, 12481.45
281.4923, 12492.56
281.9744, 12483.91
282.4565, 12446.42
282.9386, 12395.76
283.4207, 12342.63
283.9029, 12290.17
284.3850, 12236.16
284.8671, 12176.83
285.3492, 12110.09
285.8313, 12042.95
286.3134, 11974.05
286.7956, 11905.94
287.2777, 11839.54
287.7598, 11775.46
288.2419, 11713.93
288.7240, 11654.43
289.2061, 11596.17
289.6883, 11544.54
290.1704, 11501.63
290.6525, 11462.93
291.1346, 11427.27
291.6167, 11394.08
292.0988, 11362.96
292.5810, 11333.45
293.0631, 11305.50
293.5452, 11279.96
294.0273, 11258.00
294.5094, 11237.12
294.9915, 11217.94
295.4737, 11199.23
295.9558, 11177.98
296.4379, 11151.23
296.9200, 11119.74
297.4021, 11097.31
297.8842, 11089.34
298.3664, 11085.39
298.8485, 11085.66
299.3306, 11088.36
299.8127, 11091.48
300.2948, 11093.98
300.7769, 11095.75
301.2591, 11096.18
301.7412, 11094.08
302.2233, 11091.98
302.7054, 11086.81
303.1875, 11083.05
303.6696, 11087.01
304.1518, 11101.08
304.6339, 11120.15
305.1160, 11133.33
305.5981, 11135.96
306.0802, 11138.90
306.5623, 11140.65
307.0445, 11143.73
307.5266, 11149.44
308.0087, 11158.39
308.4908, 11171.69
308.9729, 11191.95
309.4550, 11225.24
309.9372, 11249.77
310.4193, 11260.82
310.9014, 11268.64
311.3835, 11279.75
311.8656, 11294.32
312.3477, 11308.16
312.8299, 11316.48
313.3120, 11317.97
313.7941, 11323.35
314.2762, 11332.76
314.7583, 11345.23
315.2404, 11360.74
315.7226, 11379.02
316.2047, 11399.91
316.6868, 11423.46
317.1689, 11449.41
317.6510, 11474.19
318.1331, 11502.50
318.6153, 11524.41
319.0974, 11531.98
319.5795, 11532.73
320.0616, 11538.25
320.5437, 11554.69
321.0258, 11578.76
321.5080, 11599.79
321.9901, 11614.45
322.4722, 11629.76
322.9543, 11647.67
323.4364, 11665.68
323.9185, 11680.85
324.4007, 11692.26
324.8828, 11702.31
325.3649, 11714.76
325.8470, 11729.31
326.3291, 11747.71
326.8112, 11772.41
327.2934, 11798.82
327.7755, 11825.64
328.2576, 11851.74
328.7397, 11874.63
329.2218, 11890.90
329.7039, 11898.31
330.1861, 11910.37
330.6682, 11929.67
331.1503, 11950.49
331.6324, 11972.38
332.1145, 11993.95
332.5966, 12011.99
333.0788, 12023.51
333.5609, 12029.09
334.0430, 12039.17
334.5251, 12057.31
335.0072, 12076.45
335.4893, 12096.05
335.9715, 12115.55
336.4536, 12132.87
336.9357, 12146.58
337.4178, 12160.43
337.8999, 12186.14
338.3820, 12238.27
338.8642, 12280.80
339.3463, 12308.21
339.8284, 12327.38
340.3105, 12343.62
340.7926, 12358.76
341.2747, 12372.13
341.7568, 12382.26
342.2390, 12386.67
342.7211, 12393.92
343.2032, 12403.67
343.6853, 12416.04
344.1674, 12432.44
344.6495, 12452.03
345.1317, 12471.80
345.6138, 12488.71
346.0959, 12502.51
346.5780, 12517.75
347.0601, 12536.63
347.5422, 12554.94
348.0244, 12569.67
348.5065, 12583.23
348.9886, 12600.49
349.4707, 12624.99
349.9528, 12654.29
350.4349, 12677.90
350.9171, 12693.21
351.3992, 12706.79
351.8813, 12718.71
352.3634, 12730.36
352.8455, 12742.77
353.3276, 12756.33
353.8098, 12771.29
354.2919, 12788.44
354.7740, 12808.96
355.2561, 12827.99
355.7382, 12840.76
356.2203, 12855.17
356.7025, 12876.93
357.1846, 12905.80
357.6667, 12936.47
358.1488, 12966.10
358.6309, 12994.87
359.1130, 13014.06
359.5952, 13012.90
360.0773, 13013.88
360.5594, 13027.41
361.0415, 13049.88
361.5236, 13073.73
362.0057, 13095.77
362.4879, 13115.29
362.9700, 13129.56
363.4521, 13135.57
363.9342, 13142.81
364.4163, 13153.82
364.8984, 13167.95
365.3806, 13185.45
365.8627, 13206.86
366.3448, 13229.13
366.8269, 13248.43
367.3090, 13264.60
367.7911, 13279.68
368.2733, 13292.33
368.7554, 13305.56
369.2375, 13320.62
369.7196, 13337.84
370.2017, 13358.77
370.6838, 13386.81
371.1660, 13420.17
371.6481, 13450.82
372.1302, 13480.31
372.6123, 13502.75
373.0944, 13510.63
373.5765, 13509.17
374.0587, 13509.44
374.5408, 13513.49
375.0229, 13522.91
375.5050, 13541.81
375.9871, 13571.06
376.4692, 13601.71
376.9514, 13630.74
377.4335, 13657.72
377.9156, 13682.02
378.3977, 13703.03
378.8798, 13722.82
379.3619, 13742.64
379.8441, 13762.43
380.3262, 13781.79
380.8083, 13800.37
381.2904, 13819.02
381.7725, 13838.95
382.2546, 13860.01
382.7368, 13881.29
383.2189, 13903.86
383.7010, 13926.03
384.1831, 13944.92
384.6652, 13960.16
385.1473, 13974.64
385.6295, 13990.92
386.1116, 14008.58
386.5937, 14025.06
387.0758, 14039.93
387.5579, 14053.89
388.0400, 14065.72
388.5222, 14076.61
389.0043, 14091.26
389.4864, 14112.71
389.9685, 14137.76
390.4506, 14157.86
390.9327, 14170.08
391.4149, 14185.10
391.8970, 14205.83
392.3791, 14230.16
392.8612, 14257.03
393.3433, 14285.88
393.8254, 14313.18
394.3076, 14334.08
394.7897, 14346.60
395.2718, 14363.59
395.7539, 14387.01
396.2360, 14412.70
396.7181, 14438.66
397.2003, 14464.84
397.6824, 14491.68
398.1645, 14519.82
398.6466, 14548.55
399.1287, 14575.28
399.6108, 14598.53
400.0930, 14621.30
400.5751, 14645.09
401.0572, 14668.06
401.5393, 14688.02
402.0214, 14704.38
402.5035, 14718.95
402.9857, 14734.19
403.4678, 14749.73
403.9499, 14767.20
404.4320, 14786.83
404.9141, 14808.03
405.3962, 14829.34
405.8784, 14851.84
406.3605, 14879.19
406.8426, 14915.35
407.3247, 14958.19
407.8068, 14991.11
408.2889, 15011.65
408.7711, 15024.24
409.2532, 15024.11
409.7353, 15019.98
410.2174, 15020.94
410.6995, 15030.15
411.1816, 15044.48
411.6638, 15060.35
412.1459, 15078.18
412.6280, 15094.82
413.1101, 15105.16
413.5922, 15118.32
414.0743, 15141.03
414.5565, 15171.71
415.0386, 15202.92
415.5207, 15228.11
416.0028, 15249.73
416.4849, 15278.39
416.9670, 15319.01
417.4492, 15354.45
417.9313, 15372.52
418.4134, 15381.26
418.8955, 15389.32
419.3776, 15397.35
419.8597, 15408.59
420.3419, 15427.29
420.8240, 15452.83
421.3061, 15479.15
421.7882, 15503.67
422.2703, 15529.56
422.7524, 15561.69
423.2346, 15600.07
423.7167, 15636.19
424.1988, 15667.87
424.6809, 15695.14
425.1630, 15716.04
425.6451, 15730.21
426.1273, 15746.08
426.6094, 15770.71
427.0915, 15802.30
427.5736, 15829.74
428.0557, 15850.76
428.5378, 15870.17
429.0200, 15887.69
429.5021, 15905.26
429.9842, 15927.36
430.4663, 15955.92
430.9484, 15987.64
431.4305, 16016.94
431.9127, 16041.63
432.3948, 16069.64
432.8769, 16103.55
433.3590, 16138.71
433.8411, 16173.01
434.3232, 16205.53
434.8054, 16234.87
435.2875, 16259.29
435.7696, 16279.43
436.2517, 16302.98
436.7338, 16330.31
437.2159, 16360.83
437.6981, 16397.91
438.1802, 16436.52
438.6623, 16471.72
439.1444, 16501.67
439.6265, 16527.53
440.1086, 16549.97
440.5908, 16566.76
441.0729, 16587.64
441.5550, 16614.75
442.0371, 16644.42
442.5192, 16674.37
443.0013, 16705.68
443.4835, 16741.78
443.9656, 16786.38
444.4477, 16835.86
444.9298, 16876.50
445.4119, 16904.73
445.8940, 16933.88
446.3762, 16967.42
446.8583, 17004.44
447.3404, 17044.91
447.8225, 17088.85
448.3046, 17133.31
448.7867, 17175.47
449.2689, 17215.61
449.7510, 17257.04
450.2331, 17302.98
450.7152, 17344.04
451.1973, 17366.95
451.6794, 17378.47
452.1616, 17396.68
452.6437, 17430.54
453.1258, 17469.49
453.6079, 17504.84
454.0900, 17536.65
454.5721, 17564.57
455.0543, 17587.60
455.5364, 17607.70
456.0185, 17628.54
456.5006, 17649.58
456.9827, 17672.38
457.4648, 17699.64
457.9470, 17727.48
458.4291, 17751.26
458.9112, 17770.73
459.3933, 17789.64
459.8754, 17810.44
460.3575, 17833.36
460.8397, 17863.39
461.3218, 17910.78
461.8039, 17952.38
462.2860, 17972.12
462.7681, 17986.16
463.2502, 18018.63
463.7324, 18077.39
464.2145, 18147.13
464.6966, 18203.31
465.1787, 18239.31
465.6608, 18280.65
466.1429, 18329.46
466.6251, 18380.93
467.1072, 18432.83
467.5893, 18485.75
468.0714, 18541.17
468.5535, 18599.76
469.0356, 18661.98
469.5178, 18731.23
469.9999, 18812.61
470.4820, 18887.72
470.9641, 18948.43
471.4462, 19003.66
471.9283, 19059.46
472.4105, 19116.56
472.8926, 19171.92
473.3747, 19226.37
473.8568, 19277.76
474.3389, 19317.42
474.8210, 19344.99
475.3032, 19360.59
475.7853, 19359.51
476.2674, 19347.03
476.7495, 19332.22
477.2316, 19315.29
477.7137, 19298.32
478.1959, 19284.04
478.6780, 19271.05
479.1601, 19255.00
479.6422, 19234.65
480.1243, 19210.78
480.6064, 19182.74
481.0886, 19148.75
481.5707, 19122.90
482.0528, 19107.95
482.5349, 19099.62
483.0170, 19097.57
483.4991, 19100.03
483.9813, 19102.77
484.4634, 19103.36
484.9455, 19103.01
485.4276, 19105.16
485.9097, 19106.37
486.3918, 19115.99
486.8740, 19142.28
487.3561, 19170.72
487.8382, 19189.28
488.3203, 19198.49
488.8024, 19207.31
489.2845, 19222.41
489.7667, 19244.16
490.2488, 19276.53
490.7309, 19330.60
491.2130, 19377.41
491.6951, 19399.96
492.1772, 19417.21
492.6594, 19449.85
493.1415, 19503.02
493.6236, 19563.30
494.1057, 19616.65
494.5878, 19664.45
495.0699, 19716.62
495.5521, 19774.14
496.0342, 19836.12
496.5163, 19900.59
496.9984, 19968.68
497.4805, 20044.09
497.9626, 20135.25
498.4448, 20225.37
498.9269, 20294.77
499.4090, 20349.94
499.8911, 20414.97
500.3732, 20498.54
500.8553, 20592.65
501.3375, 20686.44
501.8196, 20778.63
502.3017, 20878.41
502.7838, 20985.34
503.2659, 21100.91
503.7480, 21227.68
504.2302, 21364.29
504.7123, 21508.42
505.1944, 21658.97
505.6765, 21815.89
506.1586, 21979.26
506.6407, 22149.90
507.1228, 22327.82
507.6049, 22514.01
508.0871, 22706.71
508.5692, 22909.24
509.0513, 23118.44
509.5334, 23325.32
510.0155, 23525.14
510.4977, 23716.59
510.9798, 23889.38
511.4619, 24051.13
511.9440, 24177.20
512.4261, 24265.13
512.9083, 24311.63
513.3904, 24310.29
513.8725, 24259.96
514.3546, 24167.04
514.8367, 24021.47
515.3188, 23837.51
515.8010, 23655.36
516.2831, 23480.84
516.7652, 23294.28
517.2473, 23074.20
517.7294, 22831.88
518.2115, 22606.58
518.6937, 22400.92
519.1758, 22211.37
519.6579, 22032.30
520.1400, 21869.48
520.6221, 21736.35
521.1042, 21635.07
521.5864, 21549.29
522.0685, 21460.78
522.5506, 21367.63
523.0327, 21291.25
523.5148, 21234.69
523.9969, 21187.47
524.4791, 21150.06
524.9612, 21118.88
525.4433, 21089.50
525.9254, 21060.53
526.4075, 21033.68
526.8896, 21010.04
527.3718, 20987.50
527.8539, 20979.57
528.3360, 20998.05
528.8181, 21018.93
529.3002, 21033.03
529.7823, 21042.18
530.2645, 21051.06
530.7466, 21062.47
531.2287, 21071.85
531.7108, 21071.18
532.1929, 21061.25
532.6750, 21055.35
533.1572, 21058.83
533.6393, 21063.49
534.1214, 21055.98
534.6035, 21039.24
535.0856, 21034.79
535.5677, 21054.97
536.0499, 21082.11
536.5320, 21107.07
537.0141, 21128.37
537.4962, 21141.40
537.9783, 21143.17
538.4604, 21142.18
538.9426, 21153.81
539.4247, 21185.73
539.9068, 21211.06
540.3889, 21222.26
540.8710, 21234.37
541.3531, 21254.89
541.8353, 21282.87
542.3174, 21315.56
542.7995, 21351.86
543.2816, 21388.99
543.7637, 21421.99
544.2458, 21453.00
544.7280, 21472.60
545.2101, 21464.11
545.6922, 21457.00
546.1743, 21468.41
546.6564, 21495.55
547.1385, 21525.84
547.6207, 21554.96
548.1028, 21582.45
548.5849, 21608.22
549.0670, 21632.34
549.5491, 21651.54
550.0313, 21663.45
550.5134, 21671.78
550.9955, 21678.72
551.4776, 21683.01
551.9597, 21699.79
552.4418, 21740.29
552.9240, 21787.52
553.4061, 21831.03
553.8882, 21869.84
554.3703, 21904.23
554.8524, 21934.41
555.3345, 21960.22
555.8167, 21981.03
556.2988, 21992.34
556.7809, 22006.91
557.2630, 22021.60
557.7451, 22041.56
558.2272, 22073.46
558.7094, 22112.88
559.1915, 22148.43
559.6736, 22172.76
560.1557, 22192.43
560.6378, 22224.08
561.1199, 22271.17
561.6021, 22306.93
562.0842, 22319.85
562.5663, 22325.16
563.0484, 22333.49
563.5305, 22345.13
564.0126, 22360.97
564.4948, 22382.31
564.9769, 22407.50
565.4590, 22438.17
565.9411, 22472.26
566.4232, 22498.73
566.9053, 22511.94
567.3875, 22521.02
567.8696, 22540.15
568.3517, 22572.43
568.8338, 22606.01
569.3159, 22640.04
569.7980, 22675.98
570.2802, 22715.94
570.7623, 22758.16
571.2444, 22801.25
571.7265, 22844.34
572.2086, 22883.76
572.6907, 22910.55
573.1729, 22920.34
573.6550, 22935.58
574.1371, 22960.44
574.6192, 22987.51
575.1013, 23013.71
575.5834, 23039.58
576.0656, 23066.74
576.5477, 23096.76
577.0298, 23126.03
577.5119, 23149.47
577.9940, 23168.23
578.4761, 23188.80
578.9583, 23213.02
579.4404, 23237.76
579.9225, 23257.70
580.4046, 23273.89
580.8867, 23300.55
581.3688, 23344.04
581.8510, 23391.53
582.3331, 23448.50
582.8152, 23502.24
583.2973, 23529.49
583.7794, 23525.56
584.2615, 23514.15
584.7437, 23521.96
585.2258, 23549.51
585.7079, 23586.87
586.1900, 23639.56
586.6721, 23696.21
587.1542, 23766.18
587.6363, 23832.30
588.1184, 23872.32
588.6005, 23881.94
