##NAMES=Osarizawaite
##RRUFFID=R060395
##IDEAL CHEMISTRY=Cu^2+^Pb^2+^Al_2_(S^6+^O_4_)_2_(OH)_6_
##LOCALITY=Silver Hill mine, Pima County, Arizona, USA
##OWNER=RRUFF
##SOURCE=Michael Scott
##DESCRIPTION=Pale blue drusy coating
##STATUS=The identification of this mineral has been confirmed by single-crystal X-ray diffraction.
##URL=rruff.info/R060395
165.8156, 178.5076
166.2977, 177.7743
166.7798, 174.8868
167.2620, 171.0077
167.7441, 168.0276
168.2262, 166.8965
168.7083, 166.8471
169.1904, 165.6982
169.6725, 163.0378
170.1547, 160.3219
170.6368, 158.3496
171.1189, 156.8508
171.6010, 154.7787
172.0831, 151.2323
172.5652, 147.2000
173.0474, 144.6252
173.5295, 144.0861
174.0116, 143.8988
174.4937, 142.6685
174.9758, 140.3964
175.4579, 138.4023
175.9401, 137.5550
176.4222, 137.1460
176.9043, 136.4707
177.3864, 135.4204
177.8685, 134.0270
178.3506, 132.0977
178.8328, 129.3112
179.3149, 127.1581
179.7970, 126.8814
180.2791, 127.1017
180.7612, 126.5002
181.2433, 124.4771
181.7255, 121.8714
182.2076, 120.5714
182.6897, 121.4421
183.1718, 122.0861
183.6539, 121.9019
184.1360, 121.3160
184.6181, 120.6781
185.1003, 120.1364
185.5824, 119.7730
186.0645, 119.9196
186.5466, 121.5502
187.0287, 122.4822
187.5108, 121.9384
187.9930, 120.6798
188.4751, 119.6377
188.9572, 119.3361
189.4393, 119.6713
189.9214, 120.0927
190.4035, 120.5777
190.8857, 121.1727
191.3678, 122.1034
191.8499, 123.1335
192.3320, 123.8349
192.8141, 123.9143
193.2962, 123.4722
193.7784, 123.2878
194.2605, 123.1544
194.7426, 123.4076
195.2247, 124.5402
195.7068, 126.2245
196.1889, 127.5210
196.6711, 127.7793
197.1532, 127.1967
197.6353, 126.9399
198.1174, 127.1941
198.5995, 127.5629
199.0816, 127.7645
199.5638, 127.8462
200.0459, 128.1554
200.5280, 129.0581
201.0101, 130.2952
201.4922, 131.0542
201.9743, 130.7364
202.4565, 130.5135
202.9386, 131.6558
203.4207, 134.2106
203.9028, 136.5450
204.3849, 137.9408
204.8670, 138.4638
205.3492, 138.0029
205.8313, 135.8916
206.3134, 133.6249
206.7955, 133.3401
207.2776, 135.4970
207.7597, 137.4977
208.2419, 138.0720
208.7240, 137.9142
209.2061, 137.5374
209.6882, 137.0234
210.1703, 136.5271
210.6524, 136.3604
211.1346, 136.6701
211.6167, 136.9347
212.0988, 137.2415
212.5809, 137.3278
213.0630, 136.7910
213.5451, 135.3921
214.0273, 133.6217
214.5094, 132.6906
214.9915, 133.3461
215.4736, 133.4832
215.9557, 132.4626
216.4378, 130.9184
216.9200, 129.4282
217.4021, 128.2517
217.8842, 127.3117
218.3663, 126.4289
218.8484, 125.7859
219.3305, 124.9203
219.8127, 123.6260
220.2948, 122.1624
220.7769, 120.7985
221.2590, 119.6566
221.7411, 118.6667
222.2232, 117.6167
222.7054, 116.1927
223.1875, 115.1100
223.6696, 114.6891
224.1517, 114.5288
224.6338, 114.1360
225.1159, 113.2872
225.5980, 112.1797
226.0802, 111.3867
226.5623, 111.5228
227.0444, 111.2439
227.5265, 110.1005
228.0086, 108.5872
228.4907, 107.3900
228.9729, 106.8104
229.4550, 106.5705
229.9371, 105.9322
230.4192, 104.2858
230.9013, 103.2027
231.3834, 103.4573
231.8656, 104.3064
232.3477, 104.5962
232.8298, 103.8401
233.3119, 102.5234
233.7940, 101.7081
234.2761, 101.5712
234.7583, 101.3700
235.2404, 100.8967
235.7225, 100.2434
236.2046, 99.53592
236.6867, 98.78081
237.1688, 98.06443
237.6510, 97.57356
238.1331, 97.34368
238.6152, 97.06499
239.0973, 96.46959
239.5794, 95.76063
240.0615, 95.51730
240.5437, 96.13479
241.0258, 96.74287
241.5079, 95.98225
241.9900, 93.87987
242.4721, 91.94128
242.9542, 90.80308
243.4364, 90.30323
243.9185, 90.12410
244.4006, 90.40640
244.8827, 90.62090
245.3648, 90.13193
245.8469, 89.03628
246.3290, 88.00314
246.8112, 87.39827
247.2933, 87.11304
247.7754, 86.81361
248.2575, 86.47456
248.7396, 86.09010
249.2217, 85.85255
249.7039, 85.63710
250.1860, 84.96348
250.6681, 83.10340
251.1502, 80.49845
251.6323, 78.84464
252.1144, 78.67385
252.5966, 78.75371
253.0787, 78.50111
253.5608, 77.92879
254.0429, 77.02801
254.5250, 75.55177
255.0071, 73.73402
255.4893, 72.49445
255.9714, 72.04428
256.4535, 71.89476
256.9356, 71.95934
257.4177, 72.10232
257.8998, 72.08631
258.3820, 71.72503
258.8641, 71.13766
259.3462, 70.77527
259.8283, 70.86389
260.3104, 70.79966
260.7925, 70.38924
261.2747, 69.73574
261.7568, 68.93068
262.2389, 67.96526
262.7210, 66.96782
263.2031, 66.32369
263.6852, 66.23288
264.1674, 66.17642
264.6495, 66.32253
265.1316, 66.32207
265.6137, 65.60378
266.0958, 63.86847
266.5779, 61.78573
267.0601, 61.05640
267.5422, 62.65976
268.0243, 63.90687
268.5064, 64.32637
268.9885, 64.31969
269.4706, 64.17635
269.9528, 64.00825
270.4349, 63.84778
270.9170, 63.77533
271.3991, 63.90821
271.8812, 63.89045
272.3633, 63.51325
272.8455, 63.11870
273.3276, 62.96456
273.8097, 63.11258
274.2918, 63.45548
274.7739, 63.90014
275.2560, 64.75912
275.7382, 65.00552
276.2202, 64.14056
276.7024, 63.16938
277.1845, 62.74121
277.6666, 62.92847
278.1487, 63.37201
278.6308, 63.67086
279.1129, 63.85528
279.5951, 63.76046
280.0772, 63.04853
280.5593, 62.39596
281.0414, 62.28576
281.5235, 62.63232
282.0056, 62.92664
282.4878, 62.62548
282.9699, 61.57170
283.4520, 61.07212
283.9341, 61.66369
284.4162, 62.20310
284.8983, 62.22617
285.3805, 61.79900
285.8626, 61.17619
286.3447, 60.50621
286.8268, 59.79902
287.3089, 59.55322
287.7910, 60.36853
288.2732, 60.96567
288.7553, 60.68738
289.2374, 59.93833
289.7195, 59.55993
290.2016, 60.09731
290.6837, 61.33298
291.1659, 62.06195
291.6480, 61.75462
292.1301, 61.55806
292.6122, 61.91490
293.0943, 62.42834
293.5764, 62.42191
294.0586, 61.56452
294.5407, 60.27742
295.0228, 59.70084
295.5049, 60.64825
295.9870, 61.34545
296.4691, 61.62191
296.9513, 61.66595
297.4334, 61.61058
297.9155, 61.50953
298.3976, 61.46960
298.8797, 61.68788
299.3618, 62.44477
299.8440, 62.92851
300.3261, 63.14280
300.8082, 63.08820
301.2903, 62.65784
301.7724, 61.87451
302.2545, 61.01021
302.7367, 60.37926
303.2188, 60.05055
303.7009, 59.73307
304.1830, 59.33066
304.6651, 59.01185
305.1472, 58.84028
305.6294, 58.84002
306.1115, 59.08513
306.5936, 59.70121
307.0757, 60.72842
307.5578, 61.28167
308.0399, 61.27713
308.5221, 60.98390
309.0042, 60.42093
309.4863, 59.65497
309.9684, 58.75644
310.4505, 57.71140
310.9326, 56.61848
311.4148, 56.24149
311.8969, 57.62574
312.3790, 58.40926
312.8611, 57.35804
313.3432, 55.45791
313.8253, 54.37347
314.3075, 54.89910
314.7896, 56.43580
315.2717, 57.47638
315.7538, 58.05371
316.2359, 58.07530
316.7180, 56.92274
317.2001, 55.47524
317.6823, 54.82352
318.1644, 55.26025
318.6465, 56.05541
319.1286, 56.06758
319.6107, 54.65026
320.0928, 54.03329
320.5750, 54.94250
321.0571, 56.12394
321.5392, 56.66700
322.0213, 56.45456
322.5034, 55.84340
322.9855, 55.15114
323.4677, 54.34692
323.9498, 53.66706
324.4319, 52.99073
324.9140, 52.52269
325.3961, 52.50623
325.8782, 52.81223
326.3604, 53.03069
326.8425, 52.83937
327.3246, 52.30379
327.8067, 52.17813
328.2888, 52.89666
328.7709, 53.47235
329.2531, 53.64689
329.7352, 53.51422
330.2173, 53.15664
330.6994, 52.59183
331.1815, 52.00172
331.6636, 51.88223
332.1458, 52.81599
332.6279, 53.51920
333.1100, 53.95112
333.5921, 54.13490
334.0742, 54.06388
334.5563, 53.74407
335.0385, 53.23337
335.5206, 52.59874
336.0027, 51.72962
336.4848, 51.02454
336.9669, 50.13310
337.4490, 49.64439
337.9312, 50.26830
338.4133, 51.82247
338.8954, 53.30657
339.3775, 53.76404
339.8596, 53.10095
340.3417, 52.58535
340.8239, 52.21680
341.3060, 51.97158
341.7881, 52.00947
342.2702, 52.15847
342.7523, 52.03942
343.2344, 51.38703
343.7166, 50.36689
344.1987, 49.79347
344.6808, 50.20875
345.1629, 50.48036
345.6450, 50.49751
346.1271, 50.32479
346.6093, 49.94590
347.0914, 49.37648
347.5735, 48.82633
348.0556, 48.74639
348.5377, 49.63790
349.0198, 50.08675
349.5020, 49.96195
349.9841, 49.56250
350.4662, 48.90285
350.9483, 48.09840
351.4304, 47.49574
351.9125, 47.55319
352.3947, 48.43668
352.8768, 48.86678
353.3589, 48.33445
353.8410, 47.85835
354.3231, 47.87569
354.8052, 48.22802
355.2874, 48.48055
355.7695, 48.28527
356.2516, 47.80241
356.7337, 47.99576
357.2158, 49.74616
357.6979, 50.97369
358.1800, 51.17934
358.6621, 50.76399
359.1443, 50.03989
359.6264, 49.12888
360.1085, 48.27745
360.5906, 47.93645
361.0727, 48.22761
361.5548, 48.73587
362.0370, 49.87834
362.5191, 50.86496
363.0012, 51.02504
363.4833, 50.40306
363.9654, 49.71712
364.4475, 49.77900
364.9297, 50.65271
365.4118, 51.18454
365.8939, 51.03902
366.3760, 50.90205
366.8581, 51.01537
367.3402, 51.34243
367.8224, 51.82790
368.3045, 52.56473
368.7866, 53.33282
369.2687, 53.36288
369.7508, 52.21336
370.2329, 51.30410
370.7151, 51.38511
371.1972, 51.79249
371.6793, 51.82225
372.1614, 51.23364
372.6435, 50.54752
373.1256, 50.49945
373.6078, 51.14951
374.0899, 51.56773
374.5720, 51.43730
375.0541, 51.10822
375.5362, 50.81303
376.0183, 50.56044
376.5005, 50.31976
376.9826, 50.11667
377.4647, 49.91484
377.9468, 49.52056
378.4289, 48.77418
378.9110, 48.16756
379.3932, 48.08427
379.8753, 48.36200
380.3574, 48.74337
380.8395, 49.26245
381.3216, 49.74546
381.8037, 49.99334
382.2859, 50.00628
382.7680, 49.79379
383.2501, 49.11157
383.7322, 48.37812
384.2143, 48.37163
384.6964, 49.41645
385.1786, 50.08777
385.6607, 49.13291
386.1428, 47.17004
386.6249, 45.84040
387.1070, 45.57009
387.5891, 45.88862
388.0713, 46.49393
388.5534, 47.35187
389.0355, 47.88906
389.5176, 47.83752
389.9997, 47.50727
390.4818, 47.15158
390.9640, 46.79368
391.4461, 46.45902
391.9282, 46.13910
392.4103, 45.86495
392.8924, 45.76176
393.3745, 46.07251
393.8567, 46.27349
394.3388, 46.02875
394.8209, 45.54355
395.3030, 45.23369
395.7851, 45.26152
396.2672, 45.46478
396.7494, 45.57264
397.2315, 45.60430
397.7136, 45.47101
398.1957, 44.86013
398.6778, 44.28765
399.1599, 44.41777
399.6420, 45.17163
400.1241, 45.64408
400.6063, 44.91576
401.0884, 42.92075
401.5705, 41.93494
402.0526, 42.64117
402.5347, 43.44260
403.0168, 43.89289
403.4990, 44.10934
403.9811, 44.33776
404.4632, 44.69620
404.9453, 45.10645
405.4274, 45.37465
405.9095, 45.42142
406.3917, 45.44790
406.8738, 45.39159
407.3559, 45.36893
407.8380, 45.56720
408.3201, 45.94095
408.8022, 46.17416
409.2844, 45.87127
409.7665, 44.97701
410.2486, 44.45283
410.7307, 44.45988
411.2128, 44.70039
411.6949, 45.36549
412.1771, 46.14659
412.6592, 46.50098
413.1413, 46.08665
413.6234, 45.35630
414.1055, 45.33946
414.5876, 46.28500
415.0698, 47.18990
415.5519, 47.97112
416.0340, 48.52212
416.5161, 48.60564
416.9982, 48.24042
417.4803, 47.94522
417.9625, 48.26239
418.4446, 49.08686
418.9267, 49.64035
419.4088, 49.62008
419.8909, 49.78443
420.3730, 51.04063
420.8552, 52.79996
421.3373, 53.77144
421.8194, 53.00259
422.3015, 51.80158
422.7836, 51.93581
423.2657, 53.38448
423.7479, 54.43233
424.2300, 54.01720
424.7121, 53.19155
425.1942, 53.62880
425.6763, 55.51233
426.1584, 57.62592
426.6406, 59.76207
427.1227, 61.70624
427.6048, 63.00912
428.0869, 63.58159
428.5690, 63.82140
429.0511, 63.93821
429.5333, 63.96860
430.0154, 64.52035
430.4975, 65.66118
430.9796, 67.26463
431.4617, 69.77592
431.9438, 72.71111
432.4260, 74.73953
432.9081, 75.11958
433.3902, 74.64175
433.8723, 75.17469
434.3544, 77.35262
434.8365, 79.54570
435.3187, 81.94355
435.8008, 84.17819
436.2829, 85.69244
436.7650, 86.57945
437.2471, 87.66668
437.7292, 89.82585
438.2114, 93.11356
438.6935, 95.52937
439.1756, 96.36423
439.6577, 97.10451
440.1398, 97.92705
440.6219, 98.89927
441.1040, 100.0960
441.5862, 101.5431
442.0683, 103.1395
442.5504, 104.6607
443.0325, 106.0162
443.5146, 107.5939
443.9967, 109.8500
444.4789, 111.9786
444.9610, 113.4797
445.4431, 114.4294
445.9252, 115.2645
446.4073, 116.2633
446.8894, 117.3875
447.3716, 118.5228
447.8537, 119.7402
448.3358, 120.7847
448.8179, 121.6528
449.3000, 122.2458
449.7821, 122.2837
450.2643, 121.5702
450.7464, 120.9623
451.2285, 121.3550
451.7106, 122.5499
452.1927, 123.5707
452.6748, 124.2465
453.1570, 124.6532
453.6391, 124.7762
454.1212, 124.6675
454.6033, 124.5130
455.0854, 124.5754
455.5675, 124.4484
456.0497, 123.4997
456.5318, 121.8987
457.0139, 120.6737
457.4960, 120.4081
457.9781, 120.7828
458.4602, 121.0172
458.9424, 121.4785
459.4245, 121.1126
459.9066, 118.8175
460.3887, 116.1197
460.8708, 114.8412
461.3529, 115.1094
461.8351, 115.4069
462.3172, 114.1570
462.7993, 111.2738
463.2814, 109.8038
463.7635, 111.3215
464.2456, 112.3427
464.7278, 111.4320
465.2099, 109.6874
465.6920, 108.8136
466.1741, 109.4424
466.6562, 110.5844
467.1383, 110.3733
467.6205, 107.9923
468.1026, 106.8078
468.5847, 108.2357
469.0668, 109.7139
469.5489, 109.9502
470.0310, 109.2515
470.5132, 108.6863
470.9953, 108.9935
471.4774, 109.7924
471.9595, 110.0221
472.4416, 109.4709
472.9237, 109.1394
473.4059, 109.4930
473.8880, 110.1722
474.3701, 110.9368
474.8522, 111.7650
475.3343, 112.4906
475.8164, 112.9479
476.2986, 113.2233
476.7807, 113.5679
477.2628, 114.0378
477.7449, 114.4100
478.2270, 114.4816
478.7091, 114.3032
479.1913, 114.1275
479.6734, 113.9314
480.1555, 113.7788
480.6376, 113.6312
481.1197, 113.5587
481.6018, 113.8091
482.0839, 114.4896
482.5660, 115.1841
483.0482, 115.2931
483.5303, 114.6224
484.0124, 114.0106
484.4945, 113.4166
484.9766, 112.9163
485.4587, 112.5156
485.9409, 112.2407
486.4230, 112.2112
486.9051, 112.5211
487.3872, 112.9495
487.8693, 112.8007
488.3514, 111.5059
488.8336, 110.7078
489.3157, 110.8436
489.7978, 111.1822
490.2799, 111.3206
490.7620, 111.1991
491.2441, 110.8869
491.7263, 110.3898
492.2084, 109.7516
492.6905, 109.1328
493.1726, 108.4060
493.6547, 108.0117
494.1368, 108.7631
494.6190, 109.6347
495.1011, 109.4122
495.5832, 107.7661
496.0653, 105.9916
496.5474, 104.9452
497.0295, 104.5472
497.5117, 104.7661
497.9938, 105.7922
498.4759, 106.6048
498.9580, 106.1817
499.4401, 104.7572
499.9222, 103.6945
500.4044, 103.6293
500.8865, 103.3688
501.3686, 102.1020
501.8507, 100.2167
502.3328, 98.47578
502.8149, 97.14252
503.2971, 96.05136
503.7792, 95.02881
504.2613, 94.22237
504.7434, 92.85629
505.2255, 90.74606
505.7076, 88.32903
506.1898, 85.49422
506.6719, 82.54494
507.1540, 80.09788
507.6361, 78.49309
508.1182, 77.35524
508.6003, 75.84742
509.0825, 73.90196
509.5646, 71.75948
510.0467, 69.29808
510.5288, 66.77519
511.0109, 64.10078
511.4930, 61.43671
511.9752, 59.29622
512.4573, 58.34103
512.9394, 57.90470
513.4215, 56.21296
513.9036, 52.98578
514.3857, 50.23423
514.8679, 48.79082
515.3500, 48.18918
515.8321, 47.93191
516.3142, 48.08179
516.7963, 47.90303
517.2784, 46.58265
517.7606, 44.97646
518.2427, 44.49281
518.7248, 45.19106
519.2069, 45.80066
519.6890, 45.50575
520.1711, 44.42678
520.6533, 43.14784
521.1354, 40.88609
521.6175, 39.47422
522.0996, 39.83443
522.5817, 40.83058
523.0638, 41.43516
523.5460, 41.42915
524.0281, 40.99150
524.5102, 40.18799
524.9923, 39.04740
525.4744, 38.59707
525.9565, 39.49433
526.4387, 40.25248
526.9208, 40.51158
527.4029, 40.52319
527.8850, 40.58824
528.3671, 40.77439
528.8492, 40.85073
529.3314, 40.49477
529.8135, 39.76010
530.2956, 39.13072
530.7777, 38.55134
531.2598, 38.25427
531.7419, 38.80743
532.2241, 39.64895
532.7062, 39.77409
533.1883, 38.63542
533.6704, 37.50053
534.1525, 37.36636
534.6346, 37.86773
535.1168, 38.12444
535.5989, 37.92439
536.0810, 37.62696
536.5631, 37.64386
537.0452, 37.99497
537.5273, 37.92933
538.0095, 36.86628
538.4916, 36.07214
538.9737, 36.25301
539.4558, 36.91603
539.9379, 37.29472
540.4200, 37.14724
540.9022, 36.82001
541.3843, 36.81707
541.8664, 37.23026
542.3485, 37.44500
542.8306, 37.13824
543.3127, 36.98291
543.7948, 37.46498
544.2769, 38.15255
544.7590, 38.34953
545.2411, 37.76906
545.7233, 36.88337
546.2054, 36.18276
546.6875, 35.66942
547.1696, 35.40607
547.6517, 35.37801
548.1339, 35.64544
548.6160, 36.56291
549.0981, 37.85266
549.5802, 38.70502
550.0623, 38.74995
550.5444, 38.54810
551.0266, 38.41026
551.5087, 38.30165
551.9908, 38.07980
552.4729, 37.69093
552.9550, 37.40204
553.4371, 37.57662
553.9193, 38.31886
554.4014, 38.90853
554.8835, 39.39798
555.3656, 39.70327
555.8477, 39.66770
556.3298, 39.47259
556.8120, 39.43508
557.2941, 39.65865
557.7762, 39.85645
558.2583, 39.48142
558.7404, 38.40107
559.2225, 37.88655
559.7047, 38.24986
560.1868, 38.84803
560.6689, 39.44030
561.1510, 40.02033
561.6331, 40.65410
562.1152, 41.48928
562.5974, 42.00892
563.0795, 41.43756
563.5616, 40.11016
564.0437, 39.30484
564.5258, 39.34436
565.0079, 39.57737
565.4901, 39.30622
565.9722, 38.59988
566.4543, 38.57745
566.9364, 39.88239
567.4185, 41.12895
567.9006, 41.78335
568.3828, 42.06118
568.8649, 42.39384
569.3470, 42.84786
569.8291, 42.90117
570.3112, 41.70563
570.7933, 39.08883
571.2755, 38.33041
571.7576, 41.60765
572.2397, 44.03160
572.7218, 43.95015
573.2039, 42.68227
573.6860, 41.61530
574.1682, 41.10537
574.6503, 40.93385
575.1324, 40.91331
575.6145, 41.05770
576.0966, 41.48837
576.5787, 42.28973
577.0609, 43.08435
577.5430, 43.76689
578.0251, 44.22350
578.5072, 44.21918
578.9893, 43.59541
579.4714, 42.85751
579.9536, 41.95602
580.4357, 41.17228
580.9178, 40.88134
581.3999, 41.10333
581.8820, 41.63371
582.3641, 42.39338
582.8463, 43.26491
583.3284, 43.55894
583.8105, 42.73831
584.2926, 42.10127
584.7747, 41.81142
585.2568, 41.67887
585.7390, 41.54728
586.2211, 41.42060
586.7032, 41.41449
587.1853, 41.63931
587.6674, 42.02334
588.1495, 42.33566
588.6317, 42.53709
589.1138, 42.95654
589.5959, 44.02189
590.0780, 45.03830
590.5601, 44.94629
591.0422, 43.76998
591.5244, 43.21989
592.0065, 44.51097
592.4886, 46.10592
592.9707, 46.56817
593.4528, 46.09837
593.9349, 45.50431
594.4171, 45.11654
594.8992, 44.95961
595.3813, 45.07280
595.8634, 45.44889
596.3455, 46.14539
596.8276, 47.80391
597.3098, 49.06679
597.7919, 48.92841
598.2740, 48.11839
598.7561, 48.00315
599.2382, 49.16884
599.7203, 50.62258
600.2025, 50.88300
600.6846, 49.99364
601.1667, 49.55400
601.6488, 49.80326
602.1309, 50.35550
602.6130, 51.17150
603.0952, 52.07642
603.5773, 52.63884
604.0594, 52.52253
604.5415, 52.59920
605.0236, 53.80388
605.5057, 55.29844
605.9879, 55.39528
606.4700, 53.99247
606.9521, 53.01686
607.4342, 54.20802
607.9163, 57.18496
608.3984, 59.06153
608.8806, 58.81380
609.3627, 58.82083
609.8448, 59.33982
610.3269, 60.13314
610.8090, 61.21664
611.2911, 62.43975
611.7733, 63.32486
612.2554, 63.38442
612.7375, 63.02362
613.2196, 63.12552
613.7017, 63.69404
614.1838, 64.81699
614.6660, 67.04989
615.1481, 69.21589
615.6302, 69.57761
616.1123, 68.28797
616.5944, 67.73836
617.0765, 68.87948
617.5587, 70.46870
618.0408, 71.79288
618.5229, 72.90798
619.0050, 73.97909
619.4871, 75.06791
619.9692, 76.26482
620.4514, 77.82037
620.9335, 79.93990
621.4156, 80.86755
621.8977, 79.04917
622.3798, 77.86494
622.8619, 78.42068
623.3441, 79.93343
623.8262, 81.68760
624.3083, 83.47893
624.7904, 84.94149
625.2725, 85.58589
625.7546, 85.67540
626.2367, 85.96188
626.7188, 86.50860
627.2009, 86.92612
627.6830, 86.94316
628.1652, 86.76031
628.6473, 86.87453
629.1294, 87.41220
629.6115, 87.78451
630.0936, 87.77101
630.5757, 87.68016
631.0579, 87.85581
631.5400, 88.14430
632.0221, 88.04265
632.5042, 87.28300
632.9863, 86.29017
633.4684, 85.97329
633.9506, 86.57707
634.4327, 86.61937
634.9148, 85.73215
635.3969, 84.63042
635.8790, 83.38470
636.3611, 82.25581
636.8433, 81.84270
637.3254, 82.59978
637.8075, 83.10183
638.2896, 82.17751
638.7717, 80.32174
639.2538, 78.30430
639.7360, 76.26412
640.2181, 74.50613
640.7002, 73.27383
641.1823, 72.46958
641.6644, 71.68729
642.1465, 71.20369
642.6287, 70.34525
643.1108, 68.91866
643.5929, 67.28102
644.0750, 65.48732
644.5571, 63.68736
645.0392, 62.09119
645.5214, 60.75137
646.0035, 59.91277
646.4856, 60.40221
646.9677, 62.21056
647.4498, 62.97490
647.9319, 62.00586
648.4141, 60.48762
648.8962, 59.24406
649.3783, 58.23154
649.8604, 57.33813
650.3425, 56.73204
650.8246, 56.00274
651.3068, 54.69467
651.7889, 53.33077
652.2710, 52.77662
652.7531, 52.99173
653.2352, 52.97634
653.7173, 51.87557
654.1995, 50.04483
654.6816, 49.05685
655.1637, 49.45947
655.6458, 49.39896
656.1279, 48.02665
656.6100, 46.57448
657.0922, 45.72544
657.5743, 45.40147
658.0564, 45.24107
658.5385, 45.28479
659.0206, 45.18273
659.5027, 44.38873
659.9849, 43.18397
660.4670, 42.42482
660.9491, 42.32067
661.4312, 42.30691
661.9133, 41.79359
662.3954, 40.85767
662.8776, 40.60370
663.3597, 42.14309
663.8418, 42.90335
