##NAMES=Osumilite
##RRUFFID=R060385
##IDEAL CHEMISTRY=KFe^2+^_2_(Al_5_Si_10_)O_30_
##LOCALITY=Funtanafigu Quarry, Monte Arci, near Oristano, Sardinia
##OWNER=RRUFF
##SOURCE=Michael Scott
##DESCRIPTION=Black tabular distorted hexagonal crystals associated with colorless tridymite
##STATUS=The identification of this mineral is confirmed by single-crystal X-ray diffraction and chemical analysis.
##URL=rruff.info/R060385
##MEASURED CHEMISTRY=(K_0.72_Na_0.15_Ca_0.01_)_Σ=0.88_(Fe^2+^_1.07_Mg_0.93_Mn_0.06_)_Σ=2.06_(Al_2.69_Fe^3+^_0.31_)_Σ=3_(Si_10.28_Al_1.72_)_Σ=12_O_30_
185.5824, 47.91284
186.0645, 47.48560
186.5466, 48.00071
187.0287, 48.31906
187.5108, 48.12029
187.9930, 47.68848
188.4751, 47.42405
188.9572, 47.56576
189.4393, 48.00053
189.9214, 48.08684
190.4035, 47.31409
190.8857, 46.76075
191.3678, 46.67235
191.8499, 46.93756
192.3320, 47.41335
192.8141, 48.06556
193.2962, 48.81730
193.7784, 49.03581
194.2605, 48.30938
194.7426, 47.62687
195.2247, 47.39805
195.7068, 47.49936
196.1889, 47.53058
196.6711, 47.20617
197.1532, 46.63422
197.6353, 46.36690
198.1174, 46.66844
198.5995, 46.99748
199.0816, 46.97873
199.5638, 46.67202
200.0459, 46.50993
200.5280, 46.88533
201.0101, 47.54413
201.4922, 47.74548
201.9743, 47.18983
202.4565, 46.44788
202.9386, 45.93484
203.4207, 45.64974
203.9028, 45.58194
204.3849, 45.94613
204.8670, 46.45589
205.3492, 46.67168
205.8313, 46.38031
206.3134, 45.94262
206.7955, 45.88254
207.2776, 46.32050
207.7597, 46.57328
208.2419, 46.12172
208.7240, 45.40038
209.2061, 44.78105
209.6882, 44.35351
210.1703, 44.13500
210.6524, 44.21614
211.1346, 44.74269
211.6167, 45.19136
212.0988, 45.42394
212.5809, 45.49724
213.0630, 45.43670
213.5451, 45.24074
214.0273, 44.96305
214.5094, 44.72626
214.9915, 44.56237
215.4736, 44.38205
215.9557, 44.10973
216.4378, 43.83885
216.9200, 43.65798
217.4021, 43.60769
217.8842, 43.66628
218.3663, 43.78062
218.8484, 44.01233
219.3305, 44.21249
219.8127, 44.38765
220.2948, 44.51731
220.7769, 44.59847
221.2590, 44.62996
221.7411, 44.58230
222.2232, 44.36288
222.7054, 43.66230
223.1875, 43.16041
223.6696, 42.96145
224.1517, 42.95565
224.6338, 43.03408
225.1159, 43.14867
225.5980, 43.29142
226.0802, 43.43995
226.5623, 43.70339
227.0444, 43.83810
227.5265, 43.75603
228.0086, 43.55462
228.4907, 43.32525
228.9729, 43.09948
229.4550, 42.92532
229.9371, 42.95220
230.4192, 43.41986
230.9013, 43.70502
231.3834, 43.56164
231.8656, 43.21088
232.3477, 42.98901
232.8298, 43.03410
233.3119, 43.22297
233.7940, 43.26704
234.2761, 43.05067
234.7583, 42.99423
235.2404, 43.43602
235.7225, 44.07134
236.2046, 44.32870
236.6867, 43.96276
237.1688, 43.29626
237.6510, 42.85518
238.1331, 42.62658
238.6152, 42.53616
239.0973, 42.63090
239.5794, 42.84309
240.0615, 43.04375
240.5437, 43.22080
241.0258, 43.32937
241.5079, 43.28535
241.9900, 43.09346
242.4721, 42.90087
242.9542, 42.73471
243.4364, 42.61345
243.9185, 42.60566
244.4006, 42.77449
244.8827, 42.96837
245.3648, 43.07510
245.8469, 43.09713
246.3290, 42.98155
246.8112, 42.51638
247.2933, 41.87643
247.7754, 41.66741
248.2575, 42.24009
248.7396, 42.78472
249.2217, 42.51152
249.7039, 41.65098
250.1860, 40.98893
250.6681, 41.12622
251.1502, 41.83040
251.6323, 42.24087
252.1144, 42.25708
252.5966, 42.05666
253.0787, 41.64681
253.5608, 41.12680
254.0429, 40.72333
254.5250, 40.66174
255.0071, 40.82364
255.4893, 40.68967
255.9714, 39.94096
256.4535, 39.42541
256.9356, 39.64395
257.4177, 40.28866
257.8998, 40.86893
258.3820, 41.12489
258.8641, 41.11839
259.3462, 41.03870
259.8283, 40.76512
260.3104, 40.62825
260.7925, 40.81494
261.2747, 41.15483
261.7568, 41.44719
262.2389, 41.61483
262.7210, 41.63560
263.2031, 41.40564
263.6852, 40.67865
264.1674, 40.12554
264.6495, 39.95344
265.1316, 39.98527
265.6137, 40.01977
266.0958, 39.96459
266.5779, 39.91613
267.0601, 40.14697
267.5422, 40.95658
268.0243, 41.49504
268.5064, 41.63198
268.9885, 41.50037
269.4706, 41.10363
269.9528, 40.46071
270.4349, 39.81346
270.9170, 39.70267
271.3991, 40.67486
271.8812, 41.08949
272.3633, 40.48731
272.8455, 39.60696
273.3276, 38.96256
273.8097, 38.69487
274.2918, 38.67212
274.7739, 38.72485
275.2560, 38.95348
275.7382, 39.03505
276.2202, 38.76965
276.7024, 38.53596
277.1845, 38.67233
277.6666, 39.16697
278.1487, 39.66631
278.6308, 39.72481
279.1129, 39.19260
279.5951, 38.72398
280.0772, 38.24118
280.5593, 37.87043
281.0414, 37.75794
281.5235, 37.85089
282.0056, 37.94131
282.4878, 37.83081
282.9699, 37.49672
283.4520, 37.10612
283.9341, 36.38782
284.4162, 35.87545
284.8983, 35.95338
285.3805, 36.44771
285.8626, 36.87296
286.3447, 36.83704
286.8268, 36.35075
287.3089, 36.05347
287.7910, 36.09002
288.2732, 36.14334
288.7553, 36.06406
289.2374, 35.94032
289.7195, 35.99144
290.2016, 36.37617
290.6837, 36.98635
291.1659, 37.21125
291.6480, 36.64204
292.1301, 36.16661
292.6122, 35.92611
293.0943, 35.86559
293.5764, 35.96919
294.0586, 36.24089
294.5407, 36.53088
295.0228, 36.43182
295.5049, 35.25648
295.9870, 34.52900
296.4691, 34.57253
296.9513, 34.97380
297.4334, 35.32787
297.9155, 35.49779
298.3976, 35.55198
298.8797, 35.59944
299.3618, 35.62657
299.8440, 35.67503
300.3261, 35.74690
300.8082, 35.83767
301.2903, 35.94867
301.7724, 36.07804
302.2545, 36.23260
302.7367, 36.46454
303.2188, 36.89918
303.7009, 36.81330
304.1830, 35.71526
304.6651, 34.54635
305.1472, 33.83836
305.6294, 33.62611
306.1115, 33.72855
306.5936, 34.03214
307.0757, 34.55540
307.5578, 34.92239
308.0399, 34.97532
308.5221, 35.05774
309.0042, 35.45667
309.4863, 36.02419
309.9684, 36.30912
310.4505, 35.96498
310.9326, 35.13720
311.4148, 34.87072
311.8969, 35.76037
312.3790, 36.43237
312.8611, 36.42262
313.3432, 36.00637
313.8253, 35.61686
314.3075, 35.44669
314.7896, 35.44503
315.2717, 35.48865
315.7538, 35.62944
316.2359, 35.74121
316.7180, 35.81081
317.2001, 35.84826
317.6823, 35.84286
318.1644, 35.79478
318.6465, 35.76543
319.1286, 35.87132
319.6107, 36.29302
320.0928, 36.37338
320.5750, 35.83096
321.0571, 35.15204
321.5392, 34.70763
322.0213, 34.53662
322.5034, 34.43944
322.9855, 34.20834
323.4677, 33.80271
323.9498, 33.57240
324.4319, 33.54232
324.9140, 33.63181
325.3961, 33.90809
325.8782, 34.28755
326.3604, 34.54316
326.8425, 34.49613
327.3246, 34.18243
327.8067, 34.01076
328.2888, 34.16674
328.7709, 34.23441
329.2531, 33.91514
329.7352, 33.47223
330.2173, 33.43119
330.6994, 34.06844
331.1815, 35.02716
331.6636, 35.33948
332.1458, 34.02058
332.6279, 33.26091
333.1100, 33.60439
333.5921, 34.30173
334.0742, 34.59737
334.5563, 34.28641
335.0385, 33.70650
335.5206, 33.33347
336.0027, 33.19881
336.4848, 33.23072
336.9669, 33.61636
337.4490, 34.00389
337.9312, 34.18627
338.4133, 34.14454
338.8954, 33.93419
339.3775, 33.56947
339.8596, 33.01231
340.3417, 32.78032
340.8239, 33.19733
341.3060, 33.55735
341.7881, 33.52855
342.2702, 33.25435
342.7523, 33.06325
343.2344, 33.16507
343.7166, 33.49231
344.1987, 33.71605
344.6808, 33.73176
345.1629, 33.75502
345.6450, 33.80990
346.1271, 33.87914
346.6093, 33.96396
347.0914, 34.06005
347.5735, 34.12019
348.0556, 34.02758
348.5377, 33.53714
349.0198, 33.35369
349.5020, 33.74995
349.9841, 34.20684
350.4662, 34.32374
350.9483, 34.09026
351.4304, 33.81270
351.9125, 33.85456
352.3947, 34.30354
352.8768, 34.48270
353.3589, 33.98788
353.8410, 33.62618
354.3231, 33.78381
354.8052, 34.29640
355.2874, 34.78778
355.7695, 35.00224
356.2516, 34.98528
356.7337, 35.00929
357.2158, 35.21535
357.6979, 35.25814
358.1800, 34.85307
358.6621, 34.35833
359.1443, 34.23011
359.6264, 34.64039
360.1085, 35.25986
360.5906, 35.45654
361.0727, 34.99760
361.5548, 34.72398
362.0370, 34.65941
362.5191, 34.83522
363.0012, 35.47422
363.4833, 36.49154
363.9654, 37.37282
364.4475, 37.46492
364.9297, 36.69653
365.4118, 36.36091
365.8939, 37.01072
366.3760, 37.49436
366.8581, 37.19097
367.3402, 36.38975
367.8224, 35.71418
368.3045, 35.56887
368.7866, 35.76907
369.2687, 35.75491
369.7508, 35.41533
370.2329, 35.10500
370.7151, 34.91796
371.1972, 34.82774
371.6793, 34.81334
372.1614, 34.86982
372.6435, 35.00060
373.1256, 35.27284
373.6078, 35.70782
374.0899, 35.97124
374.5720, 35.90868
375.0541, 35.71431
375.5362, 35.49256
376.0183, 35.25827
376.5005, 35.07528
376.9826, 35.00036
377.4647, 35.01188
377.9468, 35.04351
378.4289, 35.12067
378.9110, 35.15100
379.3932, 34.98140
379.8753, 34.72754
380.3574, 34.63838
380.8395, 34.98618
381.3216, 35.35237
381.8037, 35.07368
382.2859, 34.13149
382.7680, 33.44189
383.2501, 33.52435
383.7322, 34.02832
384.2143, 34.36048
384.6964, 34.47350
385.1786, 34.53931
385.6607, 34.62564
386.1428, 34.73764
386.6249, 34.93145
387.1070, 35.27265
387.5891, 35.54742
388.0713, 35.44339
388.5534, 34.99931
389.0355, 34.55280
389.5176, 34.06065
389.9997, 33.66587
390.4818, 33.55965
390.9640, 33.73617
391.4461, 33.96025
391.9282, 34.05111
392.4103, 34.06354
392.8924, 34.27452
393.3745, 35.00657
393.8567, 35.56834
394.3388, 35.65393
394.8209, 35.38148
395.3030, 34.90790
395.7851, 34.25779
396.2672, 33.61308
396.7494, 33.30361
397.2315, 33.47895
397.7136, 33.65487
398.1957, 33.75758
398.6778, 33.89047
399.1599, 34.22774
399.6420, 34.73455
400.1241, 35.12378
400.6063, 35.11699
401.0884, 34.69881
401.5705, 34.40657
402.0526, 34.27490
402.5347, 34.21014
403.0168, 34.21385
403.4990, 34.26007
403.9811, 34.30221
404.4632, 34.31681
404.9453, 34.34166
405.4274, 34.47620
405.9095, 34.82204
406.3917, 35.10732
406.8738, 35.50616
407.3559, 35.71991
407.8380, 35.33974
408.3201, 34.44526
408.8022, 33.65087
409.2844, 33.65029
409.7665, 34.51652
410.2486, 35.00375
410.7307, 34.79289
411.2128, 34.52224
411.6949, 34.40205
412.1771, 34.34234
412.6592, 34.13091
413.1413, 33.61748
413.6234, 33.05206
414.1055, 33.04507
414.5876, 33.82528
415.0698, 34.46768
415.5519, 34.88911
416.0340, 35.00086
416.5161, 34.50068
416.9982, 33.41901
417.4803, 32.50826
417.9625, 32.55414
418.4446, 33.40385
418.9267, 33.99625
419.4088, 34.17885
419.8909, 34.23890
420.3730, 34.35117
420.8552, 34.48365
421.3373, 34.56773
421.8194, 34.57477
422.3015, 34.52974
422.7836, 34.40849
423.2657, 34.21397
423.7479, 34.18124
424.2300, 34.55761
424.7121, 35.00376
425.1942, 34.91573
425.6763, 34.15011
426.1584, 33.59915
426.6406, 33.80796
427.1227, 34.43332
427.6048, 34.92942
428.0869, 35.21150
428.5690, 35.33047
429.0511, 35.27889
429.5333, 35.06025
430.0154, 34.97728
430.4975, 35.16679
430.9796, 35.36428
431.4617, 35.39216
431.9438, 35.30721
432.4260, 35.28646
432.9081, 35.42639
433.3902, 35.62505
433.8723, 35.63477
434.3544, 35.28098
434.8365, 35.02235
435.3187, 34.85534
435.8008, 34.80055
436.2829, 34.93159
436.7650, 35.22183
437.2471, 35.52305
437.7292, 35.69893
438.2114, 35.74789
438.6935, 35.75842
439.1756, 35.67925
439.6577, 35.61860
440.1398, 35.51484
440.6219, 35.47230
441.1040, 35.68959
441.5862, 36.24738
442.0683, 36.90761
442.5504, 37.20096
443.0325, 36.98124
443.5146, 36.84649
443.9967, 36.84792
444.4789, 36.94719
444.9610, 37.21785
445.4431, 37.59315
445.9252, 37.87094
446.4073, 37.90697
446.8894, 37.72823
447.3716, 37.35622
447.8537, 36.59237
448.3358, 36.13572
448.8179, 36.65981
449.3000, 37.49358
449.7821, 37.83141
450.2643, 37.39313
450.7464, 37.00446
451.2285, 37.59657
451.7106, 38.93346
452.1927, 39.78274
452.6748, 39.79805
453.1570, 39.48114
453.6391, 39.22560
454.1212, 39.03356
454.6033, 38.97221
455.0854, 39.19599
455.5675, 39.45503
456.0497, 39.46862
456.5318, 39.28088
457.0139, 39.18256
457.4960, 39.32282
457.9781, 39.64680
458.4602, 40.04874
458.9424, 40.71828
459.4245, 41.07298
459.9066, 40.49517
460.3887, 39.84127
460.8708, 40.27756
461.3529, 41.82690
461.8351, 43.23772
462.3172, 43.26405
462.7993, 41.84645
463.2814, 40.89087
463.7635, 40.55978
464.2456, 40.46658
464.7278, 40.72976
465.2099, 41.10129
465.6920, 41.21907
466.1741, 40.95039
466.6562, 40.53532
467.1383, 40.42485
467.6205, 40.80954
468.1026, 40.89885
468.5847, 40.29511
469.0668, 39.72446
469.5489, 39.57381
470.0310, 39.73918
470.5132, 39.88676
470.9953, 39.81849
471.4774, 39.58978
471.9595, 39.32418
472.4416, 39.00559
472.9237, 38.71331
473.4059, 38.54475
473.8880, 38.37301
474.3701, 38.03721
474.8522, 37.51350
475.3343, 37.05772
475.8164, 36.91563
476.2986, 36.95918
476.7807, 36.84453
477.2628, 36.50580
477.7449, 36.16842
478.2270, 36.05627
478.7091, 36.08889
479.1913, 35.93092
479.6734, 35.35012
480.1555, 34.81556
480.6376, 34.58204
481.1197, 34.56867
481.6018, 34.64144
482.0839, 34.76564
482.5660, 34.85600
483.0482, 34.77441
483.5303, 34.43610
484.0124, 34.24072
484.4945, 34.30801
484.9766, 34.39667
485.4587, 34.40792
485.9409, 34.33362
486.4230, 34.16391
486.9051, 33.88383
487.3872, 33.56096
487.8693, 33.41297
488.3514, 33.63131
488.8336, 33.65763
489.3157, 33.19711
489.7978, 32.76223
490.2799, 32.75610
490.7620, 33.14074
491.2441, 33.56444
491.7263, 33.74831
492.2084, 33.73734
492.6905, 33.76125
493.1726, 33.87280
493.6547, 33.89199
494.1368, 33.52699
494.6190, 33.13840
495.1011, 33.16718
495.5832, 33.73857
496.0653, 34.33292
496.5474, 34.53634
497.0295, 34.44862
497.5117, 34.34486
497.9938, 34.24723
498.4759, 34.20649
498.9580, 34.25616
499.4401, 34.40223
499.9222, 34.64846
500.4044, 35.06340
500.8865, 35.50823
501.3686, 35.98912
501.8507, 36.44035
502.3328, 36.72307
502.8149, 36.78653
503.2971, 36.71301
503.7792, 36.60616
504.2613, 36.43879
504.7434, 36.33952
505.2255, 36.24857
505.7076, 36.27563
506.1898, 36.54180
506.6719, 36.95905
507.1540, 37.35750
507.6361, 37.64937
508.1182, 37.86352
508.6003, 38.06041
509.0825, 38.23595
509.5646, 38.40579
510.0467, 38.56147
510.5288, 38.71967
511.0109, 38.92773
511.4930, 39.15493
511.9752, 39.29943
512.4573, 39.28616
512.9394, 39.15482
513.4215, 38.94177
513.9036, 38.60581
514.3857, 38.45558
514.8679, 38.73969
515.3500, 39.17818
515.8321, 39.34149
516.3142, 39.16980
516.7963, 39.20077
517.2784, 39.99562
517.7606, 40.97656
518.2427, 41.22204
518.7248, 40.68732
519.2069, 40.14665
519.6890, 40.14520
520.1711, 40.54328
520.6533, 40.63941
521.1354, 39.94977
521.6175, 39.64755
522.0996, 40.31075
522.5817, 41.22931
523.0638, 41.62871
523.5460, 41.42677
524.0281, 41.12927
524.5102, 41.24628
524.9923, 41.75901
525.4744, 41.99581
525.9565, 41.74535
526.4387, 41.47749
526.9208, 41.17765
527.4029, 40.96459
527.8850, 41.06926
528.3671, 41.52184
528.8492, 41.88413
529.3314, 41.48523
529.8135, 40.45092
530.2956, 40.10792
530.7777, 40.83808
531.2598, 41.62219
531.7419, 41.77155
532.2241, 41.56642
532.7062, 41.45354
533.1883, 41.59452
533.6704, 41.67172
534.1525, 41.39311
534.6346, 40.89604
535.1168, 40.47086
535.5989, 40.17554
536.0810, 40.04201
536.5631, 40.13176
537.0452, 40.45818
537.5273, 40.74463
538.0095, 41.11216
538.4916, 41.31079
538.9737, 41.26052
539.4558, 40.98006
539.9379, 40.38921
540.4200, 39.49723
540.9022, 38.63650
541.3843, 38.29461
541.8664, 38.55779
542.3485, 38.85697
542.8306, 39.35150
543.3127, 39.70076
543.7948, 39.75542
544.2769, 39.60779
544.7590, 39.39793
545.2411, 39.17696
545.7233, 38.90770
546.2054, 38.50409
546.6875, 37.97912
547.1696, 37.55247
547.6517, 37.27013
548.1339, 37.06739
548.6160, 36.90909
549.0981, 36.78912
549.5802, 36.69585
550.0623, 36.58643
550.5444, 36.54691
551.0266, 36.73902
551.5087, 37.03429
551.9908, 37.12362
552.4729, 36.91023
552.9550, 36.54058
553.4371, 36.18104
553.9193, 35.82355
554.4014, 35.52443
554.8835, 35.28527
555.3656, 35.09364
555.8477, 34.97709
556.3298, 34.89343
556.8120, 34.74609
557.2941, 34.50709
557.7762, 34.32595
558.2583, 34.50446
558.7404, 35.12492
559.2225, 35.39050
559.7047, 35.01770
560.1868, 34.62189
560.6689, 34.47474
561.1510, 34.50336
561.6331, 34.61233
562.1152, 34.82775
562.5974, 34.96081
563.0795, 34.73145
563.5616, 34.25924
564.0437, 33.98778
564.5258, 34.01854
565.0079, 34.20115
565.4901, 34.47602
565.9722, 34.81756
566.4543, 34.89596
566.9364, 34.43933
567.4185, 34.03317
567.9006, 33.91235
568.3828, 33.97316
568.8649, 34.14137
569.3470, 34.36557
569.8291, 34.45918
570.3112, 34.17580
570.7933, 33.48779
571.2755, 32.89205
571.7576, 32.20370
572.2397, 31.86291
572.7218, 32.14145
573.2039, 32.72257
573.6860, 33.37685
574.1682, 34.03215
574.6503, 34.36998
575.1324, 33.89767
575.6145, 32.81469
576.0966, 31.96424
576.5787, 31.36870
577.0609, 31.13638
577.5430, 31.53314
578.0251, 32.29287
578.5072, 32.77309
578.9893, 32.92533
579.4714, 32.87889
579.9536, 32.48248
580.4357, 32.01882
580.9178, 31.90048
581.3999, 32.13374
581.8820, 32.33944
582.3641, 32.20625
582.8463, 31.81978
583.3284, 31.68150
583.8105, 32.00242
584.2926, 32.27559
584.7747, 32.45825
585.2568, 32.58654
585.7390, 32.69011
586.2211, 32.76894
586.7032, 32.79370
587.1853, 32.69484
587.6674, 32.56218
588.1495, 32.73108
588.6317, 33.29429
589.1138, 33.55482
589.5959, 33.05463
590.0780, 32.37440
590.5601, 32.26743
591.0422, 32.72145
591.5244, 33.02690
592.0065, 32.83223
592.4886, 32.50340
592.9707, 32.36190
593.4528, 32.37644
593.9349, 32.37804
594.4171, 32.28710
594.8992, 32.19234
595.3813, 32.26359
595.8634, 32.60280
596.3455, 32.80451
596.8276, 32.72085
597.3098, 32.67434
597.7919, 32.85552
598.2740, 33.15266
598.7561, 33.37682
599.2382, 33.45198
599.7203, 33.42083
600.2025, 33.28376
600.6846, 33.04708
601.1667, 32.96650
601.6488, 33.08711
602.1309, 33.32831
602.6130, 33.81295
603.0952, 34.35642
603.5773, 34.52077
604.0594, 34.02272
604.5415, 33.57547
605.0236, 33.58401
605.5057, 33.85827
605.9879, 34.17327
606.4700, 34.46842
606.9521, 34.63447
607.4342, 34.56743
607.9163, 34.29483
608.3984, 34.01718
608.8806, 33.53831
609.3627, 33.34169
609.8448, 33.64083
610.3269, 34.09731
610.8090, 34.52932
611.2911, 34.87435
611.7733, 35.06396
612.2554, 35.03756
612.7375, 34.83538
613.2196, 34.43311
613.7017, 33.77427
614.1838, 33.55866
614.6660, 34.29260
615.1481, 35.19723
615.6302, 35.23363
616.1123, 34.47341
616.5944, 33.98671
617.0765, 34.19576
617.5587, 34.55154
618.0408, 34.80907
618.5229, 34.91382
619.0050, 34.66650
619.4871, 34.01090
619.9692, 33.40348
620.4514, 33.52337
620.9335, 34.51665
621.4156, 35.12451
621.8977, 35.05978
622.3798, 34.93034
622.8619, 34.95306
623.3441, 34.96320
623.8262, 34.73143
624.3083, 34.21032
624.7904, 33.63190
625.2725, 33.16112
625.7546, 32.78896
626.2367, 32.47885
626.7188, 32.22258
627.2009, 32.11183
627.6830, 32.23108
628.1652, 32.49595
628.6473, 32.76009
629.1294, 33.12191
629.6115, 33.18962
630.0936, 32.60145
630.5757, 31.96105
631.0579, 31.71243
631.5400, 31.78703
632.0221, 31.89295
632.5042, 31.87982
632.9863, 31.87162
633.4684, 32.18958
633.9506, 32.99036
634.4327, 33.32993
634.9148, 32.90511
635.3969, 32.32216
635.8790, 31.79267
636.3611, 31.34610
636.8433, 31.02439
637.3254, 30.83051
637.8075, 30.79207
638.2896, 31.06149
638.7717, 31.46411
639.2538, 31.64819
639.7360, 31.56839
640.2181, 31.43578
640.7002, 31.43594
641.1823, 31.46922
641.6644, 31.12211
642.1465, 29.80609
642.6287, 28.92545
643.1108, 28.53319
643.5929, 28.54586
644.0750, 29.20602
644.5571, 30.22621
645.0392, 30.90609
645.5214, 30.82484
646.0035, 30.31268
646.4856, 29.85196
646.9677, 29.44303
647.4498, 29.17005
647.9319, 29.06292
648.4141, 29.06581
648.8962, 29.16015
649.3783, 29.33253
649.8604, 29.53231
650.3425, 29.81299
650.8246, 30.04204
651.3068, 30.17730
651.7889, 30.22594
652.2710, 30.18291
652.7531, 30.05581
653.2352, 29.87394
653.7173, 29.65494
654.1995, 29.40855
654.6816, 29.15191
655.1637, 28.80206
655.6458, 28.64341
656.1279, 28.99052
656.6100, 29.31650
657.0922, 29.28460
657.5743, 28.96474
658.0564, 28.62520
658.5385, 28.25303
659.0206, 28.06261
659.5027, 28.46073
659.9849, 29.20255
660.4670, 29.54680
660.9491, 29.31412
661.4312, 28.92854
661.9133, 28.75497
662.3954, 28.78319
662.8776, 28.86795
663.3597, 29.10944
663.8418, 29.27569
664.3239, 29.28641
664.8060, 29.25800
665.2881, 29.34826
665.7703, 29.50677
666.2524, 29.47335
666.7345, 28.97216
667.2166, 28.35392
667.6987, 28.39371
668.1808, 29.06662
668.6630, 29.38663
669.1451, 29.00031
669.6272, 28.49643
670.1093, 28.48072
670.5914, 28.90745
671.0735, 29.13231
671.5557, 29.02849
672.0378, 28.86466
672.5199, 28.72266
673.0020, 28.56683
673.4841, 28.32141
673.9662, 28.00340
674.4484, 27.72098
674.9305, 27.54148
675.4126, 27.48385
675.8947, 27.63628
676.3768, 28.04603
676.8589, 28.47830
677.3411, 29.09014
677.8232, 29.47460
