##NAMES=Osumilite-(Mg)
##RRUFFID=R141100
##IDEAL CHEMISTRY=KMg_2_(Al_5_Si_10_)O_30_
##LOCALITY=Weinberg, Nickenich, Eifel, Germany
##OWNER=RRUFF
##SOURCE=Ch. and H. Sch√§fer
##DESCRIPTION=Light blue to colorless, short prismatic or tabular hexagonal crystals
##STATUS=The identification of this mineral has been confirmed only by single crystal X-ray diffraction.
##URL=rruff.info/R141100
9.059570e+001, 7.690548e+002
9.107782e+001, 7.647041e+002
9.155994e+001, 7.631946e+002
9.204205e+001, 7.665567e+002
9.252417e+001, 7.713859e+002
9.300629e+001, 7.765598e+002
9.348840e+001, 7.776757e+002
9.397052e+001, 7.700355e+002
9.445264e+001, 7.524865e+002
9.493475e+001, 7.351932e+002
9.541687e+001, 7.190442e+002
9.589898e+001, 7.046077e+002
9.638110e+001, 6.915289e+002
9.686321e+001, 6.794650e+002
9.734533e+001, 6.677676e+002
9.782745e+001, 6.552632e+002
9.830956e+001, 6.443930e+002
9.879168e+001, 6.347984e+002
9.927380e+001, 6.267764e+002
9.975591e+001, 6.208422e+002
1.002380e+002, 6.163959e+002
1.007201e+002, 6.120834e+002
1.012023e+002, 6.070392e+002
1.016844e+002, 6.014724e+002
1.021665e+002, 5.963851e+002
1.026486e+002, 5.916324e+002
1.031307e+002, 5.873047e+002
1.036128e+002, 5.834384e+002
1.040950e+002, 5.799316e+002
1.045771e+002, 5.770757e+002
1.050592e+002, 5.753483e+002
1.055413e+002, 5.741758e+002
1.060234e+002, 5.727640e+002
1.065055e+002, 5.703732e+002
1.069877e+002, 5.673697e+002
1.074698e+002, 5.654288e+002
1.079519e+002, 5.656572e+002
1.084340e+002, 5.655412e+002
1.089161e+002, 5.640973e+002
1.093982e+002, 5.614785e+002
1.098804e+002, 5.581527e+002
1.103625e+002, 5.541818e+002
1.108446e+002, 5.491400e+002
1.113267e+002, 5.457925e+002
1.118088e+002, 5.448713e+002
1.122909e+002, 5.448415e+002
1.127731e+002, 5.453954e+002
1.132552e+002, 5.462941e+002
1.137373e+002, 5.471275e+002
1.142194e+002, 5.472565e+002
1.147015e+002, 5.458452e+002
1.151836e+002, 5.452514e+002
1.156658e+002, 5.461825e+002
1.161479e+002, 5.475635e+002
1.166300e+002, 5.484196e+002
1.171121e+002, 5.484119e+002
1.175942e+002, 5.476968e+002
1.180763e+002, 5.465461e+002
1.185584e+002, 5.450179e+002
1.190406e+002, 5.431057e+002
1.195227e+002, 5.407697e+002
1.200048e+002, 5.380433e+002
1.204869e+002, 5.349689e+002
1.209690e+002, 5.314926e+002
1.214511e+002, 5.277052e+002
1.219333e+002, 5.239099e+002
1.224154e+002, 5.202109e+002
1.228975e+002, 5.163195e+002
1.233796e+002, 5.120093e+002
1.238617e+002, 5.072456e+002
1.243438e+002, 5.022500e+002
1.248260e+002, 4.972225e+002
1.253081e+002, 4.919955e+002
1.257902e+002, 4.862111e+002
1.262723e+002, 4.795520e+002
1.267544e+002, 4.725800e+002
1.272365e+002, 4.666813e+002
1.277187e+002, 4.623185e+002
1.282008e+002, 4.583330e+002
1.286829e+002, 4.545864e+002
1.291650e+002, 4.508706e+002
1.296471e+002, 4.469274e+002
1.301292e+002, 4.425694e+002
1.306114e+002, 4.378262e+002
1.310935e+002, 4.331165e+002
1.315756e+002, 4.283020e+002
1.320577e+002, 4.236330e+002
1.325398e+002, 4.193441e+002
1.330219e+002, 4.152855e+002
1.335041e+002, 4.111137e+002
1.339862e+002, 4.064615e+002
1.344683e+002, 4.011533e+002
1.349504e+002, 3.964834e+002
1.354325e+002, 3.926211e+002
1.359146e+002, 3.891078e+002
1.363968e+002, 3.857619e+002
1.368789e+002, 3.825398e+002
1.373610e+002, 3.794059e+002
1.378431e+002, 3.763294e+002
1.383252e+002, 3.732607e+002
1.388073e+002, 3.705711e+002
1.392895e+002, 3.684894e+002
1.397716e+002, 3.667068e+002
1.402537e+002, 3.648989e+002
1.407358e+002, 3.630199e+002
1.412179e+002, 3.610479e+002
1.417000e+002, 3.588622e+002
1.421821e+002, 3.564809e+002
1.426643e+002, 3.542813e+002
1.431464e+002, 3.525495e+002
1.436285e+002, 3.511576e+002
1.441106e+002, 3.496181e+002
1.445927e+002, 3.477445e+002
1.450748e+002, 3.457822e+002
1.455570e+002, 3.438041e+002
1.460391e+002, 3.418258e+002
1.465212e+002, 3.401943e+002
1.470033e+002, 3.393293e+002
1.474854e+002, 3.393093e+002
1.479675e+002, 3.392770e+002
1.484497e+002, 3.393112e+002
1.489318e+002, 3.391227e+002
1.494139e+002, 3.382849e+002
1.498960e+002, 3.367681e+002
1.503781e+002, 3.352547e+002
1.508602e+002, 3.348778e+002
1.513424e+002, 3.363314e+002
1.518245e+002, 3.374349e+002
1.523066e+002, 3.375904e+002
1.527887e+002, 3.375977e+002
1.532708e+002, 3.380828e+002
1.537529e+002, 3.392777e+002
1.542351e+002, 3.409893e+002
1.547172e+002, 3.427426e+002
1.551993e+002, 3.445973e+002
1.556814e+002, 3.464166e+002
1.561635e+002, 3.479400e+002
1.566456e+002, 3.494979e+002
1.571278e+002, 3.516064e+002
1.576099e+002, 3.545667e+002
1.580920e+002, 3.580540e+002
1.585741e+002, 3.606445e+002
1.590562e+002, 3.619372e+002
1.595383e+002, 3.629428e+002
1.600205e+002, 3.642451e+002
1.605026e+002, 3.654631e+002
1.609847e+002, 3.656688e+002
1.614668e+002, 3.642359e+002
1.619489e+002, 3.613633e+002
1.624310e+002, 3.583608e+002
1.629131e+002, 3.560347e+002
1.633953e+002, 3.528889e+002
1.638774e+002, 3.474280e+002
1.643595e+002, 3.398936e+002
1.648416e+002, 3.327901e+002
1.653237e+002, 3.278522e+002
1.658058e+002, 3.244424e+002
1.662880e+002, 3.209007e+002
1.667701e+002, 3.167399e+002
1.672522e+002, 3.126115e+002
1.677343e+002, 3.092376e+002
1.682164e+002, 3.066655e+002
1.686985e+002, 3.046551e+002
1.691807e+002, 3.035080e+002
1.696628e+002, 3.027498e+002
1.701449e+002, 3.017996e+002
1.706270e+002, 3.003607e+002
1.711091e+002, 2.986495e+002
1.715912e+002, 2.971563e+002
1.720734e+002, 2.959267e+002
1.725555e+002, 2.948590e+002
1.730376e+002, 2.939171e+002
1.735197e+002, 2.930703e+002
1.740018e+002, 2.922689e+002
1.744839e+002, 2.914827e+002
1.749661e+002, 2.907222e+002
1.754482e+002, 2.900581e+002
1.759303e+002, 2.894914e+002
1.764124e+002, 2.890429e+002
1.768945e+002, 2.887659e+002
1.773766e+002, 2.886055e+002
1.778588e+002, 2.884743e+002
1.783409e+002, 2.883077e+002
1.788230e+002, 2.881049e+002
1.793051e+002, 2.879318e+002
1.797872e+002, 2.877453e+002
1.802693e+002, 2.876281e+002
1.807515e+002, 2.877136e+002
1.812336e+002, 2.879074e+002
1.817157e+002, 2.879748e+002
1.821978e+002, 2.876920e+002
1.826799e+002, 2.870034e+002
1.831620e+002, 2.865023e+002
1.836441e+002, 2.862112e+002
1.841263e+002, 2.860345e+002
1.846084e+002, 2.859724e+002
1.850905e+002, 2.859998e+002
1.855726e+002, 2.860301e+002
1.860547e+002, 2.859567e+002
1.865368e+002, 2.857529e+002
1.870190e+002, 2.858028e+002
1.875011e+002, 2.863985e+002
1.879832e+002, 2.870327e+002
1.884653e+002, 2.873237e+002
1.889474e+002, 2.872336e+002
1.894296e+002, 2.869786e+002
1.899117e+002, 2.867108e+002
1.903938e+002, 2.864378e+002
1.908759e+002, 2.862665e+002
1.913580e+002, 2.862168e+002
1.918401e+002, 2.862728e+002
1.923223e+002, 2.865195e+002
1.928044e+002, 2.870304e+002
1.932865e+002, 2.873945e+002
1.937686e+002, 2.871325e+002
1.942507e+002, 2.863884e+002
1.947328e+002, 2.854615e+002
1.952150e+002, 2.841518e+002
1.956971e+002, 2.827615e+002
1.961792e+002, 2.819337e+002
1.966613e+002, 2.818727e+002
1.971434e+002, 2.820538e+002
1.976255e+002, 2.822588e+002
1.981077e+002, 2.824129e+002
1.985898e+002, 2.822775e+002
1.990719e+002, 2.815040e+002
1.995540e+002, 2.802798e+002
2.000361e+002, 2.794699e+002
2.005182e+002, 2.794389e+002
2.010004e+002, 2.793412e+002
2.014825e+002, 2.785481e+002
2.019646e+002, 2.773186e+002
2.024467e+002, 2.763106e+002
2.029288e+002, 2.761138e+002
2.034109e+002, 2.766658e+002
2.038930e+002, 2.768808e+002
2.043752e+002, 2.763264e+002
2.048573e+002, 2.758736e+002
2.053394e+002, 2.760347e+002
2.058215e+002, 2.765894e+002
2.063036e+002, 2.769759e+002
2.067857e+002, 2.766629e+002
2.072679e+002, 2.756010e+002
2.077500e+002, 2.748121e+002
2.082321e+002, 2.744074e+002
2.087142e+002, 2.741942e+002
2.091963e+002, 2.742686e+002
2.096784e+002, 2.745156e+002
2.101606e+002, 2.746884e+002
2.106427e+002, 2.745610e+002
2.111248e+002, 2.741043e+002
2.116069e+002, 2.736010e+002
2.120890e+002, 2.727555e+002
2.125711e+002, 2.721356e+002
2.130533e+002, 2.721550e+002
2.135354e+002, 2.726594e+002
2.140175e+002, 2.731055e+002
2.144996e+002, 2.729425e+002
2.149817e+002, 2.720000e+002
2.154638e+002, 2.716911e+002
2.159460e+002, 2.726534e+002
2.164281e+002, 2.735394e+002
2.169102e+002, 2.735140e+002
2.173923e+002, 2.726947e+002
2.178744e+002, 2.718669e+002
2.183565e+002, 2.717731e+002
2.188387e+002, 2.725315e+002
2.193208e+002, 2.730451e+002
2.198029e+002, 2.733251e+002
2.202850e+002, 2.733910e+002
2.207671e+002, 2.730649e+002
2.212492e+002, 2.724256e+002
2.217314e+002, 2.719689e+002
2.222135e+002, 2.721864e+002
2.226956e+002, 2.731329e+002
2.231777e+002, 2.737889e+002
2.236598e+002, 2.741523e+002
2.241419e+002, 2.742373e+002
2.246240e+002, 2.738253e+002
2.251062e+002, 2.729558e+002
2.255883e+002, 2.723199e+002
2.260704e+002, 2.725740e+002
2.265525e+002, 2.736382e+002
2.270346e+002, 2.745899e+002
2.275167e+002, 2.755062e+002
2.279989e+002, 2.762058e+002
2.284810e+002, 2.764449e+002
2.289631e+002, 2.762039e+002
2.294452e+002, 2.758007e+002
2.299273e+002, 2.753241e+002
2.304094e+002, 2.748660e+002
2.308916e+002, 2.746788e+002
2.313737e+002, 2.750497e+002
2.318558e+002, 2.755762e+002
2.323379e+002, 2.758506e+002
2.328200e+002, 2.758721e+002
2.333021e+002, 2.756385e+002
2.337843e+002, 2.746778e+002
2.342664e+002, 2.735421e+002
2.347485e+002, 2.731753e+002
2.352306e+002, 2.742806e+002
2.357127e+002, 2.758615e+002
2.361948e+002, 2.764524e+002
2.366770e+002, 2.758029e+002
2.371591e+002, 2.752130e+002
2.376412e+002, 2.756712e+002
2.381233e+002, 2.764662e+002
2.386054e+002, 2.767542e+002
2.390875e+002, 2.760839e+002
2.395697e+002, 2.750755e+002
2.400518e+002, 2.748158e+002
2.405339e+002, 2.755900e+002
2.410160e+002, 2.761947e+002
2.414981e+002, 2.760373e+002
2.419802e+002, 2.755447e+002
2.424624e+002, 2.750847e+002
2.429445e+002, 2.747810e+002
2.434266e+002, 2.745619e+002
2.439087e+002, 2.742692e+002
2.443908e+002, 2.738029e+002
2.448729e+002, 2.735460e+002
2.453550e+002, 2.736296e+002
2.458372e+002, 2.739302e+002
2.463193e+002, 2.744196e+002
2.468014e+002, 2.751025e+002
2.472835e+002, 2.758068e+002
2.477656e+002, 2.762510e+002
2.482477e+002, 2.763952e+002
2.487299e+002, 2.763437e+002
2.492120e+002, 2.759937e+002
2.496941e+002, 2.755560e+002
2.501762e+002, 2.751726e+002
2.506583e+002, 2.748893e+002
2.511404e+002, 2.746903e+002
2.516226e+002, 2.745724e+002
2.521047e+002, 2.746326e+002
2.525868e+002, 2.745511e+002
2.530689e+002, 2.741405e+002
2.535510e+002, 2.737066e+002
2.540331e+002, 2.734513e+002
2.545153e+002, 2.734309e+002
2.549974e+002, 2.735826e+002
2.554795e+002, 2.738241e+002
2.559616e+002, 2.741927e+002
2.564437e+002, 2.745788e+002
2.569258e+002, 2.751086e+002
2.574080e+002, 2.755645e+002
2.578901e+002, 2.757524e+002
2.583722e+002, 2.756639e+002
2.588543e+002, 2.754888e+002
2.593364e+002, 2.754731e+002
2.598185e+002, 2.756381e+002
2.603007e+002, 2.759319e+002
2.607828e+002, 2.762628e+002
2.612649e+002, 2.767606e+002
2.617470e+002, 2.776718e+002
2.622291e+002, 2.789274e+002
2.627112e+002, 2.800822e+002
2.631934e+002, 2.805674e+002
2.636755e+002, 2.800421e+002
2.641576e+002, 2.801060e+002
2.646397e+002, 2.813123e+002
2.651218e+002, 2.825238e+002
2.656039e+002, 2.829933e+002
2.660861e+002, 2.827829e+002
2.665682e+002, 2.825129e+002
2.670503e+002, 2.827988e+002
2.675324e+002, 2.837406e+002
2.680145e+002, 2.846295e+002
2.684966e+002, 2.854781e+002
2.689788e+002, 2.862750e+002
2.694609e+002, 2.869658e+002
2.699430e+002, 2.875836e+002
2.704251e+002, 2.882211e+002
2.709072e+002, 2.889412e+002
2.713893e+002, 2.897369e+002
2.718715e+002, 2.907409e+002
2.723536e+002, 2.922799e+002
2.728357e+002, 2.936613e+002
2.733178e+002, 2.944915e+002
2.737999e+002, 2.949015e+002
2.742820e+002, 2.952604e+002
2.747642e+002, 2.957994e+002
2.752463e+002, 2.965144e+002
2.757284e+002, 2.973631e+002
2.762105e+002, 2.985786e+002
2.766926e+002, 2.996482e+002
2.771747e+002, 3.003090e+002
2.776568e+002, 3.006946e+002
2.781389e+002, 3.011502e+002
2.786211e+002, 3.019072e+002
2.791032e+002, 3.028142e+002
2.795853e+002, 3.031834e+002
2.800674e+002, 3.026291e+002
2.805495e+002, 3.021122e+002
2.810316e+002, 3.019770e+002
2.815138e+002, 3.020285e+002
2.819959e+002, 3.019207e+002
2.824780e+002, 3.015027e+002
2.829601e+002, 3.008553e+002
2.834422e+002, 3.001946e+002
2.839243e+002, 2.996518e+002
2.844065e+002, 2.988670e+002
2.848886e+002, 2.976685e+002
2.853707e+002, 2.962098e+002
2.858528e+002, 2.946634e+002
2.863349e+002, 2.930632e+002
2.868170e+002, 2.915119e+002
2.872992e+002, 2.901626e+002
2.877813e+002, 2.889951e+002
2.882634e+002, 2.880765e+002
2.887455e+002, 2.877437e+002
2.892276e+002, 2.875427e+002
2.897097e+002, 2.868889e+002
2.901919e+002, 2.856405e+002
2.906740e+002, 2.841339e+002
2.911561e+002, 2.827057e+002
2.916382e+002, 2.813539e+002
2.921203e+002, 2.801685e+002
2.926024e+002, 2.793917e+002
2.930846e+002, 2.786540e+002
2.935667e+002, 2.774832e+002
2.940488e+002, 2.758251e+002
2.945309e+002, 2.742248e+002
2.950130e+002, 2.732291e+002
2.954951e+002, 2.728567e+002
2.959773e+002, 2.723482e+002
2.964594e+002, 2.715202e+002
2.969415e+002, 2.706602e+002
2.974236e+002, 2.700745e+002
2.979057e+002, 2.697406e+002
2.983878e+002, 2.692542e+002
2.988700e+002, 2.682260e+002
2.993521e+002, 2.667891e+002
2.998342e+002, 2.658021e+002
3.003163e+002, 2.657403e+002
3.007984e+002, 2.656927e+002
3.012805e+002, 2.650443e+002
3.017627e+002, 2.639115e+002
3.022448e+002, 2.628214e+002
3.027269e+002, 2.620117e+002
3.032090e+002, 2.614662e+002
3.036911e+002, 2.610841e+002
3.041732e+002, 2.608760e+002
3.046554e+002, 2.607869e+002
3.051375e+002, 2.610675e+002
3.056196e+002, 2.614705e+002
3.061017e+002, 2.612643e+002
3.065838e+002, 2.600391e+002
3.070659e+002, 2.583304e+002
3.075481e+002, 2.571610e+002
3.080302e+002, 2.565467e+002
3.085123e+002, 2.561742e+002
3.089944e+002, 2.559756e+002
3.094765e+002, 2.559481e+002
3.099586e+002, 2.562406e+002
3.104408e+002, 2.569957e+002
3.109229e+002, 2.576087e+002
3.114050e+002, 2.569521e+002
3.118871e+002, 2.549526e+002
3.123692e+002, 2.536707e+002
3.128513e+002, 2.540802e+002
3.133335e+002, 2.551529e+002
3.138156e+002, 2.556341e+002
3.142977e+002, 2.553272e+002
3.147798e+002, 2.548871e+002
3.152619e+002, 2.550294e+002
3.157440e+002, 2.556792e+002
3.162262e+002, 2.557674e+002
3.167083e+002, 2.544419e+002
3.171904e+002, 2.530639e+002
3.176725e+002, 2.530530e+002
3.181546e+002, 2.543346e+002
3.186367e+002, 2.553575e+002
3.191188e+002, 2.549914e+002
3.196010e+002, 2.534995e+002
3.200831e+002, 2.524165e+002
3.205652e+002, 2.518692e+002
3.210473e+002, 2.515808e+002
3.215294e+002, 2.514739e+002
3.220115e+002, 2.515190e+002
3.224937e+002, 2.516208e+002
3.229758e+002, 2.517527e+002
3.234579e+002, 2.518947e+002
3.239400e+002, 2.520381e+002
3.244221e+002, 2.523701e+002
3.249042e+002, 2.523385e+002
3.253864e+002, 2.512751e+002
3.258685e+002, 2.497810e+002
3.263506e+002, 2.491108e+002
3.268327e+002, 2.497737e+002
3.273148e+002, 2.509350e+002
3.277969e+002, 2.512531e+002
3.282791e+002, 2.506060e+002
3.287612e+002, 2.500538e+002
3.292433e+002, 2.497742e+002
3.297254e+002, 2.496972e+002
3.302075e+002, 2.497908e+002
3.306896e+002, 2.500500e+002
3.311718e+002, 2.503479e+002
3.316539e+002, 2.505945e+002
3.321360e+002, 2.507827e+002
3.326181e+002, 2.507836e+002
3.331002e+002, 2.504202e+002
3.335823e+002, 2.499992e+002
3.340645e+002, 2.497107e+002
3.345466e+002, 2.495686e+002
3.350287e+002, 2.495544e+002
3.355108e+002, 2.496972e+002
3.359929e+002, 2.499577e+002
3.364750e+002, 2.500551e+002
3.369572e+002, 2.497949e+002
3.374393e+002, 2.495928e+002
3.379214e+002, 2.496891e+002
3.384035e+002, 2.499782e+002
3.388856e+002, 2.502072e+002
3.393677e+002, 2.502571e+002
3.398499e+002, 2.501797e+002
3.403320e+002, 2.501071e+002
3.408141e+002, 2.500379e+002
3.412962e+002, 2.499736e+002
3.417783e+002, 2.499739e+002
3.422604e+002, 2.499575e+002
3.427426e+002, 2.497458e+002
3.432247e+002, 2.492881e+002
3.437068e+002, 2.488490e+002
3.441889e+002, 2.488142e+002
3.446710e+002, 2.493683e+002
3.451531e+002, 2.498419e+002
3.456353e+002, 2.502802e+002
3.461174e+002, 2.506020e+002
3.465995e+002, 2.507710e+002
3.470816e+002, 2.507721e+002
3.475637e+002, 2.505415e+002
3.480458e+002, 2.499664e+002
3.485280e+002, 2.490168e+002
3.490101e+002, 2.484178e+002
3.494922e+002, 2.484959e+002
3.499743e+002, 2.485351e+002
3.504564e+002, 2.480833e+002
3.509385e+002, 2.473498e+002
3.514207e+002, 2.468669e+002
3.519028e+002, 2.469703e+002
3.523849e+002, 2.475088e+002
3.528670e+002, 2.478359e+002
3.533491e+002, 2.478557e+002
3.538312e+002, 2.477856e+002
3.543134e+002, 2.474966e+002
3.547955e+002, 2.471921e+002
3.552776e+002, 2.471420e+002
3.557597e+002, 2.474351e+002
3.562418e+002, 2.478892e+002
3.567239e+002, 2.481929e+002
3.572061e+002, 2.482132e+002
3.576882e+002, 2.483532e+002
3.581703e+002, 2.487953e+002
3.586524e+002, 2.492090e+002
3.591345e+002, 2.492932e+002
3.596166e+002, 2.490733e+002
3.600987e+002, 2.488468e+002
3.605808e+002, 2.489114e+002
3.610630e+002, 2.493002e+002
3.615451e+002, 2.496565e+002
3.620272e+002, 2.500735e+002
3.625093e+002, 2.503636e+002
3.629914e+002, 2.504120e+002
3.634735e+002, 2.502903e+002
3.639557e+002, 2.500838e+002
3.644378e+002, 2.498183e+002
3.649199e+002, 2.495866e+002
3.654020e+002, 2.498071e+002
3.658841e+002, 2.509725e+002
3.663662e+002, 2.519291e+002
3.668484e+002, 2.523857e+002
3.673305e+002, 2.526590e+002
3.678126e+002, 2.531045e+002
3.682947e+002, 2.538213e+002
3.687768e+002, 2.545766e+002
3.692589e+002, 2.549234e+002
3.697411e+002, 2.545242e+002
3.702232e+002, 2.546541e+002
3.707053e+002, 2.559164e+002
3.711874e+002, 2.572127e+002
3.716695e+002, 2.579818e+002
3.721516e+002, 2.582190e+002
3.726338e+002, 2.582397e+002
3.731159e+002, 2.582391e+002
3.735980e+002, 2.582248e+002
3.740801e+002, 2.585138e+002
3.745622e+002, 2.595050e+002
3.750443e+002, 2.603065e+002
3.755265e+002, 2.604492e+002
3.760086e+002, 2.602612e+002
3.764907e+002, 2.602498e+002
3.769728e+002, 2.606740e+002
3.774549e+002, 2.613846e+002
3.779370e+002, 2.621044e+002
3.784192e+002, 2.629153e+002
3.789013e+002, 2.634965e+002
3.793834e+002, 2.635236e+002
3.798655e+002, 2.634346e+002
3.803476e+002, 2.635937e+002
3.808297e+002, 2.640709e+002
3.813119e+002, 2.646035e+002
3.817940e+002, 2.649709e+002
3.822761e+002, 2.651742e+002
3.827582e+002, 2.651797e+002
3.832403e+002, 2.648625e+002
3.837224e+002, 2.644802e+002
3.842046e+002, 2.641103e+002
3.846867e+002, 2.638032e+002
3.851688e+002, 2.637223e+002
3.856509e+002, 2.641187e+002
3.861330e+002, 2.647754e+002
3.866151e+002, 2.652265e+002
3.870973e+002, 2.654692e+002
3.875794e+002, 2.655029e+002
3.880615e+002, 2.651365e+002
3.885436e+002, 2.646037e+002
3.890257e+002, 2.642626e+002
3.895078e+002, 2.642993e+002
3.899900e+002, 2.643197e+002
3.904721e+002, 2.638663e+002
3.909542e+002, 2.630127e+002
3.914363e+002, 2.623698e+002
3.919184e+002, 2.621906e+002
3.924005e+002, 2.622471e+002
3.928827e+002, 2.622555e+002
3.933648e+002, 2.622264e+002
3.938469e+002, 2.620876e+002
3.943290e+002, 2.617850e+002
3.948111e+002, 2.613656e+002
3.952932e+002, 2.608561e+002
3.957754e+002, 2.602409e+002
3.962575e+002, 2.597147e+002
3.967396e+002, 2.595028e+002
3.972217e+002, 2.595750e+002
3.977038e+002, 2.595009e+002
3.981859e+002, 2.591586e+002
3.986681e+002, 2.587562e+002
3.991501e+002, 2.583593e+002
3.996323e+002, 2.580021e+002
4.001144e+002, 2.578179e+002
4.005965e+002, 2.579122e+002
4.010786e+002, 2.581588e+002
4.015607e+002, 2.581906e+002
4.020428e+002, 2.579874e+002
4.025250e+002, 2.576462e+002
4.030071e+002, 2.570220e+002
4.034892e+002, 2.563396e+002
4.039713e+002, 2.558349e+002
4.044534e+002, 2.555684e+002
4.049355e+002, 2.555104e+002
4.054177e+002, 2.556457e+002
4.058998e+002, 2.560145e+002
4.063819e+002, 2.563903e+002
4.068640e+002, 2.571232e+002
4.073461e+002, 2.575358e+002
4.078282e+002, 2.569647e+002
4.083104e+002, 2.557826e+002
4.087925e+002, 2.549527e+002
4.092746e+002, 2.551042e+002
4.097567e+002, 2.559987e+002
4.102388e+002, 2.565314e+002
4.107209e+002, 2.563468e+002
4.112031e+002, 2.562390e+002
4.116852e+002, 2.562831e+002
4.121673e+002, 2.564260e+002
4.126494e+002, 2.566697e+002
4.131315e+002, 2.569915e+002
4.136136e+002, 2.572615e+002
4.140958e+002, 2.572634e+002
4.145779e+002, 2.568831e+002
4.150600e+002, 2.566952e+002
4.155421e+002, 2.569231e+002
4.160242e+002, 2.571418e+002
