##NAMES=Osumilite
##RRUFFID=R060385
##IDEAL CHEMISTRY=KFe^2+^_2_(Al_5_Si_10_)O_30_
##LOCALITY=Funtanafigu Quarry, Monte Arci, near Oristano, Sardinia
##OWNER=RRUFF
##SOURCE=Michael Scott
##DESCRIPTION=Black tabular distorted hexagonal crystals associated with colorless tridymite
##STATUS=The identification of this mineral is confirmed by single-crystal X-ray diffraction and chemical analysis.
##URL=rruff.info/R060385
##MEASURED CHEMISTRY=(K_0.72_Na_0.15_Ca_0.01_)_Σ=0.88_(Fe^2+^_1.07_Mg_0.93_Mn_0.06_)_Σ=2.06_(Al_2.69_Fe^3+^_0.31_)_Σ=3_(Si_10.28_Al_1.72_)_Σ=12_O_30_
182.6374, 194.3849
183.1195, 194.9608
183.6017, 196.7574
184.0838, 198.4912
184.5659, 198.3946
185.0480, 196.7995
185.5301, 195.3741
186.0123, 195.0739
186.4944, 195.5787
186.9765, 195.8996
187.4586, 195.9721
187.9407, 195.9718
188.4228, 196.1912
188.9050, 196.6017
189.3871, 196.9262
189.8692, 197.1039
190.3513, 197.1032
190.8334, 196.5974
191.3155, 195.3968
191.7977, 194.1520
192.2798, 194.1221
192.7619, 195.3039
193.2440, 196.3449
193.7261, 196.4774
194.2082, 195.7766
194.6904, 195.1145
195.1725, 194.5767
195.6546, 194.0196
196.1367, 193.0856
196.6188, 191.7292
197.1009, 190.5379
197.5831, 189.8804
198.0652, 189.7471
198.5473, 189.6260
199.0294, 189.4601
199.5115, 189.3275
199.9937, 189.5199
200.4758, 190.1262
200.9579, 190.4757
201.4400, 189.9381
201.9221, 188.3963
202.4042, 187.7245
202.8864, 188.3820
203.3685, 189.6044
203.8506, 189.3817
204.3327, 187.3586
204.8148, 185.3459
205.2969, 184.4416
205.7791, 184.8288
206.2612, 184.9770
206.7433, 184.7734
207.2254, 184.3021
207.7075, 183.6748
208.1896, 182.7424
208.6718, 182.0826
209.1539, 182.2182
209.6360, 183.4520
210.1181, 183.8801
210.6002, 183.1472
211.0823, 181.6945
211.5645, 180.8012
212.0466, 180.6753
212.5287, 180.6182
213.0108, 180.2129
213.4929, 179.3207
213.9750, 178.6474
214.4572, 178.3223
214.9393, 178.2057
215.4214, 177.8197
215.9035, 176.9777
216.3856, 176.2391
216.8678, 175.9540
217.3499, 176.2688
217.8320, 176.5268
218.3141, 176.6720
218.7962, 176.7406
219.2783, 176.8867
219.7605, 177.2356
220.2426, 177.4209
220.7247, 177.1495
221.2068, 176.0989
221.6889, 175.5514
222.1710, 175.8103
222.6532, 176.5509
223.1353, 176.7085
223.6174, 176.0037
224.0995, 175.1920
224.5816, 174.6976
225.0637, 174.7688
225.5459, 174.4956
226.0280, 173.7014
226.5101, 172.5787
226.9922, 171.7379
227.4743, 171.2481
227.9564, 170.9178
228.4386, 170.6730
228.9207, 170.5889
229.4028, 170.4067
229.8849, 170.0621
230.3670, 169.6288
230.8492, 169.3093
231.3313, 169.1510
231.8134, 169.0383
232.2955, 168.9757
232.7776, 169.2072
233.2597, 168.8559
233.7419, 167.4346
234.2240, 165.5633
234.7061, 165.0407
235.1882, 166.8636
235.6703, 168.5217
236.1524, 168.8642
236.6346, 167.1046
237.1167, 165.8162
237.5988, 165.0478
238.0809, 164.7213
238.5630, 164.7081
239.0451, 165.2793
239.5273, 165.7507
240.0094, 165.7864
240.4915, 165.0856
240.9736, 164.7763
241.4557, 165.2250
241.9378, 165.8965
242.4200, 165.5165
242.9021, 162.9975
243.3842, 161.1201
243.8663, 161.2308
244.3484, 164.5341
244.8306, 166.1546
245.3127, 165.4545
245.7948, 163.4028
246.2769, 161.6840
246.7590, 160.1940
247.2411, 159.2517
247.7233, 159.1361
248.2054, 160.2387
248.6875, 160.6369
249.1696, 159.8242
249.6517, 158.6459
250.1338, 158.5825
250.6160, 160.3558
251.0981, 161.9561
251.5802, 162.7596
252.0623, 162.6838
252.5444, 162.2328
253.0265, 161.1920
253.5087, 159.9569
253.9908, 159.1226
254.4729, 158.8448
254.9550, 158.6404
255.4371, 158.3745
255.9192, 158.0345
256.4014, 157.6819
256.8835, 156.9986
257.3656, 156.6197
257.8477, 157.5906
258.3298, 160.9852
258.8120, 163.2696
259.2941, 163.1319
259.7762, 160.3429
260.2583, 159.1119
260.7404, 159.9972
261.2225, 161.7279
261.7047, 163.0556
262.1868, 164.0051
262.6689, 164.4455
263.1510, 164.1418
263.6331, 163.1295
264.1152, 162.7516
264.5974, 163.2316
265.0795, 164.0060
265.5616, 164.4714
266.0437, 164.4488
266.5258, 164.7638
267.0079, 165.7041
267.4901, 167.1731
267.9722, 168.1293
268.4543, 168.3236
268.9364, 168.5331
269.4185, 169.4874
269.9006, 171.4023
270.3828, 173.1670
270.8649, 174.7644
271.3470, 176.0809
271.8291, 176.4678
272.3112, 175.6324
272.7933, 174.6316
273.2755, 174.2135
273.7576, 174.4234
274.2397, 174.8801
274.7218, 175.6530
275.2039, 176.5723
275.6860, 177.0440
276.1682, 176.9477
276.6503, 176.8734
277.1324, 177.4956
277.6145, 178.9502
278.0966, 179.1482
278.5787, 177.6220
279.0609, 175.1399
279.5430, 173.3795
280.0251, 172.4615
280.5072, 171.6074
280.9893, 170.4263
281.4715, 168.9313
281.9536, 167.2959
282.4357, 165.5405
282.9178, 163.6190
283.3999, 161.2478
283.8820, 158.3763
284.3642, 155.8998
284.8463, 154.5071
285.3284, 154.0613
285.8105, 153.0696
286.2926, 151.4645
286.7747, 149.4715
287.2569, 147.1788
287.7390, 144.6095
288.2211, 142.4090
288.7032, 140.8145
289.1853, 139.8022
289.6674, 139.5298
290.1496, 140.1498
290.6317, 140.5235
291.1138, 138.7735
291.5959, 135.2841
292.0780, 132.8084
292.5602, 132.6451
293.0423, 133.9397
293.5244, 134.7801
294.0065, 135.1730
294.4886, 134.8306
294.9707, 132.8387
295.4529, 129.7336
295.9350, 127.5191
296.4171, 126.8946
296.8992, 127.2434
297.3813, 127.6651
297.8634, 128.1470
298.3456, 128.5635
298.8277, 129.0087
299.3098, 129.3070
299.7919, 128.9284
300.2740, 127.4440
300.7561, 125.8179
301.2383, 125.4781
301.7204, 126.1985
302.2025, 126.9808
302.6846, 127.4543
303.1667, 127.5212
303.6488, 126.8719
304.1310, 125.2373
304.6131, 123.5968
305.0952, 122.9995
305.5773, 123.2001
306.0594, 123.5346
306.5415, 123.7197
307.0237, 123.8273
307.5058, 123.9080
307.9879, 123.9522
308.4700, 124.0642
308.9521, 124.6666
309.4343, 125.3573
309.9164, 125.4493
310.3985, 123.6923
310.8806, 121.8721
311.3627, 121.5982
311.8448, 122.9547
312.3270, 124.2687
312.8091, 124.4541
313.2912, 124.0614
313.7733, 123.7409
314.2554, 124.0043
314.7375, 124.1555
315.2197, 123.5817
315.7018, 122.4009
316.1839, 121.6552
316.6660, 122.1588
317.1481, 123.1181
317.6302, 123.8894
318.1124, 124.3777
318.5945, 124.5899
319.0766, 124.4781
319.5587, 124.0804
320.0408, 123.5330
320.5229, 122.8068
321.0051, 121.9926
321.4872, 121.1442
321.9693, 120.3255
322.4514, 119.3853
322.9335, 117.8008
323.4156, 116.1109
323.8978, 115.3554
324.3799, 116.7910
324.8620, 118.2521
325.3441, 118.8818
325.8262, 118.2471
326.3083, 117.9433
326.7905, 118.3574
327.2726, 119.0817
327.7547, 119.6085
328.2368, 120.2662
328.7189, 120.3637
329.2010, 119.3362
329.6832, 116.9728
330.1653, 115.9633
330.6474, 117.6167
331.1295, 119.6818
331.6116, 120.2370
332.0938, 117.6055
332.5759, 116.1903
333.0580, 117.2281
333.5401, 120.2309
334.0222, 121.3772
334.5043, 119.7164
334.9865, 117.5267
335.4686, 116.1034
335.9507, 115.5841
336.4328, 115.4896
336.9149, 115.9258
337.3970, 116.7091
337.8792, 117.4279
338.3613, 118.2386
338.8434, 118.5807
339.3255, 117.9472
339.8076, 116.0988
340.2898, 115.1845
340.7719, 115.3971
341.2540, 116.1985
341.7361, 116.8766
342.2182, 117.4202
342.7003, 117.8371
343.1825, 118.0258
343.6646, 118.0591
344.1467, 118.5782
344.6288, 119.7203
345.1109, 120.6763
345.5930, 120.3692
346.0752, 118.9444
346.5573, 117.8727
347.0394, 117.6038
347.5215, 117.8110
348.0036, 117.6476
348.4857, 117.1300
348.9679, 116.8942
349.4500, 117.7609
349.9321, 119.3070
350.4142, 120.2492
350.8963, 120.2805
351.3784, 119.9527
351.8606, 119.9859
352.3427, 120.2776
352.8248, 120.4485
353.3069, 119.8548
353.7890, 119.1794
354.2711, 119.5766
354.7533, 121.2533
355.2354, 122.8902
355.7175, 123.0534
356.1996, 122.4233
356.6817, 122.1861
357.1638, 123.2855
357.6460, 124.6418
358.1281, 125.4718
358.6102, 125.7869
359.0923, 125.9211
359.5744, 125.9569
360.0565, 125.9457
360.5387, 125.9203
361.0208, 125.6686
361.5029, 125.6825
361.9850, 126.1989
362.4671, 127.1560
362.9492, 128.3646
363.4314, 130.4791
363.9135, 132.3048
364.3956, 132.9592
364.8777, 131.4596
365.3598, 130.8792
365.8419, 132.8066
366.3241, 135.8320
366.8062, 137.8308
367.2883, 137.3617
367.7704, 136.9429
368.2526, 137.4056
368.7347, 139.0238
369.2168, 140.0315
369.6989, 139.8914
370.1810, 139.4531
370.6631, 139.4000
371.1453, 139.7866
371.6274, 140.4874
372.1095, 141.5750
372.5916, 143.0022
373.0737, 144.4886
373.5558, 146.4005
374.0380, 147.8472
374.5201, 148.1084
375.0022, 146.4983
375.4843, 146.1278
375.9664, 147.7151
376.4485, 150.0467
376.9307, 150.4834
377.4128, 148.5246
377.8949, 146.7805
378.3770, 146.3891
378.8591, 147.2797
379.3412, 148.1695
379.8234, 149.1181
380.3055, 149.8292
380.7876, 149.9192
381.2697, 149.4094
381.7518, 148.6059
382.2339, 147.3955
382.7161, 146.0970
383.1982, 145.6149
383.6803, 145.9248
384.1624, 146.1731
384.6445, 145.5282
385.1266, 144.3437
385.6088, 143.4496
386.0909, 142.9354
386.5730, 142.8467
387.0551, 143.8076
387.5372, 145.3392
388.0193, 146.0758
388.5015, 144.6317
388.9836, 142.3763
389.4657, 140.6973
389.9478, 139.6751
390.4299, 138.9957
390.9120, 138.4949
391.3942, 138.1935
391.8763, 138.1282
392.3584, 138.5332
392.8405, 138.9637
393.3226, 139.2255
393.8047, 139.3299
394.2869, 139.3277
394.7690, 139.6044
395.2511, 139.5326
395.7332, 138.5600
396.2154, 135.7952
396.6975, 133.8282
397.1796, 133.5420
397.6617, 134.3297
398.1438, 135.1388
398.6259, 136.0010
399.1081, 136.7071
399.5902, 137.1675
400.0723, 137.3513
400.5544, 137.5127
401.0365, 137.7670
401.5186, 137.9091
402.0008, 137.7240
402.4829, 136.8485
402.9650, 136.3465
403.4471, 136.4903
403.9292, 137.0934
404.4113, 137.3288
404.8935, 137.0303
405.3756, 136.7505
405.8577, 136.7695
406.3398, 137.1100
406.8219, 137.7013
407.3040, 138.7580
407.7862, 139.6612
408.2683, 139.2018
408.7504, 137.3254
409.2325, 135.9748
409.7146, 136.0377
410.1967, 137.0786
410.6789, 137.7061
411.1610, 137.9172
411.6431, 137.8512
412.1252, 137.4457
412.6073, 136.8458
413.0894, 136.4666
413.5716, 136.4046
414.0537, 136.5691
414.5358, 137.0262
415.0179, 137.6581
415.5000, 138.0979
415.9821, 138.2563
416.4643, 138.0522
416.9464, 137.0743
417.4285, 135.2167
417.9106, 133.8986
418.3927, 134.4949
418.8748, 135.9951
419.3570, 137.1884
419.8391, 137.5170
420.3212, 137.6160
420.8033, 137.5851
421.2854, 137.4960
421.7675, 137.6732
422.2497, 138.8133
422.7318, 139.8043
423.2139, 139.8850
423.6960, 138.1085
424.1781, 137.3256
424.6602, 138.9250
425.1424, 141.4086
425.6245, 142.5436
426.1066, 141.0242
426.5887, 139.7900
427.0709, 139.5895
427.5530, 140.4212
428.0351, 140.8024
428.5172, 140.3942
428.9993, 140.0024
429.4814, 140.2563
429.9636, 141.3414
430.4457, 142.4136
430.9278, 143.5577
431.4099, 144.4993
431.8920, 144.3837
432.3741, 143.0328
432.8563, 142.0034
433.3384, 142.1633
433.8205, 143.3273
434.3026, 144.3004
434.7847, 145.1012
435.2668, 145.6145
435.7490, 145.4138
436.2311, 144.7633
436.7132, 144.6663
437.1953, 145.6166
437.6774, 146.9142
438.1595, 147.5511
438.6417, 147.6824
439.1238, 147.9501
439.6059, 149.0432
440.0880, 150.3167
440.5701, 150.9310
441.0522, 150.6749
441.5344, 150.6482
442.0165, 151.7605
442.4986, 153.4289
442.9807, 154.9348
443.4628, 156.1781
443.9449, 157.0808
444.4271, 157.2211
444.9092, 156.8212
445.3913, 157.1334
445.8734, 159.6772
446.3555, 162.0712
446.8376, 162.9526
447.3198, 160.7798
447.8019, 159.9815
448.2840, 161.2677
448.7661, 163.7059
449.2482, 166.0937
449.7303, 168.7140
450.2125, 170.7355
450.6946, 171.7440
451.1767, 171.8524
451.6588, 172.7195
452.1409, 174.5831
452.6230, 176.6687
453.1052, 178.5147
453.5873, 180.1532
454.0694, 181.2208
454.5515, 181.5050
455.0337, 181.5885
455.5158, 182.4751
455.9979, 184.1283
456.4800, 185.8951
456.9621, 187.4554
457.4442, 188.9636
457.9264, 190.7947
458.4085, 192.9360
458.8906, 195.2973
459.3727, 198.0664
459.8548, 200.9294
460.3369, 203.1853
460.8191, 204.3506
461.3012, 205.7494
461.7833, 208.9929
462.2654, 213.2491
462.7475, 216.7731
463.2296, 218.1454
463.7118, 219.1652
464.1939, 220.7265
464.6760, 222.9006
465.1581, 225.4706
465.6402, 228.7522
466.1223, 232.1489
466.6045, 235.1973
467.0866, 237.3762
467.5687, 239.7553
468.0508, 242.7124
468.5329, 245.8867
469.0150, 248.4771
469.4972, 249.9805
469.9793, 251.6196
470.4614, 253.8371
470.9435, 256.6786
471.4256, 259.2906
471.9077, 261.8482
472.3899, 263.8363
472.8720, 264.5672
473.3541, 263.9241
473.8362, 263.6217
474.3183, 264.0900
474.8004, 264.7102
475.2826, 264.1572
475.7647, 262.4958
476.2468, 260.6561
476.7289, 259.3928
477.2110, 258.2204
477.6931, 256.1423
478.1753, 253.1436
478.6574, 249.3718
479.1395, 244.6157
479.6216, 239.2570
480.1037, 233.8103
480.5858, 228.2443
481.0680, 222.8903
481.5501, 218.0871
482.0322, 213.6491
482.5143, 209.2312
482.9964, 204.6742
483.4786, 200.1313
483.9607, 195.6636
484.4428, 191.3195
484.9249, 186.9724
485.4070, 182.4341
485.8892, 178.0343
486.3713, 174.0075
486.8534, 170.3238
487.3355, 167.1032
487.8176, 164.3981
488.2997, 162.1475
488.7819, 160.2573
489.2640, 159.0043
489.7461, 157.4195
490.2282, 154.8902
490.7103, 151.5203
491.1924, 149.7438
491.6746, 149.8806
492.1567, 150.2366
492.6388, 149.0457
493.1209, 146.5365
493.6030, 144.9988
494.0851, 144.9254
494.5673, 145.3241
495.0494, 144.6343
495.5315, 143.1536
496.0136, 141.9823
496.4957, 142.0106
496.9778, 142.3860
497.4600, 142.0516
497.9421, 141.0790
498.4242, 140.2120
498.9063, 139.8616
499.3884, 139.8272
499.8705, 139.8937
500.3527, 139.8927
500.8348, 140.3142
501.3169, 141.7603
501.7990, 143.6104
502.2811, 144.9996
502.7632, 145.4743
503.2454, 145.7796
503.7275, 146.0312
504.2096, 146.2361
504.6917, 146.4545
505.1738, 146.6775
505.6559, 146.9252
506.1381, 147.1582
506.6202, 147.2828
507.1023, 147.8080
507.5844, 148.8068
508.0665, 150.0744
508.5486, 151.2790
509.0308, 152.4189
509.5129, 153.8893
509.9950, 155.9948
510.4771, 158.2962
510.9592, 159.8342
511.4413, 160.6499
511.9235, 161.2433
512.4056, 161.4013
512.8877, 161.7282
513.3698, 163.5932
513.8519, 167.2272
514.3340, 170.3013
514.8162, 170.2664
515.2983, 169.0034
515.7804, 168.8156
516.2625, 171.5426
516.7446, 173.9971
517.2267, 174.1772
517.7089, 173.1084
518.1910, 173.3085
518.6731, 177.3522
519.1552, 180.8482
519.6373, 181.8244
520.1194, 179.9625
520.6016, 179.1407
521.0837, 179.7813
521.5658, 180.9931
522.0479, 182.1604
522.5300, 183.2067
523.0121, 184.4467
523.4943, 185.9253
523.9764, 187.5704
524.4585, 189.4608
524.9406, 191.5838
525.4227, 193.1195
525.9048, 193.5245
526.3870, 193.2544
526.8691, 193.5209
527.3513, 194.2866
527.8334, 194.9601
528.3155, 194.7654
528.7976, 194.3470
529.2797, 194.8094
529.7618, 196.4430
530.2440, 197.9897
530.7261, 198.3004
531.2082, 198.0692
531.6903, 198.1789
532.1724, 199.2167
532.6545, 200.3201
533.1367, 201.3816
533.6188, 202.3221
534.1009, 202.9084
534.5830, 202.9771
535.0651, 202.7877
535.5472, 202.2477
536.0294, 201.1941
536.5115, 200.9918
536.9936, 201.9344
537.4757, 203.3191
537.9578, 204.6681
538.4399, 206.0487
538.9221, 207.0435
539.4042, 207.6208
539.8863, 207.7957
540.3684, 207.4195
540.8505, 206.5465
541.3326, 205.8264
541.8148, 205.4749
542.2969, 205.4677
542.7790, 205.9549
543.2611, 206.8614
543.7432, 207.6033
544.2253, 207.7696
544.7075, 207.5795
545.1896, 207.1290
545.6717, 206.3303
546.1538, 205.8577
546.6359, 206.7416
547.1180, 207.8316
547.6002, 207.8913
548.0823, 205.7876
548.5644, 203.6058
549.0465, 201.5414
549.5286, 199.6483
550.0107, 198.0926
550.4929, 197.0373
550.9750, 196.0669
551.4571, 195.0033
551.9392, 193.8402
552.4213, 193.1798
552.9034, 193.2749
553.3856, 193.0731
553.8677, 191.4871
554.3498, 188.6484
554.8319, 186.0920
555.3140, 183.9335
555.7961, 182.2114
556.2783, 181.0882
556.7604, 180.4648
557.2425, 180.1118
557.7246, 180.2915
558.2067, 180.3433
558.6888, 179.1948
559.1710, 177.2774
559.6531, 176.0715
560.1352, 177.5591
560.6173, 178.9888
561.0994, 178.3467
561.5815, 175.1395
562.0637, 172.8473
562.5458, 172.9424
563.0279, 173.6842
563.5100, 173.7725
563.9921, 172.5756
564.4742, 171.8497
564.9564, 171.8534
565.4385, 172.1684
565.9206, 172.1181
566.4027, 171.6797
566.8848, 170.9528
567.3669, 169.8548
567.8491, 168.5473
568.3312, 167.5562
568.8133, 166.8804
569.2954, 166.4214
569.7775, 166.3389
570.2596, 166.3740
570.7418, 166.0572
571.2239, 165.3557
571.7060, 164.4310
572.1881, 163.2183
572.6702, 161.9371
573.1523, 160.8036
573.6345, 159.8405
574.1166, 159.1114
574.5987, 158.8636
575.0808, 158.8301
575.5629, 158.5607
576.0450, 157.9926
576.5272, 157.1686
577.0093, 156.0818
577.4914, 154.7515
577.9735, 153.1442
578.4556, 150.8999
578.9377, 149.1547
579.4199, 148.6394
579.9020, 149.3895
580.3841, 149.8387
580.8662, 149.9859
581.3483, 149.8532
581.8304, 149.0907
582.3126, 148.0134
582.7947, 147.9202
583.2768, 149.3828
583.7589, 150.8694
584.2410, 150.4675
584.7231, 148.9120
585.2053, 147.6580
585.6874, 147.4849
586.1696, 147.6186
586.6517, 147.8228
587.1338, 148.0298
587.6159, 147.9753
588.0980, 147.0785
588.5801, 146.3561
589.0623, 146.4057
589.5444, 147.4260
590.0265, 147.8550
590.5086, 147.4633
590.9907, 146.7755
591.4728, 146.0681
591.9550, 145.2563
592.4371, 145.1527
592.9192, 146.0367
593.4013, 147.1319
593.8834, 147.2711
594.3655, 146.5691
594.8477, 145.6982
595.3298, 144.7528
595.8119, 143.9163
596.2940, 143.4671
596.7761, 143.3506
597.2582, 143.3685
597.7404, 143.2761
598.2225, 143.3862
598.7046, 144.0085
599.1867, 145.1486
599.6688, 146.2755
600.1509, 147.7356
600.6331, 148.7744
601.1152, 148.7634
601.5973, 146.8798
602.0794, 145.9418
602.5615, 146.5213
603.0436, 147.5064
603.5258, 147.4473
604.0079, 145.9985
604.4900, 145.4352
604.9721, 146.3074
605.4542, 147.9777
605.9363, 149.3649
606.4185, 150.4502
606.9006, 151.1512
607.3827, 151.2637
607.8648, 151.0602
608.3469, 150.8048
608.8290, 150.5339
609.3112, 150.4657
609.7933, 151.0804
610.2754, 151.6979
610.7575, 151.6379
611.2396, 150.6906
611.7217, 150.1827
612.2039, 150.5470
612.6860, 151.4502
613.1681, 152.6949
613.6502, 154.8572
614.1323, 156.2819
614.6144, 156.6755
615.0966, 156.5521
615.5787, 156.5893
616.0608, 156.7693
616.5429, 157.3345
617.0250, 158.6258
617.5071, 160.0131
617.9893, 159.5823
618.4714, 157.6051
618.9535, 156.2071
619.4356, 156.8416
619.9177, 158.4776
620.3998, 160.1108
620.8820, 161.6625
621.3641, 162.6355
621.8462, 162.1178
622.3283, 161.3626
622.8104, 161.4035
623.2925, 162.6621
623.7747, 163.5100
624.2568, 163.1660
624.7389, 162.5975
625.2210, 162.6309
625.7031, 163.7841
626.1852, 164.3711
626.6674, 164.1595
627.1495, 163.5030
627.6316, 162.9041
628.1137, 162.3582
628.5958, 161.9982
629.0779, 161.9183
629.5601, 161.9848
630.0422, 161.9514
630.5243, 161.8339
631.0064, 161.6986
631.4885, 161.6363
631.9706, 161.5399
632.4528, 161.3505
632.9349, 161.0576
633.4170, 160.5618
633.8991, 159.4646
634.3812, 158.4219
634.8633, 157.8477
635.3455, 157.9445
635.8276, 158.0387
636.3097, 158.2073
636.7918, 158.2766
637.2739, 158.1308
637.7560, 157.8106
638.2382, 157.0420
638.7203, 155.6736
639.2024, 154.1022
639.6845, 152.7627
640.1666, 151.6834
640.6487, 151.1949
641.1309, 151.6272
641.6130, 152.3539
642.0951, 152.5471
642.5772, 152.3197
643.0594, 151.9825
643.5415, 152.2851
644.0236, 152.0025
644.5057, 149.8824
644.9879, 146.1584
645.4700, 143.2478
645.9521, 141.6872
646.4342, 141.1015
646.9163, 141.5216
647.3984, 143.2195
647.8806, 144.1090
648.3627, 144.0369
648.8448, 143.4724
649.3269, 142.6671
649.8090, 141.6231
650.2911, 140.7285
650.7733, 139.9889
651.2554, 139.4534
651.7375, 139.2583
652.2196, 139.3023
652.7017, 139.3437
653.1838, 139.3400
653.6660, 139.2609
654.1481, 139.0529
654.6302, 138.7557
655.1123, 138.4375
655.5944, 138.1914
656.0765, 137.8490
656.5587, 137.3613
657.0408, 136.7301
657.5229, 135.9219
658.0050, 134.6100
658.4871, 133.7145
658.9692, 133.7080
659.4514, 134.4817
659.9335, 134.8270
660.4156, 134.7163
660.8977, 134.4036
661.3798, 133.9752
661.8619, 133.4954
662.3441, 133.1724
662.8262, 133.0249
663.3083, 132.8131
663.7904, 132.2178
664.2725, 131.5191
664.7546, 131.0372
665.2368, 130.8989
665.7189, 130.8122
666.2010, 130.9089
666.6831, 130.9071
667.1652, 130.4320
667.6473, 128.6781
668.1295, 127.8512
668.6116, 128.6120
669.0937, 130.0002
669.5758, 129.8903
670.0579, 128.0673
670.5400, 126.9108
671.0222, 127.4767
671.5043, 128.7435
671.9864, 128.1731
672.4685, 126.1935
672.9506, 124.9299
673.4327, 126.5778
673.9149, 128.7413
674.3970, 129.1752
674.8791, 128.0337
