##NAMES=Ottrelite
##RRUFFID=R060832
##IDEAL CHEMISTRY=Mn^2+^Al_2_O(SiO_4_)(OH)_2_
##LOCALITY=Ottre, Belgium
##OWNER=RRUFF
##SOURCE=Michael Scott
##DESCRIPTION=Black pseudohexagonal flakes, triply twinned with a 120 deg rotation around c*
##STATUS=The identification of this mineral has been confirmed only by single crystal X-ray diffraction.
##URL=rruff.info/R060832
128.2770, 470.4395
128.7592, 479.6315
129.2413, 490.1466
129.7234, 502.5803
130.2055, 514.8806
130.6876, 525.5369
131.1698, 536.3888
131.6519, 550.7540
132.1340, 570.7126
132.6161, 590.6243
133.0982, 596.2243
133.5803, 576.3705
134.0625, 560.7827
134.5446, 556.6696
135.0267, 558.6000
135.5088, 561.1260
135.9909, 561.6074
136.4730, 560.5432
136.9552, 559.6668
137.4373, 557.5889
137.9194, 557.6697
138.4015, 560.5253
138.8836, 565.7404
139.3657, 573.0336
139.8479, 582.5004
140.3300, 593.6265
140.8121, 603.2527
141.2942, 609.5999
141.7763, 616.0042
142.2584, 621.2012
142.7406, 626.9897
143.2227, 636.6259
143.7048, 652.8368
144.1869, 675.1935
144.6690, 694.2601
145.1511, 704.4025
145.6333, 717.0279
146.1154, 735.9016
146.5975, 759.9931
147.0796, 786.8900
147.5617, 815.1433
148.0438, 845.0302
148.5260, 870.2755
149.0081, 894.1338
149.4902, 911.7312
149.9723, 919.2583
150.4544, 918.2560
150.9365, 913.3842
151.4187, 908.3546
151.9008, 903.2051
152.3829, 896.7800
152.8650, 887.9238
153.3471, 879.0161
153.8292, 872.9267
154.3114, 868.7354
154.7935, 861.6717
155.2756, 846.6063
155.7577, 821.8337
156.2398, 802.2810
156.7219, 789.4658
157.2041, 780.1512
157.6862, 772.0369
158.1683, 765.0918
158.6504, 761.3048
159.1325, 763.0655
159.6146, 771.7562
160.0968, 779.3783
160.5789, 785.1887
161.0610, 790.3918
161.5431, 795.3775
162.0252, 800.3016
162.5073, 806.2726
162.9895, 815.1067
163.4716, 827.6487
163.9537, 836.5969
164.4358, 839.3538
164.9179, 839.7966
165.4000, 840.0062
165.8822, 840.3398
166.3643, 843.8096
166.8464, 855.5666
167.3285, 876.7172
167.8106, 892.2317
168.2927, 896.8317
168.7749, 896.9984
169.2570, 900.1206
169.7391, 907.5897
170.2212, 914.5222
170.7033, 914.8519
171.1854, 908.4605
171.6676, 902.6988
172.1497, 898.5188
172.6318, 895.6446
173.1139, 893.4438
173.5960, 891.6647
174.0781, 891.7199
174.5603, 897.4595
175.0424, 908.7004
175.5245, 914.4153
176.0066, 906.9439
176.4887, 894.5453
176.9708, 889.6679
177.4530, 895.3724
177.9351, 902.9827
178.4172, 901.7371
178.8993, 892.6313
179.3814, 885.6370
179.8635, 882.9858
180.3457, 883.9737
180.8278, 888.9180
181.3099, 898.9423
181.7920, 908.6804
182.2741, 910.0226
182.7562, 904.4272
183.2384, 901.9788
183.7205, 907.7215
184.2026, 917.7487
184.6847, 926.6376
185.1668, 934.0186
185.6489, 938.6627
186.1311, 934.6297
186.6132, 924.0789
187.0953, 921.9480
187.5774, 941.8989
188.0595, 970.9671
188.5416, 984.9631
189.0238, 977.3711
189.5059, 966.1448
189.9880, 973.6090
190.4701, 994.9104
190.9522, 1006.546
191.4343, 989.8807
191.9165, 961.7393
192.3986, 952.1183
192.8807, 967.4619
193.3628, 990.8857
193.8449, 1009.138
194.3270, 1023.233
194.8092, 1034.891
195.2913, 1043.532
195.7734, 1050.451
196.2555, 1057.423
196.7376, 1064.336
197.2197, 1072.319
197.7019, 1083.856
198.1840, 1097.765
198.6661, 1109.755
199.1482, 1117.736
199.6303, 1123.317
200.1124, 1129.334
200.5946, 1136.474
201.0767, 1142.240
201.5588, 1142.794
202.0409, 1139.974
202.5230, 1138.553
203.0051, 1141.319
203.4873, 1145.738
203.9694, 1147.897
204.4515, 1147.174
204.9336, 1146.009
205.4157, 1145.788
205.8978, 1146.503
206.3800, 1148.496
206.8621, 1155.298
207.3442, 1161.933
207.8263, 1160.201
208.3084, 1148.590
208.7905, 1136.677
209.2727, 1130.864
209.7548, 1130.006
210.2369, 1131.968
210.7190, 1140.512
211.2011, 1149.461
211.6832, 1150.605
212.1654, 1143.192
212.6475, 1134.591
213.1296, 1129.092
213.6117, 1125.998
214.0938, 1123.682
214.5760, 1121.416
215.0581, 1120.186
215.5402, 1122.353
216.0223, 1128.101
216.5044, 1131.441
216.9865, 1126.730
217.4687, 1117.518
217.9508, 1112.509
218.4329, 1117.398
218.9150, 1122.190
219.3971, 1116.542
219.8792, 1100.958
220.3614, 1086.692
220.8435, 1078.757
221.3256, 1076.945
221.8077, 1079.327
222.2898, 1090.215
222.7719, 1099.825
223.2541, 1100.169
223.7362, 1092.305
224.2183, 1083.080
224.7004, 1074.097
225.1825, 1066.884
225.6646, 1064.368
226.1468, 1068.708
226.6289, 1073.818
227.1110, 1077.587
227.5931, 1079.616
228.0752, 1077.773
228.5573, 1069.843
229.0395, 1058.962
229.5216, 1051.635
230.0037, 1048.745
230.4858, 1046.702
230.9679, 1044.103
231.4500, 1041.181
231.9322, 1038.256
232.4143, 1035.065
232.8964, 1032.641
233.3785, 1033.025
233.8606, 1036.349
234.3427, 1040.856
234.8249, 1047.533
235.3070, 1054.773
235.7891, 1059.148
236.2712, 1059.277
236.7533, 1058.177
237.2354, 1060.717
237.7176, 1067.478
238.1997, 1073.938
238.6818, 1080.485
239.1639, 1085.820
239.6460, 1087.551
240.1281, 1085.019
240.6103, 1081.419
241.0924, 1080.354
241.5745, 1082.054
242.0566, 1085.570
242.5387, 1091.078
243.0208, 1098.256
243.5030, 1107.832
243.9851, 1119.638
244.4672, 1130.692
244.9493, 1137.180
245.4314, 1137.871
245.9135, 1144.395
246.3957, 1163.126
246.8778, 1182.604
247.3599, 1194.964
247.8420, 1200.256
248.3241, 1202.471
248.8062, 1204.173
249.2884, 1205.344
249.7705, 1209.472
250.2526, 1222.385
250.7347, 1232.266
251.2168, 1234.135
251.6989, 1228.434
252.1811, 1216.308
252.6632, 1197.370
253.1453, 1172.964
253.6274, 1156.292
254.1095, 1150.065
254.5916, 1147.379
255.0738, 1149.463
255.5559, 1153.530
256.0380, 1155.061
256.5201, 1151.624
257.0022, 1144.427
257.4843, 1137.703
257.9665, 1134.208
258.4486, 1127.940
258.9307, 1115.688
259.4128, 1101.469
259.8949, 1089.560
260.3770, 1081.629
260.8592, 1076.933
261.3413, 1074.078
261.8234, 1075.531
262.3055, 1074.984
262.7876, 1073.080
263.2697, 1068.911
263.7519, 1061.288
264.2340, 1050.164
264.7161, 1036.944
265.1982, 1022.777
265.6803, 1004.511
266.1624, 993.6782
266.6446, 994.1010
267.1267, 997.7735
267.6088, 1001.947
268.0909, 1005.537
268.5730, 1007.297
269.0551, 1005.340
269.5373, 998.9937
270.0194, 994.7621
270.5015, 994.9595
270.9836, 995.3412
271.4657, 992.5711
271.9478, 988.6295
272.4300, 988.7473
272.9121, 998.0992
273.3942, 1014.989
273.8763, 1026.945
274.3584, 1030.205
274.8405, 1033.354
275.3227, 1037.077
275.8048, 1042.987
276.2869, 1053.959
276.7690, 1072.471
277.2511, 1095.384
277.7332, 1115.438
278.2154, 1131.794
278.6975, 1147.306
279.1796, 1162.150
279.6617, 1177.047
280.1438, 1193.226
280.6259, 1211.545
281.1081, 1229.405
281.5902, 1242.711
282.0723, 1250.953
282.5544, 1261.309
283.0365, 1278.578
283.5186, 1296.933
284.0008, 1311.206
284.4829, 1320.829
284.9650, 1327.829
285.4471, 1334.565
285.9292, 1340.284
286.4113, 1340.651
286.8935, 1333.121
287.3756, 1322.435
287.8577, 1313.695
288.3398, 1306.761
288.8219, 1298.602
289.3040, 1287.851
289.7862, 1275.214
290.2683, 1261.187
290.7504, 1245.573
291.2325, 1230.400
291.7146, 1218.337
292.1967, 1208.767
292.6789, 1197.107
293.1610, 1180.276
293.6431, 1162.920
294.1252, 1149.179
294.6073, 1138.991
295.0894, 1129.700
295.5716, 1118.979
296.0537, 1107.820
296.5358, 1101.668
297.0179, 1106.311
297.5000, 1109.379
297.9821, 1105.733
298.4643, 1096.606
298.9464, 1083.702
299.4285, 1067.065
299.9106, 1049.448
300.3927, 1038.362
300.8748, 1039.835
301.3570, 1039.207
301.8391, 1032.094
302.3212, 1023.519
302.8033, 1020.274
303.2854, 1023.936
303.7675, 1028.575
304.2497, 1025.418
304.7318, 1011.051
305.2139, 996.8177
305.6960, 977.9147
306.1781, 962.8346
306.6602, 959.6797
307.1424, 966.6807
307.6245, 973.9833
308.1066, 971.7853
308.5887, 959.2122
309.0708, 952.5306
309.5529, 960.7058
310.0351, 966.0000
310.5172, 960.7905
310.9993, 949.5781
311.4814, 940.7429
311.9635, 939.4899
312.4456, 943.7287
312.9278, 946.6912
313.4099, 949.0733
313.8920, 948.6360
314.3741, 942.1460
314.8562, 934.3237
315.3383, 930.6667
315.8205, 933.2015
316.3026, 936.7509
316.7847, 932.5261
317.2668, 918.7740
317.7489, 911.4933
318.2310, 919.1257
318.7132, 930.3290
319.1953, 936.2575
319.6774, 936.5593
320.1595, 937.5710
320.6416, 945.9565
321.1237, 958.9451
321.6059, 965.0305
322.0880, 959.9459
322.5701, 954.4128
323.0522, 957.5441
323.5343, 967.4655
324.0164, 979.1651
324.4986, 993.0703
324.9807, 1007.044
325.4628, 1017.491
325.9449, 1024.407
326.4270, 1033.343
326.9091, 1049.423
327.3913, 1069.735
327.8734, 1082.893
328.3555, 1083.238
328.8376, 1083.238
329.3197, 1091.584
329.8018, 1103.550
330.2840, 1107.921
330.7661, 1099.457
331.2482, 1084.682
331.7303, 1076.519
332.2124, 1079.944
332.6945, 1080.356
333.1767, 1076.207
333.6588, 1069.059
334.1409, 1058.125
334.6230, 1044.304
335.1051, 1033.039
335.5872, 1031.158
336.0694, 1041.728
336.5515, 1043.811
337.0336, 1029.127
337.5157, 1015.427
337.9979, 1010.687
338.4800, 1012.406
338.9621, 1014.032
339.4442, 1011.482
339.9263, 1005.384
340.4084, 998.3881
340.8906, 988.2365
341.3727, 980.8112
341.8548, 977.5544
342.3369, 977.0106
342.8190, 978.2468
343.3011, 980.9897
343.7833, 984.0251
344.2654, 985.2690
344.7475, 984.2689
345.2296, 985.0767
345.7117, 990.7366
346.1938, 996.2181
346.6760, 997.8667
347.1581, 995.9130
347.6402, 993.2823
348.1223, 991.0777
348.6044, 989.5675
349.0865, 989.5269
349.5687, 991.1141
350.0508, 993.8524
350.5329, 999.3510
351.0150, 1005.777
351.4971, 1008.302
351.9792, 1001.443
352.4614, 994.3749
352.9435, 994.8228
353.4256, 1001.732
353.9077, 1010.803
354.3898, 1021.607
354.8719, 1031.520
355.3541, 1032.686
355.8362, 1021.033
356.3183, 1011.459
356.8004, 1009.143
357.2825, 1009.889
357.7646, 1007.367
358.2468, 1000.527
358.7289, 995.7271
359.2110, 1001.418
359.6931, 1021.661
360.1752, 1033.473
360.6573, 1033.655
361.1395, 1029.894
361.6216, 1021.683
362.1037, 1012.395
362.5858, 1009.495
363.0679, 1018.883
363.5500, 1036.615
364.0322, 1043.697
364.5143, 1028.593
364.9964, 1020.529
365.4785, 1026.539
365.9606, 1039.786
366.4427, 1055.799
366.9249, 1073.050
367.4070, 1087.705
367.8891, 1094.130
368.3712, 1091.808
368.8533, 1088.614
369.3354, 1085.904
369.8176, 1081.806
370.2997, 1073.489
370.7818, 1062.256
371.2639, 1053.842
371.7460, 1052.367
372.2281, 1055.214
372.7103, 1058.672
373.1924, 1063.068
373.6745, 1064.857
374.1566, 1060.499
374.6387, 1052.280
375.1208, 1046.646
375.6030, 1046.330
376.0851, 1045.102
376.5672, 1037.710
377.0493, 1027.072
377.5314, 1019.659
378.0135, 1017.608
378.4957, 1019.244
378.9778, 1022.170
379.4599, 1026.463
379.9420, 1032.191
380.4241, 1043.731
380.9063, 1053.376
381.3884, 1053.178
381.8705, 1044.958
382.3526, 1038.146
382.8347, 1040.798
383.3168, 1051.699
383.7990, 1055.573
384.2811, 1043.191
384.7632, 1034.389
385.2453, 1033.880
385.7274, 1037.952
386.2095, 1042.962
386.6917, 1047.584
387.1738, 1051.069
387.6559, 1051.238
388.1380, 1046.945
388.6201, 1046.201
389.1022, 1051.769
389.5844, 1059.716
390.0665, 1068.806
390.5486, 1078.522
391.0307, 1086.865
391.5128, 1090.625
391.9949, 1092.757
392.4771, 1100.793
392.9592, 1115.933
393.4413, 1129.620
393.9234, 1136.695
394.4055, 1138.766
394.8876, 1140.162
395.3698, 1139.090
395.8519, 1140.424
396.3340, 1149.750
396.8161, 1162.913
397.2982, 1170.492
397.7803, 1169.347
398.2625, 1165.405
398.7446, 1166.898
399.2267, 1176.555
399.7088, 1182.962
400.1909, 1184.087
400.6730, 1183.884
401.1552, 1184.472
401.6373, 1185.794
402.1194, 1186.424
402.6015, 1184.960
403.0836, 1182.817
403.5657, 1186.940
404.0479, 1201.947
404.5300, 1216.472
405.0121, 1228.198
405.4942, 1239.206
405.9763, 1252.826
406.4584, 1269.498
406.9406, 1283.578
407.4227, 1288.797
407.9048, 1285.349
408.3869, 1277.952
408.8690, 1262.985
409.3511, 1250.246
409.8333, 1247.193
410.3154, 1251.098
410.7975, 1255.388
411.2796, 1258.190
411.7617, 1260.163
412.2438, 1261.473
412.7260, 1262.285
413.2081, 1264.149
413.6902, 1267.895
414.1723, 1272.777
414.6544, 1277.272
415.1365, 1281.250
415.6187, 1285.266
416.1008, 1286.631
416.5829, 1289.745
417.0650, 1301.888
417.5471, 1322.286
418.0292, 1340.361
418.5114, 1346.273
418.9935, 1340.175
419.4756, 1336.769
419.9577, 1334.921
420.4398, 1337.266
420.9219, 1349.606
421.4041, 1364.447
421.8862, 1371.359
422.3683, 1366.666
422.8504, 1358.444
423.3325, 1360.414
423.8146, 1374.900
424.2968, 1381.695
424.7789, 1371.052
425.2610, 1360.196
425.7431, 1360.480
426.2252, 1369.801
426.7073, 1379.587
427.1895, 1388.232
427.6716, 1393.868
428.1537, 1391.394
428.6358, 1380.887
429.1179, 1372.955
429.6000, 1373.317
430.0822, 1378.754
430.5643, 1381.631
431.0464, 1380.237
431.5285, 1380.733
432.0106, 1385.408
432.4927, 1392.492
432.9749, 1400.975
433.4570, 1410.244
433.9391, 1418.161
434.4212, 1422.457
434.9033, 1423.028
435.3854, 1424.708
435.8676, 1427.040
436.3497, 1431.023
436.8318, 1438.495
437.3139, 1447.148
437.7960, 1453.932
438.2781, 1457.670
438.7603, 1460.435
439.2424, 1464.810
439.7245, 1470.724
440.2066, 1479.133
440.6887, 1493.998
441.1708, 1506.930
441.6530, 1512.062
442.1351, 1510.938
442.6172, 1508.854
443.0993, 1506.030
443.5814, 1504.630
444.0635, 1507.036
444.5457, 1513.226
445.0278, 1524.358
445.5099, 1543.730
445.9920, 1564.807
446.4741, 1571.632
446.9562, 1558.629
447.4384, 1549.573
447.9205, 1548.613
448.4026, 1553.006
448.8847, 1563.869
449.3668, 1579.040
449.8489, 1589.728
450.3311, 1588.178
450.8132, 1575.988
451.2953, 1568.462
451.7774, 1568.463
452.2595, 1569.689
452.7416, 1568.669
453.2238, 1569.666
453.7059, 1578.735
454.1880, 1596.877
454.6701, 1615.703
455.1522, 1623.458
455.6343, 1621.960
456.1165, 1630.951
456.5986, 1654.799
457.0807, 1683.419
457.5628, 1711.344
458.0449, 1739.022
458.5270, 1767.621
459.0092, 1798.926
459.4913, 1829.293
459.9734, 1856.396
460.4555, 1880.511
460.9376, 1902.646
461.4197, 1922.934
461.9019, 1941.794
462.3840, 1960.509
462.8661, 1981.971
463.3482, 1990.889
463.8303, 1982.403
464.3124, 1967.137
464.7946, 1952.031
465.2767, 1934.162
465.7588, 1906.028
466.2409, 1863.092
466.7230, 1810.097
467.2051, 1755.821
467.6873, 1697.452
468.1694, 1647.238
468.6515, 1610.401
469.1336, 1580.217
469.6157, 1552.376
470.0978, 1527.286
470.5800, 1507.703
471.0621, 1499.300
471.5442, 1495.449
472.0263, 1485.960
472.5084, 1470.729
472.9905, 1451.703
473.4727, 1427.289
473.9548, 1401.923
474.4369, 1387.780
474.9190, 1388.224
475.4011, 1389.058
475.8832, 1389.202
476.3654, 1387.702
476.8475, 1382.688
477.3296, 1374.724
477.8117, 1366.661
478.2938, 1360.440
478.7759, 1356.270
479.2581, 1356.230
479.7402, 1366.622
480.2223, 1371.078
480.7044, 1361.834
481.1865, 1349.089
481.6686, 1340.775
482.1508, 1338.574
482.6329, 1341.614
483.1150, 1350.357
483.5971, 1363.841
484.0792, 1379.935
484.5613, 1399.542
485.0435, 1416.604
485.5256, 1424.499
486.0077, 1427.425
486.4898, 1438.745
486.9719, 1466.046
487.4540, 1490.240
487.9362, 1500.183
488.4183, 1504.207
488.9004, 1512.383
489.3825, 1527.127
489.8646, 1548.012
490.3467, 1575.894
490.8289, 1611.118
491.3110, 1640.629
491.7931, 1655.565
492.2752, 1674.901
492.7573, 1704.899
493.2394, 1740.330
493.7216, 1776.425
494.2037, 1811.878
494.6858, 1843.265
495.1679, 1866.111
495.6500, 1881.311
496.1321, 1895.074
496.6143, 1907.290
497.0964, 1919.884
497.5785, 1938.583
498.0606, 1958.651
498.5427, 1965.182
499.0248, 1944.855
499.5070, 1925.586
499.9891, 1923.372
500.4712, 1930.541
500.9533, 1934.782
501.4355, 1932.902
501.9176, 1928.458
502.3997, 1925.694
502.8818, 1925.100
503.3639, 1921.188
503.8460, 1911.500
504.3282, 1901.099
504.8103, 1888.317
505.2924, 1876.703
505.7745, 1871.192
506.2566, 1873.464
506.7387, 1879.220
507.2209, 1887.605
507.7030, 1897.058
508.1851, 1892.490
508.6672, 1867.446
509.1493, 1840.324
509.6314, 1827.707
510.1136, 1824.041
510.5957, 1810.697
511.0778, 1780.594
511.5599, 1746.833
512.0420, 1710.046
512.5241, 1675.258
513.0062, 1654.199
513.4883, 1648.704
513.9705, 1643.065
514.4526, 1617.858
514.9347, 1570.656
515.4168, 1537.549
515.8989, 1529.912
516.3810, 1524.045
516.8632, 1517.135
517.3453, 1507.855
517.8274, 1492.990
518.3095, 1471.559
518.7916, 1452.057
519.2737, 1444.467
519.7559, 1446.510
520.2380, 1448.462
520.7201, 1449.692
521.2022, 1449.548
521.6843, 1447.909
522.1664, 1444.362
522.6486, 1437.951
523.1307, 1423.895
523.6128, 1413.187
524.0949, 1410.320
524.5770, 1412.277
525.0591, 1415.849
525.5413, 1420.254
526.0234, 1426.259
526.5055, 1435.848
526.9876, 1448.320
527.4697, 1450.805
527.9518, 1436.787
528.4340, 1423.149
528.9161, 1415.388
529.3982, 1409.279
529.8803, 1400.525
530.3624, 1388.359
530.8445, 1375.611
531.3267, 1363.889
531.8088, 1352.965
532.2909, 1343.510
532.7730, 1335.622
533.2551, 1324.154
533.7372, 1306.066
534.2194, 1282.175
534.7015, 1254.899
535.1836, 1216.010
535.6657, 1187.074
536.1478, 1173.637
536.6299, 1168.386
537.1121, 1168.552
537.5942, 1171.810
538.0763, 1173.623
538.5584, 1170.488
539.0405, 1164.004
539.5226, 1159.658
540.0048, 1158.521
540.4869, 1155.243
540.9690, 1143.535
541.4511, 1133.570
541.9332, 1136.560
542.4153, 1151.703
542.8975, 1163.346
543.3796, 1161.390
543.8617, 1156.745
544.3438, 1160.790
544.8259, 1171.626
545.3080, 1180.745
545.7902, 1184.381
546.2723, 1185.451
546.7544, 1188.888
547.2365, 1194.532
547.7186, 1203.263
548.2007, 1216.591
548.6829, 1231.192
549.1650, 1247.197
549.6471, 1263.167
550.1292, 1277.113
550.6113, 1288.385
551.0934, 1296.546
551.5756, 1299.054
552.0577, 1297.010
552.5398, 1301.733
553.0219, 1319.697
553.5040, 1330.121
553.9861, 1312.743
554.4683, 1269.939
554.9504, 1232.339
555.4325, 1203.055
555.9146, 1175.501
556.3967, 1142.559
556.8788, 1112.562
557.3610, 1099.042
557.8431, 1102.681
558.3252, 1108.163
558.8073, 1099.664
559.2894, 1078.909
559.7715, 1064.109
560.2537, 1055.840
560.7358, 1052.346
561.2179, 1057.494
561.7000, 1064.659
562.1821, 1067.912
562.6642, 1066.593
563.1464, 1063.365
563.6285, 1058.345
564.1106, 1052.802
564.5927, 1047.758
565.0748, 1043.504
565.5569, 1041.490
566.0391, 1042.780
566.5212, 1045.622
567.0033, 1046.081
567.4854, 1043.633
567.9675, 1039.744
568.4496, 1030.432
568.9318, 1023.716
569.4139, 1023.333
569.8960, 1028.643
570.3781, 1038.258
570.8602, 1052.382
571.3423, 1067.813
571.8245, 1081.589
572.3066, 1093.390
572.7887, 1100.827
573.2708, 1102.403
573.7529, 1103.461
574.2350, 1108.697
574.7172, 1117.880
575.1993, 1126.772
575.6814, 1133.417
576.1635, 1142.205
576.6456, 1155.458
577.1277, 1170.761
577.6099, 1185.624
578.0920, 1199.625
578.5741, 1213.857
579.0562, 1228.003
579.5383, 1243.508
580.0204, 1267.622
580.5026, 1301.588
580.9847, 1340.298
581.4668, 1384.329
581.9489, 1430.429
582.4310, 1469.729
582.9132, 1500.996
583.3953, 1551.409
583.8774, 1629.170
584.3596, 1728.684
584.8417, 1848.200
585.3238, 1985.973
585.8059, 2139.744
586.2880, 2307.902
586.7701, 2488.816
587.2523, 2677.424
587.7344, 2871.025
588.2165, 3083.821
588.6986, 3317.947
589.1807, 3570.632
589.6628, 3844.516
590.1450, 4132.680
590.6271, 4424.144
591.1092, 4711.933
591.5913, 5018.439
592.0734, 5386.201
592.5555, 5772.037
593.0377, 6136.968
593.5198, 6467.147
594.0019, 6681.896
594.4840, 6733.539
594.9661, 6620.040
595.4482, 6328.022
595.9304, 5744.073
596.4125, 5163.504
596.8946, 4552.492
597.3767, 3985.667
597.8588, 3502.724
598.3409, 3099.659
598.8231, 2767.458
599.3052, 2507.409
599.7873, 2303.910
600.2694, 2146.226
600.7515, 2030.192
601.2336, 1935.029
601.7158, 1857.488
602.1979, 1794.930
602.6800, 1746.370
603.1621, 1711.754
603.6442, 1681.327
604.1263, 1660.674
604.6085, 1636.715
605.0906, 1601.783
605.5727, 1566.083
606.0548, 1537.950
606.5369, 1519.001
607.0190, 1507.099
607.5012, 1502.675
607.9833, 1502.983
608.4654, 1502.284
608.9475, 1500.583
609.4296, 1497.148
609.9117, 1491.640
610.3939, 1484.522
610.8760, 1476.893
611.3581, 1469.132
611.8402, 1456.398
612.3223, 1432.759
612.8044, 1410.564
613.2866, 1394.401
613.7687, 1383.025
614.2508, 1375.865
614.7329, 1372.104
615.2150, 1367.403
615.6971, 1356.245
616.1793, 1339.897
616.6614, 1325.972
617.1435, 1314.862
617.6256, 1304.716
618.1077, 1295.388
618.5898, 1286.172
619.0720, 1275.201
619.5541, 1261.366
620.0362, 1251.830
620.5183, 1253.048
621.0004, 1253.896
621.4825, 1246.832
621.9647, 1234.059
622.4468, 1219.578
622.9289, 1205.094
623.4110, 1192.987
623.8931, 1187.223
624.3752, 1187.723
624.8574, 1188.662
625.3395, 1191.780
625.8216, 1190.275
