##NAMES=Overite
##RRUFFID=R100024
##IDEAL CHEMISTRY=CaMgAl(PO_4_)_2_(OH)&#183;4H_2_O
##LOCALITY=Clay Canyon deposit, near Fairfield, Utah County, Utah, USA
##OWNER=RRUFF
##SOURCE=Terry Szenics
##DESCRIPTION=Light apple-green lathlike crystals
##STATUS=The identification of this mineral has been confirmed by single-crystal X-ray diffraction.
##URL=rruff.info/R100024
92.97955, 365.1070
93.46167, 363.1209
93.94379, 358.6033
94.42590, 354.0061
94.90802, 349.4659
95.39014, 344.2852
95.87225, 338.4530
96.35437, 332.2933
96.83649, 325.6240
97.31860, 319.1294
97.80072, 313.6083
98.28284, 309.3125
98.76495, 305.6525
99.24707, 301.2740
99.72919, 295.0080
100.2113, 289.4399
100.6934, 285.3551
101.1755, 282.3736
101.6577, 279.7469
102.1398, 276.7691
102.6219, 273.2973
103.1040, 270.2094
103.5861, 267.0452
104.0682, 264.4099
104.5504, 263.0088
105.0325, 262.7877
105.5146, 262.6928
105.9967, 261.1647
106.4788, 257.4413
106.9609, 254.1114
107.4431, 251.4201
107.9252, 249.1405
108.4073, 246.9863
108.8894, 244.8530
109.3715, 242.8174
109.8536, 240.9045
110.3358, 238.9208
110.8179, 237.5379
111.3000, 237.3712
111.7821, 238.3066
112.2642, 239.2515
112.7463, 239.8194
113.2285, 240.1839
113.7106, 240.5331
114.1927, 240.9145
114.6748, 241.2282
115.1569, 241.3123
115.6390, 241.0896
116.1212, 240.8202
116.6033, 240.1707
117.0854, 239.6560
117.5675, 239.9142
118.0496, 241.3573
118.5317, 243.6621
119.0139, 245.2527
119.4960, 244.9483
119.9781, 245.1481
120.4602, 246.7078
120.9423, 249.0728
121.4244, 251.1919
121.9066, 252.1911
122.3887, 251.9346
122.8708, 252.5312
123.3529, 254.8971
123.8350, 257.1053
124.3171, 257.8665
124.7993, 257.3223
125.2814, 256.8972
125.7635, 258.1365
126.2456, 261.5262
126.7277, 264.3023
127.2098, 265.9192
127.6920, 267.1266
128.1741, 268.7437
128.6562, 270.9582
129.1383, 273.3935
129.6204, 275.6049
130.1025, 277.6242
130.5847, 279.5976
131.0668, 281.7632
131.5489, 283.9702
132.0310, 285.6564
132.5131, 286.5075
132.9952, 286.9866
133.4774, 287.5627
133.9595, 288.2446
134.4416, 288.8293
134.9237, 289.3375
135.4058, 289.8940
135.8879, 289.5138
136.3701, 287.3631
136.8522, 284.6210
137.3343, 281.9378
137.8164, 279.4557
138.2985, 276.8794
138.7806, 273.5988
139.2628, 269.0384
139.7449, 264.7986
140.2270, 260.9244
140.7091, 257.4143
141.1912, 254.3055
141.6733, 251.6278
142.1555, 249.2840
142.6376, 246.9921
143.1197, 245.1581
143.6018, 242.9109
144.0839, 239.7251
144.5660, 236.1059
145.0482, 232.8551
145.5303, 230.4669
146.0124, 228.8299
146.4945, 227.0486
146.9766, 225.4747
147.4587, 223.4749
147.9409, 220.2856
148.4230, 216.2194
148.9051, 212.6716
149.3872, 210.6144
149.8693, 210.0238
150.3514, 209.6760
150.8336, 210.3138
151.3157, 210.7257
151.7978, 209.5089
152.2799, 206.4115
152.7620, 203.2561
153.2441, 201.7294
153.7263, 201.0899
154.2084, 200.0955
154.6905, 197.9756
155.1726, 195.2879
155.6547, 193.2506
156.1368, 192.0263
156.6190, 191.2435
157.1011, 190.6763
157.5832, 190.3208
158.0653, 190.1950
158.5474, 190.5262
159.0295, 191.2360
159.5117, 191.2572
159.9938, 189.8490
160.4759, 188.4239
160.9580, 187.2902
161.4401, 186.5354
161.9222, 186.2653
162.4044, 186.6783
162.8865, 187.9473
163.3686, 188.8970
163.8507, 189.4123
164.3328, 189.7435
164.8149, 189.9197
165.2971, 189.9860
165.7792, 190.0113
166.2613, 190.0396
166.7434, 189.9177
167.2255, 190.3398
167.7076, 191.7911
168.1898, 193.3786
168.6719, 194.5126
169.1540, 195.0692
169.6361, 195.2392
170.1182, 195.2530
170.6003, 195.0073
171.0825, 194.8714
171.5646, 194.8055
172.0467, 194.8798
172.5288, 195.3197
173.0109, 196.2524
173.4930, 197.1870
173.9752, 197.0991
174.4573, 195.8408
174.9394, 194.9046
175.4215, 195.0054
175.9036, 195.7364
176.3857, 196.1458
176.8679, 195.8364
177.3500, 195.3142
177.8321, 195.2309
178.3142, 195.5882
178.7963, 196.1517
179.2784, 196.9280
179.7606, 197.8739
180.2427, 198.6160
180.7248, 199.2276
181.2069, 199.3877
181.6890, 198.7489
182.1711, 197.2591
182.6533, 195.5252
183.1354, 194.0497
183.6175, 192.8364
184.0996, 191.8566
184.5817, 191.4294
185.0638, 191.0434
185.5460, 190.3816
186.0281, 189.3792
186.5102, 188.2335
186.9923, 187.1960
187.4744, 186.2622
187.9565, 185.4633
188.4387, 184.6993
188.9208, 184.1051
189.4029, 183.8431
189.8850, 183.9474
190.3671, 184.2485
190.8492, 184.4363
191.3314, 184.4924
191.8135, 184.4375
192.2956, 184.1153
192.7777, 183.7746
193.2598, 183.7495
193.7419, 184.1540
194.2241, 184.6777
194.7062, 184.5707
195.1883, 182.6390
195.6704, 181.4485
196.1525, 181.5757
196.6346, 182.3063
197.1168, 182.8844
197.5989, 182.9921
198.0810, 182.6740
198.5631, 182.0110
199.0452, 180.3804
199.5273, 179.2377
200.0095, 179.1457
200.4916, 179.6476
200.9737, 179.9630
201.4558, 179.7055
201.9379, 179.1354
202.4200, 179.0424
202.9022, 179.7253
203.3843, 180.2638
203.8664, 180.2039
204.3485, 179.7315
204.8306, 179.3367
205.3127, 179.1914
205.7949, 179.3044
206.2770, 179.6261
206.7591, 180.1288
207.2412, 180.8580
207.7233, 181.8710
208.2054, 183.1522
208.6876, 184.6138
209.1697, 186.3898
209.6518, 188.1970
210.1339, 189.6325
210.6160, 190.6195
211.0981, 191.3925
211.5803, 191.9197
212.0624, 192.1965
212.5445, 192.9982
213.0266, 194.9936
213.5087, 197.4190
213.9908, 199.6487
214.4730, 201.6055
214.9551, 203.2386
215.4372, 204.2583
215.9193, 204.5047
216.4014, 205.1656
216.8836, 206.9194
217.3657, 209.0441
217.8478, 211.1564
218.3299, 213.1574
218.8120, 215.0715
219.2941, 216.8907
219.7763, 218.5700
220.2584, 220.2974
220.7405, 222.3965
221.2226, 224.3854
221.7047, 225.8613
222.1868, 226.7275
222.6690, 227.2918
223.1511, 228.0070
223.6332, 228.8659
224.1153, 229.9268
224.5974, 231.7205
225.0795, 233.3613
225.5617, 234.0407
226.0438, 233.5860
226.5259, 232.6396
227.0080, 232.4081
227.4901, 233.8180
227.9722, 234.2010
228.4544, 232.8797
228.9365, 231.0234
229.4186, 229.4952
229.9007, 228.5527
230.3828, 227.9273
230.8649, 227.1475
231.3471, 225.8620
231.8292, 225.0139
232.3113, 225.3075
232.7934, 225.5974
233.2755, 224.7550
233.7576, 222.5306
234.2398, 219.7353
234.7219, 217.7589
235.2040, 217.3824
235.6861, 216.4443
236.1682, 214.4072
236.6503, 212.1103
237.1325, 210.3745
237.6146, 209.4095
238.0967, 208.7511
238.5788, 207.7047
239.0609, 206.0250
239.5430, 204.5177
240.0252, 203.4207
240.5073, 202.4094
240.9894, 201.0629
241.4715, 199.2777
241.9536, 197.5099
242.4357, 196.4094
242.9179, 196.1504
243.4000, 195.8285
243.8821, 195.3947
244.3642, 194.8459
244.8463, 194.0642
245.3284, 193.0027
245.8106, 192.0650
246.2927, 191.9458
246.7748, 192.7048
247.2569, 192.7943
247.7390, 191.4839
248.2211, 189.6004
248.7033, 188.1072
249.1854, 187.1602
249.6675, 186.4722
250.1496, 185.7848
250.6317, 185.1037
251.1138, 184.5422
251.5960, 184.3059
252.0781, 184.1244
252.5602, 183.5824
253.0423, 182.5925
253.5244, 181.5510
254.0065, 180.7268
254.4887, 180.1153
254.9708, 179.7798
255.4529, 179.9018
255.9350, 180.2458
256.4171, 180.4665
256.8992, 180.5173
257.3813, 180.6129
257.8635, 181.0241
258.3456, 181.5786
258.8277, 181.9829
259.3098, 182.1023
259.7919, 182.0535
260.2740, 181.9647
260.7562, 181.8109
261.2383, 181.7207
261.7204, 181.9738
262.2025, 182.2825
262.6846, 182.2513
263.1667, 181.6620
263.6489, 180.8120
264.1310, 180.0691
264.6131, 179.4203
265.0952, 178.9349
265.5773, 178.7005
266.0594, 178.6307
266.5416, 178.7017
267.0237, 178.9549
267.5058, 179.2218
267.9879, 179.2126
268.4700, 178.8365
268.9521, 178.6146
269.4343, 179.0083
269.9164, 179.4830
270.3985, 179.6595
270.8806, 179.4500
271.3627, 178.9162
271.8448, 178.0296
272.3270, 176.6888
272.8091, 175.5024
273.2912, 174.4046
273.7733, 173.6529
274.2554, 173.6421
274.7375, 174.3999
275.2197, 175.2120
275.7018, 175.1653
276.1839, 174.0851
276.6660, 173.2797
277.1481, 173.2066
277.6302, 173.2634
278.1124, 173.1402
278.5945, 172.8303
279.0766, 172.5537
279.5587, 172.6057
280.0408, 173.0515
280.5229, 173.2410
281.0051, 172.6882
281.4872, 172.2684
281.9693, 172.4190
282.4514, 173.0593
282.9335, 173.8226
283.4156, 174.4048
283.8978, 174.8017
284.3799, 175.2282
284.8620, 175.7192
285.3441, 176.2050
285.8262, 176.5117
286.3083, 176.7876
286.7905, 177.3778
287.2726, 178.6372
287.7547, 180.4546
288.2368, 181.7304
288.7189, 182.1628
289.2010, 182.3475
289.6832, 182.2763
290.1653, 182.1068
290.6474, 182.0875
291.1295, 182.3981
291.6116, 182.9029
292.0938, 183.0207
292.5759, 182.3694
293.0580, 181.8679
293.5401, 181.9176
294.0222, 182.1177
294.5043, 181.9917
294.9865, 181.3206
295.4686, 180.3119
295.9507, 179.4786
296.4328, 178.9978
296.9149, 178.3755
297.3970, 177.3360
297.8792, 176.2700
298.3613, 175.6687
298.8434, 175.6379
299.3255, 175.6620
299.8076, 174.7416
300.2897, 172.0769
300.7719, 170.3022
301.2540, 170.1169
301.7361, 170.2868
302.2182, 170.0466
302.7003, 169.2703
303.1824, 168.3026
303.6646, 167.5526
304.1467, 167.0911
304.6288, 166.6019
305.1109, 165.9104
305.5930, 165.3389
306.0751, 165.2133
306.5573, 165.4034
307.0394, 165.4370
307.5215, 164.8287
308.0036, 163.5116
308.4857, 162.4817
308.9678, 162.0436
309.4500, 161.6030
309.9321, 160.9102
310.4142, 160.0827
310.8963, 159.3771
311.3784, 158.9641
311.8605, 158.8212
312.3427, 158.7782
312.8248, 158.9468
313.3069, 159.0911
313.7890, 159.3297
314.2711, 159.4741
314.7532, 159.2183
315.2354, 158.3938
315.7175, 157.2464
316.1996, 156.5555
316.6817, 157.0691
317.1638, 156.8073
317.6459, 154.7290
318.1281, 152.3140
318.6102, 151.0541
319.0923, 151.3701
319.5744, 152.3312
320.0565, 152.2919
320.5386, 150.4684
321.0208, 149.4734
321.5029, 150.1287
321.9850, 150.9673
322.4671, 151.0019
322.9492, 150.1724
323.4313, 149.1473
323.9135, 148.6611
324.3956, 148.8279
324.8777, 148.9645
325.3598, 148.7623
325.8419, 148.8149
326.3240, 149.6533
326.8062, 150.9917
327.2883, 152.0531
327.7704, 152.1706
328.2525, 151.4104
328.7346, 150.9736
329.2167, 151.2613
329.6989, 151.4315
330.1810, 151.2480
330.6631, 150.8281
331.1452, 150.2617
331.6273, 149.5395
332.1094, 148.8952
332.5916, 149.1570
333.0737, 151.1441
333.5558, 152.6413
334.0379, 153.2334
334.5200, 153.2670
335.0021, 152.9103
335.4843, 152.2409
335.9664, 151.5533
336.4485, 151.3669
336.9306, 151.8739
337.4127, 152.3102
337.8948, 152.6037
338.3770, 152.8078
338.8591, 152.8379
339.3412, 152.7482
339.8233, 152.7999
340.3055, 153.4205
340.7876, 154.7193
341.2697, 155.4431
341.7518, 154.9342
342.2339, 154.4617
342.7160, 154.5141
343.1982, 154.9993
343.6803, 155.6352
344.1624, 156.2967
344.6445, 156.9453
345.1266, 157.3737
345.6087, 157.4822
346.0909, 157.5186
346.5730, 157.4864
347.0551, 157.4698
347.5372, 157.5529
348.0193, 157.7556
348.5014, 158.1257
348.9836, 158.7589
349.4657, 159.6732
349.9478, 160.7849
350.4299, 162.5156
350.9120, 164.1667
351.3941, 165.1363
351.8763, 165.3220
352.3584, 165.2325
352.8405, 165.4313
353.3226, 165.9348
353.8047, 166.1167
354.2868, 165.5398
354.7690, 164.9896
355.2511, 164.9826
355.7332, 165.4461
356.2153, 166.0109
356.6974, 166.6090
357.1795, 167.1445
357.6617, 167.2445
358.1438, 166.8865
358.6259, 166.1077
359.1080, 164.4712
359.5901, 162.5379
360.0722, 161.2732
360.5544, 161.3327
361.0365, 161.8478
361.5186, 161.4975
362.0007, 160.1601
362.4828, 158.9328
362.9649, 158.5123
363.4471, 158.2782
363.9292, 157.5025
364.4113, 156.0414
364.8934, 154.3457
365.3755, 152.4513
365.8576, 150.5010
366.3398, 149.4147
366.8219, 149.8321
367.3040, 150.5356
367.7861, 150.0611
368.2682, 148.5385
368.7503, 147.3224
369.2325, 147.2101
369.7146, 147.6680
370.1967, 147.7539
370.6788, 147.3368
371.1609, 146.8616
371.6430, 146.7137
372.1252, 146.7862
372.6073, 146.7213
373.0894, 146.4138
373.5715, 146.0013
374.0536, 145.5971
374.5357, 145.1913
375.0179, 144.6554
375.5000, 143.7891
375.9821, 142.8991
376.4642, 142.7601
376.9463, 143.7446
377.4284, 144.5174
377.9106, 144.1690
378.3927, 143.3772
378.8748, 143.5105
379.3569, 145.0250
379.8390, 146.7824
380.3211, 147.2508
380.8033, 146.1589
381.2854, 145.2955
381.7675, 144.6918
382.2496, 144.4277
382.7317, 144.8550
383.2138, 145.8425
383.6960, 146.5045
384.1781, 146.0675
384.6602, 144.6460
385.1423, 143.9578
385.6244, 144.5431
386.1065, 145.1060
386.5887, 145.1239
387.0708, 144.8499
387.5529, 144.7888
388.0350, 145.1744
388.5171, 145.7287
388.9992, 145.8287
389.4814, 144.8564
389.9635, 144.3823
390.4456, 144.7424
390.9277, 145.3695
391.4098, 145.8468
391.8919, 146.0974
392.3741, 146.2603
392.8562, 146.4959
393.3383, 146.8470
393.8204, 146.9441
394.3025, 146.6478
394.7846, 146.2642
395.2668, 145.7933
395.7489, 145.3212
396.2310, 144.9610
396.7131, 144.7717
397.1952, 144.7658
397.6773, 144.9999
398.1595, 145.6288
398.6416, 146.2553
399.1237, 146.8970
399.6058, 147.4738
400.0879, 147.9616
400.5700, 148.3389
401.0522, 148.5200
401.5343, 148.2488
402.0164, 147.3603
402.4985, 147.0240
402.9806, 147.7833
403.4627, 148.6524
403.9449, 149.2198
404.4270, 149.5502
404.9091, 149.8860
405.3912, 150.4063
405.8733, 151.0263
406.3554, 151.4265
406.8376, 151.4523
407.3197, 151.6551
407.8018, 152.3136
408.2839, 153.2272
408.7660, 154.2359
409.2481, 155.3278
409.7303, 156.4206
410.2124, 157.4875
410.6945, 158.5181
411.1766, 159.3363
411.6587, 159.7234
412.1408, 160.1317
412.6230, 160.9130
413.1051, 162.0514
413.5872, 163.4962
414.0693, 165.6892
414.5514, 168.0063
415.0335, 169.1957
415.5157, 169.0744
415.9978, 169.1199
416.4799, 170.5139
416.9620, 172.7700
417.4441, 174.3190
417.9262, 174.7163
418.4084, 174.9168
418.8905, 175.3138
419.3726, 175.9245
419.8547, 176.8922
420.3368, 178.3543
420.8189, 179.8952
421.3011, 180.7650
421.7832, 180.7633
422.2653, 180.9880
422.7474, 181.6986
423.2295, 182.5866
423.7116, 183.3141
424.1938, 183.9043
424.6759, 184.7822
425.1580, 186.4179
425.6401, 188.7155
426.1222, 189.9052
426.6043, 189.2838
427.0865, 188.5563
427.5686, 187.9256
428.0507, 187.5065
428.5328, 187.5509
429.0149, 188.1381
429.4970, 188.8543
429.9792, 188.9307
430.4613, 187.8896
430.9434, 187.2451
431.4255, 187.4297
431.9076, 187.5612
432.3897, 187.0208
432.8719, 185.9402
433.3540, 184.9081
433.8361, 184.4134
434.3182, 184.3679
434.8003, 184.1077
435.2824, 183.4654
435.7646, 182.8632
436.2467, 182.6311
436.7288, 182.3860
437.2109, 181.6006
437.6930, 180.1016
438.1751, 178.5134
438.6573, 177.7512
439.1394, 177.9001
439.6215, 177.6496
440.1036, 176.4642
440.5857, 175.2360
441.0678, 174.5329
441.5500, 174.2783
442.0321, 174.1458
442.5142, 174.2116
442.9963, 174.2001
443.4784, 173.4549
443.9605, 171.8661
444.4427, 170.3858
444.9248, 169.4260
445.4069, 168.9250
445.8890, 168.7868
446.3711, 169.1583
446.8532, 169.4702
447.3354, 169.3547
447.8175, 168.9595
448.2996, 168.5772
448.7817, 168.2618
449.2638, 168.0366
449.7459, 167.9552
450.2281, 168.0285
450.7102, 168.0596
451.1923, 167.7165
451.6744, 167.6168
452.1565, 168.5039
452.6386, 170.0084
453.1208, 170.9122
453.6029, 170.5048
454.0850, 169.3579
454.5671, 169.0593
455.0492, 170.4312
455.5313, 171.5758
456.0135, 172.4701
456.4956, 173.1317
456.9777, 173.3210
457.4598, 173.1738
457.9419, 173.4063
458.4240, 174.8431
458.9062, 177.5107
459.3883, 179.3001
459.8704, 179.5255
460.3525, 179.5893
460.8346, 179.4616
461.3167, 179.4663
461.7989, 180.0951
462.2810, 181.5487
462.7631, 183.2681
463.2452, 184.4044
463.7273, 184.8899
464.2094, 185.1686
464.6916, 184.9387
465.1737, 184.8555
465.6558, 185.5645
466.1379, 186.8057
466.6200, 187.6201
467.1021, 187.0581
467.5843, 185.9202
468.0664, 186.0657
468.5485, 187.7357
469.0306, 188.9149
469.5127, 188.3440
469.9948, 186.9439
470.4770, 186.0899
470.9591, 185.8019
471.4412, 186.1655
471.9233, 187.7210
472.4054, 189.8391
472.8875, 191.1887
473.3697, 191.4857
473.8518, 191.8361
474.3339, 193.3761
474.8160, 196.0869
475.2981, 198.0756
475.7802, 198.9294
476.2624, 199.5119
476.7445, 200.0538
477.2266, 200.6278
477.7087, 201.3264
478.1908, 202.1906
478.6729, 203.1974
479.1551, 204.2791
479.6372, 205.2791
480.1193, 206.7733
480.6014, 209.3874
481.0835, 211.8740
481.5656, 213.3921
482.0478, 214.1598
482.5299, 214.8694
483.0120, 215.9255
483.4941, 217.3596
483.9762, 219.3913
484.4583, 222.6947
484.9405, 225.1933
485.4226, 225.6848
485.9047, 225.8340
486.3868, 227.0144
486.8689, 229.3557
487.3510, 231.8464
487.8332, 233.7776
488.3153, 235.1617
488.7974, 236.0307
489.2795, 236.2073
489.7616, 236.3023
490.2437, 236.9908
490.7259, 237.7645
491.2080, 237.7593
491.6901, 236.5905
492.1722, 235.0746
492.6543, 234.0294
493.1364, 233.1194
493.6186, 231.2822
494.1007, 228.1311
494.5828, 224.4138
495.0649, 220.9711
495.5470, 217.8456
496.0291, 214.3638
496.5113, 210.1884
496.9934, 205.9266
497.4755, 201.9723
497.9576, 198.2146
498.4397, 194.2650
498.9218, 189.9426
499.4040, 185.5257
499.8861, 181.7127
500.3682, 178.9488
500.8503, 176.0340
501.3324, 172.5296
501.8145, 169.2511
502.2967, 166.8698
502.7788, 165.1854
503.2609, 163.4046
503.7430, 160.8931
504.2251, 157.9415
504.7072, 155.7551
505.1894, 154.6463
505.6715, 153.5734
506.1536, 152.3928
506.6357, 151.0606
507.1178, 149.4082
507.5999, 147.4516
508.0821, 145.6759
508.5642, 144.7089
509.0463, 144.1964
509.5284, 142.9886
510.0105, 140.8871
510.4926, 138.6736
510.9748, 136.5655
511.4569, 134.7856
511.9390, 133.8193
512.4211, 134.0324
512.9032, 134.4552
513.3853, 134.8792
513.8674, 135.1266
514.3495, 134.8252
514.8317, 133.8903
515.3138, 132.6378
515.7959, 131.3051
516.2780, 129.8549
516.7601, 128.9167
517.2422, 128.8870
517.7244, 128.8327
518.2065, 128.2853
518.6886, 127.5687
519.1707, 127.2320
519.6528, 127.4531
520.1349, 127.8504
520.6171, 127.8506
521.0992, 127.3876
521.5813, 126.7986
522.0634, 125.7258
522.5455, 124.8928
523.0276, 124.7556
523.5098, 125.0206
523.9919, 125.1221
524.4740, 124.7837
524.9561, 124.2563
525.4382, 123.8334
525.9203, 123.5153
526.4025, 123.4574
526.8846, 123.8503
527.3667, 124.3114
527.8488, 124.4164
528.3309, 124.2274
528.8130, 124.1524
529.2952, 124.4225
529.7773, 124.7702
530.2594, 124.9482
530.7415, 124.9807
531.2236, 124.9923
531.7057, 125.0243
532.1879, 125.1073
532.6700, 125.3251
533.1521, 125.8681
533.6342, 126.0927
534.1163, 125.7694
534.5984, 125.3100
535.0806, 124.7730
535.5627, 124.3236
536.0448, 124.3451
536.5269, 125.1097
537.0090, 126.3545
537.4911, 127.2976
537.9733, 127.9449
538.4554, 128.2767
538.9375, 127.9456
539.4196, 127.5987
539.9017, 127.6752
540.3839, 128.1297
540.8660, 128.6032
541.3481, 128.8513
541.8302, 128.9720
542.3123, 129.1654
542.7944, 129.4295
543.2766, 129.8017
543.7587, 130.4242
544.2408, 131.0537
544.7229, 131.3261
545.2050, 131.2099
545.6871, 131.0624
546.1693, 130.8435
546.6514, 130.7541
547.1335, 131.1421
547.6156, 131.9418
548.0977, 132.6465
548.5798, 132.9363
549.0620, 132.9253
549.5441, 132.9976
550.0262, 133.2444
550.5083, 133.4537
550.9904, 133.4175
551.4725, 133.4993
551.9547, 134.1831
552.4368, 135.2989
552.9189, 136.1382
553.4010, 136.1099
553.8831, 135.4636
554.3652, 135.1907
554.8474, 135.3598
555.3295, 135.7346
555.8116, 136.5038
556.2937, 137.2907
556.7758, 137.6967
557.2579, 137.7504
557.7401, 138.0444
558.2222, 138.9201
558.7043, 140.2574
559.1864, 142.0489
559.6685, 144.2853
560.1506, 146.2541
560.6328, 147.5367
561.1149, 148.3909
561.5970, 149.3848
562.0791, 150.5509
562.5612, 151.6991
563.0433, 152.4486
563.5255, 153.4168
564.0076, 155.2948
564.4897, 157.9418
564.9718, 160.6876
565.4539, 163.1230
565.9360, 165.2875
566.4182, 167.2801
566.9003, 169.0614
567.3824, 170.7671
567.8645, 172.1691
568.3466, 173.7144
568.8287, 175.7826
569.3109, 178.2791
569.7930, 180.7176
570.2751, 182.6951
570.7572, 184.5563
571.2393, 187.2016
571.7214, 190.7227
572.2036, 193.7628
572.6857, 195.5658
573.1678, 197.0230
573.6499, 199.2400
574.1320, 202.1818
574.6141, 205.1103
575.0963, 207.9933
575.5784, 210.6350
576.0605, 212.7133
576.5426, 214.3758
577.0247, 216.1675
577.5068, 218.3463
577.9890, 220.6750
578.4711, 222.7867
578.9532, 225.0779
579.4353, 226.0485
579.9174, 224.8748
580.3995, 223.3836
580.8817, 222.2654
581.3638, 221.5186
581.8459, 221.1491
582.3280, 221.2294
582.8101, 221.1020
583.2922, 219.4641
583.7744, 216.1913
584.2565, 213.3001
584.7386, 211.2624
585.2207, 209.3115
585.7029, 206.7898
586.1850, 203.9243
586.6671, 201.3187
587.1492, 199.3446
587.6313, 197.3435
588.1135, 194.6785
588.5956, 191.6342
589.0777, 188.8069
589.5598, 186.3445
590.0419, 184.3586
590.5240, 183.1812
