##NAMES=Overite
##RRUFFID=R100024
##IDEAL CHEMISTRY=CaMgAl(PO_4_)_2_(OH)&#183;4H_2_O
##LOCALITY=Clay Canyon deposit, near Fairfield, Utah County, Utah, USA
##OWNER=RRUFF
##SOURCE=Terry Szenics
##DESCRIPTION=Light apple-green lathlike crystals
##STATUS=The identification of this mineral has been confirmed by single-crystal X-ray diffraction.
##URL=rruff.info/R100024
164.7382, 1237.583
165.2203, 1244.208
165.7024, 1249.850
166.1845, 1254.745
166.6666, 1258.865
167.1487, 1262.632
167.6309, 1266.586
168.1130, 1270.433
168.5951, 1273.477
169.0772, 1274.138
169.5593, 1274.568
170.0414, 1276.602
170.5236, 1280.740
171.0057, 1286.017
171.4878, 1293.770
171.9699, 1302.633
172.4520, 1308.269
172.9341, 1305.725
173.4163, 1299.636
173.8984, 1295.288
174.3805, 1293.706
174.8626, 1294.247
175.3447, 1297.156
175.8268, 1301.976
176.3090, 1306.658
176.7911, 1309.067
177.2732, 1310.508
177.7553, 1313.147
178.2374, 1317.946
178.7195, 1323.684
179.2017, 1329.379
179.6838, 1334.978
180.1659, 1339.432
180.6480, 1341.087
181.1301, 1341.002
181.6122, 1341.747
182.0944, 1344.468
182.5765, 1348.095
183.0586, 1351.274
183.5407, 1353.953
184.0228, 1355.579
184.5049, 1354.761
184.9871, 1352.214
185.4692, 1350.577
185.9513, 1351.150
186.4334, 1352.976
186.9155, 1353.957
187.3976, 1354.076
187.8798, 1353.507
188.3619, 1351.842
188.8440, 1349.335
189.3261, 1347.762
189.8082, 1348.135
190.2903, 1349.881
190.7725, 1350.913
191.2546, 1351.173
191.7367, 1351.106
192.2188, 1351.241
192.7009, 1351.559
193.1830, 1351.711
193.6652, 1351.204
194.1473, 1350.285
194.6294, 1350.684
195.1115, 1352.562
195.5936, 1355.190
196.0757, 1358.068
196.5579, 1361.245
197.0400, 1363.356
197.5221, 1363.493
198.0042, 1361.808
198.4863, 1360.403
198.9684, 1359.204
199.4506, 1358.489
199.9327, 1358.944
200.4148, 1360.716
200.8969, 1362.311
201.3790, 1363.041
201.8611, 1362.862
202.3433, 1362.751
202.8254, 1362.615
203.3075, 1362.651
203.7896, 1363.377
204.2717, 1364.972
204.7538, 1366.256
205.2360, 1366.177
205.7181, 1364.336
206.2002, 1364.990
206.6823, 1369.037
207.1644, 1374.479
207.6465, 1377.322
208.1287, 1376.789
208.6108, 1376.350
209.0929, 1377.763
209.5750, 1381.541
210.0571, 1384.421
210.5392, 1385.985
211.0214, 1387.099
211.5035, 1389.523
211.9856, 1393.389
212.4677, 1398.192
212.9498, 1404.160
213.4319, 1411.906
213.9140, 1417.920
214.3962, 1421.588
214.8783, 1423.899
215.3604, 1427.005
215.8425, 1431.000
216.3246, 1435.568
216.8067, 1440.771
217.2889, 1446.881
217.7710, 1452.379
218.2531, 1457.013
218.7352, 1461.084
219.2173, 1465.436
219.6994, 1470.147
220.1816, 1474.981
220.6637, 1479.973
221.1458, 1485.321
221.6279, 1490.232
222.1100, 1494.365
222.5921, 1498.231
223.0743, 1503.549
223.5564, 1511.413
224.0385, 1518.830
224.5206, 1524.038
225.0027, 1525.900
225.4848, 1528.961
225.9670, 1533.711
226.4491, 1539.552
226.9312, 1545.139
227.4133, 1550.814
227.8954, 1555.619
228.3775, 1558.634
228.8597, 1558.276
229.3418, 1560.186
229.8239, 1565.395
230.3060, 1572.590
230.7881, 1577.967
231.2702, 1580.740
231.7524, 1582.872
232.2345, 1585.395
232.7166, 1589.411
233.1987, 1591.156
233.6808, 1589.774
234.1629, 1586.345
234.6451, 1583.811
235.1272, 1583.144
235.6093, 1582.025
236.0914, 1579.427
236.5735, 1574.932
237.0556, 1570.048
237.5378, 1564.753
238.0199, 1559.149
238.5020, 1553.431
238.9841, 1547.367
239.4662, 1541.489
239.9483, 1535.974
240.4305, 1530.870
240.9126, 1526.140
241.3947, 1521.897
241.8768, 1517.957
242.3589, 1513.758
242.8410, 1508.557
243.3232, 1504.171
243.8053, 1501.806
244.2874, 1503.462
244.7695, 1501.980
245.2516, 1495.575
245.7337, 1486.721
246.2159, 1481.119
246.6980, 1480.531
247.1801, 1480.443
247.6622, 1479.041
248.1443, 1475.648
248.6264, 1472.870
249.1086, 1470.718
249.5907, 1469.176
250.0728, 1468.388
250.5549, 1469.179
251.0370, 1469.311
251.5191, 1467.497
252.0013, 1462.474
252.4834, 1459.870
252.9655, 1460.728
253.4476, 1463.358
253.9297, 1464.666
254.4118, 1464.155
254.8940, 1463.170
255.3761, 1462.000
255.8582, 1460.387
256.3403, 1459.713
256.8224, 1460.434
257.3046, 1461.759
257.7867, 1462.244
258.2688, 1461.320
258.7509, 1460.847
259.2330, 1461.772
259.7151, 1464.607
260.1973, 1465.796
260.6794, 1464.451
261.1615, 1462.350
261.6436, 1462.295
262.1257, 1465.220
262.6078, 1467.890
263.0900, 1469.012
263.5721, 1468.295
264.0542, 1469.041
264.5363, 1471.796
265.0184, 1475.328
265.5005, 1478.218
265.9827, 1480.363
266.4648, 1482.016
266.9469, 1483.111
267.4290, 1483.616
267.9111, 1484.267
268.3932, 1485.186
268.8754, 1486.033
269.3575, 1486.412
269.8396, 1486.260
270.3217, 1485.890
270.8038, 1485.302
271.2859, 1484.520
271.7681, 1483.910
272.2502, 1483.328
272.7323, 1483.232
273.2144, 1484.460
273.6965, 1487.430
274.1786, 1489.457
274.6608, 1489.728
275.1429, 1488.518
275.6250, 1487.736
276.1071, 1487.375
276.5892, 1487.480
277.0714, 1488.221
277.5535, 1489.676
278.0356, 1491.086
278.5177, 1492.173
278.9998, 1493.155
279.4819, 1495.029
279.9641, 1497.986
280.4462, 1501.185
280.9283, 1503.886
281.4104, 1506.045
281.8925, 1508.617
282.3746, 1511.775
282.8568, 1515.420
283.3389, 1519.106
283.8210, 1522.731
284.3031, 1527.093
284.7852, 1533.100
285.2673, 1540.585
285.7495, 1547.851
286.2316, 1554.750
286.7137, 1561.169
287.1958, 1566.363
287.6779, 1570.247
288.1600, 1574.883
288.6422, 1582.482
289.1243, 1592.485
289.6064, 1600.291
290.0885, 1605.376
290.5706, 1608.822
291.0527, 1612.363
291.5349, 1615.956
292.0170, 1618.807
292.4991, 1619.912
292.9812, 1619.852
293.4633, 1620.880
293.9454, 1623.368
294.4276, 1625.960
294.9097, 1626.846
295.3918, 1626.219
295.8739, 1625.027
296.3560, 1623.038
296.8381, 1620.863
297.3203, 1620.145
297.8024, 1620.986
298.2845, 1622.462
298.7666, 1624.859
299.2487, 1627.321
299.7308, 1627.291
300.2130, 1621.850
300.6951, 1613.960
301.1772, 1608.297
301.6593, 1604.883
302.1414, 1602.569
302.6235, 1600.955
303.1057, 1599.743
303.5878, 1598.373
304.0699, 1596.815
304.5520, 1594.892
305.0341, 1592.159
305.5162, 1588.725
305.9984, 1585.360
306.4805, 1582.559
306.9626, 1580.196
307.4447, 1578.153
307.9268, 1576.388
308.4089, 1574.860
308.8911, 1573.680
309.3732, 1572.737
309.8553, 1571.622
310.3374, 1569.708
310.8195, 1567.660
311.3016, 1566.184
311.7838, 1565.539
312.2659, 1565.261
312.7480, 1565.516
313.2301, 1565.982
313.7122, 1565.846
314.1943, 1564.830
314.6765, 1563.043
315.1586, 1560.089
315.6407, 1555.223
316.1228, 1551.722
316.6049, 1552.571
317.0870, 1555.660
317.5692, 1557.501
318.0513, 1556.638
318.5334, 1554.390
319.0155, 1550.646
319.4976, 1544.925
319.9797, 1540.870
320.4619, 1540.689
320.9440, 1542.401
321.4261, 1543.786
321.9082, 1544.543
322.3903, 1544.652
322.8724, 1543.661
323.3546, 1541.543
323.8367, 1540.288
324.3188, 1541.207
324.8009, 1542.661
325.2830, 1543.396
325.7651, 1541.658
326.2473, 1541.046
326.7294, 1542.721
327.2115, 1546.371
327.6936, 1549.344
328.1757, 1551.534
328.6578, 1552.984
329.1400, 1553.703
329.6221, 1553.014
330.1042, 1552.478
330.5863, 1551.926
331.0684, 1551.504
331.5505, 1551.715
332.0327, 1553.081
332.5148, 1554.406
332.9969, 1555.121
333.4790, 1554.702
333.9611, 1555.098
334.4432, 1557.040
334.9254, 1559.357
335.4075, 1559.832
335.8896, 1557.302
336.3717, 1555.342
336.8538, 1555.542
337.3359, 1558.308
337.8180, 1558.480
338.3001, 1554.572
338.7823, 1550.376
339.2644, 1551.012
339.7465, 1557.972
340.2286, 1563.188
340.7107, 1564.252
341.1928, 1561.829
341.6750, 1560.272
342.1571, 1559.435
342.6392, 1559.826
343.1213, 1562.342
343.6034, 1566.984
344.0855, 1571.246
344.5677, 1574.644
345.0498, 1577.427
345.5319, 1579.870
346.0140, 1581.944
346.4961, 1584.451
346.9782, 1588.635
347.4604, 1593.964
347.9425, 1597.175
348.4246, 1597.475
348.9067, 1597.272
349.3888, 1600.774
349.8709, 1607.288
350.3531, 1612.886
350.8352, 1615.625
351.3173, 1616.117
351.7994, 1614.528
352.2815, 1610.604
352.7636, 1607.910
353.2458, 1611.214
353.7279, 1618.300
354.2100, 1624.379
354.6921, 1627.047
355.1742, 1628.193
355.6563, 1629.735
356.1385, 1631.601
356.6206, 1633.217
357.1027, 1633.965
357.5848, 1634.309
358.0669, 1634.814
358.5490, 1635.724
359.0312, 1636.660
359.5133, 1637.860
359.9954, 1638.980
360.4775, 1639.001
360.9596, 1637.264
361.4417, 1634.355
361.9239, 1630.325
362.4060, 1624.522
362.8881, 1619.546
363.3702, 1617.545
363.8523, 1616.762
364.3344, 1614.510
364.8166, 1608.067
365.2987, 1601.757
365.7808, 1597.763
366.2629, 1596.539
366.7450, 1594.276
367.2271, 1589.099
367.7093, 1583.290
368.1914, 1578.859
368.6735, 1576.679
369.1556, 1575.133
369.6377, 1574.391
370.1198, 1574.320
370.6020, 1573.817
371.0841, 1572.854
371.5662, 1571.479
372.0483, 1569.647
372.5304, 1566.674
373.0125, 1564.544
373.4947, 1563.814
373.9768, 1563.777
374.4589, 1562.518
374.9410, 1558.997
375.4231, 1556.397
375.9052, 1556.249
376.3874, 1558.982
376.8695, 1560.687
377.3516, 1560.995
377.8337, 1560.942
378.3158, 1561.951
378.7979, 1564.192
379.2801, 1566.350
379.7622, 1568.273
380.2443, 1569.819
380.7264, 1570.137
381.2085, 1569.054
381.6906, 1567.889
382.1728, 1567.736
382.6549, 1568.482
383.1370, 1569.450
383.6191, 1570.493
384.1012, 1571.758
384.5833, 1573.936
385.0655, 1576.839
385.5476, 1579.085
386.0297, 1579.645
386.5118, 1579.104
386.9939, 1578.316
387.4760, 1577.264
387.9582, 1576.611
388.4403, 1576.964
388.9224, 1578.184
389.4045, 1579.956
389.8866, 1583.727
390.3687, 1586.920
390.8509, 1586.148
391.3330, 1581.840
391.8151, 1578.849
392.2972, 1581.761
392.7793, 1586.603
393.2614, 1589.498
393.7436, 1588.214
394.2257, 1586.540
394.7078, 1585.763
395.1899, 1585.784
395.6720, 1586.338
396.1541, 1587.540
396.6363, 1589.121
397.1184, 1591.264
397.6005, 1594.638
398.0826, 1596.545
398.5647, 1594.847
399.0468, 1592.068
399.5290, 1591.265
400.0111, 1595.275
400.4932, 1598.435
400.9753, 1599.379
401.4574, 1598.115
401.9395, 1597.661
402.4217, 1597.996
402.9038, 1599.121
403.3859, 1601.126
403.8680, 1604.397
404.3501, 1607.655
404.8322, 1610.969
405.3144, 1614.115
405.7965, 1616.399
406.2786, 1617.734
406.7607, 1618.528
407.2428, 1618.755
407.7249, 1618.382
408.2071, 1618.340
408.6892, 1618.483
409.1713, 1619.350
409.6534, 1622.082
410.1355, 1626.563
410.6176, 1630.647
411.0998, 1633.703
411.5819, 1635.995
412.0640, 1638.059
412.5461, 1639.884
413.0282, 1641.617
413.5103, 1643.117
413.9925, 1644.610
414.4746, 1646.635
414.9567, 1649.365
415.4388, 1652.403
415.9209, 1655.424
416.4030, 1658.445
416.8852, 1661.601
417.3673, 1665.501
417.8494, 1669.159
418.3315, 1671.456
418.8136, 1672.288
419.2957, 1673.420
419.7779, 1676.143
420.2600, 1679.520
420.7421, 1682.568
421.2242, 1685.264
421.7063, 1687.371
422.1884, 1688.445
422.6706, 1688.806
423.1527, 1689.678
423.6348, 1691.879
424.1169, 1694.238
424.5990, 1696.282
425.0811, 1697.964
425.5633, 1699.352
426.0454, 1700.308
426.5275, 1701.047
427.0096, 1701.802
427.4917, 1702.142
427.9738, 1703.177
428.4560, 1705.322
428.9381, 1708.531
429.4202, 1711.582
429.9023, 1714.823
430.3844, 1717.180
430.8665, 1717.465
431.3487, 1715.219
431.8308, 1713.663
432.3129, 1713.197
432.7950, 1713.351
433.2771, 1712.943
433.7592, 1711.908
434.2414, 1711.674
434.7235, 1713.396
435.2056, 1716.507
435.6877, 1718.926
436.1698, 1720.652
436.6519, 1721.510
437.1341, 1720.938
437.6162, 1719.326
438.0983, 1717.603
438.5804, 1715.742
439.0625, 1714.300
439.5446, 1714.213
440.0268, 1715.195
440.5089, 1716.178
440.9910, 1717.324
441.4731, 1717.764
441.9552, 1716.355
442.4373, 1712.622
442.9195, 1709.173
443.4016, 1707.365
443.8837, 1706.590
444.3658, 1706.107
444.8479, 1705.517
445.3300, 1705.376
445.8122, 1706.146
446.2943, 1707.687
446.7764, 1708.828
447.2585, 1709.237
447.7406, 1709.316
448.2227, 1709.225
448.7049, 1708.740
449.1870, 1708.551
449.6691, 1709.070
450.1512, 1709.677
450.6333, 1709.096
451.1154, 1705.976
451.5976, 1704.594
452.0797, 1706.489
452.5618, 1711.411
453.0439, 1715.981
453.5260, 1720.342
454.0081, 1723.650
454.4903, 1724.488
454.9724, 1722.905
455.4545, 1722.748
455.9366, 1724.523
456.4187, 1727.823
456.9008, 1732.811
457.3830, 1739.211
457.8651, 1744.370
458.3472, 1745.800
458.8293, 1745.629
459.3114, 1748.034
459.7935, 1753.011
460.2757, 1758.370
460.7578, 1762.548
461.2399, 1765.912
461.7220, 1768.978
462.2041, 1772.039
462.6862, 1774.601
463.1684, 1775.845
463.6505, 1776.329
464.1326, 1777.325
464.6147, 1779.474
465.0968, 1782.143
465.5789, 1785.267
466.0611, 1788.990
466.5432, 1791.830
467.0253, 1792.816
467.5074, 1793.109
467.9895, 1793.683
468.4716, 1795.758
468.9538, 1796.563
469.4359, 1794.977
469.9180, 1792.032
470.4001, 1791.102
470.8822, 1792.968
471.3643, 1795.576
471.8465, 1798.607
472.3286, 1802.334
472.8107, 1803.410
473.2928, 1801.037
473.7749, 1798.042
474.2570, 1797.806
474.7392, 1800.318
475.2213, 1802.760
475.7034, 1804.454
476.1855, 1805.816
476.6676, 1808.044
477.1497, 1810.982
477.6319, 1813.127
478.1140, 1812.906
478.5961, 1811.514
479.0782, 1810.898
479.5603, 1811.191
480.0424, 1811.958
480.5246, 1812.400
481.0067, 1813.207
481.4888, 1815.446
481.9709, 1821.509
482.4530, 1826.723
482.9352, 1827.030
483.4173, 1824.235
483.8994, 1824.047
484.3815, 1831.062
484.8636, 1838.947
485.3457, 1844.683
485.8279, 1847.620
486.3100, 1850.112
486.7921, 1851.879
487.2742, 1853.546
487.7563, 1855.718
488.2384, 1858.913
488.7206, 1861.766
489.2027, 1864.141
489.6848, 1866.077
490.1669, 1867.667
490.6490, 1868.912
491.1311, 1869.820
491.6133, 1870.703
492.0954, 1871.555
492.5775, 1870.484
493.0596, 1867.294
493.5417, 1863.054
494.0238, 1858.729
494.5060, 1854.309
494.9881, 1849.950
495.4702, 1846.164
495.9523, 1841.758
496.4344, 1833.972
496.9165, 1823.808
497.3987, 1815.071
497.8808, 1811.483
498.3629, 1809.268
498.8450, 1804.344
499.3271, 1796.213
499.8092, 1788.757
500.2914, 1784.884
500.7735, 1782.200
501.2556, 1778.285
501.7377, 1770.487
502.2198, 1763.927
502.7019, 1760.367
503.1841, 1758.855
503.6662, 1756.766
504.1483, 1753.872
504.6304, 1750.336
505.1125, 1745.749
505.5946, 1739.874
506.0768, 1736.301
506.5589, 1736.357
507.0410, 1736.834
507.5231, 1734.993
508.0052, 1730.502
508.4873, 1725.835
508.9695, 1720.919
509.4516, 1716.631
509.9337, 1715.185
510.4158, 1716.432
510.8979, 1717.568
511.3800, 1717.195
511.8622, 1715.910
512.3443, 1714.801
512.8264, 1713.891
513.3085, 1713.633
513.7906, 1715.189
514.2728, 1717.295
514.7549, 1718.460
515.2370, 1718.582
515.7191, 1717.183
516.2012, 1712.143
516.6833, 1705.799
517.1655, 1701.651
517.6476, 1702.065
518.1297, 1703.659
518.6118, 1705.961
519.0939, 1708.791
519.5760, 1710.534
520.0582, 1710.348
520.5403, 1709.570
521.0224, 1708.645
521.5045, 1707.312
521.9866, 1706.603
522.4688, 1706.807
522.9509, 1707.293
523.4330, 1707.059
523.9151, 1705.788
524.3972, 1705.619
524.8793, 1707.409
525.3615, 1710.232
525.8436, 1711.632
526.3257, 1711.626
526.8078, 1711.342
527.2899, 1711.501
527.7720, 1711.857
528.2542, 1711.651
528.7363, 1710.833
529.2184, 1710.339
529.7005, 1711.104
530.1826, 1712.643
530.6647, 1714.388
531.1469, 1716.605
531.6290, 1718.266
532.1111, 1718.061
532.5932, 1716.912
533.0753, 1716.705
533.5574, 1718.617
534.0396, 1720.928
534.5217, 1723.034
535.0038, 1724.851
535.4859, 1727.090
535.9680, 1730.818
536.4501, 1733.887
536.9323, 1734.745
537.4144, 1731.905
537.8965, 1731.247
538.3786, 1733.714
538.8607, 1737.262
539.3428, 1738.588
539.8250, 1737.532
540.3071, 1736.745
540.7892, 1737.095
541.2713, 1738.142
541.7534, 1738.618
542.2355, 1738.624
542.7177, 1739.138
543.1998, 1741.101
543.6819, 1743.875
544.1640, 1746.750
544.6461, 1749.721
545.1282, 1751.879
545.6104, 1752.161
546.0925, 1751.411
546.5746, 1750.461
547.0567, 1748.150
547.5388, 1747.581
548.0209, 1751.570
548.5031, 1757.951
548.9852, 1762.050
549.4673, 1760.964
549.9494, 1759.842
550.4315, 1760.267
550.9136, 1762.229
551.3958, 1762.623
551.8779, 1760.617
552.3600, 1758.454
552.8421, 1757.646
553.3242, 1758.365
553.8063, 1758.827
554.2885, 1758.930
554.7706, 1758.849
555.2527, 1758.463
555.7348, 1757.943
556.2169, 1758.441
556.6990, 1760.691
557.1812, 1763.612
557.6633, 1766.038
558.1454, 1767.903
558.6275, 1768.953
559.1096, 1767.637
559.5917, 1766.411
560.0739, 1767.818
560.5560, 1772.081
561.0381, 1775.691
561.5202, 1775.870
562.0023, 1775.641
562.4844, 1777.306
562.9666, 1783.358
563.4487, 1788.011
563.9308, 1789.880
564.4129, 1790.638
564.8950, 1792.863
565.3771, 1797.098
565.8593, 1801.489
566.3414, 1805.658
566.8235, 1809.623
567.3056, 1813.605
567.7877, 1817.533
568.2698, 1821.752
568.7520, 1826.903
569.2341, 1832.560
569.7162, 1837.230
570.1983, 1840.803
570.6804, 1843.926
571.1625, 1846.775
571.6447, 1849.657
572.1268, 1853.052
572.6089, 1857.175
573.0910, 1861.725
573.5731, 1867.388
574.0552, 1873.250
574.5374, 1877.830
575.0195, 1878.510
575.5016, 1879.970
575.9837, 1884.509
576.4658, 1891.806
576.9479, 1897.514
577.4301, 1900.402
577.9122, 1902.994
578.3943, 1906.342
578.8764, 1910.505
579.3585, 1915.293
579.8406, 1921.214
580.3228, 1926.621
580.8049, 1929.250
581.2870, 1929.272
581.7691, 1930.210
582.2512, 1932.864
582.7333, 1936.085
583.2155, 1938.495
583.6975, 1940.046
584.1796, 1940.754
584.6617, 1939.843
585.1439, 1938.586
585.6260, 1937.788
586.1081, 1937.528
586.5902, 1938.236
587.0723, 1941.919
587.5544, 1945.205
588.0366, 1945.779
588.5187, 1942.522
589.0008, 1940.450
589.4829, 1941.818
589.9650, 1943.502
590.4471, 1943.109
590.9293, 1939.648
591.4114, 1936.487
591.8935, 1934.053
592.3756, 1931.792
592.8577, 1928.638
593.3398, 1924.587
593.8220, 1920.388
594.3041, 1916.727
594.7862, 1912.742
595.2683, 1905.666
595.7504, 1895.978
596.2325, 1886.723
596.7147, 1880.701
597.1968, 1875.721
597.6789, 1868.759
598.1610, 1859.569
598.6431, 1851.119
599.1252, 1845.391
599.6074, 1841.039
600.0895, 1836.951
600.5716, 1832.994
601.0537, 1829.193
601.5358, 1825.275
602.0179, 1821.665
602.5001, 1819.098
602.9822, 1818.637
603.4643, 1816.994
603.9464, 1812.993
604.4285, 1807.644
604.9106, 1804.247
605.3928, 1802.953
605.8749, 1802.271
606.3570, 1801.573
606.8391, 1800.896
607.3212, 1800.323
607.8033, 1799.854
608.2855, 1799.668
608.7676, 1800.014
609.2497, 1800.681
609.7318, 1801.466
610.2139, 1802.405
610.6960, 1803.159
611.1782, 1803.285
611.6603, 1803.246
612.1424, 1803.543
612.6245, 1805.156
613.1066, 1806.063
613.5887, 1805.486
614.0709, 1804.152
614.5530, 1803.413
615.0351, 1803.159
615.5172, 1803.837
615.9993, 1805.943
616.4814, 1809.099
616.9636, 1811.284
617.4457, 1812.471
617.9278, 1813.121
618.4099, 1813.037
618.8920, 1812.678
619.3741, 1813.515
619.8563, 1815.626
620.3384, 1817.755
620.8205, 1818.534
621.3026, 1818.875
621.7847, 1819.957
622.2668, 1822.328
622.7490, 1824.633
623.2311, 1826.279
623.7132, 1827.523
624.1953, 1828.698
624.6774, 1830.288
625.1595, 1831.241
625.6417, 1830.987
626.1238, 1830.097
626.6059, 1830.455
627.0880, 1832.865
627.5701, 1834.044
628.0522, 1832.014
628.5344, 1827.836
629.0165, 1827.391
629.4986, 1830.769
629.9807, 1834.195
630.4628, 1834.550
630.9449, 1833.205
631.4271, 1832.606
631.9092, 1832.930
632.3913, 1833.853
632.8734, 1836.038
633.3555, 1838.237
633.8376, 1839.074
634.3198, 1837.434
634.8019, 1835.973
635.2840, 1835.637
635.7661, 1835.763
636.2482, 1835.428
636.7303, 1834.568
637.2125, 1833.286
637.6946, 1831.433
638.1767, 1829.243
638.6588, 1827.357
639.1409, 1825.801
639.6230, 1824.435
640.1052, 1823.601
640.5873, 1822.802
641.0694, 1820.170
641.5515, 1815.867
642.0336, 1811.668
642.5157, 1808.098
642.9979, 1805.695
643.4800, 1805.923
643.9621, 1809.056
644.4442, 1811.077
644.9263, 1808.932
645.4084, 1805.494
645.8906, 1802.972
646.3727, 1801.368
646.8548, 1801.357
647.3369, 1804.242
647.8190, 1807.719
648.3011, 1808.832
648.7833, 1806.682
649.2654, 1804.972
649.7475, 1804.154
650.2296, 1804.112
650.7117, 1804.941
651.1938, 1806.538
651.6760, 1807.748
652.1581, 1808.268
652.6402, 1808.016
653.1223, 1806.356
653.6044, 1803.682
654.0865, 1801.495
654.5687, 1800.606
655.0508, 1800.583
655.5329, 1801.528
656.0150, 1803.489
656.4971, 1804.831
656.9792, 1804.643
657.4614, 1804.180
657.9435, 1804.111
658.4256, 1804.544
658.9077, 1804.945
659.3898, 1805.263
659.8719, 1805.605
660.3541, 1806.273
660.8362, 1807.228
661.3183, 1807.366
661.8004, 1806.343
662.2825, 1805.024
