##NAMES=Owyheeite
##RRUFFID=R070543
##IDEAL CHEMISTRY=Ag^1+^_3_Pb^2+^_10_Sb^3+^_11_S^2-^_28_
##LOCALITY=Covada, Colville Indian Reservation, Ferry County, Washington, USA
##OWNER=RRUFF
##SOURCE=James Shigley
##DESCRIPTION=Aggregate of metallic black acicular crystals associated with quartz
##STATUS=The identification of this mineral has been confirmed by single-crystal X-ray diffraction.
##URL=rruff.info/R070543
155.9408, 2058.339
156.4229, 2075.566
156.9050, 2080.116
157.3871, 2078.351
157.8692, 2079.895
158.3513, 2085.473
158.8335, 2094.608
159.3156, 2117.525
159.7977, 2136.011
160.2798, 2141.486
160.7619, 2129.025
161.2440, 2114.146
161.7262, 2098.612
162.2083, 2084.008
162.6904, 2073.726
163.1725, 2072.350
163.6546, 2073.570
164.1367, 2073.143
164.6189, 2067.794
165.1010, 2064.119
165.5831, 2067.101
166.0652, 2074.880
166.5473, 2080.579
167.0294, 2079.646
167.5116, 2075.328
167.9937, 2070.343
168.4758, 2062.448
168.9579, 2056.816
169.4400, 2058.128
169.9221, 2065.655
170.4043, 2073.358
170.8864, 2079.829
171.3685, 2083.587
171.8506, 2082.750
172.3327, 2070.870
172.8148, 2057.599
173.2970, 2052.336
173.7791, 2055.293
174.2612, 2059.924
174.7433, 2064.543
175.2254, 2067.074
175.7076, 2063.425
176.1897, 2038.471
176.6718, 2011.799
177.1539, 2014.276
177.6360, 2051.726
178.1181, 2089.620
178.6003, 2089.269
179.0824, 2060.126
179.5645, 2033.261
180.0466, 2027.753
180.5287, 2034.281
181.0108, 2035.461
181.4930, 2028.721
181.9751, 2019.524
182.4572, 2013.131
182.9393, 2009.680
183.4214, 2010.540
183.9035, 2018.821
184.3857, 2032.070
184.8678, 2045.057
185.3499, 2058.660
185.8320, 2068.635
186.3141, 2064.384
186.7962, 2046.546
187.2784, 2028.808
187.7605, 2021.037
188.2426, 2021.777
188.7247, 2025.735
189.2068, 2034.829
189.6889, 2043.815
190.1711, 2037.787
190.6532, 2015.929
191.1353, 1993.688
191.6174, 1987.252
192.0995, 1994.819
192.5816, 1998.902
193.0638, 1996.512
193.5459, 1987.353
194.0280, 1966.311
194.5101, 1930.782
194.9922, 1897.255
195.4743, 1882.846
195.9565, 1887.491
196.4386, 1898.580
196.9207, 1916.791
197.4028, 1939.558
197.8849, 1949.334
198.3671, 1944.428
198.8492, 1932.325
199.3313, 1920.002
199.8134, 1907.010
200.2955, 1897.957
200.7776, 1894.949
201.2598, 1897.748
201.7419, 1901.699
202.2240, 1907.371
202.7061, 1913.043
203.1882, 1916.295
203.6703, 1916.918
204.1525, 1915.994
204.6346, 1913.958
205.1167, 1910.828
205.5988, 1905.439
206.0809, 1896.697
206.5630, 1887.097
207.0452, 1881.545
207.5273, 1881.257
208.0094, 1880.768
208.4915, 1876.858
208.9736, 1868.372
209.4557, 1863.987
209.9379, 1864.651
210.4200, 1868.689
210.9021, 1873.827
211.3842, 1882.185
211.8663, 1886.134
212.3484, 1879.663
212.8306, 1858.694
213.3127, 1845.940
213.7948, 1845.080
214.2769, 1851.371
214.7590, 1852.195
215.2411, 1847.348
215.7233, 1837.507
216.2054, 1819.071
216.6875, 1783.776
217.1696, 1769.738
217.6517, 1787.230
218.1338, 1826.096
218.6160, 1849.022
219.0981, 1852.179
219.5802, 1846.547
220.0623, 1837.473
220.5444, 1822.776
221.0265, 1810.594
221.5087, 1801.161
221.9908, 1794.623
222.4729, 1792.252
222.9550, 1795.638
223.4371, 1800.802
223.9192, 1806.045
224.4014, 1813.571
224.8835, 1815.206
225.3656, 1807.635
225.8477, 1792.546
226.3298, 1783.016
226.8119, 1780.573
227.2941, 1781.470
227.7762, 1783.385
228.2583, 1787.206
228.7404, 1789.850
229.2225, 1790.872
229.7046, 1790.282
230.1868, 1788.402
230.6689, 1784.815
231.1510, 1780.386
231.6331, 1775.625
232.1152, 1770.136
232.5974, 1765.256
233.0795, 1761.577
233.5616, 1759.059
234.0437, 1754.916
234.5258, 1747.776
235.0079, 1740.624
235.4901, 1736.235
235.9722, 1736.326
236.4543, 1736.017
236.9364, 1734.354
237.4185, 1731.359
237.9006, 1729.247
238.3828, 1729.310
238.8649, 1728.914
239.3470, 1724.369
239.8291, 1708.704
240.3112, 1702.192
240.7933, 1712.605
241.2755, 1740.774
241.7576, 1755.834
242.2397, 1750.180
242.7218, 1738.791
243.2039, 1736.249
243.6860, 1745.341
244.1682, 1758.451
244.6503, 1777.288
245.1324, 1802.748
245.6145, 1813.798
246.0966, 1802.177
246.5787, 1784.266
247.0609, 1777.396
247.5430, 1786.608
248.0251, 1797.562
248.5072, 1809.976
248.9893, 1824.505
249.4714, 1825.950
249.9536, 1807.269
250.4357, 1782.359
250.9178, 1766.668
251.3999, 1765.164
251.8820, 1763.289
252.3641, 1758.472
252.8463, 1750.815
253.3284, 1739.013
253.8105, 1720.331
254.2926, 1700.530
254.7747, 1685.803
255.2568, 1676.313
255.7390, 1671.897
256.2211, 1675.203
256.7032, 1687.242
257.1853, 1688.661
257.6674, 1674.838
258.1495, 1655.619
258.6317, 1642.161
259.1138, 1636.918
259.5959, 1631.829
260.0780, 1624.226
260.5601, 1613.689
261.0422, 1608.839
261.5244, 1613.178
262.0065, 1618.777
262.4886, 1616.036
262.9707, 1601.850
263.4528, 1587.222
263.9349, 1573.104
264.4171, 1559.207
264.8992, 1554.413
265.3813, 1561.701
265.8634, 1573.606
266.3455, 1583.262
266.8276, 1592.255
267.3098, 1593.804
267.7919, 1582.978
268.2740, 1560.102
268.7561, 1548.684
269.2382, 1553.153
269.7203, 1561.907
270.2025, 1561.391
270.6846, 1548.481
271.1667, 1538.737
271.6488, 1537.436
272.1309, 1543.884
272.6130, 1543.436
273.0952, 1533.469
273.5773, 1522.188
274.0594, 1518.667
274.5415, 1524.171
275.0236, 1530.615
275.5057, 1538.163
275.9879, 1545.742
276.4700, 1541.563
276.9521, 1522.371
277.4342, 1500.385
277.9163, 1488.509
278.3984, 1487.806
278.8806, 1487.145
279.3627, 1483.049
279.8448, 1476.782
280.3269, 1475.903
280.8090, 1481.254
281.2911, 1489.108
281.7733, 1497.568
282.2554, 1506.766
282.7375, 1511.542
283.2196, 1510.403
283.7017, 1503.995
284.1838, 1493.966
284.6660, 1479.757
285.1481, 1464.758
285.6302, 1448.358
286.1123, 1431.138
286.5944, 1425.947
287.0765, 1439.633
287.5587, 1464.966
288.0408, 1482.847
288.5229, 1493.414
289.0050, 1495.615
289.4871, 1483.863
289.9692, 1460.704
290.4514, 1443.341
290.9335, 1436.590
291.4156, 1436.425
291.8977, 1433.085
292.3798, 1426.585
292.8619, 1423.071
293.3441, 1431.597
293.8262, 1448.205
294.3083, 1457.090
294.7904, 1454.330
295.2726, 1444.218
295.7547, 1431.896
296.2368, 1417.765
296.7189, 1405.117
297.2010, 1395.645
297.6831, 1389.565
298.1653, 1388.645
298.6474, 1395.753
299.1295, 1402.999
299.6116, 1397.292
300.0937, 1380.908
300.5758, 1365.704
301.0580, 1361.076
301.5401, 1362.510
302.0222, 1361.777
302.5043, 1356.734
302.9864, 1351.832
303.4685, 1353.467
303.9507, 1359.812
304.4328, 1364.633
304.9149, 1361.114
305.3970, 1355.296
305.8791, 1356.015
306.3612, 1366.230
306.8434, 1375.983
307.3255, 1374.845
307.8076, 1366.377
308.2897, 1358.705
308.7718, 1355.850
309.2539, 1355.860
309.7361, 1358.664
310.2182, 1365.372
310.7003, 1368.056
311.1824, 1355.411
311.6645, 1335.501
312.1466, 1322.233
312.6288, 1327.188
313.1109, 1336.884
313.5930, 1343.052
314.0751, 1345.137
314.5572, 1343.966
315.0393, 1335.244
315.5215, 1324.821
316.0036, 1320.152
316.4857, 1329.275
316.9678, 1340.254
317.4499, 1348.863
317.9320, 1354.935
318.4142, 1355.930
318.8963, 1347.763
319.3784, 1335.433
319.8605, 1323.618
320.3426, 1310.952
320.8247, 1301.583
321.3069, 1296.495
321.7890, 1295.684
322.2711, 1299.696
322.7532, 1317.305
323.2353, 1334.906
323.7174, 1342.665
324.1996, 1326.889
324.6817, 1314.145
325.1638, 1311.277
325.6459, 1316.688
326.1280, 1319.004
326.6101, 1314.490
327.0923, 1308.362
327.5744, 1303.499
328.0565, 1301.104
328.5386, 1298.698
329.0207, 1297.021
329.5028, 1295.518
329.9850, 1291.893
330.4671, 1282.663
330.9492, 1274.770
331.4313, 1271.328
331.9134, 1275.603
332.3955, 1278.343
332.8777, 1279.309
333.3598, 1278.791
333.8419, 1277.263
334.3240, 1273.675
334.8061, 1270.656
335.2882, 1269.484
335.7704, 1271.105
336.2525, 1270.496
336.7346, 1265.985
337.2167, 1260.685
337.6988, 1260.438
338.1809, 1267.768
338.6631, 1272.477
339.1452, 1269.618
339.6273, 1258.745
340.1094, 1254.416
340.5915, 1258.122
341.0736, 1265.294
341.5558, 1271.406
342.0379, 1276.853
342.5200, 1278.513
343.0021, 1274.661
343.4842, 1266.346
343.9663, 1258.094
344.4485, 1249.691
344.9306, 1242.938
345.4127, 1240.497
345.8948, 1241.969
346.3769, 1243.663
346.8590, 1245.651
347.3412, 1246.620
347.8233, 1241.559
348.3054, 1230.651
348.7875, 1221.449
349.2696, 1222.115
349.7517, 1229.325
350.2339, 1232.723
350.7160, 1229.053
351.1981, 1223.834
351.6802, 1226.812
352.1623, 1235.980
352.6444, 1241.517
353.1266, 1231.647
353.6087, 1216.024
354.0908, 1210.675
354.5729, 1219.500
355.0550, 1230.325
355.5371, 1233.106
356.0193, 1229.523
356.5014, 1223.257
356.9835, 1212.136
357.4656, 1201.732
357.9477, 1198.068
358.4298, 1202.077
358.9120, 1206.052
359.3941, 1203.833
359.8762, 1199.286
360.3583, 1197.281
360.8404, 1204.115
361.3225, 1210.153
361.8047, 1208.815
362.2868, 1200.417
362.7689, 1194.815
363.2510, 1199.900
363.7331, 1207.152
364.2152, 1209.701
364.6974, 1197.153
365.1795, 1189.005
365.6616, 1194.692
366.1437, 1210.312
366.6258, 1216.887
367.1079, 1200.746
367.5901, 1182.607
368.0722, 1172.922
368.5543, 1179.812
369.0364, 1184.362
369.5185, 1182.522
370.0006, 1178.131
370.4828, 1180.114
370.9649, 1196.757
371.4470, 1210.453
371.9291, 1214.497
372.4112, 1204.786
372.8933, 1199.593
373.3755, 1200.713
373.8576, 1204.975
374.3397, 1208.247
374.8218, 1210.153
375.3039, 1211.865
375.7861, 1214.597
376.2682, 1218.173
376.7503, 1215.134
377.2324, 1202.583
377.7145, 1189.707
378.1967, 1186.543
378.6788, 1194.381
379.1609, 1199.501
379.6430, 1198.745
380.1251, 1193.830
380.6072, 1189.466
381.0894, 1185.608
381.5715, 1183.397
382.0536, 1186.402
382.5357, 1192.947
383.0178, 1191.522
383.4999, 1178.298
383.9821, 1162.066
384.4642, 1155.617
384.9463, 1158.194
385.4284, 1165.528
385.9105, 1179.499
386.3926, 1195.644
386.8748, 1206.113
387.3569, 1210.331
387.8390, 1210.087
388.3211, 1203.814
388.8032, 1194.396
389.2853, 1187.860
389.7675, 1187.893
390.2496, 1190.942
390.7317, 1195.941
391.2138, 1202.549
391.6959, 1205.677
392.1780, 1201.216
392.6602, 1192.318
393.1423, 1181.904
393.6244, 1164.759
394.1065, 1153.537
394.5886, 1157.082
395.0707, 1171.660
395.5529, 1183.809
396.0350, 1186.980
396.5171, 1188.177
396.9992, 1191.737
397.4813, 1202.018
397.9634, 1206.729
398.4456, 1199.446
398.9277, 1186.274
399.4098, 1177.828
399.8919, 1177.722
400.3740, 1179.599
400.8561, 1183.122
401.3383, 1189.242
401.8204, 1190.760
402.3025, 1184.969
402.7846, 1176.877
403.2667, 1170.828
403.7488, 1166.152
404.2310, 1165.555
404.7131, 1171.553
405.1952, 1182.293
405.6773, 1186.248
406.1594, 1180.878
406.6415, 1175.405
407.1237, 1177.993
407.6058, 1189.702
408.0879, 1193.677
408.5700, 1186.337
409.0521, 1173.913
409.5342, 1167.561
410.0164, 1167.247
410.4985, 1171.417
410.9806, 1184.273
411.4627, 1201.699
411.9448, 1205.531
412.4269, 1193.960
412.9091, 1180.569
413.3912, 1182.552
413.8733, 1194.808
414.3554, 1203.837
414.8375, 1203.887
415.3196, 1198.896
415.8018, 1191.794
416.2839, 1183.053
416.7660, 1175.672
417.2481, 1174.978
417.7302, 1175.461
418.2123, 1169.994
418.6945, 1152.044
419.1766, 1137.746
419.6587, 1140.193
420.1408, 1153.325
420.6229, 1163.564
421.1050, 1161.937
421.5872, 1159.131
422.0693, 1160.372
422.5514, 1166.773
423.0335, 1174.496
423.5156, 1187.281
423.9977, 1199.142
424.4799, 1203.904
424.9620, 1189.898
425.4441, 1180.587
425.9262, 1182.118
426.4083, 1193.573
426.8904, 1199.289
427.3726, 1195.313
427.8547, 1189.828
428.3368, 1187.905
428.8189, 1191.865
429.3010, 1193.265
429.7831, 1189.869
430.2653, 1185.088
430.7474, 1187.163
431.2295, 1197.847
431.7116, 1208.941
432.1937, 1217.486
432.6758, 1223.536
433.1580, 1227.548
433.6401, 1229.264
434.1222, 1229.962
434.6043, 1231.514
435.0864, 1233.591
435.5685, 1233.763
436.0507, 1230.747
436.5328, 1225.833
437.0149, 1219.470
437.4970, 1212.251
437.9791, 1209.409
438.4612, 1219.404
438.9434, 1234.835
439.4255, 1243.973
439.9076, 1243.846
440.3897, 1240.849
440.8718, 1240.353
441.3539, 1240.894
441.8361, 1239.682
442.3182, 1231.350
442.8003, 1224.263
443.2824, 1225.388
443.7645, 1235.299
444.2466, 1242.267
444.7288, 1238.906
445.2109, 1232.300
445.6930, 1228.348
446.1751, 1229.292
446.6572, 1231.547
447.1393, 1237.465
447.6215, 1245.027
448.1036, 1245.721
448.5857, 1233.218
449.0678, 1220.249
449.5499, 1211.858
450.0320, 1210.203
450.5142, 1205.956
450.9963, 1196.756
451.4784, 1187.170
451.9605, 1184.347
452.4426, 1190.531
452.9247, 1195.440
453.4069, 1196.211
453.8890, 1193.656
454.3711, 1192.612
454.8532, 1193.389
455.3353, 1193.596
455.8174, 1189.660
456.2996, 1182.651
456.7817, 1181.063
457.2638, 1187.906
457.7459, 1195.469
458.2281, 1189.385
458.7102, 1173.471
459.1923, 1162.654
459.6744, 1171.224
460.1565, 1186.173
460.6386, 1188.551
461.1208, 1177.817
461.6029, 1168.980
462.0850, 1177.235
462.5671, 1191.469
463.0492, 1198.581
463.5313, 1189.322
464.0135, 1178.837
464.4956, 1174.420
464.9777, 1174.302
465.4598, 1173.281
465.9419, 1169.722
466.4240, 1165.015
466.9062, 1159.001
467.3883, 1149.725
467.8704, 1144.863
468.3525, 1147.927
468.8346, 1153.953
469.3167, 1157.705
469.7989, 1157.547
470.2810, 1157.892
470.7631, 1160.562
471.2452, 1164.693
471.7273, 1163.298
472.2094, 1154.218
472.6916, 1144.928
473.1737, 1128.042
473.6558, 1141.656
474.1379, 1149.029
474.6200, 1150.496
475.1021, 1128.371
475.5843, 1136.711
476.0664, 1132.842
476.5485, 1128.473
477.0306, 1141.101
477.5127, 1122.407
477.9948, 1134.765
478.4770, 1134.728
478.9591, 1140.364
479.4412, 1133.716
479.9233, 1130.862
480.4054, 1140.296
480.8875, 1142.926
481.3697, 1134.863
481.8518, 1140.860
482.3339, 1121.738
482.8160, 1124.657
483.2981, 1137.088
483.7802, 1129.643
484.2624, 1135.864
484.7445, 1136.880
485.2266, 1114.243
485.7087, 1132.742
486.1908, 1133.451
486.6729, 1115.893
487.1551, 1132.982
487.6372, 1117.943
488.1193, 1114.372
488.6014, 1119.431
489.0835, 1115.493
489.5656, 1125.739
490.0478, 1122.321
490.5299, 1117.682
491.0120, 1118.371
491.4941, 1103.961
491.9762, 1117.562
492.4583, 1112.030
492.9405, 1116.008
493.4226, 1122.142
493.9047, 1111.770
494.3868, 1118.872
494.8689, 1098.875
495.3510, 1101.554
495.8332, 1101.790
496.3153, 1116.520
496.7974, 1109.309
497.2795, 1114.651
497.7616, 1118.833
498.2437, 1121.422
498.7259, 1122.237
499.2080, 1121.176
499.6901, 1118.275
500.1722, 1113.595
500.6543, 1102.653
501.1364, 1094.664
501.6186, 1095.026
502.1007, 1101.505
502.5828, 1104.950
503.0649, 1100.727
503.5470, 1095.840
504.0291, 1093.254
504.5113, 1093.713
504.9934, 1093.998
505.4755, 1094.026
505.9576, 1093.983
506.4397, 1093.635
506.9218, 1092.009
507.4040, 1093.567
507.8861, 1100.687
508.3682, 1110.807
508.8503, 1115.653
509.3324, 1115.096
509.8145, 1110.245
510.2967, 1096.630
510.7788, 1078.321
511.2609, 1075.412
511.7430, 1090.798
512.2252, 1106.654
512.7073, 1099.407
513.1894, 1078.964
513.6715, 1066.987
514.1536, 1076.052
514.6357, 1090.398
515.1179, 1098.296
515.6000, 1100.632
516.0821, 1100.502
516.5642, 1099.195
517.0463, 1096.067
517.5284, 1089.342
518.0106, 1076.932
518.4927, 1069.401
518.9748, 1073.708
519.4569, 1081.868
519.9390, 1085.657
520.4211, 1080.364
520.9033, 1077.292
521.3854, 1079.242
521.8675, 1084.266
522.3496, 1084.506
522.8317, 1078.400
523.3138, 1071.301
523.7960, 1064.721
524.2781, 1058.538
524.7602, 1057.700
525.2423, 1063.092
525.7244, 1070.228
526.2065, 1074.584
526.6887, 1076.429
527.1708, 1076.976
527.6529, 1075.622
528.1350, 1074.549
528.6171, 1078.424
529.0992, 1085.605
529.5814, 1090.036
530.0635, 1087.403
530.5456, 1081.197
531.0277, 1071.266
531.5098, 1057.142
531.9919, 1051.383
532.4741, 1070.433
532.9562, 1094.639
533.4383, 1107.248
533.9204, 1093.262
534.4025, 1080.857
534.8846, 1075.577
535.3668, 1074.349
535.8489, 1069.529
536.3310, 1055.505
536.8131, 1046.399
537.2952, 1048.758
537.7773, 1062.922
538.2595, 1067.383
538.7416, 1058.588
539.2237, 1049.510
539.7058, 1053.867
540.1879, 1070.865
540.6700, 1079.973
541.1522, 1077.147
541.6343, 1069.369
542.1164, 1066.344
542.5985, 1067.281
543.0806, 1069.137
543.5627, 1070.497
544.0449, 1072.020
544.5270, 1075.626
545.0091, 1080.800
545.4912, 1083.361
545.9733, 1079.188
546.4554, 1072.428
546.9376, 1065.809
547.4197, 1058.680
547.9018, 1054.838
548.3839, 1059.444
548.8660, 1066.662
549.3481, 1068.503
549.8303, 1058.243
550.3124, 1050.463
550.7945, 1047.899
551.2766, 1049.737
551.7587, 1051.677
552.2408, 1054.561
552.7230, 1055.592
553.2051, 1051.878
553.6872, 1043.168
554.1693, 1039.648
554.6514, 1042.112
555.1335, 1046.523
555.6157, 1048.666
556.0978, 1048.907
556.5799, 1048.534
557.0620, 1047.712
557.5441, 1046.663
558.0262, 1045.568
558.5084, 1044.449
558.9905, 1043.375
559.4726, 1042.844
559.9547, 1042.010
560.4368, 1039.539
560.9189, 1035.340
561.4011, 1033.119
561.8832, 1034.242
562.3653, 1037.704
562.8474, 1042.964
563.3295, 1056.555
563.8116, 1062.194
564.2938, 1054.812
564.7759, 1041.880
565.2580, 1036.199
565.7401, 1040.732
566.2222, 1044.630
566.7043, 1045.177
567.1865, 1042.801
567.6686, 1038.672
568.1507, 1032.385
568.6328, 1028.303
569.1149, 1030.854
569.5970, 1037.990
570.0792, 1043.857
570.5613, 1048.120
571.0434, 1050.081
571.5255, 1046.627
572.0076, 1040.992
572.4897, 1038.465
572.9719, 1043.825
573.4540, 1049.011
573.9361, 1050.329
574.4182, 1048.078
574.9003, 1043.065
575.3824, 1027.657
575.8646, 1016.837
576.3467, 1019.643
576.8288, 1038.413
577.3109, 1047.372
577.7930, 1040.203
578.2751, 1030.459
578.7573, 1028.558
579.2394, 1037.516
579.7215, 1039.411
580.2036, 1030.503
580.6857, 1019.129
581.1678, 1021.118
581.6500, 1035.133
582.1321, 1044.292
582.6142, 1039.582
583.0963, 1029.283
583.5784, 1028.570
584.0605, 1035.597
584.5427, 1041.011
585.0248, 1034.401
585.5069, 1026.276
585.9890, 1028.297
586.4711, 1043.096
586.9532, 1054.169
587.4354, 1052.759
587.9175, 1045.681
588.3996, 1038.803
588.8817, 1028.520
589.3638, 1024.488
589.8459, 1032.459
590.3281, 1045.181
590.8102, 1047.170
591.2923, 1031.989
591.7744, 1022.428
592.2565, 1027.474
592.7386, 1043.748
593.2208, 1051.413
593.7029, 1049.836
594.1850, 1045.979
594.6671, 1043.916
595.1492, 1043.492
595.6313, 1044.448
596.1135, 1046.839
596.5956, 1050.165
597.0777, 1055.802
597.5598, 1061.654
598.0419, 1064.466
598.5240, 1061.751
599.0062, 1058.007
599.4883, 1053.505
599.9704, 1049.514
600.4525, 1048.892
600.9346, 1056.823
601.4167, 1063.489
601.8989, 1064.983
602.3810, 1061.427
602.8631, 1062.219
603.3452, 1071.153
603.8273, 1077.814
604.3094, 1073.936
604.7916, 1058.235
605.2737, 1048.548
605.7558, 1046.194
606.2379, 1046.970
606.7200, 1046.396
607.2021, 1044.708
607.6843, 1042.357
608.1664, 1037.940
608.6485, 1035.569
609.1306, 1043.579
609.6127, 1057.361
610.0948, 1065.573
610.5770, 1053.911
611.0591, 1043.000
611.5412, 1047.849
612.0233, 1068.122
612.5054, 1079.778
612.9875, 1072.607
613.4697, 1059.728
613.9518, 1046.849
614.4339, 1031.170
614.9160, 1024.867
615.3981, 1031.534
615.8802, 1042.598
616.3624, 1048.761
616.8445, 1049.787
617.3266, 1048.915
617.8087, 1046.069
618.2908, 1042.771
618.7729, 1043.085
619.2551, 1045.798
619.7372, 1045.624
620.2193, 1035.711
620.7014, 1024.441
621.1835, 1021.750
621.6656, 1026.518
622.1478, 1030.221
622.6299, 1026.099
623.1120, 1021.626
623.5941, 1022.188
624.0762, 1030.593
624.5583, 1036.285
625.0405, 1036.268
625.5226, 1034.634
626.0047, 1034.933
626.4868, 1038.583
626.9689, 1039.998
627.4510, 1038.120
627.9332, 1034.412
628.4153, 1031.230
628.8974, 1028.559
629.3795, 1026.993
629.8616, 1027.068
630.3438, 1028.051
630.8259, 1028.698
631.3080, 1029.055
631.7901, 1029.439
632.2722, 1030.819
632.7543, 1031.804
633.2365, 1030.600
633.7186, 1026.909
634.2007, 1024.462
634.6828, 1026.984
635.1649, 1029.787
635.6470, 1028.999
636.1292, 1017.346
636.6113, 1014.781
637.0934, 1027.286
637.5755, 1044.009
638.0576, 1049.673
638.5397, 1042.421
639.0219, 1033.323
639.5040, 1023.110
639.9861, 1014.212
640.4682, 1013.530
640.9503, 1020.245
641.4324, 1027.487
641.9146, 1031.352
642.3967, 1033.820
642.8788, 1038.240
643.3609, 1044.191
643.8430, 1047.580
644.3251, 1046.034
644.8073, 1041.066
645.2894, 1031.976
645.7715, 1014.966
646.2536, 1006.414
646.7357, 1017.959
647.2178, 1032.623
647.7000, 1035.794
648.1821, 1020.376
648.6642, 1012.693
649.1463, 1017.253
649.6284, 1027.470
650.1105, 1030.541
650.5927, 1026.760
651.0748, 1025.578
651.5569, 1032.237
652.0390, 1041.300
