##NAMES=Owyheeite
##RRUFFID=R070543
##IDEAL CHEMISTRY=Ag^1+^_3_Pb^2+^_10_Sb^3+^_11_S^2-^_28_
##LOCALITY=Covada, Colville Indian Reservation, Ferry County, Washington, USA
##OWNER=RRUFF
##SOURCE=James Shigley
##DESCRIPTION=Aggregate of metallic black acicular crystals associated with quartz
##STATUS=The identification of this mineral has been confirmed by single-crystal X-ray diffraction.
##URL=rruff.info/R070543
148.3985, 3462.075
148.8806, 3559.313
149.3627, 3646.001
149.8449, 3721.214
150.3270, 3786.516
150.8091, 3844.503
151.2912, 3898.548
151.7733, 3934.508
152.2554, 3948.611
152.7376, 3950.821
153.2197, 3944.179
153.7018, 3930.818
154.1839, 3915.997
154.6660, 3907.208
155.1481, 3907.107
155.6303, 3908.623
156.1124, 3917.600
156.5945, 3924.638
157.0766, 3915.754
157.5587, 3889.487
158.0408, 3864.551
158.5230, 3870.633
159.0051, 3932.895
159.4872, 3984.518
159.9693, 4014.145
160.4514, 4021.331
160.9335, 4024.010
161.4157, 4036.636
161.8978, 4052.614
162.3799, 4061.491
162.8620, 4059.504
163.3441, 4057.891
163.8262, 4052.419
164.3084, 4049.872
164.7905, 4061.083
165.2726, 4089.372
165.7547, 4121.786
166.2368, 4136.616
166.7189, 4127.799
167.2011, 4117.276
167.6832, 4103.520
168.1653, 4090.774
168.6474, 4086.373
169.1295, 4093.110
169.6116, 4102.594
170.0938, 4099.427
170.5759, 4078.560
171.0580, 4060.412
171.5401, 4049.700
172.0222, 4042.739
172.5043, 4034.896
172.9865, 4024.768
173.4686, 4012.796
173.9507, 3998.724
174.4328, 3979.905
174.9149, 3966.077
175.3970, 3963.434
175.8792, 3965.595
176.3613, 3960.882
176.8434, 3944.105
177.3255, 3925.696
177.8076, 3925.971
178.2897, 3948.775
178.7719, 3968.243
179.2540, 3978.138
179.7361, 3980.692
180.2182, 3977.811
180.7003, 3968.786
181.1824, 3958.601
181.6646, 3956.672
182.1467, 3963.868
182.6288, 3970.423
183.1109, 3970.241
183.5930, 3968.317
184.0751, 3974.942
184.5573, 3994.873
185.0394, 4018.491
185.5215, 4031.087
186.0036, 4033.061
186.4857, 4031.871
186.9678, 4027.209
187.4500, 4021.305
187.9321, 4017.441
188.4142, 4015.647
188.8963, 4018.040
189.3784, 4031.135
189.8605, 4055.595
190.3427, 4074.466
190.8248, 4075.092
191.3069, 4067.948
191.7890, 4075.002
192.2711, 4105.105
192.7532, 4138.760
193.2354, 4148.238
193.7175, 4134.909
194.1996, 4121.985
194.6817, 4118.556
195.1638, 4120.013
195.6459, 4116.475
196.1281, 4103.986
196.6102, 4092.835
197.0923, 4101.040
197.5744, 4126.841
198.0565, 4142.666
198.5386, 4128.646
199.0207, 4102.346
199.5029, 4094.469
199.9850, 4112.472
200.4671, 4140.466
200.9492, 4168.407
201.4313, 4195.826
201.9134, 4207.353
202.3956, 4181.620
202.8777, 4142.560
203.3598, 4129.752
203.8419, 4152.529
204.3240, 4184.383
204.8061, 4201.939
205.2883, 4207.245
205.7704, 4204.878
206.2525, 4185.804
206.7346, 4163.389
207.2167, 4157.429
207.6988, 4171.344
208.1810, 4192.663
208.6631, 4214.146
209.1452, 4234.896
209.6273, 4249.378
210.1094, 4253.990
210.5915, 4252.822
211.0737, 4247.962
211.5558, 4238.637
212.0379, 4234.249
212.5200, 4245.935
213.0021, 4269.776
213.4842, 4289.969
213.9664, 4303.899
214.4485, 4313.231
214.9306, 4319.541
215.4127, 4322.883
215.8948, 4323.126
216.3769, 4317.894
216.8591, 4309.341
217.3412, 4305.112
217.8233, 4308.417
218.3054, 4314.696
218.7875, 4321.587
219.2696, 4328.986
219.7518, 4333.032
220.2339, 4327.888
220.7160, 4318.197
221.1981, 4318.879
221.6802, 4343.314
222.1623, 4366.752
222.6445, 4367.109
223.1266, 4347.574
223.6087, 4331.232
224.0908, 4329.135
224.5729, 4340.140
225.0550, 4357.176
225.5371, 4388.396
226.0193, 4415.184
226.5014, 4423.725
226.9835, 4417.771
227.4656, 4414.583
227.9477, 4425.094
228.4298, 4439.775
228.9120, 4434.768
229.3941, 4399.396
229.8762, 4366.481
230.3583, 4353.940
230.8404, 4355.187
231.3225, 4352.873
231.8047, 4339.764
232.2868, 4321.211
232.7689, 4307.033
233.2510, 4294.355
233.7331, 4291.041
234.2152, 4307.158
234.6974, 4333.065
235.1795, 4350.839
235.6616, 4354.560
236.1437, 4350.771
236.6258, 4350.292
237.1079, 4355.211
237.5901, 4355.060
238.0722, 4342.798
238.5543, 4326.225
239.0364, 4316.139
239.5185, 4315.215
240.0006, 4317.197
240.4828, 4314.354
240.9649, 4305.766
241.4470, 4296.702
241.9291, 4283.182
242.4112, 4271.927
242.8933, 4272.852
243.3755, 4286.563
243.8576, 4299.080
244.3397, 4294.922
244.8218, 4269.852
245.3039, 4256.204
245.7860, 4263.359
246.2682, 4274.146
246.7503, 4276.817
247.2324, 4271.378
247.7145, 4265.151
248.1966, 4265.608
248.6787, 4272.880
249.1608, 4263.692
249.6430, 4219.766
250.1251, 4179.543
250.6072, 4166.681
251.0893, 4173.067
251.5714, 4173.212
252.0535, 4148.991
252.5357, 4104.677
253.0178, 4078.868
253.4999, 4085.050
253.9820, 4091.638
254.4641, 4095.893
254.9462, 4094.457
255.4284, 4080.150
255.9105, 4048.448
256.3926, 4006.380
256.8747, 3976.859
257.3568, 3971.289
257.8390, 3965.560
258.3211, 3956.799
258.8032, 3947.593
259.2853, 3944.308
259.7674, 3948.742
260.2495, 3951.376
260.7316, 3932.869
261.2137, 3872.841
261.6959, 3823.078
262.1780, 3785.609
262.6601, 3756.263
263.1422, 3736.601
263.6243, 3724.796
264.1064, 3711.103
264.5886, 3680.010
265.0707, 3618.978
265.5528, 3579.440
266.0349, 3577.247
266.5170, 3579.933
266.9991, 3575.952
267.4813, 3562.104
267.9634, 3536.289
268.4455, 3492.492
268.9276, 3428.276
269.4097, 3382.718
269.8918, 3378.855
270.3740, 3372.753
270.8561, 3350.088
271.3382, 3315.124
271.8203, 3278.887
272.3024, 3248.299
272.7845, 3222.380
273.2667, 3195.278
273.7488, 3162.536
274.2309, 3135.740
274.7130, 3123.827
275.1951, 3117.296
275.6772, 3103.022
276.1594, 3073.756
276.6415, 3037.842
277.1236, 3014.654
277.6057, 3011.526
278.0878, 3000.639
278.5699, 2964.552
279.0521, 2923.241
279.5342, 2893.447
280.0163, 2879.682
280.4984, 2873.521
280.9805, 2865.677
281.4626, 2855.867
281.9448, 2849.060
282.4269, 2854.304
282.9090, 2855.809
283.3911, 2837.619
283.8732, 2799.638
284.3553, 2764.222
284.8375, 2749.429
285.3196, 2751.330
285.8017, 2751.379
286.2838, 2748.375
286.7659, 2741.136
287.2480, 2725.684
287.7302, 2704.393
288.2123, 2687.322
288.6944, 2680.634
289.1765, 2679.854
289.6586, 2678.527
290.1407, 2676.696
290.6229, 2672.191
291.1050, 2661.985
291.5871, 2647.760
292.0692, 2634.560
292.5513, 2616.917
293.0334, 2605.276
293.5156, 2612.466
293.9977, 2635.948
294.4798, 2657.552
294.9619, 2668.142
295.4440, 2669.966
295.9261, 2670.291
296.4083, 2667.673
296.8904, 2665.903
297.3725, 2667.613
297.8546, 2671.101
298.3367, 2672.287
298.8188, 2669.261
299.3010, 2665.485
299.7831, 2667.217
300.2652, 2675.101
300.7473, 2686.642
301.2294, 2703.824
301.7115, 2723.310
302.1937, 2743.423
302.6758, 2763.331
303.1579, 2780.001
303.6400, 2789.276
304.1221, 2788.623
304.6042, 2793.789
305.0864, 2805.483
305.5685, 2821.429
306.0506, 2844.230
306.5327, 2870.804
307.0148, 2893.807
307.4969, 2907.914
307.9791, 2913.670
308.4612, 2918.093
308.9433, 2915.887
309.4254, 2918.352
309.9075, 2930.504
310.3896, 2947.464
310.8717, 2962.823
311.3539, 2973.601
311.8360, 2981.989
312.3181, 2993.946
312.8002, 3015.592
313.2823, 3027.998
313.7644, 3025.627
314.2466, 3017.230
314.7287, 3009.491
315.2108, 3003.397
315.6929, 2994.808
316.1750, 2977.093
316.6571, 2948.779
317.1393, 2925.718
317.6214, 2915.067
318.1035, 2903.287
318.5856, 2883.455
319.0677, 2856.754
319.5498, 2827.552
320.0320, 2795.191
320.5141, 2762.693
320.9962, 2741.030
321.4783, 2733.525
321.9604, 2728.662
322.4425, 2723.109
322.9247, 2715.570
323.4068, 2702.847
323.8889, 2680.194
324.3710, 2657.604
324.8531, 2650.457
325.3352, 2657.583
325.8174, 2652.782
326.2995, 2617.319
326.7816, 2572.218
327.2637, 2552.659
327.7458, 2564.361
328.2279, 2578.765
328.7101, 2586.590
329.1922, 2587.940
329.6743, 2581.090
330.1564, 2564.574
330.6385, 2546.450
331.1206, 2535.900
331.6028, 2533.603
332.0849, 2534.272
332.5670, 2544.595
333.0491, 2552.571
333.5312, 2547.696
334.0133, 2530.949
334.4955, 2510.099
334.9776, 2489.284
335.4597, 2469.248
335.9418, 2459.802
336.4239, 2470.676
336.9060, 2479.308
337.3882, 2481.990
337.8703, 2478.310
338.3524, 2466.259
338.8345, 2444.995
339.3166, 2419.539
339.7987, 2401.379
340.2809, 2395.904
340.7630, 2388.149
341.2451, 2379.360
341.7272, 2367.268
342.2093, 2349.947
342.6914, 2327.443
343.1736, 2301.483
343.6557, 2272.655
344.1378, 2240.506
344.6199, 2212.854
345.1020, 2190.365
345.5841, 2172.188
346.0663, 2162.436
346.5484, 2156.100
347.0305, 2143.836
347.5126, 2119.691
347.9947, 2088.344
348.4768, 2057.949
348.9590, 2027.135
349.4411, 2002.483
349.9232, 1990.661
350.4053, 1984.296
350.8874, 1977.199
351.3695, 1968.989
351.8517, 1957.719
352.3338, 1940.005
352.8159, 1917.504
353.2980, 1895.945
353.7801, 1875.244
354.2622, 1858.738
354.7444, 1853.410
355.2265, 1857.924
355.7086, 1859.940
356.1907, 1855.302
356.6728, 1847.715
357.1549, 1841.649
357.6371, 1836.939
358.1192, 1828.348
358.6013, 1809.848
359.0834, 1784.369
359.5655, 1774.037
360.0476, 1793.876
360.5297, 1808.904
361.0118, 1805.199
361.4940, 1791.193
361.9761, 1779.476
362.4582, 1774.748
362.9403, 1773.871
363.4224, 1771.340
363.9045, 1766.179
364.3867, 1761.246
364.8688, 1758.683
365.3509, 1754.634
365.8330, 1745.448
366.3151, 1732.068
366.7972, 1718.711
367.2794, 1708.918
367.7615, 1702.494
368.2436, 1697.203
368.7257, 1693.045
369.2078, 1690.109
369.6899, 1687.804
370.1721, 1686.778
370.6542, 1689.062
371.1363, 1696.449
371.6184, 1703.019
372.1005, 1697.719
372.5826, 1679.154
373.0648, 1666.439
373.5469, 1668.292
374.0290, 1674.075
374.5111, 1672.809
374.9932, 1664.432
375.4753, 1658.598
375.9575, 1664.688
376.4396, 1675.324
376.9217, 1674.247
377.4038, 1658.514
377.8859, 1644.224
378.3680, 1645.012
378.8502, 1658.598
379.3323, 1666.459
379.8144, 1666.817
380.2965, 1662.847
380.7786, 1652.760
381.2607, 1639.653
381.7429, 1630.751
382.2250, 1629.295
382.7071, 1632.148
383.1892, 1633.298
383.6713, 1632.659
384.1534, 1630.105
384.6356, 1621.031
385.1177, 1613.448
385.5998, 1614.923
386.0819, 1624.576
386.5640, 1635.077
387.0461, 1640.169
387.5283, 1639.970
388.0104, 1638.200
388.4925, 1633.564
388.9746, 1628.846
389.4567, 1625.801
389.9388, 1622.629
390.4210, 1615.557
390.9031, 1602.502
391.3852, 1590.448
391.8673, 1592.379
392.3494, 1610.392
392.8315, 1620.624
393.3137, 1613.524
393.7958, 1601.913
394.2779, 1594.069
394.7600, 1590.302
395.2421, 1592.009
395.7242, 1607.762
396.2064, 1626.530
396.6885, 1627.225
397.1706, 1607.939
397.6527, 1587.356
398.1348, 1575.198
398.6169, 1571.610
399.0991, 1574.620
399.5812, 1593.248
400.0633, 1606.537
400.5454, 1602.052
401.0275, 1588.007
401.5096, 1577.702
401.9918, 1575.170
402.4739, 1576.148
402.9560, 1574.725
403.4381, 1569.650
403.9202, 1566.234
404.4023, 1565.955
404.8845, 1565.666
405.3666, 1561.708
405.8487, 1556.345
406.3308, 1556.036
406.8129, 1565.855
407.2950, 1581.391
407.7772, 1586.649
408.2592, 1576.304
408.7414, 1566.127
409.2235, 1558.218
409.7056, 1552.373
410.1877, 1549.317
410.6698, 1548.989
411.1519, 1548.488
411.6341, 1544.157
412.1162, 1537.109
412.5983, 1533.762
413.0804, 1536.087
413.5625, 1538.786
414.0446, 1538.412
414.5268, 1535.513
415.0089, 1530.752
415.4910, 1519.974
415.9731, 1511.513
416.4552, 1513.819
416.9373, 1523.959
417.4195, 1532.340
417.9016, 1535.364
418.3837, 1534.961
418.8658, 1534.264
419.3479, 1533.158
419.8300, 1532.037
420.3122, 1531.218
420.7943, 1530.168
421.2764, 1527.128
421.7585, 1523.159
422.2406, 1522.960
422.7227, 1531.337
423.2049, 1545.458
423.6870, 1545.516
424.1691, 1514.769
424.6512, 1494.683
425.1333, 1502.236
425.6154, 1516.703
426.0976, 1515.510
426.5797, 1494.180
427.0618, 1472.846
427.5439, 1476.990
428.0260, 1504.208
428.5081, 1518.809
428.9903, 1512.874
429.4724, 1503.212
429.9545, 1500.711
430.4366, 1487.192
430.9187, 1506.079
431.4008, 1516.491
431.8830, 1518.881
432.3651, 1489.229
432.8472, 1500.953
433.3293, 1496.096
433.8114, 1490.558
434.2935, 1508.106
434.7757, 1483.114
435.2578, 1500.296
435.7399, 1500.643
436.2220, 1508.695
436.7041, 1500.063
437.1862, 1496.583
437.6684, 1509.794
438.1505, 1513.763
438.6326, 1503.210
439.1147, 1511.752
439.5968, 1486.177
440.0789, 1490.540
440.5611, 1507.820
441.0432, 1498.105
441.5253, 1506.952
442.0074, 1508.730
442.4895, 1478.382
442.9716, 1503.904
443.4538, 1505.264
443.9359, 1481.814
444.4180, 1505.422
444.9001, 1485.393
445.3822, 1480.940
445.8643, 1488.208
446.3465, 1483.257
446.8286, 1497.571
447.3107, 1493.325
447.7928, 1487.422
448.2749, 1488.755
448.7570, 1469.581
449.2392, 1488.451
449.7213, 1481.334
450.2034, 1487.135
450.6855, 1480.051
451.1676, 1474.566
451.6497, 1471.445
452.1319, 1475.081
452.6140, 1476.557
453.0961, 1468.555
453.5782, 1455.570
454.0603, 1447.013
454.5424, 1447.714
455.0246, 1453.713
455.5067, 1456.278
455.9888, 1454.048
456.4709, 1452.277
456.9530, 1453.113
457.4351, 1453.217
457.9172, 1449.278
458.3994, 1442.455
458.8815, 1437.838
459.3636, 1438.592
459.8457, 1443.320
460.3278, 1450.598
460.8099, 1460.621
461.2921, 1469.325
461.7742, 1476.051
462.2563, 1479.313
462.7384, 1475.563
463.2205, 1462.035
463.7026, 1451.180
464.1848, 1449.481
464.6669, 1450.419
465.1490, 1445.518
465.6311, 1434.971
466.1132, 1427.101
466.5953, 1429.027
467.0775, 1439.359
467.5596, 1445.697
468.0417, 1445.056
468.5238, 1443.974
469.0059, 1444.921
469.4880, 1444.791
469.9702, 1437.883
470.4523, 1424.250
470.9344, 1413.822
471.4165, 1422.001
471.8986, 1445.881
472.3807, 1451.836
472.8629, 1431.321
473.3450, 1410.026
473.8271, 1403.042
474.3092, 1404.872
474.7913, 1407.957
475.2734, 1410.899
475.7556, 1415.268
476.2377, 1424.268
476.7198, 1435.071
477.2019, 1442.130
477.6840, 1444.209
478.1661, 1441.100
478.6483, 1430.681
479.1304, 1411.427
479.6125, 1403.635
480.0946, 1423.764
480.5767, 1435.259
481.0588, 1415.108
481.5410, 1382.424
482.0231, 1366.044
482.5052, 1376.056
482.9873, 1396.784
483.4694, 1406.417
483.9515, 1403.555
484.4337, 1399.287
484.9158, 1389.793
485.3979, 1384.604
485.8800, 1393.029
486.3621, 1408.511
486.8442, 1416.455
487.3264, 1408.738
487.8085, 1397.022
488.2906, 1393.990
488.7727, 1396.916
489.2548, 1392.995
489.7369, 1376.970
490.2191, 1359.508
490.7012, 1353.949
491.1833, 1363.033
491.6654, 1370.436
492.1475, 1378.554
492.6296, 1382.682
493.1118, 1377.679
493.5939, 1367.500
494.0760, 1359.405
494.5581, 1356.646
495.0402, 1356.745
495.5223, 1354.798
496.0045, 1349.307
496.4866, 1348.168
496.9687, 1359.773
497.4508, 1367.614
497.9329, 1358.720
498.4150, 1339.852
498.8972, 1328.363
499.3793, 1334.962
499.8614, 1347.026
500.3435, 1348.919
500.8256, 1342.608
501.3077, 1340.710
501.7899, 1348.319
502.2720, 1357.923
502.7541, 1359.596
503.2362, 1351.558
503.7183, 1345.665
504.2004, 1343.275
504.6826, 1342.009
505.1647, 1342.609
505.6468, 1343.066
506.1289, 1338.169
506.6110, 1325.563
507.0931, 1311.974
507.5752, 1311.352
508.0573, 1328.859
508.5395, 1338.706
509.0216, 1334.795
509.5037, 1327.877
509.9858, 1320.518
510.4679, 1314.380
510.9500, 1313.230
511.4322, 1321.047
511.9143, 1330.463
512.3964, 1334.206
512.8785, 1332.748
513.3607, 1326.833
513.8428, 1315.251
514.3249, 1304.867
514.8070, 1305.146
515.2891, 1318.647
515.7712, 1324.016
516.2534, 1312.805
516.7355, 1302.604
517.2176, 1303.489
517.6997, 1310.075
518.1818, 1313.649
518.6639, 1310.814
519.1461, 1303.139
519.6282, 1290.446
520.1103, 1270.805
520.5924, 1260.768
521.0745, 1265.922
521.5566, 1274.106
522.0388, 1281.679
522.5209, 1287.400
523.0030, 1288.190
523.4851, 1280.400
523.9672, 1273.566
524.4493, 1279.646
524.9315, 1292.273
525.4136, 1292.414
525.8957, 1275.177
526.3778, 1256.828
526.8599, 1253.262
527.3420, 1264.899
527.8242, 1273.296
528.3063, 1278.232
528.7884, 1280.762
529.2705, 1279.796
529.7526, 1277.265
530.2347, 1275.287
530.7169, 1274.365
531.1990, 1273.649
531.6810, 1272.765
532.1631, 1271.554
532.6453, 1267.010
533.1274, 1256.280
533.6095, 1249.332
534.0916, 1255.572
534.5737, 1266.701
535.0558, 1270.314
535.5380, 1263.118
536.0201, 1256.305
536.5022, 1254.165
536.9843, 1255.718
537.4664, 1262.460
537.9485, 1273.134
538.4307, 1278.438
538.9128, 1270.403
539.3949, 1253.384
539.8770, 1248.474
540.3591, 1271.203
540.8412, 1281.658
541.3234, 1266.603
541.8055, 1247.528
542.2876, 1239.530
542.7697, 1242.590
543.2518, 1248.458
543.7339, 1252.989
544.2161, 1255.988
544.6982, 1258.077
545.1803, 1259.328
545.6624, 1253.646
546.1445, 1234.467
546.6266, 1213.669
547.1088, 1210.003
547.5909, 1225.113
548.0730, 1238.851
548.5551, 1251.923
549.0372, 1260.238
549.5193, 1257.978
550.0015, 1249.489
550.4836, 1244.623
550.9657, 1247.607
551.4478, 1252.564
551.9299, 1247.937
552.4120, 1230.396
552.8942, 1222.157
553.3763, 1230.020
553.8584, 1239.611
554.3405, 1245.253
554.8226, 1247.346
555.3047, 1246.233
555.7869, 1240.831
556.2690, 1235.053
556.7511, 1232.061
557.2332, 1230.697
557.7153, 1228.973
558.1974, 1226.508
558.6796, 1222.167
559.1617, 1214.013
559.6438, 1202.956
560.1259, 1198.468
560.6080, 1207.537
561.0901, 1214.538
561.5723, 1217.118
562.0544, 1217.609
562.5365, 1218.569
563.0186, 1219.880
563.5007, 1218.832
563.9828, 1211.279
564.4650, 1200.864
564.9471, 1198.069
565.4292, 1203.602
565.9113, 1207.266
566.3934, 1205.256
566.8755, 1199.672
567.3577, 1192.032
567.8398, 1181.400
568.3219, 1176.215
568.8040, 1180.758
569.2861, 1188.129
569.7682, 1196.008
570.2504, 1203.039
570.7325, 1207.625
571.2146, 1209.056
571.6967, 1207.323
572.1788, 1200.975
572.6609, 1188.758
573.1431, 1181.874
573.6252, 1183.221
574.1073, 1185.985
574.5894, 1187.907
575.0715, 1188.614
575.5536, 1186.630
576.0358, 1179.762
576.5179, 1175.670
577.0000, 1181.810
577.4821, 1192.325
577.9642, 1198.589
578.4464, 1199.563
578.9285, 1197.635
579.4106, 1194.189
579.8927, 1189.653
580.3748, 1185.947
580.8569, 1183.729
581.3391, 1181.256
581.8212, 1178.021
582.3033, 1174.843
582.7854, 1173.844
583.2675, 1173.639
583.7496, 1168.953
584.2318, 1152.491
584.7139, 1135.894
585.1960, 1138.211
585.6781, 1155.860
586.1602, 1168.889
586.6423, 1171.623
587.1245, 1169.170
587.6066, 1166.414
588.0887, 1163.302
588.5708, 1160.720
589.0529, 1160.576
589.5350, 1158.642
590.0172, 1148.447
590.4993, 1138.707
590.9814, 1142.370
591.4635, 1160.234
591.9456, 1176.748
592.4277, 1175.135
592.9099, 1160.833
593.3920, 1156.542
593.8741, 1164.478
594.3562, 1167.104
594.8383, 1154.277
595.3204, 1135.440
595.8026, 1126.222
596.2847, 1127.349
596.7668, 1129.270
597.2489, 1129.895
597.7310, 1131.510
598.2131, 1139.231
598.6953, 1148.386
599.1774, 1147.151
599.6595, 1131.118
600.1416, 1113.514
600.6237, 1116.623
601.1058, 1141.808
601.5880, 1155.411
602.0701, 1152.689
602.5522, 1146.307
603.0343, 1140.734
603.5164, 1136.306
603.9985, 1134.085
604.4807, 1135.314
604.9628, 1134.940
605.4449, 1127.447
605.9270, 1119.783
606.4091, 1119.689
606.8912, 1126.567
607.3734, 1137.019
607.8555, 1149.935
608.3376, 1159.820
608.8197, 1150.428
609.3018, 1111.264
609.7839, 1091.274
610.2661, 1107.401
610.7482, 1127.352
611.2303, 1135.615
611.7124, 1135.220
612.1945, 1132.069
612.6766, 1125.765
613.1588, 1121.236
613.6409, 1124.236
614.1230, 1130.036
614.6051, 1130.153
615.0872, 1124.002
615.5693, 1117.633
616.0515, 1115.311
616.5336, 1116.233
617.0157, 1116.968
617.4978, 1115.086
617.9799, 1118.112
618.4620, 1136.543
618.9442, 1151.132
619.4263, 1147.362
619.9084, 1130.555
620.3905, 1117.691
620.8726, 1116.989
621.3547, 1119.492
621.8369, 1118.144
622.3190, 1113.763
622.8011, 1107.262
623.2832, 1098.959
623.7653, 1092.121
624.2474, 1089.433
624.7296, 1090.680
625.2117, 1094.309
625.6938, 1102.906
626.1759, 1109.686
626.6580, 1116.047
627.1401, 1118.870
627.6223, 1112.821
628.1044, 1100.596
628.5865, 1092.874
629.0686, 1097.897
629.5507, 1105.539
630.0328, 1103.203
630.5149, 1093.907
630.9970, 1087.689
631.4791, 1086.979
631.9612, 1088.221
632.4434, 1088.249
632.9255, 1087.106
633.4076, 1085.576
633.8897, 1083.701
634.3718, 1081.341
634.8539, 1077.744
635.3361, 1074.228
635.8182, 1071.541
636.3003, 1069.880
636.7824, 1069.558
637.2645, 1071.403
637.7466, 1073.974
638.2288, 1074.691
638.7109, 1074.445
639.1930, 1078.043
639.6751, 1087.205
640.1572, 1094.699
640.6393, 1092.721
641.1215, 1081.581
641.6036, 1072.578
642.0857, 1061.286
642.5678, 1058.462
643.0499, 1076.289
643.5320, 1094.907
644.0142, 1095.968
644.4963, 1080.946
