##NAMES=Pabstite
##RRUFFID=R060386
##IDEAL CHEMISTRY=BaSnSi_3_O_9_
##LOCALITY=Kalkar Quarry, Santa Cruz County, California, USA
##OWNER=RRUFF
##SOURCE=Michael Scott
##DESCRIPTION=Colorless, with a faint hint of pink, lamellar crystals associated with actinolite, diopside and calcite. Strongly fluorescent under short-wave ultraviolet light
##STATUS=The identification of this mineral is confirmed by single-crystal X-ray diffraction and chemical analysis.
##URL=rruff.info/R060386
##MEASURED CHEMISTRY=Ba_1.00_(Sn_0.76_Ti_0.24_)_Î£=1_Si_3.00_O_9_; trace amounts of Fe
217.4427, 23918.55
217.9249, 23919.96
218.4070, 23923.83
218.8891, 23915.41
219.3712, 23893.83
219.8533, 23890.86
220.3354, 23911.36
220.8176, 23947.38
221.2997, 24012.90
221.7818, 24092.58
222.2639, 24157.91
222.7460, 24187.11
223.2281, 24183.84
223.7103, 24184.97
224.1924, 24181.71
224.6745, 24194.10
225.1566, 24232.94
225.6387, 24288.60
226.1208, 24349.07
226.6030, 24408.45
227.0851, 24464.59
227.5672, 24508.92
228.0493, 24545.52
228.5314, 24562.15
229.0135, 24554.62
229.4957, 24528.47
229.9778, 24487.43
230.4599, 24432.77
230.9420, 24369.55
231.4241, 24307.95
231.9062, 24238.79
232.3884, 24189.53
232.8705, 24175.25
233.3526, 24172.83
233.8347, 24161.12
234.3168, 24133.42
234.7989, 24099.63
235.2811, 24075.97
235.7632, 24062.42
236.2453, 24060.00
236.7274, 24085.80
237.2095, 24109.59
237.6916, 24098.45
238.1738, 24051.74
238.6559, 24011.26
239.1380, 24038.79
239.6201, 24161.33
240.1022, 24251.86
240.5843, 24278.12
241.0665, 24294.29
241.5486, 24326.21
242.0307, 24374.26
242.5128, 24422.65
242.9949, 24448.79
243.4770, 24447.94
243.9592, 24483.56
244.4413, 24592.49
244.9234, 24706.01
245.4055, 24800.90
245.8876, 24879.61
246.3697, 24952.26
246.8519, 25022.92
247.3340, 25093.55
247.8161, 25176.88
248.2982, 25270.58
248.7803, 25383.09
249.2624, 25515.39
249.7446, 25666.86
250.2267, 25836.80
250.7088, 26028.67
251.1909, 26236.18
251.6730, 26443.31
252.1551, 26653.60
252.6373, 26857.35
253.1194, 27044.97
253.6015, 27227.46
254.0836, 27415.22
254.5657, 27611.05
255.0478, 27816.62
255.5300, 28038.42
256.0121, 28279.93
256.4942, 28522.47
256.9763, 28752.94
257.4584, 28986.68
257.9406, 29235.13
258.4227, 29500.26
258.9048, 29785.16
259.3869, 30108.03
259.8690, 30472.26
260.3511, 30804.29
260.8333, 31042.31
261.3154, 31291.22
261.7975, 31651.69
262.2796, 32117.63
262.7617, 32564.97
263.2438, 32908.83
263.7260, 33159.72
264.2081, 33379.94
264.6902, 33595.38
265.1723, 33744.11
265.6544, 33791.36
266.1365, 33746.50
266.6187, 33630.14
267.1008, 33455.07
267.5829, 33214.54
268.0650, 32890.55
268.5471, 32477.56
269.0292, 31999.97
269.5114, 31433.58
269.9935, 30818.79
270.4756, 30214.89
270.9577, 29627.00
271.4398, 29064.81
271.9219, 28538.07
272.4041, 28045.90
272.8862, 27588.22
273.3683, 27164.10
273.8504, 26779.26
274.3325, 26438.21
274.8146, 26148.58
275.2968, 25888.66
275.7789, 25650.04
276.2610, 25430.87
276.7431, 25219.23
277.2252, 25005.66
277.7073, 24805.93
278.1895, 24647.55
278.6716, 24534.74
279.1537, 24431.40
279.6358, 24321.17
280.1179, 24213.12
280.6000, 24122.84
281.0822, 24053.40
281.5643, 24002.80
282.0464, 23978.59
282.5285, 23985.20
283.0106, 23963.02
283.4927, 23876.26
283.9749, 23776.31
284.4570, 23711.03
284.9391, 23683.12
285.4212, 23664.55
285.9033, 23633.33
286.3854, 23589.74
286.8676, 23552.36
287.3497, 23507.44
287.8318, 23481.09
288.3139, 23508.55
288.7960, 23567.18
289.2781, 23593.94
289.7603, 23549.74
290.2424, 23454.30
290.7245, 23391.32
291.2066, 23382.73
291.6887, 23376.76
292.1708, 23375.33
292.6530, 23368.99
293.1351, 23345.27
293.6172, 23299.90
294.0993, 23239.03
294.5814, 23171.53
295.0635, 23075.29
295.5457, 23017.29
296.0278, 23024.41
296.5099, 23047.55
296.9920, 23055.28
297.4741, 23042.74
297.9562, 23019.85
298.4384, 22995.08
298.9205, 22966.74
299.4026, 22948.50
299.8847, 22954.46
300.3668, 22956.16
300.8489, 22937.26
301.3310, 22906.39
301.8131, 22882.29
302.2953, 22877.20
302.7774, 22888.83
303.2595, 22907.37
303.7416, 22948.74
304.2237, 22972.23
304.7058, 22957.30
305.1880, 22927.60
305.6701, 22906.10
306.1522, 22901.04
306.6343, 22910.88
307.1164, 22939.39
307.5985, 22996.51
308.0807, 23034.67
308.5628, 23038.07
309.0449, 23024.26
309.5270, 22994.96
310.0091, 22953.07
310.4912, 22915.23
310.9734, 22897.54
311.4555, 22898.31
311.9376, 22899.16
312.4197, 22896.78
312.9018, 22897.73
313.3839, 22908.02
313.8661, 22924.58
314.3482, 22939.41
314.8303, 22952.03
315.3124, 22959.38
315.7945, 22954.46
316.2766, 22935.81
316.7588, 22913.35
317.2409, 22889.63
317.7230, 22866.48
318.2051, 22846.91
318.6872, 22831.72
319.1693, 22819.57
319.6515, 22805.81
320.1336, 22793.13
320.6157, 22792.78
321.0978, 22807.53
321.5799, 22838.11
322.0620, 22891.98
322.5442, 22973.00
323.0263, 23046.13
323.5084, 23106.75
323.9905, 23152.05
324.4726, 23172.19
324.9547, 23165.79
325.4369, 23155.73
325.9190, 23163.60
326.4011, 23191.54
326.8832, 23220.02
327.3653, 23250.77
327.8474, 23280.58
328.3296, 23301.87
328.8117, 23319.96
329.2938, 23350.18
329.7759, 23402.38
330.2580, 23472.52
330.7401, 23540.76
331.2223, 23625.53
331.7044, 23685.68
332.1865, 23678.47
332.6686, 23662.23
333.1507, 23718.17
333.6328, 23864.90
334.1150, 24026.99
334.5971, 24077.27
335.0792, 23927.73
335.5613, 23908.52
336.0434, 24144.19
336.5255, 24383.97
337.0077, 24478.62
337.4898, 24454.74
337.9719, 24437.25
338.4540, 24525.32
338.9361, 24708.21
339.4182, 24894.28
339.9004, 25113.02
340.3825, 25285.87
340.8646, 25403.62
341.3467, 25464.85
341.8288, 25466.16
342.3109, 25405.03
342.7931, 25291.25
343.2752, 25132.04
343.7573, 24922.71
344.2394, 24696.28
344.7215, 24420.23
345.2036, 24162.73
345.6858, 23988.46
346.1679, 23897.95
346.6500, 23812.86
347.1321, 23656.99
347.6142, 23469.17
348.0963, 23365.51
348.5785, 23375.03
349.0606, 23414.10
349.5427, 23434.03
350.0248, 23433.04
350.5069, 23400.33
350.9890, 23283.34
351.4712, 23173.81
351.9533, 23161.32
352.4354, 23229.52
352.9175, 23288.80
353.3996, 23291.30
353.8817, 23265.53
354.3639, 23291.85
354.8460, 23397.43
355.3281, 23485.57
355.8102, 23505.94
356.2923, 23510.61
356.7744, 23572.96
357.2566, 23705.35
357.7387, 23844.27
358.2208, 23914.54
358.7029, 23897.15
359.1850, 23917.62
359.6671, 23975.31
360.1493, 24064.50
360.6314, 24198.69
361.1135, 24361.81
361.5956, 24524.88
362.0777, 24672.55
362.5598, 24804.52
363.0420, 24917.67
363.5241, 24981.37
364.0062, 25076.97
364.4883, 25219.55
364.9704, 25390.15
365.4525, 25580.32
365.9347, 25784.71
366.4168, 25991.29
366.8989, 26181.15
367.3810, 26353.98
367.8631, 26538.93
368.3452, 26734.89
368.8274, 26948.48
369.3095, 27202.39
369.7916, 27476.18
370.2737, 27718.56
370.7558, 27889.66
371.2379, 28029.09
371.7201, 28205.04
372.2022, 28421.29
372.6843, 28635.22
373.1664, 28832.58
373.6485, 29013.34
374.1306, 29184.88
374.6128, 29354.23
375.0949, 29489.10
375.5770, 29572.71
376.0591, 29608.98
376.5412, 29604.76
377.0233, 29561.38
377.5055, 29477.72
377.9876, 29349.74
378.4697, 29172.74
378.9518, 28969.66
379.4339, 28744.02
379.9160, 28489.92
380.3982, 28189.75
380.8803, 27857.83
381.3624, 27532.14
381.8445, 27231.71
382.3266, 26956.58
382.8087, 26702.23
383.2909, 26490.13
383.7730, 26274.48
384.2551, 26046.00
384.7372, 25819.50
385.2193, 25601.54
385.7014, 25396.17
386.1836, 25209.38
386.6657, 25049.42
387.1478, 24918.07
387.6299, 24790.77
388.1120, 24659.88
388.5941, 24542.13
389.0763, 24440.58
389.5584, 24355.82
390.0405, 24290.40
390.5226, 24246.02
391.0047, 24217.33
391.4868, 24202.52
391.9690, 24205.02
392.4511, 24185.91
392.9332, 24101.11
393.4153, 24022.69
393.8974, 24030.58
394.3795, 24124.28
394.8617, 24207.36
395.3438, 24220.04
395.8259, 24196.35
396.3080, 24194.70
396.7901, 24221.20
397.2722, 24248.52
397.7544, 24259.48
398.2365, 24254.75
398.7186, 24243.70
399.2007, 24226.68
399.6828, 24203.34
400.1649, 24177.20
400.6471, 24143.82
401.1292, 24097.95
401.6113, 24037.53
402.0934, 23958.02
402.5755, 23850.70
403.0576, 23708.05
403.5398, 23559.34
404.0219, 23392.63
404.5040, 23230.30
404.9861, 23084.88
405.4682, 22953.06
405.9503, 22824.31
406.4325, 22690.54
406.9146, 22557.95
407.3967, 22454.13
407.8788, 22399.69
408.3609, 22331.90
408.8430, 22221.87
409.3252, 22105.47
409.8073, 22006.48
410.2894, 21929.71
410.7715, 21873.95
411.2536, 21853.95
411.7357, 21858.87
412.2179, 21828.49
412.7000, 21745.93
413.1821, 21659.63
413.6642, 21596.66
414.1463, 21554.33
414.6284, 21534.14
415.1106, 21550.89
415.5927, 21571.89
416.0748, 21575.77
416.5569, 21564.75
417.0390, 21544.36
417.5211, 21515.61
418.0033, 21481.27
418.4854, 21443.74
418.9675, 21399.21
419.4496, 21366.09
419.9317, 21356.88
420.4138, 21349.83
420.8960, 21325.49
421.3781, 21289.21
421.8602, 21261.80
422.3423, 21257.43
422.8244, 21270.51
423.3065, 21277.05
423.7887, 21275.14
424.2708, 21269.07
424.7529, 21266.59
425.2350, 21255.84
425.7171, 21210.36
426.1992, 21135.15
426.6814, 21083.49
427.1635, 21129.61
427.6456, 21261.59
428.1277, 21329.01
428.6098, 21310.64
429.0919, 21267.37
429.5741, 21217.03
430.0562, 21166.08
430.5383, 21125.25
431.0204, 21099.14
431.5025, 21079.06
431.9846, 21053.41
432.4668, 21027.05
432.9489, 21021.23
433.4310, 21045.78
433.9131, 21077.18
434.3952, 21087.70
434.8773, 21075.17
435.3595, 21061.22
435.8416, 21037.09
436.3237, 21020.73
436.8058, 21033.83
437.2879, 21063.94
437.7701, 21078.82
438.2522, 21061.46
438.7343, 21022.16
439.2164, 20985.13
439.6985, 20935.85
440.1806, 20916.80
440.6628, 20949.48
441.1449, 20991.33
441.6270, 21021.82
442.1091, 21036.56
442.5912, 21033.68
443.0733, 21004.16
443.5555, 20958.82
444.0376, 20943.12
444.5197, 20968.47
445.0018, 20991.54
445.4839, 20996.06
445.9660, 20989.88
446.4482, 20979.07
446.9303, 20964.12
447.4124, 20946.72
447.8945, 20914.65
448.3766, 20883.47
448.8587, 20896.72
449.3409, 20963.76
449.8230, 21024.34
450.3051, 21025.73
450.7872, 20975.22
451.2693, 20953.00
451.7514, 20974.91
452.2336, 21004.21
452.7157, 21033.17
453.1978, 21060.75
453.6799, 21085.67
454.1620, 21107.59
454.6441, 21127.04
455.1263, 21143.21
455.6084, 21153.40
456.0905, 21175.40
456.5726, 21238.47
457.0547, 21282.91
457.5368, 21265.39
458.0190, 21223.12
458.5011, 21218.38
458.9832, 21280.85
459.4653, 21373.36
459.9474, 21445.26
460.4295, 21495.99
460.9117, 21544.76
461.3938, 21586.73
461.8759, 21639.72
462.3580, 21729.06
462.8401, 21846.82
463.3222, 21951.84
463.8044, 22038.33
464.2865, 22103.80
464.7686, 22134.09
465.2507, 22138.28
465.7328, 22149.74
466.2149, 22182.12
466.6971, 22232.57
467.1792, 22298.21
467.6613, 22407.15
468.1434, 22468.81
468.6255, 22444.73
469.1076, 22407.84
469.5898, 22405.97
470.0719, 22431.75
470.5540, 22452.73
471.0361, 22448.98
471.5182, 22425.29
472.0003, 22395.01
472.4825, 22359.01
472.9646, 22314.53
473.4467, 22242.02
473.9288, 22174.82
474.4109, 22151.43
474.8930, 22165.29
475.3752, 22149.40
475.8573, 22038.72
476.3394, 21884.60
476.8215, 21777.10
477.3036, 21718.85
477.7857, 21663.67
478.2679, 21589.29
478.7500, 21503.03
479.2321, 21417.32
479.7142, 21316.58
480.1963, 21253.85
480.6784, 21285.54
481.1606, 21328.49
481.6427, 21289.68
482.1248, 21177.14
482.6069, 21079.30
483.0890, 21065.88
483.5711, 21117.96
484.0533, 21128.69
484.5354, 21069.79
485.0175, 21014.56
485.4996, 20975.51
485.9817, 20942.43
486.4638, 20905.87
486.9460, 20865.60
487.4281, 20831.06
487.9102, 20813.14
488.3923, 20806.40
488.8744, 20793.30
489.3565, 20772.21
489.8387, 20753.11
490.3208, 20737.36
490.8029, 20729.34
491.2850, 20738.69
491.7671, 20774.48
492.2492, 20801.31
492.7314, 20801.30
493.2135, 20789.28
493.6956, 20777.95
494.1777, 20770.55
494.6598, 20772.66
495.1419, 20790.71
495.6241, 20820.49
496.1062, 20835.08
496.5883, 20825.29
497.0704, 20812.14
497.5525, 20787.62
498.0346, 20767.59
498.5168, 20766.24
498.9989, 20784.27
499.4810, 20811.63
499.9631, 20847.06
500.4452, 20885.01
500.9273, 20898.34
501.4095, 20878.79
501.8916, 20870.82
502.3737, 20907.04
502.8558, 20958.24
503.3379, 20980.31
503.8200, 20970.20
504.3022, 20940.06
504.7843, 20867.51
505.2664, 20792.72
505.7485, 20766.56
506.2306, 20789.25
506.7127, 20830.35
507.1949, 20872.65
507.6770, 20912.94
508.1591, 20936.43
508.6412, 20925.24
509.1233, 20923.17
509.6054, 20922.25
510.0876, 20938.51
510.5697, 20993.58
511.0518, 21080.49
511.5339, 21165.56
512.0161, 21220.96
512.4982, 21259.35
512.9803, 21310.25
513.4624, 21370.09
513.9445, 21463.49
514.4266, 21605.76
514.9088, 21781.82
515.3909, 21971.52
515.8730, 22175.36
516.3551, 22387.33
516.8372, 22608.91
517.3193, 22835.75
517.8015, 23049.62
518.2836, 23262.49
518.7657, 23530.06
519.2478, 23884.84
519.7299, 24293.49
520.2120, 24675.13
520.6942, 25004.82
521.1763, 25357.89
521.6584, 25748.12
522.1405, 26145.04
522.6226, 26505.82
523.1047, 26861.47
523.5869, 27288.29
524.0690, 27845.36
524.5511, 28456.23
525.0332, 28974.21
525.5153, 29400.38
525.9974, 29913.20
526.4796, 30581.63
526.9617, 31307.03
527.4438, 31973.02
527.9259, 32591.35
528.4080, 33261.10
528.8901, 34068.14
529.3723, 34860.40
529.8544, 35608.15
530.3365, 36266.65
530.8186, 36759.06
531.3007, 37060.55
531.7828, 37174.99
532.2650, 37113.54
532.7471, 36882.78
533.2292, 36431.66
533.7113, 35700.34
534.1934, 34795.28
534.6755, 33658.43
535.1577, 32406.75
535.6398, 31171.28
536.1219, 29979.87
536.6040, 28852.73
537.0861, 27796.57
537.5682, 26820.86
538.0504, 25972.24
538.5325, 25267.15
539.0146, 24637.55
539.4967, 24039.76
539.9788, 23484.87
540.4609, 23033.95
540.9431, 22738.05
541.4252, 22457.49
541.9073, 22150.15
542.3894, 21854.80
542.8715, 21611.07
543.3536, 21419.08
543.8358, 21250.29
544.3179, 21080.98
544.8000, 20916.88
545.2821, 20786.64
545.7642, 20702.79
546.2463, 20618.76
546.7285, 20518.38
547.2106, 20417.57
547.6926, 20328.22
548.1747, 20250.45
548.6569, 20176.63
549.1390, 20098.84
549.6211, 20027.36
550.1032, 19974.40
550.5853, 19938.34
551.0674, 19915.41
551.5496, 19905.91
552.0317, 19897.76
552.5138, 19869.50
552.9959, 19809.70
553.4780, 19768.40
553.9601, 19732.29
554.4423, 19725.61
554.9244, 19776.11
555.4065, 19856.87
555.8886, 19921.44
556.3707, 19952.23
556.8528, 19987.58
557.3350, 20061.20
557.8171, 20175.90
558.2992, 20359.25
558.7813, 20622.46
559.2634, 20927.97
559.7455, 21262.34
560.2277, 21621.25
560.7098, 21983.07
561.1919, 22349.89
561.6740, 22717.46
562.1561, 23090.05
562.6382, 23459.07
563.1204, 23804.85
563.6025, 24134.65
564.0846, 24490.46
564.5667, 24909.53
565.0488, 25375.58
565.5309, 25817.68
566.0131, 26184.61
566.4952, 26656.05
566.9773, 27299.28
567.4594, 28035.43
567.9415, 28810.87
568.4236, 29634.88
568.9058, 30557.94
569.3879, 31630.13
569.8700, 32790.54
570.3521, 33997.05
570.8342, 35247.63
571.3163, 36588.37
571.7985, 38052.43
572.2806, 39437.99
572.7627, 40553.08
573.2448, 41445.86
573.7269, 41618.34
574.2090, 40899.80
574.6912, 39705.24
575.1733, 37912.04
575.6554, 35814.13
576.1375, 33638.02
576.6196, 31460.40
577.1017, 29409.41
577.5839, 27553.61
578.0660, 25914.67
578.5481, 24585.07
579.0302, 23580.56
579.5123, 22778.47
579.9944, 22159.46
580.4766, 21684.43
580.9587, 21300.97
581.4408, 21017.81
581.9229, 20759.85
582.4050, 20512.29
582.8871, 20294.05
583.3693, 20122.99
583.8514, 19991.50
584.3335, 19881.61
584.8156, 19786.23
585.2977, 19702.12
585.7798, 19623.50
586.2620, 19550.26
586.7441, 19488.44
587.2262, 19449.79
587.7083, 19402.61
588.1904, 19320.98
588.6725, 19220.92
589.1547, 19127.16
589.6368, 19042.39
590.1189, 18964.49
590.6010, 18891.25
591.0831, 18824.71
591.5652, 18763.48
592.0474, 18710.20
592.5295, 18679.71
593.0116, 18684.75
593.4937, 18711.80
593.9758, 18720.30
594.4579, 18710.38
594.9401, 18681.51
595.4222, 18606.08
595.9043, 18536.85
596.3864, 18504.15
596.8685, 18498.91
597.3506, 18496.05
597.8328, 18487.38
598.3149, 18476.31
598.7970, 18469.21
599.2791, 18461.78
599.7612, 18441.56
600.2433, 18406.03
600.7255, 18361.75
601.2076, 18308.19
601.6897, 18251.13
602.1718, 18238.65
602.6539, 18336.80
603.1360, 18389.02
603.6182, 18348.44
604.1003, 18286.32
604.5824, 18254.07
605.0645, 18251.42
605.5466, 18251.92
606.0287, 18244.32
606.5109, 18226.22
606.9930, 18180.62
607.4751, 18114.23
607.9572, 18088.09
608.4393, 18125.77
608.9214, 18173.38
609.4036, 18174.86
609.8857, 18129.90
610.3678, 18100.82
610.8499, 18089.42
611.3320, 18089.92
611.8141, 18120.04
612.2963, 18149.50
612.7784, 18146.72
613.2605, 18109.81
613.7426, 18057.45
614.2247, 17994.75
614.7068, 17934.01
615.1890, 17908.68
615.6711, 17919.97
616.1532, 17941.25
616.6353, 17968.96
617.1174, 17996.70
617.5995, 18017.37
618.0817, 18030.83
618.5638, 18041.51
619.0459, 18050.37
619.5280, 18055.58
620.0101, 18052.70
620.4922, 18047.62
620.9744, 18050.21
621.4565, 18060.68
621.9386, 18066.39
622.4207, 18050.47
622.9028, 18023.02
623.3849, 18027.17
623.8671, 18068.14
624.3492, 18111.30
624.8313, 18151.35
625.3134, 18183.47
625.7955, 18194.98
626.2776, 18187.32
626.7598, 18193.65
627.2419, 18226.22
627.7240, 18265.37
628.2061, 18302.11
628.6882, 18338.63
629.1703, 18382.58
629.6525, 18433.37
630.1346, 18475.99
630.6167, 18493.54
631.0988, 18490.50
631.5809, 18492.57
632.0630, 18501.62
632.5452, 18508.15
633.0273, 18505.48
633.5094, 18502.82
633.9915, 18513.89
634.4736, 18537.63
634.9557, 18551.72
635.4379, 18539.56
635.9200, 18529.37
636.4021, 18554.54
636.8842, 18585.58
637.3663, 18573.02
637.8484, 18507.27
638.3306, 18419.35
638.8127, 18339.47
639.2948, 18264.54
639.7769, 18174.74
640.2590, 18062.84
640.7411, 17961.01
641.2233, 17881.61
641.7054, 17813.80
642.1875, 17742.49
642.6696, 17668.90
643.1517, 17612.30
643.6339, 17594.29
644.1160, 17575.37
644.5981, 17526.66
645.0802, 17465.82
645.5623, 17424.01
646.0444, 17405.61
646.5266, 17385.73
647.0087, 17338.17
647.4908, 17271.89
647.9729, 17232.80
648.4550, 17229.68
648.9371, 17217.72
649.4193, 17169.43
649.9014, 17126.26
650.3835, 17142.76
650.8656, 17207.56
651.3477, 17238.40
651.8298, 17185.27
652.3120, 17136.71
652.7941, 17152.11
653.2762, 17188.06
653.7583, 17172.94
654.2404, 17105.32
654.7225, 17058.23
655.2047, 17100.25
655.6868, 17194.76
656.1689, 17214.37
656.6510, 17146.42
657.1331, 17078.01
657.6152, 17012.77
658.0974, 16973.04
658.5795, 17002.03
659.0616, 17080.48
659.5437, 17120.62
660.0258, 17084.00
660.5079, 17046.23
660.9901, 17028.85
661.4722, 17025.60
661.9543, 17039.67
662.4364, 17063.22
662.9185, 17068.74
663.4006, 17033.58
663.8828, 16981.77
664.3649, 16967.71
664.8470, 16992.60
665.3291, 17012.63
665.8112, 17013.25
666.2933, 17027.92
666.7755, 17092.83
667.2576, 17192.86
667.7397, 17262.23
668.2218, 17296.56
668.7039, 17307.77
669.1860, 17271.38
669.6682, 17234.59
670.1503, 17249.38
670.6324, 17296.39
671.1145, 17317.05
671.5966, 17282.33
672.0787, 17210.33
672.5609, 17105.03
673.0430, 16976.77
673.5251, 16909.90
674.0072, 16921.42
674.4893, 16939.43
674.9714, 16920.83
675.4536, 16880.27
675.9357, 16856.58
676.4178, 16862.04
676.8999, 16857.29
677.3820, 16835.91
677.8641, 16809.60
678.3463, 16763.48
678.8284, 16723.67
679.3105, 16743.34
679.7926, 16839.22
680.2747, 16934.46
680.7568, 16954.40
681.2390, 16920.29
681.7211, 16876.94
682.2032, 16826.96
682.6853, 16773.68
683.1674, 16716.25
683.6495, 16663.82
684.1317, 16631.71
684.6138, 16624.77
685.0959, 16612.80
685.5780, 16584.43
686.0601, 16564.55
686.5422, 16578.45
687.0244, 16592.00
687.5065, 16552.93
687.9886, 16462.71
688.4707, 16405.10
688.9528, 16466.59
689.4349, 16554.99
689.9171, 16556.76
690.3992, 16497.89
690.8813, 16458.24
691.3634, 16459.35
691.8455, 16467.16
692.3276, 16445.80
692.8098, 16400.21
693.2919, 16376.29
693.7740, 16387.95
694.2561, 16390.30
694.7382, 16365.50
695.2203, 16337.44
695.7025, 16314.05
696.1846, 16300.00
696.6667, 16312.99
697.1488, 16389.88
697.6309, 16445.83
698.1130, 16416.79
698.5952, 16351.81
699.0773, 16307.02
699.5594, 16288.95
700.0415, 16283.96
700.5236, 16284.32
701.0057, 16288.82
701.4879, 16298.14
701.9700, 16313.21
702.4521, 16312.39
702.9342, 16287.50
703.4163, 16263.17
703.8984, 16258.62
704.3806, 16262.66
704.8627, 16244.48
705.3448, 16187.47
705.8269, 16157.24
706.3090, 16184.34
706.7911, 16218.91
707.2733, 16231.87
707.7554, 16231.38
708.2375, 16239.20
708.7196, 16260.69
709.2017, 16269.50
709.6838, 16226.30
