##NAMES=Pabstite
##RRUFFID=R060386
##IDEAL CHEMISTRY=BaSnSi_3_O_9_
##LOCALITY=Kalkar Quarry, Santa Cruz County, California, USA
##OWNER=RRUFF
##SOURCE=Michael Scott
##DESCRIPTION=Colorless, with a faint hint of pink, lamellar crystals associated with actinolite, diopside and calcite. Strongly fluorescent under short-wave ultraviolet light
##STATUS=The identification of this mineral is confirmed by single-crystal X-ray diffraction and chemical analysis.
##URL=rruff.info/R060386
##MEASURED CHEMISTRY=Ba_1.00_(Sn_0.76_Ti_0.24_)_Î£=1_Si_3.00_O_9_; trace amounts of Fe
187.2669, 29022.25
187.7491, 29286.31
188.2312, 29525.40
188.7133, 29749.05
189.1954, 30001.42
189.6775, 30284.82
190.1596, 30579.88
190.6418, 30866.62
191.1239, 31144.18
191.6060, 31426.64
192.0881, 31746.41
192.5702, 32090.85
193.0524, 32341.79
193.5345, 32487.22
194.0166, 32569.53
194.4987, 32653.57
194.9808, 32742.06
195.4629, 32790.99
195.9451, 32750.28
196.4272, 32622.26
196.9093, 32567.17
197.3914, 32603.89
197.8735, 32691.78
198.3556, 32753.92
198.8378, 32785.16
199.3199, 32821.86
199.8020, 32866.43
200.2841, 32913.67
200.7662, 33047.52
201.2483, 33292.78
201.7305, 33609.00
202.2126, 33892.63
202.6947, 34131.52
203.1768, 34383.19
203.6589, 34705.43
204.1410, 35115.62
204.6232, 35458.30
205.1053, 35732.43
205.5874, 35924.76
206.0695, 35989.54
206.5516, 35920.48
207.0337, 35740.34
207.5159, 35445.63
207.9980, 35024.27
208.4801, 34567.45
208.9622, 34065.31
209.4443, 33536.79
209.9264, 33077.41
210.4086, 32699.72
210.8907, 32364.60
211.3728, 32042.57
211.8549, 31720.06
212.3370, 31449.46
212.8191, 31244.88
213.3013, 31101.36
213.7834, 30963.17
214.2655, 30829.55
214.7476, 30701.93
215.2297, 30581.39
215.7118, 30463.18
216.1940, 30360.67
216.6761, 30269.13
217.1582, 30189.77
217.6403, 30171.95
218.1224, 30249.87
218.6045, 30343.84
219.0867, 30368.51
219.5688, 30281.64
220.0509, 30225.93
220.5330, 30240.53
221.0151, 30327.51
221.4972, 30392.53
221.9794, 30425.97
222.4615, 30448.86
222.9436, 30484.46
223.4257, 30538.77
223.9078, 30594.19
224.3899, 30646.22
224.8721, 30695.30
225.3542, 30743.20
225.8363, 30785.18
226.3184, 30830.84
226.8005, 30897.16
227.2827, 31005.89
227.7648, 31092.54
228.2469, 31137.38
228.7290, 31135.02
229.2111, 31133.35
229.6932, 31141.53
230.1754, 31143.04
230.6575, 31112.06
231.1396, 31025.65
231.6217, 30947.88
232.1038, 30899.58
232.5859, 30888.40
233.0681, 30863.25
233.5502, 30808.04
234.0323, 30750.48
234.5144, 30733.45
234.9965, 30780.66
235.4786, 30828.63
235.9608, 30856.91
236.4429, 30858.95
236.9250, 30869.27
237.4071, 30884.17
237.8892, 30909.68
238.3713, 30959.14
238.8535, 31053.53
239.3356, 31136.22
239.8177, 31181.00
240.2998, 31166.95
240.7819, 31198.45
241.2640, 31295.99
241.7462, 31427.62
242.2283, 31534.99
242.7104, 31588.22
243.1925, 31667.13
243.6746, 31811.72
244.1567, 32062.43
244.6389, 32234.24
245.1210, 32274.96
245.6031, 32267.55
246.0852, 32360.70
246.5673, 32592.25
247.0494, 32860.39
247.5316, 33136.50
248.0137, 33429.25
248.4958, 33698.34
248.9779, 33922.41
249.4600, 34133.59
249.9421, 34386.10
250.4243, 34691.79
250.9064, 35020.44
251.3885, 35364.38
251.8706, 35730.82
252.3527, 36090.48
252.8348, 36426.47
253.3170, 36765.03
253.7991, 37160.34
254.2812, 37634.59
254.7633, 38114.91
255.2454, 38574.86
255.7275, 39003.37
256.2097, 39433.61
256.6918, 39846.31
257.1739, 40269.01
257.6560, 40767.75
258.1381, 41382.11
258.6202, 41993.61
259.1024, 42567.16
259.5845, 43094.94
260.0666, 43590.88
260.5487, 44043.25
261.0308, 44471.66
261.5129, 44939.84
261.9951, 45469.26
262.4772, 45978.18
262.9593, 46441.50
263.4414, 46875.68
263.9235, 47205.14
264.4056, 47433.25
264.8878, 47556.37
265.3699, 47583.80
265.8520, 47532.54
266.3341, 47337.73
266.8162, 46965.21
267.2983, 46408.48
267.7805, 45720.70
268.2626, 44864.94
268.7447, 43924.80
269.2268, 43040.56
269.7089, 42221.81
270.1910, 41427.85
270.6732, 40630.30
271.1553, 39828.39
271.6374, 39063.84
272.1195, 38331.07
272.6016, 37642.36
273.0837, 37047.07
273.5659, 36551.33
274.0480, 36102.28
274.5301, 35671.76
275.0122, 35260.58
275.4943, 34912.03
275.9764, 34636.17
276.4586, 34404.05
276.9407, 34172.32
277.4228, 33941.91
277.9049, 33728.19
278.3870, 33536.37
278.8691, 33366.78
279.3513, 33228.23
279.8334, 33122.07
280.3155, 33043.52
280.7976, 33003.64
281.2798, 33005.77
281.7619, 32976.26
282.2440, 32865.89
282.7261, 32690.35
283.2082, 32570.49
283.6903, 32511.20
284.1725, 32489.64
284.6546, 32492.90
285.1367, 32519.42
285.6188, 32527.24
286.1009, 32489.63
286.5830, 32420.13
287.0652, 32374.79
287.5473, 32354.43
288.0294, 32355.66
288.5115, 32391.54
288.9936, 32455.73
289.4757, 32494.76
289.9579, 32481.58
290.4400, 32432.92
290.9221, 32395.12
291.4042, 32369.14
291.8863, 32341.92
292.3684, 32283.46
292.8506, 32206.96
293.3327, 32170.44
293.8148, 32213.21
294.2969, 32294.77
294.7790, 32342.93
295.2611, 32357.69
295.7433, 32344.30
296.2254, 32287.37
296.7075, 32203.28
297.1896, 32139.77
297.6717, 32110.15
298.1538, 32106.76
298.6360, 32122.97
299.1181, 32158.09
299.6002, 32202.04
300.0823, 32252.65
300.5644, 32306.39
301.0465, 32356.98
301.5287, 32402.10
302.0108, 32444.19
302.4929, 32489.17
302.9750, 32535.29
303.4571, 32569.99
303.9392, 32584.46
304.4214, 32582.90
304.9035, 32566.17
305.3856, 32516.61
305.8677, 32481.47
306.3498, 32515.38
306.8319, 32602.79
307.3141, 32690.02
307.7962, 32754.50
308.2783, 32798.15
308.7604, 32819.45
309.2425, 32807.05
309.7246, 32795.41
310.2068, 32812.52
310.6889, 32848.38
311.1710, 32877.08
311.6531, 32870.35
312.1352, 32861.34
312.6173, 32879.39
313.0995, 32940.94
313.5816, 32994.47
314.0637, 32998.11
314.5458, 32978.18
315.0279, 32984.31
315.5100, 33076.60
315.9922, 33168.95
316.4743, 33208.79
316.9564, 33176.10
317.4385, 33148.98
317.9206, 33148.36
318.4027, 33169.80
318.8849, 33207.05
319.3670, 33281.16
319.8491, 33350.84
320.3312, 33393.30
320.8133, 33399.20
321.2954, 33426.57
321.7776, 33503.69
322.2597, 33601.34
322.7418, 33688.36
323.2239, 33733.80
323.7060, 33794.64
324.1881, 33893.26
324.6703, 34034.54
325.1524, 34158.32
325.6345, 34244.98
326.1166, 34319.43
326.5987, 34402.30
327.0808, 34489.69
327.5630, 34590.49
328.0451, 34718.61
328.5272, 34871.39
329.0093, 34989.43
329.4914, 35031.93
329.9735, 35074.00
330.4557, 35167.93
330.9378, 35363.39
331.4199, 35523.47
331.9020, 35625.85
332.3841, 35683.36
332.8662, 35753.42
333.3484, 35816.67
333.8305, 35920.79
334.3126, 36108.40
334.7947, 36422.17
335.2768, 36679.98
335.7589, 36860.71
336.2411, 36986.72
336.7232, 37108.07
337.2053, 37209.68
337.6874, 37348.44
338.1695, 37559.28
338.6516, 37846.93
339.1338, 38159.63
339.6159, 38511.44
340.0980, 38860.14
340.5801, 39155.14
341.0622, 39408.66
341.5443, 39519.13
342.0265, 39423.80
342.5086, 39138.34
342.9907, 38778.31
343.4728, 38332.43
343.9549, 37868.04
344.4370, 37456.98
344.9192, 37101.59
345.4013, 36808.55
345.8834, 36596.95
346.3655, 36449.10
346.8476, 36330.34
347.3297, 36241.02
347.8119, 36179.79
348.2940, 36157.91
348.7761, 36165.63
349.2582, 36172.71
349.7403, 36162.21
350.2225, 36155.70
350.7046, 36189.64
351.1867, 36260.29
351.6688, 36336.66
352.1509, 36391.31
352.6331, 36438.84
353.1152, 36500.19
353.5973, 36578.31
354.0794, 36674.59
354.5615, 36803.28
355.0436, 36953.97
355.5258, 37094.95
356.0079, 37168.79
356.4900, 37247.47
356.9721, 37401.79
357.4542, 37660.40
357.9363, 37934.37
358.4185, 38174.70
358.9006, 38396.57
359.3827, 38626.22
359.8648, 38859.92
360.3469, 39115.12
360.8290, 39405.46
361.3112, 39737.04
361.7933, 40075.46
362.2754, 40401.36
362.7575, 40734.15
363.2396, 41096.43
363.7217, 41525.16
364.2039, 41947.11
364.6860, 42324.31
365.1681, 42657.36
365.6502, 43042.00
366.1323, 43529.62
366.6144, 44050.35
367.0966, 44558.09
367.5787, 45028.97
368.0608, 45507.95
368.5429, 46008.74
369.0250, 46525.27
369.5071, 47014.47
369.9893, 47472.48
370.4714, 47905.67
370.9535, 48313.34
371.4356, 48670.99
371.9177, 49056.58
372.3998, 49510.19
372.8820, 49973.75
373.3641, 50306.07
373.8462, 50474.58
374.3283, 50595.23
374.8104, 50715.00
375.2925, 50839.72
375.7747, 50915.77
376.2568, 50959.38
376.7389, 50923.77
377.2210, 50732.27
377.7031, 50378.23
378.1852, 49965.00
378.6674, 49514.55
379.1495, 49030.50
379.6316, 48495.78
380.1137, 47910.09
380.5958, 47316.82
381.0779, 46762.39
381.5601, 46236.23
382.0422, 45727.26
382.5243, 45218.84
383.0064, 44728.34
383.4885, 44281.81
383.9706, 43874.38
384.4528, 43501.18
384.9349, 43157.41
385.4170, 42842.84
385.8991, 42546.82
386.3812, 42261.69
386.8633, 42005.82
387.3455, 41801.09
387.8276, 41638.86
388.3097, 41496.19
388.7918, 41371.84
389.2739, 41257.79
389.7560, 41140.23
390.2382, 41015.33
390.7203, 40920.79
391.2024, 40899.66
391.6845, 40912.53
392.1666, 40913.81
392.6487, 40882.43
393.1309, 40842.36
393.6130, 40791.24
394.0951, 40732.32
394.5772, 40701.79
395.0593, 40716.16
395.5414, 40757.12
396.0236, 40813.34
396.5057, 40923.57
396.9878, 41001.38
397.4699, 41030.25
397.9520, 41019.33
398.4341, 40997.58
398.9163, 40961.55
399.3984, 40918.51
399.8805, 40876.97
400.3626, 40856.21
400.8447, 40777.04
401.3268, 40617.26
401.8090, 40415.49
402.2911, 40221.48
402.7732, 40040.72
403.2553, 39858.11
403.7374, 39667.59
404.2195, 39470.11
404.7017, 39282.45
405.1838, 39103.86
405.6659, 38935.24
406.1480, 38772.61
406.6301, 38614.86
407.1122, 38488.34
407.5944, 38408.18
408.0765, 38350.87
408.5586, 38259.88
409.0407, 38135.45
409.5228, 38006.10
410.0049, 37876.33
410.4871, 37757.06
410.9692, 37684.38
411.4513, 37668.99
411.9334, 37671.29
412.4155, 37649.20
412.8976, 37607.88
413.3798, 37563.55
413.8619, 37518.52
414.3440, 37476.44
414.8261, 37439.41
415.3082, 37407.43
415.7903, 37383.35
416.2725, 37373.97
416.7546, 37371.39
417.2367, 37366.16
417.7188, 37345.67
418.2009, 37332.80
418.6830, 37350.60
419.1652, 37388.21
419.6473, 37405.15
420.1294, 37340.97
420.6115, 37287.25
421.0937, 37302.22
421.5758, 37443.37
422.0579, 37544.90
422.5400, 37562.04
423.0221, 37531.95
423.5042, 37515.27
423.9864, 37504.12
424.4685, 37518.23
424.9506, 37574.89
425.4327, 37679.39
425.9148, 37747.60
426.3969, 37766.71
426.8791, 37764.17
427.3612, 37759.66
427.8433, 37748.11
428.3254, 37751.59
428.8075, 37777.82
429.2896, 37819.45
429.7718, 37855.45
430.2539, 37888.59
430.7360, 37902.83
431.2181, 37868.64
431.7002, 37792.47
432.1823, 37774.24
432.6645, 37826.42
433.1466, 37911.69
433.6287, 37991.96
434.1108, 38064.60
434.5929, 38114.97
435.0750, 38111.63
435.5572, 38092.66
436.0393, 38140.46
436.5214, 38251.43
437.0035, 38349.96
437.4856, 38354.02
437.9677, 38314.84
438.4499, 38306.52
438.9320, 38366.27
439.4141, 38429.84
439.8962, 38438.64
440.3783, 38414.29
440.8604, 38412.77
441.3426, 38485.53
441.8247, 38567.88
442.3068, 38623.02
442.7889, 38642.85
443.2710, 38655.14
443.7531, 38661.50
444.2353, 38666.30
444.7174, 38674.55
445.1995, 38686.11
445.6816, 38701.89
446.1637, 38714.29
446.6458, 38725.88
447.1280, 38771.86
447.6101, 38893.47
448.0922, 39004.24
448.5743, 39049.52
449.0564, 38993.37
449.5385, 38969.06
450.0207, 38986.09
450.5028, 39030.79
450.9849, 39073.80
451.4670, 39109.04
451.9491, 39172.80
452.4312, 39297.40
452.9134, 39469.47
453.3955, 39575.23
453.8776, 39605.18
454.3597, 39634.06
454.8418, 39752.25
455.3239, 39936.73
455.8061, 40082.65
456.2882, 40152.45
456.7703, 40197.85
457.2524, 40288.54
457.7345, 40418.24
458.2166, 40564.37
458.6988, 40719.56
459.1809, 40880.00
459.6630, 41039.53
460.1451, 41199.13
460.6272, 41357.97
461.1093, 41507.23
461.5915, 41657.38
462.0736, 41818.55
462.5557, 42019.56
463.0378, 42207.49
463.5199, 42345.12
464.0020, 42441.12
464.4842, 42567.04
464.9663, 42778.28
465.4484, 42991.92
465.9305, 43164.01
466.4126, 43268.43
466.8947, 43378.10
467.3769, 43499.29
467.8590, 43622.52
468.3411, 43735.64
468.8232, 43843.28
469.3053, 43929.97
469.7874, 43990.30
470.2696, 44025.11
470.7517, 44054.44
471.2338, 44084.74
471.7159, 44089.77
472.1980, 44030.75
472.6801, 43909.40
473.1623, 43821.02
473.6444, 43790.68
474.1265, 43774.82
474.6086, 43708.82
475.0907, 43593.48
475.5728, 43434.04
476.0550, 43175.24
476.5371, 42893.43
477.0192, 42736.95
477.5013, 42711.32
477.9834, 42690.40
478.4655, 42555.68
478.9477, 42373.32
479.4298, 42232.26
479.9119, 42177.49
480.3940, 42144.26
480.8761, 42105.93
481.3582, 42063.81
481.8404, 42022.10
482.3225, 41987.02
482.8046, 41948.70
483.2867, 41898.70
483.7688, 41828.26
484.2509, 41774.23
484.7331, 41752.42
485.2152, 41742.07
485.6973, 41723.02
486.1794, 41686.17
486.6615, 41656.52
487.1436, 41640.97
487.6258, 41635.31
488.1079, 41616.77
488.5900, 41578.67
489.0721, 41546.44
489.5542, 41534.43
490.0363, 41542.65
490.5185, 41558.75
491.0006, 41582.86
491.4827, 41613.04
491.9648, 41652.41
492.4470, 41697.90
492.9291, 41730.77
493.4112, 41735.45
493.8933, 41731.34
494.3754, 41742.85
494.8575, 41770.46
495.3397, 41816.56
495.8218, 41904.01
496.3039, 42001.26
496.7860, 42072.85
497.2681, 42111.93
497.7502, 42136.49
498.2324, 42136.00
498.7145, 42132.70
499.1966, 42156.80
499.6787, 42260.36
500.1608, 42349.06
500.6429, 42380.57
501.1251, 42359.36
501.6072, 42365.25
502.0893, 42415.25
502.5714, 42483.42
503.0535, 42562.80
503.5356, 42674.55
504.0178, 42742.94
504.4999, 42746.72
504.9820, 42725.84
505.4641, 42744.40
505.9462, 42810.64
506.4283, 42872.47
506.9105, 42911.23
507.3926, 42934.71
507.8747, 42973.02
508.3568, 43026.68
508.8389, 43089.63
509.3210, 43148.91
509.8032, 43214.93
510.2853, 43318.27
510.7674, 43465.05
511.2495, 43639.46
511.7316, 43828.58
512.2137, 44034.07
512.6959, 44255.91
513.1780, 44513.17
513.6601, 44773.21
514.1422, 44990.05
514.6243, 45177.27
515.1064, 45427.35
515.5886, 45806.83
516.0707, 46240.67
516.5528, 46673.29
517.0349, 47058.77
517.5170, 47531.82
517.9991, 48122.41
518.4813, 48797.70
518.9634, 49519.76
519.4455, 50303.57
519.9276, 51108.05
520.4097, 51928.66
520.8918, 52755.61
521.3740, 53622.68
521.8561, 54534.59
522.3382, 55471.06
522.8203, 56431.36
523.3024, 57405.95
523.7845, 58364.24
524.2667, 59305.98
524.7488, 60247.84
525.2309, 61244.96
525.7130, 62289.18
526.1951, 63329.86
526.6772, 64360.73
527.1594, 65385.46
527.6415, 66393.48
528.1236, 67384.32
528.6057, 68382.45
529.0878, 69504.29
529.5699, 70560.77
530.0521, 71429.98
530.5342, 72134.23
531.0163, 72516.82
531.4984, 72575.44
531.9805, 72271.42
532.4626, 71567.00
532.9448, 70365.25
533.4269, 68856.32
533.9090, 66956.41
534.3911, 64753.52
534.8732, 62655.04
535.3553, 60633.05
535.8375, 58718.79
536.3196, 56923.71
536.8017, 55218.31
537.2838, 53789.04
537.7659, 52657.19
538.2480, 51687.56
538.7302, 50724.00
539.2123, 49775.88
539.6944, 48972.14
540.1765, 48353.32
540.6586, 47866.11
541.1407, 47446.52
541.6229, 47087.63
542.1050, 46757.51
542.5871, 46444.61
543.0692, 46148.59
543.5513, 45861.23
544.0334, 45585.08
544.5156, 45360.33
544.9977, 45248.07
545.4798, 45170.80
545.9619, 45068.18
546.4440, 44903.46
546.9261, 44750.71
547.4083, 44615.26
547.8904, 44498.74
548.3725, 44404.74
548.8546, 44325.99
549.3367, 44282.96
549.8188, 44299.73
550.3010, 44366.67
550.7831, 44358.55
551.2652, 44252.87
551.7473, 44146.95
552.2294, 44104.46
552.7115, 44122.88
553.1937, 44194.76
553.6758, 44331.50
554.1579, 44471.95
554.6400, 44504.11
555.1221, 44474.93
555.6042, 44518.91
556.0864, 44713.32
556.5685, 44972.68
557.0506, 45194.14
557.5327, 45403.65
558.0148, 45695.53
558.4969, 46097.16
558.9791, 46611.57
559.4612, 47258.14
559.9433, 48058.14
560.4254, 48872.59
560.9075, 49649.19
561.3896, 50443.81
561.8718, 51310.01
562.3539, 52228.21
562.8360, 53262.61
563.3181, 54461.07
563.8002, 55746.98
564.2823, 56957.60
564.7645, 58071.67
565.2466, 59160.73
565.7287, 60235.38
566.2108, 61300.23
566.6929, 62338.80
567.1750, 63339.02
567.6572, 64397.55
568.1393, 65545.18
568.6214, 66800.91
569.1035, 68143.37
569.5856, 69557.25
570.0677, 71158.45
570.5499, 73159.86
571.0320, 75406.29
571.5141, 77663.87
571.9962, 80543.29
572.4783, 82726.09
572.9604, 83849.59
573.4426, 83867.75
573.9247, 82596.40
574.4068, 79212.02
574.8889, 75223.77
575.3710, 71057.73
575.8531, 66625.25
576.3353, 62727.70
576.8174, 59402.81
577.2995, 56612.99
577.7816, 54327.02
578.2637, 52572.59
578.7458, 51183.33
579.2280, 50178.57
579.7101, 49449.58
580.1922, 48842.36
580.6743, 48351.60
581.1564, 47947.43
581.6385, 47641.25
582.1207, 47399.49
582.6028, 47194.91
583.0849, 47026.23
583.5670, 46869.33
584.0491, 46725.54
584.5313, 46578.40
585.0134, 46404.49
585.4955, 46177.48
585.9776, 46000.51
586.4597, 45934.55
586.9418, 45918.86
587.4240, 45885.96
587.9061, 45824.16
588.3882, 45758.18
588.8703, 45684.64
589.3524, 45610.21
589.8345, 45554.43
590.3167, 45518.56
590.7988, 45497.50
591.2809, 45503.34
591.7630, 45524.43
592.2451, 45493.71
592.7272, 45409.69
593.2094, 45310.43
593.6915, 45206.75
594.1736, 45114.60
594.6557, 45073.29
595.1378, 45101.10
595.6199, 45132.01
596.1021, 45115.49
596.5842, 45071.30
597.0663, 45027.46
597.5485, 44986.05
598.0306, 44954.73
598.5127, 44929.58
598.9948, 44914.98
599.4769, 44930.60
599.9590, 45022.16
600.4412, 45088.71
600.9233, 45078.82
601.4054, 44982.41
601.8875, 44984.84
602.3696, 45127.35
602.8517, 45267.34
603.3339, 45261.91
603.8160, 45124.10
604.2981, 45023.03
604.7802, 44981.97
605.2623, 44968.06
605.7444, 44928.21
606.2266, 44881.20
606.7087, 44879.39
607.1908, 44963.63
607.6729, 45077.28
608.1550, 45203.91
608.6371, 45327.86
609.1193, 45402.74
609.6014, 45369.82
610.0835, 45316.75
610.5656, 45278.07
611.0477, 45254.77
611.5298, 45259.88
612.0120, 45325.59
612.4941, 45387.52
612.9762, 45394.32
613.4583, 45318.29
613.9404, 45292.47
614.4225, 45337.26
614.9047, 45407.02
615.3868, 45431.86
615.8689, 45415.99
616.3510, 45412.81
616.8331, 45442.66
617.3152, 45486.89
617.7974, 45513.63
618.2795, 45528.72
618.7616, 45555.94
619.2437, 45610.51
619.7258, 45680.34
620.2079, 45764.08
620.6901, 45860.74
621.1722, 45946.23
621.6543, 46013.29
622.1364, 46065.87
622.6185, 46102.83
623.1006, 46108.09
623.5828, 46137.28
624.0649, 46212.84
624.5470, 46291.76
625.0291, 46304.67
625.5112, 46225.98
625.9933, 46229.64
626.4755, 46375.59
626.9576, 46581.41
627.4397, 46659.96
627.9218, 46627.92
628.4039, 46612.82
628.8860, 46692.04
629.3682, 46817.01
629.8503, 46925.73
630.3324, 47019.91
630.8145, 47112.61
631.2966, 47225.95
631.7787, 47329.23
632.2609, 47397.29
632.7430, 47419.27
633.2251, 47436.50
633.7072, 47449.91
634.1893, 47465.69
634.6714, 47491.43
635.1536, 47542.83
635.6357, 47567.56
636.1178, 47553.16
636.5999, 47519.36
637.0820, 47506.82
637.5641, 47517.09
638.0463, 47512.61
638.5284, 47489.17
639.0105, 47436.53
639.4926, 47304.82
639.9747, 47110.18
640.4568, 46949.69
640.9390, 46895.52
641.4211, 46891.93
641.9032, 46908.33
642.3853, 46942.19
642.8674, 46927.30
643.3495, 46782.89
643.8317, 46616.82
644.3138, 46504.48
644.7959, 46495.74
645.2780, 46458.80
645.7601, 46354.22
646.2422, 46256.07
646.7244, 46268.45
647.2065, 46420.81
647.6886, 46528.08
648.1707, 46548.45
648.6528, 46520.04
649.1349, 46513.44
649.6171, 46526.60
650.0992, 46544.51
650.5813, 46563.31
651.0634, 46581.08
651.5455, 46581.31
652.0276, 46572.19
652.5098, 46597.93
652.9919, 46740.59
653.4740, 46880.11
653.9561, 46937.02
654.4382, 46891.80
654.9203, 46835.02
655.4025, 46742.96
655.8846, 46671.02
656.3667, 46662.57
656.8488, 46744.07
657.3309, 46810.35
657.8130, 46857.02
658.2952, 46889.84
658.7773, 46920.33
659.2594, 46947.19
659.7415, 46943.70
660.2236, 46879.36
660.7057, 46821.02
661.1879, 46898.68
661.6700, 47064.88
662.1521, 47186.34
662.6342, 47153.87
663.1163, 47094.53
663.5984, 47090.07
664.0806, 47134.69
664.5627, 47163.98
665.0448, 47147.28
665.5269, 47124.98
666.0090, 47111.36
666.4911, 47105.52
666.9733, 47122.59
667.4554, 47182.45
667.9375, 47225.79
668.4196, 47177.44
668.9017, 47042.48
669.3839, 46992.50
669.8660, 47052.00
670.3481, 47153.26
670.8302, 47236.42
671.3123, 47300.45
671.7944, 47341.37
672.2766, 47346.70
672.7587, 47346.17
673.2408, 47356.74
673.7229, 47375.70
674.2050, 47397.90
674.6871, 47430.27
675.1693, 47456.50
675.6514, 47462.45
676.1335, 47455.93
676.6156, 47486.22
677.0977, 47584.99
677.5798, 47647.99
678.0620, 47618.33
678.5441, 47505.95
679.0262, 47396.13
679.5083, 47285.59
