##NAMES=Pachnolite
##RRUFFID=R070596
##IDEAL CHEMISTRY=NaCaAlF_6_&#183;H_2_O
##LOCALITY=Ivigtut, Arsuk, Kitaa Province, Greenland
##OWNER=RRUFF
##SOURCE=James Shigley
##DESCRIPTION=White to colorless translucent prismatic crystals
##STATUS=The identification of this mineral has been confirmed by single-crystal X-ray diffraction.
##URL=rruff.info/R070596
112.5167, 3201.224
112.9988, 3199.265
113.4809, 3201.251
113.9630, 3207.342
114.4451, 3217.307
114.9272, 3229.986
115.4094, 3243.848
115.8915, 3269.241
116.3736, 3280.552
116.8557, 3274.245
117.3378, 3254.837
117.8199, 3224.060
118.3021, 3181.596
118.7842, 3131.261
119.2663, 3100.005
119.7484, 3094.851
120.2305, 3096.603
120.7127, 3098.109
121.1948, 3100.580
121.6769, 3111.296
122.1590, 3140.424
122.6411, 3187.058
123.1232, 3211.162
123.6054, 3196.510
124.0875, 3168.361
124.5696, 3149.872
125.0517, 3144.551
125.5338, 3142.924
126.0159, 3132.450
126.4981, 3115.515
126.9802, 3105.342
127.4623, 3112.334
127.9444, 3130.740
128.4265, 3142.309
128.9086, 3140.843
129.3907, 3134.650
129.8729, 3128.864
130.3550, 3123.670
130.8371, 3123.748
131.3192, 3137.995
131.8013, 3169.980
132.2834, 3190.425
132.7656, 3179.537
133.2477, 3162.407
133.7298, 3153.958
134.2119, 3158.644
134.6940, 3171.501
135.1761, 3183.701
135.6583, 3195.872
136.1404, 3205.999
136.6225, 3218.273
137.1046, 3227.323
137.5867, 3225.710
138.0688, 3208.379
138.5510, 3178.723
139.0331, 3158.887
139.5152, 3170.569
139.9973, 3170.658
140.4794, 3139.502
140.9615, 3089.028
141.4437, 3045.059
141.9258, 3028.983
142.4079, 3044.666
142.8900, 3051.503
143.3721, 3043.576
143.8542, 3033.635
144.3364, 3030.416
144.8185, 3033.867
145.3006, 3035.611
145.7827, 3024.727
146.2648, 2995.274
146.7469, 2977.529
147.2291, 2980.320
147.7112, 2992.094
148.1933, 3001.656
148.6754, 3006.812
149.1575, 3007.007
149.6396, 2995.438
150.1218, 2968.653
150.6039, 2955.770
151.0860, 2979.893
151.5681, 3028.123
152.0502, 3060.816
152.5324, 3059.585
153.0145, 3042.007
153.4966, 3036.084
153.9787, 3045.495
154.4608, 3054.291
154.9429, 3047.334
155.4251, 3023.760
155.9072, 3002.963
156.3893, 2994.940
156.8714, 2992.151
157.3535, 2987.232
157.8356, 2976.736
158.3178, 2966.992
158.7999, 2969.582
159.2820, 2990.387
159.7641, 3009.698
160.2462, 3023.228
160.7283, 3031.296
161.2105, 3031.591
161.6926, 3019.275
162.1747, 3000.835
162.6568, 3006.301
163.1389, 3067.827
163.6210, 3114.188
164.1032, 3120.114
164.5853, 3098.669
165.0674, 3072.467
165.5495, 3057.665
166.0316, 3054.533
166.5137, 3053.587
166.9959, 3059.635
167.4780, 3063.476
167.9601, 3058.603
168.4422, 3047.600
168.9243, 3039.166
169.4064, 3043.399
169.8886, 3066.535
170.3707, 3077.511
170.8528, 3062.883
171.3349, 3048.420
171.8170, 3054.449
172.2991, 3082.010
172.7813, 3112.664
173.2634, 3121.884
173.7455, 3096.494
174.2276, 3073.787
174.7097, 3049.222
175.1918, 3029.393
175.6740, 3024.666
176.1561, 3038.734
176.6382, 3059.036
177.1203, 3060.753
177.6024, 3035.560
178.0845, 3014.243
178.5667, 3004.841
179.0488, 3002.988
179.5309, 3000.950
180.0130, 2995.711
180.4951, 2989.120
180.9772, 2984.888
181.4594, 2982.299
181.9415, 2982.654
182.4236, 2989.825
182.9057, 3001.764
183.3878, 3008.486
183.8699, 3002.567
184.3521, 2990.634
184.8342, 2985.902
185.3163, 2990.736
185.7984, 2999.561
186.2805, 3012.807
186.7626, 3031.019
187.2448, 3037.285
187.7269, 3008.831
188.2090, 2968.159
188.6911, 2944.555
189.1732, 2949.333
189.6553, 2968.122
190.1375, 2984.410
190.6196, 3000.125
191.1017, 3006.490
191.5838, 2980.161
192.0659, 2947.087
192.5480, 2943.178
193.0302, 2999.348
193.5123, 3085.536
193.9944, 3121.457
194.4765, 3081.385
194.9586, 3033.125
195.4408, 2996.452
195.9229, 2971.972
196.4050, 2961.433
196.8871, 2968.714
197.3692, 2991.240
197.8513, 3012.904
198.3335, 3039.425
198.8156, 3057.411
199.2977, 3058.769
199.7798, 3048.663
200.2619, 3037.003
200.7440, 3030.182
201.2262, 3028.087
201.7083, 3033.877
202.1904, 3063.662
202.6725, 3087.237
203.1546, 3092.248
203.6367, 3081.696
204.1189, 3066.745
204.6010, 3057.611
205.0831, 3055.311
205.5652, 3053.222
206.0473, 3055.893
206.5294, 3055.005
207.0116, 3040.593
207.4937, 3015.979
207.9758, 2996.732
208.4579, 3003.070
208.9400, 3051.200
209.4221, 3072.681
209.9043, 3043.393
210.3864, 3010.563
210.8685, 3004.510
211.3506, 3028.769
211.8327, 3067.133
212.3148, 3100.002
212.7970, 3131.578
213.2791, 3143.487
213.7612, 3123.721
214.2433, 3093.298
214.7254, 3066.049
215.2075, 3046.004
215.6897, 3032.550
216.1718, 3024.925
216.6539, 3023.218
217.1360, 3029.075
217.6181, 3055.886
218.1002, 3084.523
218.5824, 3089.937
219.0645, 3064.243
219.5466, 3028.541
220.0287, 3020.330
220.5108, 3050.995
220.9929, 3081.908
221.4751, 3112.771
221.9572, 3139.878
222.4393, 3157.356
222.9214, 3162.804
223.4035, 3160.319
223.8856, 3157.035
224.3678, 3153.167
224.8499, 3148.342
225.3320, 3139.494
225.8141, 3129.880
226.2962, 3126.725
226.7783, 3134.035
227.2605, 3145.772
227.7426, 3149.852
228.2247, 3144.733
228.7068, 3138.812
229.1889, 3133.006
229.6710, 3128.608
230.1532, 3129.433
230.6353, 3137.931
231.1174, 3151.090
231.5995, 3165.837
232.0816, 3187.714
232.5637, 3196.807
233.0459, 3169.981
233.5280, 3118.020
234.0101, 3083.642
234.4922, 3086.652
234.9743, 3112.666
235.4564, 3137.264
235.9386, 3163.061
236.4207, 3180.529
236.9028, 3179.579
237.3849, 3162.649
237.8670, 3146.144
238.3491, 3135.984
238.8313, 3129.276
239.3134, 3121.719
239.7955, 3113.382
240.2776, 3103.807
240.7597, 3089.833
241.2418, 3072.069
241.7240, 3061.747
242.2061, 3069.247
242.6882, 3082.000
243.1703, 3083.743
243.6524, 3070.214
244.1345, 3055.505
244.6167, 3054.903
245.0988, 3068.572
245.5809, 3075.902
246.0630, 3064.870
246.5451, 3047.045
247.0272, 3033.251
247.5094, 3024.651
247.9915, 3020.878
248.4736, 3022.480
248.9557, 3029.720
249.4378, 3038.760
249.9199, 3050.789
250.4021, 3062.823
250.8842, 3073.650
251.3663, 3084.045
251.8484, 3088.679
252.3305, 3078.623
252.8126, 3051.745
253.2948, 3028.661
253.7769, 3020.195
254.2590, 3015.837
254.7411, 3006.441
255.2232, 2989.439
255.7053, 2972.967
256.1875, 2966.938
256.6696, 2972.660
257.1517, 2980.223
257.6338, 2992.276
258.1159, 3002.007
258.5981, 3001.696
259.0802, 2988.892
259.5623, 2975.218
260.0444, 2974.699
260.5265, 2988.837
261.0086, 3007.038
261.4908, 3043.045
261.9729, 3072.369
262.4550, 3073.772
262.9371, 3042.060
263.4192, 3000.009
263.9013, 2970.826
264.3835, 2954.459
264.8656, 2952.486
265.3477, 2983.418
265.8298, 3018.281
266.3119, 3038.256
266.7940, 3039.430
267.2762, 3033.461
267.7583, 3033.869
268.2404, 3041.981
268.7225, 3049.413
269.2046, 3058.783
269.6867, 3064.186
270.1689, 3058.246
270.6510, 3040.311
271.1331, 3022.707
271.6152, 3024.178
272.0973, 3050.783
272.5794, 3062.257
273.0616, 3034.777
273.5437, 3001.525
274.0258, 2979.372
274.5079, 2970.791
274.9900, 2969.139
275.4721, 2968.548
275.9543, 2969.445
276.4364, 2968.546
276.9185, 2966.206
277.4006, 2961.135
277.8827, 2949.340
278.3648, 2931.688
278.8470, 2916.962
279.3291, 2916.352
279.8112, 2932.086
280.2933, 2943.411
280.7754, 2949.189
281.2575, 2949.007
281.7397, 2937.071
282.2218, 2915.787
282.7039, 2898.811
283.1860, 2903.726
283.6681, 2932.973
284.1502, 2949.765
284.6324, 2940.703
285.1145, 2928.114
285.5966, 2920.807
286.0787, 2919.368
286.5608, 2921.934
287.0429, 2927.118
287.5251, 2934.861
288.0072, 2946.159
288.4893, 2969.080
288.9714, 2986.999
289.4535, 2992.093
289.9356, 2985.672
290.4178, 2972.969
290.8999, 2955.325
291.3820, 2933.187
291.8641, 2915.418
292.3462, 2899.409
292.8283, 2892.046
293.3105, 2901.502
293.7926, 2921.755
294.2747, 2938.272
294.7568, 2938.810
295.2389, 2926.746
295.7210, 2922.479
296.2032, 2928.596
296.6853, 2939.720
297.1674, 2959.455
297.6495, 2981.568
298.1316, 2993.621
298.6137, 2984.423
299.0959, 2961.166
299.5780, 2950.433
300.0601, 2958.661
300.5422, 2968.308
301.0243, 2970.382
301.5064, 2969.444
301.9886, 2972.523
302.4707, 2984.337
302.9528, 3000.825
303.4349, 3013.596
303.9170, 3024.374
304.3991, 3026.772
304.8813, 3010.839
305.3634, 2988.292
305.8455, 2973.965
306.3276, 2976.267
306.8097, 2983.444
307.2918, 2973.180
307.7740, 2938.838
308.2561, 2910.904
308.7382, 2904.618
309.2203, 2908.620
309.7024, 2914.303
310.1845, 2919.805
310.6667, 2925.205
311.1488, 2932.360
311.6309, 2942.310
312.1130, 2945.528
312.5951, 2926.496
313.0772, 2906.874
313.5594, 2909.874
314.0415, 2942.241
314.5236, 2975.000
315.0057, 2977.542
315.4878, 2950.339
315.9699, 2925.697
316.4521, 2908.151
316.9342, 2900.179
317.4163, 2905.540
317.8984, 2924.985
318.3805, 2945.804
318.8626, 2958.956
319.3448, 2965.535
319.8269, 2971.760
320.3090, 2978.138
320.7911, 2985.356
321.2732, 2996.742
321.7553, 3011.693
322.2375, 3019.705
322.7196, 3006.138
323.2017, 2981.324
323.6838, 2976.757
324.1659, 3003.238
324.6480, 3035.342
325.1302, 3047.580
325.6123, 3044.889
326.0944, 3047.742
326.5765, 3071.679
327.0586, 3102.749
327.5407, 3116.546
328.0229, 3108.385
328.5050, 3098.010
328.9871, 3104.274
329.4692, 3121.586
329.9513, 3130.971
330.4334, 3119.771
330.9156, 3104.649
331.3977, 3104.169
331.8798, 3118.809
332.3619, 3134.883
332.8440, 3145.218
333.3261, 3149.800
333.8083, 3151.160
334.2904, 3148.951
334.7725, 3143.863
335.2546, 3134.209
335.7367, 3121.165
336.2188, 3110.419
336.7010, 3104.435
337.1831, 3103.044
337.6652, 3104.548
338.1473, 3104.727
338.6294, 3113.213
339.1115, 3143.779
339.5937, 3185.178
340.0758, 3212.296
340.5579, 3214.660
341.0400, 3200.888
341.5221, 3187.206
342.0042, 3170.218
342.4864, 3160.335
342.9685, 3163.686
343.4506, 3173.613
343.9327, 3183.438
344.4148, 3191.386
344.8969, 3195.372
345.3791, 3191.581
345.8612, 3174.603
346.3433, 3163.782
346.8254, 3165.927
347.3075, 3169.723
347.7896, 3165.710
348.2718, 3153.101
348.7539, 3137.813
349.2360, 3125.829
349.7181, 3118.268
350.2002, 3106.889
350.6823, 3088.563
351.1645, 3069.979
351.6466, 3057.406
352.1287, 3047.951
352.6108, 3031.652
353.0929, 2999.140
353.5750, 2952.219
354.0572, 2924.555
354.5393, 2930.752
355.0214, 2939.843
355.5035, 2946.292
355.9856, 2951.059
356.4677, 2957.492
356.9499, 2967.649
357.4320, 2978.722
357.9141, 2981.047
358.3962, 2965.463
358.8783, 2954.067
359.3604, 2952.553
359.8426, 2954.198
360.3247, 2952.099
360.8068, 2944.163
361.2889, 2934.109
361.7710, 2927.561
362.2531, 2923.864
362.7353, 2925.644
363.2174, 2936.780
363.6995, 2950.233
364.1816, 2960.736
364.6637, 2968.363
365.1458, 2978.222
365.6280, 2997.256
366.1101, 3026.537
366.5922, 3051.229
367.0743, 3068.125
367.5564, 3083.087
368.0385, 3097.728
368.5207, 3112.637
369.0028, 3128.777
369.4849, 3147.244
369.9670, 3167.483
370.4491, 3188.467
370.9312, 3214.166
371.4134, 3232.215
371.8955, 3228.264
372.3776, 3215.051
372.8597, 3211.292
373.3418, 3223.632
373.8239, 3247.938
374.3061, 3283.166
374.7882, 3331.075
375.2703, 3371.858
375.7524, 3392.042
376.2345, 3403.233
376.7166, 3420.448
377.1988, 3445.567
377.6809, 3474.796
378.1630, 3507.463
378.6451, 3542.555
379.1272, 3575.923
379.6093, 3606.827
380.0915, 3635.101
380.5736, 3661.290
381.0557, 3686.013
381.5378, 3705.677
382.0199, 3713.110
382.5020, 3716.988
382.9842, 3732.746
383.4663, 3763.539
383.9484, 3793.397
384.4305, 3805.822
384.9126, 3799.036
385.3947, 3794.477
385.8769, 3788.535
386.3590, 3788.239
386.8411, 3803.496
387.3232, 3830.636
387.8053, 3854.422
388.2874, 3865.461
388.7696, 3864.148
389.2517, 3852.322
389.7338, 3815.473
390.2159, 3786.645
390.6980, 3781.910
391.1801, 3788.740
391.6623, 3789.491
392.1444, 3776.785
392.6265, 3752.511
393.1086, 3719.700
393.5907, 3665.227
394.0728, 3622.354
394.5550, 3599.486
395.0371, 3582.212
395.5192, 3560.159
396.0013, 3531.485
396.4834, 3499.826
396.9655, 3469.260
397.4477, 3439.680
397.9298, 3411.215
398.4119, 3386.658
398.8940, 3360.430
399.3761, 3326.209
399.8582, 3288.431
400.3404, 3257.952
400.8225, 3243.766
401.3046, 3241.796
401.7867, 3233.343
402.2688, 3215.257
402.7509, 3196.243
403.2331, 3181.143
403.7152, 3166.039
404.1973, 3144.912
404.6794, 3114.070
405.1615, 3082.415
405.6436, 3059.582
406.1258, 3045.250
406.6079, 3044.130
407.0900, 3072.312
407.5721, 3101.970
408.0542, 3103.739
408.5363, 3075.139
409.0185, 3044.744
409.5006, 3032.535
409.9827, 3031.237
410.4648, 3018.854
410.9469, 2987.904
411.4290, 2959.949
411.9112, 2964.918
412.3933, 2995.935
412.8754, 3008.398
413.3575, 2978.142
413.8396, 2938.141
414.3217, 2918.831
414.8039, 2918.814
415.2860, 2917.478
415.7681, 2900.162
416.2502, 2872.462
416.7323, 2862.240
417.2144, 2885.649
417.6966, 2904.441
418.1787, 2911.617
418.6608, 2906.812
419.1429, 2883.182
419.6250, 2837.942
420.1071, 2790.639
420.5893, 2776.059
421.0714, 2819.969
421.5535, 2844.543
422.0356, 2842.406
422.5177, 2828.563
422.9998, 2806.869
423.4820, 2781.473
423.9641, 2761.352
424.4462, 2755.760
424.9283, 2764.778
425.4104, 2768.962
425.8925, 2764.502
426.3747, 2759.141
426.8568, 2755.950
427.3389, 2752.849
427.8210, 2746.175
428.3031, 2733.731
428.7852, 2718.638
429.2674, 2706.051
429.7495, 2694.600
430.2316, 2690.315
430.7137, 2705.299
431.1958, 2721.708
431.6779, 2725.288
432.1601, 2714.185
432.6422, 2701.738
433.1243, 2700.276
433.6064, 2706.790
434.0885, 2708.227
434.5706, 2703.899
435.0528, 2692.284
435.5349, 2660.980
436.0170, 2618.286
436.4991, 2596.065
436.9812, 2616.724
437.4633, 2651.860
437.9455, 2676.751
438.4276, 2691.121
438.9097, 2697.486
439.3918, 2695.498
439.8739, 2687.503
440.3560, 2681.672
440.8382, 2682.115
441.3203, 2678.392
441.8024, 2658.339
442.2845, 2635.782
442.7666, 2633.884
443.2487, 2658.406
443.7309, 2689.366
444.2130, 2698.818
444.6951, 2678.679
445.1772, 2662.650
445.6593, 2647.564
446.1414, 2638.675
446.6236, 2642.640
447.1057, 2655.629
447.5878, 2668.188
448.0699, 2674.374
448.5520, 2674.065
449.0341, 2664.829
449.5163, 2631.125
449.9984, 2613.429
450.4805, 2633.024
450.9626, 2663.881
451.4447, 2678.081
451.9268, 2667.246
452.4090, 2649.707
452.8911, 2651.035
453.3732, 2672.216
453.8553, 2680.821
454.3374, 2663.614
454.8195, 2642.379
455.3017, 2635.037
455.7838, 2638.746
456.2659, 2639.618
456.7480, 2626.252
457.2301, 2608.353
457.7122, 2602.443
458.1944, 2609.510
458.6765, 2618.270
459.1586, 2624.963
459.6407, 2627.470
460.1229, 2620.575
460.6050, 2594.211
461.0871, 2573.362
461.5692, 2570.178
462.0513, 2578.914
462.5334, 2591.728
463.0156, 2606.508
463.4977, 2618.966
463.9798, 2622.694
464.4619, 2614.189
464.9440, 2607.268
465.4261, 2600.714
465.9083, 2596.667
466.3904, 2595.364
466.8725, 2597.510
467.3546, 2605.807
467.8367, 2623.350
468.3188, 2646.788
468.8010, 2658.366
469.2831, 2651.842
469.7652, 2642.492
470.2473, 2629.661
470.7294, 2617.440
471.2115, 2609.823
471.6937, 2607.749
472.1758, 2608.614
472.6579, 2610.974
473.1400, 2614.763
473.6221, 2614.686
474.1042, 2607.238
474.5864, 2600.069
475.0685, 2599.629
475.5506, 2603.798
476.0327, 2606.031
476.5148, 2599.275
476.9969, 2592.260
477.4791, 2595.379
477.9612, 2608.280
478.4433, 2627.852
478.9254, 2658.565
479.4075, 2689.688
479.8896, 2692.254
480.3718, 2651.781
480.8539, 2621.308
481.3360, 2623.582
481.8181, 2638.467
482.3002, 2641.786
482.7823, 2629.909
483.2645, 2615.266
483.7466, 2609.809
484.2287, 2613.748
484.7108, 2624.931
485.1929, 2657.300
485.6750, 2681.189
486.1572, 2680.821
486.6393, 2667.586
487.1214, 2661.506
487.6035, 2672.077
488.0856, 2686.971
488.5677, 2676.997
489.0499, 2628.701
489.5320, 2602.032
490.0141, 2626.666
490.4962, 2659.191
490.9783, 2679.351
491.4604, 2685.518
491.9426, 2681.686
492.4247, 2664.997
492.9068, 2641.073
493.3889, 2620.792
493.8710, 2603.477
494.3531, 2595.863
494.8353, 2606.323
495.3174, 2628.133
495.7995, 2645.549
496.2816, 2662.022
496.7637, 2667.100
497.2458, 2645.099
497.7280, 2610.871
498.2101, 2591.975
498.6922, 2595.611
499.1743, 2607.990
499.6564, 2613.637
500.1385, 2611.677
500.6207, 2606.275
501.1028, 2589.454
501.5849, 2577.512
502.0670, 2579.398
502.5491, 2591.452
503.0313, 2606.712
503.5134, 2621.778
503.9955, 2635.510
504.4776, 2644.906
504.9597, 2648.979
505.4418, 2651.006
505.9240, 2650.464
506.4061, 2648.798
506.8882, 2648.936
507.3703, 2649.848
507.8524, 2645.002
508.3345, 2623.222
508.8167, 2592.655
509.2988, 2576.867
509.7809, 2578.005
510.2630, 2586.314
510.7451, 2600.100
511.2272, 2616.403
511.7094, 2629.469
512.1915, 2640.913
512.6736, 2645.353
513.1557, 2633.859
513.6378, 2615.118
514.1199, 2603.728
514.6021, 2603.122
515.0842, 2610.491
515.5663, 2624.220
516.0484, 2646.558
516.5305, 2659.946
517.0126, 2666.024
517.4948, 2663.080
517.9769, 2639.651
518.4590, 2609.028
518.9411, 2595.720
519.4232, 2611.890
519.9053, 2640.190
520.3875, 2643.219
520.8696, 2609.496
521.3517, 2590.419
521.8338, 2610.882
522.3159, 2631.937
522.7980, 2626.564
523.2802, 2600.315
523.7623, 2582.391
524.2444, 2594.116
524.7265, 2622.414
525.2086, 2646.523
525.6907, 2666.726
526.1729, 2675.525
526.6550, 2664.263
527.1371, 2642.808
527.6192, 2632.923
528.1013, 2639.018
528.5834, 2643.790
529.0656, 2641.244
529.5477, 2635.351
530.0298, 2628.267
530.5119, 2621.344
530.9940, 2619.920
531.4761, 2629.634
531.9583, 2649.814
532.4404, 2664.603
532.9225, 2675.694
533.4046, 2678.753
533.8867, 2661.667
534.3688, 2641.668
534.8510, 2641.644
535.3331, 2666.875
535.8152, 2694.047
536.2973, 2690.725
536.7794, 2657.153
537.2615, 2638.103
537.7437, 2639.605
538.2258, 2650.372
538.7079, 2667.080
539.1900, 2687.233
539.6721, 2705.666
540.1542, 2722.413
540.6364, 2735.405
541.1185, 2741.373
541.6006, 2742.006
542.0827, 2742.702
542.5648, 2745.129
543.0469, 2748.040
543.5291, 2749.134
544.0112, 2746.640
544.4933, 2750.007
544.9754, 2767.997
545.4575, 2783.361
545.9396, 2779.614
546.4218, 2766.477
546.9039, 2768.465
547.3860, 2799.661
547.8681, 2843.329
548.3502, 2859.009
548.8323, 2833.725
549.3145, 2818.173
549.7966, 2820.447
550.2787, 2833.031
550.7608, 2857.737
551.2429, 2891.104
551.7250, 2920.488
552.2072, 2939.420
552.6893, 2950.097
553.1714, 2953.353
553.6535, 2949.224
554.1356, 2948.156
554.6177, 2953.582
555.0999, 2965.761
555.5820, 2986.853
556.0641, 3019.166
556.5462, 3050.859
557.0283, 3086.522
557.5104, 3115.714
557.9926, 3120.689
558.4747, 3107.254
558.9568, 3104.155
559.4389, 3133.778
559.9210, 3187.969
560.4031, 3224.592
560.8853, 3224.957
561.3674, 3239.400
561.8495, 3280.607
562.3316, 3332.322
562.8137, 3384.140
563.2958, 3433.964
563.7780, 3481.543
564.2601, 3525.649
564.7422, 3567.231
565.2243, 3609.007
565.7064, 3650.877
566.1885, 3693.172
566.6707, 3733.927
567.1528, 3775.957
567.6349, 3825.592
568.1170, 3887.153
568.5991, 3946.064
569.0812, 3996.285
569.5634, 4041.992
570.0455, 4088.597
570.5276, 4136.501
571.0097, 4180.938
571.4918, 4218.364
571.9739, 4249.017
572.4561, 4277.573
572.9382, 4312.829
573.4203, 4333.248
573.9024, 4325.267
574.3845, 4308.268
574.8666, 4304.748
575.3488, 4316.813
575.8309, 4320.432
576.3130, 4294.184
576.7951, 4241.689
577.2772, 4172.401
577.7593, 4079.101
578.2415, 3999.965
578.7236, 3970.248
579.2057, 3965.234
579.6878, 3925.908
580.1699, 3835.626
580.6520, 3742.719
581.1342, 3661.615
581.6163, 3590.052
582.0984, 3527.885
582.5805, 3474.100
583.0626, 3425.516
583.5447, 3379.906
584.0269, 3336.930
584.5090, 3292.493
584.9911, 3233.107
585.4732, 3191.815
585.9553, 3194.154
586.4374, 3203.491
586.9196, 3183.894
587.4017, 3130.006
587.8838, 3066.774
588.3659, 3010.438
588.8480, 2961.842
589.3301, 2923.666
589.8123, 2896.358
590.2944, 2877.384
590.7765, 2869.998
591.2586, 2868.307
591.7407, 2857.621
592.2228, 2835.977
592.7050, 2809.948
593.1871, 2772.302
593.6692, 2736.695
594.1513, 2723.434
594.6334, 2730.820
595.1155, 2735.763
595.5977, 2718.595
596.0798, 2684.218
596.5619, 2665.777
597.0440, 2677.472
597.5261, 2680.945
598.0082, 2663.112
598.4904, 2640.416
598.9725, 2625.118
599.4546, 2618.638
599.9367, 2616.087
600.4188, 2615.860
600.9009, 2616.793
601.3831, 2616.386
601.8652, 2614.562
602.3473, 2612.874
602.8294, 2613.496
603.3115, 2613.388
603.7936, 2604.095
604.2758, 2580.263
604.7579, 2562.735
605.2400, 2561.874
605.7221, 2562.568
606.2042, 2549.856
606.6863, 2527.369
607.1685, 2509.971
607.6506, 2507.315
608.1327, 2515.216
608.6148, 2522.696
609.0969, 2530.846
609.5790, 2535.100
610.0612, 2532.030
