##NAMES=Painite
##RRUFFID=R100164
##IDEAL CHEMISTRY=CaZr^4+^Al_9_O_15_(BO_3_)
##LOCALITY=Mogok, Burma
##OWNER=RRUFF
##SOURCE=William W. Pinch
##DESCRIPTION=Brown fragment associated with red ruby corundum
##STATUS=The identification of this mineral has been confirmed by single-crystal X-ray diffraction.
##URL=rruff.info/R100164
169.6203, 3513.116
170.1024, 3495.965
170.5845, 3469.175
171.0666, 3444.226
171.5487, 3420.431
172.0309, 3397.915
172.5130, 3377.190
172.9951, 3359.926
173.4772, 3344.502
173.9593, 3328.315
174.4414, 3308.666
174.9236, 3288.688
175.4057, 3271.960
175.8878, 3258.267
176.3699, 3246.720
176.8520, 3236.932
177.3341, 3228.498
177.8163, 3220.590
178.2984, 3212.582
178.7805, 3204.930
179.2626, 3198.406
179.7447, 3193.120
180.2268, 3188.547
180.7090, 3184.907
181.1911, 3181.774
181.6732, 3177.861
182.1553, 3174.653
182.6374, 3170.042
183.1195, 3159.302
183.6017, 3141.882
184.0838, 3120.390
184.5659, 3094.961
185.0480, 3066.766
185.5301, 3040.543
186.0123, 3017.766
186.4944, 2998.625
186.9765, 2985.927
187.4586, 2980.702
187.9407, 2977.629
188.4228, 2968.246
188.9050, 2953.241
189.3871, 2939.648
189.8692, 2932.250
190.3513, 2929.788
190.8334, 2925.903
191.3155, 2920.292
191.7977, 2913.355
192.2798, 2904.960
192.7619, 2895.133
193.2440, 2886.415
193.7261, 2881.367
194.2082, 2879.508
194.6904, 2873.796
195.1725, 2862.726
195.6546, 2850.005
196.1367, 2843.326
196.6188, 2843.001
197.1009, 2843.742
197.5831, 2842.987
198.0652, 2840.727
198.5473, 2837.756
199.0294, 2833.794
199.5115, 2829.526
199.9937, 2826.488
200.4758, 2824.843
200.9579, 2823.360
201.4400, 2821.288
201.9221, 2818.532
202.4042, 2816.013
202.8864, 2813.567
203.3685, 2811.536
203.8506, 2810.879
204.3327, 2811.774
204.8148, 2813.246
205.2969, 2815.198
205.7791, 2817.914
206.2612, 2819.001
206.7433, 2818.185
207.2254, 2815.776
207.7075, 2812.197
208.1896, 2806.926
208.6718, 2802.001
209.1539, 2799.057
209.6360, 2798.983
210.1181, 2796.276
210.6002, 2789.407
211.0823, 2780.469
211.5645, 2775.656
212.0466, 2776.295
212.5287, 2778.039
213.0108, 2778.583
213.4929, 2777.615
213.9750, 2776.823
214.4572, 2776.126
214.9393, 2775.757
215.4214, 2776.421
215.9035, 2778.303
216.3856, 2780.806
216.8678, 2783.602
217.3499, 2786.760
217.8320, 2789.876
218.3141, 2792.749
218.7962, 2795.490
219.2783, 2798.902
219.7605, 2804.164
220.2426, 2807.729
220.7247, 2807.063
221.2068, 2799.954
221.6889, 2794.932
222.1710, 2793.019
222.6532, 2793.293
223.1353, 2793.329
223.6174, 2794.396
224.0995, 2793.211
224.5816, 2787.668
225.0637, 2775.467
225.5459, 2764.794
226.0280, 2756.605
226.5101, 2749.948
226.9922, 2741.969
227.4743, 2731.362
227.9564, 2721.380
228.4386, 2713.612
228.9207, 2709.253
229.4028, 2704.478
229.8849, 2699.081
230.3670, 2693.213
230.8492, 2686.976
231.3313, 2679.480
231.8134, 2673.027
232.2955, 2668.755
232.7776, 2667.745
233.2597, 2666.769
233.7419, 2666.374
234.2240, 2665.912
234.7061, 2663.478
235.1882, 2657.920
235.6703, 2652.273
236.1524, 2647.661
236.6346, 2643.946
237.1167, 2641.824
237.5988, 2641.965
238.0809, 2643.442
238.5630, 2644.135
239.0451, 2643.883
239.5273, 2642.997
240.0094, 2641.252
240.4915, 2637.420
240.9736, 2635.916
241.4557, 2637.863
241.9378, 2641.538
242.4200, 2643.372
242.9021, 2642.608
243.3842, 2641.124
243.8663, 2639.613
244.3484, 2638.229
244.8306, 2636.160
245.3127, 2632.527
245.7948, 2628.693
246.2769, 2627.523
246.7590, 2630.981
247.2411, 2633.809
247.7233, 2633.907
248.2054, 2630.222
248.6875, 2627.830
249.1696, 2627.023
249.6517, 2627.368
250.1338, 2628.551
250.6160, 2632.171
251.0981, 2633.745
251.5802, 2631.191
252.0623, 2623.264
252.5444, 2617.697
253.0265, 2615.211
253.5087, 2614.555
253.9908, 2614.228
254.4729, 2614.807
254.9550, 2614.516
255.4371, 2612.202
255.9192, 2607.275
256.4014, 2605.642
256.8835, 2609.244
257.3656, 2614.214
257.8477, 2615.383
258.3298, 2610.150
258.8120, 2607.039
259.2941, 2609.078
259.7762, 2616.760
260.2583, 2620.920
260.7404, 2620.297
261.2225, 2617.686
261.7047, 2616.004
262.1868, 2615.543
262.6689, 2615.113
263.1510, 2614.544
263.6331, 2613.810
264.1152, 2612.328
264.5974, 2609.646
265.0795, 2606.917
265.5616, 2605.422
266.0437, 2605.537
266.5258, 2605.697
267.0079, 2605.814
267.4901, 2605.851
267.9722, 2605.230
268.4543, 2603.964
268.9364, 2602.150
269.4185, 2599.561
269.9006, 2595.801
270.3828, 2593.151
270.8649, 2592.024
271.3470, 2592.237
271.8291, 2593.200
272.3112, 2595.310
272.7933, 2596.983
273.2755, 2596.651
273.7576, 2593.843
274.2397, 2592.017
274.7218, 2591.946
275.2039, 2592.840
275.6860, 2592.228
276.1682, 2589.805
276.6503, 2587.015
277.1324, 2584.444
277.6145, 2582.065
278.0966, 2581.450
278.5787, 2583.605
279.0609, 2586.722
279.5430, 2586.099
280.0251, 2581.128
280.5072, 2576.679
280.9893, 2575.903
281.4715, 2578.810
281.9536, 2580.956
282.4357, 2582.153
282.9178, 2582.515
283.3999, 2581.527
283.8820, 2578.997
284.3642, 2577.716
284.8463, 2579.821
285.3284, 2584.858
285.8105, 2587.677
286.2926, 2587.749
286.7747, 2586.989
287.2569, 2588.360
287.7390, 2591.732
288.2211, 2594.441
288.7032, 2595.040
289.1853, 2594.026
289.6674, 2593.891
290.1496, 2594.821
290.6317, 2595.569
291.1138, 2594.200
291.5959, 2591.113
292.0780, 2589.054
292.5602, 2589.963
293.0423, 2592.170
293.5244, 2590.713
294.0065, 2585.469
294.4886, 2580.030
294.9707, 2578.070
295.4529, 2578.706
295.9350, 2578.658
296.4171, 2576.498
296.8992, 2573.725
297.3813, 2573.198
297.8634, 2574.770
298.3456, 2576.802
298.8277, 2578.280
299.3098, 2579.277
299.7919, 2579.886
300.2740, 2579.996
300.7561, 2579.951
301.2383, 2580.352
301.7204, 2581.069
302.2025, 2581.462
302.6846, 2580.318
303.1667, 2578.834
303.6488, 2578.999
304.1310, 2581.446
304.6131, 2584.518
305.0952, 2587.105
305.5773, 2589.056
306.0594, 2589.959
306.5415, 2588.447
307.0237, 2586.340
307.5058, 2585.440
307.9879, 2585.925
308.4700, 2587.565
308.9521, 2592.209
309.4343, 2597.682
309.9164, 2600.290
310.3985, 2595.548
310.8806, 2589.302
311.3627, 2586.549
311.8448, 2587.528
312.3270, 2587.895
312.8091, 2584.388
313.2912, 2579.017
313.7733, 2574.157
314.2554, 2569.996
314.7375, 2567.127
315.2197, 2567.002
315.7018, 2569.157
316.1839, 2569.751
316.6660, 2564.885
317.1481, 2558.843
317.6302, 2555.254
318.1124, 2557.220
318.5945, 2558.927
319.0766, 2557.855
319.5587, 2554.819
320.0408, 2552.628
320.5229, 2552.778
321.0051, 2553.578
321.4872, 2554.175
321.9693, 2554.661
322.4514, 2554.495
322.9335, 2552.897
323.4156, 2550.627
323.8978, 2549.153
324.3799, 2549.905
324.8620, 2550.478
325.3441, 2549.755
325.8262, 2546.906
326.3083, 2545.186
326.7905, 2545.567
327.2726, 2546.977
327.7547, 2548.086
328.2368, 2549.584
328.7189, 2550.013
329.2010, 2548.467
329.6832, 2544.639
330.1653, 2542.469
330.6474, 2543.042
331.1295, 2544.500
331.6116, 2545.380
332.0938, 2545.585
332.5759, 2545.332
333.0580, 2544.473
333.5401, 2543.094
334.0222, 2541.864
334.5043, 2540.427
334.9865, 2539.595
335.4686, 2540.010
335.9507, 2542.321
336.4328, 2544.084
336.9149, 2545.066
337.3970, 2545.488
337.8792, 2545.918
338.3613, 2546.417
338.8434, 2546.810
339.3255, 2547.333
339.8076, 2548.234
340.2898, 2547.027
340.7719, 2542.738
341.2540, 2538.078
341.7361, 2537.590
342.2182, 2541.765
342.7003, 2545.652
343.1825, 2547.472
343.6646, 2547.508
344.1467, 2547.278
344.6288, 2546.649
345.1109, 2546.355
345.5930, 2547.236
346.0752, 2549.184
346.5573, 2551.426
347.0394, 2553.975
347.5215, 2556.490
348.0036, 2557.810
348.4857, 2557.960
348.9679, 2558.811
349.4500, 2563.125
349.9321, 2569.338
350.4142, 2572.739
350.8963, 2572.212
351.3784, 2569.777
351.8606, 2567.207
352.3427, 2564.740
352.8248, 2563.204
353.3069, 2564.461
353.7890, 2566.423
354.2711, 2566.064
354.7533, 2563.014
355.2354, 2559.097
355.7175, 2554.760
356.1996, 2550.767
356.6817, 2548.448
357.1638, 2551.145
357.6460, 2553.693
358.1281, 2551.160
358.6102, 2543.946
359.0923, 2537.450
359.5744, 2535.375
360.0565, 2535.267
360.5387, 2534.729
361.0208, 2532.490
361.5029, 2530.466
361.9850, 2529.635
362.4671, 2529.729
362.9492, 2529.941
363.4314, 2530.317
363.9135, 2530.512
364.3956, 2530.024
364.8777, 2527.720
365.3598, 2527.351
365.8419, 2531.959
366.3241, 2538.489
366.8062, 2542.324
367.2883, 2540.055
367.7704, 2537.690
368.2526, 2536.859
368.7347, 2537.869
369.2168, 2538.848
369.6989, 2539.733
370.1810, 2540.579
370.6631, 2541.450
371.1453, 2542.491
371.6274, 2543.294
372.1095, 2543.360
372.5916, 2542.991
373.0737, 2544.430
373.5558, 2549.127
374.0380, 2553.478
374.5201, 2555.216
375.0022, 2553.180
375.4843, 2552.334
375.9664, 2553.042
376.4485, 2554.832
376.9307, 2556.723
377.4128, 2558.540
377.8949, 2561.120
378.3770, 2564.806
378.8591, 2569.550
379.3412, 2575.500
379.8234, 2583.150
380.3055, 2590.075
380.7876, 2592.791
381.2697, 2591.566
381.7518, 2590.724
382.2339, 2591.812
382.7161, 2593.723
383.1982, 2594.116
383.6803, 2593.001
384.1624, 2590.472
384.6445, 2585.761
385.1266, 2579.724
385.6088, 2574.527
386.0909, 2570.633
386.5730, 2567.261
387.0551, 2563.302
387.5372, 2559.144
388.0193, 2555.813
388.5015, 2553.361
388.9836, 2552.300
389.4657, 2553.806
389.9478, 2558.008
390.4299, 2562.132
390.9120, 2563.618
391.3942, 2564.126
391.8763, 2565.687
392.3584, 2570.159
392.8405, 2574.750
393.3226, 2577.397
393.8047, 2578.700
394.2869, 2581.401
394.7690, 2588.875
395.2511, 2596.516
395.7332, 2601.038
396.2154, 2599.404
396.6975, 2599.970
397.1796, 2606.669
397.6617, 2616.365
398.1438, 2623.612
398.6259, 2626.833
399.1081, 2628.432
399.5902, 2629.137
400.0723, 2629.121
400.5544, 2626.979
401.0365, 2621.558
401.5186, 2614.780
402.0008, 2608.250
402.4829, 2602.131
402.9650, 2595.785
403.4471, 2589.076
403.9292, 2582.038
404.4113, 2574.861
404.8935, 2567.151
405.3756, 2560.108
405.8577, 2554.495
406.3398, 2550.562
406.8219, 2546.716
407.3040, 2542.938
407.7862, 2539.336
408.2683, 2536.002
408.7504, 2532.967
409.2325, 2530.246
409.7146, 2527.930
410.1967, 2525.995
410.6789, 2524.090
411.1610, 2522.236
411.6431, 2520.682
412.1252, 2520.516
412.6073, 2520.909
413.0894, 2519.057
413.5716, 2513.650
414.0537, 2507.613
414.5358, 2504.676
415.0179, 2504.169
415.5000, 2503.855
415.9821, 2502.108
416.4643, 2500.091
416.9464, 2498.745
417.4285, 2498.083
417.9106, 2498.640
418.3927, 2502.079
418.8748, 2506.449
419.3570, 2509.386
419.8391, 2508.797
420.3212, 2507.903
420.8033, 2508.263
421.2854, 2509.579
421.7675, 2510.392
422.2497, 2509.631
422.7318, 2508.784
423.2139, 2508.668
423.6960, 2509.640
424.1781, 2510.888
424.6602, 2512.897
425.1424, 2515.032
425.6245, 2516.277
426.1066, 2515.146
426.5887, 2515.031
427.0709, 2517.224
427.5530, 2521.706
428.0351, 2524.112
428.5172, 2523.044
428.9993, 2521.787
429.4814, 2522.746
429.9636, 2526.366
430.4457, 2530.468
430.9278, 2535.021
431.4099, 2539.792
431.8920, 2544.397
432.3741, 2548.927
432.8563, 2552.824
433.3384, 2554.831
433.8205, 2555.624
434.3026, 2560.646
434.7847, 2570.434
435.2668, 2580.332
435.7490, 2585.273
436.2311, 2586.314
436.7132, 2587.292
437.1953, 2590.240
437.6774, 2592.138
438.1595, 2587.956
438.6417, 2578.800
439.1238, 2569.224
439.6059, 2561.312
440.0880, 2554.735
440.5701, 2549.264
441.0522, 2544.920
441.5344, 2541.292
442.0165, 2538.797
442.4986, 2536.648
442.9807, 2533.887
443.4628, 2528.870
443.9449, 2524.474
444.4271, 2521.532
444.9092, 2520.057
445.3913, 2520.073
445.8734, 2522.536
446.3555, 2525.734
446.8376, 2528.968
447.3198, 2532.882
447.8019, 2535.374
448.2840, 2535.686
448.7661, 2534.847
449.2482, 2534.294
449.7303, 2534.519
450.2125, 2534.185
450.6946, 2532.711
451.1767, 2530.238
451.6588, 2528.747
452.1409, 2528.202
452.6230, 2528.719
453.1052, 2530.993
453.5873, 2535.307
454.0694, 2537.498
454.5515, 2536.585
455.0337, 2534.779
455.5158, 2536.183
455.9979, 2540.573
456.4800, 2544.553
456.9621, 2545.948
457.4442, 2546.168
457.9264, 2549.013
458.4085, 2554.382
458.8906, 2559.726
459.3727, 2562.491
459.8548, 2563.979
460.3369, 2565.983
460.8191, 2568.541
461.3012, 2572.672
461.7833, 2580.108
462.2654, 2589.728
462.7475, 2599.143
463.2296, 2606.564
463.7118, 2614.233
464.1939, 2624.260
464.6760, 2636.885
465.1581, 2647.254
465.6402, 2650.776
466.1223, 2653.207
466.6045, 2658.542
467.0866, 2673.884
467.5687, 2683.883
468.0508, 2686.254
468.5329, 2682.902
469.0150, 2678.051
469.4972, 2672.732
469.9793, 2664.407
470.4614, 2651.509
470.9435, 2633.740
471.4256, 2617.663
471.9077, 2603.330
472.3899, 2590.671
472.8720, 2579.937
473.3541, 2571.138
473.8362, 2562.722
474.3183, 2554.085
474.8004, 2546.212
475.2826, 2541.441
475.7647, 2539.599
476.2468, 2538.361
476.7289, 2537.066
477.2110, 2535.398
477.6931, 2532.446
478.1753, 2528.183
478.6574, 2523.752
479.1395, 2519.939
479.6216, 2516.592
480.1037, 2513.543
480.5858, 2510.906
481.0680, 2508.261
481.5501, 2505.333
482.0322, 2502.211
482.5143, 2499.076
482.9964, 2496.090
483.4786, 2493.088
483.9607, 2489.674
484.4428, 2485.776
484.9249, 2483.069
485.4070, 2483.052
485.8892, 2483.660
486.3713, 2483.402
486.8534, 2480.851
487.3355, 2479.505
487.8176, 2479.729
488.2997, 2481.097
488.7819, 2482.993
489.2640, 2486.229
489.7461, 2487.992
490.2282, 2486.619
490.7103, 2482.392
491.1924, 2480.894
491.6746, 2482.462
492.1567, 2485.205
492.6388, 2488.041
493.1209, 2490.843
493.6030, 2492.227
494.0851, 2491.855
494.5673, 2490.460
495.0494, 2488.532
495.5315, 2486.336
496.0136, 2484.912
496.4957, 2485.624
496.9778, 2486.839
497.4600, 2486.523
497.9421, 2484.830
498.4242, 2483.274
498.9063, 2483.135
499.3884, 2483.332
499.8705, 2482.977
500.3527, 2481.944
500.8348, 2480.242
501.3169, 2476.739
501.7990, 2472.912
502.2811, 2470.831
502.7632, 2471.957
503.2454, 2473.762
503.7275, 2476.199
504.2096, 2479.136
504.6917, 2481.060
505.1738, 2481.286
505.6559, 2481.461
506.1381, 2482.638
506.6202, 2485.383
507.1023, 2486.751
507.5844, 2486.188
508.0665, 2485.306
508.5486, 2486.612
509.0308, 2490.171
509.5129, 2493.060
509.9950, 2494.220
510.4771, 2494.491
510.9592, 2495.867
511.4413, 2498.176
511.9235, 2500.196
512.4056, 2501.132
512.8877, 2501.235
513.3698, 2500.750
513.8519, 2499.641
514.3340, 2498.491
514.8162, 2497.795
515.2983, 2497.283
515.7804, 2496.597
516.2625, 2494.784
516.7446, 2493.921
517.2267, 2495.698
517.7089, 2499.130
518.1910, 2501.731
518.6731, 2501.933
519.1552, 2502.281
519.6373, 2503.921
520.1194, 2507.073
520.6016, 2509.237
521.0837, 2508.970
521.5658, 2509.251
522.0479, 2512.692
522.5300, 2520.603
523.0121, 2526.386
523.4943, 2528.747
523.9764, 2529.900
524.4585, 2534.721
524.9406, 2543.255
525.4227, 2549.598
525.9048, 2550.238
526.3870, 2547.906
526.8691, 2550.094
527.3513, 2556.528
527.8334, 2562.742
528.3155, 2565.158
528.7976, 2565.548
529.2797, 2566.954
529.7618, 2570.169
530.2440, 2571.833
530.7261, 2567.660
531.2082, 2561.090
531.6903, 2556.608
532.1724, 2557.356
532.6545, 2558.544
533.1367, 2558.663
533.6188, 2557.972
534.1009, 2557.435
534.5830, 2557.209
535.0651, 2557.158
535.5472, 2557.201
536.0294, 2557.304
536.5115, 2558.017
536.9936, 2560.192
537.4757, 2561.821
537.9578, 2560.808
538.4399, 2556.558
538.9221, 2553.679
539.4042, 2553.218
539.8863, 2553.254
540.3684, 2550.203
540.8505, 2544.252
541.3326, 2537.663
541.8148, 2531.274
542.2969, 2524.889
542.7790, 2517.822
543.2611, 2510.214
543.7432, 2502.944
544.2253, 2496.536
544.7075, 2490.810
545.1896, 2486.042
545.6717, 2482.666
546.1538, 2477.978
546.6359, 2468.411
547.1180, 2457.771
547.6002, 2450.225
548.0823, 2449.553
548.5644, 2448.798
549.0465, 2446.196
549.5286, 2442.569
550.0107, 2440.429
550.4929, 2441.102
550.9750, 2441.189
551.4571, 2439.171
551.9392, 2435.010
552.4213, 2433.084
552.9034, 2434.130
553.3856, 2435.043
553.8677, 2431.747
554.3498, 2424.933
554.8319, 2424.155
555.3140, 2431.603
555.7961, 2440.615
556.2783, 2441.753
556.7604, 2437.313
557.2425, 2433.773
557.7246, 2434.400
558.2067, 2436.075
558.6888, 2435.403
559.1710, 2433.153
559.6531, 2431.904
560.1352, 2433.925
560.6173, 2436.565
561.0994, 2437.933
561.5815, 2437.599
562.0637, 2438.579
562.5458, 2443.280
563.0279, 2448.303
563.5100, 2451.106
563.9921, 2449.321
564.4742, 2449.466
564.9564, 2452.094
565.4385, 2456.317
565.9206, 2460.723
566.4027, 2465.210
566.8848, 2470.084
567.3669, 2475.487
567.8491, 2481.246
568.3312, 2486.951
568.8133, 2492.550
569.2954, 2497.311
569.7775, 2499.960
570.2596, 2501.652
570.7418, 2505.153
571.2239, 2510.769
571.7060, 2514.778
572.1881, 2512.007
572.6702, 2507.160
573.1523, 2505.861
573.6345, 2512.612
574.1166, 2517.449
574.5987, 2514.995
575.0808, 2508.551
575.5629, 2503.535
576.0450, 2503.224
576.5272, 2501.793
577.0093, 2497.963
577.4914, 2492.064
577.9735, 2485.897
578.4556, 2479.059
578.9377, 2472.923
579.4199, 2467.841
579.9020, 2463.880
580.3841, 2462.576
580.8662, 2464.329
581.3483, 2466.748
581.8304, 2467.335
582.3126, 2466.585
582.7947, 2466.166
583.2768, 2466.396
583.7589, 2466.999
584.2410, 2467.014
584.7231, 2467.211
585.2053, 2469.121
585.6874, 2475.215
586.1696, 2481.418
586.6517, 2485.781
587.1338, 2488.384
587.6159, 2489.850
588.0980, 2489.892
588.5801, 2489.122
589.0623, 2487.223
589.5444, 2483.693
590.0265, 2482.669
590.5086, 2486.462
590.9907, 2489.842
591.4728, 2488.206
591.9550, 2480.650
592.4371, 2474.477
592.9192, 2470.695
593.4013, 2467.614
593.8834, 2462.605
594.3655, 2456.010
594.8477, 2449.754
595.3298, 2444.644
595.8119, 2440.105
596.2940, 2435.170
596.7761, 2430.134
597.2582, 2425.823
597.7404, 2422.455
598.2225, 2420.086
598.7046, 2419.175
599.1867, 2419.680
599.6688, 2419.646
600.1509, 2418.269
600.6331, 2416.248
601.1152, 2413.883
601.5973, 2410.607
602.0794, 2408.338
602.5615, 2407.590
603.0436, 2407.372
603.5258, 2406.459
604.0079, 2404.617
604.4900, 2403.664
604.9721, 2404.382
605.4542, 2405.512
605.9363, 2403.555
606.4185, 2399.051
606.9006, 2396.450
607.3827, 2398.867
607.8648, 2403.759
608.3469, 2408.148
608.8290, 2411.940
609.3112, 2414.332
609.7933, 2412.840
610.2754, 2411.188
610.7575, 2412.404
611.2396, 2417.093
611.7217, 2422.130
612.2039, 2427.144
612.6860, 2431.756
613.1681, 2435.740
613.6502, 2439.296
614.1323, 2441.646
614.6144, 2442.081
615.0966, 2441.853
615.5787, 2442.731
616.0608, 2444.773
616.5429, 2447.840
617.0250, 2452.532
617.5071, 2457.563
617.9893, 2459.715
618.4714, 2459.253
618.9535, 2458.056
619.4356, 2456.594
619.9177, 2455.272
620.3998, 2455.333
620.8820, 2456.487
621.3641, 2456.064
621.8462, 2450.996
622.3283, 2444.830
622.8104, 2440.387
623.2925, 2438.603
623.7747, 2435.942
624.2568, 2430.609
624.7389, 2424.817
625.2210, 2420.341
625.7031, 2417.636
626.1852, 2415.244
626.6674, 2413.345
627.1495, 2411.439
627.6316, 2408.624
628.1137, 2404.865
628.5958, 2401.017
629.0779, 2397.221
629.5601, 2393.634
630.0422, 2390.629
630.5243, 2388.173
631.0064, 2385.890
631.4885, 2383.268
631.9706, 2380.980
632.4528, 2379.899
632.9349, 2379.964
633.4170, 2379.996
633.8991, 2379.263
634.3812, 2378.534
634.8633, 2378.198
635.3455, 2378.219
635.8276, 2378.990
636.3097, 2381.149
636.7918, 2383.444
637.2739, 2384.724
637.7560, 2384.618
638.2382, 2384.718
638.7203, 2384.977
639.2024, 2385.683
639.6845, 2387.540
640.1666, 2390.382
640.6487, 2393.074
641.1309, 2395.406
641.6130, 2397.190
642.0951, 2397.784
642.5772, 2397.524
643.0594, 2397.383
643.5415, 2397.253
644.0236, 2397.884
644.5057, 2400.682
644.9879, 2405.271
645.4700, 2407.912
645.9521, 2406.282
646.4342, 2403.923
646.9163, 2402.058
647.3984, 2400.482
647.8806, 2401.616
648.3627, 2407.351
648.8448, 2412.441
649.3269, 2411.501
649.8090, 2404.573
650.2911, 2401.519
650.7733, 2403.720
651.2554, 2406.931
651.7375, 2405.243
652.2196, 2400.638
652.7017, 2398.177
653.1838, 2400.275
653.6660, 2402.837
654.1481, 2402.602
654.6302, 2400.598
655.1123, 2398.655
655.5944, 2397.034
656.0765, 2395.841
656.5587, 2394.970
657.0408, 2394.471
657.5229, 2394.813
658.0050, 2397.210
658.4871, 2398.204
658.9692, 2396.006
659.4514, 2391.016
659.9335, 2388.151
660.4156, 2387.706
660.8977, 2387.050
661.3798, 2383.814
661.8619, 2379.004
662.3441, 2375.066
662.8262, 2372.156
663.3083, 2370.192
663.7904, 2369.752
664.2725, 2369.952
664.7546, 2370.040
665.2368, 2370.395
665.7189, 2369.265
666.2010, 2365.137
666.6831, 2359.687
667.1652, 2354.715
667.6473, 2348.808
668.1295, 2346.081
