##NAMES=Painite
##RRUFFID=R060957
##IDEAL CHEMISTRY=CaZr^4+^Al_9_O_15_(BO_3_)
##LOCALITY=Ohngaing Village, Mogok, Burma
##OWNER=RRUFF
##SOURCE=Marcus Origlieri
##DESCRIPTION=Single crystal, reddish-brown to orangish prism section, several prism forms, small transparent areas.
##STATUS=The identification of this mineral has been confirmed by X-ray diffraction.
##URL=rruff.info/R060957
102.7205, 91872.34
103.2026, 91948.47
103.6847, 91972.64
104.1668, 91993.71
104.6490, 92015.91
105.1311, 92037.05
105.6132, 92071.63
106.0953, 92121.41
106.5774, 92178.19
107.0595, 92228.52
107.5417, 92218.28
108.0238, 92253.92
108.5059, 92384.98
108.9880, 92737.80
109.4701, 92920.61
109.9522, 92812.10
110.4344, 92530.38
110.9165, 92343.70
111.3986, 92387.96
111.8807, 92443.64
112.3628, 92419.48
112.8449, 92247.98
113.3271, 92073.67
113.8092, 91891.09
114.2913, 91715.82
114.7734, 91616.52
115.2555, 91689.45
115.7376, 91813.05
116.2198, 91895.24
116.7019, 91831.40
117.1840, 91790.65
117.6661, 91858.70
118.1482, 92039.41
118.6303, 92213.97
119.1124, 92326.09
119.5946, 92391.27
120.0767, 92430.38
120.5588, 92412.77
121.0409, 92391.91
121.5230, 92410.16
122.0051, 92475.88
122.4873, 92556.34
122.9694, 92636.98
123.4515, 92713.49
123.9336, 92774.45
124.4157, 92804.73
124.8979, 92819.30
125.3800, 92837.83
125.8621, 92863.84
126.3442, 92900.41
126.8263, 92973.87
127.3084, 93077.16
127.7905, 93148.63
128.2727, 93113.60
128.7548, 93006.70
129.2369, 92921.14
129.7190, 92880.31
130.2011, 92876.57
130.6832, 92904.33
131.1654, 92966.33
131.6475, 93028.61
132.1296, 93044.40
132.6117, 93018.20
133.0938, 93007.24
133.5759, 93034.55
134.0581, 93094.19
134.5402, 93154.36
135.0223, 93217.29
135.5044, 93270.59
135.9865, 93296.27
136.4686, 93293.33
136.9508, 93269.41
137.4329, 93211.08
137.9150, 93110.91
138.3971, 93074.82
138.8792, 93132.43
139.3613, 93238.91
139.8434, 93277.09
140.3256, 93228.79
140.8077, 93164.36
141.2898, 93121.91
141.7719, 93106.41
142.2540, 93105.57
142.7361, 93116.37
143.2183, 93141.43
143.7004, 93201.17
144.1825, 93327.27
144.6646, 93445.76
145.1467, 93495.43
145.6288, 93426.77
146.1110, 93361.52
146.5931, 93311.06
147.0752, 93272.29
147.5573, 93240.80
148.0394, 93219.73
148.5215, 93199.02
149.0037, 93168.14
149.4858, 93098.57
149.9679, 93048.53
150.4500, 93051.06
150.9321, 93152.32
151.4142, 93159.66
151.8964, 93031.30
152.3785, 92826.13
152.8606, 92625.40
153.3427, 92400.73
153.8248, 92219.17
154.3069, 92114.47
154.7890, 92136.40
155.2712, 92144.15
155.7533, 92089.63
156.2354, 92011.09
156.7175, 91989.38
157.1996, 92073.18
157.6817, 92193.91
158.1639, 92315.96
158.6460, 92420.80
159.1281, 92534.74
159.6102, 92656.39
160.0923, 92783.92
160.5744, 92921.45
161.0566, 93082.43
161.5387, 93237.66
162.0208, 93364.70
162.5029, 93408.77
162.9850, 93459.65
163.4671, 93580.02
163.9493, 93755.91
164.4314, 93879.77
164.9135, 93898.67
165.3956, 93841.16
165.8777, 93737.30
166.3598, 93532.26
166.8420, 93338.27
167.3241, 93232.02
167.8062, 93218.67
168.2883, 93239.62
168.7704, 93301.78
169.2525, 93372.55
169.7346, 93401.29
170.2168, 93335.12
170.6989, 93238.88
171.1810, 93171.85
171.6631, 93142.41
172.1452, 93114.95
172.6273, 93004.56
173.1095, 92870.20
173.5916, 92840.87
174.0737, 93083.48
174.5558, 93431.34
175.0379, 93664.59
175.5201, 93742.08
176.0022, 93769.09
176.4843, 93842.47
176.9664, 93952.48
177.4485, 94069.15
177.9306, 94149.46
178.4128, 94227.34
178.8949, 94368.18
179.3770, 94592.02
179.8591, 94864.46
180.3412, 95179.13
180.8233, 95526.24
181.3055, 95814.09
181.7876, 96009.73
182.2697, 96100.17
182.7518, 96043.40
183.2339, 95792.85
183.7160, 95431.99
184.1981, 95094.45
184.6803, 94779.53
185.1624, 94485.60
185.6445, 94187.34
186.1266, 93900.10
186.6087, 93683.73
187.0908, 93572.01
187.5730, 93532.23
188.0551, 93487.61
188.5372, 93435.67
189.0193, 93395.89
189.5014, 93404.38
189.9835, 93453.92
190.4657, 93472.13
190.9478, 93431.88
191.4299, 93344.58
191.9120, 93249.25
192.3941, 93143.81
192.8762, 93044.91
193.3584, 92971.34
193.8405, 92923.90
194.3226, 92893.42
194.8047, 92885.55
195.2868, 92897.33
195.7689, 92896.59
196.2511, 92882.67
196.7332, 92862.63
197.2153, 92840.31
197.6974, 92814.97
198.1795, 92809.02
198.6616, 92829.45
199.1437, 92877.21
199.6259, 92958.72
200.1080, 93078.59
200.5901, 93226.34
201.0722, 93391.50
201.5543, 93580.28
202.0364, 93750.98
202.5186, 93871.45
203.0007, 93932.21
203.4828, 94020.86
203.9649, 94137.71
204.4470, 94276.91
204.9291, 94421.73
205.4113, 94563.63
205.8934, 94732.02
206.3755, 94971.21
206.8576, 95311.78
207.3397, 95529.80
207.8218, 95611.27
208.3040, 95568.94
208.7861, 95409.61
209.2682, 95095.08
209.7503, 94779.12
210.2324, 94549.30
210.7145, 94426.26
211.1967, 94325.75
211.6788, 94236.42
212.1609, 94174.22
212.6430, 94196.58
213.1251, 94334.83
213.6072, 94499.64
214.0894, 94624.63
214.5715, 94670.64
215.0536, 94809.13
215.5357, 95073.92
216.0178, 95438.47
216.4999, 95779.94
216.9820, 96065.51
217.4642, 96368.52
217.9463, 96752.80
218.4284, 97256.60
218.9105, 97711.55
219.3926, 98093.63
219.8747, 98405.68
220.3569, 98698.17
220.8390, 98986.78
221.3211, 99235.52
221.8032, 99441.34
222.2853, 99652.59
222.7674, 99704.34
223.2496, 99552.98
223.7317, 99213.31
224.2138, 98833.32
224.6959, 98398.98
225.1780, 97943.33
225.6601, 97472.46
226.1423, 96964.10
226.6244, 96500.59
227.1065, 96110.63
227.5886, 95786.48
228.0707, 95440.51
228.5528, 95041.52
229.0350, 94643.52
229.5171, 94295.26
229.9992, 93990.70
230.4813, 93731.18
230.9634, 93523.11
231.4455, 93364.33
231.9276, 93220.55
232.4098, 93097.87
232.8919, 92983.88
233.3740, 92867.27
233.8561, 92731.77
234.3382, 92627.49
234.8203, 92579.24
235.3025, 92591.47
235.7846, 92552.23
236.2667, 92430.88
236.7488, 92289.56
237.2309, 92191.58
237.7130, 92153.52
238.1952, 92133.46
238.6773, 92130.86
239.1594, 92148.31
239.6415, 92150.72
240.1236, 92136.52
240.6057, 92110.31
241.0879, 92072.98
241.5700, 92008.07
242.0521, 91963.27
242.5342, 91946.16
243.0163, 91956.05
243.4984, 91994.20
243.9806, 92064.05
244.4627, 92154.64
244.9448, 92257.11
245.4269, 92383.40
245.9090, 92492.22
246.3911, 92580.55
246.8732, 92648.93
247.3554, 92647.08
247.8375, 92521.56
248.3196, 92369.32
248.8017, 92306.66
249.2838, 92398.86
249.7659, 92460.47
250.2481, 92460.52
250.7302, 92402.27
251.2123, 92263.27
251.6944, 91986.19
252.1765, 91691.77
252.6586, 91522.11
253.1408, 91551.34
253.6229, 91569.28
254.1050, 91527.09
254.5871, 91423.26
255.0692, 91323.09
255.5513, 91203.30
256.0334, 91114.30
256.5156, 91120.45
256.9977, 91270.16
257.4798, 91409.82
257.9619, 91497.42
258.4440, 91528.04
258.9261, 91575.81
259.4083, 91648.81
259.8904, 91723.24
260.3725, 91763.42
260.8546, 91738.72
261.3367, 91747.91
261.8188, 91824.57
262.3010, 91970.84
262.7831, 92078.77
263.2652, 92142.78
263.7473, 92173.77
264.2294, 92179.51
264.7115, 92149.71
265.1937, 92121.98
265.6758, 92108.55
266.1579, 92109.55
266.6400, 92094.23
267.1221, 92058.69
267.6042, 92016.73
268.0864, 91987.45
268.5685, 91980.70
269.0506, 91956.56
269.5327, 91895.25
270.0148, 91802.45
270.4969, 91764.12
270.9791, 91798.20
271.4612, 91855.66
271.9433, 91895.73
272.4254, 91925.50
272.9075, 91901.84
273.3896, 91765.22
273.8718, 91549.22
274.3539, 91577.93
274.8360, 91931.98
275.3181, 92331.35
275.8002, 92477.61
276.2823, 92327.36
276.7645, 92223.47
277.2466, 92250.94
277.7287, 92386.56
278.2108, 92490.41
278.6929, 92558.82
279.1750, 92604.51
279.6572, 92613.91
280.1393, 92579.12
280.6214, 92622.01
281.1035, 92795.77
281.5856, 93056.99
282.0677, 93246.05
282.5499, 93362.66
283.0320, 93405.41
283.5141, 93345.13
283.9962, 93183.63
284.4783, 93048.59
284.9604, 92981.54
285.4425, 92948.98
285.9247, 92828.52
286.4068, 92612.25
286.8889, 92412.30
287.3710, 92329.17
287.8531, 92352.88
288.3352, 92392.65
288.8174, 92449.58
289.2995, 92495.71
289.7816, 92458.45
290.2637, 92337.60
290.7458, 92185.90
291.2279, 92017.21
291.7101, 91841.69
292.1922, 91708.77
292.6743, 91627.39
293.1564, 91591.63
293.6385, 91622.24
294.1206, 91713.08
294.6028, 91775.51
295.0849, 91726.62
295.5670, 91604.39
296.0491, 91519.38
296.5312, 91499.13
297.0133, 91503.92
297.4955, 91466.99
297.9776, 91401.09
298.4597, 91364.19
298.9418, 91399.82
299.4239, 91489.94
299.9060, 91608.77
300.3882, 91761.23
300.8703, 91907.63
301.3524, 91979.38
301.8345, 91995.30
302.3166, 92025.88
302.7987, 92086.93
303.2809, 92187.96
303.7630, 92358.94
304.2451, 92609.44
304.7272, 92867.61
305.2093, 93074.87
305.6914, 93235.80
306.1736, 93356.56
306.6557, 93457.15
307.1378, 93513.63
307.6199, 93505.07
308.1020, 93431.41
308.5841, 93296.39
309.0663, 93083.83
309.5484, 92816.21
310.0305, 92537.17
310.5126, 92203.13
310.9947, 91907.48
311.4768, 91748.20
311.9590, 91733.08
312.4411, 91721.33
312.9232, 91626.67
313.4053, 91489.24
313.8874, 91361.05
314.3695, 91254.31
314.8516, 91164.05
315.3337, 91095.39
315.8159, 91047.16
316.2980, 90992.77
316.7801, 90914.94
317.2622, 90828.41
317.7443, 90746.52
318.2264, 90686.62
318.7086, 90622.47
319.1907, 90518.87
319.6728, 90389.56
320.1549, 90328.59
320.6370, 90427.80
321.1191, 90567.73
321.6013, 90668.23
322.0834, 90672.78
322.5655, 90677.30
323.0476, 90690.50
323.5297, 90712.63
324.0118, 90749.32
324.4940, 90835.64
324.9761, 90909.36
325.4582, 90936.27
325.9403, 90846.36
326.4224, 90803.59
326.9045, 90857.48
327.3867, 90967.88
327.8688, 91026.45
328.3509, 91005.85
328.8330, 90954.10
329.3151, 90879.10
329.7972, 90740.90
330.2794, 90667.62
330.7615, 90705.10
331.2436, 90794.30
331.7257, 90828.58
332.2078, 90773.13
332.6899, 90714.29
333.1721, 90679.43
333.6542, 90676.81
334.1363, 90664.54
334.6184, 90637.84
335.1005, 90608.32
335.5826, 90588.76
336.0648, 90578.13
336.5469, 90580.85
337.0290, 90594.69
337.5111, 90618.93
337.9932, 90676.29
338.4753, 90781.61
338.9575, 90886.04
339.4396, 90932.38
339.9217, 90904.59
340.4038, 90896.03
340.8859, 90929.75
341.3680, 90996.48
341.8502, 91069.90
342.3323, 91160.39
342.8144, 91209.36
343.2965, 91134.90
343.7786, 90942.23
344.2607, 90824.80
344.7429, 90831.24
345.2250, 90913.96
345.7071, 90956.46
346.1892, 90960.22
346.6713, 90985.06
347.1534, 91087.72
347.6355, 91248.32
348.1176, 91387.49
348.5998, 91495.18
349.0819, 91577.62
349.5640, 91641.07
350.0461, 91684.20
350.5282, 91708.20
351.0103, 91677.72
351.4925, 91633.68
351.9746, 91673.90
352.4567, 91818.13
352.9388, 91943.43
353.4209, 91912.87
353.9030, 91772.27
354.3852, 91623.59
354.8673, 91532.09
355.3494, 91446.14
355.8315, 91291.67
356.3136, 91072.20
356.7957, 90894.28
357.2779, 90887.27
357.7600, 90954.37
358.2421, 90970.20
358.7242, 90834.55
359.2063, 90688.63
359.6884, 90611.91
360.1706, 90596.64
360.6527, 90596.45
361.1348, 90588.01
361.6169, 90585.45
362.0990, 90601.09
362.5811, 90655.81
363.0633, 90698.91
363.5454, 90697.69
364.0275, 90668.65
364.5096, 90661.06
364.9917, 90702.22
365.4738, 90755.45
365.9560, 90805.30
366.4381, 90850.69
366.9202, 90893.92
367.4023, 90916.33
367.8844, 90943.11
368.3665, 91014.37
368.8487, 91179.60
369.3308, 91345.92
369.8129, 91482.13
370.2950, 91574.08
370.7771, 91713.46
371.2592, 91925.20
371.7414, 92166.03
372.2235, 92396.05
372.7056, 92612.70
373.1877, 92818.05
373.6698, 92996.28
374.1519, 93150.95
374.6341, 93355.75
375.1162, 93614.90
375.5983, 93905.98
376.0804, 94228.10
376.5625, 94594.25
377.0446, 94902.80
377.5267, 95125.59
378.0089, 95293.40
378.4910, 95494.52
378.9731, 95738.29
379.4552, 95958.19
379.9373, 96127.26
380.4194, 96246.91
380.9016, 96292.95
381.3837, 96267.12
381.8658, 96170.56
382.3479, 96010.11
382.8300, 95786.13
383.3121, 95479.39
383.7943, 95017.01
384.2764, 94477.45
384.7585, 94025.19
385.2406, 93663.85
385.7227, 93379.17
386.2048, 93184.44
386.6870, 93058.63
387.1691, 92960.15
387.6512, 92871.84
388.1333, 92802.80
388.6154, 92773.69
389.0975, 92776.52
389.5797, 92769.99
390.0618, 92696.70
390.5439, 92613.88
391.0260, 92585.46
391.5081, 92646.84
391.9902, 92728.95
392.4724, 92799.84
392.9545, 92867.29
393.4366, 92947.02
393.9187, 93048.45
394.4008, 93166.45
394.8829, 93301.84
395.3651, 93456.26
395.8472, 93626.20
396.3293, 93806.52
396.8114, 94003.60
397.2935, 94224.68
397.7756, 94496.84
398.2578, 94763.51
398.7399, 95027.46
399.2220, 95289.79
399.7041, 95482.77
400.1862, 95601.23
400.6683, 95651.09
401.1505, 95633.52
401.6326, 95521.46
402.1147, 95385.43
402.5968, 95209.34
403.0789, 95015.45
403.5610, 94890.35
404.0432, 94871.54
404.5253, 94850.25
405.0074, 94753.45
405.4895, 94546.80
405.9716, 94447.03
406.4537, 94467.65
406.9359, 94575.33
407.4180, 94749.18
407.9001, 94999.27
408.3822, 95197.51
408.8643, 95266.71
409.3464, 95242.41
409.8285, 95340.49
410.3106, 95581.06
410.7928, 95763.54
411.2749, 95695.88
411.7570, 95408.90
412.2391, 95010.40
412.7212, 94476.30
413.2033, 93905.48
413.6855, 93427.09
414.1676, 93040.86
414.6497, 92735.82
415.1318, 92555.54
415.6139, 92434.80
416.0960, 92293.68
416.5782, 92113.48
417.0603, 91930.32
417.5424, 91747.40
418.0245, 91582.55
418.5066, 91468.33
418.9887, 91468.43
419.4709, 91479.84
419.9530, 91436.01
420.4351, 91333.14
420.9172, 91249.90
421.3993, 91207.68
421.8814, 91204.51
422.3636, 91238.97
422.8457, 91336.70
423.3278, 91447.16
423.8099, 91573.80
424.2920, 91712.55
424.7741, 91834.22
425.2563, 91891.75
425.7384, 91976.55
426.2205, 92125.20
426.7026, 92355.98
427.1847, 92604.38
427.6668, 92865.42
428.1490, 93143.80
428.6311, 93444.84
429.1132, 93768.73
429.5953, 94118.21
430.0774, 94484.20
430.5595, 94867.67
431.0417, 95301.62
431.5238, 95780.52
432.0059, 96318.59
432.4880, 96946.59
432.9701, 97662.37
433.4522, 98385.76
433.9344, 99133.43
434.4165, 99854.16
434.8986, 100498.8
435.3807, 101062.6
435.8628, 101481.7
436.3449, 101752.6
436.8271, 101847.4
437.3092, 101694.1
437.7913, 101281.6
438.2734, 100680.1
438.7555, 99836.58
439.2376, 98860.28
439.7197, 97954.16
440.2018, 97220.98
440.6840, 96570.98
441.1661, 95892.89
441.6482, 95213.39
442.1303, 94695.10
442.6124, 94507.12
443.0945, 94460.02
443.5767, 94408.05
444.0588, 94290.59
444.5409, 94220.13
445.0230, 94252.77
445.5051, 94352.53
445.9872, 94443.98
446.4694, 94584.02
446.9515, 94651.76
447.4336, 94595.45
447.9157, 94393.52
448.3978, 94195.86
448.8799, 94005.63
449.3621, 93819.77
449.8442, 93637.49
450.3263, 93458.70
450.8084, 93278.95
451.2905, 93069.14
451.7726, 92862.12
452.2548, 92791.05
452.7369, 92875.80
453.2190, 93021.56
453.7011, 93192.31
454.1832, 93385.70
454.6653, 93543.07
455.1475, 93646.38
455.6296, 93767.81
456.1117, 94012.83
456.5938, 94367.63
457.0759, 94766.89
457.5580, 95201.02
458.0402, 95653.98
458.5223, 96092.96
459.0044, 96524.20
459.4865, 96965.88
459.9686, 97410.88
460.4507, 97886.30
460.9329, 98437.48
461.4150, 99068.26
461.8971, 99765.91
462.3792, 100525.1
462.8613, 101345.6
463.3434, 102245.5
463.8256, 103247.3
464.3077, 104304.2
464.7898, 105453.2
465.2719, 106715.4
465.7540, 107838.6
466.2361, 108935.8
466.7183, 109794.5
467.2004, 110228.9
467.6825, 110226.0
468.1646, 109792.1
468.6467, 108793.3
469.1288, 107346.0
469.6109, 105853.2
470.0930, 104251.0
470.5752, 102698.7
471.0573, 101228.9
471.5394, 99837.35
472.0215, 98608.79
472.5036, 97547.09
472.9857, 96638.16
473.4679, 95883.05
473.9500, 95288.54
474.4321, 94768.56
474.9142, 94304.75
475.3963, 93903.16
475.8784, 93598.40
476.3606, 93387.20
476.8427, 93194.19
477.3248, 92979.55
477.8069, 92751.13
478.2890, 92513.81
478.7711, 92263.77
479.2533, 92041.53
479.7354, 91875.18
480.2175, 91762.22
480.6996, 91697.25
481.1817, 91694.16
481.6638, 91722.84
482.1460, 91769.38
482.6281, 91830.28
483.1102, 91900.29
483.5923, 91945.57
484.0744, 92013.44
484.5565, 92138.60
485.0387, 92385.30
485.5208, 92575.82
486.0029, 92659.16
486.4850, 92684.47
486.9671, 92728.46
487.4492, 92808.26
487.9314, 92881.64
488.4135, 92936.45
488.8956, 92975.57
489.3777, 93046.03
489.8598, 93178.58
490.3419, 93285.75
490.8241, 93286.44
491.3062, 93176.22
491.7883, 93097.80
492.2704, 93080.72
492.7525, 93076.57
493.2346, 93008.22
493.7168, 92877.98
494.1989, 92696.12
494.6810, 92393.70
495.1631, 92064.27
495.6452, 91886.58
496.1273, 91857.95
496.6095, 91870.05
497.0916, 91836.55
497.5737, 91795.87
498.0558, 91800.58
498.5379, 91890.67
499.0201, 91980.62
499.5022, 92008.80
499.9843, 92004.63
500.4664, 92026.93
500.9485, 92088.98
501.4306, 92188.99
501.9127, 92330.55
502.3948, 92515.72
502.8770, 92723.67
503.3591, 92964.62
503.8412, 93216.97
504.3233, 93465.89
504.8054, 93686.44
505.2875, 93945.09
505.7697, 94252.20
506.2518, 94594.50
506.7339, 94939.38
507.2160, 95289.63
507.6981, 95625.66
508.1802, 95943.16
508.6624, 96241.16
509.1445, 96527.22
509.6266, 96810.32
510.1087, 97022.23
510.5908, 97073.59
511.0729, 96999.42
511.5551, 96909.61
512.0372, 96833.09
512.5193, 96739.23
513.0014, 96598.91
513.4835, 96414.95
513.9656, 96194.09
514.4478, 95867.12
514.9299, 95556.73
515.4120, 95359.57
515.8941, 95279.55
516.3762, 95228.27
516.8583, 95141.95
517.3405, 95083.96
517.8226, 95103.63
518.3047, 95266.95
518.7868, 95429.85
519.2689, 95534.52
519.7510, 95634.84
520.2332, 95845.22
520.7153, 96201.98
521.1974, 96604.81
521.6795, 97042.78
522.1616, 97516.01
522.6437, 97935.20
523.1259, 98280.58
523.6080, 98617.92
524.0901, 99008.18
524.5722, 99453.73
525.0543, 99885.23
525.5364, 100311.5
526.0186, 100693.4
526.5007, 100971.4
526.9828, 101149.9
527.4649, 101261.8
527.9470, 101367.0
528.4291, 101386.9
528.9113, 101201.4
529.3934, 100824.2
529.8755, 100379.8
530.3576, 99928.63
530.8397, 99454.81
531.3218, 98934.63
531.8040, 98357.66
532.2861, 97758.85
532.7682, 97128.23
533.2503, 96496.67
533.7324, 95925.97
534.2145, 95450.25
534.6967, 95005.63
535.1788, 94570.96
535.6609, 94154.14
536.1430, 93787.78
536.6251, 93480.61
537.1072, 93223.18
537.5894, 93022.95
538.0715, 92888.57
538.5536, 92758.67
539.0357, 92637.25
539.5178, 92508.85
539.9999, 92347.16
540.4821, 92155.55
540.9642, 91955.59
541.4463, 91753.13
541.9284, 91539.95
542.4105, 91273.59
542.8926, 90971.21
543.3748, 90716.14
543.8569, 90580.11
544.3390, 90507.66
544.8211, 90457.03
545.3032, 90427.72
545.7853, 90373.61
546.2675, 90247.48
546.7495, 90096.60
547.2316, 89967.83
547.7137, 89889.52
548.1959, 89816.00
548.6780, 89724.64
549.1601, 89633.37
549.6422, 89592.84
550.1243, 89637.03
550.6064, 89683.81
551.0886, 89703.34
551.5707, 89694.37
552.0528, 89709.55
552.5349, 89748.43
553.0170, 89812.66
553.4991, 89904.86
553.9813, 90024.36
554.4634, 90170.84
554.9455, 90353.48
555.4276, 90538.62
555.9097, 90668.08
556.3918, 90755.45
556.8740, 90846.41
557.3561, 90940.27
557.8382, 91063.11
558.3203, 91239.29
558.8024, 91469.54
559.2845, 91745.24
559.7667, 92117.78
560.2488, 92499.03
560.7309, 92825.59
561.2130, 93066.29
561.6951, 93318.00
562.1772, 93584.46
562.6594, 93878.43
563.1415, 94216.96
563.6236, 94624.88
564.1057, 95022.96
564.5878, 95372.38
565.0699, 95707.30
565.5521, 96186.19
566.0342, 96849.17
566.5163, 97511.86
566.9984, 98077.93
567.4805, 98561.23
567.9626, 99092.09
568.4448, 99674.48
568.9269, 100311.1
569.4090, 101063.9
569.8911, 101871.9
570.3732, 102616.8
570.8553, 103260.1
571.3375, 103852.5
571.8196, 104432.3
572.3017, 104984.7
572.7838, 105463.3
573.2659, 105968.6
573.7480, 106290.6
574.2302, 106317.2
574.7123, 106055.5
575.1944, 105659.2
575.6765, 105121.8
576.1586, 104481.7
576.6407, 103745.2
577.1229, 102852.1
577.6050, 102029.6
578.0871, 101288.4
578.5692, 100608.6
579.0513, 99967.70
579.5334, 99360.38
580.0156, 98852.01
580.4977, 98460.74
580.9798, 98167.88
581.4619, 97952.96
581.9440, 97810.38
582.4261, 97695.68
582.9083, 97575.77
583.3904, 97473.75
583.8725, 97414.02
584.3546, 97396.34
584.8367, 97426.41
585.3188, 97553.41
585.8010, 97702.41
586.2831, 97799.57
586.7652, 97789.54
587.2473, 97818.57
587.7294, 97946.05
588.2115, 98127.35
588.6937, 98303.49
589.1758, 98513.00
589.6579, 98659.62
590.1400, 98728.45
590.6221, 98724.28
591.1042, 98650.39
591.5864, 98485.54
592.0685, 98330.96
592.5506, 98244.90
593.0327, 98219.34
593.5148, 98188.35
593.9969, 98154.73
594.4791, 98089.46
594.9612, 97942.52
595.4433, 97748.66
595.9254, 97577.40
596.4075, 97444.77
596.8896, 97332.38
597.3718, 97214.91
597.8539, 97110.65
598.3360, 97050.74
598.8181, 97042.43
599.3002, 97085.21
599.7823, 97200.47
