##NAMES=Palermoite
##RRUFFID=R130090
##IDEAL CHEMISTRY=Li_2_SrAl_4_(PO_4_)_4_(OH)_4_
##LOCALITY=Palermo mine, North Groton, New Hampshire, USA
##OWNER=RRUFF
##SOURCE=William W. Pinch and Don Doell
##DESCRIPTION=Colorless prismatic crystal, associated with quartz
##STATUS=The identification of this mineral has been confirmed only by single crystal X-ray diffraction.
##URL=rruff.info/R130090
8.936163e+001, 0.000000e+000
8.984375e+001, 3.919807e+002
9.032587e+001, 3.946316e+002
9.080798e+001, 3.951257e+002
9.129010e+001, 3.925439e+002
9.177222e+001, 3.888741e+002
9.225433e+001, 3.867773e+002
9.273645e+001, 3.860923e+002
9.321857e+001, 3.851689e+002
9.370068e+001, 3.827373e+002
9.418280e+001, 3.789775e+002
9.466492e+001, 3.743711e+002
9.514703e+001, 3.679530e+002
9.562915e+001, 3.610050e+002
9.611127e+001, 3.578405e+002
9.659338e+001, 3.591295e+002
9.707550e+001, 3.609388e+002
9.755762e+001, 3.577891e+002
9.803973e+001, 3.495584e+002
9.852185e+001, 3.418998e+002
9.900397e+001, 3.371918e+002
9.948608e+001, 3.354799e+002
9.996820e+001, 3.344944e+002
1.004503e+002, 3.348621e+002
1.009324e+002, 3.352009e+002
1.014146e+002, 3.321452e+002
1.018967e+002, 3.245171e+002
1.023788e+002, 3.167821e+002
1.028609e+002, 3.111130e+002
1.033430e+002, 3.078396e+002
1.038251e+002, 3.058972e+002
1.043073e+002, 3.060151e+002
1.047894e+002, 3.075465e+002
1.052715e+002, 3.070338e+002
1.057536e+002, 3.035179e+002
1.062357e+002, 2.990128e+002
1.067178e+002, 2.947718e+002
1.072000e+002, 2.904558e+002
1.076821e+002, 2.869692e+002
1.081642e+002, 2.848332e+002
1.086463e+002, 2.841990e+002
1.091284e+002, 2.828163e+002
1.096105e+002, 2.806227e+002
1.100927e+002, 2.776984e+002
1.105748e+002, 2.741440e+002
1.110569e+002, 2.685371e+002
1.115390e+002, 2.636397e+002
1.120211e+002, 2.603706e+002
1.125032e+002, 2.593161e+002
1.129854e+002, 2.578256e+002
1.134675e+002, 2.553933e+002
1.139496e+002, 2.523565e+002
1.144317e+002, 2.491639e+002
1.149138e+002, 2.451879e+002
1.153959e+002, 2.416459e+002
1.158781e+002, 2.392390e+002
1.163602e+002, 2.386267e+002
1.168423e+002, 2.379198e+002
1.173244e+002, 2.365022e+002
1.178065e+002, 2.344885e+002
1.182886e+002, 2.321704e+002
1.187708e+002, 2.290157e+002
1.192529e+002, 2.259307e+002
1.197350e+002, 2.236948e+002
1.202171e+002, 2.229272e+002
1.206992e+002, 2.225413e+002
1.211813e+002, 2.219634e+002
1.216635e+002, 2.212103e+002
1.221456e+002, 2.203861e+002
1.226277e+002, 2.202601e+002
1.231098e+002, 2.199411e+002
1.235919e+002, 2.182216e+002
1.240740e+002, 2.133092e+002
1.245562e+002, 2.076152e+002
1.250383e+002, 2.037155e+002
1.255204e+002, 2.015804e+002
1.260025e+002, 2.002386e+002
1.264846e+002, 1.991837e+002
1.269667e+002, 1.983118e+002
1.274489e+002, 1.973633e+002
1.279310e+002, 1.960868e+002
1.284131e+002, 1.946805e+002
1.288952e+002, 1.937300e+002
1.293773e+002, 1.933859e+002
1.298594e+002, 1.928176e+002
1.303416e+002, 1.904915e+002
1.308237e+002, 1.866971e+002
1.313058e+002, 1.833893e+002
1.317879e+002, 1.820338e+002
1.322700e+002, 1.821986e+002
1.327521e+002, 1.816579e+002
1.332343e+002, 1.800077e+002
1.337164e+002, 1.780069e+002
1.341985e+002, 1.771109e+002
1.346806e+002, 1.773905e+002
1.351627e+002, 1.778397e+002
1.356448e+002, 1.782633e+002
1.361270e+002, 1.786912e+002
1.366091e+002, 1.772983e+002
1.370912e+002, 1.731516e+002
1.375733e+002, 1.673820e+002
1.380554e+002, 1.635892e+002
1.385375e+002, 1.620840e+002
1.390197e+002, 1.616406e+002
1.395018e+002, 1.615082e+002
1.399839e+002, 1.618350e+002
1.404660e+002, 1.618397e+002
1.409481e+002, 1.614117e+002
1.414302e+002, 1.605518e+002
1.419124e+002, 1.591775e+002
1.423945e+002, 1.569942e+002
1.428766e+002, 1.547122e+002
1.433587e+002, 1.530784e+002
1.438408e+002, 1.524300e+002
1.443229e+002, 1.517724e+002
1.448051e+002, 1.509131e+002
1.452872e+002, 1.498174e+002
1.457693e+002, 1.486896e+002
1.462514e+002, 1.474925e+002
1.467335e+002, 1.462730e+002
1.472156e+002, 1.450725e+002
1.476978e+002, 1.439741e+002
1.481799e+002, 1.428050e+002
1.486620e+002, 1.414137e+002
1.491441e+002, 1.395031e+002
1.496262e+002, 1.382109e+002
1.501083e+002, 1.378799e+002
1.505905e+002, 1.381269e+002
1.510726e+002, 1.382857e+002
1.515547e+002, 1.386554e+002
1.520368e+002, 1.386812e+002
1.525189e+002, 1.381828e+002
1.530010e+002, 1.369882e+002
1.534832e+002, 1.355590e+002
1.539653e+002, 1.334757e+002
1.544474e+002, 1.311503e+002
1.549295e+002, 1.295725e+002
1.554116e+002, 1.297820e+002
1.558937e+002, 1.301006e+002
1.563759e+002, 1.297433e+002
1.568580e+002, 1.279294e+002
1.573401e+002, 1.263418e+002
1.578222e+002, 1.252775e+002
1.583043e+002, 1.246849e+002
1.587864e+002, 1.243737e+002
1.592686e+002, 1.243574e+002
1.597507e+002, 1.245686e+002
1.602328e+002, 1.249724e+002
1.607149e+002, 1.262400e+002
1.611970e+002, 1.270148e+002
1.616791e+002, 1.266247e+002
1.621613e+002, 1.252273e+002
1.626434e+002, 1.238230e+002
1.631255e+002, 1.225955e+002
1.636076e+002, 1.216429e+002
1.640897e+002, 1.210523e+002
1.645718e+002, 1.214456e+002
1.650540e+002, 1.217170e+002
1.655361e+002, 1.211588e+002
1.660182e+002, 1.197984e+002
1.665003e+002, 1.185043e+002
1.669824e+002, 1.178724e+002
1.674645e+002, 1.175287e+002
1.679467e+002, 1.170197e+002
1.684288e+002, 1.158171e+002
1.689109e+002, 1.146253e+002
1.693930e+002, 1.139060e+002
1.698751e+002, 1.136777e+002
1.703572e+002, 1.138345e+002
1.708394e+002, 1.144866e+002
1.713215e+002, 1.154594e+002
1.718036e+002, 1.164460e+002
1.722857e+002, 1.174858e+002
1.727678e+002, 1.183945e+002
1.732499e+002, 1.188278e+002
1.737321e+002, 1.186849e+002
1.742142e+002, 1.187054e+002
1.746963e+002, 1.193695e+002
1.751784e+002, 1.206634e+002
1.756605e+002, 1.225634e+002
1.761426e+002, 1.253138e+002
1.766248e+002, 1.285595e+002
1.771069e+002, 1.318996e+002
1.775890e+002, 1.353702e+002
1.780711e+002, 1.386851e+002
1.785532e+002, 1.411520e+002
1.790353e+002, 1.431005e+002
1.795175e+002, 1.456123e+002
1.799996e+002, 1.499318e+002
1.804817e+002, 1.551531e+002
1.809638e+002, 1.595503e+002
1.814459e+002, 1.628064e+002
1.819280e+002, 1.655373e+002
1.824102e+002, 1.686639e+002
1.828923e+002, 1.720567e+002
1.833744e+002, 1.752703e+002
1.838565e+002, 1.776706e+002
1.843386e+002, 1.796205e+002
1.848207e+002, 1.821627e+002
1.853029e+002, 1.856283e+002
1.857850e+002, 1.894319e+002
1.862671e+002, 1.925208e+002
1.867492e+002, 1.949257e+002
1.872313e+002, 1.975670e+002
1.877134e+002, 2.012742e+002
1.881956e+002, 2.058555e+002
1.886777e+002, 2.101625e+002
1.891598e+002, 2.139187e+002
1.896419e+002, 2.174873e+002
1.901240e+002, 2.217111e+002
1.906061e+002, 2.266685e+002
1.910883e+002, 2.318140e+002
1.915704e+002, 2.369295e+002
1.920525e+002, 2.420281e+002
1.925346e+002, 2.466795e+002
1.930167e+002, 2.505079e+002
1.934988e+002, 2.538783e+002
1.939810e+002, 2.575962e+002
1.944631e+002, 2.615436e+002
1.949452e+002, 2.656082e+002
1.954273e+002, 2.685929e+002
1.959094e+002, 2.705316e+002
1.963915e+002, 2.725211e+002
1.968737e+002, 2.747399e+002
1.973558e+002, 2.771595e+002
1.978379e+002, 2.798652e+002
1.983200e+002, 2.829454e+002
1.988021e+002, 2.858940e+002
1.992842e+002, 2.880810e+002
1.997664e+002, 2.894756e+002
2.002485e+002, 2.911193e+002
2.007306e+002, 2.931942e+002
2.012127e+002, 2.956950e+002
2.016948e+002, 2.988818e+002
2.021769e+002, 3.030463e+002
2.026591e+002, 3.070406e+002
2.031412e+002, 3.094010e+002
2.036233e+002, 3.098419e+002
2.041054e+002, 3.110081e+002
2.045875e+002, 3.136380e+002
2.050696e+002, 3.175589e+002
2.055518e+002, 3.213260e+002
2.060339e+002, 3.249692e+002
2.065160e+002, 3.284027e+002
2.069981e+002, 3.315653e+002
2.074802e+002, 3.344410e+002
2.079623e+002, 3.369736e+002
2.084445e+002, 3.389930e+002
2.089266e+002, 3.405443e+002
2.094087e+002, 3.426152e+002
2.098908e+002, 3.453654e+002
2.103729e+002, 3.483486e+002
2.108550e+002, 3.510873e+002
2.113372e+002, 3.534894e+002
2.118193e+002, 3.558977e+002
2.123014e+002, 3.584906e+002
2.127835e+002, 3.612495e+002
2.132656e+002, 3.634741e+002
2.137477e+002, 3.649208e+002
2.142299e+002, 3.661870e+002
2.147120e+002, 3.679293e+002
2.151941e+002, 3.702137e+002
2.156762e+002, 3.728203e+002
2.161583e+002, 3.758457e+002
2.166404e+002, 3.793033e+002
2.171226e+002, 3.823249e+002
2.176047e+002, 3.847220e+002
2.180868e+002, 3.869077e+002
2.185689e+002, 3.894036e+002
2.190510e+002, 3.922770e+002
2.195331e+002, 3.953312e+002
2.200153e+002, 3.985297e+002
2.204974e+002, 4.018713e+002
2.209795e+002, 4.056129e+002
2.214616e+002, 4.100529e+002
2.219437e+002, 4.146285e+002
2.224258e+002, 4.187028e+002
2.229080e+002, 4.220784e+002
2.233901e+002, 4.253400e+002
2.238722e+002, 4.285671e+002
2.243543e+002, 4.317969e+002
2.248364e+002, 4.348898e+002
2.253185e+002, 4.375249e+002
2.258007e+002, 4.402679e+002
2.262828e+002, 4.439886e+002
2.267649e+002, 4.492226e+002
2.272470e+002, 4.542899e+002
2.277291e+002, 4.585278e+002
2.282112e+002, 4.618198e+002
2.286934e+002, 4.655833e+002
2.291755e+002, 4.698913e+002
2.296576e+002, 4.745943e+002
2.301397e+002, 4.794445e+002
2.306218e+002, 4.845820e+002
2.311039e+002, 4.897411e+002
2.315861e+002, 4.948396e+002
2.320682e+002, 4.999878e+002
2.325503e+002, 5.048788e+002
2.330324e+002, 5.094820e+002
2.335145e+002, 5.138652e+002
2.339966e+002, 5.182644e+002
2.344788e+002, 5.231517e+002
2.349609e+002, 5.271895e+002
2.354430e+002, 5.299943e+002
2.359251e+002, 5.314789e+002
2.364072e+002, 5.324491e+002
2.368893e+002, 5.332278e+002
2.373715e+002, 5.332278e+002
2.378536e+002, 5.317071e+002
2.383357e+002, 5.283729e+002
2.388178e+002, 5.239487e+002
2.392999e+002, 5.183167e+002
2.397820e+002, 5.113038e+002
2.402642e+002, 5.047360e+002
2.407463e+002, 4.987716e+002
2.412284e+002, 4.930969e+002
2.417105e+002, 4.872738e+002
2.421926e+002, 4.809543e+002
2.426747e+002, 4.751159e+002
2.431569e+002, 4.700562e+002
2.436390e+002, 4.658050e+002
2.441211e+002, 4.619241e+002
2.446032e+002, 4.583558e+002
2.450853e+002, 4.551715e+002
2.455674e+002, 4.524986e+002
2.460496e+002, 4.505616e+002
2.465317e+002, 4.487293e+002
2.470138e+002, 4.468788e+002
2.474959e+002, 4.450112e+002
2.479780e+002, 4.430910e+002
2.484601e+002, 4.410062e+002
2.489423e+002, 4.389798e+002
2.494244e+002, 4.372269e+002
2.499065e+002, 4.356797e+002
2.503886e+002, 4.345822e+002
2.508707e+002, 4.341791e+002
2.513528e+002, 4.345312e+002
2.518350e+002, 4.342897e+002
2.523171e+002, 4.331483e+002
2.527992e+002, 4.317513e+002
2.532813e+002, 4.307859e+002
2.537634e+002, 4.305092e+002
2.542455e+002, 4.301090e+002
2.547277e+002, 4.293961e+002
2.552098e+002, 4.283558e+002
2.556919e+002, 4.272955e+002
2.561740e+002, 4.261630e+002
2.566561e+002, 4.250597e+002
2.571382e+002, 4.241184e+002
2.576204e+002, 4.234119e+002
2.581025e+002, 4.226506e+002
2.585846e+002, 4.217245e+002
2.590667e+002, 4.206479e+002
2.595488e+002, 4.198594e+002
2.600309e+002, 4.194755e+002
2.605131e+002, 4.192369e+002
2.609952e+002, 4.189240e+002
2.614773e+002, 4.184921e+002
2.619594e+002, 4.181330e+002
2.624415e+002, 4.179410e+002
2.629236e+002, 4.178847e+002
2.634058e+002, 4.176058e+002
2.638879e+002, 4.170311e+002
2.643700e+002, 4.163635e+002
2.648521e+002, 4.157355e+002
2.653342e+002, 4.151523e+002
2.658163e+002, 4.145897e+002
2.662985e+002, 4.139483e+002
2.667806e+002, 4.133144e+002
2.672627e+002, 4.133324e+002
2.677448e+002, 4.143626e+002
2.682269e+002, 4.152789e+002
2.687090e+002, 4.151100e+002
2.691912e+002, 4.135185e+002
2.696733e+002, 4.122915e+002
2.701554e+002, 4.117820e+002
2.706375e+002, 4.117527e+002
2.711196e+002, 4.111630e+002
2.716017e+002, 4.097499e+002
2.720839e+002, 4.084945e+002
2.725660e+002, 4.082247e+002
2.730481e+002, 4.091349e+002
2.735302e+002, 4.097217e+002
2.740123e+002, 4.097852e+002
2.744944e+002, 4.094818e+002
2.749766e+002, 4.091753e+002
2.754587e+002, 4.087950e+002
2.759408e+002, 4.086995e+002
2.764229e+002, 4.093041e+002
2.769050e+002, 4.107083e+002
2.773871e+002, 4.115814e+002
2.778693e+002, 4.117074e+002
2.783514e+002, 4.114013e+002
2.788335e+002, 4.113105e+002
2.793156e+002, 4.114401e+002
2.797977e+002, 4.117560e+002
2.802798e+002, 4.124693e+002
2.807620e+002, 4.135798e+002
2.812441e+002, 4.138983e+002
2.817262e+002, 4.132068e+002
2.822083e+002, 4.119856e+002
2.826904e+002, 4.110947e+002
2.831725e+002, 4.105591e+002
2.836547e+002, 4.099504e+002
2.841368e+002, 4.089767e+002
2.846189e+002, 4.076861e+002
2.851010e+002, 4.065749e+002
2.855831e+002, 4.056730e+002
2.860652e+002, 4.048948e+002
2.865474e+002, 4.040835e+002
2.870295e+002, 4.032428e+002
2.875116e+002, 4.025610e+002
2.879937e+002, 4.023414e+002
2.884758e+002, 4.024276e+002
2.889579e+002, 4.018242e+002
2.894401e+002, 4.004332e+002
2.899222e+002, 3.988542e+002
2.904043e+002, 3.976807e+002
2.908864e+002, 3.969158e+002
2.913685e+002, 3.966010e+002
2.918506e+002, 3.970844e+002
2.923328e+002, 3.979951e+002
2.928149e+002, 3.981314e+002
2.932970e+002, 3.974487e+002
2.937791e+002, 3.965612e+002
2.942612e+002, 3.960012e+002
2.947433e+002, 3.957469e+002
2.952255e+002, 3.957331e+002
2.957076e+002, 3.959618e+002
2.961897e+002, 3.964058e+002
2.966718e+002, 3.970916e+002
2.971539e+002, 3.980091e+002
2.976360e+002, 3.989117e+002
2.981182e+002, 3.996050e+002
2.986003e+002, 4.001158e+002
2.990824e+002, 4.004680e+002
2.995645e+002, 4.003975e+002
3.000466e+002, 4.004716e+002
3.005287e+002, 4.018330e+002
3.010109e+002, 4.042912e+002
3.014930e+002, 4.065459e+002
3.019751e+002, 4.072802e+002
3.024572e+002, 4.072348e+002
3.029393e+002, 4.076368e+002
3.034214e+002, 4.087939e+002
3.039036e+002, 4.104105e+002
3.043857e+002, 4.121516e+002
3.048678e+002, 4.140677e+002
3.053499e+002, 4.163903e+002
3.058320e+002, 4.196812e+002
3.063141e+002, 4.232852e+002
3.067963e+002, 4.261905e+002
3.072784e+002, 4.279539e+002
3.077605e+002, 4.299279e+002
3.082426e+002, 4.334364e+002
3.087247e+002, 4.380433e+002
3.092068e+002, 4.427065e+002
3.096890e+002, 4.466875e+002
3.101711e+002, 4.506056e+002
3.106532e+002, 4.549984e+002
3.111353e+002, 4.599746e+002
3.116174e+002, 4.650415e+002
3.120995e+002, 4.699078e+002
3.125817e+002, 4.745833e+002
3.130638e+002, 4.791561e+002
3.135459e+002, 4.834339e+002
3.140280e+002, 4.878361e+002
3.145101e+002, 4.926260e+002
3.149922e+002, 4.978087e+002
3.154744e+002, 5.032967e+002
3.159565e+002, 5.091984e+002
3.164386e+002, 5.153259e+002
3.169207e+002, 5.213854e+002
3.174028e+002, 5.268185e+002
3.178849e+002, 5.326784e+002
3.183671e+002, 5.394064e+002
3.188492e+002, 5.470512e+002
3.193313e+002, 5.551360e+002
3.198134e+002, 5.632440e+002
3.202955e+002, 5.719091e+002
3.207776e+002, 5.814523e+002
3.212598e+002, 5.925870e+002
3.217419e+002, 6.040026e+002
3.222240e+002, 6.156153e+002
3.227061e+002, 6.273334e+002
3.231882e+002, 6.387184e+002
3.236703e+002, 6.500768e+002
3.241525e+002, 6.608415e+002
3.246346e+002, 6.705869e+002
3.251167e+002, 6.792056e+002
3.255988e+002, 6.870137e+002
3.260809e+002, 6.947949e+002
3.265630e+002, 7.018643e+002
3.270452e+002, 7.063537e+002
3.275273e+002, 7.074528e+002
3.280094e+002, 7.065076e+002
3.284915e+002, 7.040931e+002
3.289736e+002, 7.009284e+002
3.294557e+002, 6.947372e+002
3.299379e+002, 6.838459e+002
3.304200e+002, 6.704065e+002
3.309021e+002, 6.579974e+002
3.313842e+002, 6.469164e+002
3.318663e+002, 6.363101e+002
3.323484e+002, 6.256439e+002
3.328306e+002, 6.148266e+002
3.333127e+002, 6.057805e+002
3.337948e+002, 5.990621e+002
3.342769e+002, 5.935859e+002
3.347590e+002, 5.883015e+002
3.352411e+002, 5.832205e+002
3.357233e+002, 5.782044e+002
3.362054e+002, 5.731800e+002
3.366875e+002, 5.681465e+002
3.371696e+002, 5.637797e+002
3.376517e+002, 5.603018e+002
3.381339e+002, 5.570980e+002
3.386160e+002, 5.539147e+002
3.390981e+002, 5.509232e+002
3.395802e+002, 5.469393e+002
3.400623e+002, 5.415297e+002
3.405444e+002, 5.351203e+002
3.410266e+002, 5.294843e+002
3.415087e+002, 5.246378e+002
3.419908e+002, 5.200656e+002
3.424729e+002, 5.154487e+002
3.429550e+002, 5.108188e+002
3.434371e+002, 5.059598e+002
3.439193e+002, 5.007821e+002
3.444014e+002, 4.955747e+002
3.448835e+002, 4.910477e+002
3.453656e+002, 4.871977e+002
3.458477e+002, 4.834125e+002
3.463298e+002, 4.791374e+002
3.468120e+002, 4.746010e+002
3.472941e+002, 4.710808e+002
3.477762e+002, 4.686781e+002
3.482583e+002, 4.667612e+002
3.487404e+002, 4.644673e+002
3.492225e+002, 4.619627e+002
3.497047e+002, 4.599519e+002
3.501868e+002, 4.589944e+002
3.506689e+002, 4.585734e+002
3.511510e+002, 4.577904e+002
3.516331e+002, 4.566490e+002
3.521152e+002, 4.553490e+002
3.525974e+002, 4.536930e+002
3.530795e+002, 4.520348e+002
3.535616e+002, 4.510757e+002
3.540437e+002, 4.512630e+002
3.545258e+002, 4.518920e+002
3.550079e+002, 4.523793e+002
3.554901e+002, 4.527287e+002
3.559722e+002, 4.529654e+002
3.564543e+002, 4.530135e+002
3.569364e+002, 4.530046e+002
3.574185e+002, 4.530338e+002
3.579006e+002, 4.530497e+002
3.583828e+002, 4.533037e+002
3.588649e+002, 4.540284e+002
3.593470e+002, 4.551071e+002
3.598291e+002, 4.563042e+002
3.603112e+002, 4.578172e+002
3.607933e+002, 4.591908e+002
3.612755e+002, 4.600420e+002
3.617576e+002, 4.602372e+002
3.622397e+002, 4.606258e+002
3.627218e+002, 4.615009e+002
3.632039e+002, 4.627443e+002
3.636860e+002, 4.642246e+002
3.641682e+002, 4.664626e+002
3.646503e+002, 4.684020e+002
3.651324e+002, 4.695215e+002
3.656145e+002, 4.698643e+002
3.660966e+002, 4.703329e+002
3.665787e+002, 4.712709e+002
3.670609e+002, 4.722611e+002
3.675430e+002, 4.730361e+002
3.680251e+002, 4.738967e+002
3.685072e+002, 4.741619e+002
3.689893e+002, 4.736935e+002
3.694714e+002, 4.725895e+002
3.699536e+002, 4.711265e+002
3.704357e+002, 4.689915e+002
3.709178e+002, 4.668239e+002
3.713999e+002, 4.649276e+002
3.718820e+002, 4.635009e+002
3.723641e+002, 4.617958e+002
3.728463e+002, 4.597592e+002
3.733284e+002, 4.574966e+002
3.738105e+002, 4.551101e+002
3.742926e+002, 4.524821e+002
3.747747e+002, 4.499676e+002
3.752568e+002, 4.476031e+002
3.757390e+002, 4.453759e+002
3.762211e+002, 4.435426e+002
3.767032e+002, 4.421655e+002
3.771853e+002, 4.410016e+002
3.776674e+002, 4.398161e+002
3.781495e+002, 4.386068e+002
3.786317e+002, 4.373193e+002
3.791138e+002, 4.358696e+002
3.795959e+002, 4.343725e+002
3.800780e+002, 4.331832e+002
3.805601e+002, 4.323342e+002
3.810422e+002, 4.315281e+002
3.815244e+002, 4.305784e+002
3.820065e+002, 4.294995e+002
3.824886e+002, 4.283447e+002
3.829707e+002, 4.270468e+002
3.834528e+002, 4.258759e+002
3.839349e+002, 4.253947e+002
3.844171e+002, 4.254633e+002
3.848992e+002, 4.253134e+002
3.853813e+002, 4.243376e+002
3.858634e+002, 4.229707e+002
3.863455e+002, 4.217967e+002
3.868276e+002, 4.208244e+002
3.873098e+002, 4.203512e+002
3.877919e+002, 4.210178e+002
3.882740e+002, 4.223060e+002
3.887561e+002, 4.232796e+002
3.892382e+002, 4.234117e+002
3.897203e+002, 4.233195e+002
3.902025e+002, 4.235043e+002
3.906846e+002, 4.239079e+002
3.911667e+002, 4.242764e+002
3.916488e+002, 4.244332e+002
3.921309e+002, 4.245053e+002
3.926130e+002, 4.245851e+002
3.930952e+002, 4.246532e+002
3.935773e+002, 4.248154e+002
3.940594e+002, 4.252610e+002
3.945415e+002, 4.258216e+002
3.950236e+002, 4.261835e+002
3.955057e+002, 4.259795e+002
3.959879e+002, 4.258064e+002
3.964700e+002, 4.259204e+002
3.969521e+002, 4.263792e+002
3.974342e+002, 4.268925e+002
3.979163e+002, 4.274219e+002
3.983984e+002, 4.279873e+002
3.988806e+002, 4.286060e+002
3.993627e+002, 4.292173e+002
3.998448e+002, 4.299560e+002
4.003269e+002, 4.308993e+002
4.008090e+002, 4.320150e+002
4.012911e+002, 4.330160e+002
4.017733e+002, 4.337379e+002
4.022554e+002, 4.345450e+002
4.027375e+002, 4.356041e+002
4.032196e+002, 4.368771e+002
4.037017e+002, 4.385796e+002
4.041838e+002, 4.410008e+002
4.046660e+002, 4.436215e+002
4.051481e+002, 4.452602e+002
4.056302e+002, 4.456120e+002
4.061123e+002, 4.461406e+002
4.065944e+002, 4.473582e+002
4.070765e+002, 4.492524e+002
4.075587e+002, 4.514880e+002
4.080408e+002, 4.541798e+002
4.085229e+002, 4.568113e+002
4.090050e+002, 4.586976e+002
4.094871e+002, 4.598922e+002
4.099692e+002, 4.613233e+002
4.104514e+002, 4.632015e+002
4.109335e+002, 4.654252e+002
4.114156e+002, 4.678639e+002
4.118977e+002, 4.704843e+002
4.123798e+002, 4.731829e+002
4.128619e+002, 4.758206e+002
4.133441e+002, 4.784658e+002
4.138262e+002, 4.813315e+002
4.143083e+002, 4.844957e+002
4.147904e+002, 4.876693e+002
