##NAMES=Papagoite
##RRUFFID=R040182
##IDEAL CHEMISTRY=CaCu^2+^AlSi_2_O_6_(OH)_3_
##LOCALITY=Ajo, Pima County, Arizona, USA
##OWNER=RRUFF
##SOURCE=University of Arizona Mineral Museum
##DESCRIPTION=Blue crusty coating
##STATUS=The identification of this mineral has been confirmed by X-ray diffraction and chemical analysis
##URL=rruff.info/R040182
##MEASURED CHEMISTRY=Ca_0.97_Cu_1.00_Al_0.98_Si_2.03_O_6_(OH)_3_
127.4844, 408.2189
127.9666, 426.9516
128.4487, 445.2685
128.9308, 466.2717
129.4129, 495.0337
129.8950, 530.0088
130.3772, 561.3705
130.8593, 582.6855
131.3414, 598.5240
131.8235, 624.9742
132.3056, 662.2908
132.7877, 707.9597
133.2699, 761.2275
133.7520, 822.6746
134.2341, 883.9473
134.7162, 940.9725
135.1983, 993.9922
135.6804, 1052.606
136.1626, 1122.972
136.6447, 1189.626
137.1268, 1221.877
137.6089, 1215.824
138.0910, 1187.955
138.5731, 1143.815
139.0553, 1079.871
139.5374, 1013.292
140.0195, 942.4514
140.5016, 870.1615
140.9837, 810.0770
141.4658, 762.9874
141.9480, 725.9324
142.4301, 697.7092
142.9122, 679.8693
143.3943, 667.7672
143.8764, 661.9037
144.3585, 662.2113
144.8407, 663.4020
145.3228, 666.4328
145.8049, 669.6104
146.2870, 671.2363
146.7691, 669.5040
147.2512, 668.5471
147.7334, 668.9142
148.2155, 670.5111
148.6976, 673.9457
149.1797, 682.0563
149.6618, 691.1990
150.1439, 696.5101
150.6261, 690.0299
151.1082, 686.8030
151.5903, 691.5965
152.0724, 709.2423
152.5545, 724.2260
153.0366, 733.9464
153.5188, 740.2586
154.0009, 746.7823
154.4830, 756.4146
154.9651, 764.6563
155.4472, 769.2348
155.9293, 765.5411
156.4115, 764.5623
156.8936, 769.7679
157.3757, 779.7190
157.8578, 789.4557
158.3399, 797.2394
158.8221, 804.5172
159.3042, 812.3076
159.7863, 820.8309
160.2684, 829.9141
160.7505, 840.0217
161.2326, 851.0231
161.7148, 861.1813
162.1969, 870.2485
162.6790, 877.9838
163.1611, 884.0573
163.6432, 885.1612
164.1253, 887.1931
164.6075, 893.8550
165.0896, 905.3000
165.5717, 917.4111
166.0538, 926.3862
166.5359, 934.8630
167.0180, 946.5953
167.5002, 964.3832
167.9823, 985.3114
168.4644, 1007.371
168.9465, 1030.419
169.4286, 1054.581
169.9107, 1082.415
170.3929, 1111.424
170.8750, 1137.081
171.3571, 1152.862
171.8392, 1165.624
172.3213, 1182.491
172.8034, 1204.349
173.2856, 1229.745
173.7677, 1260.055
174.2498, 1293.705
174.7319, 1324.743
175.2140, 1347.236
175.6961, 1365.438
176.1783, 1385.763
176.6604, 1409.461
177.1425, 1435.011
177.6246, 1462.077
178.1067, 1489.946
178.5888, 1515.816
179.0710, 1535.373
179.5531, 1551.054
180.0352, 1567.891
180.5173, 1587.064
180.9994, 1607.797
181.4815, 1626.138
181.9637, 1642.489
182.4458, 1664.254
182.9279, 1702.792
183.4100, 1753.554
183.8921, 1800.408
184.3742, 1840.644
184.8564, 1873.291
185.3385, 1897.138
185.8206, 1912.864
186.3027, 1914.020
186.7848, 1882.944
187.2669, 1824.921
187.7491, 1778.753
188.2312, 1755.022
188.7133, 1753.491
189.1954, 1775.687
189.6775, 1823.142
190.1596, 1887.208
190.6418, 1963.266
191.1239, 2050.700
191.6060, 2137.109
192.0881, 2213.437
192.5702, 2282.002
193.0524, 2364.851
193.5345, 2464.079
194.0166, 2571.487
194.4987, 2669.679
194.9808, 2757.388
195.4629, 2855.473
195.9451, 2976.377
196.4272, 3121.103
196.9093, 3261.646
197.3914, 3397.678
197.8735, 3528.695
198.3556, 3652.742
198.8378, 3768.623
199.3199, 3882.447
199.8020, 3996.379
200.2841, 4109.411
200.7662, 4223.087
201.2483, 4338.362
201.7305, 4453.500
202.2126, 4564.931
202.6947, 4673.121
203.1768, 4775.864
203.6589, 4881.250
204.1410, 4995.211
204.6232, 5065.284
205.1053, 5091.315
205.5874, 5068.531
206.0695, 4978.021
206.5516, 4813.469
207.0337, 4597.731
207.5159, 4331.129
207.9980, 4004.621
208.4801, 3692.809
208.9622, 3401.419
209.4443, 3131.941
209.9264, 2893.026
210.4086, 2688.194
210.8907, 2506.144
211.3728, 2339.181
211.8549, 2182.578
212.3370, 2053.631
212.8191, 1959.733
213.3013, 1897.534
213.7834, 1830.925
214.2655, 1755.190
214.7476, 1682.372
215.2297, 1624.337
215.7118, 1584.327
216.1940, 1548.540
216.6761, 1514.299
217.1582, 1481.647
217.6403, 1456.121
218.1224, 1441.419
218.6045, 1429.293
219.0867, 1410.652
219.5688, 1380.494
220.0509, 1356.065
220.5330, 1342.213
221.0151, 1338.952
221.4972, 1336.649
221.9794, 1335.374
222.4615, 1334.952
222.9436, 1334.951
223.4257, 1334.484
223.9078, 1336.407
224.3899, 1341.982
224.8721, 1351.668
225.3542, 1359.454
225.8363, 1362.869
226.3184, 1366.781
226.8005, 1377.476
227.2827, 1397.726
227.7648, 1419.329
228.2469, 1439.614
228.7290, 1457.662
229.2111, 1481.118
229.6932, 1512.057
230.1754, 1546.433
230.6575, 1579.695
231.1396, 1611.995
231.6217, 1642.239
232.1038, 1667.397
232.5859, 1683.762
233.0681, 1716.023
233.5502, 1771.163
234.0323, 1836.951
234.5144, 1895.874
234.9965, 1941.013
235.4786, 1990.262
235.9608, 2048.919
236.4429, 2116.695
236.9250, 2191.971
237.4071, 2277.702
237.8892, 2368.605
238.3713, 2455.938
238.8535, 2536.198
239.3356, 2618.822
239.8177, 2707.919
240.2998, 2806.863
240.7819, 2899.104
241.2640, 2979.798
241.7462, 3058.078
242.2283, 3152.630
242.7104, 3278.491
243.1925, 3395.931
243.6746, 3491.888
244.1567, 3563.434
244.6389, 3624.615
245.1210, 3677.481
245.6031, 3718.775
246.0852, 3741.246
246.5673, 3739.285
247.0494, 3727.879
247.5316, 3709.543
248.0137, 3678.811
248.4958, 3659.932
248.9779, 3655.942
249.4600, 3662.245
249.9421, 3671.743
250.4243, 3688.912
250.9064, 3701.542
251.3885, 3707.444
251.8706, 3711.102
252.3527, 3693.087
252.8348, 3655.012
253.3170, 3594.615
253.7991, 3504.338
254.2812, 3374.019
254.7633, 3235.088
255.2454, 3096.053
255.7275, 2954.773
256.2097, 2825.104
256.6918, 2705.831
257.1739, 2600.433
257.6560, 2513.627
258.1381, 2444.424
258.6202, 2395.773
259.1024, 2369.504
259.5845, 2368.243
260.0666, 2380.222
260.5487, 2408.783
261.0308, 2448.061
261.5129, 2489.841
261.9951, 2535.515
262.4772, 2579.598
262.9593, 2621.513
263.4414, 2664.265
263.9235, 2692.476
264.4056, 2706.771
264.8878, 2706.128
265.3699, 2688.773
265.8520, 2653.291
266.3341, 2604.685
266.8162, 2543.305
267.2983, 2468.893
267.7805, 2383.615
268.2626, 2279.759
268.7447, 2174.443
269.2268, 2099.052
269.7089, 2059.344
270.1910, 2029.049
270.6732, 1996.357
271.1553, 1959.735
271.6374, 1938.234
272.1195, 1933.458
272.6016, 1941.458
273.0837, 1959.753
273.5659, 1991.587
274.0480, 2017.552
274.5301, 2028.385
275.0122, 2023.408
275.4943, 2020.388
275.9764, 2018.980
276.4586, 2020.179
276.9407, 2026.094
277.4228, 2037.008
277.9049, 2049.460
278.3870, 2063.641
278.8691, 2079.254
279.3513, 2088.623
279.8334, 2090.544
280.3155, 2089.313
280.7976, 2095.265
281.2798, 2109.297
281.7619, 2108.577
282.2440, 2080.996
282.7261, 2029.590
283.2082, 1976.110
283.6903, 1920.049
284.1725, 1863.791
284.6546, 1810.029
285.1367, 1759.158
285.6188, 1709.199
286.1009, 1657.217
286.5830, 1605.422
287.0652, 1564.429
287.5473, 1535.537
288.0294, 1511.890
288.5115, 1484.479
288.9936, 1454.400
289.4757, 1431.778
289.9579, 1422.042
290.4400, 1421.534
290.9221, 1419.241
291.4042, 1414.798
291.8863, 1413.123
292.3684, 1421.941
292.8506, 1438.722
293.3327, 1452.316
293.8148, 1456.598
294.2969, 1457.122
294.7790, 1466.314
295.2611, 1484.239
295.7433, 1502.305
296.2254, 1512.899
296.7075, 1517.878
297.1896, 1521.976
297.6717, 1525.875
298.1538, 1530.337
298.6360, 1539.111
299.1181, 1551.541
299.6002, 1558.948
300.0823, 1554.286
300.5644, 1539.984
301.0465, 1519.616
301.5287, 1489.515
302.0108, 1459.542
302.4929, 1441.586
302.9750, 1434.353
303.4571, 1431.429
303.9392, 1430.212
304.4214, 1430.089
304.9035, 1429.948
305.3856, 1428.507
305.8677, 1428.656
306.3498, 1431.855
306.8319, 1438.436
307.3141, 1449.762
307.7962, 1469.026
308.2783, 1492.164
308.7604, 1516.082
309.2425, 1540.882
309.7246, 1563.697
310.2068, 1580.674
310.6889, 1594.041
311.1710, 1609.761
311.6531, 1632.427
312.1352, 1657.531
312.6173, 1682.695
313.0995, 1709.013
313.5816, 1730.209
314.0637, 1740.902
314.5458, 1744.643
315.0279, 1748.249
315.5100, 1754.636
315.9922, 1761.344
316.4743, 1768.456
316.9564, 1777.635
317.4385, 1780.311
317.9206, 1772.450
318.4027, 1756.667
318.8849, 1736.616
319.3670, 1709.935
319.8491, 1682.087
320.3312, 1653.338
320.8133, 1622.383
321.2954, 1598.349
321.7776, 1584.770
322.2597, 1578.064
322.7418, 1574.416
323.2239, 1584.581
323.7060, 1586.475
324.1881, 1569.351
324.6703, 1530.514
325.1524, 1504.142
325.6345, 1505.493
326.1166, 1513.652
326.5987, 1511.736
327.0808, 1487.450
327.5630, 1467.471
328.0451, 1456.462
328.5272, 1453.942
329.0093, 1449.449
329.4914, 1443.346
329.9735, 1435.081
330.4557, 1423.735
330.9378, 1404.370
331.4199, 1390.795
331.9020, 1386.730
332.3841, 1389.665
332.8662, 1386.528
333.3484, 1372.447
333.8305, 1359.728
334.3126, 1356.434
334.7947, 1367.650
335.2768, 1372.233
335.7589, 1366.776
336.2411, 1355.416
336.7232, 1348.407
337.2053, 1346.670
337.6874, 1346.764
338.1695, 1348.293
338.6516, 1351.924
339.1338, 1350.474
339.6159, 1342.548
340.0980, 1331.553
340.5801, 1323.360
341.0622, 1318.126
341.5443, 1313.388
342.0265, 1308.567
342.5086, 1303.545
342.9907, 1296.701
343.4728, 1287.987
343.9549, 1277.856
344.4370, 1266.392
344.9192, 1253.818
345.4013, 1241.532
345.8834, 1228.799
346.3655, 1217.200
346.8476, 1213.586
347.3297, 1218.267
347.8119, 1222.380
348.2940, 1213.615
348.7761, 1197.033
349.2582, 1188.957
349.7403, 1200.150
350.2225, 1215.448
350.7046, 1205.359
351.1867, 1159.778
351.6688, 1176.229
352.1509, 1184.575
352.6331, 1185.251
353.1152, 1155.287
353.5973, 1164.889
354.0794, 1158.634
354.5615, 1151.729
355.0436, 1166.900
355.5258, 1141.392
356.0079, 1156.213
356.4900, 1154.935
356.9721, 1161.025
357.4542, 1150.648
357.9363, 1160.412
358.4185, 1157.144
358.9006, 1146.720
359.3827, 1139.302
359.8648, 1139.231
360.3469, 1142.886
360.8290, 1149.517
361.3112, 1159.655
361.7933, 1168.368
362.2754, 1172.156
362.7575, 1174.504
363.2396, 1179.220
363.7217, 1190.476
364.2039, 1200.807
364.6860, 1207.433
365.1681, 1210.294
365.6502, 1214.764
366.1323, 1222.271
366.6144, 1231.108
367.0966, 1240.096
367.5787, 1243.233
368.0608, 1253.869
368.5429, 1277.774
369.0250, 1311.505
369.5071, 1336.395
369.9893, 1344.941
370.4714, 1353.283
370.9535, 1370.217
371.4356, 1402.808
371.9177, 1426.410
372.3998, 1434.188
372.8820, 1436.220
373.3641, 1456.609
373.8462, 1502.273
374.3283, 1548.130
374.8104, 1582.913
375.2925, 1605.682
375.7747, 1632.241
376.2568, 1663.830
376.7389, 1697.190
377.2210, 1728.169
377.7031, 1756.776
378.1852, 1782.641
378.6674, 1805.010
379.1495, 1824.630
379.6316, 1847.407
380.1137, 1873.909
380.5958, 1896.700
381.0779, 1904.880
381.5601, 1901.794
382.0422, 1904.548
382.5243, 1921.125
383.0064, 1940.130
383.4885, 1941.095
383.9706, 1925.797
384.4528, 1907.311
384.9349, 1901.339
385.4170, 1896.176
385.8991, 1870.412
386.3812, 1817.044
386.8633, 1754.490
387.3455, 1695.517
387.8276, 1640.424
388.3097, 1588.905
388.7918, 1540.832
389.2739, 1496.899
389.7560, 1457.360
390.2382, 1422.148
390.7203, 1392.384
391.2024, 1368.542
391.6845, 1350.596
392.1666, 1338.265
392.6487, 1335.823
393.1309, 1335.107
393.6130, 1332.366
394.0951, 1327.914
394.5772, 1326.217
395.0593, 1327.188
395.5414, 1332.038
396.0236, 1341.551
396.5057, 1360.994
396.9878, 1379.041
397.4699, 1392.171
397.9520, 1402.775
398.4341, 1418.132
398.9163, 1439.271
399.3984, 1464.088
399.8805, 1491.756
400.3626, 1521.838
400.8447, 1556.282
401.3268, 1596.690
401.8090, 1640.247
402.2911, 1683.119
402.7732, 1722.599
403.2553, 1767.167
403.7374, 1818.183
404.2195, 1875.800
404.7017, 1943.798
405.1838, 2024.183
405.6659, 2110.471
406.1480, 2197.678
406.6301, 2286.186
407.1122, 2374.189
407.5944, 2460.001
408.0765, 2546.919
408.5586, 2639.770
409.0407, 2738.937
409.5228, 2846.968
410.0049, 2967.755
410.4871, 3097.602
410.9692, 3227.635
411.4513, 3356.827
411.9334, 3488.271
412.4155, 3632.278
412.8976, 3784.953
413.3798, 3929.326
413.8619, 4065.873
414.3440, 4188.440
414.8261, 4291.660
415.3082, 4375.777
415.7903, 4445.083
416.2725, 4506.412
416.7546, 4553.778
417.2367, 4581.178
417.7188, 4576.326
418.2009, 4561.622
418.6830, 4558.479
419.1652, 4556.876
419.6473, 4520.099
420.1294, 4434.231
420.6115, 4311.174
421.0937, 4151.653
421.5758, 3942.425
422.0579, 3731.909
422.5400, 3518.258
423.0221, 3308.338
423.5042, 3108.631
423.9864, 2906.014
424.4685, 2730.578
424.9506, 2587.783
425.4327, 2480.294
425.9148, 2396.968
426.3969, 2345.085
426.8791, 2309.045
427.3612, 2275.675
427.8433, 2242.118
428.3254, 2220.079
428.8075, 2210.533
429.2896, 2214.123
429.7718, 2236.379
430.2539, 2280.354
430.7360, 2326.688
431.2181, 2359.296
431.7002, 2380.079
432.1823, 2419.043
432.6645, 2480.409
433.1466, 2551.094
433.6287, 2610.758
434.1108, 2662.229
434.5929, 2720.483
435.0750, 2797.792
435.5572, 2882.544
436.0393, 2951.372
436.5214, 3005.089
437.0035, 3061.262
437.4856, 3141.036
437.9677, 3229.057
438.4499, 3304.488
438.9320, 3364.565
439.4141, 3406.516
439.8962, 3431.746
440.3783, 3437.472
440.8604, 3417.234
441.3426, 3359.039
441.8247, 3281.159
442.3068, 3190.938
442.7889, 3086.863
443.2710, 2981.810
443.7531, 2867.866
444.2353, 2759.381
444.7174, 2670.247
445.1995, 2607.818
445.6816, 2560.452
446.1637, 2527.038
446.6458, 2507.513
447.1280, 2500.870
447.6101, 2514.239
448.0922, 2532.695
448.5743, 2546.074
449.0564, 2545.632
449.5385, 2564.328
450.0207, 2605.536
450.5028, 2663.683
450.9849, 2729.258
451.4670, 2801.810
451.9491, 2881.015
452.4312, 2967.525
452.9134, 3060.724
453.3955, 3156.441
453.8776, 3253.177
454.3597, 3360.281
454.8418, 3487.956
455.3239, 3633.999
455.8061, 3783.778
456.2882, 3935.330
456.7703, 4090.160
457.2524, 4246.562
457.7345, 4406.535
458.2166, 4582.611
458.6988, 4788.040
459.1809, 5009.092
459.6630, 5227.609
460.1451, 5443.164
460.6272, 5662.194
461.1093, 5891.703
461.5915, 6125.331
462.0736, 6350.609
462.5557, 6550.141
463.0378, 6754.021
463.5199, 6976.052
464.0020, 7212.474
464.4842, 7442.949
464.9663, 7649.017
465.4484, 7856.356
465.9305, 8079.744
466.4126, 8331.636
466.8947, 8583.480
467.3769, 8836.130
467.8590, 9087.325
468.3411, 9336.186
468.8232, 9578.057
469.3053, 9825.519
469.7874, 10088.04
470.2696, 10363.92
470.7517, 10628.62
471.2338, 10889.60
471.7159, 11114.79
472.1980, 11290.52
472.6801, 11415.62
473.1623, 11432.67
473.6444, 11332.91
474.1265, 11124.98
474.6086, 10812.79
475.0907, 10400.38
475.5728, 9914.110
476.0550, 9329.476
476.5371, 8690.652
477.0192, 8064.903
477.5013, 7451.246
477.9834, 6873.875
478.4655, 6351.811
478.9477, 5875.184
479.4298, 5437.400
479.9119, 5028.363
480.3940, 4660.013
480.8761, 4351.492
481.3582, 4091.944
481.8404, 3854.510
482.3225, 3629.502
482.8046, 3425.672
483.2867, 3245.841
483.7688, 3092.257
484.2509, 2955.979
484.7331, 2844.640
485.2152, 2746.610
485.6973, 2648.594
486.1794, 2545.248
486.6615, 2450.608
487.1436, 2365.127
487.6258, 2289.284
488.1079, 2227.333
488.5900, 2183.990
489.0721, 2142.521
489.5542, 2092.510
490.0363, 2033.631
490.5185, 1981.010
491.0006, 1936.263
491.4827, 1895.151
491.9648, 1850.262
492.4470, 1803.497
492.9291, 1766.619
493.4112, 1747.659
493.8933, 1738.086
494.3754, 1729.592
494.8575, 1720.987
495.3397, 1705.315
495.8218, 1669.041
496.3039, 1627.317
496.7860, 1598.094
497.2681, 1586.192
497.7502, 1576.305
498.2324, 1560.901
498.7145, 1542.326
499.1966, 1523.466
499.6787, 1499.635
500.1608, 1481.427
500.6429, 1475.765
501.1251, 1481.573
501.6072, 1481.217
502.0893, 1467.149
502.5714, 1452.261
503.0535, 1443.036
503.5356, 1443.868
504.0178, 1439.249
504.4999, 1425.397
504.9820, 1409.594
505.4641, 1404.714
505.9462, 1413.800
506.4283, 1417.732
506.9105, 1409.028
507.3926, 1391.425
507.8747, 1378.343
508.3568, 1369.681
508.8389, 1367.144
509.3210, 1377.844
509.8032, 1395.566
510.2853, 1402.285
510.7674, 1394.351
511.2495, 1381.398
511.7316, 1370.570
512.2137, 1362.126
512.6959, 1356.719
513.1780, 1357.946
513.6601, 1359.435
514.1422, 1354.820
514.6243, 1345.495
515.1064, 1341.117
515.5886, 1351.828
516.0707, 1364.213
516.5528, 1369.537
517.0349, 1362.238
517.5170, 1357.317
517.9991, 1356.731
518.4813, 1359.093
518.9634, 1362.905
519.4455, 1368.923
519.9276, 1375.002
520.4097, 1380.136
520.8918, 1384.776
521.3740, 1391.978
521.8561, 1401.080
522.3382, 1414.942
522.8203, 1439.940
523.3024, 1474.626
523.7845, 1495.647
524.2667, 1499.608
524.7488, 1498.260
525.2309, 1503.231
525.7130, 1514.695
526.1951, 1533.459
526.6772, 1564.919
527.1594, 1599.176
527.6415, 1622.863
528.1236, 1638.177
528.6057, 1655.385
529.0878, 1681.472
529.5699, 1710.759
530.0521, 1738.581
530.5342, 1764.139
531.0163, 1790.295
531.4984, 1820.867
531.9805, 1851.526
532.4626, 1877.817
532.9448, 1898.153
533.4269, 1915.060
533.9090, 1926.677
534.3911, 1934.832
534.8732, 1947.381
535.3553, 1970.341
535.8375, 1986.601
536.3196, 1987.109
536.8017, 1971.100
537.2838, 1956.675
537.7659, 1944.815
538.2480, 1930.823
538.7302, 1908.472
539.2123, 1878.648
539.6944, 1848.754
540.1765, 1820.177
540.6586, 1792.590
541.1407, 1763.712
541.6229, 1734.517
542.1050, 1708.039
542.5871, 1684.399
543.0692, 1665.147
543.5513, 1652.949
544.0334, 1647.992
544.5156, 1645.139
544.9977, 1645.018
545.4798, 1644.277
545.9619, 1639.628
546.4440, 1620.035
546.9261, 1612.039
547.4083, 1630.197
547.8904, 1660.128
548.3725, 1674.903
548.8546, 1662.397
549.3367, 1655.042
549.8188, 1662.833
550.3010, 1684.053
550.7831, 1697.291
551.2652, 1699.880
551.7473, 1703.422
552.2294, 1717.748
552.7115, 1741.638
553.1937, 1761.272
553.6758, 1774.366
554.1579, 1788.159
554.6400, 1812.775
555.1221, 1845.608
555.6042, 1878.650
556.0864, 1908.787
556.5685, 1938.674
557.0506, 1971.422
557.5327, 2006.127
558.0148, 2038.907
558.4969, 2063.240
558.9791, 2088.684
559.4612, 2121.418
559.9433, 2163.128
560.4254, 2205.927
560.9075, 2246.105
561.3896, 2288.032
561.8718, 2336.709
562.3539, 2403.103
562.8360, 2456.306
563.3181, 2484.588
563.8002, 2502.292
564.2823, 2547.036
564.7645, 2623.611
565.2466, 2704.189
565.7287, 2777.707
566.2108, 2845.823
566.6929, 2914.516
567.1750, 2983.138
567.6572, 3054.601
568.1393, 3129.025
568.6214, 3207.307
569.1035, 3291.139
569.5856, 3384.210
570.0677, 3471.928
570.5499, 3540.194
571.0320, 3596.512
571.5141, 3653.267
571.9962, 3724.440
572.4783, 3787.520
572.9604, 3835.673
573.4426, 3868.292
573.9247, 3884.103
574.4068, 3885.744
574.8889, 3866.882
575.3710, 3824.424
575.8531, 3757.594
576.3353, 3674.124
576.8174, 3571.476
577.2995, 3457.132
577.7816, 3336.758
578.2637, 3211.131
578.7458, 3073.307
579.2280, 2916.205
579.7101, 2757.626
580.1922, 2630.815
580.6743, 2532.227
581.1564, 2441.830
581.6385, 2349.535
582.1207, 2260.433
582.6028, 2182.270
583.0849, 2115.265
583.5670, 2055.703
584.0491, 2006.765
584.5313, 1961.164
585.0134, 1911.538
585.4955, 1852.776
585.9776, 1803.618
586.4597, 1774.760
586.9418, 1755.802
587.4240, 1735.315
587.9061, 1709.894
588.3882, 1687.574
588.8703, 1671.924
589.3524, 1659.188
589.8345, 1636.007
590.3167, 1598.257
590.7988, 1565.874
591.2809, 1550.309
591.7630, 1547.879
592.2451, 1539.573
592.7272, 1525.084
593.2094, 1512.197
593.6915, 1510.455
594.1736, 1514.303
594.6557, 1512.910
595.1378, 1503.966
595.6199, 1492.294
596.1021, 1478.658
596.5842, 1465.335
597.0663, 1455.532
597.5485, 1451.280
598.0306, 1449.845
598.5127, 1451.742
598.9948, 1456.137
599.4769, 1459.594
599.9590, 1463.556
600.4412, 1464.606
600.9233, 1460.685
601.4054, 1451.297
601.8875, 1444.251
602.3696, 1439.354
602.8517, 1437.428
603.3339, 1441.467
603.8160, 1450.727
604.2981, 1453.341
604.7802, 1446.219
605.2623, 1438.432
605.7444, 1444.233
606.2266, 1459.020
606.7087, 1470.078
607.1908, 1469.893
607.6729, 1467.372
608.1550, 1470.125
608.6371, 1476.524
609.1193, 1481.360
609.6014, 1476.371
610.0835, 1474.636
610.5656, 1484.429
611.0477, 1508.272
611.5298, 1527.316
612.0120, 1537.385
612.4941, 1545.881
612.9762, 1557.076
613.4583, 1570.610
613.9404, 1586.787
614.4225, 1603.130
614.9047, 1626.523
615.3868, 1671.424
615.8689, 1736.462
616.3510, 1797.946
616.8331, 1846.574
617.3152, 1891.120
617.7974, 1947.871
618.2795, 2013.182
618.7616, 2075.790
619.2437, 2125.566
619.7258, 2172.829
620.2079, 2223.853
620.6901, 2278.927
621.1722, 2341.873
621.6543, 2419.153
622.1364, 2501.455
622.6185, 2582.257
623.1006, 2662.196
623.5828, 2739.098
