##NAMES=Paravinogradovite
##RRUFFID=R060834
##IDEAL CHEMISTRY=(Na,[box])_2_(Ti^4+^,Fe^3+^)_4_(Si_2_O_6_)_2_(Si_3_AlO_10_)(OH)_4_&#183;H_2_O
##LOCALITY=Kukisvumchorr Mountain, Khibiny Massif, Kola Peninsula, Russia
##OWNER=RRUFF
##SOURCE=Michael Scott
##DESCRIPTION=Aggregates of parallel tan colored acicular crystals associated with zircon
##STATUS=The identification of this mineral is confirmed by single-crystal X-ray diffraction and chemical analysis.
##URL=rruff.info/R060834
##MEASURED CHEMISTRY=(Na_2.13_K_0.14_)_2.27_(Ti^4+^_3.47_Fe^2+^_0.46_Nb^5+^_0.04_Mg_0.03_)_Σ=4_(Si_2.00_O_6_)_2_((Si_2.67_Al_1.17_B_0.16_)_Σ=4_O_10_)(OH)_4_·H_2_O; B and OH by difference and charge balance; Fe^2+^ by charge balance;
159.1325, 6984.736
159.6146, 7033.143
160.0968, 7080.555
160.5789, 7123.452
161.0610, 7167.235
161.5431, 7219.532
162.0252, 7280.301
162.5073, 7337.031
162.9895, 7374.535
163.4716, 7388.139
163.9537, 7412.427
164.4358, 7460.488
164.9179, 7512.754
165.4000, 7549.862
165.8822, 7568.825
166.3643, 7582.909
166.8464, 7606.490
167.3285, 7640.672
167.8106, 7671.345
168.2927, 7699.100
168.7749, 7721.818
169.2570, 7740.259
169.7391, 7755.084
170.2212, 7757.212
170.7033, 7727.488
171.1854, 7664.771
171.6676, 7622.126
172.1497, 7638.729
172.6318, 7666.886
173.1139, 7641.188
173.5960, 7545.900
174.0781, 7435.249
174.5603, 7370.556
175.0424, 7349.166
175.5245, 7329.521
176.0066, 7308.162
176.4887, 7282.175
176.9708, 7244.771
177.4530, 7192.583
177.9351, 7139.104
178.4172, 7101.003
178.8993, 7076.165
179.3814, 7050.688
179.8635, 7020.705
180.3457, 6988.070
180.8278, 6954.521
181.3099, 6919.835
181.7920, 6886.340
182.2741, 6853.333
182.7562, 6821.067
183.2384, 6802.035
183.7205, 6810.954
184.2026, 6832.217
184.6847, 6840.859
185.1668, 6831.945
185.6489, 6814.778
186.1311, 6797.160
186.6132, 6779.045
187.0953, 6758.969
187.5774, 6734.272
188.0595, 6707.821
188.5416, 6684.674
189.0238, 6665.678
189.5059, 6649.065
189.9880, 6632.258
190.4701, 6615.698
190.9522, 6603.470
191.4343, 6596.953
191.9165, 6595.570
192.3986, 6601.426
192.8807, 6618.377
193.3628, 6631.151
193.8449, 6616.328
194.3270, 6582.121
194.8092, 6560.517
195.2913, 6573.261
195.7734, 6601.855
196.2555, 6615.104
196.7376, 6608.718
197.2197, 6592.687
197.7019, 6566.828
198.1840, 6535.679
198.6661, 6517.786
199.1482, 6527.756
199.6303, 6551.555
200.1124, 6566.150
200.5946, 6567.991
201.0767, 6568.293
201.5588, 6580.000
202.0409, 6598.297
202.5230, 6609.723
203.0051, 6605.408
203.4873, 6593.736
203.9694, 6586.850
204.4515, 6586.042
204.9336, 6586.801
205.4157, 6583.756
205.8978, 6579.245
206.3800, 6580.244
206.8621, 6591.134
207.3442, 6607.315
207.8263, 6622.586
208.3084, 6636.424
208.7905, 6651.297
209.2727, 6667.737
209.7548, 6686.496
210.2369, 6710.077
210.7190, 6741.514
211.2011, 6776.620
211.6832, 6811.412
212.1654, 6845.902
212.6475, 6877.989
213.1296, 6902.021
213.6117, 6922.924
214.0938, 6952.381
214.5760, 7002.282
215.0581, 7054.621
215.5402, 7086.960
216.0223, 7098.419
216.5044, 7116.672
216.9865, 7160.761
217.4687, 7223.382
217.9508, 7286.290
218.4329, 7351.453
218.9150, 7412.850
219.3971, 7464.235
219.8792, 7506.163
220.3614, 7544.810
220.8435, 7581.296
221.3256, 7617.554
221.8077, 7658.622
222.2898, 7712.185
222.7719, 7761.456
223.2541, 7785.721
223.7362, 7789.851
224.2183, 7809.482
224.7004, 7868.011
225.1825, 7948.140
225.6646, 8007.311
226.1468, 8036.761
226.6289, 8061.328
227.1110, 8092.503
227.5931, 8129.843
228.0752, 8173.443
228.5573, 8227.315
229.0395, 8282.618
229.5216, 8320.323
230.0037, 8333.585
230.4858, 8347.920
230.9679, 8376.665
231.4500, 8415.012
231.9322, 8448.736
232.4143, 8469.749
232.8964, 8490.397
233.3785, 8537.682
233.8606, 8619.662
234.3427, 8692.456
234.8249, 8736.298
235.3070, 8763.180
235.7891, 8792.805
236.2712, 8830.517
236.7533, 8873.478
237.2354, 8917.486
237.7176, 8962.090
238.1997, 9009.965
238.6818, 9062.406
239.1639, 9118.501
239.6460, 9178.861
240.1281, 9244.183
240.6103, 9308.804
241.0924, 9363.028
241.5745, 9402.715
242.0566, 9458.807
242.5387, 9544.737
243.0208, 9641.715
243.5030, 9735.819
243.9851, 9824.460
244.4672, 9905.994
244.9493, 9975.776
245.4314, 10030.81
245.9135, 10099.21
246.3957, 10180.95
246.8778, 10275.79
247.3599, 10391.88
247.8420, 10525.06
248.3241, 10650.37
248.8062, 10745.10
249.2884, 10807.98
249.7705, 10895.56
250.2526, 11015.92
250.7347, 11148.92
251.2168, 11291.89
251.6989, 11440.55
252.1811, 11585.72
252.6632, 11720.72
253.1453, 11846.01
253.6274, 11969.45
254.1095, 12075.60
254.5916, 12196.31
255.0738, 12348.47
255.5559, 12519.43
256.0380, 12689.95
256.5201, 12850.84
257.0022, 13000.71
257.4843, 13136.12
257.9665, 13236.77
258.4486, 13344.99
258.9307, 13465.03
259.4128, 13594.10
259.8949, 13729.24
260.3770, 13869.58
260.8592, 14014.59
261.3413, 14164.79
261.8234, 14325.10
262.3055, 14483.67
262.7876, 14649.64
263.2697, 14809.23
263.7519, 14945.68
264.2340, 15057.21
264.7161, 15161.77
265.1982, 15283.94
265.6803, 15431.91
266.1624, 15578.61
266.6446, 15735.19
267.1267, 15882.15
267.6088, 16002.48
268.0909, 16099.72
268.5730, 16193.22
269.0551, 16302.79
269.5373, 16430.42
270.0194, 16557.16
270.5015, 16690.14
270.9836, 16815.51
271.4657, 16931.83
271.9478, 17036.97
272.4300, 17124.39
272.9121, 17181.69
273.3942, 17215.93
273.8763, 17285.66
274.3584, 17415.27
274.8405, 17547.66
275.3227, 17665.61
275.8048, 17771.78
276.2869, 17870.66
276.7690, 17960.43
277.2511, 18047.57
277.7332, 18150.88
278.2154, 18280.20
278.6975, 18398.49
279.1796, 18482.09
279.6617, 18553.20
280.1438, 18633.73
280.6259, 18731.01
281.1081, 18835.49
281.5902, 18940.63
282.0723, 19048.07
282.5544, 19140.37
283.0365, 19198.79
283.5186, 19248.96
284.0008, 19316.62
284.4829, 19405.39
284.9650, 19496.42
285.4471, 19576.68
285.9292, 19647.53
286.4113, 19718.47
286.8935, 19797.87
287.3756, 19867.93
287.8577, 19911.56
288.3398, 19930.50
288.8219, 19935.49
289.3040, 19923.08
289.7862, 19901.93
290.2683, 19891.98
290.7504, 19900.17
291.2325, 19896.92
291.7146, 19852.47
292.1967, 19771.27
292.6789, 19680.92
293.1610, 19570.63
293.6431, 19463.36
294.1252, 19395.74
294.6073, 19362.06
295.0894, 19297.70
295.5716, 19151.78
296.0537, 18937.78
296.5358, 18753.85
297.0179, 18620.99
297.5000, 18491.54
297.9821, 18350.46
298.4643, 18198.58
298.9464, 18036.87
299.4285, 17865.69
299.9106, 17687.21
300.3927, 17504.12
300.8748, 17322.73
301.3570, 17128.92
301.8391, 16908.98
302.3212, 16681.80
302.8033, 16471.63
303.2854, 16283.51
303.7675, 16097.89
304.2497, 15882.90
304.7318, 15621.96
305.2139, 15372.86
305.6960, 15132.86
306.1781, 14904.25
306.6602, 14690.24
307.1424, 14490.16
307.6245, 14298.37
308.1066, 14112.42
308.5887, 13933.49
309.0708, 13740.03
309.5529, 13503.53
310.0351, 13281.48
310.5172, 13100.77
310.9993, 12945.15
311.4814, 12785.44
311.9635, 12604.63
312.4456, 12408.91
312.9278, 12215.50
313.4099, 12018.51
313.8920, 11837.69
314.3741, 11680.13
314.8562, 11537.82
315.3383, 11404.91
315.8205, 11280.02
316.3026, 11159.66
316.7847, 11037.23
317.2668, 10911.67
317.7489, 10793.94
318.2310, 10694.29
318.7132, 10596.51
319.1953, 10485.36
319.6774, 10361.25
320.1595, 10239.78
320.6416, 10126.39
321.1237, 10023.41
321.6059, 9944.468
322.0880, 9896.905
322.5701, 9859.253
323.0522, 9811.021
323.5343, 9756.638
324.0164, 9712.482
324.4986, 9688.425
324.9807, 9673.510
325.4628, 9655.731
325.9449, 9634.743
326.4270, 9614.755
326.9091, 9598.740
327.3913, 9585.633
327.8734, 9570.721
328.3555, 9539.769
328.8376, 9523.308
329.3197, 9550.993
329.8018, 9602.589
330.2840, 9631.161
330.7661, 9615.547
331.2482, 9579.531
331.7303, 9570.131
332.2124, 9602.534
332.6945, 9632.768
333.1767, 9658.724
333.6588, 9681.146
334.1409, 9699.829
334.6230, 9715.227
335.1051, 9729.812
335.5872, 9746.442
336.0694, 9765.548
336.5515, 9784.403
337.0336, 9801.417
337.5157, 9819.911
337.9979, 9841.772
338.4800, 9866.303
338.9621, 9892.603
339.4442, 9920.759
339.9263, 9949.259
340.4084, 9970.769
340.8906, 9982.857
341.3727, 9991.259
341.8548, 9992.188
342.3369, 9992.757
342.8190, 10002.61
343.3011, 10024.97
343.7833, 10047.63
344.2654, 10049.58
344.7475, 10026.23
345.2296, 10017.54
345.7117, 10038.52
346.1938, 10068.83
346.6760, 10097.48
347.1581, 10123.54
347.6402, 10145.44
348.1223, 10161.79
348.6044, 10173.32
349.0865, 10181.56
349.5687, 10185.86
350.0508, 10189.27
350.5329, 10190.84
351.0150, 10193.19
351.4971, 10203.39
351.9792, 10229.45
352.4614, 10258.00
352.9435, 10276.55
353.4256, 10287.35
353.9077, 10301.30
354.3898, 10322.03
354.8719, 10350.11
355.3541, 10389.29
355.8362, 10445.77
356.3183, 10497.32
356.8004, 10526.71
357.2825, 10553.66
357.7646, 10604.64
358.2468, 10684.81
358.7289, 10774.73
359.2110, 10852.12
359.6931, 10912.25
360.1752, 10980.35
360.6573, 11052.92
361.1395, 11134.99
361.6216, 11232.83
362.1037, 11342.52
362.5858, 11457.62
363.0679, 11575.88
363.5500, 11692.99
364.0322, 11785.76
364.5143, 11821.17
364.9964, 11884.59
365.4785, 12011.58
365.9606, 12158.53
366.4427, 12285.28
366.9249, 12380.36
367.4070, 12458.14
367.8891, 12536.69
368.3712, 12617.36
368.8533, 12682.47
369.3354, 12721.87
369.8176, 12753.17
370.2997, 12788.72
370.7818, 12827.06
371.2639, 12860.39
371.7460, 12894.64
372.2281, 12918.21
372.7103, 12905.75
373.1924, 12853.36
373.6745, 12789.74
374.1566, 12733.73
374.6387, 12676.87
375.1208, 12599.85
375.6030, 12504.03
376.0851, 12385.05
376.5672, 12235.37
377.0493, 12060.81
377.5314, 11872.34
378.0135, 11672.55
378.4957, 11465.25
378.9778, 11254.87
379.4599, 11039.15
379.9420, 10829.00
380.4241, 10628.43
380.9063, 10430.17
381.3884, 10227.61
381.8705, 10022.75
382.3526, 9823.067
382.8347, 9636.221
383.3168, 9460.604
383.7990, 9285.058
384.2811, 9095.744
384.7632, 8922.900
385.2453, 8784.012
385.7274, 8658.685
386.2095, 8522.223
386.6917, 8365.771
387.1738, 8205.426
387.6559, 8062.092
388.1380, 7932.949
388.6201, 7833.042
389.1022, 7790.774
389.5844, 7754.888
390.0665, 7688.401
390.5486, 7597.193
391.0307, 7517.594
391.5128, 7483.767
391.9949, 7472.078
392.4771, 7428.938
392.9592, 7349.165
393.4413, 7267.052
393.9234, 7196.553
394.4055, 7139.481
394.8876, 7097.908
395.3698, 7081.069
395.8519, 7065.318
396.3340, 7041.025
396.8161, 7009.006
397.2982, 6968.340
397.7803, 6917.894
398.2625, 6866.923
398.7446, 6828.916
399.2267, 6811.365
399.7088, 6782.329
400.1909, 6729.718
400.6730, 6676.595
401.1552, 6636.363
401.6373, 6607.768
402.1194, 6582.600
402.6015, 6555.782
403.0836, 6527.752
403.5657, 6501.242
404.0479, 6477.995
404.5300, 6453.372
405.0121, 6425.677
405.4942, 6397.127
405.9763, 6371.071
406.4584, 6347.708
406.9406, 6322.161
407.4227, 6282.661
407.9048, 6230.340
408.3869, 6200.578
408.8690, 6203.250
409.3511, 6218.430
409.8333, 6236.453
410.3154, 6256.184
410.7975, 6274.739
411.2796, 6290.459
411.7617, 6305.085
412.2438, 6320.526
412.7260, 6336.576
413.2081, 6351.153
413.6902, 6361.441
414.1723, 6371.876
414.6544, 6392.893
415.1365, 6426.396
415.6187, 6461.871
416.1008, 6500.745
416.5829, 6538.637
417.0650, 6569.394
417.5471, 6593.497
418.0292, 6619.377
418.5114, 6655.930
418.9935, 6702.924
419.4756, 6737.028
419.9577, 6732.582
420.4398, 6744.671
420.9219, 6801.605
421.4041, 6874.453
421.8862, 6925.578
422.3683, 6941.699
422.8504, 6942.638
423.3325, 6958.549
423.8146, 6992.280
424.2968, 7019.205
424.7789, 7032.742
425.2610, 7042.788
425.7431, 7052.966
426.2252, 7064.498
426.7073, 7081.017
427.1895, 7105.346
427.6716, 7135.072
428.1537, 7170.425
428.6358, 7211.406
429.1179, 7241.113
429.6000, 7246.115
430.0822, 7239.281
430.5643, 7250.266
431.0464, 7283.048
431.5285, 7320.843
432.0106, 7371.417
432.4927, 7418.479
432.9749, 7437.413
433.4570, 7427.182
433.9391, 7413.207
434.4212, 7419.380
434.9033, 7446.195
435.3854, 7469.921
435.8676, 7491.426
436.3497, 7508.629
436.8318, 7508.996
437.3139, 7509.277
437.7960, 7537.204
438.2781, 7602.681
438.7603, 7674.412
439.2424, 7704.369
439.7245, 7688.298
440.2066, 7668.222
440.6887, 7640.152
441.1708, 7618.538
441.6530, 7614.981
442.1351, 7625.278
442.6172, 7635.195
443.0993, 7646.158
443.5814, 7648.881
444.0635, 7623.306
444.5457, 7572.459
445.0278, 7534.544
445.5099, 7530.441
445.9920, 7543.590
446.4741, 7539.318
446.9562, 7515.607
447.4384, 7484.405
447.9205, 7440.492
448.4026, 7394.488
448.8847, 7359.840
449.3668, 7334.983
449.8489, 7305.627
450.3311, 7259.430
450.8132, 7198.544
451.2953, 7141.213
451.7774, 7085.478
452.2595, 7036.758
452.7416, 7004.971
453.2238, 6975.505
453.7059, 6932.872
454.1880, 6873.760
454.6701, 6808.412
455.1522, 6744.894
455.6343, 6683.517
456.1165, 6628.067
456.5986, 6579.466
457.0807, 6534.808
457.5628, 6492.041
458.0449, 6451.360
458.5270, 6413.676
459.0092, 6377.665
459.4913, 6346.319
459.9734, 6328.097
460.4555, 6316.203
460.9376, 6290.113
461.4197, 6242.258
461.9019, 6187.871
462.3840, 6149.532
462.8661, 6133.801
463.3482, 6110.904
463.8303, 6071.067
464.3124, 6034.256
464.7946, 6011.055
465.2767, 5998.805
465.7588, 5991.612
466.2409, 5986.894
466.7230, 5982.025
467.2051, 5969.269
467.6873, 5944.294
468.1694, 5926.114
468.6515, 5924.961
469.1336, 5925.838
469.6157, 5917.500
470.0978, 5901.485
470.5800, 5889.572
471.0621, 5885.144
471.5442, 5889.859
472.0263, 5909.801
472.5084, 5944.749
472.9905, 5979.878
473.4727, 6008.902
473.9548, 6032.618
474.4369, 6050.699
474.9190, 6056.311
475.4011, 6073.109
475.8832, 6112.260
476.3654, 6159.799
476.8475, 6199.185
477.3296, 6232.163
477.8117, 6276.875
478.2938, 6348.931
478.7759, 6444.718
479.2581, 6536.760
479.7402, 6614.087
480.2223, 6706.719
480.7044, 6829.170
481.1865, 6961.355
481.6686, 7079.547
482.1508, 7181.474
482.6329, 7296.620
483.1150, 7459.355
483.5971, 7655.753
484.0792, 7836.592
484.5613, 7994.094
485.0435, 8155.405
485.5256, 8334.896
486.0077, 8532.267
486.4898, 8742.803
486.9719, 8980.931
487.4540, 9211.093
487.9362, 9405.606
488.4183, 9589.051
488.9004, 9802.415
489.3825, 10050.71
489.8646, 10297.36
490.3467, 10508.92
490.8289, 10684.61
491.3110, 10831.06
491.7931, 10925.70
492.2752, 11014.97
492.7573, 11129.18
493.2394, 11234.14
493.7216, 11289.71
494.2037, 11284.65
494.6858, 11237.86
495.1679, 11161.88
495.6500, 11059.00
496.1321, 10949.63
496.6143, 10844.48
497.0964, 10710.56
497.5785, 10504.80
498.0606, 10251.20
498.5427, 10024.68
499.0248, 9847.738
499.5070, 9679.771
499.9891, 9510.702
500.4712, 9335.424
500.9533, 9142.523
501.4355, 8929.921
501.9176, 8713.479
502.3997, 8510.886
502.8818, 8321.680
503.3639, 8149.659
503.8460, 8005.669
504.3282, 7867.880
504.8103, 7732.804
505.2924, 7600.936
505.7745, 7471.785
506.2566, 7344.832
506.7387, 7227.509
507.2209, 7131.683
507.7030, 7054.970
508.1851, 6973.749
508.6672, 6884.259
509.1493, 6792.660
509.6314, 6698.204
510.1136, 6604.722
510.5957, 6527.187
511.0778, 6480.688
511.5599, 6433.605
512.0420, 6362.259
512.5241, 6283.412
513.0062, 6228.037
513.4883, 6202.539
513.9705, 6181.949
514.4526, 6136.765
514.9347, 6064.052
515.4168, 6006.658
515.8989, 5968.101
516.3810, 5942.520
516.8632, 5943.461
517.3453, 5950.186
517.8274, 5932.740
518.3095, 5882.168
518.7916, 5832.166
519.2737, 5821.229
519.7559, 5840.875
520.2380, 5852.544
520.7201, 5850.715
521.2022, 5847.834
521.6843, 5853.441
522.1664, 5865.201
522.6486, 5871.899
523.1307, 5864.111
523.6128, 5863.591
524.0949, 5875.406
524.5770, 5899.262
525.0591, 5940.178
525.5413, 5996.202
526.0234, 6051.168
526.5055, 6088.427
526.9876, 6109.241
527.4697, 6141.815
527.9518, 6196.364
528.4340, 6245.999
528.9161, 6278.546
529.3982, 6306.943
529.8803, 6342.746
530.3624, 6388.225
530.8445, 6441.533
531.3267, 6504.494
531.8088, 6574.142
532.2909, 6647.615
532.7730, 6724.850
533.2551, 6794.058
533.7372, 6845.142
534.2194, 6885.238
534.7015, 6937.716
535.1836, 7007.602
535.6657, 7080.547
536.1478, 7157.119
536.6299, 7234.673
537.1121, 7314.395
537.5942, 7393.501
538.0763, 7462.761
538.5584, 7514.534
539.0405, 7554.026
539.5226, 7596.874
540.0048, 7642.469
540.4869, 7694.434
540.9690, 7766.040
541.4511, 7833.671
541.9332, 7871.829
542.4153, 7882.417
542.8975, 7900.325
543.3796, 7953.140
543.8617, 8007.699
544.3438, 8031.278
544.8259, 8028.416
545.3080, 8017.829
545.7902, 8006.467
546.2723, 7998.537
546.7544, 8003.298
547.2365, 8031.945
547.7186, 8041.889
548.2007, 8014.164
548.6829, 7989.012
549.1650, 7987.047
549.6471, 7998.915
550.1292, 8006.770
550.6113, 8003.410
551.0934, 7992.528
551.5756, 7975.649
552.0577, 7954.060
552.5398, 7938.820
553.0219, 7935.015
553.5040, 7928.085
553.9861, 7906.701
554.4683, 7870.749
554.9504, 7827.640
555.4325, 7765.785
555.9146, 7710.645
556.3967, 7676.371
556.8788, 7650.929
557.3610, 7620.864
557.8431, 7582.961
558.3252, 7539.427
558.8073, 7491.329
559.2894, 7439.297
559.7715, 7428.511
560.2537, 7412.851
560.7358, 7386.495
561.2179, 7350.000
561.7000, 7273.017
562.1821, 7248.317
562.6642, 7202.669
563.1464, 7156.148
563.6285, 7138.812
564.1106, 7054.855
564.5927, 7017.047
565.0748, 6951.509
565.5569, 6886.827
566.0391, 6838.150
566.5212, 6796.501
567.0033, 6739.917
567.4854, 6651.062
567.9675, 6583.050
568.4496, 6544.057
568.9318, 6515.281
569.4139, 6494.732
569.8960, 6476.377
570.3781, 6448.922
570.8602, 6405.217
571.3423, 6357.845
571.8245, 6322.175
572.3066, 6297.197
572.7887, 6276.284
573.2708, 6259.305
573.7529, 6242.382
574.2350, 6221.133
574.7172, 6196.246
575.1993, 6175.952
575.6814, 6167.401
576.1635, 6154.350
576.6456, 6129.342
577.1277, 6099.418
577.6099, 6069.543
578.0920, 6042.064
578.5741, 6020.577
579.0562, 6010.504
579.5383, 6008.532
580.0204, 5998.190
580.5026, 5977.040
580.9847, 5956.292
581.4668, 5941.654
581.9489, 5927.551
582.4310, 5906.840
582.9132, 5879.000
583.3953, 5851.717
583.8774, 5816.117
584.3596, 5791.094
584.8417, 5804.274
585.3238, 5840.122
585.8059, 5854.773
586.2880, 5829.450
586.7701, 5790.092
587.2523, 5780.873
587.7344, 5809.786
588.2165, 5828.457
588.6986, 5828.976
589.1807, 5829.012
589.6628, 5832.831
590.1450, 5841.625
590.6271, 5857.814
591.1092, 5882.954
591.5913, 5911.213
592.0734, 5941.102
592.5555, 5970.609
593.0377, 5994.471
593.5198, 6013.014
594.0019, 6034.782
594.4840, 6065.398
594.9661, 6103.412
595.4482, 6143.677
595.9304, 6194.911
596.4125, 6233.602
596.8946, 6246.637
597.3767, 6259.305
597.8588, 6287.113
598.3409, 6327.700
598.8231, 6370.721
599.3052, 6412.421
599.7873, 6452.206
600.2694, 6488.949
600.7515, 6523.088
601.2336, 6555.590
601.7158, 6585.460
602.1979, 6621.510
602.6800, 6675.434
603.1621, 6746.047
603.6442, 6800.063
604.1263, 6820.553
604.6085, 6847.740
605.0906, 6898.148
605.5727, 6952.342
606.0548, 6988.802
606.5369, 7007.617
607.0190, 7029.804
607.5012, 7075.632
607.9833, 7132.554
608.4654, 7168.848
608.9475, 7183.811
609.4296, 7200.406
609.9117, 7226.535
610.3939, 7255.850
610.8760, 7279.556
611.3581, 7296.229
611.8402, 7319.279
612.3223, 7363.431
612.8044, 7398.025
613.2866, 7409.324
613.7687, 7403.704
614.2508, 7383.550
614.7329, 7352.620
615.2150, 7331.165
615.6971, 7350.010
616.1793, 7399.599
616.6614, 7421.927
617.1435, 7414.767
617.6256, 7388.853
618.1077, 7337.457
618.5898, 7278.792
619.0720, 7247.359
619.5541, 7248.819
620.0362, 7239.559
620.5183, 7203.303
621.0004, 7162.852
621.4825, 7132.715
621.9647, 7109.694
622.4468, 7084.988
622.9289, 7055.253
623.4110, 7025.603
623.8931, 7005.752
624.3752, 6995.418
624.8574, 6973.270
625.3395, 6937.137
625.8216, 6893.369
626.3037, 6839.079
626.7858, 6781.866
627.2679, 6735.878
627.7501, 6704.195
628.2322, 6674.552
628.7143, 6645.654
629.1964, 6615.967
629.6785, 6586.348
630.1606, 6554.651
630.6428, 6512.422
631.1249, 6455.049
631.6070, 6397.671
632.0891, 6370.022
632.5712, 6374.640
633.0533, 6369.218
633.5355, 6352.784
634.0176, 6323.388
634.4997, 6268.968
634.9818, 6203.704
635.4639, 6155.616
635.9460, 6132.703
636.4282, 6110.644
636.9103, 6076.592
637.3924, 6043.705
637.8745, 6030.813
638.3566, 6031.079
638.8387, 6018.624
639.3209, 5978.751
639.8030, 5926.243
640.2851, 5888.646
640.7672, 5866.759
641.2493, 5851.310
641.7314, 5847.135
642.2136, 5839.084
642.6957, 5810.929
643.1778, 5773.642
643.6599, 5750.866
644.1420, 5750.758
644.6241, 5750.759
645.1063, 5742.695
645.5884, 5731.787
646.0705, 5720.816
646.5526, 5711.567
647.0347, 5709.163
647.5168, 5717.400
647.9990, 5727.784
