##NAMES=Paralaurionite
##RRUFFID=R100178
##IDEAL CHEMISTRY=Pb^2+^Cl(OH)
##LOCALITY=Sierra Gorda, Antofagasta Province, Chile
##OWNER=RRUFF
##SOURCE=Bob Jenkins
##DESCRIPTION=Clear to pale violet melted looking blobs or elongated tabular crystals, associated with clear to white hexagonal prismatic penfieldite, blue tabular pseudoboleite, and colorless tabular gypsum.
##STATUS=The identification of this mineral has been confirmed by single-crystal X-ray diffraction.
##URL=rruff.info/R100178
163.4050, 67.55647
163.8871, 66.76613
164.3693, 66.50327
164.8514, 66.58009
165.3335, 66.55328
165.8156, 66.40495
166.2977, 66.17897
166.7798, 65.84002
167.2620, 65.43156
167.7441, 64.99245
168.2262, 64.51771
168.7083, 64.07336
169.1904, 63.88155
169.6725, 64.09631
170.1547, 64.23172
170.6368, 64.03021
171.1189, 63.57678
171.6010, 63.17211
172.0831, 62.98930
172.5652, 62.90403
173.0474, 62.62825
173.5295, 62.02955
174.0116, 61.49313
174.4937, 61.42582
174.9758, 61.82604
175.4579, 62.07255
175.9401, 61.80753
176.4222, 61.27918
176.9043, 60.73280
177.3864, 60.19352
177.8685, 59.68342
178.3506, 59.22714
178.8328, 58.82793
179.3149, 58.47154
179.7970, 58.26168
180.2791, 58.04132
180.7612, 57.63332
181.2433, 56.94442
181.7255, 56.14135
182.2076, 55.58735
182.6897, 55.40351
183.1718, 55.26690
183.6539, 55.09715
184.1360, 54.93249
184.6181, 54.79335
185.1003, 54.68408
185.5824, 54.63770
186.0645, 54.80029
186.5466, 55.84576
187.0287, 56.23117
187.5108, 55.21849
187.9930, 53.59001
188.4751, 52.35027
188.9572, 52.08190
189.4393, 52.59133
189.9214, 52.81145
190.4035, 52.47950
190.8857, 52.15144
191.3678, 51.86157
191.8499, 51.65014
192.3320, 51.61788
192.8141, 51.86444
193.2962, 52.31245
193.7784, 52.33415
194.2605, 51.52981
194.7426, 50.83178
195.2247, 50.62157
195.7068, 50.78660
196.1889, 50.99193
196.6711, 51.05449
197.1532, 50.98164
197.6353, 50.85970
198.1174, 50.62450
198.5995, 50.40259
199.0816, 50.30900
199.5638, 50.31719
200.0459, 50.23693
200.5280, 49.87902
201.0101, 49.37507
201.4922, 49.10743
201.9743, 49.18565
202.4565, 49.40501
202.9386, 49.65569
203.4207, 49.94248
203.9028, 50.11926
204.3849, 50.02362
204.8670, 49.79141
205.3492, 49.62016
205.8313, 49.57591
206.3134, 49.56480
206.7955, 49.41226
207.2776, 49.04936
207.7597, 48.86919
208.2419, 49.34496
208.7240, 49.98753
209.2061, 50.28768
209.6882, 50.01335
210.1703, 49.47206
210.6524, 49.18705
211.1346, 49.22870
211.6167, 49.35992
212.0988, 49.64093
212.5809, 49.90797
213.0630, 49.97561
213.5451, 49.75166
214.0273, 49.36475
214.5094, 49.09774
214.9915, 48.97580
215.4736, 48.94567
215.9557, 49.18407
216.4378, 49.41273
216.9200, 49.25993
217.4021, 48.54418
217.8842, 47.57287
218.3663, 47.25460
218.8484, 48.32233
219.3305, 49.00206
219.8127, 48.84475
220.2948, 48.32837
220.7769, 47.92459
221.2590, 47.84793
221.7411, 48.03895
222.2232, 48.32880
222.7054, 48.98995
223.1875, 49.41193
223.6696, 49.49694
224.1517, 49.35029
224.6338, 48.99335
225.1159, 48.43022
225.5980, 47.84614
226.0802, 47.78990
226.5623, 49.06860
227.0444, 49.92241
227.5265, 50.05721
228.0086, 49.74401
228.4907, 49.29087
228.9729, 48.82269
229.4550, 48.32970
229.9371, 47.76534
230.4192, 46.67552
230.9013, 46.20450
231.3834, 47.09187
231.8656, 48.58416
232.3477, 49.50872
232.8298, 49.36981
233.3119, 48.66570
233.7940, 48.48650
234.2761, 48.98324
234.7583, 49.48602
235.2404, 49.93267
235.7225, 50.26192
236.2046, 50.27900
236.6867, 49.82104
237.1688, 49.27908
237.6510, 49.46827
238.1331, 50.51165
238.6152, 51.33847
239.0973, 51.45135
239.5794, 51.10320
240.0615, 50.74054
240.5437, 50.34969
241.0258, 50.26677
241.5079, 51.18318
241.9900, 53.09895
242.4721, 54.66787
242.9542, 55.14725
243.4364, 54.85139
243.9185, 54.53757
244.4006, 54.27928
244.8827, 54.17244
245.3648, 54.31700
245.8469, 54.68760
246.3290, 55.17445
246.8112, 55.80125
247.2933, 56.50845
247.7754, 57.11073
248.2575, 57.51991
248.7396, 57.92896
249.2217, 58.42031
249.7039, 59.01003
250.1860, 59.77731
250.6681, 60.83316
251.1502, 62.11027
251.6323, 63.42764
252.1144, 64.94306
252.5966, 66.19032
253.0787, 66.64958
253.5608, 66.65713
254.0429, 66.99924
254.5250, 68.39465
255.0071, 70.48232
255.4893, 71.74939
255.9714, 71.46529
256.4535, 71.53882
256.9356, 73.10034
257.4177, 75.48681
257.8998, 77.60592
258.3820, 78.73940
258.8641, 79.22403
259.3462, 80.25770
259.8283, 82.07339
260.3104, 84.10203
260.7925, 86.52828
261.2747, 88.93114
261.7568, 90.64198
262.2389, 91.19946
262.7210, 91.12158
263.2031, 92.01953
263.6852, 94.69113
264.1674, 96.99275
264.6495, 98.26360
265.1316, 99.02953
265.6137, 99.73897
266.0958, 100.5621
266.5779, 101.6160
267.0601, 103.3159
267.5422, 106.5050
268.0243, 108.7576
268.5064, 109.3924
268.9885, 109.2860
269.4706, 109.1750
269.9528, 109.3234
270.4349, 109.5347
270.9170, 109.4249
271.3991, 108.8551
271.8812, 108.2148
272.3633, 107.5442
272.8455, 106.8233
273.3276, 106.1581
273.8097, 105.5248
274.2918, 104.6564
274.7739, 103.0516
275.2560, 100.1015
275.7382, 97.71268
276.2202, 96.36701
276.7024, 95.09790
277.1845, 93.20412
277.6666, 90.63913
278.1487, 87.92834
278.6308, 85.76513
279.1129, 84.49675
279.5951, 82.56067
280.0772, 79.12946
280.5593, 75.85261
281.0414, 73.79973
281.5235, 72.83202
282.0056, 71.97522
282.4878, 70.23992
282.9699, 67.40492
283.4520, 65.24297
283.9341, 64.42290
284.4162, 63.51700
284.8983, 61.68113
285.3805, 59.22638
285.8626, 57.09314
286.3447, 56.05019
286.8268, 56.07861
287.3089, 55.78326
287.7910, 54.81694
288.2732, 53.92865
288.7553, 53.54401
289.2374, 53.38382
289.7195, 52.80312
290.2016, 51.34530
290.6837, 49.29530
291.1659, 48.24940
291.6480, 49.32356
292.1301, 50.09591
292.6122, 49.91577
293.0943, 49.26384
293.5764, 48.88037
294.0586, 49.11328
294.5407, 49.67616
295.0228, 49.79279
295.5049, 48.95721
295.9870, 48.27221
296.4691, 47.81388
296.9513, 47.50829
297.4334, 47.27419
297.9155, 47.08685
298.3976, 46.98195
298.8797, 47.03081
299.3618, 47.38721
299.8440, 47.60981
300.3261, 47.54411
300.8082, 47.44244
301.2903, 47.52768
301.7724, 47.83271
302.2545, 48.21281
302.7367, 48.49293
303.2188, 48.61781
303.7009, 48.86549
304.1830, 49.30372
304.6651, 49.79700
305.1472, 50.26733
305.6294, 50.71053
306.1115, 51.16861
306.5936, 51.69135
307.0757, 52.28948
307.5578, 52.73101
308.0399, 52.64345
308.5221, 52.79059
309.0042, 53.70232
309.4863, 55.14556
309.9684, 56.47849
310.4505, 57.27777
310.9326, 57.62586
311.4148, 58.06405
311.8969, 58.41259
312.3790, 59.03909
312.8611, 60.23405
313.3432, 61.72844
313.8253, 63.13119
314.3075, 64.26639
314.7896, 65.16438
315.2717, 65.89562
315.7538, 66.36974
316.2359, 66.80854
316.7180, 67.02626
317.2001, 67.30574
317.6823, 67.96680
318.1644, 69.10304
318.6465, 70.56313
319.1286, 72.13146
319.6107, 73.79060
320.0928, 75.62328
320.5750, 77.96793
321.0571, 80.25619
321.5392, 82.01589
322.0213, 83.21316
322.5034, 84.15154
322.9855, 85.04737
323.4677, 85.83547
323.9498, 87.27932
324.4319, 90.10857
324.9140, 92.81668
325.3961, 94.56612
325.8782, 95.51981
326.3604, 96.41089
326.8425, 97.80642
327.3246, 99.59724
327.8067, 100.5302
328.2888, 100.2589
328.7709, 99.66722
329.2531, 98.84725
329.7352, 97.87530
330.2173, 96.92513
330.6994, 96.09881
331.1815, 95.18682
331.6636, 93.59931
332.1458, 90.63760
332.6279, 87.83027
333.1100, 85.34868
333.5921, 82.99368
334.0742, 80.54453
334.5563, 77.96130
335.0385, 75.33878
335.5206, 72.83827
336.0027, 70.49305
336.4848, 68.17962
336.9669, 65.70872
337.4490, 63.38893
337.9312, 61.39624
338.4133, 59.74136
338.8954, 58.40656
339.3775, 57.43633
339.8596, 56.89415
340.3417, 55.87581
340.8239, 53.77295
341.3060, 51.89149
341.7881, 50.73761
342.2702, 50.15596
342.7523, 49.83166
343.2344, 49.59966
343.7166, 49.39770
344.1987, 48.92271
344.6808, 47.70094
345.1629, 46.73967
345.6450, 46.34468
346.1271, 46.17374
346.6093, 45.85760
347.0914, 45.26135
347.5735, 44.47888
348.0556, 43.66410
348.5377, 42.57661
349.0198, 41.92186
349.5020, 42.07962
349.9841, 42.32492
350.4662, 42.04376
350.9483, 41.25171
351.4304, 40.51134
351.9125, 40.48742
352.3947, 41.33257
352.8768, 41.87312
353.3589, 42.24883
353.8410, 42.18812
354.3231, 41.14600
354.8052, 39.59208
355.2874, 38.50737
355.7695, 38.64153
356.2516, 39.71200
356.7337, 40.07635
357.2158, 39.00061
357.6979, 38.19194
358.1800, 38.15797
358.6621, 38.44640
359.1443, 38.60627
359.6264, 38.46336
360.1085, 38.04696
360.5906, 37.26064
361.0727, 35.65406
361.5548, 34.88906
362.0370, 36.09479
362.5191, 37.40821
363.0012, 37.49682
363.4833, 36.35646
363.9654, 35.09380
364.4475, 34.99211
364.9297, 36.16123
365.4118, 36.61897
365.8939, 35.71561
366.3760, 34.77271
366.8581, 34.25349
367.3402, 34.09575
367.8224, 34.15803
368.3045, 34.47088
368.7866, 34.85542
369.2687, 34.61847
369.7508, 33.18660
370.2329, 32.43568
370.7151, 33.74070
371.1972, 35.62667
371.6793, 36.68653
372.1614, 36.48938
372.6435, 35.56716
373.1256, 34.20780
373.6078, 32.31869
374.0899, 31.38492
374.5720, 32.46562
375.0541, 33.97845
375.5362, 34.85632
376.0183, 35.07927
376.5005, 34.95369
376.9826, 34.36707
377.4647, 33.54868
377.9468, 33.50564
378.4289, 34.73999
378.9110, 35.76173
379.3932, 35.11897
379.8753, 33.59060
380.3574, 32.70069
380.8395, 33.44396
381.3216, 34.55127
381.8037, 34.27686
382.2859, 32.58845
382.7680, 31.08892
383.2501, 30.43105
383.7322, 30.43130
384.2143, 30.73590
384.6964, 31.41509
385.1786, 32.12326
385.6607, 32.72322
386.1428, 33.19866
386.6249, 33.51495
387.1070, 33.66925
387.5891, 33.64175
388.0713, 33.22218
388.5534, 32.45648
389.0355, 32.07987
389.5176, 32.70428
389.9997, 33.49698
390.4818, 33.56949
390.9640, 32.90296
391.4461, 32.07697
391.9282, 31.42575
392.4103, 30.95074
392.8924, 30.59676
393.3745, 30.39143
393.8567, 30.26346
394.3388, 30.09372
394.8209, 29.99198
395.3030, 30.27949
395.7851, 31.12752
396.2672, 32.10505
396.7494, 32.41590
397.2315, 31.66110
397.7136, 31.17408
398.1957, 31.40146
398.6778, 31.65210
399.1599, 31.14306
399.6420, 29.92857
400.1241, 28.87924
400.6063, 28.82347
401.0884, 29.80179
401.5705, 30.38623
402.0526, 30.36205
402.5347, 30.24558
403.0168, 30.15370
403.4990, 30.08183
403.9811, 29.99815
404.4632, 29.88734
404.9453, 29.76916
405.4274, 29.70729
405.9095, 29.87375
406.3917, 29.79075
406.8738, 29.08305
407.3559, 28.40891
407.8380, 28.29136
408.3201, 28.75026
408.8022, 29.40335
409.2844, 29.90378
409.7665, 30.24632
410.2486, 30.47027
410.7307, 30.42953
411.2128, 30.42383
411.6949, 30.66165
412.1771, 30.96788
412.6592, 31.03510
413.1413, 30.68301
413.6234, 30.10886
414.1055, 29.69855
414.5876, 29.42070
415.0698, 29.40378
415.5519, 30.07765
416.0340, 30.75591
416.5161, 30.93973
416.9982, 30.58142
417.4803, 30.02068
417.9625, 29.39750
418.4446, 28.76393
418.9267, 28.50196
419.4088, 28.78950
419.8909, 29.18405
420.3730, 29.43062
420.8552, 29.56884
421.3373, 29.67489
421.8194, 29.82995
422.3015, 29.90696
422.7836, 29.63131
423.2657, 29.01095
423.7479, 28.64211
424.2300, 28.86825
424.7121, 29.38619
425.1942, 29.72540
425.6763, 29.87654
426.1584, 29.91128
426.6406, 29.78337
427.1227, 29.58058
427.6048, 29.43497
428.0869, 29.36474
428.5690, 29.39623
429.0511, 29.61620
429.5333, 30.01395
430.0154, 30.16773
430.4975, 29.82743
430.9796, 29.47696
431.4617, 29.47474
431.9438, 29.68469
432.4260, 29.68599
432.9081, 29.24535
433.3902, 28.62471
433.8723, 28.46409
434.3544, 29.27939
434.8365, 29.70090
435.3187, 29.27822
435.8008, 28.71493
436.2829, 28.64184
436.7650, 29.08916
437.2471, 29.64971
437.7292, 29.96395
438.2114, 30.03143
438.6935, 29.90708
439.1756, 29.14809
439.6577, 28.69134
440.1398, 29.03850
440.6219, 29.72405
441.1040, 30.07393
441.5862, 29.80519
442.0683, 29.27069
442.5504, 29.13766
443.0325, 29.56576
443.5146, 29.90504
443.9967, 30.06599
444.4789, 30.15311
444.9610, 30.23672
445.4431, 30.29812
445.9252, 30.25178
446.4073, 29.99747
446.8894, 29.59202
447.3716, 29.23795
447.8537, 28.91136
448.3358, 28.69803
448.8179, 28.68474
449.3000, 28.78214
449.7821, 28.91499
450.2643, 29.07586
450.7464, 29.23300
451.2285, 29.37966
451.7106, 29.50579
452.1927, 29.55576
452.6748, 29.51611
453.1570, 29.40246
453.6391, 29.15381
454.1212, 28.81262
454.6033, 28.60876
455.0854, 28.75950
455.5675, 28.94950
456.0497, 28.81023
456.5318, 28.40528
457.0139, 28.16220
457.4960, 28.33506
457.9781, 28.76490
458.4602, 29.02736
458.9424, 29.10657
459.4245, 29.09202
459.9066, 28.98982
460.3887, 28.80562
460.8708, 28.43843
461.3529, 27.92508
461.8351, 27.58665
462.3172, 27.77380
462.7993, 28.51202
463.2814, 28.93784
463.7635, 28.75253
464.2456, 28.62068
464.7278, 28.77932
465.2099, 29.06803
465.6920, 29.25599
466.1741, 29.25472
466.6562, 29.14348
467.1383, 29.03050
467.6205, 28.86863
468.1026, 28.85196
468.5847, 29.27838
469.0668, 29.58800
469.5489, 29.41037
470.0310, 28.88950
470.5132, 28.44662
470.9953, 28.35534
471.4774, 28.49928
471.9595, 28.59498
472.4416, 28.64126
472.9237, 28.64574
473.4059, 28.66348
473.8880, 28.60232
474.3701, 28.24483
474.8522, 27.54804
475.3343, 27.13040
475.8164, 27.72146
476.2986, 28.86003
476.7807, 29.30149
477.2628, 28.78915
477.7449, 28.23431
478.2270, 28.50193
478.7091, 29.30459
479.1913, 29.43209
479.6734, 28.13355
480.1555, 26.91705
480.6376, 26.60088
481.1197, 26.92540
481.6018, 27.42966
482.0839, 27.98389
482.5660, 28.43649
483.0482, 28.54239
483.5303, 28.14377
484.0124, 27.97098
484.4945, 28.01263
484.9766, 28.27361
485.4587, 29.08854
485.9409, 30.12270
486.4230, 30.53308
486.9051, 29.80176
487.3872, 28.43162
487.8693, 27.94247
488.3514, 29.07824
488.8336, 29.69307
489.3157, 29.14736
489.7978, 28.49573
490.2799, 28.59258
490.7620, 29.34222
491.2441, 29.92994
491.7263, 29.57055
492.2084, 28.51567
492.6905, 28.02175
493.1726, 28.29473
493.6547, 28.63626
494.1368, 28.89584
494.6190, 29.01270
495.1011, 28.83794
495.5832, 28.30387
496.0653, 27.81568
496.5474, 27.73229
497.0295, 27.94138
497.5117, 28.14657
497.9938, 28.33866
498.4759, 28.37172
498.9580, 27.97158
499.4401, 27.26898
499.9222, 26.95973
500.4044, 27.39248
500.8865, 27.90901
501.3686, 28.19083
501.8507, 28.30931
502.3328, 28.46150
502.8149, 28.72044
503.2971, 28.88032
503.7792, 28.60434
504.2613, 27.66308
504.7434, 27.11821
505.2255, 27.08487
505.7076, 27.28607
506.1898, 27.83947
506.6719, 28.49866
507.1540, 28.74217
507.6361, 28.27430
508.1182, 27.48437
508.6003, 27.33846
509.0825, 28.18362
509.5646, 28.74081
510.0467, 28.62997
510.5288, 28.42005
511.0109, 28.40260
511.4930, 28.56328
511.9752, 28.75840
512.4573, 28.98024
512.9394, 29.12469
513.4215, 28.86475
513.9036, 28.11430
514.3857, 27.51331
514.8679, 27.47532
515.3500, 27.58058
515.8321, 27.13496
516.3142, 26.01322
516.7963, 25.38052
517.2784, 26.23016
517.7606, 27.63324
518.2427, 28.26475
518.7248, 28.02744
519.2069, 27.56782
519.6890, 27.28384
520.1711, 27.13566
520.6533, 26.93445
521.1354, 26.55078
521.6175, 26.29156
522.0996, 26.21128
522.5817, 26.27663
523.0638, 26.48713
523.5460, 26.82382
524.0281, 27.24615
524.5102, 27.77232
524.9923, 28.38574
525.4744, 28.44608
525.9565, 27.13424
526.4387, 26.34962
526.9208, 26.82573
527.4029, 27.80413
527.8850, 28.53957
528.3671, 28.83392
528.8492, 28.87565
529.3314, 28.77387
529.8135, 28.55261
530.2956, 28.47470
530.7777, 28.64480
531.2598, 28.77159
531.7419, 28.59415
532.2241, 28.27063
532.7062, 28.04183
533.1883, 27.94010
533.6704, 27.96344
534.1525, 28.22247
534.6346, 28.59468
535.1168, 28.71637
535.5989, 28.47646
536.0810, 28.31878
536.5631, 28.81277
537.0452, 30.00092
537.5273, 30.42793
538.0095, 29.46762
538.4916, 28.51987
538.9737, 28.05738
539.4558, 27.94548
539.9379, 27.99902
540.4200, 28.14250
540.9022, 28.31193
541.3843, 28.43735
541.8664, 28.54155
542.3485, 28.46928
542.8306, 27.96173
543.3127, 27.55772
543.7948, 27.47318
544.2769, 27.58738
544.7590, 27.71127
545.2411, 27.77411
545.7233, 27.84140
546.2054, 28.10107
546.6875, 28.51873
547.1696, 28.48103
547.6517, 27.62080
548.1339, 26.81284
548.6160, 27.04528
549.0981, 27.94786
549.5802, 28.47741
550.0623, 28.03689
550.5444, 27.60160
551.0266, 27.97729
551.5087, 28.81745
551.9908, 29.29704
552.4729, 29.15938
552.9550, 28.76659
553.4371, 28.54825
553.9193, 28.52321
554.4014, 28.57149
554.8835, 28.71043
555.3656, 28.89186
555.8477, 29.23202
556.3298, 29.56104
556.8120, 29.55057
557.2941, 29.09940
557.7762, 28.58219
558.2583, 28.59412
558.7404, 29.22153
559.2225, 29.64664
559.7047, 29.72591
560.1868, 29.75085
560.6689, 29.94529
561.1510, 30.16417
561.6331, 30.11722
562.1152, 29.61920
562.5974, 29.11500
563.0795, 29.03505
563.5616, 29.29415
564.0437, 29.62068
564.5258, 29.99142
565.0079, 30.29110
565.4901, 30.43375
565.9722, 30.40420
566.4543, 30.19919
566.9364, 29.33919
567.4185, 28.85049
567.9006, 29.57377
568.3828, 30.73464
568.8649, 31.13860
569.3470, 30.52192
569.8291, 29.63759
570.3112, 29.35316
570.7933, 29.70040
571.2755, 30.06224
571.7576, 30.47209
572.2397, 30.85514
572.7218, 31.26664
573.2039, 31.60864
573.6860, 31.73111
574.1682, 31.60370
574.6503, 31.44141
575.1324, 31.38087
575.6145, 31.44499
576.0966, 31.85031
576.5787, 32.76043
577.0609, 33.40445
577.5430, 33.14060
578.0251, 32.32194
578.5072, 31.83792
578.9893, 31.84821
579.4714, 31.87193
579.9536, 31.53289
580.4357, 31.20778
580.9178, 31.50449
581.3999, 32.40569
581.8820, 33.26587
582.3641, 33.60096
582.8463, 33.46969
583.3284, 33.20632
583.8105, 32.48838
584.2926, 32.11841
584.7747, 32.30864
585.2568, 32.73167
585.7390, 33.27944
586.2211, 33.84746
586.7032, 34.18128
587.1853, 33.98679
587.6674, 33.51030
588.1495, 33.52259
588.6317, 34.14680
589.1138, 34.46853
589.5959, 33.96912
590.0780, 33.25012
590.5601, 33.13467
591.0422, 33.60936
591.5244, 33.76358
592.0065, 32.84489
592.4886, 31.86002
592.9707, 31.88019
593.4528, 32.66255
593.9349, 33.24534
594.4171, 33.18696
594.8992, 32.86398
595.3813, 32.95695
595.8634, 33.69439
596.3455, 34.17218
596.8276, 34.40858
597.3098, 34.40767
597.7919, 34.02152
598.2740, 33.43769
598.7561, 32.89545
599.2382, 32.48230
599.7203, 32.31504
600.2025, 32.78786
600.6846, 33.86801
601.1667, 34.16248
601.6488, 33.17936
602.1309, 32.11087
602.6130, 31.90319
603.0952, 32.17611
603.5773, 32.15361
604.0594, 31.51147
604.5415, 30.99189
605.0236, 31.06749
605.5057, 31.46899
605.9879, 31.82673
606.4700, 32.06692
606.9521, 32.18718
607.4342, 32.14285
607.9163, 31.98942
608.3984, 32.17171
608.8806, 33.47786
609.3627, 34.00515
609.8448, 32.97509
610.3269, 31.59673
610.8090, 30.69286
611.2911, 30.36272
611.7733, 30.41341
612.2554, 30.88583
612.7375, 31.49195
613.2196, 31.44482
613.7017, 30.66208
614.1838, 30.05533
614.6660, 29.72232
615.1481, 29.89130
615.6302, 31.41788
616.1123, 34.16853
616.5944, 35.37346
617.0765, 33.11155
617.5587, 30.41837
618.0408, 29.21977
618.5229, 29.17526
619.0050, 29.48632
619.4871, 29.86070
619.9692, 30.20936
620.4514, 30.44835
620.9335, 30.62033
621.4156, 30.34810
621.8977, 28.87472
622.3798, 27.85953
622.8619, 28.02345
623.3441, 28.71583
623.8262, 29.21050
624.3083, 29.33210
624.7904, 29.34450
625.2725, 29.46104
625.7546, 29.63979
626.2367, 29.74125
626.7188, 29.74753
627.2009, 29.84035
627.6830, 30.22953
628.1652, 30.67477
628.6473, 30.54807
629.1294, 29.65087
629.6115, 28.93950
630.0936, 28.62081
630.5757, 28.47344
631.0579, 28.39983
631.5400, 28.35629
632.0221, 28.24912
632.5042, 28.02574
632.9863, 27.82794
633.4684, 27.96539
633.9506, 28.53021
634.4327, 28.97642
634.9148, 29.22773
635.3969, 29.41254
635.8790, 29.64320
636.3611, 29.84542
636.8433, 29.86819
637.3254, 29.62598
637.8075, 29.35509
638.2896, 29.27901
638.7717, 29.28019
639.2538, 29.00163
639.7360, 28.41876
640.2181, 28.17939
640.7002, 28.86564
641.1823, 30.14500
641.6644, 30.66274
642.1465, 29.64786
642.6287, 28.90378
643.1108, 28.60836
643.5929, 28.45419
644.0750, 28.17454
644.5571, 27.85191
645.0392, 27.80639
645.5214, 28.27572
646.0035, 28.90796
646.4856, 29.08065
646.9677, 28.79562
647.4498, 28.44783
647.9319, 27.96136
648.4141, 27.73267
648.8962, 28.43541
649.3783, 29.71255
649.8604, 30.16689
650.3425, 28.98272
650.8246, 27.92497
651.3068, 27.72139
651.7889, 28.00744
652.2710, 28.51486
652.7531, 29.09973
653.2352, 29.41831
653.7173, 29.16244
654.1995, 28.49216
654.6816, 28.05279
655.1637, 27.82670
655.6458, 27.87883
656.1279, 28.66341
656.6100, 29.35847
657.0922, 29.33113
657.5743, 28.78255
