##NAMES=Paragonite
##RRUFFID=R050447
##IDEAL CHEMISTRY=NaAl_2_(Si_3_Al)O_10_(OH)_2_
##LOCALITY=Switzerland
##OWNER=RRUFF
##SOURCE=Marcus Origlieri
##DESCRIPTION=White massive
##STATUS=The identification of this mineral has been confirmed by X-ray diffraction and chemical analysis
##URL=rruff.info/R050447
##MEASURED CHEMISTRY=(Na_0.81_K_0.17_Ca_0.02_)Al_2.00_(Si_2.98_Al_0.02_)O_10_(OH)_2_
178.9000, 14326.27
179.3821, 14345.31
179.8642, 14370.08
180.3464, 14396.99
180.8285, 14417.74
181.3106, 14428.78
181.7927, 14453.13
182.2748, 14509.04
182.7569, 14579.70
183.2391, 14652.89
183.7212, 14726.52
184.2033, 14798.21
184.6854, 14863.01
185.1675, 14918.80
185.6496, 14977.50
186.1318, 15045.31
186.6139, 15117.23
187.0960, 15187.83
187.5781, 15253.37
188.0602, 15324.31
188.5423, 15421.89
189.0245, 15553.81
189.5066, 15674.41
189.9887, 15747.40
190.4708, 15810.89
190.9529, 15898.53
191.4350, 16021.70
191.9172, 16159.69
192.3993, 16286.18
192.8814, 16398.08
193.3635, 16511.79
193.8456, 16636.81
194.3277, 16764.72
194.8099, 16891.57
195.2920, 17017.72
195.7741, 17136.28
196.2562, 17239.23
196.7383, 17327.05
197.2204, 17399.23
197.7026, 17450.75
198.1847, 17488.36
198.6668, 17520.92
199.1489, 17552.82
199.6310, 17562.65
200.1131, 17519.72
200.5953, 17417.47
201.0774, 17299.59
201.5595, 17158.39
202.0416, 17016.23
202.5237, 16890.95
203.0058, 16785.98
203.4880, 16691.73
203.9701, 16597.11
204.4522, 16500.90
204.9343, 16410.49
205.4164, 16326.91
205.8985, 16251.08
206.3807, 16182.75
206.8628, 16121.49
207.3449, 16072.23
207.8270, 16036.04
208.3091, 16011.35
208.7912, 16016.27
209.2734, 16084.49
209.7555, 16163.81
210.2376, 16223.62
210.7197, 16260.00
211.2018, 16276.64
211.6839, 16262.84
212.1660, 16216.34
212.6482, 16203.12
213.1303, 16263.03
213.6124, 16338.10
214.0945, 16396.19
214.5766, 16434.05
215.0587, 16452.90
215.5409, 16446.67
216.0230, 16416.27
216.5051, 16389.47
216.9872, 16369.05
217.4693, 16355.32
217.9514, 16352.48
218.4336, 16358.86
218.9157, 16360.84
219.3978, 16344.56
219.8799, 16312.39
220.3620, 16287.34
220.8441, 16277.73
221.3263, 16268.32
221.8084, 16245.57
222.2905, 16212.26
222.7726, 16183.59
223.2547, 16169.74
223.7368, 16168.64
224.2190, 16171.83
224.7011, 16185.92
225.1832, 16192.39
225.6653, 16178.81
226.1474, 16148.53
226.6295, 16111.77
227.1117, 16058.74
227.5938, 16002.62
228.0759, 15989.42
228.5580, 16040.32
229.0401, 16095.08
229.5222, 16108.52
230.0044, 16095.91
230.4865, 16090.76
230.9686, 16109.31
231.4507, 16144.43
231.9328, 16186.17
232.4149, 16240.20
232.8971, 16284.12
233.3792, 16294.16
233.8613, 16285.66
234.3434, 16283.37
234.8255, 16295.77
235.3076, 16318.00
235.7898, 16348.48
236.2719, 16390.61
236.7540, 16421.31
237.2361, 16415.38
237.7182, 16391.94
238.2003, 16381.34
238.6825, 16392.42
239.1646, 16415.33
239.6467, 16443.75
240.1288, 16478.07
240.6109, 16508.30
241.0930, 16529.13
241.5752, 16543.10
242.0573, 16554.44
242.5394, 16560.09
243.0215, 16569.17
243.5036, 16591.20
243.9857, 16624.65
244.4679, 16656.97
244.9500, 16682.17
245.4321, 16704.50
245.9142, 16730.01
246.3963, 16756.11
246.8784, 16791.13
247.3606, 16841.60
247.8427, 16904.54
248.3248, 16971.26
248.8069, 17036.76
249.2890, 17107.82
249.7711, 17198.06
250.2533, 17308.79
250.7354, 17422.59
251.2175, 17525.66
251.6996, 17627.73
252.1817, 17747.27
252.6638, 17888.84
253.1460, 18046.57
253.6281, 18214.35
254.1102, 18390.02
254.5923, 18581.78
255.0744, 18802.53
255.5565, 19036.05
256.0387, 19257.29
256.5208, 19460.82
257.0029, 19674.50
257.4850, 19933.65
257.9671, 20248.16
258.4492, 20534.10
258.9314, 20764.57
259.4135, 20981.86
259.8956, 21224.06
260.3777, 21491.67
260.8598, 21755.03
261.3419, 21994.28
261.8241, 22206.46
262.3062, 22404.01
262.7883, 22595.61
263.2704, 22765.36
263.7525, 22927.77
264.2346, 23066.47
264.7168, 23131.61
265.1989, 23082.30
265.6810, 22933.84
266.1631, 22821.05
266.6452, 22782.17
267.1273, 22729.82
267.6095, 22644.35
268.0916, 22529.91
268.5737, 22393.12
269.0558, 22236.96
269.5379, 22063.56
270.0201, 21883.63
270.5022, 21691.38
270.9843, 21497.55
271.4664, 21306.81
271.9485, 21112.63
272.4306, 20902.48
272.9128, 20674.13
273.3949, 20442.38
273.8770, 20237.36
274.3591, 20076.88
274.8412, 19910.87
275.3233, 19725.87
275.8055, 19544.74
276.2876, 19389.44
276.7697, 19259.22
277.2518, 19131.84
277.7339, 18974.49
278.2160, 18771.97
278.6982, 18604.61
279.1803, 18494.33
279.6624, 18398.89
280.1445, 18306.31
280.6266, 18213.59
281.1087, 18118.30
281.5909, 18015.27
282.0730, 17905.33
282.5551, 17814.43
283.0372, 17761.89
283.5193, 17705.06
284.0014, 17621.06
284.4836, 17524.63
284.9657, 17442.29
285.4478, 17392.07
285.9299, 17362.71
286.4120, 17323.28
286.8941, 17270.50
287.3763, 17215.35
287.8584, 17162.95
288.3405, 17110.40
288.8226, 17054.81
289.3047, 16995.75
289.7868, 16932.89
290.2690, 16857.93
290.7511, 16766.92
291.2332, 16701.94
291.7153, 16694.29
292.1974, 16707.24
292.6795, 16708.77
293.1617, 16695.37
293.6438, 16675.80
294.1259, 16656.37
294.6080, 16636.33
295.0901, 16608.51
295.5722, 16561.13
296.0544, 16521.49
296.5365, 16521.58
297.0186, 16558.08
297.5007, 16594.78
297.9828, 16621.10
298.4649, 16637.44
298.9471, 16640.33
299.4292, 16626.90
299.9113, 16616.17
300.3934, 16629.39
300.8755, 16662.33
301.3576, 16682.54
301.8398, 16674.94
302.3219, 16662.22
302.8040, 16663.24
303.2861, 16676.81
303.7682, 16690.90
304.2503, 16699.02
304.7325, 16701.60
305.2146, 16701.50
305.6967, 16698.30
306.1788, 16693.58
306.6609, 16687.48
307.1430, 16680.32
307.6252, 16673.74
308.1073, 16668.90
308.5894, 16662.29
309.0715, 16646.39
309.5536, 16618.10
310.0357, 16583.87
310.5179, 16533.47
311.0000, 16483.03
311.4821, 16447.46
311.9642, 16429.50
312.4463, 16422.66
312.9284, 16421.02
313.4106, 16430.15
313.8927, 16423.81
314.3748, 16382.18
314.8569, 16345.87
315.3390, 16341.44
315.8211, 16361.19
316.3033, 16377.57
316.7854, 16367.73
317.2675, 16334.70
317.7496, 16315.21
318.2317, 16324.11
318.7138, 16328.72
319.1960, 16318.40
319.6781, 16299.72
320.1602, 16280.46
320.6423, 16263.25
321.1244, 16250.00
321.6065, 16243.40
322.0887, 16240.83
322.5708, 16252.42
323.0529, 16297.28
323.5350, 16347.03
324.0171, 16378.93
324.4992, 16388.67
324.9814, 16392.80
325.4635, 16408.10
325.9456, 16433.30
326.4277, 16451.13
326.9098, 16458.12
327.3919, 16457.80
327.8741, 16452.34
328.3562, 16442.50
328.8383, 16432.22
329.3204, 16425.00
329.8025, 16417.99
330.2846, 16405.20
330.7668, 16385.75
331.2489, 16366.36
331.7310, 16350.44
332.2131, 16338.86
332.6952, 16333.11
333.1773, 16347.10
333.6595, 16354.92
334.1415, 16337.66
334.6237, 16299.94
335.1058, 16254.52
335.5879, 16202.98
336.0700, 16154.38
336.5521, 16136.25
337.0342, 16172.12
337.5164, 16192.20
337.9985, 16172.72
338.4806, 16136.86
338.9627, 16107.28
339.4448, 16090.25
339.9269, 16084.81
340.4091, 16091.13
340.8912, 16113.88
341.3733, 16131.15
341.8554, 16135.09
342.3375, 16141.12
342.8196, 16161.57
343.3018, 16191.47
343.7839, 16216.45
344.2660, 16226.03
344.7481, 16221.30
345.2302, 16211.09
345.7123, 16184.31
346.1945, 16167.01
346.6766, 16167.43
347.1587, 16177.96
347.6408, 16189.71
348.1229, 16199.37
348.6050, 16209.90
349.0872, 16225.69
349.5693, 16246.96
350.0514, 16273.29
350.5335, 16320.51
351.0156, 16360.25
351.4977, 16368.98
351.9799, 16348.00
352.4620, 16324.74
352.9441, 16319.88
353.4262, 16328.46
353.9083, 16331.26
354.3904, 16323.97
354.8726, 16318.65
355.3547, 16335.26
355.8368, 16361.38
356.3189, 16366.12
356.8010, 16322.37
357.2831, 16270.13
357.7653, 16243.83
358.2474, 16241.54
358.7295, 16251.31
359.2116, 16272.55
359.6937, 16297.64
360.1758, 16305.63
360.6580, 16288.66
361.1401, 16273.73
361.6222, 16267.18
362.1043, 16266.86
362.5864, 16269.60
363.0685, 16274.74
363.5507, 16284.29
364.0328, 16299.96
364.5149, 16320.63
364.9970, 16354.14
365.4791, 16427.37
365.9612, 16486.71
366.4434, 16493.81
366.9255, 16463.79
367.4076, 16436.54
367.8897, 16437.43
368.3718, 16462.62
368.8539, 16495.46
369.3361, 16545.63
369.8182, 16587.97
370.3003, 16616.49
370.7824, 16636.85
371.2645, 16646.83
371.7466, 16646.71
372.2288, 16659.13
372.7109, 16726.82
373.1930, 16855.34
373.6751, 16940.03
374.1572, 16936.71
374.6393, 16921.12
375.1215, 16948.44
375.6036, 17008.62
376.0857, 17059.00
376.5678, 17067.81
377.0499, 17057.15
377.5320, 17069.32
378.0142, 17107.59
378.4963, 17140.27
378.9784, 17145.24
379.4605, 17132.80
379.9426, 17132.68
380.4247, 17151.58
380.9069, 17173.11
381.3890, 17198.51
381.8711, 17220.08
382.3532, 17218.67
382.8353, 17187.07
383.3174, 17143.52
383.7996, 17111.78
384.2817, 17091.89
384.7638, 17088.44
385.2459, 17110.82
385.7280, 17141.60
386.2101, 17173.16
386.6923, 17203.57
387.1744, 17231.25
387.6565, 17255.15
388.1386, 17275.26
388.6207, 17291.98
389.1028, 17308.73
389.5850, 17316.28
390.0671, 17293.78
390.5492, 17271.24
391.0313, 17282.74
391.5134, 17337.75
391.9955, 17410.79
392.4777, 17473.34
392.9598, 17525.48
393.4419, 17566.94
393.9240, 17602.03
394.4061, 17619.58
394.8882, 17599.61
395.3704, 17554.26
395.8525, 17526.84
396.3346, 17544.99
396.8167, 17590.14
397.2988, 17639.26
397.7809, 17693.00
398.2631, 17735.67
398.7452, 17760.94
399.2273, 17767.62
399.7094, 17753.05
400.1915, 17694.43
400.6736, 17660.02
401.1558, 17694.18
401.6379, 17763.24
402.1200, 17821.58
402.6021, 17858.51
403.0842, 17870.84
403.5663, 17850.41
404.0485, 17786.53
404.5306, 17747.54
405.0127, 17759.83
405.4948, 17767.64
405.9769, 17736.42
406.4590, 17682.32
406.9412, 17644.15
407.4233, 17645.08
407.9054, 17666.97
408.3875, 17655.00
408.8696, 17585.44
409.3517, 17531.88
409.8339, 17528.42
410.3160, 17525.97
410.7981, 17477.33
411.2802, 17382.88
411.7623, 17299.41
412.2444, 17289.45
412.7266, 17335.13
413.2087, 17344.85
413.6908, 17303.88
414.1729, 17252.65
414.6550, 17217.82
415.1371, 17190.46
415.6193, 17152.67
416.1014, 17091.14
416.5835, 17031.59
417.0656, 16998.92
417.5477, 16984.70
418.0298, 16961.64
418.5120, 16919.36
418.9941, 16868.58
419.4762, 16825.01
419.9583, 16790.76
420.4404, 16758.52
420.9225, 16735.86
421.4047, 16708.91
421.8868, 16660.05
422.3689, 16596.29
422.8510, 16542.90
423.3331, 16518.40
423.8152, 16517.56
424.2974, 16514.59
424.7795, 16513.01
425.2616, 16503.27
425.7437, 16473.55
426.2258, 16442.20
426.7079, 16430.63
427.1901, 16441.57
427.6722, 16450.48
428.1543, 16428.71
428.6364, 16378.98
429.1185, 16335.65
429.6006, 16300.67
430.0828, 16272.29
430.5649, 16252.45
431.0470, 16237.93
431.5291, 16221.50
432.0112, 16194.08
432.4933, 16172.61
432.9755, 16179.57
433.4576, 16206.97
433.9397, 16221.41
434.4218, 16208.96
434.9039, 16184.85
435.3860, 16175.48
435.8682, 16190.86
436.3503, 16188.41
436.8324, 16149.59
437.3145, 16105.11
437.7966, 16073.32
438.2787, 16055.71
438.7609, 16049.29
439.2430, 16052.69
439.7251, 16064.25
440.2072, 16077.57
440.6893, 16106.86
441.1714, 16113.33
441.6536, 16073.64
442.1357, 16023.11
442.6178, 15992.58
443.0999, 15986.50
443.5820, 15985.27
444.0641, 15965.33
444.5463, 15932.06
445.0284, 15925.98
445.5105, 15963.43
445.9926, 15992.86
446.4747, 15970.59
446.9568, 15918.61
447.4390, 15877.12
447.9211, 15858.25
448.4032, 15843.28
448.8853, 15817.95
449.3674, 15787.63
449.8495, 15763.98
450.3317, 15750.69
450.8138, 15746.55
451.2959, 15753.37
451.7780, 15779.26
452.2601, 15779.91
452.7422, 15726.91
453.2244, 15678.08
453.7065, 15666.09
454.1886, 15680.03
454.6707, 15695.13
455.1528, 15698.66
455.6349, 15692.19
456.1171, 15676.29
456.5992, 15642.25
457.0813, 15622.98
457.5634, 15640.63
458.0455, 15660.66
458.5276, 15661.37
459.0098, 15644.02
459.4919, 15625.08
459.9740, 15610.05
460.4561, 15601.27
460.9382, 15608.03
461.4203, 15631.83
461.9025, 15649.23
462.3846, 15647.34
462.8667, 15632.54
463.3488, 15618.55
463.8309, 15599.60
464.3130, 15594.96
464.7952, 15623.95
465.2773, 15662.68
465.7594, 15687.20
466.2415, 15693.39
466.7236, 15683.30
467.2057, 15654.63
467.6879, 15609.45
468.1700, 15592.27
468.6521, 15640.54
469.1342, 15672.16
469.6163, 15665.89
470.0984, 15641.04
470.5806, 15611.29
471.0627, 15581.93
471.5448, 15565.91
472.0269, 15591.28
472.5090, 15652.01
472.9911, 15671.41
473.4733, 15626.16
473.9554, 15576.58
474.4375, 15571.45
474.9196, 15590.39
475.4017, 15592.56
475.8839, 15558.50
476.3660, 15522.97
476.8481, 15510.06
477.3302, 15512.25
477.8123, 15512.98
478.2944, 15507.59
478.7766, 15500.43
479.2587, 15496.26
479.7408, 15494.40
480.2229, 15500.35
480.7050, 15526.26
481.1871, 15546.24
481.6693, 15547.98
482.1514, 15537.23
482.6335, 15521.18
483.1156, 15502.59
483.5977, 15489.04
484.0798, 15495.01
484.5620, 15523.05
485.0441, 15554.09
485.5262, 15599.00
486.0083, 15630.09
486.4904, 15614.00
486.9725, 15566.94
487.4547, 15546.16
487.9368, 15602.19
488.4189, 15668.52
488.9010, 15668.04
489.3831, 15615.19
489.8652, 15578.02
490.3474, 15584.75
490.8295, 15608.39
491.3116, 15604.38
491.7937, 15553.65
492.2758, 15529.63
492.7579, 15561.25
493.2401, 15592.76
493.7222, 15591.05
494.2043, 15563.59
494.6864, 15532.56
495.1685, 15509.52
495.6506, 15492.98
496.1328, 15480.96
496.6149, 15476.05
497.0970, 15465.54
497.5791, 15439.18
498.0612, 15414.22
498.5433, 15408.97
499.0254, 15417.91
499.5075, 15412.93
499.9897, 15359.08
500.4718, 15298.76
500.9539, 15291.30
501.4360, 15329.48
501.9181, 15363.22
502.4002, 15372.25
502.8824, 15364.66
503.3645, 15353.86
503.8466, 15336.77
504.3287, 15324.70
504.8108, 15322.53
505.2929, 15321.59
505.7751, 15312.50
506.2572, 15299.96
506.7393, 15298.51
507.2214, 15318.42
507.7035, 15347.64
508.1856, 15355.30
508.6678, 15336.46
509.1499, 15313.58
509.6320, 15273.98
510.1141, 15246.52
510.5962, 15261.73
511.0783, 15311.16
511.5605, 15346.70
512.0426, 15340.11
512.5247, 15314.25
513.0068, 15287.48
513.4890, 15262.46
513.9711, 15254.42
514.4532, 15271.87
514.9353, 15303.08
515.4174, 15327.89
515.8995, 15345.96
516.3817, 15357.04
516.8638, 15370.23
517.3459, 15368.06
517.8280, 15329.10
518.3101, 15267.42
518.7922, 15212.54
519.2744, 15178.95
519.7565, 15164.88
520.2386, 15172.20
520.7207, 15206.06
521.2028, 15227.61
521.6849, 15220.29
522.1671, 15210.43
522.6492, 15224.98
523.1313, 15256.29
523.6134, 15270.63
524.0955, 15242.24
524.5776, 15205.81
525.0598, 15190.48
525.5419, 15191.22
526.0240, 15192.54
526.5061, 15189.15
526.9882, 15183.61
527.4703, 15179.28
527.9525, 15175.85
528.4346, 15175.60
528.9167, 15186.80
529.3988, 15192.39
529.8809, 15179.24
530.3630, 15158.03
530.8452, 15147.76
531.3273, 15156.80
531.8094, 15169.89
532.2915, 15159.70
532.7736, 15128.29
533.2557, 15126.75
533.7379, 15174.98
534.2200, 15224.59
534.7021, 15235.89
535.1842, 15217.94
535.6663, 15199.99
536.1484, 15174.84
536.6306, 15161.70
537.1127, 15177.26
537.5948, 15207.66
538.0769, 15235.01
538.5590, 15254.08
539.0411, 15262.80
539.5233, 15258.31
540.0054, 15240.61
540.4875, 15219.54
540.9696, 15191.23
541.4517, 15165.46
541.9338, 15147.94
542.4160, 15132.56
542.8981, 15107.30
543.3802, 15070.29
543.8623, 15047.61
544.3444, 15077.96
544.8265, 15133.72
545.3087, 15145.53
545.7908, 15107.36
546.2729, 15062.53
546.7550, 15032.30
547.2371, 15015.81
547.7192, 15012.05
548.2014, 15033.33
548.6835, 15044.41
549.1656, 15041.47
549.6477, 15026.71
550.1298, 14990.85
550.6119, 14942.87
551.0941, 14911.47
551.5762, 14919.60
552.0583, 14949.88
552.5404, 14950.05
553.0225, 14910.34
553.5046, 14887.53
553.9868, 14905.79
554.4689, 14934.33
554.9510, 14944.71
555.4331, 14939.35
555.9152, 14937.53
556.3973, 14952.31
556.8795, 14966.71
557.3616, 14965.58
557.8437, 14952.92
558.3258, 14942.09
558.8079, 14938.09
559.2900, 14928.90
559.7722, 14892.88
560.2543, 14817.96
560.7364, 14776.31
561.2185, 14797.82
561.7006, 14821.46
562.1827, 14827.78
562.6649, 14826.37
563.1470, 14833.28
563.6291, 14854.12
564.1112, 14873.66
564.5933, 14877.44
565.0754, 14868.55
565.5576, 14858.03
566.0397, 14847.86
566.5218, 14826.69
567.0039, 14779.92
567.4860, 14717.62
567.9681, 14685.19
568.4503, 14704.63
568.9324, 14718.45
569.4145, 14714.67
569.8966, 14706.03
570.3787, 14705.23
570.8608, 14710.75
571.3430, 14710.08
571.8251, 14692.04
572.3072, 14665.80
572.7893, 14660.47
573.2714, 14681.82
573.7535, 14688.12
574.2357, 14658.73
574.7178, 14622.25
575.1999, 14606.77
575.6820, 14610.36
576.1641, 14617.69
576.6462, 14619.54
577.1284, 14629.64
577.6105, 14673.48
578.0926, 14729.17
578.5747, 14749.78
579.0568, 14720.96
579.5389, 14670.64
580.0211, 14631.51
580.5032, 14603.20
580.9852, 14590.75
581.4673, 14599.45
581.9495, 14617.10
582.4316, 14655.08
582.9137, 14691.16
583.3958, 14693.25
583.8779, 14652.57
584.3600, 14615.26
584.8422, 14619.49
585.3243, 14641.32
585.8064, 14640.45
586.2885, 14616.31
586.7706, 14593.00
587.2527, 14584.39
587.7349, 14585.03
588.2170, 14580.25
588.6991, 14559.80
589.1812, 14553.53
589.6633, 14575.68
590.1454, 14597.07
590.6276, 14603.09
591.1097, 14596.12
591.5918, 14582.73
592.0739, 14564.08
592.5560, 14545.98
593.0381, 14532.31
593.5203, 14524.56
594.0024, 14537.01
594.4845, 14578.29
594.9666, 14608.01
595.4487, 14587.88
595.9308, 14524.22
596.4130, 14479.58
596.8951, 14441.00
597.3772, 14435.50
597.8593, 14511.64
598.3414, 14593.67
598.8235, 14599.82
599.3057, 14535.11
599.7878, 14474.35
600.2699, 14474.65
600.7520, 14515.44
601.2341, 14546.04
601.7162, 14565.82
602.1984, 14584.85
602.6805, 14610.88
603.1626, 14630.08
603.6447, 14620.48
604.1268, 14583.59
604.6089, 14557.17
605.0911, 14542.77
605.5732, 14541.90
606.0553, 14568.73
606.5374, 14604.33
607.0195, 14618.87
607.5016, 14605.72
607.9838, 14584.46
608.4659, 14573.58
608.9480, 14573.03
609.4301, 14584.91
609.9122, 14614.58
610.3943, 14641.15
610.8765, 14658.72
611.3586, 14667.46
611.8407, 14666.38
612.3228, 14654.53
612.8049, 14644.14
613.2870, 14635.63
613.7692, 14632.81
614.2513, 14643.11
614.7334, 14661.40
615.2155, 14675.45
615.6976, 14680.45
616.1797, 14679.74
616.6619, 14676.05
617.1440, 14667.97
617.6261, 14672.23
618.1082, 14700.68
618.5903, 14721.93
619.0724, 14715.56
619.5546, 14696.77
620.0367, 14683.00
620.5188, 14675.81
621.0009, 14676.26
621.4830, 14686.24
621.9651, 14703.01
622.4473, 14727.29
622.9294, 14756.15
623.4115, 14778.97
623.8936, 14789.78
624.3757, 14796.21
624.8578, 14815.55
625.3400, 14854.13
625.8221, 14881.59
626.3042, 14892.75
626.7863, 14898.38
627.2684, 14903.16
627.7505, 14906.43
628.2327, 14904.74
628.7148, 14893.24
629.1969, 14891.49
629.6790, 14928.52
630.1611, 14973.22
630.6432, 14971.07
631.1254, 14926.40
631.6075, 14896.95
632.0896, 14920.16
632.5717, 14970.27
633.0538, 14974.59
633.5359, 14904.82
634.0181, 14869.18
634.5002, 14899.35
634.9823, 14937.38
635.4644, 14958.85
635.9465, 14967.10
636.4286, 14970.07
636.9108, 14968.71
637.3929, 14964.87
637.8750, 15020.12
638.3571, 15038.79
638.8392, 15038.83
639.3214, 15021.24
639.8035, 14933.23
640.2856, 14936.16
640.7677, 14902.65
641.2498, 14867.64
641.7319, 14883.37
642.2141, 14805.61
642.6962, 14727.08
643.1783, 14723.28
643.6604, 14687.16
644.1425, 14631.82
644.6246, 14587.48
645.1068, 14562.44
645.5889, 14549.89
646.0710, 14562.78
646.5531, 14578.18
647.0352, 14552.42
647.5173, 14485.32
647.9995, 14414.32
648.4816, 14363.82
648.9637, 14332.74
649.4458, 14320.51
649.9279, 14339.44
650.4100, 14342.79
650.8922, 14314.28
651.3743, 14281.08
651.8564, 14254.86
652.3385, 14235.42
652.8206, 14222.36
653.3027, 14220.36
653.7849, 14214.46
654.2670, 14181.61
654.7491, 14145.76
655.2312, 14152.63
655.7133, 14198.68
656.1954, 14229.62
656.6776, 14206.91
657.1597, 14151.23
657.6418, 14124.40
658.1239, 14140.46
658.6060, 14133.02
659.0881, 14072.86
659.5703, 14015.74
660.0524, 14002.47
660.5345, 14015.63
661.0166, 14015.17
661.4987, 13986.95
661.9808, 13958.95
662.4630, 13948.64
662.9451, 13943.16
663.4272, 13922.57
663.9093, 13890.00
664.3914, 13866.84
664.8735, 13866.40
665.3557, 13880.94
665.8378, 13896.03
666.3199, 13913.36
666.8020, 13919.20
667.2841, 13909.99
667.7662, 13892.84
668.2484, 13856.57
668.7305, 13818.41
669.2126, 13820.31
669.6947, 13890.73
670.1768, 13944.24
670.6589, 13943.42
671.1411, 13922.12
671.6232, 13903.13
672.1053, 13891.20
672.5874, 13889.29
673.0695, 13899.24
673.5516, 13916.48
674.0338, 13939.23
674.5159, 13966.90
674.9980, 13968.45
675.4801, 13929.97
675.9622, 13903.24
