##NAMES=Paracoquimbite
##RRUFFID=R050351
##IDEAL CHEMISTRY=Fe^3+^_4_(S^6+^O_4_)_6_(H_2_O)_12_&#183;6H_2_O
##LOCALITY=Cyprus
##OWNER=RRUFF
##SOURCE=California Institute of Technology
##DESCRIPTION=Purple fragment
##STATUS=The identification of this mineral is confirmed by single-crystal X-ray diffraction and chemical analysis.
##URL=rruff.info/R050351
##MEASURED CHEMISTRY=(Fe^3+^_1.97_Al_0.03_)_Σ=2_(S_1.00_O_4_)_3_·9H_2_O
117.1114, 336.6617
117.5935, 334.8462
118.0756, 333.9793
118.5577, 334.1632
119.0398, 335.2197
119.5220, 336.6428
120.0041, 337.9579
120.4862, 339.8474
120.9683, 343.3466
121.4504, 348.6363
121.9325, 355.1145
122.4147, 362.4598
122.8968, 370.7019
123.3789, 379.4269
123.8610, 388.9132
124.3431, 398.6291
124.8252, 408.2045
125.3074, 417.7938
125.7895, 426.8517
126.2716, 434.3077
126.7537, 440.1100
127.2358, 443.9940
127.7179, 445.7203
128.2001, 445.9468
128.6822, 445.4241
129.1643, 444.4608
129.6464, 443.1390
130.1285, 442.5617
130.6106, 441.6750
131.0928, 442.6732
131.5749, 446.7253
132.0570, 453.2141
132.5391, 460.7328
133.0212, 467.9460
133.5033, 474.6212
133.9855, 483.1745
134.4676, 493.8179
134.9497, 505.7011
135.4318, 518.4184
135.9139, 531.8787
136.3960, 546.2306
136.8782, 561.5530
137.3603, 577.9569
137.8424, 595.5035
138.3245, 614.2570
138.8066, 634.0969
139.2887, 654.5907
139.7709, 675.4171
140.2530, 697.4388
140.7351, 722.1299
141.2172, 749.0135
141.6993, 776.8837
142.1814, 805.5541
142.6636, 834.6990
143.1457, 863.9849
143.6278, 895.9052
144.1099, 924.2233
144.5920, 947.0456
145.0741, 963.9609
145.5563, 971.3687
146.0384, 965.2324
146.5205, 944.8533
147.0026, 917.2408
147.4847, 876.3859
147.9668, 832.9173
148.4490, 791.0634
148.9311, 752.2262
149.4132, 716.7465
149.8953, 685.0760
150.3774, 656.2013
150.8595, 633.8966
151.3417, 619.2858
151.8238, 609.4214
152.3059, 602.7567
152.7880, 598.6107
153.2701, 596.1882
153.7522, 593.5621
154.2344, 589.7206
154.7165, 586.9087
155.1986, 585.1974
155.6807, 584.5425
156.1628, 584.8625
156.6449, 586.1107
157.1271, 588.3329
157.6092, 591.8854
158.0913, 597.0319
158.5734, 602.9052
159.0555, 609.0674
159.5376, 615.7352
160.0198, 623.7360
160.5019, 634.0822
160.9840, 645.7980
161.4661, 655.2353
161.9482, 661.0631
162.4303, 666.1573
162.9125, 672.5132
163.3946, 680.0663
163.8767, 687.2643
164.3588, 692.6807
164.8409, 697.2532
165.3230, 702.5797
165.8052, 708.8172
166.2873, 715.9915
166.7694, 724.5681
167.2515, 735.3026
167.7336, 744.9200
168.2157, 751.5539
168.6979, 756.3389
169.1800, 760.6353
169.6621, 765.5036
170.1442, 769.8926
170.6263, 770.7319
171.1084, 766.6310
171.5906, 760.7774
172.0727, 753.9580
172.5548, 746.4006
173.0369, 738.1478
173.5190, 728.9149
174.0011, 719.0438
174.4833, 711.4469
174.9654, 707.2209
175.4475, 704.4901
175.9296, 702.8363
176.4117, 702.4076
176.8938, 703.6076
177.3760, 706.8447
177.8581, 712.1666
178.3402, 717.7393
178.8223, 723.8784
179.3044, 729.9207
179.7865, 736.0535
180.2687, 741.9698
180.7508, 746.7667
181.2329, 749.4017
181.7150, 749.5863
182.1971, 751.7000
182.6792, 756.7394
183.1614, 762.5486
183.6435, 767.6368
184.1256, 772.0470
184.6077, 777.0147
185.0898, 783.0709
185.5719, 790.5519
186.0540, 802.2328
186.5362, 819.9598
187.0183, 840.8984
187.5004, 861.8892
187.9825, 882.5148
188.4646, 905.5327
188.9467, 934.9799
189.4289, 969.4369
189.9110, 1004.306
190.3931, 1038.342
190.8752, 1072.216
191.3573, 1107.547
191.8394, 1144.986
192.3216, 1182.410
192.8037, 1217.185
193.2858, 1250.436
193.7679, 1285.117
194.2500, 1324.059
194.7321, 1365.517
195.2143, 1404.530
195.6964, 1440.570
196.1785, 1474.294
196.6606, 1507.599
197.1427, 1539.542
197.6248, 1567.666
198.1070, 1590.145
198.5891, 1607.247
199.0712, 1621.426
199.5533, 1629.345
200.0354, 1637.892
200.5175, 1647.527
200.9997, 1659.567
201.4818, 1676.267
201.9639, 1699.141
202.4460, 1728.155
202.9281, 1763.161
203.4102, 1800.821
203.8924, 1848.121
204.3745, 1908.827
204.8566, 1981.696
205.3387, 2062.188
205.8208, 2146.683
206.3029, 2235.592
206.7851, 2328.438
207.2672, 2433.072
207.7493, 2534.146
208.2314, 2631.034
208.7135, 2719.614
209.1956, 2792.118
209.6778, 2842.392
210.1599, 2870.462
210.6420, 2866.739
211.1241, 2831.097
211.6062, 2771.390
212.0883, 2685.078
212.5705, 2576.054
213.0526, 2455.458
213.5347, 2330.582
214.0168, 2200.635
214.4989, 2079.632
214.9810, 1965.929
215.4632, 1861.054
215.9453, 1766.035
216.4274, 1680.759
216.9095, 1604.868
217.3916, 1538.467
217.8737, 1482.530
218.3559, 1434.157
218.8380, 1395.234
219.3201, 1362.184
219.8022, 1332.360
220.2843, 1305.560
220.7664, 1281.511
221.2486, 1260.776
221.7307, 1242.811
222.2128, 1225.924
222.6949, 1210.139
223.1770, 1195.158
223.6591, 1181.063
224.1413, 1168.001
224.6234, 1154.687
225.1055, 1140.342
225.5876, 1125.112
226.0697, 1109.081
226.5518, 1092.101
227.0340, 1074.478
227.5161, 1056.598
227.9982, 1038.367
228.4803, 1020.170
228.9624, 1002.183
229.4445, 984.4845
229.9267, 966.9424
230.4088, 949.4933
230.8909, 932.3807
231.3730, 916.2035
231.8551, 900.9758
232.3372, 886.8018
232.8194, 873.1133
233.3015, 860.4455
233.7836, 849.5745
234.2657, 841.0233
234.7478, 834.1286
235.2299, 827.2584
235.7121, 819.6006
236.1942, 813.7140
236.6763, 810.7535
237.1584, 809.4520
237.6405, 808.4508
238.1227, 807.1210
238.6048, 805.9341
239.0869, 806.1368
239.5690, 808.3233
240.0511, 810.9948
240.5332, 813.9939
241.0154, 817.1786
241.4975, 820.0288
241.9796, 822.2883
242.4617, 824.8792
242.9438, 830.3165
243.4259, 841.4503
243.9081, 851.0436
244.3902, 856.8395
244.8723, 861.5562
245.3544, 867.5203
245.8365, 875.6963
246.3186, 885.7538
246.8007, 897.1994
247.2829, 911.9138
247.7650, 925.2108
248.2471, 935.5938
248.7292, 945.2155
249.2113, 955.9720
249.6934, 968.5247
250.1756, 982.3400
250.6577, 996.3915
251.1398, 1009.954
251.6219, 1024.855
252.1040, 1041.824
252.5861, 1059.552
253.0683, 1076.757
253.5504, 1093.027
254.0325, 1109.187
254.5146, 1126.640
254.9967, 1146.668
255.4788, 1165.464
255.9610, 1181.688
256.4431, 1197.371
256.9252, 1214.650
257.4073, 1233.977
257.8894, 1253.709
258.3716, 1271.554
258.8537, 1286.224
259.3358, 1302.422
259.8179, 1320.686
260.3000, 1340.212
260.7821, 1360.296
261.2643, 1380.870
261.7464, 1402.229
262.2285, 1424.679
262.7106, 1448.434
263.1927, 1473.932
263.6748, 1501.256
264.1570, 1530.210
264.6391, 1560.939
265.1212, 1593.340
265.6033, 1626.211
266.0854, 1658.030
266.5675, 1688.709
267.0497, 1720.235
267.5318, 1753.346
268.0139, 1786.673
268.4960, 1818.711
268.9781, 1849.422
269.4602, 1880.965
269.9424, 1916.032
270.4245, 1953.541
270.9066, 1986.796
271.3887, 2013.505
271.8708, 2037.635
272.3529, 2062.092
272.8351, 2086.848
273.3172, 2110.152
273.7993, 2130.719
274.2814, 2149.034
274.7635, 2167.475
275.2456, 2186.752
275.7278, 2205.313
276.2099, 2222.980
276.6920, 2239.482
277.1741, 2252.315
277.6562, 2259.095
278.1383, 2261.866
278.6204, 2265.539
279.1025, 2270.605
279.5847, 2275.576
280.0668, 2279.999
280.5489, 2283.714
281.0310, 2285.405
281.5131, 2283.466
281.9952, 2280.392
282.4774, 2279.846
282.9595, 2282.168
283.4416, 2284.871
283.9237, 2288.234
284.4058, 2291.255
284.8879, 2289.572
285.3701, 2281.557
285.8522, 2268.864
286.3343, 2253.949
286.8164, 2236.884
287.2985, 2216.708
287.7806, 2194.274
288.2628, 2168.448
288.7449, 2135.297
289.2270, 2092.468
289.7091, 2045.006
290.1912, 1996.088
290.6733, 1946.069
291.1555, 1894.664
291.6376, 1841.589
292.1197, 1787.434
292.6018, 1732.342
293.0839, 1675.928
293.5660, 1620.325
294.0482, 1566.650
294.5303, 1514.877
295.0124, 1464.410
295.4945, 1415.230
295.9766, 1367.608
296.4587, 1322.153
296.9409, 1279.002
297.4230, 1237.481
297.9051, 1196.765
298.3872, 1157.242
298.8693, 1119.516
299.3514, 1083.803
299.8336, 1049.823
300.3157, 1016.777
300.7978, 984.2557
301.2799, 954.0418
301.7620, 928.0922
302.2441, 904.1032
302.7263, 879.9803
303.2084, 855.2127
303.6905, 830.9620
304.1726, 808.3651
304.6547, 787.5229
305.1368, 767.0741
305.6190, 746.4740
306.1011, 726.2839
306.5832, 707.0427
307.0653, 688.7726
307.5474, 671.0431
308.0295, 653.4819
308.5117, 636.1525
308.9938, 619.3949
309.4759, 603.5824
309.9580, 588.0663
310.4401, 572.3456
310.9222, 556.5523
311.4044, 541.1528
311.8865, 526.4410
312.3686, 512.4448
312.8507, 499.0646
313.3328, 486.4599
313.8149, 474.2416
314.2971, 462.0802
314.7792, 450.0228
315.2613, 438.0660
315.7434, 426.0130
316.2255, 414.1195
316.7076, 402.9316
317.1898, 392.4265
317.6719, 382.4385
318.1540, 373.0695
318.6361, 364.0659
319.1182, 355.1741
319.6003, 346.2386
320.0825, 337.4890
320.5646, 329.1778
321.0467, 321.3036
321.5288, 313.8803
322.0109, 307.0424
322.4930, 300.6143
322.9752, 294.3021
323.4573, 288.0663
323.9394, 282.7107
324.4215, 280.0425
324.9036, 279.9808
325.3857, 277.1833
325.8679, 268.5888
326.3500, 259.0732
326.8321, 251.9414
327.3142, 247.0683
327.7963, 243.1121
328.2784, 239.2680
328.7606, 235.6178
329.2427, 232.6247
329.7248, 230.7387
330.2069, 228.7914
330.6890, 226.0700
331.1711, 222.7829
331.6533, 219.3151
332.1354, 215.6913
332.6175, 212.0700
333.0996, 208.7233
333.5817, 205.5822
334.0638, 202.8951
334.5460, 201.3755
335.0281, 200.1864
335.5102, 198.2823
335.9923, 195.1317
336.4744, 191.7758
336.9565, 189.4693
337.4387, 188.2782
337.9208, 187.1690
338.4029, 185.9433
338.8850, 184.5471
339.3671, 182.8835
339.8492, 180.9179
340.3314, 178.9666
340.8135, 177.2817
341.2956, 175.8172
341.7777, 174.3364
342.2598, 172.6506
342.7419, 171.1712
343.2241, 170.5439
343.7062, 170.5442
344.1883, 170.0013
344.6704, 167.8131
345.1525, 164.7809
345.6346, 162.7148
346.1168, 161.9061
346.5989, 161.4234
347.0810, 160.7714
347.5631, 159.9749
348.0452, 159.0410
348.5273, 158.0213
349.0095, 156.8211
349.4916, 155.0925
349.9737, 152.8199
350.4558, 151.0839
350.9379, 150.8261
351.4200, 151.1644
351.9022, 150.5376
352.3843, 148.4676
352.8664, 146.5833
353.3485, 146.3545
353.8306, 147.3166
354.3127, 147.5813
354.7949, 146.4684
355.2770, 144.7384
355.7591, 143.2225
356.2412, 141.9025
356.7233, 140.8789
357.2054, 140.4538
357.6876, 140.2632
358.1697, 139.6368
358.6518, 138.4252
359.1339, 137.2425
359.6160, 136.7243
360.0981, 136.7374
360.5803, 136.5649
361.0624, 136.1938
361.5445, 135.5536
362.0266, 134.3531
362.5087, 132.6932
362.9908, 131.3930
363.4730, 131.0684
363.9551, 131.3291
364.4372, 130.9227
364.9193, 129.4333
365.4014, 128.0339
365.8835, 127.4133
366.3657, 127.2067
366.8478, 126.5534
367.3299, 125.0803
367.8120, 123.4585
368.2941, 122.8926
368.7762, 123.7228
369.2584, 124.0258
369.7405, 122.9954
370.2226, 121.6395
370.7047, 121.0245
371.1868, 121.2508
371.6689, 121.6036
372.1511, 121.4418
372.6332, 120.7333
373.1153, 120.1200
373.5974, 119.4188
374.0795, 118.9719
374.5616, 119.1112
375.0438, 119.6464
375.5259, 120.1228
376.0080, 120.3034
376.4901, 120.2187
376.9722, 119.9598
377.4543, 119.3197
377.9365, 118.7750
378.4186, 118.4099
378.9007, 118.1462
379.3828, 117.8987
379.8649, 117.6440
380.3470, 117.4222
380.8292, 117.2947
381.3113, 117.3005
381.7934, 117.2874
382.2755, 117.3329
382.7576, 117.2969
383.2397, 116.9200
383.7219, 116.3497
384.2040, 116.0848
384.6861, 116.5781
385.1682, 117.7575
385.6503, 118.4423
386.1324, 118.0870
386.6146, 117.8177
387.0967, 118.0666
387.5788, 118.4281
388.0609, 118.1986
388.5430, 117.0881
389.0251, 115.7629
389.5073, 115.6485
389.9894, 117.4692
390.4715, 119.0172
390.9536, 120.1846
391.4357, 121.0747
391.9178, 121.7177
392.4000, 122.1361
392.8821, 122.3797
393.3642, 122.4576
393.8463, 122.3626
394.3284, 122.3278
394.8105, 122.2738
395.2927, 122.3885
395.7748, 122.6875
396.2569, 123.1966
396.7390, 124.0265
397.2211, 125.3297
397.7032, 126.7759
398.1854, 127.5108
398.6675, 127.2192
399.1496, 127.1842
399.6317, 127.8869
400.1138, 128.9143
400.5959, 130.0882
401.0780, 131.3640
401.5602, 132.4920
402.0423, 133.0802
402.5244, 133.1995
403.0065, 133.6964
403.4886, 134.8955
403.9707, 136.1562
404.4529, 136.9184
404.9350, 137.3641
405.4171, 138.0233
405.8992, 139.2648
406.3813, 140.7726
406.8634, 142.0654
407.3456, 143.1289
407.8277, 144.1041
408.3098, 144.8698
408.7919, 145.7065
409.2740, 147.1336
409.7561, 149.4496
410.2383, 151.6559
410.7204, 153.0148
411.2025, 153.7869
411.6846, 154.7462
412.1667, 156.1039
412.6488, 157.6643
413.1310, 159.2727
413.6131, 160.9397
414.0952, 162.4128
414.5773, 163.2971
415.0594, 164.2074
415.5415, 165.9621
416.0237, 168.4627
416.5058, 170.5775
416.9879, 171.4383
417.4700, 171.3371
417.9521, 171.8922
418.4342, 174.1627
418.9164, 175.7154
419.3985, 175.2246
419.8806, 173.8103
420.3627, 173.2193
420.8448, 174.0029
421.3269, 175.2829
421.8091, 175.7513
422.2912, 175.0602
422.7733, 174.4834
423.2554, 173.9090
423.7375, 173.5329
424.2196, 173.7258
424.7018, 174.2695
425.1839, 174.4005
425.6660, 173.4483
426.1481, 171.7250
426.6302, 171.3949
427.1123, 173.8670
427.5945, 176.0934
428.0766, 177.5051
428.5587, 178.5979
429.0408, 179.8835
429.5229, 181.5165
430.0050, 183.3519
430.4872, 185.2406
430.9693, 187.2341
431.4514, 189.0321
431.9335, 190.7235
432.4156, 192.1208
432.8977, 192.9399
433.3799, 193.3869
433.8620, 193.9714
434.3441, 195.0323
434.8262, 196.4224
435.3083, 197.8093
435.7904, 199.3615
436.2726, 200.4215
436.7547, 200.2526
437.2368, 199.7516
437.7189, 199.6502
438.2010, 200.0836
438.6831, 200.8930
439.1653, 202.1655
439.6474, 203.7732
440.1295, 204.9134
440.6116, 205.1097
441.0937, 205.5070
441.5758, 207.2698
442.0580, 210.0420
442.5401, 212.8509
443.0222, 215.5463
443.5043, 218.0661
443.9864, 220.2658
444.4685, 222.1790
444.9507, 224.2165
445.4328, 226.6688
445.9149, 229.2598
446.3970, 231.3450
446.8791, 232.8689
447.3612, 234.1753
447.8434, 235.6844
448.3255, 236.8746
448.8076, 236.8750
449.2897, 235.6033
449.7718, 234.1046
450.2539, 233.4440
450.7361, 233.6906
451.2182, 233.0726
451.7003, 230.9738
452.1824, 228.8289
452.6645, 226.7762
453.1466, 225.1022
453.6288, 224.4290
454.1109, 225.0303
454.5930, 226.1912
455.0751, 226.4259
455.5572, 224.9011
456.0393, 224.0788
456.5215, 224.1638
457.0036, 224.6491
457.4857, 225.2986
457.9678, 226.0755
458.4499, 227.0466
458.9320, 228.3228
459.4142, 229.8143
459.8963, 230.9163
460.3784, 231.0376
460.8605, 231.8506
461.3426, 234.2581
461.8247, 237.2360
462.3069, 239.7050
462.7890, 241.3980
463.2711, 243.1263
463.7532, 246.1021
464.2353, 250.1847
464.7174, 252.9886
465.1996, 253.6331
465.6817, 253.9245
466.1638, 254.8404
466.6459, 256.3882
467.1280, 258.7149
467.6101, 262.3894
468.0923, 266.3843
468.5744, 269.6308
469.0565, 272.1823
469.5386, 274.2320
470.0207, 275.5882
470.5028, 276.8225
470.9850, 278.9560
471.4671, 282.0323
471.9492, 285.4158
472.4313, 289.3117
472.9134, 293.2396
473.3955, 296.4265
473.8777, 298.9243
474.3598, 301.7980
474.8419, 305.8617
475.3240, 311.0302
475.8061, 316.3753
476.2882, 321.8537
476.7704, 327.5642
477.2525, 333.2518
477.7346, 339.3022
478.2167, 346.0818
478.6988, 353.7384
479.1809, 362.2051
479.6631, 371.6777
480.1452, 382.4202
480.6273, 392.5126
481.1094, 400.7950
481.5915, 409.5694
482.0736, 419.5972
482.5558, 430.6422
483.0379, 442.3062
483.5200, 454.5052
484.0021, 466.9727
484.4842, 479.2159
484.9663, 491.2251
485.4485, 503.2733
485.9306, 515.2334
486.4127, 527.4226
486.8948, 539.9930
487.3769, 552.9915
487.8590, 566.3514
488.3412, 580.0396
488.8233, 594.0226
489.3054, 608.0289
489.7875, 621.8906
490.2696, 636.6561
490.7517, 652.9974
491.2339, 670.4708
491.7160, 688.3566
492.1981, 706.8878
492.6802, 724.8672
493.1623, 740.7780
493.6444, 756.0498
494.1266, 772.9731
494.6087, 791.9766
495.0908, 811.5413
495.5729, 830.5980
496.0550, 849.0898
496.5371, 866.9455
497.0193, 885.4310
497.5014, 901.9081
497.9835, 915.8510
498.4656, 927.2596
498.9477, 936.3751
499.4298, 943.2401
499.9120, 947.4244
500.3941, 948.3407
500.8762, 946.0243
501.3583, 940.2023
501.8404, 930.4660
502.3225, 917.6312
502.8047, 901.6196
503.2868, 882.6937
503.7689, 861.1503
504.2510, 836.7136
504.7331, 810.9330
505.2152, 786.9415
505.6974, 765.2111
506.1795, 741.9052
506.6616, 714.8744
507.1437, 687.4176
507.6258, 661.4958
508.1079, 637.0602
508.5901, 614.5804
509.0722, 594.8856
509.5543, 576.9486
510.0364, 559.0479
510.5185, 541.2167
511.0006, 524.3923
511.4828, 509.2542
511.9649, 495.2768
512.4470, 481.3732
512.9291, 467.3095
513.4112, 453.9615
513.8933, 442.2430
514.3754, 431.0248
514.8575, 419.0349
515.3397, 406.2463
515.8218, 393.8739
516.3039, 382.8553
516.7860, 372.9249
517.2681, 362.3320
517.7502, 349.7635
518.2324, 338.2101
518.7145, 328.1780
519.1966, 319.0438
519.6787, 310.2560
520.1608, 301.6763
520.6429, 293.3981
521.1251, 285.5912
521.6072, 278.1974
522.0893, 270.6800
522.5714, 262.6087
523.0535, 255.0949
523.5356, 248.4552
524.0178, 242.5169
524.4999, 237.2108
524.9820, 232.5540
525.4641, 228.0649
525.9462, 222.9581
526.4283, 217.5581
526.9105, 213.3708
527.3926, 210.9599
527.8747, 208.7803
528.3568, 205.4631
528.8389, 201.3787
529.3210, 197.7775
529.8032, 195.1523
530.2853, 192.6280
530.7674, 189.6145
531.2495, 186.3970
531.7316, 183.5164
532.2137, 181.1181
532.6959, 179.1213
533.1780, 177.5203
533.6601, 176.4646
534.1422, 174.8286
534.6243, 172.0291
535.1064, 169.3678
535.5886, 167.3444
536.0707, 165.7805
536.5528, 164.4161
537.0349, 163.1487
537.5170, 161.9013
537.9991, 160.4840
538.4813, 158.7700
538.9634, 157.5700
539.4455, 157.4597
539.9276, 157.2854
540.4097, 156.2052
540.8918, 154.7227
541.3740, 154.0291
541.8561, 155.0563
542.3382, 156.0583
542.8203, 153.9597
543.3024, 149.2699
543.7845, 147.3932
544.2667, 150.8513
544.7488, 155.1371
545.2309, 154.7171
545.7130, 150.1698
546.1951, 146.4833
546.6772, 144.8576
547.1594, 143.8996
547.6415, 142.7400
548.1236, 141.5214
548.6057, 140.7165
549.0878, 140.5317
549.5699, 140.6391
550.0521, 140.5121
550.5342, 140.1050
551.0163, 139.5911
551.4984, 138.7026
551.9805, 137.9994
552.4626, 137.8612
552.9448, 138.0623
553.4269, 138.1629
553.9090, 137.9524
554.3911, 137.5728
554.8732, 137.2077
555.3553, 136.8171
555.8375, 136.7201
556.3196, 137.1358
556.8017, 137.6586
557.2838, 138.0304
557.7659, 138.2956
558.2480, 138.5951
558.7302, 139.1257
559.2123, 139.5346
559.6944, 139.3125
560.1765, 138.6096
560.6586, 138.0780
561.1407, 137.8985
561.6229, 138.0097
562.1050, 138.3245
562.5871, 138.8468
563.0692, 139.7233
563.5513, 141.4725
564.0334, 143.0543
564.5156, 144.0034
564.9977, 144.3878
565.4798, 144.0738
565.9619, 143.0458
566.4440, 142.2665
566.9261, 143.5577
567.4083, 147.7897
567.8904, 150.5468
568.3725, 150.2741
568.8546, 150.0748
569.3367, 151.0483
569.8188, 152.7895
570.3010, 154.5523
570.7831, 156.0702
571.2652, 157.5786
571.7473, 159.3607
572.2294, 161.3932
572.7115, 163.6233
573.1937, 166.1770
573.6758, 168.5508
574.1579, 169.9074
574.6400, 170.6649
575.1221, 172.4942
575.6042, 176.3813
576.0864, 180.4262
576.5685, 183.7158
577.0506, 186.5155
577.5327, 189.1661
578.0148, 191.7767
578.4969, 194.5217
578.9791, 197.6163
579.4612, 201.0796
579.9433, 204.4257
580.4254, 206.9678
580.9075, 210.2214
581.3896, 214.9073
581.8718, 220.2511
582.3539, 225.4615
582.8360, 230.3561
583.3181, 235.0862
583.8002, 239.7549
584.2823, 244.3975
584.7645, 249.1694
585.2466, 254.0511
585.7287, 259.1783
586.2108, 264.6086
586.6929, 270.3587
587.1750, 276.4992
587.6572, 283.2177
588.1393, 289.5234
588.6214, 294.6246
589.1035, 299.2297
589.5856, 304.1138
590.0677, 309.3963
590.5499, 315.1410
591.0320, 321.4984
591.5141, 328.2385
591.9962, 334.4185
592.4783, 339.3648
592.9604, 344.6419
593.4426, 350.5413
593.9247, 356.5447
594.4068, 362.3313
594.8889, 367.8815
595.3710, 373.4915
595.8531, 379.5145
596.3353, 385.2998
596.8174, 389.0747
597.2995, 390.4068
597.7816, 392.1930
598.2637, 395.8936
598.7458, 399.3272
599.2280, 400.5168
599.7101, 399.7826
600.1922, 398.8904
600.6743, 398.5143
601.1564, 398.0920
601.6385, 397.3958
602.1207, 396.2746
602.6028, 394.3137
603.0849, 391.3875
603.5670, 387.5190
604.0491, 382.6450
604.5313, 376.5898
605.0134, 370.5932
605.4955, 364.8119
605.9776, 358.8825
606.4597, 352.6652
606.9418, 346.2295
607.4240, 339.6860
607.9061, 333.0959
608.3882, 326.5850
608.8703, 320.4831
609.3524, 314.7422
609.8345, 308.4301
610.3167, 301.2879
610.7988, 294.2341
611.2809, 287.6406
611.7630, 281.4615
612.2451, 275.6566
612.7272, 270.2908
613.2094, 265.0565
