##NAMES=Paramontroseite
##RRUFFID=R050391
##IDEAL CHEMISTRY=V^4+^O_2_
##LOCALITY=J.J. mine, Buell Canyon District, Montrose County, Colorado, USA
##OWNER=RRUFF
##SOURCE=University of Arizona Mineral Museum
##DESCRIPTION=Black massive, radioactive
##STATUS=The identification of this mineral has been confirmed by X-ray diffraction and chemical analysis
##URL=rruff.info/R050391
##MEASURED CHEMISTRY=gray phase: (V^4+^_0.82_Fe^3+^_0.09_U^6+^_0.04_V^5+^_0.03_Al_0.02_)_Î£=1_O_2_; lightest phase is uranophane
128.7333, 801.5518
129.2154, 851.3665
129.6975, 907.1815
130.1796, 972.1476
130.6617, 1043.038
131.1439, 1116.263
131.6260, 1190.464
132.1081, 1264.427
132.5902, 1328.500
133.0723, 1385.807
133.5544, 1428.777
134.0366, 1452.348
134.5187, 1460.301
135.0008, 1456.878
135.4829, 1443.276
135.9650, 1420.593
136.4471, 1414.137
136.9293, 1438.317
137.4114, 1462.265
137.8935, 1475.357
138.3756, 1480.575
138.8577, 1485.711
139.3398, 1495.423
139.8220, 1509.764
140.3041, 1538.122
140.7862, 1585.145
141.2683, 1638.063
141.7504, 1691.695
142.2325, 1746.150
142.7147, 1804.727
143.1968, 1872.618
143.6789, 1949.345
144.1610, 2008.113
144.6431, 2039.186
145.1252, 2062.694
145.6074, 2090.943
146.0895, 2123.346
146.5716, 2151.902
147.0537, 2172.750
147.5358, 2183.689
148.0179, 2174.615
148.5001, 2132.852
148.9822, 2080.989
149.4643, 2035.522
149.9464, 1996.828
150.4285, 1955.498
150.9106, 1902.607
151.3928, 1838.838
151.8749, 1775.795
152.3570, 1712.753
152.8391, 1651.565
153.3212, 1594.065
153.8033, 1540.598
154.2855, 1488.280
154.7676, 1432.725
155.2497, 1375.777
155.7318, 1326.133
156.2139, 1292.014
156.6960, 1262.495
157.1782, 1221.060
157.6603, 1164.296
158.1424, 1114.024
158.6245, 1093.362
159.1066, 1093.010
159.5887, 1092.271
160.0709, 1086.691
160.5530, 1077.613
161.0351, 1065.111
161.5172, 1047.401
161.9993, 1033.240
162.4814, 1032.285
162.9636, 1039.299
163.4457, 1045.400
163.9278, 1049.156
164.4099, 1049.683
164.8920, 1043.874
165.3741, 1029.196
165.8563, 1015.349
166.3384, 1008.997
166.8205, 1007.459
167.3026, 1006.694
167.7847, 1005.955
168.2668, 1004.673
168.7490, 1001.173
169.2311, 994.2458
169.7132, 987.8198
170.1953, 985.8740
170.6774, 985.5265
171.1595, 981.9377
171.6417, 971.4421
172.1238, 956.8918
172.6059, 944.9255
173.0880, 934.8561
173.5701, 929.1972
174.0522, 930.1001
174.5344, 935.2452
175.0165, 941.7484
175.4986, 949.1194
175.9807, 956.4162
176.4628, 961.4097
176.9449, 964.8112
177.4271, 964.1066
177.9092, 955.2680
178.3913, 943.1487
178.8734, 934.2944
179.3555, 931.9603
179.8376, 934.7943
180.3197, 939.3767
180.8019, 948.1436
181.2840, 954.1396
181.7661, 953.1423
182.2482, 949.2148
182.7303, 947.6276
183.2124, 951.4011
183.6946, 958.3758
184.1767, 962.0705
184.6588, 959.7964
185.1409, 958.8799
185.6230, 962.1635
186.1051, 967.3190
186.5873, 971.7062
187.0694, 974.0576
187.5515, 975.0589
188.0336, 976.2165
188.5157, 975.8805
188.9978, 978.9085
189.4800, 989.2917
189.9621, 1001.726
190.4442, 1010.625
190.9263, 1013.313
191.4084, 1012.043
191.8905, 1012.130
192.3727, 1013.979
192.8548, 1016.630
193.3369, 1020.052
193.8190, 1023.977
194.3011, 1029.066
194.7832, 1035.654
195.2654, 1041.391
195.7475, 1041.108
196.2296, 1033.004
196.7117, 1021.579
197.1938, 1004.186
197.6759, 986.0844
198.1581, 972.2338
198.6402, 964.2023
199.1223, 959.3965
199.6044, 953.2724
200.0865, 946.0211
200.5686, 936.7753
201.0508, 923.6522
201.5329, 909.9867
202.0150, 897.8752
202.4971, 888.0060
202.9792, 880.7469
203.4613, 877.4553
203.9435, 881.6539
204.4256, 881.7692
204.9077, 875.1131
205.3898, 866.3997
205.8719, 858.1328
206.3540, 851.0888
206.8362, 845.3126
207.3183, 841.2767
207.8004, 840.5623
208.2825, 837.5362
208.7646, 828.7490
209.2467, 820.5313
209.7289, 817.8073
210.2110, 820.4261
210.6931, 823.6085
211.1752, 821.2184
211.6573, 810.8962
212.1395, 803.7565
212.6216, 800.3917
213.1037, 799.4349
213.5858, 801.8634
214.0679, 806.6713
214.5500, 810.8359
215.0322, 810.9075
215.5143, 805.9093
215.9964, 803.3445
216.4785, 805.0701
216.9606, 807.4550
217.4427, 809.8126
217.9249, 811.7495
218.4070, 812.7625
218.8891, 812.3021
219.3712, 810.3219
219.8533, 808.5430
220.3354, 806.8525
220.8176, 805.4950
221.2997, 804.1074
221.7818, 803.1181
222.2639, 803.6667
222.7460, 807.0317
223.2281, 812.6568
223.7103, 814.2036
224.1924, 805.6848
224.6745, 799.4701
225.1566, 798.6628
225.6387, 801.6388
226.1208, 806.0640
226.6030, 810.7537
227.0851, 815.5023
227.5672, 819.5934
228.0493, 824.7932
228.5314, 826.5895
229.0135, 820.6445
229.4957, 812.4370
229.9778, 808.6954
230.4599, 812.5713
230.9420, 820.8191
231.4241, 825.7723
231.9062, 827.7083
232.3884, 825.1735
232.8705, 813.5932
233.3526, 800.5876
233.8347, 792.6302
234.3168, 791.8866
234.7989, 795.9346
235.2811, 801.4136
235.7632, 810.4452
236.2453, 815.7053
236.7274, 815.2537
237.2095, 812.3381
237.6916, 808.3146
238.1738, 803.7624
238.6559, 799.5601
239.1380, 795.6914
239.6201, 790.3629
240.1022, 792.3199
240.5843, 811.5791
241.0665, 830.2329
241.5486, 839.7803
242.0307, 840.0333
242.5128, 835.7039
242.9949, 829.8251
243.4770, 821.9256
243.9592, 818.2506
244.4413, 825.3530
244.9234, 830.5444
245.4055, 826.7246
245.8876, 816.7840
246.3697, 808.6747
246.8519, 808.4586
247.3340, 815.3040
247.8161, 821.7521
248.2982, 827.9521
248.7803, 833.5015
249.2624, 837.8770
249.7446, 841.6702
250.2267, 846.1375
250.7088, 852.6971
251.1909, 859.5934
251.6730, 861.2780
252.1551, 855.0820
252.6373, 848.9803
253.1194, 843.7437
253.6015, 840.6064
254.0836, 841.5760
254.5657, 847.8761
255.0478, 856.5961
255.5300, 862.4023
256.0121, 863.6547
256.4942, 868.2311
256.9763, 883.7578
257.4584, 900.3910
257.9406, 910.5664
258.4227, 912.5576
258.9048, 911.5639
259.3869, 912.3944
259.8690, 915.0851
260.3511, 918.8561
260.8333, 923.0072
261.3154, 928.9595
261.7975, 939.0491
262.2796, 952.9023
262.7617, 965.3655
263.2438, 970.4936
263.7260, 970.1528
264.2081, 975.5787
264.6902, 990.2177
265.1723, 1007.429
265.6544, 1023.626
266.1365, 1038.571
266.6187, 1050.975
267.1008, 1057.527
267.5829, 1061.624
268.0650, 1071.684
268.5471, 1090.023
269.0292, 1107.332
269.5114, 1113.098
269.9935, 1113.674
270.4756, 1120.451
270.9577, 1140.152
271.4398, 1164.135
271.9219, 1182.065
272.4041, 1193.760
272.8862, 1206.751
273.3683, 1224.828
273.8504, 1246.726
274.3325, 1269.297
274.8146, 1292.119
275.2968, 1316.223
275.7789, 1345.350
276.2610, 1377.234
276.7431, 1402.038
277.2252, 1414.396
277.7073, 1420.555
278.1895, 1429.936
278.6716, 1441.649
279.1537, 1458.630
279.6358, 1488.779
280.1179, 1523.360
280.6000, 1546.236
281.0822, 1553.164
281.5643, 1552.982
282.0464, 1555.706
282.5285, 1561.747
283.0106, 1565.220
283.4927, 1566.500
283.9749, 1564.264
284.4570, 1556.833
284.9391, 1544.252
285.4212, 1528.437
285.9033, 1510.694
286.3854, 1490.966
286.8676, 1469.986
287.3497, 1443.666
287.8318, 1420.104
288.3139, 1407.969
288.7960, 1402.221
289.2781, 1388.698
289.7603, 1358.513
290.2424, 1316.365
290.7245, 1282.598
291.2066, 1262.188
291.6887, 1243.274
292.1708, 1224.792
292.6530, 1206.624
293.1351, 1187.994
293.6172, 1168.701
294.0993, 1150.602
294.5814, 1137.312
295.0635, 1132.374
295.5457, 1125.728
296.0278, 1114.085
296.5099, 1103.253
296.9920, 1098.457
297.4741, 1099.540
297.9562, 1101.867
298.4384, 1100.745
298.9205, 1095.819
299.4026, 1089.724
299.8847, 1081.858
300.3668, 1073.475
300.8489, 1063.211
301.3311, 1052.751
301.8131, 1045.905
302.2953, 1045.910
302.7774, 1050.739
303.2595, 1049.546
303.7416, 1036.003
304.2237, 1025.718
304.7058, 1026.393
305.1880, 1029.687
305.6701, 1025.706
306.1522, 1010.608
306.6343, 990.8303
307.1164, 976.6368
307.5985, 969.0228
308.0807, 963.5249
308.5628, 959.5986
309.0449, 957.5463
309.5270, 959.7147
310.0091, 965.5408
310.4912, 968.9597
310.9734, 963.1990
311.4555, 949.1907
311.9376, 937.1108
312.4197, 927.4213
312.9018, 920.3294
313.3839, 917.3558
313.8661, 916.8806
314.3482, 914.6308
314.8303, 906.8573
315.3124, 896.9312
315.7945, 891.3816
316.2766, 890.9986
316.7588, 890.3270
317.2409, 885.1201
317.7230, 878.2682
318.2051, 875.2204
318.6872, 879.8149
319.1693, 882.6786
319.6515, 872.1788
320.1336, 852.4240
320.6157, 843.4709
321.0978, 856.1332
321.5799, 876.2099
322.0620, 879.2711
322.5442, 862.8485
323.0263, 849.6599
323.5084, 847.6802
323.9905, 851.7934
324.4726, 856.9226
324.9547, 862.1887
325.4369, 864.5876
325.9190, 859.9326
326.4011, 847.2724
326.8832, 841.0381
327.3653, 846.6504
327.8474, 853.4153
328.3296, 855.6443
328.8117, 853.9760
329.2938, 850.9918
329.7759, 847.8823
330.2580, 845.1638
330.7401, 845.2964
331.2223, 855.9349
331.7044, 859.8967
332.1865, 848.6555
332.6686, 832.9514
333.1507, 824.7007
333.6328, 827.3845
334.1150, 835.5215
334.5971, 841.5668
335.0792, 846.2542
335.5613, 846.4517
336.0434, 836.8258
336.5255, 827.9590
337.0077, 826.8976
337.4898, 831.9170
337.9719, 835.9215
338.4540, 832.6416
338.9361, 823.2139
339.4182, 818.0336
339.9004, 819.6956
340.3825, 822.0469
340.8646, 823.9160
341.3467, 825.1113
341.8288, 825.0164
342.3109, 823.1071
342.7931, 821.2457
343.2752, 822.7878
343.7573, 828.3669
344.2394, 833.0111
344.7215, 837.4753
345.2036, 838.7698
345.6858, 831.9506
346.1679, 817.2173
346.6500, 806.0964
347.1321, 808.9488
347.6142, 820.9064
348.0963, 828.6778
348.5785, 830.6446
349.0606, 829.4169
349.5427, 825.0488
350.0248, 818.8528
350.5069, 814.9003
350.9890, 814.3461
351.4712, 815.9301
351.9533, 820.2733
352.4354, 826.5126
352.9175, 829.9260
353.3996, 827.6585
353.8817, 821.9241
354.3639, 818.4939
354.8460, 817.9969
355.3281, 817.8751
355.8102, 819.1476
356.2923, 819.7938
356.7744, 816.0514
357.2566, 807.4802
357.7387, 799.1482
358.2208, 796.7968
358.7029, 801.4465
359.1850, 806.8970
359.6671, 815.7635
360.1493, 822.7361
360.6314, 825.3168
361.1135, 824.1393
361.5956, 820.1996
362.0777, 813.6590
362.5598, 806.1905
363.0420, 804.1160
363.5241, 811.3470
364.0062, 817.9312
364.4883, 824.5209
364.9704, 828.9452
365.4525, 828.1028
365.9347, 821.8718
366.4168, 814.8600
366.8989, 813.0932
367.3810, 817.0447
367.8631, 817.6517
368.3452, 809.6057
368.8274, 804.2908
369.3095, 810.1138
369.7916, 822.9023
370.2737, 832.4210
370.7558, 832.3268
371.2379, 827.5217
371.7201, 826.9683
372.2022, 831.3522
372.6843, 833.0532
373.1664, 825.3919
373.6485, 815.4281
374.1306, 814.6110
374.6128, 826.0132
375.0949, 836.6932
375.5770, 838.9641
376.0591, 835.9037
376.5412, 833.9827
377.0233, 834.7656
377.5055, 834.4851
377.9876, 827.4874
378.4697, 812.7747
378.9518, 807.3235
379.4339, 821.7513
379.9160, 836.1417
380.3982, 836.1225
380.8803, 825.9128
381.3624, 819.1174
381.8445, 823.5144
382.3266, 834.8714
382.8087, 840.3937
383.2909, 834.1202
383.7730, 829.4107
384.2551, 823.9563
384.7372, 821.8241
385.2193, 828.7032
385.7014, 844.0553
386.1836, 860.0950
386.6657, 868.5675
387.1478, 869.0734
387.6299, 869.0209
388.1120, 867.3379
388.5941, 866.3657
389.0763, 867.4039
389.5584, 869.4963
390.0405, 870.8574
390.5226, 870.3763
391.0047, 869.9211
391.4868, 872.9510
391.9690, 879.8703
392.4511, 886.4487
392.9332, 892.6927
393.4153, 896.9959
393.8974, 896.5583
394.3795, 891.4901
394.8617, 888.8657
395.3438, 891.8915
395.8259, 899.6299
396.3080, 912.7900
396.7901, 931.8781
397.2722, 947.9932
397.7544, 954.1389
398.2365, 951.7922
398.7186, 950.8616
399.2007, 953.0579
399.6828, 954.7340
400.1649, 952.2566
400.6471, 948.8430
401.1292, 950.4677
401.6113, 959.1403
402.0934, 971.1503
402.5755, 981.6144
403.0576, 991.6573
403.5398, 995.9373
404.0219, 990.5318
404.5040, 983.8925
404.9861, 979.6521
405.4682, 977.8362
405.9503, 978.0014
406.4325, 980.4722
406.9146, 983.3413
407.3967, 978.8313
407.8788, 961.2604
408.3609, 948.0560
408.8430, 946.0776
409.3252, 947.0389
409.8073, 945.0111
410.2894, 938.9526
410.7715, 930.5333
411.2536, 919.2985
411.7357, 906.3512
412.2179, 898.1619
412.7000, 896.3895
413.1821, 896.4602
413.6642, 896.0427
414.1463, 895.1788
414.6284, 893.9319
415.1106, 892.9797
415.5927, 890.8223
416.0748, 886.1133
416.5569, 879.2767
417.0390, 870.6699
417.5211, 859.6256
418.0033, 849.9297
418.4854, 848.0045
418.9675, 857.1418
419.4496, 863.0332
419.9317, 864.3972
420.4138, 863.0046
420.8960, 858.1147
421.3781, 851.2720
421.8602, 846.8084
422.3423, 847.8689
422.8244, 852.6771
423.3065, 853.5258
423.7887, 848.2239
424.2708, 842.1270
424.7529, 833.1412
425.2350, 825.4131
425.7171, 822.6699
426.1992, 825.2173
426.6814, 830.2749
427.1635, 837.0601
427.6456, 845.0751
428.1277, 846.9867
428.6098, 839.5735
429.0919, 832.2175
429.5741, 829.8712
430.0562, 830.6006
430.5383, 831.6297
431.0204, 831.8159
431.5025, 833.2399
431.9846, 840.2307
432.4668, 850.3409
432.9489, 853.7082
433.4310, 846.4953
433.9131, 836.4606
434.3952, 833.3455
434.8773, 838.1531
435.3595, 839.2297
435.8416, 831.8114
436.3237, 824.2415
436.8058, 820.9822
437.2879, 821.7806
437.7701, 826.1562
438.2522, 834.2617
438.7343, 843.1516
439.2164, 844.9571
439.6985, 834.0888
440.1806, 825.9464
440.6628, 819.5277
441.1449, 816.5580
441.6270, 820.9382
442.1091, 830.4803
442.5912, 837.1628
443.0733, 832.7175
443.5555, 821.5565
444.0376, 822.8059
444.5197, 842.4956
445.0018, 857.6505
445.4839, 852.1253
445.9660, 841.6031
446.4482, 843.8823
446.9303, 863.2116
447.4124, 878.5786
447.8945, 871.4939
448.3766, 852.4244
448.8587, 844.2453
449.3409, 850.5239
449.8230, 859.3105
450.3051, 861.0178
450.7872, 856.6348
451.2693, 856.6017
451.7514, 866.0256
452.2336, 873.5168
452.7157, 872.8422
453.1978, 868.8823
453.6799, 869.8051
454.1620, 877.5392
454.6441, 885.2595
455.1263, 883.2108
455.6084, 868.6870
456.0905, 859.7676
456.5726, 861.0777
457.0547, 863.6129
457.5368, 863.9840
458.0190, 863.9973
458.5011, 867.3279
458.9832, 876.0270
459.4653, 886.1558
459.9474, 892.9475
460.4295, 896.3886
460.9117, 894.8900
461.3938, 883.7905
461.8759, 873.6428
462.3580, 876.9623
462.8401, 890.7249
463.3222, 898.7045
463.8044, 889.5213
464.2865, 878.2274
464.7686, 880.1802
465.2507, 892.3060
465.7328, 901.0371
466.2149, 899.9272
466.6971, 894.3420
467.1792, 894.6807
467.6613, 903.9235
468.1434, 913.3235
468.6255, 926.0457
469.1076, 936.2223
469.5898, 939.5690
470.0719, 937.0206
470.5540, 931.5541
471.0361, 924.5955
471.5182, 917.1873
472.0003, 911.7175
472.4825, 907.0920
472.9646, 907.5372
473.4467, 923.9861
473.9288, 938.5309
474.4109, 936.9688
474.8930, 920.0912
475.3752, 902.8073
475.8573, 891.0994
476.3394, 885.4213
476.8215, 889.3894
477.3036, 903.1495
477.7857, 914.3955
478.2679, 917.2905
478.7500, 913.5266
479.2321, 906.0922
479.7142, 892.2042
480.1963, 882.1689
480.6784, 879.9221
481.1606, 881.0366
481.6427, 882.8970
482.1248, 884.4492
482.6069, 883.6547
483.0890, 878.5698
483.5711, 870.3235
484.0533, 865.1066
484.5354, 864.0402
485.0175, 864.3602
485.4996, 867.6011
485.9817, 870.5339
486.4638, 869.6260
486.9460, 865.0312
487.4281, 861.1098
487.9102, 863.9337
488.3923, 869.9316
488.8744, 866.3958
489.3565, 851.2712
489.8387, 837.9785
490.3208, 833.0193
490.8029, 834.5436
491.2850, 838.6277
491.7671, 847.2947
492.2492, 852.7139
492.7314, 849.6522
493.2135, 843.3756
493.6956, 839.6537
494.1777, 839.0554
494.6598, 839.4901
495.1419, 839.6028
495.6241, 839.2299
496.1062, 837.2939
496.5883, 833.4633
497.0704, 828.3856
497.5525, 820.3684
498.0346, 812.3775
498.5168, 806.8959
498.9989, 804.1480
499.4810, 802.7399
499.9631, 802.0386
500.4452, 801.7376
500.9273, 800.7733
501.4095, 799.1877
501.8916, 796.6245
502.3737, 791.6451
502.8558, 786.3673
503.3379, 783.3996
503.8200, 782.2762
504.3022, 785.7374
504.7843, 800.7081
505.2664, 817.4321
505.7485, 823.1236
506.2306, 817.9652
506.7127, 811.4406
507.1949, 809.9048
507.6770, 812.0082
508.1591, 811.7794
508.6412, 805.4641
509.1233, 802.3808
509.6054, 806.2163
510.0876, 810.8386
510.5697, 810.4639
511.0518, 805.9741
511.5339, 803.7215
512.0161, 809.8104
512.4982, 820.4206
512.9803, 824.5140
513.4624, 820.9836
513.9445, 817.3889
514.4266, 815.9438
514.9088, 816.0707
515.3909, 817.4858
515.8730, 820.4236
516.3551, 821.7256
516.8372, 820.1008
517.3193, 816.6873
517.8015, 809.6843
518.2836, 801.2198
518.7657, 800.1147
519.2478, 812.0070
519.7299, 829.7420
520.2120, 835.6927
520.6942, 820.6211
521.1763, 811.3165
521.6584, 811.1885
522.1405, 812.9267
522.6226, 813.8550
523.1047, 813.3647
523.5869, 810.8267
524.0690, 805.3613
524.5511, 798.9033
525.0332, 793.6028
525.5153, 789.4803
525.9974, 790.7404
526.4796, 801.8711
526.9617, 812.9993
527.4438, 810.5325
527.9259, 796.4781
528.4080, 788.8286
528.8901, 797.2027
529.3723, 805.6066
529.8544, 803.5432
530.3365, 794.8725
530.8186, 787.5748
531.3007, 784.3358
531.7828, 782.0732
532.2650, 775.5231
532.7471, 762.5947
533.2292, 758.5663
533.7113, 777.4985
534.1934, 789.0858
534.6755, 777.4369
535.1577, 755.7112
535.6398, 741.3910
536.1219, 739.5154
536.6040, 744.5503
537.0861, 755.5425
537.5682, 769.4420
538.0504, 775.4612
538.5325, 771.6760
539.0146, 764.8986
539.4967, 759.2206
539.9788, 754.5377
540.4609, 750.3931
540.9431, 748.2725
541.4252, 744.5604
541.9073, 736.5840
542.3894, 727.9526
542.8715, 720.6865
543.3536, 715.9174
543.8358, 716.5046
544.3179, 726.2125
544.8000, 741.6447
545.2821, 747.2380
545.7642, 739.7617
546.2463, 731.2265
546.7285, 721.1807
547.2106, 713.8877
547.6927, 714.7692
548.1748, 723.0275
548.6569, 728.7990
549.1390, 724.6319
549.6211, 718.0439
550.1032, 719.0649
550.5853, 725.5765
551.0674, 726.9243
551.5496, 718.1872
552.0317, 705.8903
552.5138, 700.9276
552.9959, 706.6643
553.4780, 708.3108
553.9601, 700.2360
554.4423, 694.6902
554.9244, 700.2529
555.4065, 710.4557
555.8886, 714.5625
556.3707, 708.5443
556.8528, 698.6851
557.3350, 690.9360
557.8171, 685.5334
558.2992, 685.2308
558.7813, 691.7377
559.2634, 698.8618
559.7455, 703.7940
560.2277, 705.9272
560.7098, 703.6045
561.1919, 691.0192
561.6740, 684.1252
562.1561, 694.5687
562.6382, 709.1118
563.1204, 713.1578
563.6025, 706.1328
564.0846, 695.9244
564.5667, 687.4717
565.0488, 681.6432
565.5309, 683.0054
566.0131, 696.7986
566.4952, 704.5146
566.9773, 696.9915
567.4594, 687.1461
567.9415, 682.1765
568.4236, 681.9898
568.9058, 684.0349
569.3879, 688.2663
569.8700, 693.3491
570.3521, 698.9058
570.8342, 704.3106
571.3163, 707.5314
571.7985, 707.9631
572.2806, 705.6947
572.7627, 700.1445
573.2448, 690.5064
573.7269, 685.1313
574.2090, 685.6274
574.6912, 688.1697
575.1733, 694.7500
575.6554, 701.3472
576.1375, 703.2995
576.6196, 699.7410
577.1017, 694.0023
577.5839, 687.3116
578.0660, 680.8720
578.5481, 679.6870
579.0302, 684.4564
579.5123, 688.8090
579.9944, 689.5228
580.4766, 688.4187
580.9587, 689.4199
581.4408, 693.6019
581.9229, 695.1857
582.4050, 690.5384
582.8871, 685.6179
583.3693, 684.4723
583.8514, 686.2058
584.3335, 688.4993
584.8156, 690.3022
585.2977, 691.4124
585.7798, 690.9063
586.2620, 688.4537
586.7441, 688.5662
587.2262, 693.0703
587.7083, 697.5068
588.1904, 700.3580
588.6725, 701.2161
589.1547, 698.2437
589.6368, 688.3955
590.1189, 682.1617
590.6010, 690.4606
591.0831, 702.0286
591.5652, 699.7492
592.0474, 684.5609
592.5295, 671.4146
593.0116, 670.2079
593.4937, 678.1642
593.9758, 687.9008
594.4579, 703.7836
594.9401, 710.9363
595.4222, 698.8690
595.9043, 686.0923
596.3864, 683.1984
596.8685, 686.9311
597.3506, 687.5374
597.8328, 678.9625
598.3149, 671.0007
598.7970, 675.4252
599.2791, 687.1198
599.7612, 692.0280
600.2433, 687.4390
600.7255, 681.1754
601.2076, 679.7094
601.6897, 682.4899
602.1718, 685.0424
602.6539, 688.5461
603.1360, 690.1028
603.6182, 687.7487
604.1003, 684.7816
604.5824, 683.4889
605.0645, 683.9260
605.5466, 684.9573
606.0287, 685.4819
606.5109, 686.8580
606.9930, 693.1354
607.4751, 703.2116
607.9572, 707.6681
608.4393, 703.4196
608.9214, 695.9385
609.4036, 690.2776
609.8857, 686.4454
610.3678, 683.1307
610.8499, 678.1516
611.3320, 676.3793
611.8141, 681.7659
612.2963, 689.1286
612.7784, 693.1922
613.2605, 693.5140
613.7426, 693.1193
614.2247, 694.5826
614.7068, 696.7061
615.1890, 695.6680
615.6711, 691.2245
616.1532, 689.2424
616.6353, 691.7968
617.1174, 696.7782
617.5995, 703.2917
618.0817, 711.3858
618.5638, 714.1282
619.0459, 704.9446
619.5280, 697.6586
620.0101, 699.8391
620.4922, 705.8099
620.9744, 708.3596
621.4565, 706.1714
621.9386, 702.6473
622.4207, 701.0082
