##NAMES=Paradamite
##RRUFFID=R050582
##IDEAL CHEMISTRY=Zn^2+^_2_As^5+^O_4_(OH)
##LOCALITY=Ojuela mine, Mapimi, Durango, Mexico
##OWNER=RRUFF
##SOURCE=University of Arizona Mineral Museum
##DESCRIPTION=Groups of tabular pale yellow crystals
##STATUS=The identification of this mineral has been confirmed by X-ray diffraction and chemical analysis
##URL=rruff.info/R050582
##MEASURED CHEMISTRY=Zn_2.00_(As_1.00_O_4_)(OH)
91.11523, 45.31733
91.59735, 46.15197
92.07947, 45.34146
92.56158, 43.42509
93.04370, 42.10308
93.52582, 42.85403
94.00793, 44.84278
94.49006, 46.24057
94.97218, 46.78064
95.45429, 46.87575
95.93641, 47.25626
96.41853, 47.90907
96.90064, 48.29820
97.38276, 47.59182
97.86488, 45.96330
98.34699, 45.44088
98.82911, 46.62667
99.31123, 48.98486
99.79334, 50.89034
100.2755, 52.37244
100.7576, 53.24101
101.2397, 53.00174
101.7218, 51.29332
102.2039, 50.26176
102.6861, 50.72459
103.1682, 52.65736
103.6503, 52.98106
104.1324, 50.70497
104.6145, 47.91747
105.0966, 47.22982
105.5788, 49.80940
106.0609, 52.48666
106.5430, 54.36546
107.0251, 55.08884
107.5072, 56.36857
107.9893, 58.65535
108.4715, 61.39663
108.9536, 63.60065
109.4357, 64.52312
109.9178, 65.59016
110.3999, 67.20571
110.8820, 68.99634
111.3642, 71.91872
111.8463, 76.14840
112.3284, 81.56175
112.8105, 87.81518
113.2926, 95.33131
113.7747, 103.4621
114.2569, 111.7952
114.7390, 119.5906
115.2211, 128.4306
115.7032, 138.8751
116.1853, 150.7328
116.6674, 162.9794
117.1496, 174.3676
117.6317, 186.5932
118.1138, 200.9351
118.5959, 218.3568
119.0780, 237.6108
119.5602, 258.9653
120.0423, 282.4496
120.5244, 305.2140
121.0065, 327.5007
121.4886, 347.7636
121.9707, 364.0272
122.4529, 373.5169
122.9350, 379.6650
123.4171, 384.8442
123.8992, 389.1159
124.3813, 392.9410
124.8634, 396.5200
125.3456, 399.9219
125.8277, 403.3186
126.3098, 405.9786
126.7919, 408.8896
127.2740, 413.3607
127.7561, 419.4428
128.2383, 427.3066
128.7204, 437.5193
129.2025, 449.8766
129.6846, 463.3067
130.1667, 476.4839
130.6488, 490.0177
131.1310, 506.6624
131.6131, 526.9222
132.0952, 550.0625
132.5773, 575.2975
133.0594, 602.7659
133.5415, 630.9983
134.0237, 659.0912
134.5058, 687.2481
134.9879, 716.9993
135.4700, 750.4343
135.9521, 784.7289
136.4343, 813.0775
136.9164, 835.9796
137.3985, 851.0530
137.8806, 855.0086
138.3627, 846.5293
138.8448, 835.3012
139.3270, 821.4569
139.8091, 805.6951
140.2912, 795.3225
140.7733, 791.1174
141.2554, 790.7551
141.7375, 791.6385
142.2197, 792.8529
142.7018, 797.9138
143.1839, 808.3000
143.6660, 824.2981
144.1481, 840.1357
144.6302, 854.1882
145.1124, 869.3485
145.5945, 889.1122
146.0766, 915.9393
146.5587, 943.9348
147.0408, 970.8400
147.5230, 999.1093
148.0051, 1028.244
148.4872, 1057.995
148.9693, 1088.439
149.4514, 1120.647
149.9335, 1153.276
150.4157, 1187.387
150.8978, 1222.720
151.3799, 1260.464
151.8620, 1298.219
152.3441, 1335.463
152.8262, 1373.004
153.3084, 1411.570
153.7905, 1453.297
154.2726, 1494.225
154.7547, 1533.385
155.2368, 1568.509
155.7189, 1604.412
156.2011, 1640.534
156.6832, 1677.854
157.1653, 1717.944
157.6474, 1761.551
158.1295, 1807.600
158.6116, 1855.248
159.0938, 1900.928
159.5759, 1952.792
160.0580, 2014.070
160.5401, 2083.319
161.0222, 2155.810
161.5044, 2226.403
161.9865, 2301.622
162.4686, 2385.831
162.9507, 2480.651
163.4328, 2583.793
163.9149, 2694.728
164.3971, 2814.257
164.8792, 2941.577
165.3613, 3082.627
165.8434, 3228.709
166.3255, 3372.652
166.8076, 3518.958
167.2898, 3654.891
167.7719, 3780.105
168.2540, 3893.323
168.7361, 3981.120
169.2182, 4040.051
169.7003, 4068.398
170.1825, 4064.013
170.6646, 4026.799
171.1467, 3956.627
171.6288, 3846.540
172.1109, 3698.336
172.5931, 3531.892
173.0752, 3348.494
173.5573, 3158.106
174.0394, 2976.167
174.5215, 2804.336
175.0036, 2647.274
175.4858, 2512.099
175.9679, 2397.529
176.4500, 2305.203
176.9321, 2237.379
177.4142, 2191.474
177.8963, 2162.587
178.3785, 2148.413
178.8606, 2149.447
179.3427, 2166.925
179.8248, 2200.907
180.3069, 2249.355
180.7890, 2307.678
181.2712, 2377.727
181.7533, 2465.562
182.2354, 2573.793
182.7175, 2701.528
183.1996, 2846.009
183.6818, 3010.165
184.1639, 3183.871
184.6460, 3369.124
185.1281, 3560.789
185.6102, 3741.460
186.0923, 3916.979
186.5745, 4076.091
187.0566, 4180.576
187.5387, 4232.399
188.0208, 4222.397
188.5029, 4127.950
188.9850, 3952.932
189.4672, 3740.638
189.9493, 3493.375
190.4314, 3221.386
190.9135, 2962.620
191.3956, 2717.194
191.8777, 2493.041
192.3599, 2295.447
192.8420, 2125.282
193.3241, 1976.976
193.8062, 1850.227
194.2883, 1743.304
194.7704, 1651.054
195.2526, 1574.183
195.7347, 1509.737
196.2168, 1453.679
196.6989, 1406.192
197.1810, 1364.334
197.6632, 1326.967
198.1453, 1293.753
198.6274, 1264.834
199.1095, 1240.506
199.5916, 1219.947
200.0737, 1201.730
200.5559, 1185.625
201.0380, 1172.659
201.5201, 1164.103
202.0022, 1160.175
202.4843, 1156.530
202.9664, 1152.462
203.4486, 1149.057
203.9307, 1148.701
204.4128, 1151.465
204.8949, 1156.991
205.3770, 1165.373
205.8591, 1176.810
206.3413, 1189.411
206.8234, 1202.516
207.3055, 1217.107
207.7876, 1235.628
208.2697, 1257.922
208.7519, 1284.136
209.2340, 1314.931
209.7161, 1350.836
210.1982, 1388.451
210.6803, 1427.360
211.1624, 1467.974
211.6446, 1511.698
212.1267, 1558.580
212.6088, 1607.652
213.0909, 1658.629
213.5730, 1711.285
214.0551, 1766.368
214.5373, 1822.596
215.0194, 1881.740
215.5015, 1950.770
215.9836, 2031.789
216.4657, 2119.253
216.9478, 2210.863
217.4300, 2304.232
217.9121, 2410.073
218.3942, 2528.846
218.8763, 2659.460
219.3584, 2798.200
219.8405, 2944.397
220.3227, 3098.172
220.8048, 3258.607
221.2869, 3425.641
221.7690, 3602.519
222.2511, 3788.027
222.7333, 3983.317
223.2154, 4185.510
223.6975, 4396.356
224.1796, 4614.980
224.6617, 4843.249
225.1438, 5086.419
225.6260, 5324.425
226.1081, 5556.140
226.5902, 5782.245
227.0723, 5999.148
227.5544, 6217.768
228.0365, 6414.083
228.5187, 6575.109
229.0008, 6688.723
229.4829, 6794.771
229.9650, 6887.384
230.4471, 6975.102
230.9292, 7079.290
231.4114, 7195.299
231.8935, 7337.105
232.3756, 7508.777
232.8577, 7715.529
233.3398, 7947.751
233.8220, 8215.991
234.3041, 8506.705
234.7862, 8784.604
235.2683, 9066.637
235.7504, 9309.209
236.2325, 9505.433
236.7147, 9678.166
237.1968, 9738.729
237.6789, 9684.241
238.1610, 9519.871
238.6431, 9252.816
239.1252, 8855.715
239.6074, 8393.326
240.0895, 7876.823
240.5716, 7282.974
241.0537, 6714.641
241.5358, 6165.746
242.0179, 5644.766
242.5001, 5168.125
242.9822, 4736.527
243.4643, 4347.550
243.9464, 4001.894
244.4285, 3702.294
244.9106, 3434.511
245.3928, 3199.679
245.8749, 2993.846
246.3570, 2811.247
246.8391, 2655.743
247.3212, 2516.974
247.8034, 2392.995
248.2855, 2285.286
248.7676, 2184.878
249.2497, 2090.721
249.7318, 2003.908
250.2139, 1926.383
250.6961, 1859.588
251.1782, 1799.387
251.6603, 1744.584
252.1424, 1695.317
252.6245, 1649.835
253.1066, 1607.867
253.5888, 1569.572
254.0709, 1534.648
254.5530, 1503.514
255.0351, 1474.735
255.5172, 1448.089
255.9993, 1423.343
256.4815, 1401.733
256.9636, 1384.240
257.4457, 1369.078
257.9278, 1353.886
258.4099, 1337.659
258.8921, 1323.651
259.3742, 1312.769
259.8563, 1305.138
260.3384, 1297.748
260.8205, 1289.519
261.3026, 1283.072
261.7848, 1281.432
262.2669, 1286.212
262.7490, 1291.331
263.2311, 1295.188
263.7132, 1298.005
264.1953, 1303.016
264.6775, 1310.083
265.1596, 1319.531
265.6417, 1331.848
266.1238, 1347.396
266.6059, 1364.302
267.0880, 1381.751
267.5702, 1400.212
268.0523, 1422.084
268.5344, 1448.754
269.0165, 1476.587
269.4986, 1502.942
269.9807, 1527.551
270.4629, 1552.836
270.9450, 1578.559
271.4271, 1605.413
271.9092, 1635.521
272.3913, 1669.582
272.8734, 1704.901
273.3556, 1738.679
273.8377, 1769.916
274.3198, 1806.475
274.8019, 1850.186
275.2840, 1899.274
275.7661, 1949.617
276.2483, 2001.013
276.7304, 2053.985
277.2125, 2106.788
277.6946, 2159.271
278.1768, 2217.483
278.6589, 2282.651
279.1410, 2352.599
279.6231, 2423.551
280.1052, 2496.476
280.5873, 2568.651
281.0695, 2640.025
281.5516, 2710.843
282.0337, 2773.680
282.5158, 2829.143
282.9979, 2874.934
283.4800, 2910.166
283.9622, 2935.271
284.4443, 2940.300
284.9264, 2920.090
285.4085, 2875.523
285.8906, 2811.546
286.3727, 2727.121
286.8549, 2626.948
287.3370, 2512.635
287.8191, 2384.818
288.3012, 2255.776
288.7833, 2128.319
289.2654, 2004.422
289.7476, 1888.370
290.2297, 1780.083
290.7118, 1680.410
291.1939, 1590.022
291.6760, 1509.521
292.1581, 1437.792
292.6403, 1375.851
293.1224, 1321.999
293.6045, 1270.189
294.0866, 1220.829
294.5687, 1176.705
295.0508, 1142.089
295.5330, 1115.055
296.0151, 1089.735
296.4972, 1064.584
296.9793, 1040.105
297.4614, 1017.418
297.9435, 996.4014
298.4257, 977.8574
298.9078, 963.4208
299.3899, 951.8747
299.8720, 941.0059
300.3541, 930.2579
300.8362, 920.1215
301.3184, 910.8654
301.8005, 902.5412
302.2826, 895.7567
302.7647, 891.9447
303.2469, 889.4942
303.7290, 885.8138
304.2111, 880.3873
304.6932, 874.6496
305.1753, 870.3791
305.6574, 866.9616
306.1396, 863.1172
306.6217, 858.1166
307.1038, 852.3552
307.5859, 846.1338
308.0680, 839.3878
308.5501, 832.5038
309.0323, 825.8957
309.5144, 819.3088
309.9965, 812.3699
310.4786, 804.8321
310.9607, 796.8715
311.4428, 788.5018
311.9250, 779.7767
312.4071, 770.8762
312.8892, 762.3589
313.3713, 753.7701
313.8534, 744.5389
314.3355, 732.7960
314.8177, 722.0092
315.2998, 714.2787
315.7819, 709.2346
316.2640, 704.7042
316.7461, 700.0247
317.2282, 695.3741
317.7104, 690.8372
318.1925, 686.4593
318.6746, 682.1542
319.1567, 677.4349
319.6388, 672.6846
320.1209, 669.0647
320.6031, 668.3471
321.0852, 667.7967
321.5673, 665.8660
322.0494, 661.5995
322.5315, 657.7337
323.0136, 654.8992
323.4958, 652.8116
323.9779, 651.0060
324.4600, 649.0223
324.9421, 647.6655
325.4242, 647.5544
325.9064, 649.2040
326.3885, 649.8998
326.8706, 648.3264
327.3527, 646.1542
327.8348, 645.1224
328.3170, 646.6935
328.7991, 647.8902
329.2812, 647.8108
329.7633, 646.3820
330.2454, 646.3956
330.7275, 648.9260
331.2097, 652.0032
331.6918, 654.1599
332.1739, 654.1054
332.6560, 655.2493
333.1381, 658.2918
333.6202, 662.8156
334.1024, 666.8189
334.5845, 670.2341
335.0666, 673.1501
335.5487, 675.3150
336.0308, 675.8217
336.5129, 678.2370
336.9951, 683.1467
337.4772, 689.6738
337.9593, 696.3068
338.4414, 703.0960
338.9235, 709.9562
339.4056, 716.6819
339.8878, 723.1086
340.3699, 731.0795
340.8520, 740.8565
341.3341, 751.7865
341.8162, 763.4355
342.2983, 775.7059
342.7805, 788.6981
343.2626, 802.5057
343.7447, 817.0389
344.2268, 830.7133
344.7089, 843.3400
345.1910, 856.9299
345.6732, 873.8927
346.1553, 893.9553
346.6374, 912.9765
347.1195, 929.8145
347.6016, 945.8171
348.0837, 963.6826
348.5659, 983.5201
349.0480, 1004.588
349.5301, 1025.441
350.0122, 1047.151
350.4944, 1071.983
350.9765, 1100.488
351.4586, 1131.063
351.9407, 1161.134
352.4228, 1191.228
352.9049, 1223.051
353.3871, 1257.374
353.8692, 1293.989
354.3513, 1332.936
354.8334, 1374.263
355.3155, 1416.660
355.7976, 1462.148
356.2798, 1507.827
356.7619, 1549.547
357.2440, 1585.687
357.7261, 1616.728
358.2082, 1644.372
358.6903, 1667.918
359.1725, 1682.684
359.6546, 1686.608
360.1367, 1680.378
360.6188, 1664.172
361.1009, 1636.556
361.5830, 1601.656
362.0652, 1558.438
362.5473, 1509.110
363.0294, 1459.093
363.5115, 1407.402
363.9936, 1357.498
364.4757, 1311.396
364.9579, 1268.701
365.4400, 1230.436
365.9221, 1196.169
366.4042, 1166.330
366.8863, 1141.454
367.3684, 1122.119
367.8506, 1107.245
368.3327, 1096.703
368.8148, 1090.643
369.2969, 1088.435
369.7790, 1090.541
370.2611, 1096.063
370.7433, 1104.499
371.2254, 1116.465
371.7075, 1130.184
372.1896, 1145.431
372.6717, 1162.383
373.1538, 1181.544
373.6360, 1203.499
374.1181, 1226.618
374.6002, 1249.729
375.0823, 1272.480
375.5645, 1296.780
376.0466, 1321.898
376.5287, 1349.025
377.0108, 1380.283
377.4929, 1415.316
377.9750, 1453.530
378.4572, 1494.184
378.9393, 1537.524
379.4214, 1584.312
379.9035, 1634.010
380.3856, 1687.845
380.8677, 1746.481
381.3499, 1809.864
381.8320, 1877.094
382.3141, 1949.055
382.7962, 2024.247
383.2783, 2102.600
383.7604, 2183.576
384.2426, 2263.673
384.7247, 2344.297
385.2068, 2421.911
385.6889, 2494.788
386.1710, 2564.151
386.6531, 2619.776
387.1353, 2654.652
387.6174, 2667.761
388.0995, 2657.285
388.5816, 2620.853
389.0637, 2561.233
389.5458, 2476.257
390.0280, 2365.821
390.5101, 2246.989
390.9922, 2121.770
391.4743, 1998.184
391.9564, 1883.370
392.4385, 1779.098
392.9207, 1685.733
393.4028, 1605.069
393.8849, 1536.362
394.3670, 1477.198
394.8491, 1429.046
395.3312, 1389.187
395.8134, 1356.515
396.2955, 1331.656
396.7776, 1311.636
397.2597, 1296.156
397.7418, 1285.246
398.2239, 1278.915
398.7061, 1278.834
399.1882, 1281.772
399.6703, 1287.307
400.1524, 1295.449
400.6346, 1305.542
401.1167, 1316.927
401.5988, 1330.710
402.0809, 1347.777
402.5630, 1369.529
403.0451, 1391.865
403.5273, 1413.988
404.0094, 1436.493
404.4915, 1460.917
404.9736, 1487.669
405.4557, 1515.442
405.9378, 1543.983
406.4200, 1573.313
406.9021, 1603.016
407.3842, 1632.614
407.8663, 1662.994
408.3484, 1695.357
408.8305, 1729.887
409.3127, 1764.981
409.7948, 1800.498
410.2769, 1836.135
410.7590, 1871.033
411.2411, 1905.373
411.7232, 1937.744
412.2054, 1967.360
412.6875, 1994.737
413.1696, 2020.636
413.6517, 2046.053
414.1338, 2068.481
414.6159, 2085.388
415.0981, 2096.856
415.5802, 2102.867
416.0623, 2104.081
416.5444, 2099.249
417.0265, 2087.283
417.5086, 2068.106
417.9908, 2041.835
418.4729, 2007.154
418.9550, 1966.054
419.4371, 1921.161
419.9192, 1871.340
420.4013, 1819.438
420.8835, 1765.834
421.3656, 1711.171
421.8477, 1656.215
422.3298, 1599.897
422.8119, 1545.218
423.2940, 1493.122
423.7762, 1444.702
424.2583, 1397.319
424.7404, 1349.777
425.2225, 1304.209
425.7047, 1261.675
426.1868, 1223.478
426.6689, 1187.213
427.1510, 1151.948
427.6331, 1117.966
428.1152, 1086.934
428.5974, 1058.763
429.0795, 1033.112
429.5616, 1009.702
430.0437, 988.9911
430.5258, 968.7795
431.0079, 948.9352
431.4901, 929.7943
431.9722, 911.8063
432.4543, 894.9847
432.9364, 879.6595
433.4185, 866.4551
433.9006, 855.0529
434.3828, 844.4011
434.8649, 834.5127
435.3470, 825.2425
435.8291, 816.1108
436.3112, 807.4222
436.7933, 800.4258
437.2755, 795.6076
437.7576, 791.9582
438.2397, 788.4355
438.7218, 785.1147
439.2039, 782.2288
439.6860, 779.3719
440.1682, 777.3027
440.6503, 776.9514
441.1324, 778.3759
441.6145, 780.7321
442.0966, 783.6592
442.5787, 787.1699
443.0609, 791.2750
443.5430, 795.6696
444.0251, 800.9482
444.5072, 807.5072
444.9893, 815.1472
445.4714, 823.2188
445.9536, 830.7864
446.4357, 839.4710
446.9178, 850.0685
447.3999, 863.1375
447.8820, 876.8651
448.3641, 890.6165
448.8463, 905.4017
449.3284, 922.6289
449.8105, 942.8654
450.2926, 964.2069
450.7747, 986.2411
451.2569, 1009.200
451.7390, 1033.676
452.2211, 1059.923
452.7032, 1087.633
453.1853, 1116.713
453.6674, 1147.434
454.1496, 1178.567
454.6317, 1210.033
455.1138, 1242.496
455.5959, 1276.304
456.0780, 1311.735
456.5602, 1348.799
457.0423, 1387.761
457.5244, 1428.081
458.0065, 1469.043
458.4886, 1510.431
458.9707, 1553.851
459.4529, 1600.131
459.9350, 1649.210
460.4171, 1699.470
460.8992, 1751.584
461.3813, 1804.712
461.8634, 1858.050
462.3456, 1912.331
462.8277, 1967.576
463.3098, 2026.997
463.7919, 2085.425
464.2740, 2140.704
464.7561, 2192.756
465.2383, 2241.887
465.7204, 2289.848
466.2025, 2333.802
466.6846, 2371.625
467.1667, 2403.694
467.6488, 2428.404
468.1310, 2447.808
468.6131, 2459.328
469.0952, 2458.887
469.5773, 2443.402
470.0594, 2420.869
470.5415, 2392.226
471.0237, 2357.677
471.5058, 2319.357
471.9879, 2276.203
472.4700, 2231.544
472.9521, 2186.655
473.4342, 2140.974
473.9164, 2102.764
474.3985, 2073.125
474.8806, 2049.711
475.3627, 2027.887
475.8448, 2007.999
476.3270, 1993.640
476.8091, 1986.645
477.2912, 1986.181
477.7733, 1990.740
478.2554, 2000.351
478.7375, 2015.535
479.2197, 2037.871
479.7018, 2065.721
480.1839, 2096.752
480.6660, 2130.530
481.1481, 2166.940
481.6302, 2206.709
482.1124, 2248.874
482.5945, 2291.807
483.0766, 2334.025
483.5587, 2377.876
484.0408, 2425.824
484.5229, 2477.444
485.0051, 2525.223
485.4872, 2567.986
485.9693, 2606.477
486.4514, 2640.761
486.9335, 2672.072
487.4156, 2697.815
487.8978, 2718.463
488.3799, 2733.234
488.8620, 2741.069
489.3441, 2740.438
489.8262, 2736.673
490.3083, 2730.865
490.7905, 2723.021
491.2726, 2712.708
491.7547, 2699.247
492.2368, 2686.337
492.7189, 2676.019
493.2010, 2668.396
493.6832, 2665.353
494.1653, 2667.120
494.6474, 2673.023
495.1295, 2684.241
495.6116, 2699.207
496.0938, 2713.254
496.5759, 2724.316
497.0580, 2733.752
497.5401, 2745.801
498.0222, 2758.752
498.5044, 2763.305
498.9865, 2756.454
499.4686, 2737.685
499.9507, 2706.668
500.4328, 2663.370
500.9149, 2608.085
501.3971, 2537.557
501.8792, 2455.930
502.3613, 2368.098
502.8434, 2265.510
503.3255, 2166.120
503.8076, 2071.355
504.2898, 1981.612
504.7719, 1898.950
505.2540, 1823.985
505.7361, 1755.436
506.2182, 1692.412
506.7003, 1635.469
507.1825, 1582.803
507.6646, 1534.901
508.1467, 1490.262
508.6288, 1447.528
509.1109, 1406.710
509.5930, 1367.546
510.0752, 1330.294
510.5573, 1294.248
511.0394, 1257.733
511.5215, 1221.009
512.0037, 1185.673
512.4858, 1153.753
512.9679, 1123.252
513.4500, 1090.517
513.9321, 1055.488
514.4142, 1022.300
514.8964, 995.0594
515.3785, 970.5035
515.8606, 945.2721
516.3427, 916.7458
516.8248, 890.2493
517.3069, 868.2322
517.7891, 849.5967
518.2712, 832.2407
518.7533, 815.7065
519.2354, 800.6036
519.7175, 787.8473
520.1996, 777.3150
520.6818, 766.0169
521.1639, 753.0229
521.6460, 740.3677
522.1281, 729.3322
522.6102, 720.0320
523.0923, 711.7333
523.5745, 704.5605
524.0566, 698.1103
524.5387, 691.9182
525.0208, 685.9570
525.5029, 679.8734
525.9850, 673.3618
526.4672, 666.8448
526.9493, 661.2566
527.4314, 656.4597
527.9135, 651.7227
528.3956, 645.8961
528.8777, 640.0140
529.3599, 635.7780
529.8420, 633.3754
530.3241, 631.2703
530.8062, 629.2258
531.2883, 626.5485
531.7704, 622.4549
532.2526, 614.8298
532.7347, 608.1833
533.2168, 604.3443
533.6989, 602.4539
534.1810, 600.3888
534.6631, 598.3709
535.1453, 595.5916
535.6274, 591.5331
536.1095, 586.0852
536.5916, 581.8192
537.0737, 579.2090
537.5558, 576.9785
538.0380, 574.3273
538.5201, 571.2056
539.0022, 567.6536
539.4843, 563.4880
539.9664, 559.4128
540.4485, 556.8610
540.9307, 555.6393
541.4128, 554.0635
541.8949, 551.5623
542.3770, 548.4323
542.8591, 544.4164
543.3412, 539.8993
543.8234, 536.6255
544.3055, 536.2509
544.7876, 537.2775
545.2697, 538.8555
545.7518, 541.0394
546.2339, 541.7466
546.7161, 539.1581
547.1982, 535.0715
547.6803, 531.0064
548.1624, 526.8453
548.6445, 523.3315
549.1266, 520.8593
549.6088, 519.0812
550.0909, 517.3020
550.5730, 515.4871
551.0551, 513.7620
551.5372, 512.2275
552.0193, 510.8537
552.5015, 509.1391
552.9836, 506.7853
553.4657, 505.1426
553.9478, 505.8213
554.4299, 508.4638
554.9120, 509.0333
555.3942, 507.0031
555.8763, 504.4759
556.3584, 504.0804
556.8405, 505.0678
557.3226, 505.4947
557.8047, 504.4545
558.2869, 503.1100
558.7690, 502.5489
559.2511, 502.5386
559.7332, 502.5038
560.2154, 502.4775
560.6975, 502.1164
561.1796, 501.1321
561.6617, 499.5086
562.1439, 497.9156
562.6260, 495.6766
563.1081, 494.1520
563.5902, 494.2130
564.0723, 497.2753
564.5544, 498.8784
565.0366, 498.5707
565.5187, 497.2594
566.0008, 496.0719
566.4829, 494.9752
566.9650, 494.0737
567.4471, 493.3202
567.9293, 492.8259
568.4114, 492.9040
568.8935, 493.5364
569.3756, 494.5694
569.8577, 496.4620
570.3398, 498.5091
570.8220, 499.0830
571.3041, 498.2372
571.7862, 497.6255
572.2683, 499.1457
572.7504, 501.0978
573.2325, 501.6483
573.7147, 499.8526
574.1968, 498.2064
574.6789, 497.7774
575.1610, 497.9844
575.6431, 498.0714
576.1252, 497.9413
576.6074, 497.6714
577.0895, 497.1678
577.5716, 496.5321
578.0537, 496.1753
578.5358, 496.2572
579.0179, 496.2481
579.5001, 495.9166
579.9822, 495.2774
580.4643, 494.4405
580.9464, 493.2949
581.4285, 492.6911
581.9106, 494.0377
582.3928, 496.5790
582.8749, 497.5634
583.3570, 496.3662
583.8391, 494.9087
584.3212, 495.0230
584.8033, 496.1833
585.2855, 497.4952
585.7676, 498.8178
586.2497, 500.0107
586.7318, 501.3672
587.2139, 502.5854
