##NAMES=Pararealgar
##RRUFFID=R140447
##IDEAL CHEMISTRY=AsS
##LOCALITY=Getchell mine, Adam Peak, Potosi District, Osgood Mts, Humboldt County, Nevada, USA
##OWNER=RRUFF
##SOURCE=Rock Currier
##DESCRIPTION=Yellow-orange, vitreous-opaque, poorly crystalline to amorphous, secondary alteration coating on realgar, associated with realgar and calcite.
##STATUS=The identification of this mineral has been confirmed by single-crystal X-ray diffraction.
##URL=rruff.info/R140447
8.930109e+001, 0.000000e+000
8.978320e+001, 3.257814e+002
9.026532e+001, 3.252108e+002
9.074744e+001, 3.253752e+002
9.122955e+001, 3.263947e+002
9.171167e+001, 3.284168e+002
9.219379e+001, 3.320180e+002
9.267590e+001, 3.370595e+002
9.315802e+001, 3.411821e+002
9.364014e+001, 3.417194e+002
9.412225e+001, 3.398991e+002
9.460437e+001, 3.390044e+002
9.508649e+001, 3.399286e+002
9.556860e+001, 3.420911e+002
9.605072e+001, 3.447120e+002
9.653284e+001, 3.480910e+002
9.701495e+001, 3.517127e+002
9.749707e+001, 3.552929e+002
9.797919e+001, 3.588266e+002
9.846130e+001, 3.614991e+002
9.894342e+001, 3.626636e+002
9.942554e+001, 3.625146e+002
9.990765e+001, 3.634440e+002
1.003898e+002, 3.653568e+002
1.008719e+002, 3.683658e+002
1.013540e+002, 3.725818e+002
1.018361e+002, 3.779312e+002
1.023182e+002, 3.845452e+002
1.028004e+002, 3.925089e+002
1.032825e+002, 4.016909e+002
1.037646e+002, 4.124566e+002
1.042467e+002, 4.258745e+002
1.047288e+002, 4.402901e+002
1.052109e+002, 4.523207e+002
1.056931e+002, 4.650083e+002
1.061752e+002, 4.718173e+002
1.066573e+002, 4.695375e+002
1.071394e+002, 4.517775e+002
1.076215e+002, 4.363540e+002
1.081036e+002, 4.231959e+002
1.085858e+002, 4.124472e+002
1.090679e+002, 4.053913e+002
1.095500e+002, 4.031181e+002
1.100321e+002, 4.035084e+002
1.105142e+002, 4.054203e+002
1.109963e+002, 4.096912e+002
1.114785e+002, 4.144456e+002
1.119606e+002, 4.191623e+002
1.124427e+002, 4.238763e+002
1.129248e+002, 4.299380e+002
1.134069e+002, 4.384686e+002
1.138890e+002, 4.478948e+002
1.143712e+002, 4.570590e+002
1.148533e+002, 4.661843e+002
1.153354e+002, 4.745456e+002
1.158175e+002, 4.819438e+002
1.162996e+002, 4.884879e+002
1.167817e+002, 4.940551e+002
1.172639e+002, 4.990195e+002
1.177460e+002, 5.029839e+002
1.182281e+002, 5.054351e+002
1.187102e+002, 5.055645e+002
1.191923e+002, 5.045845e+002
1.196744e+002, 5.029682e+002
1.201566e+002, 5.005944e+002
1.206387e+002, 4.983526e+002
1.211208e+002, 4.962368e+002
1.216029e+002, 4.946207e+002
1.220850e+002, 4.943093e+002
1.225671e+002, 4.965123e+002
1.230493e+002, 4.998470e+002
1.235314e+002, 5.029366e+002
1.240135e+002, 5.055157e+002
1.244956e+002, 5.078979e+002
1.249777e+002, 5.097224e+002
1.254598e+002, 5.113401e+002
1.259420e+002, 5.141025e+002
1.264241e+002, 5.199833e+002
1.269062e+002, 5.274739e+002
1.273883e+002, 5.336359e+002
1.278704e+002, 5.372209e+002
1.283525e+002, 5.400515e+002
1.288347e+002, 5.442952e+002
1.293168e+002, 5.500117e+002
1.297989e+002, 5.577038e+002
1.302810e+002, 5.681815e+002
1.307631e+002, 5.810839e+002
1.312452e+002, 5.953068e+002
1.317274e+002, 6.103685e+002
1.322095e+002, 6.266621e+002
1.326916e+002, 6.452518e+002
1.331737e+002, 6.663729e+002
1.336558e+002, 6.893383e+002
1.341379e+002, 7.156620e+002
1.346201e+002, 7.452571e+002
1.351022e+002, 7.723199e+002
1.355843e+002, 7.970721e+002
1.360664e+002, 8.185036e+002
1.365485e+002, 8.265375e+002
1.370306e+002, 8.190811e+002
1.375128e+002, 8.030670e+002
1.379949e+002, 7.849756e+002
1.384770e+002, 7.638090e+002
1.389591e+002, 7.452342e+002
1.394412e+002, 7.313669e+002
1.399233e+002, 7.226477e+002
1.404055e+002, 7.140638e+002
1.408876e+002, 7.052072e+002
1.413697e+002, 6.968557e+002
1.418518e+002, 6.903615e+002
1.423339e+002, 6.862799e+002
1.428160e+002, 6.828121e+002
1.432982e+002, 6.789622e+002
1.437803e+002, 6.737305e+002
1.442624e+002, 6.716755e+002
1.447445e+002, 6.744403e+002
1.452266e+002, 6.798819e+002
1.457087e+002, 6.826501e+002
1.461909e+002, 6.795052e+002
1.466730e+002, 6.778643e+002
1.471551e+002, 6.804261e+002
1.476372e+002, 6.863279e+002
1.481193e+002, 6.978760e+002
1.486014e+002, 7.155586e+002
1.490836e+002, 7.389022e+002
1.495657e+002, 7.672050e+002
1.500478e+002, 7.996732e+002
1.505299e+002, 8.370552e+002
1.510120e+002, 8.800463e+002
1.514941e+002, 9.329869e+002
1.519763e+002, 9.858207e+002
1.524584e+002, 1.046346e+003
1.529405e+002, 1.109797e+003
1.534226e+002, 1.153831e+003
1.539047e+002, 1.182342e+003
1.543868e+002, 1.187396e+003
1.548690e+002, 1.164670e+003
1.553511e+002, 1.087404e+003
1.558332e+002, 1.010400e+003
1.563153e+002, 9.425827e+002
1.567974e+002, 8.831152e+002
1.572795e+002, 8.243815e+002
1.577617e+002, 7.598716e+002
1.582438e+002, 6.980970e+002
1.587259e+002, 6.452047e+002
1.592080e+002, 6.034182e+002
1.596901e+002, 5.698945e+002
1.601722e+002, 5.448552e+002
1.606544e+002, 5.281124e+002
1.611365e+002, 5.165021e+002
1.616186e+002, 5.114329e+002
1.621007e+002, 5.099880e+002
1.625828e+002, 5.093568e+002
1.630649e+002, 5.086410e+002
1.635471e+002, 5.085923e+002
1.640292e+002, 5.095065e+002
1.645113e+002, 5.113914e+002
1.649934e+002, 5.142045e+002
1.654755e+002, 5.181575e+002
1.659576e+002, 5.229803e+002
1.664398e+002, 5.282769e+002
1.669219e+002, 5.346384e+002
1.674040e+002, 5.409670e+002
1.678861e+002, 5.461780e+002
1.683682e+002, 5.501696e+002
1.688503e+002, 5.545007e+002
1.693325e+002, 5.598057e+002
1.698146e+002, 5.661826e+002
1.702967e+002, 5.736885e+002
1.707788e+002, 5.845829e+002
1.712609e+002, 5.954796e+002
1.717430e+002, 6.030444e+002
1.722252e+002, 6.069487e+002
1.727073e+002, 6.091501e+002
1.731894e+002, 6.096743e+002
1.736715e+002, 6.095800e+002
1.741536e+002, 6.111799e+002
1.746357e+002, 6.169193e+002
1.751179e+002, 6.244274e+002
1.756000e+002, 6.308270e+002
1.760821e+002, 6.357008e+002
1.765642e+002, 6.401707e+002
1.770463e+002, 6.445026e+002
1.775284e+002, 6.491406e+002
1.780106e+002, 6.553546e+002
1.784927e+002, 6.667800e+002
1.789748e+002, 6.796043e+002
1.794569e+002, 6.865653e+002
1.799390e+002, 6.862875e+002
1.804211e+002, 6.831013e+002
1.809033e+002, 6.806401e+002
1.813854e+002, 6.791732e+002
1.818675e+002, 6.799614e+002
1.823496e+002, 6.841848e+002
1.828317e+002, 6.911488e+002
1.833138e+002, 6.996812e+002
1.837960e+002, 7.098245e+002
1.842781e+002, 7.208378e+002
1.847602e+002, 7.325543e+002
1.852423e+002, 7.447535e+002
1.857244e+002, 7.546821e+002
1.862065e+002, 7.602462e+002
1.866887e+002, 7.621216e+002
1.871708e+002, 7.627725e+002
1.876529e+002, 7.621960e+002
1.881350e+002, 7.610336e+002
1.886171e+002, 7.604969e+002
1.890992e+002, 7.605554e+002
1.895814e+002, 7.603564e+002
1.900635e+002, 7.591302e+002
1.905456e+002, 7.570356e+002
1.910277e+002, 7.552307e+002
1.915098e+002, 7.537804e+002
1.919919e+002, 7.527617e+002
1.924741e+002, 7.519515e+002
1.929562e+002, 7.512830e+002
1.934383e+002, 7.521962e+002
1.939204e+002, 7.553973e+002
1.944025e+002, 7.609080e+002
1.948846e+002, 7.693096e+002
1.953668e+002, 7.811027e+002
1.958489e+002, 7.953402e+002
1.963310e+002, 8.092743e+002
1.968131e+002, 8.225687e+002
1.972952e+002, 8.380209e+002
1.977773e+002, 8.576901e+002
1.982595e+002, 8.815457e+002
1.987416e+002, 9.085641e+002
1.992237e+002, 9.387842e+002
1.997058e+002, 9.716455e+002
2.001879e+002, 1.006484e+003
2.006700e+002, 1.044669e+003
2.011522e+002, 1.080162e+003
2.016343e+002, 1.113501e+003
2.021164e+002, 1.146668e+003
2.025985e+002, 1.156913e+003
2.030806e+002, 1.139875e+003
2.035627e+002, 1.099044e+003
2.040449e+002, 1.040672e+003
2.045270e+002, 9.594528e+002
2.050091e+002, 8.781024e+002
2.054912e+002, 8.112219e+002
2.059733e+002, 7.595428e+002
2.064554e+002, 7.183466e+002
2.069376e+002, 6.882214e+002
2.074197e+002, 6.680037e+002
2.079018e+002, 6.523924e+002
2.083839e+002, 6.413245e+002
2.088660e+002, 6.350300e+002
2.093481e+002, 6.344997e+002
2.098303e+002, 6.407933e+002
2.103124e+002, 6.481326e+002
2.107945e+002, 6.562186e+002
2.112766e+002, 6.648216e+002
2.117587e+002, 6.731295e+002
2.122408e+002, 6.807551e+002
2.127230e+002, 6.889616e+002
2.132051e+002, 6.988450e+002
2.136872e+002, 7.109125e+002
2.141693e+002, 7.228782e+002
2.146514e+002, 7.340884e+002
2.151335e+002, 7.449955e+002
2.156157e+002, 7.572673e+002
2.160978e+002, 7.713891e+002
2.165799e+002, 7.861281e+002
2.170620e+002, 8.009735e+002
2.175441e+002, 8.162367e+002
2.180262e+002, 8.307350e+002
2.185084e+002, 8.442616e+002
2.189905e+002, 8.571002e+002
2.194726e+002, 8.699969e+002
2.199547e+002, 8.834388e+002
2.204368e+002, 8.964800e+002
2.209189e+002, 9.084068e+002
2.214011e+002, 9.192609e+002
2.218832e+002, 9.291311e+002
2.223653e+002, 9.377501e+002
2.228474e+002, 9.454072e+002
2.233295e+002, 9.531961e+002
2.238116e+002, 9.588190e+002
2.242938e+002, 9.678839e+002
2.247759e+002, 9.841267e+002
2.252580e+002, 1.009457e+003
2.257401e+002, 1.036924e+003
2.262222e+002, 1.065515e+003
2.267043e+002, 1.095831e+003
2.271865e+002, 1.132678e+003
2.276686e+002, 1.178880e+003
2.281507e+002, 1.226289e+003
2.286328e+002, 1.272195e+003
2.291149e+002, 1.324851e+003
2.295970e+002, 1.356016e+003
2.300792e+002, 1.359812e+003
2.305613e+002, 1.340783e+003
2.310434e+002, 1.314904e+003
2.315255e+002, 1.276966e+003
2.320076e+002, 1.240359e+003
2.324897e+002, 1.212941e+003
2.329719e+002, 1.198165e+003
2.334540e+002, 1.185143e+003
2.339361e+002, 1.174638e+003
2.344182e+002, 1.165462e+003
2.349003e+002, 1.154131e+003
2.353824e+002, 1.144353e+003
2.358646e+002, 1.127107e+003
2.363467e+002, 1.097269e+003
2.368288e+002, 1.050260e+003
2.373109e+002, 1.000353e+003
2.377930e+002, 9.461378e+002
2.382751e+002, 8.893130e+002
2.387573e+002, 8.361252e+002
2.392394e+002, 7.842572e+002
2.397215e+002, 7.392988e+002
2.402036e+002, 7.038881e+002
2.406857e+002, 6.812538e+002
2.411678e+002, 6.609941e+002
2.416500e+002, 6.434055e+002
2.421321e+002, 6.281543e+002
2.426142e+002, 6.141219e+002
2.430963e+002, 6.013174e+002
2.435784e+002, 5.898486e+002
2.440605e+002, 5.799573e+002
2.445427e+002, 5.719402e+002
2.450248e+002, 5.646302e+002
2.455069e+002, 5.582569e+002
2.459890e+002, 5.524835e+002
2.464711e+002, 5.467112e+002
2.469532e+002, 5.409881e+002
2.474354e+002, 5.351094e+002
2.479175e+002, 5.289132e+002
2.483996e+002, 5.219625e+002
2.488817e+002, 5.160592e+002
2.493638e+002, 5.115304e+002
2.498459e+002, 5.078738e+002
2.503281e+002, 5.041330e+002
2.508102e+002, 5.000244e+002
2.512923e+002, 4.963215e+002
2.517744e+002, 4.931738e+002
2.522565e+002, 4.905194e+002
2.527386e+002, 4.888205e+002
2.532208e+002, 4.881856e+002
2.537029e+002, 4.884290e+002
2.541850e+002, 4.893751e+002
2.546671e+002, 4.914501e+002
2.551492e+002, 4.933968e+002
2.556313e+002, 4.948682e+002
2.561135e+002, 4.958575e+002
2.565956e+002, 4.962440e+002
2.570777e+002, 4.955791e+002
2.575598e+002, 4.947205e+002
2.580419e+002, 4.949259e+002
2.585240e+002, 4.966900e+002
2.590062e+002, 4.983488e+002
2.594883e+002, 4.992625e+002
2.599704e+002, 4.993026e+002
2.604525e+002, 5.003890e+002
2.609346e+002, 5.029733e+002
2.614167e+002, 5.060274e+002
2.618989e+002, 5.080986e+002
2.623810e+002, 5.082924e+002
2.628631e+002, 5.099057e+002
2.633452e+002, 5.139844e+002
2.638273e+002, 5.205812e+002
2.643094e+002, 5.267286e+002
2.647916e+002, 5.320359e+002
2.652737e+002, 5.376888e+002
2.657558e+002, 5.448416e+002
2.662379e+002, 5.534588e+002
2.667200e+002, 5.636319e+002
2.672021e+002, 5.757659e+002
2.676843e+002, 5.896529e+002
2.681664e+002, 6.036914e+002
2.686485e+002, 6.177570e+002
2.691306e+002, 6.321646e+002
2.696127e+002, 6.470941e+002
2.700948e+002, 6.625992e+002
2.705770e+002, 6.783026e+002
2.710591e+002, 6.947014e+002
2.715412e+002, 7.110560e+002
2.720233e+002, 7.242001e+002
2.725054e+002, 7.336149e+002
2.729875e+002, 7.405899e+002
2.734697e+002, 7.460422e+002
2.739518e+002, 7.501338e+002
2.744339e+002, 7.516535e+002
2.749160e+002, 7.498060e+002
2.753981e+002, 7.456953e+002
2.758802e+002, 7.422927e+002
2.763624e+002, 7.395270e+002
2.768445e+002, 7.379966e+002
2.773266e+002, 7.378797e+002
2.778087e+002, 7.391266e+002
2.782908e+002, 7.427498e+002
2.787729e+002, 7.491280e+002
2.792551e+002, 7.575794e+002
2.797372e+002, 7.663024e+002
2.802193e+002, 7.751917e+002
2.807014e+002, 7.853187e+002
2.811835e+002, 7.972922e+002
2.816656e+002, 8.111102e+002
2.821478e+002, 8.264598e+002
2.826299e+002, 8.432420e+002
2.831120e+002, 8.617312e+002
2.835941e+002, 8.820901e+002
2.840762e+002, 9.043771e+002
2.845583e+002, 9.294162e+002
2.850405e+002, 9.573859e+002
2.855226e+002, 9.884147e+002
2.860047e+002, 1.023419e+003
2.864868e+002, 1.062197e+003
2.869689e+002, 1.105662e+003
2.874510e+002, 1.155929e+003
2.879332e+002, 1.212810e+003
2.884153e+002, 1.273037e+003
2.888974e+002, 1.336075e+003
2.893795e+002, 1.400891e+003
2.898616e+002, 1.462318e+003
2.903438e+002, 1.520559e+003
2.908259e+002, 1.573944e+003
2.913080e+002, 1.624501e+003
2.917901e+002, 1.670072e+003
2.922722e+002, 1.700990e+003
2.927543e+002, 1.716369e+003
2.932365e+002, 1.713705e+003
2.937186e+002, 1.682181e+003
2.942007e+002, 1.621797e+003
2.946828e+002, 1.549104e+003
2.951649e+002, 1.471415e+003
2.956470e+002, 1.392542e+003
2.961292e+002, 1.321857e+003
2.966113e+002, 1.261090e+003
2.970934e+002, 1.211693e+003
2.975755e+002, 1.176483e+003
2.980576e+002, 1.154997e+003
2.985397e+002, 1.143371e+003
2.990219e+002, 1.139941e+003
2.995040e+002, 1.144027e+003
2.999861e+002, 1.154203e+003
3.004682e+002, 1.170291e+003
3.009503e+002, 1.192102e+003
3.014324e+002, 1.219649e+003
3.019146e+002, 1.252771e+003
3.023967e+002, 1.291990e+003
3.028788e+002, 1.337237e+003
3.033609e+002, 1.388716e+003
3.038430e+002, 1.446066e+003
3.043251e+002, 1.509343e+003
3.048073e+002, 1.577945e+003
3.052894e+002, 1.654406e+003
3.057715e+002, 1.736145e+003
3.062536e+002, 1.819086e+003
3.067357e+002, 1.909002e+003
3.072178e+002, 1.994249e+003
3.077000e+002, 2.062328e+003
3.081821e+002, 2.112083e+003
3.086642e+002, 2.146295e+003
3.091463e+002, 2.166208e+003
3.096284e+002, 2.171976e+003
3.101105e+002, 2.163948e+003
3.105927e+002, 2.153078e+003
3.110748e+002, 2.120655e+003
3.115569e+002, 2.048121e+003
3.120390e+002, 1.935159e+003
3.125211e+002, 1.807789e+003
3.130032e+002, 1.663189e+003
3.134854e+002, 1.517071e+003
3.139675e+002, 1.388072e+003
3.144496e+002, 1.281428e+003
3.149317e+002, 1.194375e+003
3.154138e+002, 1.127559e+003
3.158959e+002, 1.080089e+003
3.163781e+002, 1.044009e+003
3.168602e+002, 1.021023e+003
3.173423e+002, 1.005564e+003
3.178244e+002, 9.937908e+002
3.183065e+002, 9.851204e+002
3.187886e+002, 9.796614e+002
3.192708e+002, 9.779527e+002
3.197529e+002, 9.796061e+002
3.202350e+002, 9.835502e+002
3.207171e+002, 9.916152e+002
3.211992e+002, 1.000223e+003
3.216813e+002, 1.007238e+003
3.221635e+002, 1.010729e+003
3.226456e+002, 1.016394e+003
3.231277e+002, 1.025448e+003
3.236098e+002, 1.037309e+003
3.240919e+002, 1.051069e+003
3.245740e+002, 1.068152e+003
3.250562e+002, 1.085497e+003
3.255383e+002, 1.102064e+003
3.260204e+002, 1.117501e+003
3.265025e+002, 1.133394e+003
3.269846e+002, 1.149262e+003
3.274667e+002, 1.165846e+003
3.279489e+002, 1.184135e+003
3.284310e+002, 1.205019e+003
3.289131e+002, 1.226696e+003
3.293952e+002, 1.249380e+003
3.298773e+002, 1.273119e+003
3.303594e+002, 1.296373e+003
3.308416e+002, 1.317972e+003
3.313237e+002, 1.339832e+003
3.318058e+002, 1.363168e+003
3.322879e+002, 1.388012e+003
3.327700e+002, 1.414350e+003
3.332521e+002, 1.441699e+003
3.337343e+002, 1.470649e+003
3.342164e+002, 1.504154e+003
3.346985e+002, 1.541851e+003
3.351806e+002, 1.584024e+003
3.356627e+002, 1.631680e+003
3.361448e+002, 1.686371e+003
3.366270e+002, 1.740469e+003
3.371091e+002, 1.793177e+003
3.375912e+002, 1.845008e+003
3.380733e+002, 1.898014e+003
3.385554e+002, 1.952060e+003
3.390375e+002, 2.006069e+003
3.395197e+002, 2.059582e+003
3.400018e+002, 2.112076e+003
3.404839e+002, 2.165193e+003
3.409660e+002, 2.217165e+003
3.414481e+002, 2.271448e+003
3.419302e+002, 2.331839e+003
3.424124e+002, 2.399203e+003
3.428945e+002, 2.467513e+003
3.433766e+002, 2.534784e+003
3.438587e+002, 2.601688e+003
3.443408e+002, 2.672543e+003
3.448229e+002, 2.746184e+003
3.453051e+002, 2.829692e+003
3.457872e+002, 2.929723e+003
3.462693e+002, 3.045043e+003
3.467514e+002, 3.175281e+003
3.472335e+002, 3.327428e+003
3.477156e+002, 3.483599e+003
3.481978e+002, 3.665118e+003
3.486799e+002, 3.858393e+003
3.491620e+002, 3.890803e+003
3.496441e+002, 3.497169e+003
3.501262e+002, 2.865775e+003
3.506083e+002, 2.454934e+003
3.510905e+002, 2.339767e+003
3.515726e+002, 2.361465e+003
3.520547e+002, 2.373963e+003
3.525368e+002, 2.376946e+003
3.530189e+002, 2.369450e+003
3.535010e+002, 2.349599e+003
3.539832e+002, 2.319636e+003
3.544653e+002, 2.236402e+003
3.549474e+002, 2.091551e+003
3.554295e+002, 2.062217e+003
3.559116e+002, 2.427203e+003
3.563937e+002, 2.969994e+003
3.568759e+002, 3.360918e+003
3.573580e+002, 3.409865e+003
3.578401e+002, 3.329768e+003
3.583222e+002, 3.239847e+003
3.588043e+002, 3.139267e+003
3.592864e+002, 3.027833e+003
3.597686e+002, 2.907818e+003
3.602507e+002, 2.774891e+003
3.607328e+002, 2.625101e+003
3.612149e+002, 2.445566e+003
3.616970e+002, 2.267411e+003
3.621791e+002, 2.096420e+003
3.626613e+002, 1.935678e+003
3.631434e+002, 1.792293e+003
3.636255e+002, 1.669406e+003
3.641076e+002, 1.563688e+003
3.645897e+002, 1.473679e+003
3.650718e+002, 1.402141e+003
3.655540e+002, 1.342699e+003
3.660361e+002, 1.298045e+003
3.665182e+002, 1.263768e+003
3.670003e+002, 1.234578e+003
3.674824e+002, 1.213215e+003
3.679645e+002, 1.193486e+003
3.684467e+002, 1.175437e+003
3.689288e+002, 1.159574e+003
3.694109e+002, 1.139571e+003
3.698930e+002, 1.111014e+003
3.703751e+002, 1.081751e+003
3.708572e+002, 1.056757e+003
3.713394e+002, 1.036204e+003
3.718215e+002, 1.020155e+003
3.723036e+002, 1.009448e+003
3.727857e+002, 1.003258e+003
3.732678e+002, 9.984008e+002
3.737499e+002, 9.942908e+002
3.742321e+002, 9.924397e+002
3.747142e+002, 9.933077e+002
3.751963e+002, 9.965711e+002
3.756784e+002, 1.004182e+003
3.761605e+002, 1.016931e+003
3.766426e+002, 1.032995e+003
3.771248e+002, 1.049446e+003
3.776069e+002, 1.066536e+003
3.780890e+002, 1.083557e+003
3.785711e+002, 1.100463e+003
3.790532e+002, 1.117181e+003
3.795353e+002, 1.132200e+003
3.800175e+002, 1.145721e+003
3.804996e+002, 1.157214e+003
3.809817e+002, 1.168218e+003
3.814638e+002, 1.177900e+003
3.819459e+002, 1.179499e+003
3.824280e+002, 1.171820e+003
3.829102e+002, 1.155004e+003
3.833923e+002, 1.128673e+003
3.838744e+002, 1.092860e+003
3.843565e+002, 1.050216e+003
3.848386e+002, 9.990142e+002
3.853207e+002, 9.428256e+002
3.858029e+002, 8.901334e+002
3.862850e+002, 8.411478e+002
3.867671e+002, 7.962551e+002
3.872492e+002, 7.552937e+002
3.877313e+002, 7.183517e+002
3.882134e+002, 6.864763e+002
3.886956e+002, 6.620988e+002
3.891777e+002, 6.420953e+002
3.896598e+002, 6.240403e+002
3.901419e+002, 6.079418e+002
3.906240e+002, 5.933024e+002
3.911061e+002, 5.793458e+002
3.915883e+002, 5.667510e+002
3.920704e+002, 5.561934e+002
3.925525e+002, 5.482757e+002
3.930346e+002, 5.418782e+002
3.935167e+002, 5.369473e+002
3.939988e+002, 5.331141e+002
3.944810e+002, 5.292704e+002
3.949631e+002, 5.244775e+002
3.954452e+002, 5.200074e+002
3.959273e+002, 5.167081e+002
3.964094e+002, 5.152190e+002
3.968915e+002, 5.131498e+002
3.973737e+002, 5.092958e+002
3.978558e+002, 5.048722e+002
3.983379e+002, 5.013764e+002
3.988200e+002, 5.003571e+002
3.993021e+002, 4.987740e+002
3.997842e+002, 4.960143e+002
4.002664e+002, 4.920781e+002
4.007485e+002, 4.876955e+002
4.012306e+002, 4.827217e+002
4.017127e+002, 4.774865e+002
4.021948e+002, 4.721188e+002
4.026769e+002, 4.662030e+002
4.031591e+002, 4.611337e+002
4.036412e+002, 4.574385e+002
4.041233e+002, 4.544424e+002
4.046054e+002, 4.499992e+002
4.050875e+002, 4.433070e+002
4.055696e+002, 4.376716e+002
4.060518e+002, 4.346886e+002
4.065339e+002, 4.344335e+002
4.070160e+002, 4.346136e+002
4.074981e+002, 4.356320e+002
4.079802e+002, 4.359745e+002
4.084623e+002, 4.330180e+002
4.089445e+002, 4.268444e+002
4.094266e+002, 4.222204e+002
4.099087e+002, 4.207438e+002
4.103908e+002, 4.213061e+002
4.108729e+002, 4.214843e+002
4.113550e+002, 4.212939e+002
4.118372e+002, 4.210972e+002
4.123193e+002, 4.211583e+002
4.128014e+002, 4.214052e+002
4.132835e+002, 4.217238e+002
